##NAMES=Pseudoboleite
##RRUFFID=R130548
##IDEAL CHEMISTRY=Pb^2+^_31_Cu^2+^_24_Cl_62_(OH)_48_
##LOCALITY=Sierra Gorda, Antofagasta, Chile
##OWNER=RRUFF
##SOURCE=Bob Jenkins
##DESCRIPTION=Indigo blue cubic or short prismatic crystals, associated with colorless quartz
##STATUS=The identification of this mineral has been confirmed by single-crystal X-ray diffraction.
##URL=rruff.info/R130548
8.936163e+001, 0.000000e+000
8.984375e+001, 3.910786e+002
9.032587e+001, 3.945347e+002
9.080798e+001, 3.952530e+002
9.129010e+001, 3.923320e+002
9.177222e+001, 3.877128e+002
9.225433e+001, 3.834445e+002
9.273645e+001, 3.795042e+002
9.321857e+001, 3.758524e+002
9.370068e+001, 3.731162e+002
9.418280e+001, 3.708139e+002
9.466492e+001, 3.673480e+002
9.514703e+001, 3.614307e+002
9.562915e+001, 3.541382e+002
9.611127e+001, 3.483613e+002
9.659338e+001, 3.442587e+002
9.707550e+001, 3.410752e+002
9.755762e+001, 3.379678e+002
9.803973e+001, 3.349217e+002
9.852185e+001, 3.321171e+002
9.900397e+001, 3.297007e+002
9.948608e+001, 3.276738e+002
9.996820e+001, 3.255938e+002
1.004503e+002, 3.235656e+002
1.009324e+002, 3.213288e+002
1.014146e+002, 3.181826e+002
1.018967e+002, 3.137832e+002
1.023788e+002, 3.093788e+002
1.028609e+002, 3.054779e+002
1.033430e+002, 3.020436e+002
1.038251e+002, 2.994319e+002
1.043073e+002, 2.981330e+002
1.047894e+002, 2.977604e+002
1.052715e+002, 2.962365e+002
1.057536e+002, 2.928822e+002
1.062357e+002, 2.891114e+002
1.067178e+002, 2.858525e+002
1.072000e+002, 2.834487e+002
1.076821e+002, 2.811039e+002
1.081642e+002, 2.787794e+002
1.086463e+002, 2.764855e+002
1.091284e+002, 2.740776e+002
1.096105e+002, 2.716132e+002
1.100927e+002, 2.690036e+002
1.105748e+002, 2.661935e+002
1.110569e+002, 2.625735e+002
1.115390e+002, 2.593247e+002
1.120211e+002, 2.569507e+002
1.125032e+002, 2.558633e+002
1.129854e+002, 2.541707e+002
1.134675e+002, 2.511348e+002
1.139496e+002, 2.474456e+002
1.144317e+002, 2.440557e+002
1.149138e+002, 2.407553e+002
1.153959e+002, 2.381523e+002
1.158781e+002, 2.368019e+002
1.163602e+002, 2.377508e+002
1.168423e+002, 2.378850e+002
1.173244e+002, 2.354889e+002
1.178065e+002, 2.313701e+002
1.182886e+002, 2.275841e+002
1.187708e+002, 2.253591e+002
1.192529e+002, 2.236224e+002
1.197350e+002, 2.215225e+002
1.202171e+002, 2.183563e+002
1.206992e+002, 2.153459e+002
1.211813e+002, 2.133849e+002
1.216635e+002, 2.123378e+002
1.221456e+002, 2.115183e+002
1.226277e+002, 2.108448e+002
1.231098e+002, 2.100650e+002
1.235919e+002, 2.088394e+002
1.240740e+002, 2.067578e+002
1.245562e+002, 2.043437e+002
1.250383e+002, 2.020188e+002
1.255204e+002, 1.997729e+002
1.260025e+002, 1.978859e+002
1.264846e+002, 1.969073e+002
1.269667e+002, 1.965155e+002
1.274489e+002, 1.959065e+002
1.279310e+002, 1.947175e+002
1.284131e+002, 1.930793e+002
1.288952e+002, 1.911922e+002
1.293773e+002, 1.890258e+002
1.298594e+002, 1.867480e+002
1.303416e+002, 1.843020e+002
1.308237e+002, 1.817832e+002
1.313058e+002, 1.797222e+002
1.317879e+002, 1.785857e+002
1.322700e+002, 1.782137e+002
1.327521e+002, 1.778954e+002
1.332343e+002, 1.776606e+002
1.337164e+002, 1.773093e+002
1.341985e+002, 1.764021e+002
1.346806e+002, 1.749120e+002
1.351627e+002, 1.732169e+002
1.356448e+002, 1.715011e+002
1.361270e+002, 1.697543e+002
1.366091e+002, 1.681379e+002
1.370912e+002, 1.666485e+002
1.375733e+002, 1.653206e+002
1.380554e+002, 1.642033e+002
1.385375e+002, 1.633337e+002
1.390197e+002, 1.625581e+002
1.395018e+002, 1.617402e+002
1.399839e+002, 1.608658e+002
1.404660e+002, 1.600745e+002
1.409481e+002, 1.595205e+002
1.414302e+002, 1.591460e+002
1.419124e+002, 1.580997e+002
1.423945e+002, 1.561111e+002
1.428766e+002, 1.538349e+002
1.433587e+002, 1.518757e+002
1.438408e+002, 1.502486e+002
1.443229e+002, 1.489561e+002
1.448051e+002, 1.481147e+002
1.452872e+002, 1.478044e+002
1.457693e+002, 1.472586e+002
1.462514e+002, 1.463773e+002
1.467335e+002, 1.453180e+002
1.472156e+002, 1.442513e+002
1.476978e+002, 1.430915e+002
1.481799e+002, 1.420470e+002
1.486620e+002, 1.412122e+002
1.491441e+002, 1.407680e+002
1.496262e+002, 1.400544e+002
1.501083e+002, 1.388672e+002
1.505905e+002, 1.374548e+002
1.510726e+002, 1.362455e+002
1.515547e+002, 1.352988e+002
1.520368e+002, 1.345146e+002
1.525189e+002, 1.339010e+002
1.530010e+002, 1.337600e+002
1.534832e+002, 1.332650e+002
1.539653e+002, 1.320572e+002
1.544474e+002, 1.304418e+002
1.549295e+002, 1.291517e+002
1.554116e+002, 1.285302e+002
1.558937e+002, 1.280693e+002
1.563759e+002, 1.275356e+002
1.568580e+002, 1.266622e+002
1.573401e+002, 1.260305e+002
1.578222e+002, 1.259536e+002
1.583043e+002, 1.262644e+002
1.587864e+002, 1.263461e+002
1.592686e+002, 1.260342e+002
1.597507e+002, 1.254396e+002
1.602328e+002, 1.246315e+002
1.607149e+002, 1.234970e+002
1.611970e+002, 1.222808e+002
1.616791e+002, 1.209151e+002
1.621613e+002, 1.194722e+002
1.626434e+002, 1.182994e+002
1.631255e+002, 1.174731e+002
1.636076e+002, 1.170223e+002
1.640897e+002, 1.169728e+002
1.645718e+002, 1.179579e+002
1.650540e+002, 1.188301e+002
1.655361e+002, 1.188791e+002
1.660182e+002, 1.181327e+002
1.665003e+002, 1.174032e+002
1.669824e+002, 1.169999e+002
1.674645e+002, 1.168927e+002
1.679467e+002, 1.170460e+002
1.684288e+002, 1.173479e+002
1.689109e+002, 1.179698e+002
1.693930e+002, 1.190626e+002
1.698751e+002, 1.206444e+002
1.703572e+002, 1.225310e+002
1.708394e+002, 1.248749e+002
1.713215e+002, 1.274381e+002
1.718036e+002, 1.297826e+002
1.722857e+002, 1.314134e+002
1.727678e+002, 1.329151e+002
1.732499e+002, 1.345993e+002
1.737321e+002, 1.364042e+002
1.742142e+002, 1.391757e+002
1.746963e+002, 1.440677e+002
1.751784e+002, 1.505549e+002
1.756605e+002, 1.574229e+002
1.761426e+002, 1.636097e+002
1.766248e+002, 1.698985e+002
1.771069e+002, 1.773851e+002
1.775890e+002, 1.862974e+002
1.780711e+002, 1.960097e+002
1.785532e+002, 2.058586e+002
1.790353e+002, 2.160107e+002
1.795175e+002, 2.266718e+002
1.799996e+002, 2.381301e+002
1.804817e+002, 2.502016e+002
1.809638e+002, 2.629522e+002
1.814459e+002, 2.766662e+002
1.819280e+002, 2.903906e+002
1.824102e+002, 3.034542e+002
1.828923e+002, 3.156016e+002
1.833744e+002, 3.267812e+002
1.838565e+002, 3.360078e+002
1.843386e+002, 3.440788e+002
1.848207e+002, 3.531957e+002
1.853029e+002, 3.641711e+002
1.857850e+002, 3.755164e+002
1.862671e+002, 3.849616e+002
1.867492e+002, 3.925169e+002
1.872313e+002, 3.993690e+002
1.877134e+002, 4.058824e+002
1.881956e+002, 4.122782e+002
1.886777e+002, 4.194219e+002
1.891598e+002, 4.278525e+002
1.896419e+002, 4.367473e+002
1.901240e+002, 4.442031e+002
1.906061e+002, 4.502544e+002
1.910883e+002, 4.561214e+002
1.915704e+002, 4.626671e+002
1.920525e+002, 4.699273e+002
1.925346e+002, 4.777363e+002
1.930167e+002, 4.862256e+002
1.934988e+002, 4.947816e+002
1.939810e+002, 5.005001e+002
1.944631e+002, 5.027181e+002
1.949452e+002, 5.053931e+002
1.954273e+002, 5.100570e+002
1.959094e+002, 5.166387e+002
1.963915e+002, 5.228409e+002
1.968737e+002, 5.282238e+002
1.973558e+002, 5.329235e+002
1.978379e+002, 5.373624e+002
1.983200e+002, 5.414498e+002
1.988021e+002, 5.456624e+002
1.992842e+002, 5.505097e+002
1.997664e+002, 5.560665e+002
2.002485e+002, 5.613677e+002
2.007306e+002, 5.662945e+002
2.012127e+002, 5.708671e+002
2.016948e+002, 5.752657e+002
2.021769e+002, 5.795556e+002
2.026591e+002, 5.835734e+002
2.031412e+002, 5.870227e+002
2.036233e+002, 5.898537e+002
2.041054e+002, 5.927411e+002
2.045875e+002, 5.959400e+002
2.050696e+002, 5.993717e+002
2.055518e+002, 6.022800e+002
2.060339e+002, 6.046031e+002
2.065160e+002, 6.065544e+002
2.069981e+002, 6.084835e+002
2.074802e+002, 6.105430e+002
2.079623e+002, 6.117397e+002
2.084445e+002, 6.114785e+002
2.089266e+002, 6.098517e+002
2.094087e+002, 6.094491e+002
2.098908e+002, 6.106727e+002
2.103729e+002, 6.123389e+002
2.108550e+002, 6.131198e+002
2.113372e+002, 6.127704e+002
2.118193e+002, 6.123972e+002
2.123014e+002, 6.123302e+002
2.127835e+002, 6.125715e+002
2.132656e+002, 6.123321e+002
2.137477e+002, 6.112765e+002
2.142299e+002, 6.102036e+002
2.147120e+002, 6.101735e+002
2.151941e+002, 6.115886e+002
2.156762e+002, 6.128811e+002
2.161583e+002, 6.136271e+002
2.166404e+002, 6.137852e+002
2.171226e+002, 6.140232e+002
2.176047e+002, 6.144384e+002
2.180868e+002, 6.148118e+002
2.185689e+002, 6.148317e+002
2.190510e+002, 6.142958e+002
2.195331e+002, 6.138971e+002
2.200153e+002, 6.138662e+002
2.204974e+002, 6.142603e+002
2.209795e+002, 6.144984e+002
2.214616e+002, 6.147166e+002
2.219437e+002, 6.146699e+002
2.224258e+002, 6.139680e+002
2.229080e+002, 6.122961e+002
2.233901e+002, 6.106813e+002
2.238722e+002, 6.094807e+002
2.243543e+002, 6.087587e+002
2.248364e+002, 6.078090e+002
2.253185e+002, 6.068150e+002
2.258007e+002, 6.054234e+002
2.262828e+002, 6.031219e+002
2.267649e+002, 5.996824e+002
2.272470e+002, 5.957608e+002
2.277291e+002, 5.915428e+002
2.282112e+002, 5.869357e+002
2.286934e+002, 5.822326e+002
2.291755e+002, 5.774794e+002
2.296576e+002, 5.725820e+002
2.301397e+002, 5.674745e+002
2.306218e+002, 5.619072e+002
2.311039e+002, 5.564847e+002
2.315861e+002, 5.514946e+002
2.320682e+002, 5.469649e+002
2.325503e+002, 5.422482e+002
2.330324e+002, 5.372770e+002
2.335145e+002, 5.322239e+002
2.339966e+002, 5.271821e+002
2.344788e+002, 5.219636e+002
2.349609e+002, 5.171878e+002
2.354430e+002, 5.132012e+002
2.359251e+002, 5.102115e+002
2.364072e+002, 5.064813e+002
2.368893e+002, 5.014694e+002
2.373715e+002, 4.961527e+002
2.378536e+002, 4.917732e+002
2.383357e+002, 4.886088e+002
2.388178e+002, 4.857979e+002
2.392999e+002, 4.832198e+002
2.397820e+002, 4.809660e+002
2.402642e+002, 4.783463e+002
2.407463e+002, 4.751923e+002
2.412284e+002, 4.717948e+002
2.417105e+002, 4.685360e+002
2.421926e+002, 4.656336e+002
2.426747e+002, 4.624565e+002
2.431569e+002, 4.587590e+002
2.436390e+002, 4.544159e+002
2.441211e+002, 4.504570e+002
2.446032e+002, 4.469610e+002
2.450853e+002, 4.437435e+002
2.455674e+002, 4.405768e+002
2.460496e+002, 4.373336e+002
2.465317e+002, 4.343950e+002
2.470138e+002, 4.319758e+002
2.474959e+002, 4.301606e+002
2.479780e+002, 4.278095e+002
2.484601e+002, 4.245963e+002
2.489423e+002, 4.211700e+002
2.494244e+002, 4.183014e+002
2.499065e+002, 4.164085e+002
2.503886e+002, 4.142541e+002
2.508707e+002, 4.114096e+002
2.513528e+002, 4.078486e+002
2.518350e+002, 4.048663e+002
2.523171e+002, 4.027736e+002
2.527992e+002, 4.009554e+002
2.532813e+002, 3.987641e+002
2.537634e+002, 3.960092e+002
2.542455e+002, 3.933341e+002
2.547277e+002, 3.909155e+002
2.552098e+002, 3.887447e+002
2.556919e+002, 3.863742e+002
2.561740e+002, 3.838139e+002
2.566561e+002, 3.810309e+002
2.571382e+002, 3.780162e+002
2.576204e+002, 3.746793e+002
2.581025e+002, 3.712711e+002
2.585846e+002, 3.679113e+002
2.590667e+002, 3.645728e+002
2.595488e+002, 3.609058e+002
2.600309e+002, 3.568881e+002
2.605131e+002, 3.526884e+002
2.609952e+002, 3.484898e+002
2.614773e+002, 3.441981e+002
2.619594e+002, 3.401250e+002
2.624415e+002, 3.364961e+002
2.629236e+002, 3.332051e+002
2.634058e+002, 3.293535e+002
2.638879e+002, 3.244590e+002
2.643700e+002, 3.197599e+002
2.648521e+002, 3.163185e+002
2.653342e+002, 3.147002e+002
2.658163e+002, 3.124779e+002
2.662985e+002, 3.090445e+002
2.667806e+002, 3.047173e+002
2.672627e+002, 3.013443e+002
2.677448e+002, 2.993515e+002
2.682269e+002, 2.974566e+002
2.687090e+002, 2.945413e+002
2.691912e+002, 2.901656e+002
2.696733e+002, 2.865779e+002
2.701554e+002, 2.842832e+002
2.706375e+002, 2.829036e+002
2.711196e+002, 2.809717e+002
2.716017e+002, 2.783125e+002
2.720839e+002, 2.755858e+002
2.725660e+002, 2.732435e+002
2.730481e+002, 2.712826e+002
2.735302e+002, 2.696826e+002
2.740123e+002, 2.685434e+002
2.744944e+002, 2.676867e+002
2.749766e+002, 2.665844e+002
2.754587e+002, 2.652196e+002
2.759408e+002, 2.636994e+002
2.764229e+002, 2.620731e+002
2.769050e+002, 2.603205e+002
2.773871e+002, 2.586183e+002
2.778693e+002, 2.569238e+002
2.783514e+002, 2.553517e+002
2.788335e+002, 2.542021e+002
2.793156e+002, 2.535105e+002
2.797977e+002, 2.529712e+002
2.802798e+002, 2.525294e+002
2.807620e+002, 2.521912e+002
2.812441e+002, 2.514062e+002
2.817262e+002, 2.499724e+002
2.822083e+002, 2.483932e+002
2.826904e+002, 2.476584e+002
2.831725e+002, 2.478192e+002
2.836547e+002, 2.480527e+002
2.841368e+002, 2.479884e+002
2.846189e+002, 2.476420e+002
2.851010e+002, 2.470851e+002
2.855831e+002, 2.462000e+002
2.860652e+002, 2.454386e+002
2.865474e+002, 2.456664e+002
2.870295e+002, 2.468601e+002
2.875116e+002, 2.478983e+002
2.879937e+002, 2.480171e+002
2.884758e+002, 2.474636e+002
2.889579e+002, 2.477975e+002
2.894401e+002, 2.491498e+002
2.899222e+002, 2.507175e+002
2.904043e+002, 2.513232e+002
2.908864e+002, 2.511174e+002
2.913685e+002, 2.513261e+002
2.918506e+002, 2.526656e+002
2.923328e+002, 2.547365e+002
2.928149e+002, 2.562679e+002
2.932970e+002, 2.572302e+002
2.937791e+002, 2.581129e+002
2.942612e+002, 2.593765e+002
2.947433e+002, 2.609719e+002
2.952255e+002, 2.626862e+002
2.957076e+002, 2.643430e+002
2.961897e+002, 2.661248e+002
2.966718e+002, 2.685350e+002
2.971539e+002, 2.715448e+002
2.976360e+002, 2.744665e+002
2.981182e+002, 2.767525e+002
2.986003e+002, 2.784825e+002
2.990824e+002, 2.798875e+002
2.995645e+002, 2.809226e+002
3.000466e+002, 2.817804e+002
3.005287e+002, 2.827386e+002
3.010109e+002, 2.837779e+002
3.014930e+002, 2.847961e+002
3.019751e+002, 2.861529e+002
3.024572e+002, 2.873552e+002
3.029393e+002, 2.875183e+002
3.034214e+002, 2.863544e+002
3.039036e+002, 2.842909e+002
3.043857e+002, 2.814841e+002
3.048678e+002, 2.780918e+002
3.053499e+002, 2.746153e+002
3.058320e+002, 2.716137e+002
3.063141e+002, 2.686297e+002
3.067963e+002, 2.651386e+002
3.072784e+002, 2.609382e+002
3.077605e+002, 2.564495e+002
3.082426e+002, 2.516528e+002
3.087247e+002, 2.467923e+002
3.092068e+002, 2.424561e+002
3.096890e+002, 2.390913e+002
3.101711e+002, 2.362823e+002
3.106532e+002, 2.338781e+002
3.111353e+002, 2.319827e+002
3.116174e+002, 2.298461e+002
3.120995e+002, 2.267870e+002
3.125817e+002, 2.232238e+002
3.130638e+002, 2.197949e+002
3.135459e+002, 2.163640e+002
3.140280e+002, 2.134105e+002
3.145101e+002, 2.114513e+002
3.149922e+002, 2.105922e+002
3.154744e+002, 2.096107e+002
3.159565e+002, 2.077744e+002
3.164386e+002, 2.055634e+002
3.169207e+002, 2.035487e+002
3.174028e+002, 2.019424e+002
3.178849e+002, 2.005226e+002
3.183671e+002, 1.992303e+002
3.188492e+002, 1.980517e+002
3.193313e+002, 1.969690e+002
3.198134e+002, 1.960482e+002
3.202955e+002, 1.951776e+002
3.207776e+002, 1.942781e+002
3.212598e+002, 1.932030e+002
3.217419e+002, 1.922196e+002
3.222240e+002, 1.914842e+002
3.227061e+002, 1.909293e+002
3.231882e+002, 1.902110e+002
3.236703e+002, 1.888271e+002
3.241525e+002, 1.875550e+002
3.246346e+002, 1.868483e+002
3.251167e+002, 1.872793e+002
3.255988e+002, 1.875461e+002
3.260809e+002, 1.874977e+002
3.265630e+002, 1.872030e+002
3.270452e+002, 1.868474e+002
3.275273e+002, 1.861496e+002
3.280094e+002, 1.856524e+002
3.284915e+002, 1.855912e+002
3.289736e+002, 1.862561e+002
3.294557e+002, 1.867193e+002
3.299379e+002, 1.869918e+002
3.304200e+002, 1.870583e+002
3.309021e+002, 1.868642e+002
3.313842e+002, 1.860320e+002
3.318663e+002, 1.854339e+002
3.323484e+002, 1.853445e+002
3.328306e+002, 1.858396e+002
3.333127e+002, 1.863531e+002
3.337948e+002, 1.869736e+002
3.342769e+002, 1.875321e+002
3.347590e+002, 1.878108e+002
3.352411e+002, 1.876754e+002
3.357233e+002, 1.875577e+002
3.362054e+002, 1.874836e+002
3.366875e+002, 1.874711e+002
3.371696e+002, 1.878541e+002
3.376517e+002, 1.887980e+002
3.381339e+002, 1.898244e+002
3.386160e+002, 1.904644e+002
3.390981e+002, 1.905979e+002
3.395802e+002, 1.909914e+002
3.400623e+002, 1.918240e+002
3.405444e+002, 1.929594e+002
3.410266e+002, 1.938753e+002
3.415087e+002, 1.945433e+002
3.419908e+002, 1.951744e+002
3.424729e+002, 1.959762e+002
3.429550e+002, 1.969370e+002
3.434371e+002, 1.976038e+002
3.439193e+002, 1.978642e+002
3.444014e+002, 1.979415e+002
3.448835e+002, 1.981789e+002
3.453656e+002, 1.985765e+002
3.458477e+002, 1.991507e+002
3.463298e+002, 1.999277e+002
3.468120e+002, 2.008985e+002
3.472941e+002, 2.020700e+002
3.477762e+002, 2.035077e+002
3.482583e+002, 2.048657e+002
3.487404e+002, 2.054753e+002
3.492225e+002, 2.055654e+002
3.497047e+002, 2.061265e+002
3.501868e+002, 2.080460e+002
3.506689e+002, 2.104402e+002
3.511510e+002, 2.115603e+002
3.516331e+002, 2.114234e+002
3.521152e+002, 2.112389e+002
3.525974e+002, 2.119625e+002
3.530795e+002, 2.133542e+002
3.535616e+002, 2.150221e+002
3.540437e+002, 2.171013e+002
3.545258e+002, 2.190923e+002
3.550079e+002, 2.203776e+002
3.554901e+002, 2.210871e+002
3.559722e+002, 2.218308e+002
3.564543e+002, 2.230234e+002
3.569364e+002, 2.244220e+002
3.574185e+002, 2.258041e+002
3.579006e+002, 2.271367e+002
3.583828e+002, 2.284263e+002
3.588649e+002, 2.297978e+002
3.593470e+002, 2.311355e+002
3.598291e+002, 2.322189e+002
3.603112e+002, 2.329492e+002
3.607933e+002, 2.333960e+002
3.612755e+002, 2.335466e+002
3.617576e+002, 2.333637e+002
3.622397e+002, 2.331474e+002
3.627218e+002, 2.333664e+002
3.632039e+002, 2.334838e+002
3.636860e+002, 2.329007e+002
3.641682e+002, 2.308323e+002
3.646503e+002, 2.286374e+002
3.651324e+002, 2.268151e+002
3.656145e+002, 2.253406e+002
3.660966e+002, 2.237043e+002
3.665787e+002, 2.219940e+002
3.670609e+002, 2.199904e+002
3.675430e+002, 2.175531e+002
3.680251e+002, 2.141131e+002
3.685072e+002, 2.108783e+002
3.689893e+002, 2.080620e+002
3.694714e+002, 2.055468e+002
3.699536e+002, 2.030279e+002
3.704357e+002, 2.004294e+002
3.709178e+002, 1.978972e+002
3.713999e+002, 1.954871e+002
3.718820e+002, 1.930985e+002
3.723641e+002, 1.910687e+002
3.728463e+002, 1.895862e+002
3.733284e+002, 1.883587e+002
3.738105e+002, 1.869140e+002
3.742926e+002, 1.851611e+002
3.747747e+002, 1.833736e+002
3.752568e+002, 1.815537e+002
3.757390e+002, 1.796905e+002
3.762211e+002, 1.781742e+002
3.767032e+002, 1.770737e+002
3.771853e+002, 1.761395e+002
3.776674e+002, 1.751181e+002
3.781495e+002, 1.739970e+002
3.786317e+002, 1.728541e+002
3.791138e+002, 1.716885e+002
3.795959e+002, 1.705136e+002
3.800780e+002, 1.693064e+002
3.805601e+002, 1.680655e+002
3.810422e+002, 1.668860e+002
3.815244e+002, 1.658796e+002
3.820065e+002, 1.650053e+002
3.824886e+002, 1.640668e+002
3.829707e+002, 1.630120e+002
3.834528e+002, 1.619646e+002
3.839349e+002, 1.611106e+002
3.844171e+002, 1.604195e+002
3.848992e+002, 1.597294e+002
3.853813e+002, 1.589674e+002
3.858634e+002, 1.581431e+002
3.863455e+002, 1.572050e+002
3.868276e+002, 1.561476e+002
3.873098e+002, 1.551566e+002
3.877919e+002, 1.545435e+002
3.882740e+002, 1.540747e+002
3.887561e+002, 1.533153e+002
3.892382e+002, 1.516729e+002
3.897203e+002, 1.501103e+002
3.902025e+002, 1.496339e+002
3.906846e+002, 1.500412e+002
3.911667e+002, 1.503706e+002
3.916488e+002, 1.501456e+002
3.921309e+002, 1.495745e+002
3.926130e+002, 1.487910e+002
3.930952e+002, 1.477298e+002
3.935773e+002, 1.466906e+002
3.940594e+002, 1.457452e+002
3.945415e+002, 1.449233e+002
3.950236e+002, 1.442798e+002
3.955057e+002, 1.439719e+002
3.959879e+002, 1.437253e+002
3.964700e+002, 1.434615e+002
3.969521e+002, 1.431892e+002
3.974342e+002, 1.428106e+002
3.979163e+002, 1.421767e+002
3.983984e+002, 1.414954e+002
3.988806e+002, 1.409560e+002
3.993627e+002, 1.405587e+002
3.998448e+002, 1.403229e+002
4.003269e+002, 1.403434e+002
4.008090e+002, 1.405717e+002
4.012911e+002, 1.406570e+002
4.017733e+002, 1.406663e+002
4.022554e+002, 1.404560e+002
4.027375e+002, 1.398378e+002
4.032196e+002, 1.383189e+002
4.037017e+002, 1.377182e+002
4.041838e+002, 1.384928e+002
4.046660e+002, 1.398625e+002
4.051481e+002, 1.402542e+002
4.056302e+002, 1.394140e+002
4.061123e+002, 1.385399e+002
4.065944e+002, 1.380132e+002
4.070765e+002, 1.378267e+002
4.075587e+002, 1.378925e+002
4.080408e+002, 1.382617e+002
4.085229e+002, 1.386848e+002
4.090050e+002, 1.388847e+002
4.094871e+002, 1.388754e+002
4.099692e+002, 1.389072e+002
4.104514e+002, 1.390872e+002
4.109335e+002, 1.392784e+002
4.114156e+002, 1.390563e+002
4.118977e+002, 1.384709e+002
4.123798e+002, 1.380898e+002
4.128619e+002, 1.385222e+002
4.133441e+002, 1.393855e+002
4.138262e+002, 1.399989e+002
4.143083e+002, 1.403131e+002
4.147904e+002, 1.402545e+002
4.152725e+002, 1.394411e+002
4.157546e+002, 1.382146e+002
4.162368e+002, 1.372627e+002
4.167189e+002, 1.370102e+002
4.172010e+002, 1.370848e+002
4.176831e+002, 1.373783e+002
4.181652e+002, 1.378485e+002
4.186473e+002, 1.379998e+002
4.191295e+002, 1.371880e+002
4.196116e+002, 1.361205e+002
4.200937e+002, 1.354461e+002
4.205758e+002, 1.355346e+002
4.210579e+002, 1.357107e+002
4.215400e+002, 1.358318e+002
4.220222e+002, 1.358807e+002
4.225043e+002, 1.358184e+002
4.229864e+002, 1.353839e+002
4.234685e+002, 1.350593e+002
4.239506e+002, 1.351026e+002
4.244327e+002, 1.357249e+002
4.249149e+002, 1.360464e+002
4.253970e+002, 1.357711e+002
4.258791e+002, 1.353306e+002
4.263612e+002, 1.351494e+002
4.268433e+002, 1.353576e+002
4.273254e+002, 1.356280e+002
4.278076e+002, 1.359723e+002
4.282897e+002, 1.363581e+002
4.287718e+002, 1.364996e+002
4.292539e+002, 1.362523e+002
4.297360e+002, 1.360446e+002
4.302181e+002, 1.361750e+002
4.307003e+002, 1.367076e+002
4.311824e+002, 1.371385e+002
4.316645e+002, 1.374245e+002
4.321466e+002, 1.376391e+002
4.326287e+002, 1.378176e+002
4.331108e+002, 1.379537e+002
4.335930e+002, 1.383770e+002
4.340751e+002, 1.395117e+002
4.345572e+002, 1.409942e+002
4.350393e+002, 1.413981e+002
4.355214e+002, 1.406973e+002
4.360035e+002, 1.399765e+002
4.364857e+002, 1.402523e+002
4.369678e+002, 1.412478e+002
4.374499e+002, 1.423181e+002
4.379320e+002, 1.433521e+002
4.384141e+002, 1.443513e+002
4.388962e+002, 1.452655e+002
4.393784e+002, 1.461358e+002
4.398605e+002, 1.470847e+002
4.403426e+002, 1.482791e+002
4.408247e+002, 1.495117e+002
4.413068e+002, 1.506367e+002
4.417889e+002, 1.516292e+002
4.422711e+002, 1.525276e+002
4.427532e+002, 1.531021e+002
4.432353e+002, 1.536905e+002
4.437174e+002, 1.546439e+002
4.441995e+002, 1.561969e+002
4.446816e+002, 1.579835e+002
4.451638e+002, 1.598138e+002
4.456459e+002, 1.617575e+002
4.461280e+002, 1.642081e+002
4.466101e+002, 1.683678e+002
4.470922e+002, 1.720968e+002
4.475743e+002, 1.743016e+002
4.480565e+002, 1.740120e+002
4.485386e+002, 1.746018e+002
4.490207e+002, 1.764334e+002
4.495028e+002, 1.789149e+002
4.499849e+002, 1.812123e+002
4.504670e+002, 1.830636e+002
4.509492e+002, 1.853962e+002
4.514313e+002, 1.885875e+002
4.519134e+002, 1.924743e+002
4.523955e+002, 1.957494e+002
4.528776e+002, 1.982534e+002
4.533597e+002, 2.005016e+002
4.538419e+002, 2.027081e+002
4.543240e+002, 2.048643e+002
4.548061e+002, 2.074577e+002
4.552882e+002, 2.106103e+002
4.557703e+002, 2.139360e+002
4.562524e+002, 2.168746e+002
4.567346e+002, 2.194653e+002
4.572167e+002, 2.216934e+002
4.576988e+002, 2.235205e+002
4.581809e+002, 2.250386e+002
4.586630e+002, 2.265037e+002
4.591451e+002, 2.278858e+002
4.596273e+002, 2.289444e+002
4.601094e+002, 2.295433e+002
4.605915e+002, 2.296749e+002
4.610736e+002, 2.293221e+002
4.615557e+002, 2.284484e+002
4.620378e+002, 2.271579e+002
4.625200e+002, 2.255336e+002
4.630021e+002, 2.235378e+002
4.634842e+002, 2.211254e+002
4.639663e+002, 2.180944e+002
4.644484e+002, 2.147926e+002
4.649305e+002, 2.113675e+002
4.654127e+002, 2.078197e+002
4.658948e+002, 2.043384e+002
4.663769e+002, 2.010373e+002
4.668590e+002, 1.978014e+002
4.673411e+002, 1.945637e+002
4.678232e+002, 1.913018e+002
4.683054e+002, 1.879824e+002
4.687875e+002, 1.844992e+002
4.692696e+002, 1.810057e+002
4.697517e+002, 1.778180e+002
4.702338e+002, 1.748080e+002
4.707159e+002, 1.724033e+002
4.711981e+002, 1.709752e+002
4.716802e+002, 1.705847e+002
4.721623e+002, 1.694424e+002
4.726444e+002, 1.673411e+002
4.731265e+002, 1.650912e+002
4.736086e+002, 1.635235e+002
4.740908e+002, 1.626292e+002
4.745729e+002, 1.619173e+002
4.750550e+002, 1.613300e+002
4.755371e+002, 1.608308e+002
4.760192e+002, 1.603688e+002
4.765013e+002, 1.599377e+002
4.769835e+002, 1.595149e+002
4.774656e+002, 1.590464e+002
4.779477e+002, 1.585867e+002
4.784298e+002, 1.582495e+002
4.789119e+002, 1.580422e+002
4.793940e+002, 1.578386e+002
4.798762e+002, 1.573069e+002
4.803583e+002, 1.567937e+002
4.808404e+002, 1.568081e+002
4.813225e+002, 1.581026e+002
4.818046e+002, 1.591319e+002
4.822867e+002, 1.588026e+002
4.827689e+002, 1.575757e+002
4.832510e+002, 1.566343e+002
4.837331e+002, 1.566169e+002
4.842152e+002, 1.567575e+002
4.846973e+002, 1.567241e+002
4.851794e+002, 1.564568e+002
4.856616e+002, 1.562127e+002
4.861437e+002, 1.559364e+002
4.866258e+002, 1.557402e+002
4.871079e+002, 1.557217e+002
4.875900e+002, 1.560227e+002
4.880721e+002, 1.562614e+002
4.885543e+002, 1.564645e+002
4.890364e+002, 1.565622e+002
4.895185e+002, 1.562742e+002
4.900006e+002, 1.554490e+002
4.904827e+002, 1.547154e+002
4.909648e+002, 1.543624e+002
4.914470e+002, 1.543724e+002
4.919291e+002, 1.545249e+002
4.924112e+002, 1.548661e+002
4.928933e+002, 1.551218e+002
4.933754e+002, 1.549419e+002
4.938575e+002, 1.544167e+002
4.943397e+002, 1.539294e+002
4.948218e+002, 1.535590e+002
4.953039e+002, 1.532849e+002
4.957860e+002, 1.532096e+002
4.962681e+002, 1.532432e+002
4.967502e+002, 1.530760e+002
4.972324e+002, 1.521575e+002
4.977145e+002, 1.512013e+002
4.981966e+002, 1.510605e+002
4.986787e+002, 1.517782e+002
4.991608e+002, 1.522416e+002
4.996429e+002, 1.516449e+002
5.001251e+002, 1.506432e+002
5.006072e+002, 1.497862e+002
5.010893e+002, 1.490552e+002
5.015714e+002, 1.486875e+002
5.020535e+002, 1.491452e+002
5.025356e+002, 1.499841e+002
5.030178e+002, 1.501935e+002
5.034999e+002, 1.490641e+002
5.039820e+002, 1.479900e+002
5.044641e+002, 1.474141e+002
5.049462e+002, 1.473721e+002
5.054283e+002, 1.468643e+002
5.059105e+002, 1.455440e+002
5.063926e+002, 1.443070e+002
5.068747e+002, 1.439498e+002
5.073568e+002, 1.446438e+002
5.078389e+002, 1.450368e+002
5.083210e+002, 1.449412e+002
5.088032e+002, 1.446041e+002
5.092853e+002, 1.444878e+002
5.097674e+002, 1.445714e+002
5.102495e+002, 1.445263e+002
5.107316e+002, 1.442618e+002
5.112137e+002, 1.437545e+002
5.116959e+002, 1.428109e+002
5.121780e+002, 1.414737e+002
5.126601e+002, 1.402179e+002
5.131422e+002, 1.392610e+002
5.136243e+002, 1.386440e+002
5.141064e+002, 1.386009e+002
5.145886e+002, 1.394321e+002
5.150707e+002, 1.398793e+002
5.155528e+002, 1.385847e+002
5.160349e+002, 1.365629e+002
5.165170e+002, 1.352605e+002
5.169991e+002, 1.359749e+002
5.174813e+002, 1.366343e+002
5.179634e+002, 1.365823e+002
5.184455e+002, 1.358637e+002
5.189276e+002, 1.349597e+002
5.194097e+002, 1.335681e+002
5.198918e+002, 1.323234e+002
5.203740e+002, 1.315266e+002
5.208561e+002, 1.313346e+002
5.213382e+002, 1.310294e+002
5.218203e+002, 1.304574e+002
5.223024e+002, 1.299458e+002
5.227845e+002, 1.300486e+002
5.232667e+002, 1.309870e+002
5.237488e+002, 1.312085e+002
5.242309e+002, 1.301655e+002
5.247130e+002, 1.284416e+002
5.251951e+002, 1.275462e+002
5.256772e+002, 1.274613e+002
5.261594e+002, 1.274408e+002
5.266415e+002, 1.271381e+002
5.271236e+002, 1.265808e+002
5.276057e+002, 1.257242e+002
5.280878e+002, 1.245675e+002
5.285699e+002, 1.235079e+002
5.290521e+002, 1.229628e+002
5.295342e+002, 1.226967e+002
5.300163e+002, 1.224021e+002
5.304984e+002, 1.219765e+002
5.309805e+002, 1.215567e+002
5.314626e+002, 1.212318e+002
5.319448e+002, 1.209676e+002
5.324269e+002, 1.206987e+002
5.329090e+002, 1.202790e+002
5.333911e+002, 1.199697e+002
5.338732e+002, 1.199685e+002
5.343553e+002, 1.202954e+002
5.348375e+002, 1.202860e+002
5.353196e+002, 1.196466e+002
5.358017e+002, 1.189434e+002
5.362838e+002, 1.185137e+002
5.367659e+002, 1.185253e+002
5.372480e+002, 1.182971e+002
5.377302e+002, 1.177290e+002
5.382123e+002, 1.170485e+002
5.386944e+002, 1.166497e+002
5.391765e+002, 1.165582e+002
5.396586e+002, 1.163231e+002
5.401407e+002, 1.157549e+002
5.406229e+002, 1.150318e+002
5.411050e+002, 1.146312e+002
5.415871e+002, 1.145254e+002
5.420692e+002, 1.144222e+002
5.425513e+002, 1.140662e+002
5.430334e+002, 1.136252e+002
5.435156e+002, 1.134340e+002
5.439977e+002, 1.135307e+002
5.444798e+002, 1.134873e+002
5.449619e+002, 1.127975e+002
5.454440e+002, 1.118927e+002
5.459261e+002, 1.112392e+002
5.464083e+002, 1.109835e+002
5.468904e+002, 1.109586e+002
5.473725e+002, 1.113460e+002
5.478546e+002, 1.119095e+002
5.483367e+002, 1.121547e+002
5.488188e+002, 1.117114e+002
5.493010e+002, 1.112471e+002
5.497831e+002, 1.108900e+002
5.502652e+002, 1.106398e+002
5.507473e+002, 1.105292e+002
5.512294e+002, 1.106264e+002
5.517115e+002, 1.107483e+002
5.521937e+002, 1.108198e+002
5.526758e+002, 1.108582e+002
5.531579e+002, 1.106337e+002
5.536400e+002, 1.100501e+002
5.541221e+002, 1.094501e+002
5.546042e+002, 1.094255e+002
5.550864e+002, 1.098648e+002
5.555685e+002, 1.100456e+002
5.560506e+002, 1.096438e+002
5.565327e+002, 1.090167e+002
5.570148e+002, 1.085755e+002
5.574969e+002, 1.083225e+002
5.579791e+002, 1.082694e+002
5.584612e+002, 1.086554e+002
5.589433e+002, 1.090833e+002
5.594254e+002, 1.092231e+002
5.599075e+002, 1.090500e+002
5.603896e+002, 1.087618e+002
5.608718e+002, 1.083256e+002
5.613539e+002, 1.078777e+002
5.618360e+002, 1.075180e+002
5.623181e+002, 1.072514e+002
5.628002e+002, 1.070958e+002
5.632823e+002, 1.071375e+002
5.637645e+002, 1.072532e+002
5.642466e+002, 1.072548e+002
5.647287e+002, 1.071151e+002
5.652108e+002, 1.069225e+002
5.656929e+002, 1.066669e+002
5.661750e+002, 1.063790e+002
5.666572e+002, 1.062139e+002
5.671393e+002, 1.061928e+002
5.676214e+002, 1.061433e+002
5.681035e+002, 1.058789e+002
5.685856e+002, 1.054899e+002
5.690677e+002, 1.053667e+002
5.695499e+002, 1.055371e+002
5.700320e+002, 1.057340e+002
5.705141e+002, 1.057532e+002
5.709962e+002, 1.056191e+002
5.714783e+002, 1.053323e+002
5.719604e+002, 1.047539e+002
5.724426e+002, 1.043098e+002
5.729247e+002, 1.044009e+002
5.734068e+002, 1.047950e+002
5.738889e+002, 1.050782e+002
5.743710e+002, 1.050122e+002
5.748531e+002, 1.049182e+002
5.753353e+002, 1.049861e+002
5.758174e+002, 1.051875e+002
5.762995e+002, 1.050768e+002
5.767816e+002, 1.043280e+002
5.772637e+002, 1.036445e+002
5.777458e+002, 1.033656e+002
5.782280e+002, 1.035941e+002
5.787101e+002, 1.036776e+002
5.791922e+002, 1.035704e+002
5.796743e+002, 1.034178e+002
5.801564e+002, 1.033374e+002
5.806385e+002, 1.033319e+002
5.811207e+002, 1.035210e+002
5.816028e+002, 1.040214e+002
5.820849e+002, 1.045023e+002
5.825670e+002, 1.043647e+002
5.830491e+002, 1.037672e+002
5.835313e+002, 1.032146e+002
5.840134e+002, 1.029253e+002
5.844955e+002, 1.028072e+002
5.849776e+002, 1.028108e+002
5.854597e+002, 1.029241e+002
5.859418e+002, 1.030848e+002
5.864240e+002, 1.033174e+002
5.869061e+002, 1.035464e+002
5.873882e+002, 1.037213e+002
5.878703e+002, 1.038130e+002
5.883524e+002, 1.039389e+002
5.888345e+002, 1.043273e+002
5.893167e+002, 1.046126e+002
5.897988e+002, 1.044654e+002
5.902809e+002, 1.035897e+002
5.907630e+002, 1.029606e+002
5.912451e+002, 1.026805e+002
5.917272e+002, 1.026417e+002
5.922094e+002, 1.026961e+002
5.926915e+002, 1.028546e+002
5.931736e+002, 1.029110e+002
5.936557e+002, 1.026970e+002
5.941378e+002, 1.024015e+002
5.946199e+002, 1.025790e+002
5.951021e+002, 1.031681e+002
5.955842e+002, 1.036773e+002
5.960663e+002, 1.036589e+002
5.965484e+002, 1.034518e+002
5.970305e+002, 1.035596e+002
5.975126e+002, 1.040412e+002
5.979948e+002, 1.042325e+002
5.984769e+002, 1.034017e+002
5.989590e+002, 1.023196e+002
5.994411e+002, 1.016484e+002
5.999232e+002, 1.017319e+002
6.004053e+002, 1.018723e+002
6.008875e+002, 1.020263e+002
6.013696e+002, 1.021619e+002
6.018517e+002, 1.022185e+002
6.023338e+002, 1.021028e+002
6.028159e+002, 1.021119e+002
6.032980e+002, 1.024004e+002
6.037802e+002, 1.028222e+002
6.042623e+002, 1.027168e+002
6.047444e+002, 1.019939e+002
6.052265e+002, 1.015169e+002
6.057086e+002, 1.019517e+002
6.061907e+002, 1.029900e+002
6.066729e+002, 1.035515e+002
6.071550e+002, 1.036408e+002
6.076371e+002, 1.035885e+002
6.081192e+002, 1.037993e+002
6.086013e+002, 1.039658e+002
6.090834e+002, 1.035520e+002
6.095656e+002, 1.022772e+002
6.100477e+002, 1.012412e+002
6.105298e+002, 1.011506e+002
6.110119e+002, 1.015820e+002
6.114940e+002, 1.020610e+002
6.119761e+002, 1.027471e+002
6.124583e+002, 1.031549e+002
6.129404e+002, 1.030183e+002
6.134225e+002, 1.025911e+002
6.139046e+002, 1.024513e+002
6.143867e+002, 1.028028e+002
6.148688e+002, 1.030093e+002
6.153510e+002, 1.028018e+002
6.158331e+002, 1.022838e+002
6.163152e+002, 1.021499e+002
6.167973e+002, 1.024301e+002
6.172794e+002, 1.027752e+002
6.177615e+002, 1.029159e+002
6.182437e+002, 1.029361e+002
6.187258e+002, 1.031353e+002
6.192079e+002, 1.035387e+002
6.196900e+002, 1.038500e+002
6.201721e+002, 1.037337e+002
6.206542e+002, 1.034105e+002
6.211364e+002, 1.031279e+002
6.216185e+002, 1.028564e+002
6.221006e+002, 1.028249e+002
6.225827e+002, 1.034245e+002
6.230648e+002, 1.042360e+002
6.235469e+002, 1.046738e+002
6.240291e+002, 1.043177e+002
6.245112e+002, 1.039662e+002
6.249933e+002, 1.037091e+002
6.254754e+002, 1.035410e+002
6.259575e+002, 1.034154e+002
6.264396e+002, 1.032693e+002
6.269218e+002, 1.033717e+002
6.274039e+002, 1.040169e+002
6.278860e+002, 1.050285e+002
6.283681e+002, 1.051887e+002
6.288502e+002, 1.044680e+002
6.293323e+002, 1.036796e+002
6.298145e+002, 1.034843e+002
6.302966e+002, 1.036360e+002
6.307787e+002, 1.036366e+002
6.312608e+002, 1.034243e+002
6.317429e+002, 1.032517e+002
6.322250e+002, 1.034095e+002
6.327072e+002, 1.036580e+002
6.331893e+002, 1.037241e+002
6.336714e+002, 1.033692e+002
6.341535e+002, 1.031171e+002
6.346356e+002, 1.030937e+002
6.351177e+002, 1.032599e+002
6.355999e+002, 1.035605e+002
6.360820e+002, 1.041428e+002
6.365641e+002, 1.046207e+002
6.370462e+002, 1.049710e+002
6.375283e+002, 1.051632e+002
6.380104e+002, 1.049885e+002
6.384926e+002, 1.043511e+002
6.389747e+002, 1.039601e+002
6.394568e+002, 1.042751e+002
6.399389e+002, 1.050587e+002
6.404210e+002, 1.055268e+002
6.409031e+002, 1.056932e+002
6.413853e+002, 1.057070e+002
6.418674e+002, 1.056175e+002
6.423495e+002, 1.054691e+002
6.428316e+002, 1.052684e+002
6.433137e+002, 1.049963e+002
6.437958e+002, 1.048775e+002
6.442780e+002, 1.050802e+002
6.447601e+002, 1.054538e+002
6.452422e+002, 1.058706e+002
6.457243e+002, 1.063831e+002
6.462064e+002, 1.068198e+002
6.466885e+002, 1.071583e+002
6.471707e+002, 1.074260e+002
6.476528e+002, 1.076310e+002
6.481349e+002, 1.077219e+002
6.486170e+002, 1.079205e+002
6.490991e+002, 1.082864e+002
6.495812e+002, 1.087661e+002
6.500634e+002, 1.093583e+002
6.505455e+002, 1.100407e+002
6.510276e+002, 1.104100e+002
6.515097e+002, 1.099906e+002
6.519918e+002, 1.093257e+002
6.524739e+002, 1.093232e+002
6.529561e+002, 1.098811e+002
6.534382e+002, 1.104667e+002
6.539203e+002, 1.107268e+002
6.544024e+002, 1.109323e+002
6.548845e+002, 1.113379e+002
6.553666e+002, 1.120004e+002
6.558488e+002, 1.124246e+002
6.563309e+002, 1.122340e+002
6.568130e+002, 1.119743e+002
6.572951e+002, 1.120060e+002
6.577772e+002, 1.125532e+002
6.582593e+002, 1.127188e+002
6.587415e+002, 1.122560e+002
6.592236e+002, 1.118098e+002
6.597057e+002, 1.123593e+002
6.601878e+002, 1.138703e+002
6.606699e+002, 1.147212e+002
6.611520e+002, 1.144511e+002
6.616342e+002, 1.138174e+002
6.621163e+002, 1.136917e+002
6.625984e+002, 1.140534e+002
6.630805e+002, 1.148767e+002
6.635626e+002, 1.168912e+002
6.640447e+002, 1.185974e+002
6.645269e+002, 1.186317e+002
6.650090e+002, 1.174727e+002
6.654911e+002, 1.165268e+002
6.659732e+002, 1.161257e+002
6.664553e+002, 1.161112e+002
6.669374e+002, 1.166442e+002
6.674196e+002, 1.176634e+002
6.679017e+002, 1.182460e+002
6.683838e+002, 1.181535e+002
6.688659e+002, 1.180857e+002
6.693480e+002, 1.184469e+002
6.698301e+002, 1.192301e+002
6.703123e+002, 1.198387e+002
6.707944e+002, 1.202648e+002
6.712765e+002, 1.205916e+002
6.717586e+002, 1.208590e+002
6.722407e+002, 1.210919e+002
6.727228e+002, 1.213623e+002
6.732050e+002, 1.216972e+002
6.736871e+002, 1.219627e+002
6.741692e+002, 1.218989e+002
6.746513e+002, 1.217773e+002
6.751334e+002, 1.219222e+002
6.756155e+002, 1.225976e+002
6.760977e+002, 1.232697e+002
6.765798e+002, 1.239768e+002
6.770619e+002, 1.245461e+002
6.775440e+002, 1.246507e+002
6.780261e+002, 1.238589e+002
6.785082e+002, 1.235539e+002
6.789904e+002, 1.241430e+002
6.794725e+002, 1.252433e+002
6.799546e+002, 1.258181e+002
6.804367e+002, 1.258538e+002
6.809188e+002, 1.259851e+002
6.814009e+002, 1.265868e+002
6.818831e+002, 1.273811e+002
6.823652e+002, 1.278126e+002
6.828473e+002, 1.279463e+002
6.833294e+002, 1.280811e+002
6.838115e+002, 1.283905e+002
6.842936e+002, 1.287711e+002
6.847758e+002, 1.291924e+002
6.852579e+002, 1.296457e+002
6.857400e+002, 1.300102e+002
6.862221e+002, 1.300144e+002
6.867042e+002, 1.301237e+002
6.871863e+002, 1.306479e+002
6.876685e+002, 1.317767e+002
6.881506e+002, 1.324258e+002
6.886327e+002, 1.324053e+002
6.891148e+002, 1.323085e+002
6.895969e+002, 1.327164e+002
6.900790e+002, 1.335943e+002
6.905612e+002, 1.344093e+002
6.910433e+002, 1.351287e+002
6.915254e+002, 1.356586e+002
6.920075e+002, 1.356337e+002
6.924896e+002, 1.353752e+002
6.929717e+002, 1.355263e+002
6.934539e+002, 1.365079e+002
6.939360e+002, 1.374429e+002
6.944181e+002, 1.376770e+002
6.949002e+002, 1.375712e+002
6.953823e+002, 1.376871e+002
6.958644e+002, 1.383209e+002
6.963466e+002, 1.389861e+002
6.968287e+002, 1.397327e+002
6.973108e+002, 1.404418e+002
6.977929e+002, 1.407136e+002
6.982750e+002, 1.404029e+002
6.987571e+002, 1.402225e+002
6.992393e+002, 1.404521e+002
6.997214e+002, 1.409483e+002
7.002035e+002, 1.412732e+002
7.006856e+002, 1.414441e+002
7.011677e+002, 1.415952e+002
7.016498e+002, 1.417490e+002
7.021320e+002, 1.419577e+002
7.026141e+002, 1.422713e+002
7.030962e+002, 1.426922e+002
7.035783e+002, 1.432178e+002
7.040604e+002, 1.442804e+002
7.045425e+002, 1.450958e+002
7.050247e+002, 1.450528e+002
7.055068e+002, 1.438680e+002
7.059889e+002, 1.431899e+002
7.064710e+002, 1.432308e+002
7.069531e+002, 1.435118e+002
7.074352e+002, 1.438152e+002
7.079174e+002, 1.441732e+002
7.083995e+002, 1.441353e+002
7.088816e+002, 1.436420e+002
7.093637e+002, 1.430098e+002
7.098458e+002, 1.425597e+002
7.103279e+002, 1.422312e+002
7.108101e+002, 1.418378e+002
7.112922e+002, 1.413235e+002
7.117743e+002, 1.408701e+002
7.122564e+002, 1.406561e+002
7.127385e+002, 1.405647e+002
7.132206e+002, 1.404589e+002
7.137028e+002, 1.403732e+002
7.141849e+002, 1.401776e+002
7.146670e+002, 1.397176e+002
7.151491e+002, 1.391900e+002
7.156312e+002, 1.388797e+002
7.161133e+002, 1.389053e+002
7.165955e+002, 1.388152e+002
7.170776e+002, 1.385074e+002
7.175597e+002, 1.380726e+002
7.180418e+002, 1.377301e+002
7.185239e+002, 1.374607e+002
7.190060e+002, 1.370990e+002
7.194882e+002, 1.364321e+002
7.199703e+002, 1.357988e+002
7.204524e+002, 1.357712e+002
7.209345e+002, 1.361427e+002
7.214166e+002, 1.363036e+002
7.218987e+002, 1.356014e+002
7.223809e+002, 1.349697e+002
7.228630e+002, 1.349351e+002
7.233451e+002, 1.354366e+002
7.238272e+002, 1.358468e+002
7.243093e+002, 1.362246e+002
7.247914e+002, 1.363762e+002
7.252736e+002, 1.361729e+002
7.257557e+002, 1.356494e+002
7.262378e+002, 1.352080e+002
7.267199e+002, 1.348476e+002
7.272020e+002, 1.345538e+002
7.276841e+002, 1.342733e+002
7.281663e+002, 1.340590e+002
7.286484e+002, 1.341418e+002
7.291305e+002, 1.345102e+002
7.296126e+002, 1.347074e+002
7.300947e+002, 1.340673e+002
7.305768e+002, 1.333674e+002
7.310590e+002, 1.333589e+002
7.315411e+002, 1.343313e+002
7.320232e+002, 1.349357e+002
7.325053e+002, 1.345287e+002
7.329874e+002, 1.340027e+002
7.334695e+002, 1.339091e+002
7.339517e+002, 1.344031e+002
7.344338e+002, 1.348149e+002
7.349159e+002, 1.351784e+002
7.353980e+002, 1.353667e+002
7.358801e+002, 1.351009e+002
7.363622e+002, 1.345149e+002
7.368444e+002, 1.341633e+002
7.373265e+002, 1.341380e+002
7.378086e+002, 1.343340e+002
7.382907e+002, 1.347823e+002
7.387728e+002, 1.353455e+002
7.392549e+002, 1.358562e+002
7.397371e+002, 1.363683e+002
7.402192e+002, 1.366584e+002
7.407013e+002, 1.364418e+002
7.411834e+002, 1.360609e+002
7.416655e+002, 1.359836e+002
7.421476e+002, 1.363710e+002
7.426298e+002, 1.366710e+002
7.431119e+002, 1.367917e+002
7.435940e+002, 1.368272e+002
7.440761e+002, 1.369225e+002
7.445582e+002, 1.370772e+002
7.450403e+002, 1.373526e+002
7.455225e+002, 1.378898e+002
7.460046e+002, 1.383354e+002
7.464867e+002, 1.381162e+002
7.469688e+002, 1.374828e+002
7.474509e+002, 1.369776e+002
7.479330e+002, 1.368553e+002
7.484152e+002, 1.368720e+002
7.488973e+002, 1.370457e+002
7.493794e+002, 1.372935e+002
7.498615e+002, 1.373268e+002
7.503436e+002, 1.368976e+002
7.508257e+002, 1.367373e+002
7.513079e+002, 1.372233e+002
7.517900e+002, 1.380381e+002
7.522721e+002, 1.378358e+002
7.527542e+002, 1.366195e+002
7.532363e+002, 1.356058e+002
7.537184e+002, 1.355260e+002
7.542006e+002, 1.359236e+002
7.546827e+002, 1.361507e+002
7.551648e+002, 1.362327e+002
7.556469e+002, 1.362634e+002
7.561290e+002, 1.364203e+002
7.566111e+002, 1.364233e+002
7.570933e+002, 1.360181e+002
7.575754e+002, 1.352336e+002
7.580575e+002, 1.346190e+002
7.585396e+002, 1.341967e+002
7.590217e+002, 1.339641e+002
7.595038e+002, 1.340059e+002
7.599860e+002, 1.342760e+002
7.604681e+002, 1.341570e+002
7.609502e+002, 1.336064e+002
7.614323e+002, 1.331683e+002
7.619144e+002, 1.334996e+002
7.623965e+002, 1.340798e+002
7.628787e+002, 1.337493e+002
7.633608e+002, 1.325706e+002
7.638429e+002, 1.316344e+002
7.643250e+002, 1.319791e+002
7.648071e+002, 1.325047e+002
7.652892e+002, 1.323423e+002
7.657714e+002, 1.312779e+002
7.662535e+002, 1.307473e+002
7.667356e+002, 1.312975e+002
7.672177e+002, 1.317786e+002
7.676998e+002, 1.314371e+002
7.681819e+002, 1.301931e+002
7.686641e+002, 1.295587e+002
7.691462e+002, 1.296087e+002
7.696283e+002, 1.297416e+002
7.701104e+002, 1.294498e+002
7.705925e+002, 1.288855e+002
7.710746e+002, 1.282315e+002
7.715568e+002, 1.274929e+002
7.720389e+002, 1.270635e+002
7.725210e+002, 1.275618e+002
7.730031e+002, 1.282162e+002
7.734852e+002, 1.283707e+002
7.739673e+002, 1.276934e+002
7.744495e+002, 1.273312e+002
7.749316e+002, 1.275920e+002
7.754137e+002, 1.278485e+002
7.758958e+002, 1.275407e+002
7.763779e+002, 1.265982e+002
7.768600e+002, 1.260378e+002
7.773422e+002, 1.259313e+002
7.778243e+002, 1.259616e+002
7.783064e+002, 1.258078e+002
7.787885e+002, 1.255654e+002
7.792706e+002, 1.254529e+002
7.797527e+002, 1.255431e+002
7.802349e+002, 1.255314e+002
7.807170e+002, 1.251897e+002
7.811991e+002, 1.246965e+002
7.816812e+002, 1.241887e+002
7.821633e+002, 1.235528e+002
7.826454e+002, 1.232038e+002
7.831276e+002, 1.232653e+002
7.836097e+002, 1.234670e+002
7.840918e+002, 1.235403e+002
7.845739e+002, 1.234820e+002
7.850560e+002, 1.234834e+002
7.855381e+002, 1.235816e+002
7.860203e+002, 1.236362e+002
7.865024e+002, 1.233262e+002
7.869845e+002, 1.229094e+002
7.874666e+002, 1.229040e+002
7.879487e+002, 1.236006e+002
7.884308e+002, 1.241327e+002
7.889130e+002, 1.239051e+002
7.893951e+002, 1.233951e+002
7.898772e+002, 1.230967e+002
7.903593e+002, 1.232481e+002
7.908414e+002, 1.232307e+002
7.913235e+002, 1.229353e+002
7.918057e+002, 1.226129e+002
7.922878e+002, 1.225723e+002
7.927699e+002, 1.227993e+002
7.932520e+002, 1.231301e+002
7.937341e+002, 1.235727e+002
7.942162e+002, 1.239744e+002
7.946984e+002, 1.241810e+002
7.951805e+002, 1.242376e+002
7.956626e+002, 1.242181e+002
7.961447e+002, 1.241539e+002
7.966268e+002, 1.239895e+002
7.971089e+002, 1.233927e+002
7.975911e+002, 1.228543e+002
7.980732e+002, 1.229587e+002
7.985553e+002, 1.241791e+002
7.990374e+002, 1.249086e+002
7.995195e+002, 1.249509e+002
8.000016e+002, 1.247038e+002
8.004838e+002, 1.246473e+002
8.009659e+002, 1.247566e+002
8.014480e+002, 1.248850e+002
8.019301e+002, 1.250068e+002
8.024122e+002, 1.251390e+002
8.028943e+002, 1.254390e+002
8.033765e+002, 1.257023e+002
8.038586e+002, 1.256153e+002
8.043407e+002, 1.246692e+002
8.048228e+002, 1.241552e+002
8.053049e+002, 1.247184e+002
8.057870e+002, 1.256142e+002
8.062692e+002, 1.261064e+002
8.067513e+002, 1.260765e+002
8.072334e+002, 1.261171e+002
8.077155e+002, 1.263045e+002
8.081976e+002, 1.264921e+002
8.086797e+002, 1.264660e+002
8.091619e+002, 1.262835e+002
8.096440e+002, 1.261003e+002
8.101261e+002, 1.259336e+002
8.106082e+002, 1.258303e+002
8.110903e+002, 1.257472e+002
8.115724e+002, 1.257846e+002
8.120546e+002, 1.260735e+002
8.125367e+002, 1.270327e+002
8.130188e+002, 1.275857e+002
8.135009e+002, 1.275673e+002
8.139830e+002, 1.272587e+002
8.144651e+002, 1.269210e+002
8.149473e+002, 1.265473e+002
8.154294e+002, 1.262149e+002
8.159115e+002, 1.259061e+002
8.163936e+002, 1.257557e+002
8.168757e+002, 1.261026e+002
8.173578e+002, 1.266657e+002
8.178400e+002, 1.269301e+002
8.183221e+002, 1.267071e+002
8.188042e+002, 1.264536e+002
8.192863e+002, 1.263190e+002
8.197684e+002, 1.262938e+002
8.202505e+002, 1.263887e+002
8.207327e+002, 1.267066e+002
8.212148e+002, 1.268822e+002
8.216969e+002, 1.268659e+002
8.221790e+002, 1.267900e+002
8.226611e+002, 1.268615e+002
8.231432e+002, 1.270252e+002
8.236254e+002, 1.268350e+002
8.241075e+002, 1.261918e+002
8.245896e+002, 1.256489e+002
8.250717e+002, 1.259251e+002
8.255538e+002, 1.264805e+002
8.260359e+002, 1.266580e+002
8.265181e+002, 1.261991e+002
8.270002e+002, 1.258786e+002
8.274823e+002, 1.261005e+002
8.279644e+002, 1.263403e+002
8.284465e+002, 1.262223e+002
8.289286e+002, 1.256374e+002
8.294108e+002, 1.252874e+002
8.298929e+002, 1.252304e+002
8.303750e+002, 1.251788e+002
8.308571e+002, 1.247639e+002
8.313392e+002, 1.241821e+002
8.318214e+002, 1.239606e+002
8.323035e+002, 1.241734e+002
8.327856e+002, 1.241453e+002
8.332677e+002, 1.228495e+002
8.337498e+002, 1.215760e+002
8.342319e+002, 1.214443e+002
8.347141e+002, 1.230024e+002
8.351962e+002, 1.238833e+002
8.356783e+002, 1.238516e+002
8.361604e+002, 1.235319e+002
8.366425e+002, 1.232815e+002
8.371246e+002, 1.230961e+002
8.376068e+002, 1.229163e+002
8.380889e+002, 1.227414e+002
8.385710e+002, 1.225958e+002
8.390531e+002, 1.224489e+002
8.395352e+002, 1.223728e+002
8.400173e+002, 1.225429e+002
8.404995e+002, 1.229602e+002
8.409816e+002, 1.231474e+002
8.414637e+002, 1.227527e+002
8.419458e+002, 1.222760e+002
8.424279e+002, 1.219391e+002
8.429100e+002, 1.217385e+002
8.433922e+002, 1.214858e+002
8.438743e+002, 1.211652e+002
8.443564e+002, 1.208721e+002
8.448385e+002, 1.207371e+002
8.453206e+002, 1.206472e+002
8.458027e+002, 1.203249e+002
8.462849e+002, 1.197963e+002
8.467670e+002, 1.192138e+002
8.472491e+002, 1.185575e+002
8.477312e+002, 1.179699e+002
8.482133e+002, 1.175875e+002
8.486954e+002, 1.173829e+002
8.491776e+002, 1.170512e+002
8.496597e+002, 1.164480e+002
8.501418e+002, 1.160082e+002
8.506239e+002, 1.159630e+002
8.511060e+002, 1.161481e+002
8.515881e+002, 1.158887e+002
8.520703e+002, 1.152599e+002
8.525524e+002, 1.148958e+002
8.530345e+002, 1.155098e+002
8.535166e+002, 1.161603e+002
8.539987e+002, 1.157475e+002
8.544808e+002, 1.146880e+002
8.549630e+002, 1.140404e+002
8.554451e+002, 1.147069e+002
8.559272e+002, 1.150860e+002
8.564093e+002, 1.147053e+002
8.568914e+002, 1.139149e+002
8.573735e+002, 1.135589e+002
8.578557e+002, 1.136862e+002
8.583378e+002, 1.135951e+002
8.588199e+002, 1.130083e+002
8.593020e+002, 1.123033e+002
8.597841e+002, 1.120783e+002
8.602662e+002, 1.121577e+002
8.607484e+002, 1.121854e+002
8.612305e+002, 1.120181e+002
8.617126e+002, 1.118123e+002
8.621947e+002, 1.116997e+002
8.626768e+002, 1.115477e+002
8.631589e+002, 1.111196e+002
8.636411e+002, 1.101174e+002
8.641232e+002, 1.097784e+002
8.646053e+002, 1.104200e+002
8.650874e+002, 1.112506e+002
8.655695e+002, 1.111195e+002
8.660516e+002, 1.103110e+002
8.665338e+002, 1.097191e+002
8.670159e+002, 1.095202e+002
8.674980e+002, 1.094693e+002
8.679801e+002, 1.096020e+002
8.684622e+002, 1.096739e+002
8.689443e+002, 1.093889e+002
8.694265e+002, 1.083224e+002
8.699086e+002, 1.078883e+002
8.703907e+002, 1.084356e+002
8.708728e+002, 1.090743e+002
8.713549e+002, 1.090412e+002
8.718370e+002, 1.083900e+002
8.723192e+002, 1.076635e+002
8.728013e+002, 1.068653e+002
8.732834e+002, 1.063721e+002
8.737655e+002, 1.068728e+002
8.742476e+002, 1.075812e+002
8.747297e+002, 1.076142e+002
8.752119e+002, 1.068719e+002
8.756940e+002, 1.062996e+002
8.761761e+002, 1.062624e+002
8.766582e+002, 1.063073e+002
8.771403e+002, 1.062737e+002
8.776224e+002, 1.061668e+002
8.781046e+002, 1.060771e+002
8.785867e+002, 1.060103e+002
8.790688e+002, 1.058646e+002
8.795509e+002, 1.054832e+002
8.800330e+002, 1.050483e+002
8.805151e+002, 1.049022e+002
8.809973e+002, 1.049539e+002
8.814794e+002, 1.048497e+002
8.819615e+002, 1.042835e+002
8.824436e+002, 1.037059e+002
8.829257e+002, 1.031959e+002
8.834078e+002, 1.028120e+002
8.838900e+002, 1.027780e+002
8.843721e+002, 1.031878e+002
8.848542e+002, 1.034473e+002
8.853363e+002, 1.033666e+002
8.858184e+002, 1.030765e+002
8.863005e+002, 1.026745e+002
8.867827e+002, 1.022486e+002
8.872648e+002, 1.020419e+002
8.877469e+002, 1.023073e+002
8.882290e+002, 1.025562e+002
8.887111e+002, 1.025672e+002
8.891932e+002, 1.024344e+002
8.896754e+002, 1.022843e+002
8.901575e+002, 1.020623e+002
8.906396e+002, 1.020389e+002
8.911217e+002, 1.023583e+002
8.916038e+002, 1.025877e+002
8.920859e+002, 1.019111e+002
8.925681e+002, 1.007015e+002
8.930502e+002, 1.001786e+002
8.935323e+002, 1.006151e+002
8.940144e+002, 1.011963e+002
8.944965e+002, 1.015767e+002
8.949786e+002, 1.017091e+002
8.954608e+002, 1.014860e+002
8.959429e+002, 1.007389e+002
8.964250e+002, 1.002533e+002
8.969071e+002, 1.001089e+002
8.973892e+002, 1.000732e+002
8.978713e+002, 1.000200e+002
8.983535e+002, 9.994528e+001
8.988356e+002, 9.978638e+001
8.993177e+002, 9.955425e+001
8.997998e+002, 9.941436e+001
9.002819e+002, 9.951891e+001
9.007640e+002, 9.972398e+001
9.012462e+002, 9.993930e+001
9.017283e+002, 1.001580e+002
9.022104e+002, 1.004027e+002
9.026925e+002, 1.008549e+002
9.031746e+002, 1.010114e+002
9.036567e+002, 1.005996e+002
9.041389e+002, 9.985851e+001
9.046210e+002, 9.955960e+001
9.051031e+002, 9.966697e+001
9.055852e+002, 9.984788e+001
9.060673e+002, 1.000099e+002
9.065494e+002, 1.001282e+002
9.070316e+002, 1.002152e+002
9.075137e+002, 1.002342e+002
9.079958e+002, 1.001209e+002
9.084779e+002, 9.967194e+001
9.089600e+002, 9.934570e+001
9.094421e+002, 9.921146e+001
9.099243e+002, 9.918266e+001
9.104064e+002, 9.914519e+001
9.108885e+002, 9.910113e+001
9.113706e+002, 9.908311e+001
9.118527e+002, 9.909712e+001
9.123348e+002, 9.913267e+001
9.128170e+002, 9.927477e+001
9.132991e+002, 9.938271e+001
9.137812e+002, 9.923212e+001
9.142633e+002, 9.866299e+001
9.147454e+002, 9.837514e+001
9.152275e+002, 9.851601e+001
9.157097e+002, 9.890987e+001
9.161918e+002, 9.961715e+001
9.166739e+002, 1.006238e+002
9.171560e+002, 1.008282e+002
9.176381e+002, 1.002221e+002
9.181202e+002, 9.963753e+001
9.186024e+002, 9.966203e+001
9.190845e+002, 1.000032e+002
9.195666e+002, 1.005290e+002
9.200487e+002, 1.011422e+002
9.205308e+002, 1.014068e+002
9.210129e+002, 1.007042e+002
9.214951e+002, 1.002314e+002
9.219772e+002, 1.003739e+002
9.224593e+002, 1.009145e+002
9.229414e+002, 1.012665e+002
9.234235e+002, 1.014250e+002
9.239056e+002, 1.012795e+002
9.243878e+002, 1.006438e+002
9.248699e+002, 9.998409e+001
9.253520e+002, 9.982179e+001
9.258341e+002, 9.999561e+001
9.263162e+002, 1.002553e+002
9.267983e+002, 1.008080e+002
9.272805e+002, 1.010002e+002
9.277626e+002, 1.005725e+002
9.282447e+002, 9.997591e+001
9.287268e+002, 9.971490e+001
9.292089e+002, 9.979534e+001
9.296910e+002, 9.967086e+001
9.301732e+002, 9.929918e+001
9.306553e+002, 9.880869e+001
9.311374e+002, 9.820606e+001
9.316195e+002, 9.761614e+001
9.321016e+002, 9.716646e+001
9.325837e+002, 9.688129e+001
9.330659e+002, 9.668703e+001
9.335480e+002, 9.656989e+001
9.340301e+002, 9.655099e+001
9.345122e+002, 9.672267e+001
9.349943e+002, 9.701252e+001
9.354764e+002, 9.683435e+001
9.359586e+002, 9.619865e+001
9.364407e+002, 9.565869e+001
9.369228e+002, 9.558158e+001
9.374049e+002, 9.563747e+001
9.378870e+002, 9.544465e+001
9.383691e+002, 9.511938e+001
9.388513e+002, 9.493556e+001
9.393334e+002, 9.511771e+001
9.398155e+002, 9.525584e+001
9.402976e+002, 9.532199e+001
9.407797e+002, 9.529728e+001
9.412618e+002, 9.513787e+001
9.417440e+002, 9.485066e+001
9.422261e+002, 9.444215e+001
9.427082e+002, 9.385436e+001
9.431903e+002, 9.346756e+001
9.436724e+002, 9.395712e+001
9.441545e+002, 9.465852e+001
9.446367e+002, 9.481050e+001
9.451188e+002, 9.408318e+001
9.456009e+002, 9.365752e+001
9.460830e+002, 9.372669e+001
9.465651e+002, 9.393954e+001
9.470472e+002, 9.413309e+001
9.475294e+002, 9.429858e+001
9.480115e+002, 9.435589e+001
9.484936e+002, 9.430756e+001
9.489757e+002, 9.418472e+001
9.494578e+002, 9.399688e+001
9.499399e+002, 9.375289e+001
9.504221e+002, 9.339519e+001
9.509042e+002, 9.297789e+001
9.513863e+002, 9.271410e+001
9.518684e+002, 9.265351e+001
9.523505e+002, 9.270631e+001
9.528326e+002, 9.293381e+001
9.533148e+002, 9.317077e+001
9.537969e+002, 9.305476e+001
9.542790e+002, 9.266150e+001
9.547611e+002, 9.226940e+001
9.552432e+002, 9.189152e+001
9.557253e+002, 9.174507e+001
9.562075e+002, 9.229275e+001
9.566896e+002, 9.296946e+001
9.571717e+002, 9.316262e+001
9.576538e+002, 9.259142e+001
9.581359e+002, 9.230202e+001
9.586180e+002, 9.238939e+001
9.591002e+002, 9.251172e+001
9.595823e+002, 9.241558e+001
9.600644e+002, 9.215358e+001
9.605465e+002, 9.176477e+001
9.610286e+002, 9.130146e+001
9.615107e+002, 9.114882e+001
9.619929e+002, 9.194876e+001
9.624750e+002, 9.269422e+001
9.629571e+002, 9.274267e+001
9.634392e+002, 9.228600e+001
9.639213e+002, 9.210571e+001
9.644034e+002, 9.231496e+001
9.648856e+002, 9.232610e+001
9.653677e+002, 9.191910e+001
9.658498e+002, 9.141155e+001
9.663319e+002, 9.126744e+001
9.668140e+002, 9.141241e+001
9.672961e+002, 9.174921e+001
9.677783e+002, 9.241619e+001
9.682604e+002, 9.282732e+001
9.687425e+002, 9.260509e+001
9.692246e+002, 9.215218e+001
9.697067e+002, 9.176087e+001
9.701888e+002, 9.143493e+001
9.706710e+002, 9.119878e+001
9.711531e+002, 9.106001e+001
9.716352e+002, 9.095090e+001
9.721173e+002, 9.075184e+001
9.725994e+002, 9.059441e+001
9.730815e+002, 9.060905e+001
9.735637e+002, 9.081310e+001
9.740458e+002, 9.126109e+001
9.745279e+002, 9.265954e+001
9.750100e+002, 9.340960e+001
9.754921e+002, 9.284831e+001
9.759742e+002, 9.157240e+001
9.764564e+002, 9.109996e+001
9.769385e+002, 9.138460e+001
9.774206e+002, 9.159376e+001
9.779027e+002, 9.147138e+001
9.783848e+002, 9.133525e+001
9.788669e+002, 9.170742e+001
9.793491e+002, 9.213726e+001
9.798312e+002, 9.200283e+001
9.803133e+002, 9.072912e+001
9.807954e+002, 9.014960e+001
9.812775e+002, 9.056222e+001
9.817596e+002, 9.123825e+001
9.822418e+002, 9.172346e+001
9.827239e+002, 9.203463e+001
9.832060e+002, 9.210149e+001
9.836881e+002, 9.198835e+001
9.841702e+002, 9.225880e+001
9.846523e+002, 9.413015e+001
9.851345e+002, 9.564137e+001
9.856166e+002, 9.532207e+001
9.860987e+002, 9.362476e+001
9.865808e+002, 9.238911e+001
9.870629e+002, 9.166002e+001
9.875450e+002, 9.132841e+001
9.880272e+002, 9.147832e+001
9.885093e+002, 9.176809e+001
9.889914e+002, 9.163332e+001
9.894735e+002, 9.126079e+001
9.899556e+002, 9.103647e+001
9.904377e+002, 9.106950e+001
9.909199e+002, 9.114771e+001
9.914020e+002, 9.099892e+001
9.918841e+002, 9.104617e+001
9.923662e+002, 9.175146e+001
9.928483e+002, 9.315149e+001
9.933304e+002, 9.342184e+001
9.938126e+002, 9.250286e+001
9.942947e+002, 9.149105e+001
9.947768e+002, 9.096996e+001
9.952589e+002, 9.080687e+001
9.957410e+002, 9.100867e+001
9.962231e+002, 9.143446e+001
9.967053e+002, 9.169193e+001
9.971874e+002, 9.148801e+001
9.976695e+002, 9.133788e+001
9.981516e+002, 9.130503e+001
9.986337e+002, 9.136024e+001
9.991158e+002, 9.149891e+001
9.995980e+002, 9.170097e+001
1.000080e+003, 9.179630e+001
1.000562e+003, 9.174753e+001
1.001044e+003, 9.172221e+001
1.001526e+003, 9.195742e+001
1.002009e+003, 9.219413e+001
1.002491e+003, 9.215363e+001
1.002973e+003, 9.177278e+001
1.003455e+003, 9.168382e+001
1.003937e+003, 9.200404e+001
1.004419e+003, 9.224326e+001
1.004901e+003, 9.212066e+001
1.005383e+003, 9.182368e+001
1.005865e+003, 9.183345e+001
1.006348e+003, 9.201638e+001
1.006830e+003, 9.198823e+001
1.007312e+003, 9.063537e+001
1.007794e+003, 9.021714e+001
1.008276e+003, 9.276518e+001
1.008758e+003, 9.574129e+001
1.009240e+003, 9.623729e+001
1.009722e+003, 9.394347e+001
1.010205e+003, 9.226369e+001
1.010687e+003, 9.141033e+001
1.011169e+003, 9.100356e+001
1.011651e+003, 9.076440e+001
1.012133e+003, 9.072958e+001
1.012615e+003, 9.101704e+001
1.013097e+003, 9.161155e+001
1.013579e+003, 9.212327e+001
1.014061e+003, 9.229272e+001
1.014544e+003, 9.272088e+001
1.015026e+003, 9.370592e+001
1.015508e+003, 9.493649e+001
1.015990e+003, 9.577047e+001
1.016472e+003, 9.620523e+001
1.016954e+003, 9.617290e+001
1.017436e+003, 9.547502e+001
1.017918e+003, 9.476216e+001
1.018401e+003, 9.431787e+001
1.018883e+003, 9.414365e+001
1.019365e+003, 9.429649e+001
1.019847e+003, 9.490504e+001
1.020329e+003, 9.518925e+001
1.020811e+003, 9.514795e+001
1.021293e+003, 9.479311e+001
1.021775e+003, 9.381948e+001
1.022257e+003, 9.271522e+001
1.022740e+003, 9.223006e+001
1.023222e+003, 9.229021e+001
1.023704e+003, 9.256365e+001
1.024186e+003, 9.346803e+001
1.024668e+003, 9.384456e+001
1.025150e+003, 9.328297e+001
1.025632e+003, 9.226529e+001
1.026114e+003, 9.154935e+001
1.026596e+003, 9.112167e+001
1.027079e+003, 9.070898e+001
1.027561e+003, 9.023674e+001
1.028043e+003, 9.004588e+001
1.028525e+003, 9.087209e+001
1.029007e+003, 9.176900e+001
1.029489e+003, 9.177524e+001
1.029971e+003, 9.075349e+001
1.030453e+003, 9.023075e+001
1.030936e+003, 9.036181e+001
1.031418e+003, 9.046462e+001
1.031900e+003, 9.016977e+001
1.032382e+003, 8.975636e+001
1.032864e+003, 8.971695e+001
1.033346e+003, 9.000845e+001
1.033828e+003, 9.055307e+001
1.034310e+003, 9.177727e+001
1.034792e+003, 9.253944e+001
1.035275e+003, 9.236047e+001
1.035757e+003, 9.179011e+001
1.036239e+003, 9.114359e+001
1.036721e+003, 9.042602e+001
1.037203e+003, 9.038173e+001
1.037685e+003, 9.103041e+001
1.038167e+003, 9.163794e+001
1.038649e+003, 9.136559e+001
1.039132e+003, 9.108842e+001
1.039614e+003, 9.160115e+001
1.040096e+003, 9.278040e+001
1.040578e+003, 9.386858e+001
1.041060e+003, 9.500232e+001
1.041542e+003, 9.551926e+001
1.042024e+003, 9.509306e+001
1.042506e+003, 9.447968e+001
1.042989e+003, 9.494885e+001
1.043471e+003, 9.605750e+001
1.043953e+003, 9.684824e+001
1.044435e+003, 9.708333e+001
1.044917e+003, 9.738368e+001
1.045399e+003, 9.834240e+001
1.045881e+003, 9.905921e+001
1.046363e+003, 9.902876e+001
1.046845e+003, 9.834097e+001
1.047328e+003, 9.770057e+001
1.047810e+003, 9.709356e+001
1.048292e+003, 9.640503e+001
1.048774e+003, 9.556071e+001
1.049256e+003, 9.463865e+001
1.049738e+003, 9.357095e+001
1.050220e+003, 9.250393e+001
1.050702e+003, 9.168450e+001
1.051184e+003, 9.123369e+001
1.051667e+003, 9.077447e+001
1.052149e+003, 9.031229e+001
1.052631e+003, 8.979383e+001
1.053113e+003, 8.901575e+001
1.053595e+003, 8.819722e+001
1.054077e+003, 8.788597e+001
1.054559e+003, 8.800781e+001
1.055041e+003, 8.793688e+001
1.055523e+003, 8.728345e+001
1.056006e+003, 8.653874e+001
1.056488e+003, 8.569154e+001
1.056970e+003, 8.495478e+001
1.057452e+003, 8.489678e+001
1.057934e+003, 8.543105e+001
1.058416e+003, 8.572423e+001
1.058898e+003, 8.558372e+001
1.059380e+003, 8.540894e+001
1.059863e+003, 8.568833e+001
1.060345e+003, 8.595061e+001
1.060827e+003, 8.568127e+001
1.061309e+003, 8.483849e+001
1.061791e+003, 8.442068e+001
1.062273e+003, 8.451126e+001
1.062755e+003, 8.462963e+001
1.063237e+003, 8.456239e+001
1.063719e+003, 8.440939e+001
1.064202e+003, 8.432336e+001
1.064684e+003, 8.426687e+001
1.065166e+003, 8.416680e+001
1.065648e+003, 8.396089e+001
1.066130e+003, 8.378077e+001
1.066612e+003, 8.362072e+001
1.067094e+003, 8.351455e+001
1.067576e+003, 8.354148e+001
1.068059e+003, 8.365770e+001
1.068541e+003, 8.357559e+001
1.069023e+003, 8.331506e+001
1.069505e+003, 8.306958e+001
1.069987e+003, 8.283269e+001
1.070469e+003, 8.277021e+001
1.070951e+003, 8.322500e+001
1.071433e+003, 8.382854e+001
1.071916e+003, 8.380813e+001
1.072398e+003, 8.306202e+001
1.072880e+003, 8.264668e+001
1.073362e+003, 8.275031e+001
1.073844e+003, 8.290828e+001
1.074326e+003, 8.250124e+001
1.074808e+003, 8.200264e+001
1.075290e+003, 8.198231e+001
1.075772e+003, 8.249287e+001
1.076255e+003, 8.284554e+001
1.076737e+003, 8.297738e+001
1.077219e+003, 8.297360e+001
1.077701e+003, 8.280978e+001
1.078183e+003, 8.260110e+001
1.078665e+003, 8.259348e+001
1.079147e+003, 8.271672e+001
1.079629e+003, 8.282536e+001
1.080111e+003, 8.292001e+001
1.080594e+003, 8.287723e+001
1.081076e+003, 8.254758e+001
1.081558e+003, 8.215551e+001
1.082040e+003, 8.173966e+001
1.082522e+003, 8.134172e+001
1.083004e+003, 8.157321e+001
1.083486e+003, 8.236411e+001
1.083968e+003, 8.303240e+001
1.084450e+003, 8.318472e+001
1.084933e+003, 8.311915e+001
1.085415e+003, 8.306355e+001
1.085897e+003, 8.288553e+001
1.086379e+003, 8.228190e+001
1.086861e+003, 8.093990e+001
1.087343e+003, 8.057656e+001
1.087825e+003, 8.139711e+001
1.088307e+003, 8.233587e+001
1.088790e+003, 8.233572e+001
1.089272e+003, 8.201039e+001
1.089754e+003, 8.217305e+001
1.090236e+003, 8.274174e+001
1.090718e+003, 8.305406e+001
1.091200e+003, 8.280678e+001
1.091682e+003, 8.264458e+001
1.092164e+003, 8.271764e+001
1.092646e+003, 8.284240e+001
1.093129e+003, 8.273225e+001
1.093611e+003, 8.245181e+001
1.094093e+003, 8.208928e+001
1.094575e+003, 8.163842e+001
1.095057e+003, 8.142990e+001
1.095539e+003, 8.194720e+001
1.096021e+003, 8.236818e+001
1.096503e+003, 8.227145e+001
1.096986e+003, 8.182810e+001
1.097468e+003, 8.177182e+001
1.097950e+003, 8.203497e+001
1.098432e+003, 8.202339e+001
1.098914e+003, 8.146822e+001
1.099396e+003, 8.080885e+001
1.099878e+003, 8.016788e+001
1.100360e+003, 7.971377e+001
1.100843e+003, 7.963762e+001
1.101325e+003, 7.996089e+001
1.101807e+003, 8.039533e+001
1.102289e+003, 8.096764e+001
1.102771e+003, 8.138757e+001
1.103253e+003, 8.136339e+001
1.103735e+003, 8.122232e+001
1.104217e+003, 8.147018e+001
1.104699e+003, 8.185619e+001
1.105182e+003, 8.188447e+001
1.105664e+003, 8.096468e+001
1.106146e+003, 8.070222e+001
1.106628e+003, 8.138754e+001
1.107110e+003, 8.205995e+001
1.107592e+003, 8.154996e+001
1.108074e+003, 8.053336e+001
1.108556e+003, 8.062720e+001
1.109038e+003, 8.163264e+001
1.109521e+003, 8.219817e+001
1.110003e+003, 8.137863e+001
1.110485e+003, 8.061539e+001
1.110967e+003, 8.021137e+001
1.111449e+003, 8.000630e+001
1.111931e+003, 7.974049e+001
1.112413e+003, 7.945429e+001
1.112895e+003, 7.932995e+001
1.113377e+003, 7.938850e+001
1.113860e+003, 7.958196e+001
1.114342e+003, 8.013383e+001
1.114824e+003, 8.055120e+001
1.115306e+003, 8.048446e+001
1.115788e+003, 8.009040e+001
1.116270e+003, 7.984504e+001
1.116752e+003, 7.974580e+001
1.117234e+003, 7.977190e+001
1.117717e+003, 7.996970e+001
1.118199e+003, 8.007610e+001
1.118681e+003, 7.971876e+001
1.119163e+003, 7.925440e+001
1.119645e+003, 7.901489e+001
1.120127e+003, 7.902232e+001
1.120609e+003, 7.918031e+001
1.121091e+003, 7.954391e+001
1.121573e+003, 7.969244e+001
1.122056e+003, 7.937169e+001
1.122538e+003, 7.887048e+001
1.123020e+003, 7.833013e+001
1.123502e+003, 7.794101e+001
1.123984e+003, 7.803358e+001
1.124466e+003, 7.900785e+001
1.124948e+003, 7.972591e+001
1.125430e+003, 8.019595e+001
1.125913e+003, 8.035189e+001
1.126395e+003, 7.996395e+001
1.126877e+003, 7.932089e+001
1.127359e+003, 7.905336e+001
1.127841e+003, 7.908298e+001
1.128323e+003, 7.919590e+001
1.128805e+003, 7.946841e+001
1.129287e+003, 7.959060e+001
1.129770e+003, 7.949044e+001
1.130252e+003, 7.929198e+001
1.130734e+003, 7.903407e+001
1.131216e+003, 7.877803e+001
1.131698e+003, 7.879400e+001
1.132180e+003, 7.906834e+001
1.132662e+003, 7.942517e+001
1.133144e+003, 8.007574e+001
1.133626e+003, 8.041124e+001
1.134109e+003, 8.012672e+001
1.134591e+003, 7.949612e+001
1.135073e+003, 7.880299e+001
1.135555e+003, 7.808471e+001
1.136037e+003, 7.778358e+001
1.136519e+003, 7.795670e+001
1.137001e+003, 7.826554e+001
1.137483e+003, 7.874047e+001
1.137965e+003, 7.901302e+001
1.138448e+003, 7.858546e+001
1.138930e+003, 7.778671e+001
1.139412e+003, 7.776366e+001
1.139894e+003, 7.857967e+001
1.140376e+003, 7.882868e+001
1.140858e+003, 7.812493e+001
1.141340e+003, 7.730491e+001
1.141822e+003, 7.703978e+001
1.142304e+003, 7.709953e+001
1.142787e+003, 7.736021e+001
1.143269e+003, 7.779717e+001
1.143751e+003, 7.802901e+001
1.144233e+003, 7.800681e+001
1.144715e+003, 7.806140e+001
1.145197e+003, 7.838037e+001
1.145679e+003, 7.863833e+001
1.146161e+003, 7.823264e+001
1.146644e+003, 7.759437e+001
1.147126e+003, 7.731129e+001
1.147608e+003, 7.761157e+001
1.148090e+003, 7.776940e+001
1.148572e+003, 7.769395e+001
1.149054e+003, 7.774136e+001
1.149536e+003, 7.823901e+001
1.150018e+003, 7.878773e+001
1.150500e+003, 7.851111e+001
1.150983e+003, 7.779508e+001
1.151465e+003, 7.742175e+001
1.151947e+003, 7.784830e+001
1.152429e+003, 7.812581e+001
1.152911e+003, 7.816385e+001
1.153393e+003, 7.809959e+001
1.153875e+003, 7.798926e+001
1.154357e+003, 7.786234e+001
1.154840e+003, 7.778890e+001
1.155322e+003, 7.776750e+001
1.155804e+003, 7.779634e+001
1.156286e+003, 7.809683e+001
1.156768e+003, 7.809104e+001
1.157250e+003, 7.749034e+001
1.157732e+003, 7.689612e+001
1.158214e+003, 7.706422e+001
1.158697e+003, 7.772294e+001
1.159179e+003, 7.755466e+001
1.159661e+003, 7.667859e+001
1.160143e+003, 7.598515e+001
1.160625e+003, 7.587865e+001
1.161107e+003, 7.610246e+001
1.161589e+003, 7.680155e+001
1.162071e+003, 7.754909e+001
1.162553e+003, 7.778880e+001
1.163036e+003, 7.757166e+001
1.163518e+003, 7.719218e+001
1.164000e+003, 7.668906e+001
1.164482e+003, 7.633404e+001
1.164964e+003, 7.641245e+001
1.165446e+003, 7.654890e+001
1.165928e+003, 7.656568e+001
1.166410e+003, 7.652348e+001
1.166892e+003, 7.648789e+001
1.167375e+003, 7.647222e+001
1.167857e+003, 7.678175e+001
1.168339e+003, 7.748166e+001
1.168821e+003, 7.792239e+001
1.169303e+003, 7.715910e+001
1.169785e+003, 7.643659e+001
1.170267e+003, 7.684090e+001
1.170749e+003, 7.788017e+001
1.171231e+003, 7.809489e+001
1.171714e+003, 7.749267e+001
1.172196e+003, 7.694279e+001
1.172678e+003, 7.661136e+001
1.173160e+003, 7.645980e+001
1.173642e+003, 7.658968e+001
1.174124e+003, 7.678217e+001
1.174606e+003, 7.685838e+001
1.175088e+003, 7.683287e+001
1.175571e+003, 7.680120e+001
1.176053e+003, 7.676311e+001
1.176535e+003, 7.673562e+001
1.177017e+003, 7.673524e+001
1.177499e+003, 7.670561e+001
1.177981e+003, 7.652834e+001
1.178463e+003, 7.634025e+001
1.178945e+003, 7.624271e+001
1.179427e+003, 7.624139e+001
1.179910e+003, 7.657650e+001
1.180392e+003, 7.731628e+001
1.180874e+003, 7.769328e+001
1.181356e+003, 7.729855e+001
1.181838e+003, 7.671395e+001
1.182320e+003, 7.656823e+001
1.182802e+003, 7.658064e+001
1.183284e+003, 7.635873e+001
1.183767e+003, 7.579630e+001
1.184249e+003, 7.569202e+001
1.184731e+003, 7.612989e+001
1.185213e+003, 7.643819e+001
1.185695e+003, 7.620119e+001
1.186177e+003, 7.583350e+001
1.186659e+003, 7.593224e+001
1.187141e+003, 7.616294e+001
1.187624e+003, 7.596390e+001
1.188106e+003, 7.501216e+001
1.188588e+003, 7.474126e+001
1.189070e+003, 7.528542e+001
1.189552e+003, 7.575137e+001
1.190034e+003, 7.550556e+001
1.190516e+003, 7.503632e+001
1.190998e+003, 7.494263e+001
1.191480e+003, 7.506480e+001
1.191963e+003, 7.511558e+001
1.192445e+003, 7.491463e+001
1.192927e+003, 7.504946e+001
1.193409e+003, 7.560827e+001
1.193891e+003, 7.609547e+001
1.194373e+003, 7.608627e+001
1.194855e+003, 7.587456e+001
1.195337e+003, 7.588027e+001
1.195819e+003, 7.597698e+001
1.196302e+003, 7.585880e+001
1.196784e+003, 7.516701e+001
1.197266e+003, 7.506149e+001
1.197748e+003, 7.570030e+001
1.198230e+003, 7.634070e+001
1.198712e+003, 7.634904e+001
1.199194e+003, 7.603184e+001
1.199676e+003, 7.573166e+001
1.200158e+003, 7.545425e+001
1.200641e+003, 7.518189e+001
1.201123e+003, 7.477689e+001
1.201605e+003, 7.473803e+001
1.202087e+003, 7.516170e+001
1.202569e+003, 7.567273e+001
1.203051e+003, 7.600172e+001
1.203533e+003, 7.616314e+001
1.204015e+003, 7.618520e+001
1.204498e+003, 7.605844e+001
1.204980e+003, 7.570798e+001
1.205462e+003, 7.485715e+001
1.205944e+003, 7.447762e+001
1.206426e+003, 7.472725e+001
1.206908e+003, 7.514481e+001
1.207390e+003, 7.528954e+001
1.207872e+003, 7.531973e+001
1.208354e+003, 7.551176e+001
1.208837e+003, 7.579592e+001
1.209319e+003, 7.576449e+001
1.209801e+003, 7.513274e+001
1.210283e+003, 7.488146e+001
1.210765e+003, 7.520885e+001
1.211247e+003, 7.560706e+001
1.211729e+003, 7.540603e+001
1.212211e+003, 7.505797e+001
1.212694e+003, 7.525950e+001
1.213176e+003, 7.590968e+001
1.213658e+003, 7.617281e+001
1.214140e+003, 7.585452e+001
1.214622e+003, 7.555116e+001
1.215104e+003, 7.534614e+001
1.215586e+003, 7.518975e+001
1.216068e+003, 7.508461e+001
1.216551e+003, 7.495812e+001
1.217033e+003, 7.464242e+001
1.217515e+003, 7.418360e+001
1.217997e+003, 7.399693e+001
1.218479e+003, 7.416557e+001
1.218961e+003, 7.440614e+001
1.219443e+003, 7.471815e+001
1.219925e+003, 7.489059e+001
1.220407e+003, 7.441287e+001
1.220890e+003, 7.385451e+001
1.221372e+003, 7.393884e+001
1.221854e+003, 7.464836e+001
1.222336e+003, 7.526240e+001
1.222818e+003, 7.582616e+001
1.223300e+003, 7.589912e+001
1.223782e+003, 7.528626e+001
1.224264e+003, 7.466294e+001
1.224746e+003, 7.494864e+001
1.225229e+003, 7.548876e+001
1.225711e+003, 7.558978e+001
1.226193e+003, 7.522578e+001
1.226675e+003, 7.491790e+001
1.227157e+003, 7.468777e+001
1.227639e+003, 7.438330e+001
1.228121e+003, 7.392826e+001
1.228603e+003, 7.360684e+001
1.229085e+003, 7.389155e+001
1.229568e+003, 7.432791e+001
1.230050e+003, 7.427007e+001
1.230532e+003, 7.384263e+001
1.231014e+003, 7.456242e+001
1.231496e+003, 7.666869e+001
1.231978e+003, 7.776071e+001
1.232460e+003, 7.717329e+001
1.232942e+003, 7.603549e+001
1.233425e+003, 7.454529e+001
1.233907e+003, 7.370471e+001
1.234389e+003, 7.525424e+001
1.234871e+003, 7.851421e+001
1.235353e+003, 7.885374e+001
1.235835e+003, 7.610824e+001
1.236317e+003, 7.431349e+001
1.236799e+003, 7.457604e+001
1.237281e+003, 7.522864e+001
1.237764e+003, 7.486992e+001
1.238246e+003, 7.431385e+001
1.238728e+003, 7.427492e+001
1.239210e+003, 7.461492e+001
1.239692e+003, 7.475658e+001
1.240174e+003, 7.469824e+001
1.240656e+003, 7.434689e+001
1.241138e+003, 7.359134e+001
1.241621e+003, 7.309589e+001
1.242103e+003, 7.361171e+001
1.242585e+003, 7.432763e+001
1.243067e+003, 7.475890e+001
1.243549e+003, 7.492562e+001
1.244031e+003, 7.484753e+001
1.244513e+003, 7.455781e+001
1.244995e+003, 7.432745e+001
1.245478e+003, 7.421897e+001
1.245960e+003, 7.416464e+001
1.246442e+003, 7.412846e+001
1.246924e+003, 7.412991e+001
1.247406e+003, 7.416655e+001
1.247888e+003, 7.424866e+001
1.248370e+003, 7.448037e+001
1.248852e+003, 7.479517e+001
1.249334e+003, 7.490199e+001
1.249817e+003, 7.471934e+001
1.250299e+003, 7.443204e+001
1.250781e+003, 7.396220e+001
1.251263e+003, 7.360984e+001
1.251745e+003, 7.350661e+001
1.252227e+003, 7.358553e+001
1.252709e+003, 7.375838e+001
1.253191e+003, 7.396825e+001
1.253673e+003, 7.399427e+001
1.254156e+003, 7.374339e+001
1.254638e+003, 7.372613e+001
1.255120e+003, 7.448908e+001
1.255602e+003, 7.489967e+001
1.256084e+003, 7.445754e+001
1.256566e+003, 7.362233e+001
1.257048e+003, 7.319681e+001
1.257530e+003, 7.311244e+001
1.258012e+003, 7.328333e+001
1.258495e+003, 7.371872e+001
1.258977e+003, 7.415307e+001
1.259459e+003, 7.472420e+001
1.259941e+003, 7.483728e+001
1.260423e+003, 7.413416e+001
1.260905e+003, 7.324020e+001
1.261387e+003, 7.287381e+001
1.261869e+003, 7.311057e+001
1.262352e+003, 7.433311e+001
1.262834e+003, 7.667818e+001
1.263316e+003, 7.821571e+001
1.263798e+003, 7.887724e+001
1.264280e+003, 7.858382e+001
1.264762e+003, 7.706780e+001
1.265244e+003, 7.535387e+001
1.265726e+003, 7.467838e+001
1.266208e+003, 7.448965e+001
1.266691e+003, 7.414552e+001
1.267173e+003, 7.360586e+001
1.267655e+003, 7.349732e+001
1.268137e+003, 7.389056e+001
1.268619e+003, 7.409040e+001
1.269101e+003, 7.386146e+001
1.269583e+003, 7.362399e+001
1.270065e+003, 7.384811e+001
1.270548e+003, 7.418369e+001
1.271030e+003, 7.432970e+001
1.271512e+003, 7.430705e+001
1.271994e+003, 7.421386e+001
1.272476e+003, 7.405100e+001
1.272958e+003, 7.379133e+001
1.273440e+003, 7.339446e+001
1.273922e+003, 7.316924e+001
1.274405e+003, 7.356624e+001
1.274887e+003, 7.397049e+001
1.275369e+003, 7.398573e+001
1.275851e+003, 7.375620e+001
1.276333e+003, 7.367078e+001
1.276815e+003, 7.371012e+001
1.277297e+003, 7.380708e+001
1.277779e+003, 7.395838e+001
1.278261e+003, 7.400478e+001
1.278744e+003, 7.366456e+001
1.279226e+003, 7.346551e+001
1.279708e+003, 7.367795e+001
1.280190e+003, 7.402937e+001
1.280672e+003, 7.389668e+001
1.281154e+003, 7.350064e+001
1.281636e+003, 7.345914e+001
1.282118e+003, 7.385592e+001
1.282600e+003, 7.416747e+001
1.283083e+003, 7.419376e+001
1.283565e+003, 7.418462e+001
1.284047e+003, 7.416068e+001
1.284529e+003, 7.420670e+001
1.285011e+003, 7.469919e+001
1.285493e+003, 7.520719e+001
1.285975e+003, 7.482583e+001
1.286457e+003, 7.358096e+001
1.286939e+003, 7.310316e+001
1.287422e+003, 7.381181e+001
1.287904e+003, 7.420757e+001
1.288386e+003, 7.395494e+001
1.288868e+003, 7.357717e+001
1.289350e+003, 7.368297e+001
1.289832e+003, 7.391513e+001
1.290314e+003, 7.385754e+001
1.290796e+003, 7.358302e+001
1.291279e+003, 7.359363e+001
1.291761e+003, 7.393629e+001
1.292243e+003, 7.405232e+001
1.292725e+003, 7.385841e+001
1.293207e+003, 7.351149e+001
1.293689e+003, 7.277084e+001
1.294171e+003, 7.228723e+001
1.294653e+003, 7.280530e+001
1.295135e+003, 7.373704e+001
1.295618e+003, 7.405183e+001
1.296100e+003, 7.382663e+001
1.296582e+003, 7.385800e+001
1.297064e+003, 7.420930e+001
1.297546e+003, 7.446428e+001
1.298028e+003, 7.435993e+001
1.298510e+003, 7.408961e+001
1.298992e+003, 7.365377e+001
1.299475e+003, 7.322044e+001
1.299957e+003, 7.292981e+001
1.300439e+003, 7.283946e+001
1.300921e+003, 7.328499e+001
1.301403e+003, 7.415446e+001
1.301885e+003, 7.474439e+001
##END=



