##NAMES=Pyrite
##RRUFFID=R050190
##IDEAL CHEMISTRY=Fe^2+^(S_2_)^2-^
##LOCALITY=Huanzala mine, Huallanca District, Dos de Mayo Province, Huanuco Department, Peru
##OWNER=RRUFF
##SOURCE=Dave Bunk Minerals
##DESCRIPTION=Brass yellow modified cubes with typical pyrite striations
##STATUS=The identification of this mineral has been confirmed by X-ray diffraction and chemical analysis
##URL=rruff.info/R050190
##MEASURED CHEMISTRY=Fe_1.00_S_2.00_
92.81116, 0.0000000E+00
93.29327, 0.0000000E+00
93.77539, 2.008914
94.25751, 1.970466
94.73962, 2.015479
95.22174, 2.116490
95.70386, 2.172828
96.18597, 2.082364
96.66809, 1.912942
97.15021, 1.887457
97.63232, 2.012644
98.11444, 2.251090
98.59656, 2.634676
99.07867, 3.172103
99.56079, 3.565823
100.0429, 3.567508
100.5250, 3.169201
101.0071, 3.038275
101.4893, 3.278060
101.9714, 3.706600
102.4535, 3.889178
102.9356, 3.759309
103.4177, 3.573783
103.8998, 3.471023
104.3820, 3.464523
104.8641, 3.492439
105.3462, 3.529460
105.8283, 3.592906
106.3104, 3.803359
106.7925, 4.285514
107.2747, 4.776887
107.7568, 5.097638
108.2389, 5.268709
108.7210, 5.235389
109.2031, 4.878209
109.6852, 4.163608
110.1674, 3.715455
110.6495, 3.678781
111.1316, 3.840554
111.6137, 4.015824
112.0958, 4.143340
112.5779, 4.342914
113.0601, 4.673971
113.5422, 5.181437
114.0243, 5.612842
114.5064, 5.846899
114.9885, 6.007866
115.4706, 6.253987
115.9528, 6.794627
116.4349, 7.290721
116.9170, 7.593744
117.3991, 7.664599
117.8812, 7.628046
118.3633, 7.503540
118.8455, 7.302414
119.3276, 7.048073
119.8097, 6.538148
120.2918, 6.095659
120.7739, 5.972368
121.2560, 6.297034
121.7382, 6.786981
122.2203, 7.373761
122.7024, 8.013015
123.1845, 8.556455
123.6666, 9.071542
124.1487, 9.393567
124.6309, 9.289117
125.1130, 8.420560
125.5951, 7.400480
126.0772, 6.814572
126.5593, 6.640925
127.0414, 6.682203
127.5236, 6.799635
128.0057, 7.018616
128.4878, 6.576221
128.9699, 7.690547
129.4520, 8.346158
129.9341, 8.567591
130.4162, 7.060685
130.8984, 7.780797
131.3805, 7.605487
131.8626, 7.391459
132.3447, 8.419028
132.8268, 7.152761
133.3089, 8.156430
133.7911, 8.251071
134.2732, 8.758700
134.7553, 8.365407
135.2374, 8.247646
135.7195, 9.026922
136.2016, 9.306257
136.6838, 8.801148
137.1659, 9.322634
137.6480, 8.004085
138.1301, 8.296271
138.6122, 9.282230
139.0943, 8.811865
139.5765, 9.339350
140.0586, 9.483909
140.5407, 7.895670
141.0228, 9.315224
141.5049, 9.431014
141.9870, 8.208180
142.4692, 9.518340
142.9513, 8.475586
143.4334, 8.269843
143.9155, 8.693490
144.3976, 8.456756
144.8797, 9.255807
145.3619, 9.052911
145.8440, 8.758595
146.3261, 8.852042
146.8082, 7.838679
147.2903, 8.872710
147.7724, 8.504683
148.2546, 8.830459
148.7367, 9.311882
149.2188, 8.583456
149.7009, 9.131574
150.1830, 7.694746
150.6651, 7.914959
151.1473, 7.954421
151.6294, 9.052279
152.1115, 7.616764
152.5936, 7.782527
153.0757, 8.628892
153.5578, 8.517927
154.0400, 8.804258
154.5221, 7.906143
155.0042, 8.116681
155.4863, 8.018970
155.9684, 8.977133
156.4505, 9.097992
156.9327, 8.209490
157.4148, 7.323174
157.8969, 8.349124
158.3790, 7.558542
158.8611, 7.744743
159.3432, 6.917886
159.8254, 6.961827
160.3075, 6.989849
160.7896, 7.463250
161.2717, 7.543570
161.7538, 7.547587
162.2359, 7.633512
162.7181, 7.985452
163.2002, 8.393847
163.6823, 8.567446
164.1644, 8.133892
164.6465, 7.635162
165.1286, 7.395690
165.6108, 7.515190
166.0929, 7.636204
166.5750, 7.538393
167.0571, 7.323174
167.5392, 7.174757
168.0213, 7.198143
168.5035, 7.306312
168.9856, 7.448591
169.4677, 7.635152
169.9498, 7.802172
170.4319, 7.930290
170.9140, 8.009634
171.3962, 8.014298
171.8783, 7.873122
172.3604, 7.676291
172.8425, 7.507133
173.3246, 7.370058
173.8067, 7.285668
174.2889, 7.313753
174.7710, 7.420478
175.2531, 7.497140
175.7352, 7.418685
176.2173, 7.286772
176.6994, 7.252290
177.1816, 7.381845
177.6637, 7.548228
178.1458, 7.611183
178.6279, 7.584987
179.1100, 7.536157
179.5921, 7.504740
180.0743, 7.482182
180.5564, 7.453878
181.0385, 7.419726
181.5206, 7.373676
182.0027, 7.282887
182.4848, 7.155474
182.9670, 7.066278
183.4491, 7.078169
183.9312, 7.171958
184.4133, 7.305801
184.8954, 7.511602
185.3775, 7.709335
185.8596, 7.742340
186.3418, 7.612196
186.8239, 7.428422
187.3060, 7.235167
187.7881, 7.049032
188.2702, 6.962575
188.7523, 7.040154
189.2345, 7.199105
189.7166, 7.232905
190.1987, 7.136709
190.6808, 7.011912
191.1629, 6.940816
191.6451, 6.919823
192.1272, 6.923171
192.6093, 6.958346
193.0914, 7.007856
193.5735, 7.009224
194.0556, 6.956823
194.5378, 6.897186
195.0199, 6.885522
195.5020, 6.918970
195.9841, 6.923875
196.4662, 6.862967
196.9483, 6.761030
197.4305, 6.731412
197.9126, 6.783204
198.3947, 6.865301
198.8768, 6.937924
199.3589, 7.002523
199.8410, 7.026369
200.3232, 6.979561
200.8053, 6.881910
201.2874, 6.858073
201.7695, 6.921229
202.2516, 7.019682
202.7337, 7.117360
203.2159, 7.219526
203.6980, 7.271597
204.1801, 7.256873
204.6622, 7.178851
205.1443, 7.049408
205.6264, 6.838768
206.1086, 6.647460
206.5907, 6.606197
207.0728, 6.749665
207.5549, 6.859428
208.0370, 6.865201
208.5191, 6.776320
209.0013, 6.766276
209.4834, 6.869164
209.9655, 6.986373
210.4476, 7.002867
210.9297, 6.890862
211.4118, 6.779781
211.8940, 6.684927
212.3761, 6.607508
212.8582, 6.616824
213.3403, 6.750261
213.8224, 6.912182
214.3045, 6.995262
214.7867, 6.979752
215.2688, 6.945444
215.7509, 6.893196
216.2330, 6.823859
216.7151, 6.832448
217.1972, 6.947234
217.6794, 7.101449
218.1615, 7.238794
218.6436, 7.390938
219.1257, 7.439773
219.6078, 7.316401
220.0899, 7.018362
220.5721, 6.860624
221.0542, 6.913231
221.5363, 7.020541
222.0184, 7.006966
222.5005, 6.795614
222.9826, 6.645200
223.4648, 6.634949
223.9469, 6.767316
224.4290, 6.828940
224.9111, 6.787042
225.3932, 6.713348
225.8753, 6.680588
226.3575, 6.710200
226.8396, 6.735670
227.3217, 6.744426
227.8038, 6.736533
228.2859, 6.719003
228.7680, 6.681544
229.2502, 6.646166
229.7323, 6.636292
230.2144, 6.665885
230.6965, 6.693148
231.1786, 6.713536
231.6607, 6.727075
232.1429, 6.720719
232.6250, 6.675572
233.1071, 6.631574
233.5892, 6.631876
234.0713, 6.715799
234.5534, 6.763213
235.0356, 6.737192
235.5177, 6.641553
235.9998, 6.589859
236.4819, 6.602740
236.9640, 6.636217
237.4461, 6.648009
237.9283, 6.604349
238.4104, 6.609660
238.8925, 6.711265
239.3746, 6.900548
239.8567, 6.976479
240.3388, 6.851511
240.8210, 6.716380
241.3031, 6.746515
241.7852, 7.113202
242.2673, 7.287863
242.7494, 7.114817
243.2315, 6.637230
243.7137, 6.373482
244.1958, 6.413341
244.6779, 6.552973
245.1600, 6.652175
245.6421, 6.694741
246.1242, 6.733369
246.6064, 6.793486
247.0885, 6.861250
247.5706, 6.821019
248.0527, 6.568628
248.5348, 6.346221
249.0169, 6.334209
249.4990, 6.672860
249.9812, 6.902638
250.4633, 6.960788
250.9454, 6.878455
251.4275, 6.802153
251.9096, 6.739989
252.3917, 6.673028
252.8739, 6.575992
253.3560, 6.387793
253.8381, 6.325582
254.3202, 6.462012
254.8023, 6.728829
255.2844, 6.863297
255.7666, 6.797519
256.2487, 6.712285
256.7308, 6.714586
257.2129, 6.867455
257.6950, 6.927421
258.1772, 6.836988
258.6593, 6.665692
259.1414, 6.612525
259.6235, 6.749833
260.1056, 6.873215
260.5877, 6.870338
261.0699, 6.666605
261.5520, 6.579470
262.0341, 6.650747
262.5162, 6.815129
262.9983, 6.947513
263.4804, 7.062754
263.9626, 7.109856
264.4447, 7.043157
264.9268, 6.816922
265.4089, 6.686156
265.8910, 6.681490
266.3731, 6.741785
266.8553, 6.754318
267.3374, 6.692222
267.8195, 6.658671
268.3016, 6.721302
268.7837, 6.907563
269.2658, 6.931203
269.7480, 6.726222
270.2301, 6.449042
270.7122, 6.339041
271.1943, 6.439398
271.6764, 6.548268
272.1585, 6.601525
272.6407, 6.599362
273.1228, 6.599255
273.6049, 6.610551
274.0870, 6.605931
274.5691, 6.527888
275.0512, 6.348231
275.5334, 6.243459
276.0155, 6.282993
276.4976, 6.450786
276.9797, 6.569854
277.4618, 6.630298
277.9439, 6.669197
278.4260, 6.727493
278.9081, 6.808919
279.3903, 6.867801
279.8724, 6.879899
280.3545, 6.862450
280.8366, 6.928680
281.3187, 7.110437
281.8008, 7.237106
282.2830, 7.079864
282.7651, 6.630354
283.2472, 6.397408
283.7293, 6.536745
284.2114, 6.904680
284.6935, 7.074205
285.1757, 7.033446
285.6578, 6.921328
286.1399, 6.830101
286.6220, 6.757052
287.1041, 6.658829
287.5862, 6.515138
288.0684, 6.364787
288.5505, 6.293329
289.0326, 6.300362
289.5147, 6.339074
289.9968, 6.415141
290.4789, 6.511281
290.9611, 6.500674
291.4432, 6.339733
291.9253, 6.158266
292.4074, 6.199324
292.8895, 6.440830
293.3716, 6.654105
293.8538, 6.685803
294.3359, 6.594557
294.8180, 6.570725
295.3001, 6.630179
295.7822, 6.719689
296.2643, 6.796875
296.7465, 6.855641
297.2286, 6.870254
297.7107, 6.807707
298.1928, 6.697258
298.6749, 6.579874
299.1570, 6.451749
299.6392, 6.374861
300.1213, 6.459863
300.6034, 6.650015
301.0855, 6.796381
301.5676, 6.835680
302.0497, 6.809579
302.5319, 6.755217
303.0140, 6.675189
303.4961, 6.619260
303.9782, 6.657352
304.4603, 6.741221
304.9424, 6.787299
305.4246, 6.761262
305.9067, 6.699475
306.3888, 6.609397
306.8709, 6.504421
307.3530, 6.448325
307.8351, 6.546536
308.3173, 6.694539
308.7994, 6.758923
309.2815, 6.682952
309.7636, 6.580292
310.2457, 6.528612
310.7278, 6.519836
311.2100, 6.533796
311.6921, 6.592395
312.1742, 6.650858
312.6563, 6.653339
313.1384, 6.569362
313.6205, 6.520509
314.1027, 6.617711
314.5848, 6.793954
315.0669, 6.933228
315.5490, 7.015518
316.0311, 7.025611
316.5132, 6.906173
316.9954, 6.632498
317.4775, 6.441054
317.9596, 6.506967
318.4417, 6.684466
318.9238, 6.810022
319.4059, 6.750427
319.8881, 6.702830
320.3702, 6.764750
320.8523, 6.933324
321.3344, 7.071992
321.8165, 7.079399
322.2986, 7.074862
322.7808, 7.149040
323.2629, 7.233966
323.7450, 7.491587
324.2271, 7.923456
324.7092, 8.540868
325.1913, 9.416639
325.6735, 10.84022
326.1556, 12.32172
326.6377, 13.63302
327.1198, 14.95420
327.6019, 15.81817
328.0840, 15.94811
328.5662, 15.59146
329.0483, 15.37469
329.5304, 15.26863
330.0125, 15.33988
330.4946, 15.64420
330.9767, 16.29832
331.4589, 16.86064
331.9410, 17.26815
332.4231, 17.61349
332.9052, 18.02664
333.3873, 18.54401
333.8694, 19.07763
334.3516, 19.58208
334.8337, 20.04919
335.3158, 20.64244
335.7979, 21.39501
336.2800, 22.22937
336.7621, 23.01364
337.2443, 23.60654
337.7264, 24.52061
338.2085, 25.73876
338.6906, 27.32823
339.1727, 29.83103
339.6548, 33.42852
340.1370, 37.52862
340.6191, 41.91505
341.1012, 46.56871
341.5833, 50.97541
342.0654, 54.79311
342.5475, 58.58533
343.0297, 64.95654
343.5118, 74.65928
343.9939, 80.96687
344.4760, 79.39680
344.9581, 70.48080
345.4402, 59.83904
345.9224, 47.10561
346.4045, 34.57351
346.8866, 25.64687
347.3687, 20.10506
347.8508, 16.27118
348.3329, 13.92418
348.8151, 12.71663
349.2972, 11.74811
349.7793, 11.02348
350.2614, 10.48367
350.7435, 10.21624
351.2256, 10.11335
351.7078, 9.843755
352.1899, 9.238051
352.6720, 8.511045
353.1541, 7.902178
353.6362, 7.409613
354.1183, 7.057409
354.6005, 6.939990
355.0826, 6.946941
355.5647, 6.916951
356.0468, 6.804751
356.5289, 6.697831
357.0110, 6.666582
357.4932, 6.697711
357.9753, 6.760161
358.4574, 6.866852
358.9395, 6.980443
359.4216, 7.016831
359.9037, 6.947193
360.3859, 7.036412
360.8680, 7.441990
361.3501, 8.088088
361.8322, 8.882268
362.3143, 9.980310
362.7964, 11.04830
363.2786, 12.00130
363.7607, 12.82547
364.2428, 13.41761
364.7249, 13.52832
365.2070, 13.51825
365.6891, 13.63359
366.1713, 14.01617
366.6534, 14.40619
367.1355, 14.76942
367.6176, 15.10667
368.0997, 15.41524
368.5818, 15.60793
369.0640, 15.84626
369.5461, 16.19975
370.0282, 16.72127
370.5103, 17.23768
370.9924, 17.70484
371.4745, 18.18934
371.9567, 18.77737
372.4388, 19.44563
372.9209, 20.23246
373.4030, 21.04416
373.8851, 21.87370
374.3672, 23.35711
374.8494, 25.58464
375.3315, 28.36560
375.8136, 31.59639
376.2957, 35.46421
376.7778, 39.25047
377.2599, 42.81030
377.7421, 46.24815
378.2242, 49.79635
378.7063, 53.35878
379.1884, 57.29557
379.6705, 63.33672
380.1526, 71.58052
380.6348, 73.13982
381.1169, 66.74671
381.5990, 56.12321
382.0811, 45.25451
382.5632, 34.34907
383.0453, 25.28541
383.5275, 19.22329
384.0096, 15.53665
384.4917, 12.85506
384.9738, 11.19201
385.4559, 10.06873
385.9380, 9.156061
386.4202, 8.444695
386.9023, 7.908816
387.3844, 7.562572
387.8665, 7.347368
388.3486, 7.258318
388.8307, 7.258821
389.3129, 7.201910
389.7950, 6.929496
390.2771, 6.586074
390.7592, 6.340649
391.2413, 6.231256
391.7234, 6.142604
392.2056, 5.984651
392.6877, 5.799513
393.1698, 5.650281
393.6519, 5.581490
394.1340, 5.538255
394.6161, 5.489761
395.0983, 5.435950
395.5804, 5.406661
396.0625, 5.457667
396.5446, 5.511966
397.0267, 5.511466
397.5089, 5.409587
397.9910, 5.294281
398.4731, 5.153980
398.9552, 5.007909
399.4373, 4.913792
399.9194, 4.924111
400.4016, 4.946050
400.8837, 4.942790
401.3658, 4.895536
401.8479, 4.883118
402.3300, 4.954035
402.8121, 5.029558
403.2942, 5.009020
403.7763, 4.837608
404.2585, 4.671729
404.7406, 4.531075
405.2227, 4.418283
405.7048, 4.377136
406.1869, 4.426208
406.6690, 4.505849
407.1512, 4.587562
407.6333, 4.677441
408.1154, 4.708560
408.5975, 4.652785
409.0796, 4.566118
409.5617, 4.571249
410.0439, 4.670759
410.5260, 4.753970
411.0081, 4.748343
411.4902, 4.678895
411.9723, 4.642626
412.4544, 4.637795
412.9366, 4.682992
413.4187, 4.847655
413.9008, 5.083519
414.3829, 5.242354
414.8650, 5.249395
415.3471, 5.200401
415.8293, 5.210926
416.3114, 5.272483
416.7935, 5.344974
417.2756, 5.415846
417.7577, 5.478755
418.2398, 5.521039
418.7220, 5.535582
419.2041, 5.555429
419.6862, 5.634630
420.1683, 5.726418
420.6504, 5.757310
421.1325, 5.611982
421.6147, 5.482366
422.0968, 5.452871
422.5789, 5.523535
423.0610, 5.633311
423.5431, 5.749570
424.0252, 5.910177
424.5074, 6.144598
424.9895, 6.550268
425.4716, 6.901319
425.9537, 7.158818
426.4358, 7.354998
426.9179, 7.559278
427.4001, 7.739426
427.8822, 7.972154
428.3643, 8.302602
428.8464, 8.755920
429.3285, 9.136142
429.8106, 9.456038
430.2928, 9.685307
430.7749, 9.808092
431.2570, 9.837802
431.7391, 9.695700
432.2212, 9.358072
432.7033, 8.845901
433.1855, 8.149841
433.6676, 7.235785
434.1497, 6.430950
434.6318, 5.981688
435.1139, 5.833938
435.5960, 5.674668
436.0782, 5.490189
436.5603, 5.282048
437.0424, 5.002103
437.5245, 4.689727
438.0066, 4.488019
438.4887, 4.502094
438.9709, 4.613048
439.4530, 4.679393
439.9351, 4.703536
440.4172, 4.700898
440.8993, 4.664897
441.3814, 4.615785
441.8636, 4.570456
442.3457, 4.525134
442.8278, 4.504746
443.3099, 4.585733
443.7920, 4.690658
444.2741, 4.694714
444.7563, 4.443346
445.2384, 4.185486
445.7205, 4.000495
446.2026, 3.892714
446.6847, 3.866822
447.1668, 4.007366
447.6490, 4.175634
448.1311, 4.285238
448.6132, 4.321461
449.0953, 4.307324
449.5774, 4.201933
450.0595, 4.056082
450.5417, 3.982937
451.0238, 4.020490
451.5059, 4.064616
451.9880, 4.085758
452.4701, 4.083323
452.9522, 4.067760
453.4344, 4.035140
453.9165, 3.998148
454.3986, 3.965190
454.8807, 3.935818
455.3628, 3.920599
455.8449, 3.926009
456.3271, 3.939017
456.8092, 3.911959
457.2913, 3.850881
457.7734, 3.840629
458.2555, 3.998091
458.7376, 4.225835
459.2198, 4.281336
459.7019, 4.147930
460.1840, 4.009120
460.6661, 4.051858
461.1482, 4.192712
461.6303, 4.298962
462.1125, 4.343393
462.5946, 4.323928
463.0767, 4.166905
463.5588, 3.932239
464.0409, 3.797940
464.5230, 3.941745
465.0052, 4.135375
465.4873, 4.245310
465.9694, 4.243582
466.4515, 4.240372
466.9336, 4.274900
467.4157, 4.314211
467.8979, 4.327236
468.3800, 4.316106
468.8621, 4.270018
469.3442, 4.154089
469.8263, 3.997691
470.3084, 3.918468
470.7906, 3.949024
471.2727, 4.008907
471.7548, 4.065743
472.2369, 4.116666
472.7190, 4.199961
473.2011, 4.350997
473.6833, 4.469218
474.1654, 4.394994
474.6475, 4.116721
475.1296, 3.918551
475.6117, 3.884609
476.0938, 3.948055
476.5760, 3.951831
477.0581, 3.900507
477.5402, 3.852658
478.0223, 3.830539
478.5044, 3.840102
478.9865, 3.925120
479.4687, 4.098839
479.9508, 4.222669
480.4329, 4.085168
480.9150, 3.839197
481.3971, 3.719241
481.8792, 3.926440
482.3614, 4.144948
482.8435, 4.156725
483.3256, 4.018755
483.8077, 3.907126
484.2898, 3.860188
484.7719, 3.880199
485.2541, 4.007176
485.7362, 4.298162
486.2183, 4.458708
486.7004, 4.355974
487.1825, 4.154119
487.6646, 4.005380
488.1468, 3.947756
488.6289, 3.886791
489.1110, 3.799739
489.5931, 3.704082
490.0752, 3.655348
490.5573, 3.652839
491.0395, 3.700405
491.5216, 3.823230
492.0037, 4.025339
492.4858, 4.160545
492.9679, 4.229537
493.4500, 4.237863
493.9322, 4.173997
494.4143, 4.046438
494.8964, 3.903282
495.3785, 3.729587
495.8606, 3.586934
496.3427, 3.592745
496.8249, 3.717176
497.3070, 3.848391
497.7891, 3.937549
498.2712, 3.993684
498.7533, 4.022986
499.2354, 4.026128
499.7176, 4.006666
500.1997, 3.919443
500.6818, 3.834260
501.1639, 3.824206
501.6460, 4.010609
502.1281, 4.120368
502.6103, 4.016788
503.0924, 3.787688
503.5745, 3.621104
504.0566, 3.554971
504.5387, 3.545017
505.0208, 3.602267
505.5030, 3.731323
505.9851, 3.815158
506.4672, 3.854323
506.9493, 3.846387
507.4314, 3.766893
507.9135, 3.579037
508.3957, 3.493199
508.8778, 3.544781
509.3599, 3.666670
509.8420, 3.752397
510.3241, 3.802161
510.8062, 3.837374
511.2884, 3.852762
511.7705, 3.864906
512.2526, 3.923133
512.7347, 4.023694
513.2168, 4.120405
513.6989, 4.223856
514.1810, 4.286639
514.6631, 4.196867
515.1453, 3.893296
515.6274, 3.665375
516.1095, 3.805067
516.5916, 4.110966
517.0737, 4.314101
517.5558, 4.261511
518.0380, 4.155626
518.5201, 4.032560
519.0022, 3.904770
519.4843, 3.825847
519.9664, 3.817712
520.4485, 3.851332
520.9307, 3.932878
521.4128, 4.097612
521.8949, 4.156150
522.3770, 4.031161
522.8591, 3.885415
523.3412, 3.907788
523.8234, 4.159746
524.3055, 4.288298
524.7876, 4.216285
525.2697, 4.024063
525.7518, 3.872784
526.2339, 3.761614
526.7161, 3.719182
527.1982, 3.800943
527.6803, 3.956343
528.1624, 4.054765
528.6445, 4.097917
529.1266, 4.117272
529.6088, 4.136940
530.0909, 4.149156
530.5730, 4.140220
531.0551, 4.100927
531.5372, 4.058426
532.0193, 4.055083
532.5015, 4.053472
532.9836, 3.995975
533.4657, 3.739636
533.9478, 3.550261
534.4299, 3.561229
534.9120, 3.748729
535.3942, 3.867585
535.8763, 3.809381
536.3584, 3.762210
536.8405, 3.820398
537.3226, 4.035838
537.8047, 4.147055
538.2869, 4.121232
538.7690, 4.035796
539.2511, 3.963260
539.7332, 3.900791
540.2153, 3.895778
540.6974, 3.980654
541.1796, 4.095518
541.6617, 4.096347
542.1438, 3.995438
542.6259, 3.919047
543.1080, 3.980355
543.5901, 4.090451
544.0723, 4.098472
544.5544, 4.006354
545.0365, 3.883458
545.5186, 3.711673
546.0007, 3.568167
546.4828, 3.546951
546.9650, 3.712841
547.4471, 3.879968
547.9292, 4.020982
548.4113, 4.103673
548.8934, 4.083545
549.3755, 3.735150
549.8577, 3.526788
550.3398, 3.635481
550.8219, 3.986813
551.3040, 4.184274
551.7861, 4.173569
552.2682, 4.101947
552.7504, 4.009856
553.2325, 3.887797
553.7146, 3.876272
554.1967, 4.003724
554.6788, 4.155054
555.1609, 4.208592
555.6431, 4.174628
556.1252, 4.136787
556.6073, 4.111434
557.0894, 4.084138
557.5715, 4.029418
558.0536, 3.955523
558.5358, 3.886244
559.0179, 3.815140
559.5000, 3.767165
559.9821, 3.770655
560.4642, 3.820619
560.9464, 3.884957
561.4285, 3.976157
561.9106, 4.057592
562.3927, 4.094062
562.8748, 4.050498
563.3569, 4.061262
563.8391, 4.221235
564.3212, 4.397767
564.8033, 4.471419
565.2854, 4.390087
565.7675, 4.310481
566.2496, 4.255106
566.7318, 4.206051
567.2139, 4.098848
567.6960, 3.914642
568.1781, 3.802026
568.6602, 3.858781
569.1423, 4.028426
569.6245, 4.098794
570.1066, 4.071595
570.5887, 4.016014
571.0708, 3.957115
571.5529, 3.911919
572.0350, 3.921108
572.5172, 3.999619
572.9993, 4.069996
573.4814, 4.071000
573.9635, 4.033338
574.4456, 3.994272
574.9277, 3.911455
575.4099, 3.888893
575.8920, 4.033027
576.3741, 4.263155
576.8562, 4.354356
577.3383, 4.126669
577.8204, 3.949553
578.3026, 3.940765
578.7847, 4.095919
579.2668, 4.171159
579.7489, 4.141060
580.2310, 4.092194
580.7131, 4.092314
581.1953, 4.140259
581.6774, 4.136949
582.1595, 4.067096
582.6416, 3.989173
583.1237, 3.991328
583.6058, 4.044234
584.0880, 4.057177
584.5701, 3.978194
585.0522, 3.894739
585.5343, 3.920547
586.0164, 4.011405
586.4985, 4.059278
586.9807, 3.913531
587.4628, 3.805058
587.9449, 3.913604
588.4270, 4.227911
588.9091, 4.413623
589.3912, 4.295455
589.8734, 4.123289
590.3555, 4.013139
590.8376, 3.970919
591.3197, 3.982404
591.8018, 4.082078
592.2839, 4.189102
592.7661, 4.207340
593.2482, 4.126180
593.7303, 4.060217
594.2124, 4.022769
594.6945, 4.017202
595.1766, 4.061903
595.6588, 4.148232
596.1409, 4.231586
596.6230, 4.308241
597.1051, 4.360091
597.5872, 4.348687
598.0693, 4.285378
598.5515, 4.227194
599.0336, 4.223970
599.5157, 4.222953
599.9978, 4.182479
600.4799, 4.091051
600.9620, 4.009061
601.4442, 3.926727
601.9263, 3.874651
602.4084, 3.878567
602.8905, 3.992591
603.3726, 4.058027
603.8547, 4.048851
604.3369, 4.009095
604.8190, 4.014721
605.3011, 4.072743
605.7832, 4.121409
606.2653, 4.135272
606.7474, 4.136918
607.2296, 4.209636
607.7117, 4.338438
608.1938, 4.403274
608.6759, 4.253754
609.1580, 4.039511
609.6401, 3.972452
610.1223, 4.052046
610.6044, 4.139948
611.0865, 4.141841
611.5686, 4.129128
612.0507, 4.170225
612.5328, 4.318194
613.0150, 4.398217
613.4971, 4.302617
613.9792, 4.162153
614.4613, 4.113938
614.9434, 4.223761
615.4255, 4.295404
615.9077, 4.303482
616.3898, 4.268275
616.8719, 4.229185
617.3540, 4.185794
617.8361, 4.142267
618.3182, 4.087340
618.8004, 4.041723
619.2825, 4.086234
619.7646, 4.208007
620.2467, 4.295984
620.7288, 4.237419
621.2109, 4.127732
621.6931, 4.071851
622.1752, 4.076690
622.6573, 4.117222
623.1394, 4.243983
623.6215, 4.361866
624.1036, 4.388927
624.5858, 4.249446
625.0679, 4.139868
625.5500, 4.069846
626.0321, 4.043892
626.5142, 4.083391
626.9963, 4.244493
627.4785, 4.315269
627.9606, 4.226323
628.4427, 4.062872
628.9248, 4.046311
629.4069, 4.177568
629.8890, 4.297323
630.3712, 4.337525
630.8533, 4.324080
631.3354, 4.283322
631.8175, 4.223845
632.2996, 4.200780
632.7817, 4.286753
633.2639, 4.400317
633.7460, 4.484667
634.2281, 4.535219
634.7102, 4.525395
635.1923, 4.340263
635.6744, 4.159614
636.1566, 4.123587
636.6387, 4.371562
637.1208, 4.525795
637.6029, 4.571082
638.0850, 4.534904
638.5671, 4.425789
639.0493, 4.218527
639.5314, 4.086703
640.0135, 4.075127
640.4956, 4.134328
640.9777, 4.173344
641.4598, 4.195436
641.9420, 4.222839
642.4241, 4.275396
642.9062, 4.331552
643.3883, 4.355996
643.8704, 4.358019
644.3525, 4.378263
644.8347, 4.498429
645.3168, 4.594088
645.7989, 4.561773
646.2810, 4.376277
646.7631, 4.270145
647.2452, 4.363161
647.7274, 4.474911
648.2095, 4.498533
648.6916, 4.376618
649.1737, 4.364527
649.6558, 4.511436
650.1379, 4.668406
650.6201, 4.622874
651.1022, 4.392880
651.5843, 4.266829
652.0664, 4.319593
652.5485, 4.429482
653.0306, 4.420285
653.5128, 4.338914
653.9949, 4.295000
654.4770, 4.409339
654.9591, 4.500639
655.4412, 4.395309
655.9233, 4.168724
656.4055, 4.042358
656.8876, 4.158238
657.3697, 4.308754
657.8518, 4.446603
658.3339, 4.568581
658.8160, 4.626836
659.2982, 4.600747
659.7803, 4.550203
660.2624, 4.500105
660.7445, 4.450486
661.2266, 4.407698
661.7087, 4.368120
662.1909, 4.362474
662.6730, 4.446650
663.1551, 4.582252
663.6372, 4.693678
664.1193, 4.776861
664.6014, 4.795334
665.0836, 4.643565
665.5657, 4.441636
666.0478, 4.338323
666.5299, 4.479623
667.0120, 4.584017
667.4941, 4.554878
667.9763, 4.453490
668.4584, 4.393229
668.9405, 4.381433
669.4226, 4.396499
669.9047, 4.435979
670.3868, 4.498589
670.8690, 4.596048
671.3511, 4.732796
671.8332, 4.833941
672.3153, 4.871851
672.7974, 4.846553
673.2795, 4.699493
673.7617, 4.457863
674.2438, 4.312624
674.7259, 4.512024
675.2080, 4.778357
675.6901, 4.854667
676.1722, 4.706547
676.6544, 4.587206
677.1365, 4.626895
677.6186, 4.683027
678.1007, 4.650186
678.5828, 4.455096
679.0649, 4.379035
679.5471, 4.473361
680.0292, 4.615643
680.5113, 4.679915
680.9934, 4.665931
681.4755, 4.622935
681.9576, 4.543089
682.4398, 4.481320
682.9219, 4.552307
683.4040, 4.703773
683.8861, 4.791672
684.3682, 4.742928
684.8503, 4.658157
685.3325, 4.593791
685.8146, 4.548552
686.2967, 4.519116
686.7788, 4.457626
687.2609, 4.461999
687.7430, 4.647839
688.2252, 4.939843
688.7073, 5.007432
689.1894, 4.748302
689.6715, 4.489444
690.1536, 4.343855
690.6357, 4.302806
691.1179, 4.337508
691.6000, 4.450343
692.0821, 4.566019
692.5642, 4.668119
693.0463, 4.728430
693.5284, 4.663973
694.0106, 4.474722
694.4927, 4.320780
694.9748, 4.342939
695.4569, 4.419466
695.9390, 4.451254
696.4211, 4.407191
696.9033, 4.371252
697.3854, 4.334949
697.8675, 4.325305
698.3496, 4.375661
698.8317, 4.522539
699.3138, 4.608327
699.7960, 4.620661
700.2781, 4.576395
700.7602, 4.449535
701.2423, 4.266367
701.7244, 4.203527
702.2065, 4.339131
702.6887, 4.526264
703.1708, 4.597995
703.6529, 4.596604
704.1350, 4.601042
704.6171, 4.627802
705.0992, 4.681915
705.5814, 4.825821
706.0635, 5.003486
706.5456, 5.038730
707.0277, 4.807031
707.5098, 4.602558
707.9919, 4.478148
708.4741, 4.433793
708.9562, 4.505241
709.4383, 4.712347
709.9204, 4.865195
710.4025, 4.808419
710.8846, 4.641542
711.3667, 4.653773
711.8488, 4.823303
712.3309, 4.970599
712.8130, 4.941786
713.2952, 4.864011
713.7773, 4.849965
714.2594, 4.912360
714.7415, 4.959470
715.2236, 4.969186
715.7057, 4.952826
716.1879, 4.906970
716.6700, 4.806633
717.1521, 4.785186
717.6342, 4.866336
718.1163, 4.976689
718.5984, 5.061263
719.0806, 5.118680
719.5627, 5.128654
720.0448, 5.084872
720.5269, 5.021737
721.0090, 4.957313
721.4911, 4.902261
721.9733, 4.875804
722.4554, 4.895612
722.9375, 4.914747
723.4196, 4.898511
723.9017, 4.874196
724.3839, 4.877427
724.8660, 4.971627
725.3481, 5.004133
725.8302, 4.930801
726.3123, 4.815498
726.7944, 4.780440
727.2766, 4.832277
727.7587, 4.886108
728.2408, 4.920291
728.7229, 4.945393
729.2050, 4.979604
729.6871, 5.020459
730.1693, 5.058723
730.6514, 5.119097
731.1335, 5.149925
731.6156, 5.086041
732.0977, 4.959672
732.5798, 4.869849
733.0620, 4.827082
733.5441, 4.845288
734.0262, 4.966493
734.5083, 5.161318
734.9904, 5.234193
735.4725, 5.149797
735.9547, 5.066112
736.4368, 5.068174
736.9189, 5.126989
737.4010, 5.108186
737.8831, 5.020937
738.3652, 4.974594
738.8474, 5.111316
739.3295, 5.281846
739.8116, 5.308386
740.2937, 5.187329
740.7758, 5.103070
741.2579, 5.155786
741.7401, 5.241430
742.2222, 5.306467
742.7043, 5.349310
743.1864, 5.378587
743.6685, 5.404760
744.1506, 5.397131
744.6328, 5.306334
745.1149, 5.142257
745.5970, 5.048919
746.0791, 5.034163
746.5612, 5.080614
747.0433, 5.229970
747.5255, 5.409573
748.0076, 5.513533
748.4897, 5.522146
748.9718, 5.474894
749.4539, 5.308515
749.9360, 5.143224
750.4182, 5.091485
750.9003, 5.264534
751.3824, 5.356288
751.8645, 5.348093
752.3466, 5.283338
752.8287, 5.190106
753.3109, 5.066019
753.7930, 4.999637
754.2751, 5.000456
754.7572, 5.064822
755.2393, 5.261529
755.7214, 5.505881
756.2036, 5.624221
756.6857, 5.499534
757.1678, 5.370614
757.6499, 5.386976
758.1320, 5.467479
758.6141, 5.498359
759.0963, 5.379516
759.5784, 5.334974
760.0605, 5.420745
760.5426, 5.558569
761.0247, 5.587382
761.5068, 5.497000
761.9890, 5.477124
762.4711, 5.604298
762.9532, 5.764714
763.4353, 5.772305
763.9174, 5.666183
764.3995, 5.543464
764.8817, 5.383706
765.3638, 5.288215
765.8459, 5.365498
766.3280, 5.544765
766.8101, 5.661375
767.2922, 5.615297
767.7744, 5.604608
768.2565, 5.691071
768.7386, 5.824720
769.2207, 5.851792
769.7028, 5.764185
770.1849, 5.662925
770.6671, 5.559912
771.1492, 5.490220
771.6313, 5.559688
772.1134, 5.727331
772.5955, 5.850731
773.0776, 5.799026
773.5598, 5.736152
774.0419, 5.794427
774.5240, 5.934729
775.0061, 5.971104
775.4882, 5.741572
775.9703, 5.588366
776.4525, 5.637554
776.9346, 5.834915
777.4167, 5.885608
777.8988, 5.777714
778.3809, 5.693258
778.8630, 5.760562
779.3452, 5.888255
779.8273, 5.894078
780.3094, 5.797441
780.7915, 5.688964
781.2736, 5.560335
781.7557, 5.487683
782.2379, 5.565017
782.7200, 5.775884
783.2021, 5.872773
783.6842, 5.725297
784.1663, 5.630481
784.6484, 5.736197
785.1306, 5.999669
785.6127, 6.037338
786.0948, 5.836131
786.5769, 5.650773
787.0590, 5.663617
787.5411, 5.783500
788.0233, 5.871053
788.5054, 5.925416
788.9875, 5.951351
789.4696, 5.662160
789.9517, 6.005384
790.4338, 6.199708
790.9160, 6.253134
791.3981, 5.743651
791.8802, 5.961046
792.3623, 5.887142
792.8444, 5.801293
793.3265, 6.120993
793.8087, 5.693385
794.2908, 6.006653
794.7729, 6.024178
795.2550, 6.177057
795.7371, 6.036837
796.2192, 5.987146
796.7014, 6.230649
797.1835, 6.311807
797.6656, 6.137847
798.1477, 6.299331
798.6298, 5.861483
799.1119, 5.949556
799.5941, 6.264542
800.0762, 6.105319
800.5583, 6.272161
801.0404, 6.314819
801.5225, 5.793115
802.0046, 6.252893
802.4868, 6.288214
802.9689, 5.887707
803.4510, 6.313856
803.9331, 5.973433
804.4152, 5.906629
804.8973, 6.045741
805.3795, 5.970193
805.8616, 6.233082
806.3437, 6.169930
806.8258, 6.077648
807.3079, 6.112492
807.7900, 5.787100
808.2722, 6.130018
808.7543, 6.016424
809.2364, 6.129752
809.7185, 6.294514
810.2006, 6.011961
810.6827, 5.926695
811.1649, 5.888804
811.6470, 6.009268
812.1291, 6.153073
812.6112, 6.202823
813.0933, 6.154246
813.5754, 6.150637
814.0576, 6.293538
814.5397, 6.389182
815.0218, 6.339668
815.5039, 6.158070
815.9860, 6.069644
816.4681, 6.080449
816.9503, 6.100419
817.4324, 6.063170
817.9145, 6.001205
818.3966, 5.977543
818.8787, 5.987156
819.3608, 5.989958
819.8430, 5.939845
820.3251, 5.899740
820.8072, 5.917743
821.2893, 5.993580
821.7714, 6.030024
822.2535, 6.015175
822.7357, 5.983235
823.2178, 5.938926
823.6999, 5.890009
824.1820, 5.868019
824.6641, 5.872981
825.1462, 5.904854
825.6284, 6.029046
826.1105, 6.132129
826.5926, 6.065255
827.0747, 5.862779
827.5568, 5.706829
828.0389, 5.668816
828.5211, 5.676440
829.0032, 5.723457
829.4853, 5.796664
829.9674, 5.805620
830.4495, 5.729423
830.9316, 5.705338
831.4138, 5.813352
831.8959, 5.993173
832.3780, 6.144989
832.8601, 6.259885
833.3422, 6.305517
833.8243, 6.205392
834.3065, 6.088630
834.7886, 6.037744
835.2707, 6.032966
835.7528, 5.989060
836.2349, 5.834245
836.7170, 5.759219
837.1992, 5.843193
837.6813, 6.014554
838.1634, 6.060817
838.6455, 5.990957
839.1276, 5.937642
839.6097, 5.982678
840.0919, 6.029892
840.5740, 5.919734
841.0561, 5.729383
841.5382, 5.631474
842.0203, 5.789793
842.5024, 5.925690
842.9846, 5.974102
843.4667, 5.953139
843.9488, 5.868554
844.4309, 5.687032
844.9130, 5.612493
845.3951, 5.719570
845.8773, 5.885077
846.3594, 5.893615
846.8415, 5.797488
847.3236, 5.740479
847.8057, 5.806677
848.2878, 5.852869
848.7700, 5.748114
849.2521, 5.589893
849.7342, 5.518679
850.2163, 5.616043
850.6984, 5.675118
851.1805, 5.670719
851.6627, 5.643729
852.1448, 5.662260
852.6269, 5.717027
853.1090, 5.707848
853.5911, 5.600609
854.0732, 5.513975
854.5554, 5.589998
855.0375, 5.743064
855.5196, 5.876356
856.0017, 5.989249
856.4838, 6.029206
856.9659, 5.938960
857.4481, 5.813345
857.9302, 5.718081
858.4123, 5.654339
858.8944, 5.623355
859.3765, 5.629488
859.8586, 5.644938
860.3408, 5.626810
860.8229, 5.604689
861.3050, 5.653148
861.7871, 5.786672
862.2692, 5.869293
862.7513, 5.793942
863.2335, 5.675251
863.7156, 5.580696
864.1977, 5.510705
864.6798, 5.497914
865.1619, 5.569057
865.6440, 5.622429
866.1262, 5.564234
866.6083, 5.432037
867.0904, 5.388895
867.5725, 5.426622
868.0546, 5.451674
868.5367, 5.390532
869.0189, 5.305342
869.5010, 5.229750
869.9831, 5.166750
870.4652, 5.136372
870.9473, 5.158617
871.4294, 5.179979
871.9116, 5.177419
872.3937, 5.161903
872.8758, 5.201108
873.3579, 5.288455
873.8400, 5.318789
874.3221, 5.191959
874.8043, 5.027564
875.2864, 4.944463
875.7685, 4.924758
876.2506, 4.927350
876.7327, 4.988142
877.2148, 5.005461
877.6970, 4.914444
878.1791, 4.791911
878.6612, 4.829315
879.1433, 5.048441
879.6254, 5.186455
880.1075, 5.172232
880.5897, 5.078922
881.0718, 4.977172
881.5539, 4.875475
882.0360, 4.788947
882.5181, 4.716761
883.0002, 4.670146
883.4824, 4.675014
883.9645, 4.694547
884.4466, 4.685952
884.9287, 4.635946
885.4108, 4.611320
885.8929, 4.625524
886.3751, 4.632140
886.8572, 4.554270
887.3393, 4.434753
887.8214, 4.376455
888.3035, 4.397184
888.7856, 4.427997
889.2678, 4.435740
889.7499, 4.432146
890.2320, 4.422050
890.7141, 4.402840
891.1962, 4.405029
891.6783, 4.446067
892.1605, 4.464292
892.6426, 4.388867
893.1247, 4.256506
893.6068, 4.230305
894.0889, 4.300883
894.5710, 4.368234
895.0532, 4.361952
895.5353, 4.338474
896.0174, 4.354901
896.4995, 4.400503
896.9816, 4.365009
897.4637, 4.178621
897.9459, 4.033074
898.4280, 3.996112
898.9101, 4.032071
899.3922, 4.044513
899.8743, 4.036572
900.3564, 4.030564
900.8386, 4.054680
901.3207, 4.058239
901.8028, 3.958782
902.2849, 3.817511
902.7670, 3.742058
903.2491, 3.840091
903.7313, 3.887261
904.2134, 3.829455
904.6955, 3.757041
905.1776, 3.833779
905.6597, 4.044699
906.1418, 4.144824
906.6240, 4.084816
907.1061, 3.979240
907.5882, 3.913070
908.0703, 3.878000
908.5524, 3.874967
909.0345, 3.928474
909.5167, 3.923707
909.9988, 3.785345
910.4809, 3.658969
910.9630, 3.651523
911.4451, 3.766194
911.9272, 3.811066
912.4094, 3.784479
912.8915, 3.747214
913.3736, 3.732837
913.8557, 3.739965
914.3378, 3.787824
914.8199, 3.867080
915.3021, 3.903382
915.7842, 3.801100
916.2663, 3.739135
916.7484, 3.793926
917.2305, 3.925476
917.7126, 3.979506
918.1948, 3.955657
918.6769, 3.897354
919.1590, 3.803075
919.6411, 3.708966
920.1232, 3.648634
920.6053, 3.623849
921.0875, 3.638450
921.5696, 3.773207
922.0517, 3.841506
922.5338, 3.799005
923.0159, 3.692133
923.4980, 3.548984
923.9802, 3.361114
924.4623, 3.297716
924.9444, 3.395208
925.4265, 3.523960
925.9086, 3.567551
926.3907, 3.551581
926.8729, 3.485678
927.3550, 3.351611
927.8371, 3.301720
928.3192, 3.502336
928.8013, 3.681325
929.2834, 3.686994
929.7656, 3.520828
930.2477, 3.411297
930.7298, 3.357697
931.2119, 3.360153
931.6940, 3.461124
932.1761, 3.590551
932.6583, 3.663273
933.1404, 3.687483
933.6225, 3.698317
934.1046, 3.681680
934.5867, 3.687569
935.0688, 3.750825
935.5510, 3.833072
936.0331, 3.828508
936.5152, 3.735979
936.9973, 3.656488
937.4794, 3.624799
937.9615, 3.592444
938.4437, 3.450064
938.9258, 3.288171
939.4079, 3.258930
939.8900, 3.519457
940.3721, 3.654739
940.8542, 3.486266
941.3364, 3.293328
941.8185, 3.339849
942.3006, 3.637519
942.7827, 3.712080
943.2648, 3.538472
943.7469, 3.346617
944.2291, 3.315028
944.7112, 3.367089
945.1933, 3.457863
945.6754, 3.574978
946.1575, 3.614661
946.6396, 3.462427
947.1218, 3.343567
947.6039, 3.336469
948.0860, 3.407740
948.5681, 3.425276
949.0502, 3.394978
949.5323, 3.395696
950.0145, 3.487936
950.4966, 3.580183
950.9787, 3.566538
951.4608, 3.496715
951.9429, 3.451678
952.4250, 3.497741
952.9072, 3.494755
953.3893, 3.406217
953.8714, 3.310207
954.3535, 3.301410
954.8356, 3.369216
955.3177, 3.451515
955.7999, 3.544096
956.2820, 3.609115
956.7640, 3.636165
957.2462, 3.608516
957.7283, 3.470885
958.2104, 3.202619
958.6925, 3.086465
959.1746, 3.183343
959.6567, 3.317703
960.1389, 3.432637
960.6210, 3.519341
961.1031, 3.534687
961.5852, 3.489896
962.0673, 3.436356
962.5494, 3.399565
963.0316, 3.360592
963.5137, 3.274597
963.9958, 3.188022
964.4779, 3.196769
964.9600, 3.352740
965.4421, 3.473700
965.9243, 3.544643
966.4064, 3.567337
966.8885, 3.507808
967.3706, 3.407945
967.8527, 3.375344
968.3348, 3.431252
968.8170, 3.494286
969.2991, 3.522872
969.7812, 3.541626
970.2633, 3.575219
970.7454, 3.624650
971.2275, 3.624142
971.7097, 3.573207
972.1918, 3.469940
972.6739, 3.232611
973.1560, 3.002285
973.6381, 3.104272
974.1202, 3.421115
974.6024, 3.620688
975.0845, 3.450889
975.5666, 3.299549
976.0487, 3.280778
976.5308, 3.324527
977.0129, 3.335450
977.4951, 3.312613
977.9772, 3.282080
978.4593, 3.248041
978.9414, 3.203100
979.4235, 3.105053
979.9056, 3.010378
980.3878, 2.988704
980.8699, 3.055706
981.3520, 3.156678
981.8341, 3.357914
982.3162, 3.483078
982.7983, 3.415749
983.2805, 3.204303
983.7626, 3.124527
984.2447, 3.163713
984.7268, 3.213285
985.2089, 3.209709
985.6910, 3.201959
986.1732, 3.224025
986.6553, 3.267564
987.1374, 3.316452
987.6195, 3.376980
988.1016, 3.429862
988.5837, 3.482852
989.0659, 3.505867
989.5480, 3.426252
990.0301, 3.288165
990.5122, 3.221092
990.9943, 3.243251
991.4764, 3.294592
991.9586, 3.395464
992.4407, 3.466325
992.9228, 3.433767
993.4049, 3.306470
993.8870, 3.253478
994.3691, 3.286011
994.8513, 3.319204
995.3334, 3.305548
995.8155, 3.280490
996.2976, 3.307793
996.7797, 3.366286
997.2618, 3.409344
997.7440, 3.441551
998.2261, 3.423429
998.7082, 3.298478
999.1903, 3.170812
999.6724, 3.175872
1000.155, 3.309279
1000.637, 3.410852
1001.119, 3.467896
1001.601, 3.477360
1002.083, 3.399416
1002.565, 3.299216
1003.047, 3.226731
1003.529, 3.188602
1004.011, 3.187951
1004.494, 3.239433
1004.976, 3.293907
1005.458, 3.336658
1005.940, 3.369303
1006.422, 3.395504
1006.904, 3.414437
1007.386, 3.423310
1007.868, 3.429634
1008.351, 3.410720
1008.833, 3.314366
1009.315, 3.211702
1009.797, 3.184999
1010.279, 3.262657
1010.761, 3.295382
1011.243, 3.274257
1011.725, 3.254712
1012.207, 3.296502
1012.690, 3.360269
1013.172, 3.398849
1013.654, 3.408807
1014.136, 3.388604
1014.618, 3.286446
1015.100, 3.219106
1015.582, 3.223481
1016.064, 3.274291
1016.547, 3.321000
1017.029, 3.362439
1017.511, 3.387184
1017.993, 3.386958
1018.475, 3.388135
1018.957, 3.436849
1019.439, 3.483665
1019.921, 3.466473
1020.403, 3.350986
1020.886, 3.300774
1021.368, 3.332428
1021.850, 3.379005
1022.332, 3.390005
1022.814, 3.389183
1023.296, 3.458662
1023.778, 3.570753
1024.260, 3.624513
1024.743, 3.487622
1025.225, 3.389744
1025.707, 3.442719
1026.189, 3.552807
1026.671, 3.582387
1027.153, 3.527744
1027.635, 3.498407
1028.117, 3.510478
1028.599, 3.529125
1029.082, 3.542359
1029.564, 3.531649
1030.046, 3.443712
1030.528, 3.264718
1031.010, 3.238890
1031.492, 3.491613
1031.974, 3.649537
1032.456, 3.514626
1032.938, 3.240389
1033.421, 3.247704
1033.903, 3.456360
1034.385, 3.598641
1034.867, 3.545754
1035.349, 3.463485
1035.831, 3.371599
1036.313, 3.324507
1036.795, 3.394325
1037.278, 3.613667
1037.760, 3.732550
1038.242, 3.743588
1038.724, 3.694201
1039.206, 3.583619
1039.688, 3.459007
1040.170, 3.364790
1040.652, 3.303988
1041.135, 3.281922
1041.617, 3.326206
1042.099, 3.363865
1042.581, 3.380131
1043.063, 3.386712
1043.545, 3.421988
1044.027, 3.466134
1044.509, 3.433617
1044.991, 3.291204
1045.474, 3.176956
1045.956, 3.193458
1046.438, 3.247285
1046.920, 3.266856
1047.402, 3.252967
1047.884, 3.308993
1048.366, 3.443058
1048.848, 3.527996
1049.330, 3.469856
1049.813, 3.370850
1050.295, 3.358924
1050.777, 3.392833
1051.259, 3.395492
1051.741, 3.347163
1052.223, 3.252312
1052.705, 3.072936
1053.187, 2.919629
1053.670, 2.933619
1054.152, 3.063839
1054.634, 3.139307
1055.116, 3.152897
1055.598, 3.134497
1056.080, 3.042103
1056.562, 2.984221
1057.044, 3.038944
1057.526, 3.160065
1058.009, 3.238608
1058.491, 3.274152
1058.973, 3.269114
1059.455, 3.216485
1059.937, 3.153227
1060.419, 3.104847
1060.901, 3.074352
1061.383, 3.067556
1061.865, 3.089870
1062.348, 3.114081
1062.830, 3.131610
1063.312, 3.172286
1063.794, 3.284333
1064.276, 3.406856
1064.758, 3.354071
1065.240, 3.175915
1065.722, 3.018979
1066.205, 2.923878
1066.687, 2.887024
1067.169, 2.929400
1067.651, 3.010942
1068.133, 3.118186
1068.615, 3.251361
1069.097, 3.282037
1069.579, 3.204551
1070.062, 3.112099
1070.544, 3.054920
1071.026, 3.027569
1071.508, 3.046238
1071.990, 3.094882
1072.472, 3.099760
1072.954, 3.045192
1073.436, 2.986770
1073.918, 2.925382
1074.401, 2.889562
1074.883, 2.955914
1075.365, 3.056796
1075.847, 3.064507
1076.329, 2.942540
1076.811, 2.872205
1077.293, 2.939059
1077.775, 3.020646
1078.257, 3.083709
1078.740, 3.117176
1079.222, 3.056412
1079.704, 2.921300
1080.186, 2.806719
1080.668, 2.740561
1081.150, 2.716943
1081.632, 2.750956
1082.114, 2.815853
1082.596, 2.887351
1083.079, 2.972882
1083.561, 3.027196
1084.043, 3.052788
1084.525, 3.018342
1085.007, 2.822158
1085.489, 2.618534
1085.971, 2.571239
1086.453, 2.648507
1086.936, 2.752106
1087.418, 2.917209
1087.900, 2.996022
1088.382, 2.953286
1088.864, 2.865770
1089.346, 2.816810
1089.828, 2.798680
1090.310, 2.793549
1090.792, 2.799924
1091.275, 2.837225
1091.757, 3.002878
1092.239, 3.087167
1092.721, 2.978336
1093.203, 2.766556
1093.685, 2.717276
1094.167, 2.807184
1094.649, 2.900906
1095.131, 2.974559
1095.614, 2.998539
1096.096, 2.891476
1096.578, 2.771026
1097.060, 2.759973
1097.542, 2.866797
1098.024, 2.855411
1098.506, 2.715243
1098.988, 2.587002
1099.471, 2.545677
1099.953, 2.552066
1100.435, 2.566773
1100.917, 2.594802
1101.399, 2.647060
1101.881, 2.759781
1102.363, 2.836888
1102.845, 2.886698
1103.328, 2.875712
1103.810, 2.725385
1104.292, 2.512292
1104.774, 2.371128
1105.256, 2.311203
1105.738, 2.356209
1106.220, 2.673733
1106.702, 2.884981
1107.184, 2.879752
1107.667, 2.764346
1108.149, 2.686269
1108.631, 2.641508
1109.113, 2.613405
1109.595, 2.599414
1110.077, 2.605037
1110.559, 2.629155
1111.041, 2.680184
1111.523, 2.797925
1112.006, 2.945650
1112.488, 2.951501
1112.970, 2.813831
1113.452, 2.687440
1113.934, 2.601501
1114.416, 2.583235
1114.898, 2.748116
1115.380, 2.939325
1115.863, 2.978767
1116.345, 2.832841
1116.827, 2.647209
1117.309, 2.392703
1117.791, 2.230419
1118.273, 2.285150
1118.755, 2.426468
1119.237, 2.472358
1119.719, 2.457875
1120.202, 2.449855
1120.684, 2.439652
1121.166, 2.502000
1121.648, 2.699772
1122.130, 2.843040
1122.612, 2.713791
1123.094, 2.424953
1123.576, 2.296103
1124.058, 2.305363
1124.541, 2.329422
1125.023, 2.329248
1125.505, 2.315045
1125.987, 2.276035
1126.469, 2.240273
1126.951, 2.259623
1127.433, 2.321006
1127.915, 2.320924
1128.398, 2.252537
1128.880, 2.221568
1129.362, 2.348275
1129.844, 2.478572
1130.326, 2.532832
1130.808, 2.527486
1131.290, 2.489647
1131.772, 2.418930
1132.255, 2.372474
1132.737, 2.366666
1133.219, 2.358907
1133.701, 2.289808
1134.183, 2.217639
1134.665, 2.203668
1135.147, 2.248877
1135.629, 2.267915
1136.111, 2.257603
1136.594, 2.240910
1137.076, 2.228704
1137.558, 2.207416
1138.040, 2.151074
1138.522, 2.079019
1139.004, 2.008432
1139.486, 1.921268
1139.968, 1.932517
1140.450, 2.081218
1140.933, 2.218876
1141.415, 2.268896
1141.897, 2.254223
1142.379, 2.184806
1142.861, 2.090748
1143.343, 2.038701
1143.825, 2.096269
1144.307, 2.123675
1144.790, 2.095299
1145.272, 2.063682
1145.754, 2.087869
1146.236, 2.141301
1146.718, 2.128338
1147.200, 2.062581
1147.682, 2.013004
1148.164, 2.023483
1148.646, 2.040435
1149.129, 2.051646
1149.611, 2.062070
1150.093, 2.069541
1150.575, 2.079770
1151.057, 2.154601
1151.539, 2.290085
1152.021, 2.356309
1152.503, 2.213602
1152.985, 2.052348
1153.468, 1.944838
1153.950, 1.886161
1154.432, 1.880221
1154.914, 1.923241
1155.396, 1.951105
1155.878, 1.951080
1156.360, 1.960711
1156.842, 2.039603
1157.325, 2.110937
1157.807, 2.098001
1158.289, 2.027061
1158.771, 2.009804
1159.253, 2.047833
1159.735, 2.098191
1160.217, 2.156766
1160.699, 2.196754
1161.182, 2.181814
1161.664, 2.143399
1162.146, 2.118923
1162.628, 2.111795
1163.110, 2.031094
1163.592, 1.855193
1164.074, 1.789194
1164.556, 1.972113
1165.038, 2.187106
1165.521, 2.166022
1166.003, 2.029460
1166.485, 1.932622
1166.967, 1.893470
1167.449, 1.931736
1167.931, 2.076455
1168.413, 2.164690
1168.895, 2.057531
1169.377, 1.889969
1169.860, 1.850861
1170.342, 1.899581
1170.824, 1.965654
1171.306, 2.079027
1171.788, 2.109998
1172.270, 2.032218
1172.752, 1.949002
1173.234, 1.953305
1173.717, 1.994951
1174.199, 1.961290
1174.681, 1.887629
1175.163, 1.878677
1175.645, 2.082181
1176.127, 2.160349
1176.609, 2.045058
1177.091, 1.908987
1177.573, 1.966393
1178.056, 2.111115
1178.538, 2.095152
1179.020, 1.942356
1179.502, 1.831143
1179.984, 1.874538
1180.466, 1.890760
1180.948, 1.839680
1181.430, 1.773720
1181.912, 1.758226
1182.395, 1.779688
1182.877, 1.812152
1183.359, 1.851137
1183.841, 1.876384
1184.323, 1.853802
1184.805, 1.851820
1185.287, 1.896510
1185.769, 1.957166
1186.252, 1.987827
1186.734, 1.989989
1187.216, 1.963017
1187.698, 1.906285
1188.180, 1.845366
1188.662, 1.743188
1189.144, 1.707804
1189.626, 1.806505
1190.109, 1.961794
1190.591, 1.978130
1191.073, 1.896011
1191.555, 1.869677
1192.037, 1.941726
1192.519, 1.984504
1193.001, 1.917150
1193.483, 1.825260
1193.965, 1.724874
1194.448, 1.641500
1194.930, 1.695055
1195.412, 1.845867
1195.894, 1.924525
1196.376, 1.862360
1196.858, 1.810163
1197.340, 1.867854
1197.822, 1.926958
1198.304, 1.931943
1198.787, 1.889454
1199.269, 1.777168
1199.751, 1.633063
1200.233, 1.667597
1200.715, 2.085662
1201.197, 2.366750
1201.679, 2.095557
1202.161, 1.757692
1202.644, 1.695871
1203.126, 1.857254
1203.608, 1.861723
1204.090, 1.740916
1204.572, 1.667561
1205.054, 1.761443
1205.536, 1.837353
1206.018, 1.766408
1206.500, 1.680505
1206.983, 1.690687
1207.465, 1.785411
1207.947, 1.835774
1208.429, 1.846005
1208.911, 1.845322
1209.393, 1.859016
1209.875, 1.851116
1210.357, 1.792983
1210.839, 1.716178
1211.322, 1.626885
1211.804, 1.530883
1212.286, 1.566309
1212.768, 1.714439
1213.250, 1.825479
1213.732, 1.800690
1214.214, 1.742007
1214.696, 1.640053
1215.179, 1.566843
1215.661, 1.640633
1216.143, 1.835065
1216.625, 1.827369
1217.107, 1.635591
1217.589, 1.526182
1218.071, 1.803986
1218.553, 1.997517
1219.036, 1.856656
1219.518, 1.596699
1220.000, 1.452081
1220.482, 1.414206
1220.964, 1.429652
1221.446, 1.488306
1221.928, 1.521473
1222.410, 1.424736
1222.892, 1.380593
1223.375, 1.493800
1223.857, 1.655096
1224.339, 1.709212
1224.821, 1.674585
1225.303, 1.652463
1225.785, 1.649671
1226.267, 1.646896
1226.749, 1.634924
1227.231, 1.619643
1227.714, 1.603769
1228.196, 1.585463
1228.678, 1.552143
1229.160, 1.513542
1229.642, 1.518340
1230.124, 1.568694
1230.606, 1.610172
1231.088, 1.595048
1231.571, 1.593961
1232.053, 1.630282
1232.535, 1.688540
1233.017, 1.763377
1233.499, 1.836722
1233.981, 1.833963
1234.463, 1.749432
1234.945, 1.687871
1235.427, 1.749309
1235.910, 1.758869
1236.392, 1.627474
1236.874, 1.482376
1237.356, 1.628642
1237.838, 1.922556
1238.320, 1.964526
1238.802, 1.702684
1239.284, 1.518179
1239.766, 1.624767
1240.249, 1.706196
1240.731, 1.676186
1241.213, 1.604674
1241.695, 1.616054
1242.177, 1.672873
1242.659, 1.695663
1243.141, 1.671847
1243.623, 1.649981
1244.106, 1.610122
1244.588, 1.646637
1245.070, 1.831791
1245.552, 2.009624
1246.034, 1.861080
1246.516, 1.563438
1246.998, 1.426866
1247.480, 1.503799
1247.963, 1.513066
1248.445, 1.368749
1248.927, 1.323361
1249.409, 1.488296
1249.891, 1.688249
1250.373, 1.619423
1250.855, 1.448467
1251.337, 1.415480
1251.819, 1.564997
1252.302, 1.619347
1252.784, 1.535197
1253.266, 1.498646
1253.748, 1.583533
1254.230, 1.689638
1254.712, 1.722840
1255.194, 1.689631
1255.676, 1.546569
1256.158, 1.290430
1256.641, 1.276442
1257.123, 1.551067
1257.605, 1.716689
1258.087, 1.614024
1258.569, 1.481338
1259.051, 1.607804
1259.533, 1.791962
1260.015, 1.799592
1260.498, 1.648167
1260.980, 1.635472
1261.462, 1.764014
1261.944, 1.820073
1262.426, 1.714030
1262.908, 1.610606
1263.390, 1.686687
1263.872, 1.782563
1264.354, 1.760641
1264.837, 1.642016
1265.319, 1.552466
1265.801, 1.492419
1266.283, 1.470207
1266.765, 1.487478
1267.247, 1.547004
1267.729, 1.705746
1268.211, 1.851843
1268.693, 1.924378
1269.176, 1.929839
1269.658, 1.851652
1270.140, 1.722130
1270.622, 1.695294
1271.104, 1.840261
1271.586, 1.961205
1272.068, 2.005316
1272.550, 1.952083
1273.033, 1.736648
1273.515, 1.467241
1273.997, 1.438938
1274.479, 1.580534
1274.961, 1.720752
1275.443, 1.829696
1275.925, 1.890744
1276.407, 1.900738
1276.890, 1.869014
1277.372, 1.782553
1277.854, 1.681475
1278.336, 1.620796
1278.818, 1.604834
1279.300, 1.662999
1279.782, 1.826409
1280.264, 1.873095
1280.746, 1.762238
1281.229, 1.637452
1281.711, 1.534898
1282.193, 1.476986
1282.675, 1.530695
1283.157, 1.624631
1283.639, 1.664238
1284.121, 1.635805
1284.603, 1.628195
1285.085, 1.644584
1285.568, 1.653180
1286.050, 1.644219
1286.532, 1.621447
1287.014, 1.580889
1287.496, 1.533890
1287.978, 1.475982
1288.460, 1.416444
1288.942, 1.454089
1289.425, 1.579702
1289.907, 1.622401
1290.389, 1.510479
1290.871, 1.399909
1291.353, 1.408076
1291.835, 1.433502
1292.317, 1.398665
1292.799, 1.337668
1293.281, 1.408342
1293.764, 1.566815
1294.246, 1.633895
1294.728, 1.555487
1295.210, 1.456464
1295.692, 1.360793
1296.174, 1.288201
1296.656, 1.246515
1297.138, 1.233140
1297.620, 1.256523
1298.103, 1.300490
1298.585, 1.344983
1299.067, 1.393700
1299.549, 1.351939
1300.031, 1.142508
1300.513, 1.036446
1300.995, 1.152524
1301.477, 1.315555
1301.960, 1.220484
1302.442, 1.057902
1302.924, 1.114846
1303.406, 1.426930
1303.888, 1.542711
1304.370, 1.424791
1304.852, 1.330079
1305.334, 1.313206
##END=



