##NAMES=Pyrite
##RRUFFID=R050190
##IDEAL CHEMISTRY=Fe^2+^(S_2_)^2-^
##LOCALITY=Huanzala mine, Huallanca District, Dos de Mayo Province, Huanuco Department, Peru
##OWNER=RRUFF
##SOURCE=Dave Bunk Minerals
##DESCRIPTION=Brass yellow modified cubes with typical pyrite striations
##STATUS=The identification of this mineral has been confirmed by X-ray diffraction and chemical analysis
##URL=rruff.info/R050190
##MEASURED CHEMISTRY=Fe_1.00_S_2.00_
92.96582, 199.1272
93.44794, 204.9527
93.93005, 206.1466
94.41217, 196.6646
94.89429, 186.1319
95.37640, 175.6697
95.85852, 165.5109
96.34064, 155.7014
96.82275, 146.3375
97.30487, 137.2852
97.78699, 128.1706
98.26910, 118.7413
98.75122, 109.5694
99.23334, 100.8107
99.71545, 92.36570
100.1976, 84.45759
100.6797, 77.44913
101.1618, 71.23587
101.6439, 65.81126
102.1260, 61.23403
102.6081, 57.31930
103.0903, 53.77459
103.5724, 50.52446
104.0545, 47.72091
104.5366, 45.29086
105.0187, 43.22163
105.5008, 41.50452
105.9830, 40.23957
106.4651, 39.46238
106.9472, 38.43531
107.4293, 36.82171
107.9114, 35.21658
108.3935, 33.79725
108.8757, 32.58917
109.3578, 31.55750
109.8399, 30.65707
110.3220, 29.89336
110.8041, 29.28116
111.2862, 28.91614
111.7684, 28.62215
112.2505, 28.25828
112.7326, 27.77820
113.2147, 27.24404
113.6968, 26.79156
114.1789, 26.48046
114.6611, 26.13686
115.1432, 25.67508
115.6253, 25.16009
116.1074, 24.72973
116.5895, 24.47309
117.0716, 24.31425
117.5538, 24.07657
118.0359, 23.75050
118.5180, 23.37118
119.0001, 22.90533
119.4822, 22.34759
119.9643, 21.90296
120.4465, 21.70783
120.9286, 21.68411
121.4107, 21.79935
121.8928, 22.13645
122.3749, 22.51557
122.8570, 22.57688
123.3392, 22.19078
123.8213, 21.69833
124.3034, 21.21802
124.7855, 20.73321
125.2676, 20.20685
125.7497, 19.60369
126.2319, 18.93321
126.7140, 18.35004
127.1961, 17.86986
127.6782, 17.47266
128.1603, 17.21828
128.6424, 17.05566
129.1246, 16.87443
129.6067, 16.56371
130.0888, 16.08633
130.5709, 15.67602
131.0530, 15.31028
131.5351, 15.00690
132.0173, 14.78756
132.4994, 14.64939
132.9815, 14.56060
133.4636, 14.48366
133.9457, 14.41685
134.4278, 14.37414
134.9100, 14.47315
135.3921, 14.55543
135.8742, 14.36334
136.3563, 13.77310
136.8384, 13.10111
137.3205, 12.89071
137.8027, 13.15152
138.2848, 13.38806
138.7669, 13.39885
139.2490, 13.21663
139.7311, 12.96160
140.2132, 12.62405
140.6954, 12.26293
141.1775, 11.91773
141.6596, 11.58245
142.1417, 11.32247
142.6238, 11.24684
143.1059, 11.39360
143.5881, 11.46732
144.0702, 11.30716
144.5523, 11.09079
145.0344, 10.93163
145.5165, 10.86498
145.9986, 10.84386
146.4807, 10.77709
146.9629, 10.61383
147.4450, 10.50085
147.9271, 10.50059
148.4092, 10.53528
148.8913, 10.51631
149.3734, 10.39858
149.8556, 10.22173
150.3377, 10.14482
150.8198, 10.28162
151.3019, 10.40779
151.7840, 10.51049
152.2661, 10.58490
152.7483, 10.63260
153.2304, 10.65789
153.7125, 10.65712
154.1946, 10.56911
154.6767, 10.31445
155.1588, 10.07370
155.6410, 9.928653
156.1231, 9.863460
156.6052, 9.804079
157.0873, 9.684305
157.5694, 9.516513
158.0515, 9.439669
158.5337, 9.513000
159.0158, 9.633958
159.4979, 9.716831
159.9800, 9.754742
160.4621, 9.810237
160.9442, 9.990880
161.4264, 10.23819
161.9085, 10.36468
162.3906, 10.24210
162.8727, 9.994746
163.3548, 9.822531
163.8369, 9.744337
164.3191, 9.719918
164.8012, 9.770862
165.2833, 9.855149
165.7654, 9.874894
166.2475, 9.708441
166.7296, 9.405763
167.2118, 9.252183
167.6939, 9.347116
168.1760, 9.490581
168.6581, 9.602130
169.1402, 9.682301
169.6223, 9.747333
170.1045, 9.821260
170.5866, 9.911302
171.0687, 9.927341
171.5508, 9.807028
172.0329, 9.661137
172.5150, 9.489780
172.9972, 9.317069
173.4793, 9.197958
173.9614, 9.208851
174.4435, 9.417737
174.9256, 9.517806
175.4077, 9.424200
175.8899, 9.311634
176.3720, 9.287618
176.8541, 9.361113
177.3362, 9.462843
177.8183, 9.500986
178.3004, 9.439984
178.7826, 9.392687
179.2647, 9.368804
179.7468, 9.351789
180.2289, 9.332760
180.7110, 9.308949
181.1931, 9.273092
181.6752, 9.208766
182.1574, 9.099161
182.6395, 9.011913
183.1216, 8.925536
183.6037, 8.873814
184.0858, 8.936677
184.5679, 9.162241
185.0501, 9.415350
185.5322, 9.446975
186.0143, 9.251402
186.4964, 9.046020
186.9785, 8.883533
187.4606, 8.766395
187.9428, 8.710821
188.4249, 8.752075
188.9070, 8.812507
189.3891, 8.783710
189.8712, 8.659724
190.3533, 8.545129
190.8355, 8.508939
191.3176, 8.543777
191.7997, 8.593680
192.2818, 8.680577
192.7639, 8.743876
193.2460, 8.725438
193.7282, 8.620955
194.2103, 8.496789
194.6924, 8.405629
195.1745, 8.347097
195.6566, 8.318514
196.1387, 8.342875
196.6209, 8.384297
197.1030, 8.427853
197.5851, 8.470420
198.0672, 8.511212
198.5493, 8.562930
199.0314, 8.652802
199.5136, 8.661082
199.9957, 8.488935
200.4778, 8.295880
200.9599, 8.175747
201.4420, 8.152708
201.9241, 8.195860
202.4063, 8.264520
202.8884, 8.392898
203.3705, 8.478056
203.8526, 8.511464
204.3347, 8.512064
204.8168, 8.480860
205.2990, 8.422537
205.7811, 8.360376
206.2632, 8.340606
206.7453, 8.427762
207.2274, 8.464190
207.7095, 8.421428
208.1917, 8.345874
208.6738, 8.265735
209.1559, 8.192713
209.6380, 8.145595
210.1201, 8.165444
210.6022, 8.332094
211.0844, 8.449306
211.5665, 8.495558
212.0486, 8.493042
212.5307, 8.453919
213.0128, 8.379930
213.4949, 8.299635
213.9771, 8.279499
214.4592, 8.359277
214.9413, 8.406864
215.4234, 8.333614
215.9055, 8.227284
216.3876, 8.248528
216.8698, 8.476957
217.3519, 8.783953
217.8340, 8.914573
218.3161, 8.851897
218.7982, 8.763105
219.2803, 8.699060
219.7625, 8.648142
220.2446, 8.580774
220.7267, 8.481662
221.2088, 8.373813
221.6909, 8.291330
222.1730, 8.235244
222.6552, 8.184534
223.1373, 8.098177
223.6194, 8.001840
224.1015, 8.002123
224.5836, 8.184552
225.0657, 8.399296
225.5479, 8.474441
226.0300, 8.408049
226.5121, 8.311852
226.9942, 8.238455
227.4763, 8.189506
227.9584, 8.178173
228.4406, 8.234773
228.9227, 8.303351
229.4048, 8.330914
229.8869, 8.319563
230.3690, 8.315280
230.8511, 8.377661
231.3333, 8.503555
231.8154, 8.562086
232.2975, 8.498526
232.7796, 8.392288
233.2617, 8.269994
233.7438, 8.141189
234.2260, 8.036397
234.7081, 7.975424
235.1902, 7.957308
235.6723, 7.999501
236.1544, 8.228267
236.6365, 8.412756
237.1187, 8.388941
237.6008, 8.197259
238.0829, 8.028949
238.5650, 8.105306
239.0471, 8.478441
239.5292, 8.707498
240.0114, 8.640299
240.4935, 8.549659
240.9756, 8.561298
241.4577, 8.652858
241.9398, 8.709563
242.4219, 8.600732
242.9041, 8.289428
243.3862, 8.095717
243.8683, 8.110793
244.3504, 8.160055
244.8325, 8.201301
245.3146, 8.223372
245.7968, 8.223224
246.2789, 8.196219
246.7610, 8.139672
247.2431, 8.079161
247.7252, 7.946939
248.2073, 7.874043
248.6895, 7.969942
249.1716, 8.179453
249.6537, 8.348499
250.1358, 8.336931
250.6179, 8.127215
251.1000, 8.015433
251.5822, 8.095972
252.0643, 8.166030
252.5464, 8.134145
253.0285, 8.026650
253.5106, 7.923597
253.9927, 7.882402
254.4748, 7.902956
254.9570, 7.961790
255.4391, 8.125321
255.9212, 8.252630
256.4033, 8.273046
256.8854, 8.214722
257.3676, 8.151063
257.8497, 8.132078
258.3318, 8.152214
258.8139, 8.140445
259.2960, 8.044992
259.7781, 7.980121
260.2603, 8.012963
260.7424, 8.107906
261.2245, 8.180711
261.7066, 8.182288
262.1887, 8.124027
262.6708, 8.063125
263.1530, 7.997977
263.6351, 7.932432
264.1172, 7.831436
264.5993, 7.730337
265.0814, 7.726370
265.5635, 7.892446
266.0457, 8.147390
266.5278, 8.215368
267.0099, 8.005713
267.4920, 7.801554
267.9741, 7.674009
268.4562, 7.614457
268.9384, 7.616481
269.4204, 7.688292
269.9026, 7.798375
270.3847, 7.888780
270.8668, 7.983270
271.3489, 8.010268
271.8310, 7.877836
272.3131, 7.669775
272.7953, 7.553108
273.2774, 7.591521
273.7595, 7.705298
274.2416, 7.778097
274.7237, 7.814286
275.2058, 7.819419
275.6880, 7.768119
276.1701, 7.692290
276.6522, 7.651520
277.1343, 7.664189
277.6164, 7.696264
278.0985, 7.698164
278.5807, 7.672796
279.0628, 7.671077
279.5449, 7.706292
280.0270, 7.774035
280.5091, 7.899290
280.9912, 8.110399
281.4734, 8.269143
281.9555, 8.143557
282.4376, 7.813331
282.9197, 7.626928
283.4018, 7.830131
283.8839, 8.157474
284.3661, 8.222329
284.8482, 7.965678
285.3303, 7.672203
285.8124, 7.581307
286.2945, 7.621215
286.7766, 7.619712
287.2588, 7.467649
287.7409, 7.298644
288.2230, 7.299710
288.7051, 7.488751
289.1872, 7.653827
289.6693, 7.652318
290.1515, 7.545367
290.6336, 7.436219
291.1157, 7.315716
291.5978, 7.227059
292.0799, 7.227143
292.5620, 7.316586
293.0442, 7.411779
293.5263, 7.482527
294.0084, 7.533885
294.4905, 7.573621
294.9726, 7.600902
295.4547, 7.620962
295.9369, 7.659101
296.4190, 7.709369
296.9011, 7.681399
297.3832, 7.483123
297.8653, 7.252432
298.3474, 7.145797
298.8296, 7.176043
299.3117, 7.243591
299.7938, 7.287733
300.2759, 7.313253
300.7580, 7.347367
301.2401, 7.405085
301.7223, 7.459502
302.2044, 7.487618
302.6865, 7.491262
303.1686, 7.482264
303.6507, 7.470972
304.1328, 7.452392
304.6150, 7.399802
305.0971, 7.281610
305.5792, 7.187836
306.0613, 7.207148
306.5434, 7.304910
307.0255, 7.391464
307.5077, 7.422089
307.9898, 7.417086
308.4719, 7.411981
308.9540, 7.401248
309.4361, 7.408399
309.9182, 7.505508
310.4004, 7.620914
310.8825, 7.628337
311.3646, 7.417099
311.8467, 7.151317
312.3288, 7.068506
312.8109, 7.189243
313.2931, 7.356044
313.7752, 7.551803
314.2573, 7.729345
314.7394, 7.819335
315.2215, 7.783850
315.7036, 7.727907
316.1858, 7.765629
316.6679, 7.896090
317.1500, 8.003667
317.6321, 8.018192
318.1142, 8.023160
318.5963, 8.072096
319.0785, 8.162282
319.5606, 8.373226
320.0427, 8.700703
320.5248, 9.173173
321.0069, 9.913785
321.4890, 10.79475
321.9712, 12.21346
322.4533, 14.49165
322.9354, 17.56329
323.4175, 20.98904
323.8996, 25.18454
324.3817, 29.57330
324.8639, 32.60884
325.3460, 34.13291
325.8281, 34.39154
326.3102, 32.74211
326.7923, 29.98946
327.2744, 27.86746
327.7566, 27.19039
328.2387, 27.37705
328.7208, 27.60846
329.2029, 27.86340
329.6850, 28.28200
330.1671, 28.94925
330.6493, 29.84080
331.1314, 30.97967
331.6135, 32.50655
332.0956, 34.05303
332.5777, 35.28955
333.0598, 36.21943
333.5420, 36.96351
334.0241, 37.48372
334.5062, 37.88606
334.9883, 38.31978
335.4704, 38.78797
335.9525, 39.28330
336.4347, 39.89649
336.9168, 40.55428
337.3989, 40.96253
337.8810, 41.04262
338.3631, 40.86911
338.8452, 40.52475
339.3274, 40.02325
339.8094, 39.34848
340.2916, 38.36611
340.7737, 37.24375
341.2558, 36.51821
341.7379, 36.46988
342.2200, 35.78578
342.7021, 32.96404
343.1843, 28.56136
343.6664, 24.19702
344.1485, 19.68851
344.6306, 15.64265
345.1127, 12.73308
345.5948, 10.94951
346.0770, 9.727717
346.5591, 8.888596
347.0412, 8.385677
347.5233, 8.011625
348.0054, 7.812230
348.4875, 7.663402
348.9697, 7.504506
349.4518, 7.339274
349.9339, 7.179420
350.4160, 7.025544
350.8981, 6.885059
351.3802, 6.767676
351.8624, 6.670095
352.3445, 6.599368
352.8266, 6.572652
353.3087, 6.569772
353.7908, 6.552903
354.2729, 6.511714
354.7551, 6.483702
355.2372, 6.515180
355.7193, 6.608193
356.2014, 6.700742
356.6835, 6.724837
357.1656, 6.790616
357.6478, 7.011602
358.1299, 7.380404
358.6120, 7.783601
359.0941, 8.145139
359.5762, 8.473287
360.0583, 8.836012
360.5405, 9.331964
361.0226, 9.757260
361.5047, 10.08021
361.9868, 10.27071
362.4689, 10.22199
362.9510, 9.854931
363.4332, 9.331252
363.9153, 9.047912
364.3974, 9.090536
364.8795, 9.181952
365.3616, 9.309721
365.8438, 9.458513
366.3259, 9.620077
366.8080, 9.791121
367.2901, 9.947450
367.7722, 10.04712
368.2543, 10.05092
368.7365, 10.18599
369.2186, 10.61140
369.7007, 11.01985
370.1828, 11.20537
370.6649, 11.20224
371.1470, 11.18219
371.6292, 11.27239
372.1113, 11.46053
372.5934, 11.59437
373.0755, 11.62103
373.5576, 11.65806
374.0397, 11.77280
374.5219, 11.90068
375.0040, 11.94478
375.4861, 11.86386
375.9682, 11.70112
376.4503, 11.55099
376.9324, 11.45426
377.4146, 11.30059
377.8967, 11.19557
378.3788, 10.96767
378.8609, 10.41226
379.3430, 9.550007
379.8251, 8.634352
380.3073, 7.943418
380.7894, 7.510907
381.2715, 7.066967
381.7536, 6.462873
382.2357, 5.993363
382.7178, 5.822168
383.2000, 5.858608
383.6821, 5.920534
384.1642, 5.898871
384.6463, 5.814562
385.1284, 5.746087
385.6105, 5.676204
386.0927, 5.655942
386.5748, 5.750629
387.0569, 5.861790
387.5390, 5.887556
388.0211, 5.799907
388.5032, 5.666946
388.9854, 5.574414
389.4675, 5.524810
389.9496, 5.502883
390.4317, 5.550918
390.9138, 5.590443
391.3959, 5.561769
391.8781, 5.482281
392.3602, 5.426006
392.8423, 5.466265
393.3244, 5.577852
393.8065, 5.626648
394.2886, 5.564562
394.7708, 5.535458
395.2529, 5.658625
395.7350, 5.839775
396.2171, 5.950253
396.6992, 5.946457
397.1813, 5.864005
397.6635, 5.703669
398.1456, 5.458168
398.6277, 5.312812
399.1098, 5.383530
399.5919, 5.535903
400.0740, 5.639287
400.5562, 5.690927
401.0383, 5.682537
401.5204, 5.577187
402.0025, 5.409989
402.4846, 5.268537
402.9667, 5.166878
403.4489, 5.082624
403.9310, 4.975049
404.4131, 4.864184
404.8952, 4.834579
405.3773, 4.984517
405.8594, 5.159926
406.3416, 5.211652
406.8237, 5.154955
407.3058, 5.106345
407.7879, 5.128286
408.2700, 5.191637
408.7521, 5.221783
409.2343, 5.213201
409.7164, 5.190191
410.1985, 5.142926
410.6806, 5.091423
411.1627, 5.074898
411.6448, 5.102965
412.1269, 5.129190
412.6090, 5.088886
413.0912, 4.956988
413.5733, 4.903069
414.0554, 4.973938
414.5375, 5.076807
415.0196, 5.172970
415.5017, 5.255875
415.9839, 5.327207
416.4660, 5.390765
416.9481, 5.438855
417.4302, 5.433822
417.9123, 5.289201
418.3944, 5.197172
418.8766, 5.227746
419.3587, 5.291552
419.8408, 5.290984
420.3229, 5.203389
420.8050, 5.083581
421.2871, 5.000596
421.7693, 4.953964
422.2514, 4.948394
422.7335, 5.003137
423.2156, 5.077560
423.6977, 5.189228
424.1798, 5.307774
424.6620, 5.367113
425.1441, 5.314979
425.6262, 5.185271
426.1083, 5.110488
426.5904, 5.125988
427.0725, 5.128882
427.5547, 5.097064
428.0368, 5.043073
428.5189, 4.954937
429.0010, 4.833701
429.4831, 4.750616
429.9652, 4.811653
430.4474, 5.017120
430.9295, 5.174727
431.4116, 5.268439
431.8937, 5.302841
432.3758, 5.259802
432.8579, 5.165555
433.3401, 5.093564
433.8222, 5.079878
434.3043, 5.104574
434.7864, 5.146523
435.2685, 5.209254
435.7506, 5.251817
436.2328, 5.243805
436.7149, 5.211400
437.1970, 5.200448
437.6791, 5.219996
438.1612, 5.232913
438.6433, 5.199457
439.1255, 5.148278
439.6076, 5.151110
440.0897, 5.229806
440.5718, 5.313466
441.0539, 5.314575
441.5360, 5.233795
442.0182, 5.218790
442.5003, 5.383345
442.9824, 5.521342
443.4645, 5.456348
443.9466, 5.245272
444.4287, 5.078591
444.9109, 5.055940
445.3930, 5.128674
445.8751, 5.166026
446.3572, 5.131969
446.8393, 5.116433
447.3214, 5.136080
447.8036, 5.168021
448.2857, 5.198503
448.7678, 5.222247
449.2499, 5.231532
449.7320, 5.213981
450.2141, 5.166647
450.6963, 5.153244
451.1784, 5.230140
451.6605, 5.279767
452.1426, 5.249437
452.6247, 5.182396
453.1068, 5.135041
453.5890, 5.131074
454.0711, 5.162830
454.5532, 5.233185
455.0353, 5.374631
455.5174, 5.441358
455.9995, 5.323462
456.4817, 5.199492
456.9638, 5.159208
457.4459, 5.197596
457.9280, 5.263275
458.4101, 5.331460
458.8922, 5.399630
459.3744, 5.467535
459.8565, 5.548251
460.3386, 5.585791
460.8207, 5.516088
461.3028, 5.402999
461.7849, 5.315654
462.2671, 5.262802
462.7492, 5.241077
463.2313, 5.277835
463.7134, 5.346167
464.1955, 5.347121
464.6776, 5.239739
465.1598, 5.132098
465.6419, 5.154657
466.1240, 5.292468
466.6061, 5.385930
467.0882, 5.401412
467.5703, 5.379869
468.0525, 5.337197
468.5346, 5.280183
469.0167, 5.221493
469.4988, 5.163823
469.9809, 5.117528
470.4630, 5.105927
470.9452, 5.122766
471.4273, 5.189645
471.9094, 5.402575
472.3915, 5.599412
472.8736, 5.625354
473.3557, 5.489404
473.8379, 5.322522
474.3200, 5.235102
474.8021, 5.220596
475.2842, 5.180200
475.7663, 5.048733
476.2484, 4.974448
476.7306, 5.021103
477.2127, 5.115602
477.6948, 5.191338
478.1769, 5.225603
478.6590, 5.217790
479.1411, 5.140494
479.6233, 4.979961
480.1054, 4.904438
480.5875, 4.962409
481.0696, 5.063798
481.5517, 5.213361
482.0338, 5.365501
482.5159, 5.415560
482.9980, 5.262469
483.4802, 5.065809
483.9623, 5.098105
484.4444, 5.360262
484.9265, 5.513000
485.4086, 5.409861
485.8907, 5.185580
486.3729, 4.997606
486.8550, 4.843414
487.3371, 4.743639
487.8192, 4.714308
488.3013, 4.737790
488.7834, 4.810517
489.2656, 4.926776
489.7477, 5.033430
490.2298, 5.092108
490.7119, 5.116176
491.1940, 5.170660
491.6761, 5.322965
492.1583, 5.411707
492.6404, 5.423152
493.1225, 5.348310
493.6046, 5.106074
494.0867, 4.715285
494.5688, 4.385551
495.0510, 4.362957
495.5331, 4.676734
496.0152, 4.897467
496.4973, 5.003903
496.9794, 5.034801
497.4615, 4.939149
497.9437, 4.793279
498.4258, 4.685524
498.9079, 4.649548
499.3900, 4.677649
499.8721, 4.788620
500.3542, 5.003752
500.8364, 5.131633
501.3185, 5.129158
501.8006, 5.055398
502.2827, 4.890308
502.7648, 4.683889
503.2469, 4.561476
503.7291, 4.611730
504.2112, 4.739974
504.6933, 4.837960
505.1754, 4.904856
505.6575, 4.902990
506.1396, 4.777644
506.6218, 4.625859
507.1039, 4.591912
507.5860, 4.677331
508.0681, 4.794346
508.5502, 4.984979
509.0323, 5.154614
509.5145, 5.182981
509.9966, 5.083254
510.4787, 4.971383
510.9608, 4.914492
511.4429, 4.907357
511.9250, 4.931047
512.4072, 5.060678
512.8893, 5.120479
513.3714, 5.023365
513.8535, 4.902080
514.3356, 4.880422
514.8177, 4.964694
515.2999, 5.075421
515.7820, 5.147507
516.2641, 5.180217
516.7462, 5.156714
517.2283, 5.012789
517.7104, 4.909938
518.1926, 4.902158
518.6747, 4.940814
519.1568, 4.988012
519.6389, 5.033238
520.1210, 5.060285
520.6031, 5.046027
521.0853, 4.996538
521.5674, 4.945359
522.0495, 4.882650
522.5316, 4.848130
523.0137, 4.911245
523.4958, 5.016789
523.9780, 5.047933
524.4601, 4.930088
524.9422, 4.826303
525.4243, 4.854761
525.9064, 4.976418
526.3885, 5.113541
526.8707, 5.250032
527.3528, 5.359277
527.8349, 5.406076
528.3170, 5.381930
528.7991, 5.363441
529.2813, 5.348791
529.7634, 5.341186
530.2455, 5.354477
530.7276, 5.372629
531.2097, 5.355975
531.6918, 5.291001
532.1740, 5.229995
532.6561, 5.276724
533.1382, 5.492758
533.6203, 5.603877
534.1024, 5.484725
534.5845, 5.379364
535.0667, 5.383414
535.5488, 5.466438
536.0309, 5.560559
536.5130, 5.636371
536.9951, 5.706097
537.4772, 5.790763
537.9594, 5.890970
538.4415, 5.986907
538.9236, 6.080728
539.4057, 6.160143
539.8878, 6.219777
540.3699, 6.258954
540.8521, 6.268677
541.3342, 6.196029
541.8163, 6.133565
542.2984, 6.196146
542.7805, 6.346802
543.2626, 6.434270
543.7448, 6.389405
544.2269, 6.281878
544.7090, 6.229843
545.1911, 6.255816
545.6732, 6.283306
546.1553, 6.326403
546.6375, 6.357990
547.1196, 6.361932
547.6017, 6.341918
548.0838, 6.299498
548.5659, 6.232331
549.0480, 6.170237
549.5302, 6.208539
550.0123, 6.433189
550.4944, 6.501097
550.9765, 6.168246
551.4586, 5.845157
551.9407, 5.767043
552.4229, 5.877726
552.9050, 5.973709
553.3871, 5.942773
553.8692, 5.849780
554.3513, 5.776735
554.8334, 5.724277
555.3156, 5.744634
555.7977, 5.922544
556.2798, 6.087077
556.7619, 5.935353
557.2440, 5.471482
557.7261, 5.152696
558.2083, 5.137526
558.6904, 5.237580
559.1725, 5.347261
559.6546, 5.449205
560.1367, 5.522508
560.6188, 5.555968
561.1010, 5.562850
561.5831, 5.570275
562.0652, 5.589061
562.5473, 5.582597
563.0294, 5.511819
563.5115, 5.457150
563.9937, 5.492767
564.4758, 5.573280
564.9579, 5.590132
565.4400, 5.478210
565.9221, 5.312079
566.4042, 5.231040
566.8864, 5.245267
567.3685, 5.264894
567.8506, 5.285086
568.3327, 5.293382
568.8148, 5.255818
569.2969, 5.193879
569.7791, 5.190787
570.2612, 5.358734
570.7433, 5.520245
571.2254, 5.477802
571.7075, 5.286639
572.1896, 5.134988
572.6718, 5.080366
573.1539, 5.112394
573.6360, 5.238572
574.1181, 5.502545
574.6002, 5.636817
575.0823, 5.535915
575.5645, 5.425844
576.0466, 5.420197
576.5287, 5.467353
577.0108, 5.465386
577.4929, 5.376680
577.9750, 5.264162
578.4572, 5.227883
578.9393, 5.282238
579.4214, 5.314382
579.9035, 5.294718
580.3856, 5.289413
580.8677, 5.356517
581.3499, 5.447813
581.8320, 5.479079
582.3141, 5.412471
582.7962, 5.327710
583.2783, 5.276468
583.7604, 5.263384
584.2426, 5.319365
584.7247, 5.459326
585.2068, 5.606332
585.6889, 5.712114
586.1710, 5.769308
586.6531, 5.742456
587.1352, 5.530238
587.6173, 5.363760
588.0994, 5.344182
588.5815, 5.385839
589.0637, 5.395198
589.5458, 5.352964
590.0279, 5.284607
590.5100, 5.206532
590.9921, 5.123679
591.4742, 5.099098
591.9564, 5.160031
592.4385, 5.235282
592.9206, 5.339067
593.4027, 5.428914
593.8848, 5.454816
594.3669, 5.416473
594.8491, 5.377809
595.3312, 5.379931
595.8133, 5.412827
596.2954, 5.470561
596.7775, 5.554496
597.2596, 5.599487
597.7418, 5.561907
598.2239, 5.481154
598.7060, 5.434556
599.1881, 5.425087
599.6702, 5.427678
600.1523, 5.429786
600.6345, 5.450282
601.1166, 5.527219
601.5987, 5.635218
602.0808, 5.703533
602.5629, 5.693937
603.0450, 5.639402
603.5272, 5.610384
604.0093, 5.617230
604.4914, 5.618223
604.9735, 5.628795
605.4556, 5.615094
605.9377, 5.532310
606.4199, 5.418349
606.9020, 5.349097
607.3841, 5.357804
607.8662, 5.408341
608.3483, 5.494069
608.8304, 5.595605
609.3126, 5.604063
609.7947, 5.476922
610.2768, 5.359809
610.7589, 5.404685
611.2410, 5.589769
611.7231, 5.662699
612.2053, 5.538207
612.6874, 5.412516
613.1695, 5.345360
613.6516, 5.305863
614.1337, 5.248487
614.6158, 5.172206
615.0980, 5.121066
615.5801, 5.136615
616.0622, 5.211810
616.5443, 5.305222
617.0264, 5.456306
617.5085, 5.541382
617.9907, 5.456152
618.4728, 5.347594
618.9549, 5.342729
619.4370, 5.438424
619.9191, 5.514109
620.4012, 5.508618
620.8834, 5.445355
621.3655, 5.329044
621.8476, 5.171566
622.3297, 5.054497
622.8118, 5.006116
623.2939, 5.021319
623.7761, 5.108084
624.2582, 5.301708
624.7403, 5.408777
625.2224, 5.338794
625.7045, 5.282253
626.1866, 5.339860
626.6688, 5.462418
627.1509, 5.572507
627.6330, 5.642589
628.1151, 5.689648
628.5972, 5.742517
629.0793, 5.801482
629.5615, 5.800921
630.0436, 5.703523
630.5257, 5.621573
631.0078, 5.644180
631.4899, 5.698639
631.9720, 5.680031
632.4542, 5.555135
632.9363, 5.481618
633.4184, 5.596877
633.9005, 5.773438
634.3826, 5.847128
634.8647, 5.815136
635.3469, 5.750847
635.8290, 5.690728
636.3111, 5.638753
636.7932, 5.603334
637.2753, 5.571872
637.7574, 5.585260
638.2396, 5.713423
638.7217, 5.811703
639.2038, 5.778900
639.6859, 5.667922
640.1680, 5.587716
640.6501, 5.585488
641.1323, 5.616593
641.6144, 5.629845
642.0965, 5.626596
642.5786, 5.605566
643.0607, 5.549072
643.5428, 5.539285
644.0250, 5.685829
644.5071, 5.919282
644.9892, 5.986145
645.4713, 5.749442
645.9534, 5.589686
646.4355, 5.697842
646.9177, 5.879041
647.3998, 5.925193
647.8819, 5.843583
648.3640, 5.781267
648.8461, 5.840897
649.3282, 5.969741
649.8104, 6.011798
650.2925, 5.941255
650.7746, 5.866995
651.2567, 5.810863
651.7388, 5.742750
652.2209, 5.610187
652.7031, 5.453595
653.1852, 5.377654
653.6673, 5.438177
654.1494, 5.545487
654.6315, 5.655901
655.1136, 5.751667
655.5958, 5.772544
656.0779, 5.708177
656.5600, 5.648360
657.0421, 5.672611
657.5242, 5.766129
658.0063, 5.822756
658.4885, 5.787397
658.9706, 5.788370
659.4527, 5.889286
659.9348, 5.983032
660.4169, 5.968148
660.8990, 5.869696
661.3812, 5.800135
661.8633, 5.840122
662.3454, 5.914705
662.8275, 5.876892
663.3096, 5.732203
663.7917, 5.628814
664.2739, 5.595938
664.7560, 5.616190
665.2381, 5.696508
665.7202, 5.825223
666.2023, 5.914541
666.6844, 5.947463
667.1666, 5.958713
667.6487, 5.936860
668.1308, 5.912173
668.6129, 5.930570
669.0950, 5.986842
669.5771, 6.023236
670.0593, 5.989211
670.5414, 5.916392
671.0235, 5.918662
671.5056, 6.025731
671.9877, 6.096954
672.4698, 6.075633
672.9520, 6.045949
673.4341, 6.087483
673.9162, 6.172489
674.3983, 6.206621
674.8804, 6.141292
675.3625, 6.051702
675.8447, 5.979372
676.3268, 5.920099
676.8089, 5.862024
677.2910, 5.804771
677.7731, 5.768000
678.2552, 5.766573
678.7374, 5.800495
679.2195, 5.879053
679.7016, 6.091458
680.1837, 6.183487
680.6658, 6.024535
681.1479, 5.842609
681.6301, 5.777492
682.1122, 5.809784
682.5943, 5.851114
683.0764, 5.862763
683.5585, 5.868774
684.0406, 5.901074
684.5228, 5.949660
685.0049, 5.979507
685.4870, 5.983665
685.9691, 5.971163
686.4512, 5.936119
686.9333, 5.893094
687.4155, 5.930488
687.8976, 6.176746
688.3797, 6.325654
688.8618, 6.325792
689.3439, 6.256147
689.8260, 6.128278
690.3082, 5.979457
690.7903, 5.883086
691.2724, 5.879966
691.7545, 5.933623
692.2366, 6.025049
692.7188, 6.141005
693.2009, 6.152024
693.6830, 6.014296
694.1651, 5.872718
694.6472, 5.829443
695.1293, 5.865906
695.6115, 5.907091
696.0936, 5.995286
696.5757, 6.014544
697.0578, 5.826544
697.5399, 5.661910
698.0220, 5.753859
698.5042, 6.025955
698.9863, 6.235026
699.4684, 6.254722
699.9505, 6.188400
700.4326, 6.212748
700.9147, 6.326719
701.3969, 6.369553
701.8790, 6.303915
702.3611, 6.227614
702.8432, 6.204304
703.3253, 6.208309
703.8074, 6.172348
704.2896, 6.062008
704.7717, 6.012851
705.2538, 6.087499
705.7359, 6.215573
706.2180, 6.380048
706.7001, 6.546198
707.1823, 6.638648
707.6644, 6.624596
708.1465, 6.551879
708.6286, 6.489535
709.1107, 6.438716
709.5928, 6.373431
710.0750, 6.275788
710.5571, 6.200590
711.0392, 6.167342
711.5213, 6.174541
712.0034, 6.239734
712.4855, 6.375336
712.9677, 6.460061
713.4498, 6.391416
713.9319, 6.312718
714.4140, 6.372099
714.8961, 6.509885
715.3782, 6.572041
715.8604, 6.507585
716.3425, 6.400260
716.8246, 6.341752
717.3067, 6.332275
717.7888, 6.417418
718.2709, 6.687217
718.7531, 6.855528
719.2352, 6.761256
719.7173, 6.576502
720.1994, 6.444164
720.6815, 6.367253
721.1636, 6.296951
721.6458, 6.180701
722.1279, 6.101163
722.6100, 6.140179
723.0921, 6.253780
723.5742, 6.365827
724.0563, 6.455584
724.5385, 6.531125
725.0206, 6.598024
725.5027, 6.658745
725.9848, 6.740378
726.4669, 6.889277
726.9490, 6.935883
727.4312, 6.753983
727.9132, 6.549970
728.3953, 6.443109
728.8774, 6.427454
729.3596, 6.478847
729.8417, 6.649651
730.3238, 6.789440
730.8059, 6.786023
731.2880, 6.704627
731.7701, 6.624222
732.2523, 6.561767
732.7344, 6.526200
733.2165, 6.525681
733.6986, 6.547662
734.1807, 6.565232
734.6628, 6.587332
735.1450, 6.565610
735.6271, 6.431441
736.1092, 6.339698
736.5913, 6.408562
737.0734, 6.552687
737.5555, 6.631297
738.0377, 6.606494
738.5198, 6.590633
739.0019, 6.675753
739.4840, 6.767199
739.9661, 6.732089
740.4482, 6.610899
740.9304, 6.562367
741.4125, 6.654030
741.8946, 6.779693
742.3767, 6.778945
742.8588, 6.643794
743.3409, 6.554988
743.8231, 6.535681
744.3052, 6.516038
744.7873, 6.449298
745.2694, 6.386719
745.7515, 6.366178
746.2336, 6.390864
746.7158, 6.481864
747.1979, 6.773809
747.6800, 7.005415
748.1621, 6.908360
748.6442, 6.660401
749.1263, 6.579175
749.6085, 6.718374
750.0906, 6.893863
750.5727, 6.948262
751.0548, 6.909923
751.5369, 6.886631
752.0190, 6.878996
752.5012, 6.884333
752.9833, 6.908713
753.4654, 6.937500
753.9475, 6.978815
754.4296, 7.015565
754.9117, 6.991231
755.3939, 6.832542
755.8760, 6.741115
756.3581, 6.831018
756.8402, 6.991416
757.3223, 7.149634
757.8044, 7.280221
758.2866, 7.344598
758.7687, 7.322160
759.2508, 7.269969
759.7329, 7.281884
760.2150, 7.355882
760.6971, 7.394674
761.1793, 7.377678
761.6614, 7.386095
762.1435, 7.466045
762.6256, 7.584745
763.1077, 7.710849
763.5898, 7.858592
764.0720, 7.901695
764.5541, 7.703907
765.0362, 7.532591
765.5183, 7.551555
766.0004, 7.656266
766.4825, 7.709214
766.9647, 7.683658
767.4468, 7.625944
767.9289, 7.551835
768.4110, 7.495345
768.8931, 7.562610
769.3752, 7.748051
769.8574, 7.885141
770.3395, 7.934863
770.8216, 7.940167
771.3037, 7.936766
771.7858, 7.920341
772.2679, 7.864522
772.7501, 7.669237
773.2322, 7.580959
773.7143, 7.724846
774.1964, 7.876990
774.6785, 7.892700
775.1606, 7.806878
775.6428, 7.702096
776.1249, 7.605559
776.6070, 7.536973
777.0891, 7.517891
777.5712, 7.539630
778.0533, 7.588281
778.5355, 7.661322
779.0176, 7.756532
779.4997, 7.882518
779.9818, 7.981626
780.4639, 7.957855
780.9460, 7.791347
781.4282, 7.694955
781.9103, 7.682467
782.3924, 7.724219
782.8745, 7.885595
783.3566, 8.042846
783.8387, 8.074805
784.3209, 7.997108
784.8030, 7.925865
785.2851, 7.891508
785.7672, 7.904326
786.2493, 7.980478
786.7314, 8.106539
787.2136, 8.293994
787.6957, 8.523377
788.1778, 8.680639
788.6599, 8.687781
789.1420, 8.595040
789.6241, 8.502227
790.1063, 8.394890
790.5884, 8.372966
791.0705, 8.475115
791.5526, 8.603052
792.0347, 8.755579
792.5168, 8.882592
792.9990, 8.905300
793.4811, 8.810990
793.9632, 8.694035
794.4453, 8.493200
794.9274, 8.364551
795.4095, 8.484641
795.8917, 8.704501
796.3738, 8.781659
796.8559, 8.681391
797.3380, 8.560939
797.8201, 8.541014
798.3022, 8.600440
798.7844, 8.731018
799.2665, 8.927352
799.7486, 8.974236
800.2307, 8.796853
800.7128, 8.598038
801.1949, 8.539639
801.6771, 8.576858
802.1592, 8.535128
802.6413, 8.303288
803.1234, 8.182851
803.6055, 8.261209
804.0876, 8.360613
804.5698, 8.400366
805.0519, 8.399379
805.5340, 8.403152
806.0161, 8.422123
806.4982, 8.406075
806.9803, 8.258867
807.4625, 8.094997
807.9446, 8.109743
808.4267, 8.254227
808.9088, 8.351264
809.3909, 8.348899
809.8730, 8.273758
810.3552, 8.138477
810.8373, 7.961037
811.3194, 7.849839
811.8015, 7.803940
812.2836, 7.834387
812.7657, 8.068887
813.2479, 8.228679
813.7300, 8.045923
814.2121, 7.680215
814.6942, 7.474922
815.1763, 7.505768
815.6584, 7.579957
816.1406, 7.649231
816.6227, 7.723090
817.1048, 7.851850
817.5869, 7.979406
818.0690, 7.982641
818.5511, 7.831337
819.0333, 7.635570
819.5154, 7.489869
819.9975, 7.389700
820.4796, 7.333252
820.9617, 7.319550
821.4438, 7.295911
821.9260, 7.239704
822.4081, 7.214482
822.8902, 7.300880
823.3723, 7.466776
823.8544, 7.505143
824.3365, 7.222530
824.8187, 7.122748
825.3008, 7.402202
825.7829, 7.670550
826.2650, 7.715436
826.7471, 7.615736
827.2292, 7.503881
827.7114, 7.407768
828.1935, 7.347175
828.6756, 7.350151
829.1577, 7.381224
829.6398, 7.400788
830.1219, 7.417161
830.6041, 7.463614
831.0862, 7.545363
831.5683, 7.621560
832.0504, 7.653866
832.5325, 7.649930
833.0146, 7.633361
833.4968, 7.601163
833.9789, 7.577652
834.4610, 7.559777
834.9431, 7.566594
835.4252, 7.611994
835.9073, 7.691892
836.3895, 7.813464
836.8716, 8.063486
837.3537, 8.130401
837.8358, 7.764915
838.3179, 7.455275
838.8000, 7.494480
839.2822, 7.706368
839.7643, 7.855330
840.2464, 7.894155
840.7285, 7.904932
841.2106, 7.956349
841.6927, 7.992906
842.1749, 7.902682
842.6570, 7.747574
843.1391, 7.719481
843.6212, 7.839782
844.1033, 7.934720
844.5854, 7.874559
845.0676, 7.734123
845.5497, 7.710340
846.0318, 7.828383
846.5139, 7.912691
846.9960, 7.952855
847.4781, 7.966504
847.9603, 7.930484
848.4424, 7.893717
848.9245, 7.939384
849.4066, 8.072897
849.8887, 8.179454
850.3708, 8.229092
850.8530, 8.270790
851.3351, 8.336033
851.8172, 8.367579
852.2993, 8.381157
852.7814, 8.378740
853.2635, 8.361182
853.7457, 8.283143
854.2278, 8.283205
854.7099, 8.251967
855.1920, 8.219447
855.6741, 8.230500
856.1563, 8.161257
856.6384, 8.171617
857.1205, 8.150205
857.6026, 8.143332
858.0847, 8.104971
858.5668, 8.076338
859.0490, 8.079196
859.5311, 8.064618
860.0132, 8.022635
860.4953, 8.016686
860.9774, 7.946349
861.4595, 7.932517
861.9417, 7.943055
862.4238, 7.902652
862.9059, 7.897283
863.3880, 7.878568
863.8701, 7.799222
864.3522, 7.825324
864.8344, 7.805816
865.3165, 7.739490
865.7986, 7.761980
866.2807, 7.702108
866.7628, 7.850869
867.2449, 7.634473
867.7271, 7.297551
868.2092, 7.165327
868.6913, 7.182656
869.1733, 7.214116
869.6555, 7.226618
870.1376, 7.202912
870.6197, 7.127194
871.1018, 7.020157
871.5839, 6.924323
872.0660, 6.836001
872.5482, 6.806310
873.0303, 6.882483
873.5124, 6.885175
873.9945, 6.697875
874.4766, 6.432523
874.9587, 6.233422
875.4409, 6.100357
875.9230, 6.058592
876.4051, 6.195494
876.8872, 6.307609
877.3693, 6.346335
877.8514, 6.345432
878.3336, 6.343345
878.8157, 6.324105
879.2978, 6.217179
879.7799, 5.967550
880.2620, 5.782953
880.7441, 5.893338
881.2263, 6.088356
881.7084, 6.101376
882.1905, 5.979010
882.6726, 5.879453
883.1547, 5.853170
883.6368, 5.873386
884.1190, 5.935413
884.6011, 5.997739
885.0832, 5.907874
885.5653, 5.667710
886.0474, 5.475947
886.5295, 5.362003
887.0117, 5.310378
887.4938, 5.320725
887.9759, 5.375591
888.4580, 5.444639
888.9401, 5.552107
889.4222, 5.578456
889.9044, 5.442519
890.3865, 5.332162
890.8686, 5.287601
891.3507, 5.291633
891.8328, 5.365283
892.3149, 5.482701
892.7971, 5.520951
893.2792, 5.399105
893.7613, 5.279810
894.2434, 5.242410
894.7255, 5.228658
895.2076, 5.180247
895.6898, 5.112226
896.1719, 5.057604
896.6540, 5.029830
897.1361, 5.054214
897.6182, 5.193653
898.1003, 5.376998
898.5825, 5.499663
899.0646, 5.551981
899.5467, 5.438347
900.0288, 5.152297
900.5109, 4.949203
900.9930, 5.028333
901.4752, 5.266088
901.9573, 5.352493
902.4394, 5.261547
902.9215, 5.227027
903.4036, 5.289942
903.8857, 5.303299
904.3679, 5.185149
904.8500, 5.018257
905.3321, 4.883236
905.8142, 4.781285
906.2963, 4.772327
906.7784, 4.996590
907.2606, 5.109242
907.7427, 4.967094
908.2248, 4.800363
908.7069, 4.746915
909.1890, 4.776407
909.6711, 4.822039
910.1533, 4.870882
910.6354, 4.911099
911.1175, 4.952756
911.5996, 4.968176
912.0817, 4.896661
912.5638, 4.801228
913.0460, 4.808138
913.5281, 4.908744
914.0102, 4.961886
914.4923, 4.875528
914.9744, 4.725222
915.4565, 4.574980
915.9387, 4.454106
916.4208, 4.503952
916.9029, 4.711849
917.3850, 4.845828
917.8671, 4.814634
918.3492, 4.680354
918.8314, 4.483946
919.3135, 4.258808
919.7956, 4.279825
920.2777, 4.641025
920.7598, 4.828890
921.2419, 4.692639
921.7241, 4.533951
922.2062, 4.543707
922.6883, 4.648005
923.1704, 4.689143
923.6525, 4.644892
924.1346, 4.621356
924.6168, 4.647311
925.0989, 4.656659
925.5810, 4.624239
926.0631, 4.574379
926.5452, 4.520648
927.0273, 4.468500
927.5095, 4.425519
927.9916, 4.388455
928.4737, 4.376664
928.9558, 4.451402
929.4379, 4.508377
929.9200, 4.397581
930.4022, 4.223288
930.8843, 4.206406
931.3664, 4.372976
931.8485, 4.514160
932.3306, 4.455920
932.8127, 4.334552
933.2949, 4.378218
933.7770, 4.503142
934.2591, 4.446477
934.7412, 4.216733
935.2233, 4.097322
935.7054, 4.225281
936.1876, 4.419417
936.6697, 4.422939
937.1518, 4.270289
937.6339, 4.219501
938.1160, 4.282311
938.5981, 4.323455
939.0803, 4.308966
939.5624, 4.290002
940.0445, 4.301490
940.5266, 4.336701
941.0087, 4.378222
941.4908, 4.425422
941.9730, 4.483414
942.4551, 4.599096
942.9372, 4.654442
943.4193, 4.576861
943.9014, 4.454245
944.3835, 4.326796
944.8657, 4.212133
945.3478, 4.192059
945.8299, 4.345080
946.3120, 4.465088
946.7941, 4.511332
947.2762, 4.510015
947.7584, 4.459048
948.2405, 4.379331
948.7226, 4.278830
949.2047, 4.169123
949.6868, 4.113645
950.1689, 4.176368
950.6511, 4.259386
951.1332, 4.291856
951.6153, 4.298723
952.0974, 4.315737
952.5795, 4.336925
953.0616, 4.328275
953.5438, 4.278569
954.0259, 4.227918
954.5080, 4.218644
954.9901, 4.233871
955.4722, 4.240947
955.9543, 4.243010
956.4365, 4.247370
956.9186, 4.257073
957.4007, 4.296568
957.8828, 4.385699
958.3649, 4.473745
958.8470, 4.456997
959.3292, 4.341282
959.8113, 4.274638
960.2934, 4.259329
960.7755, 4.282442
961.2576, 4.361129
961.7397, 4.398506
962.2219, 4.294593
962.7040, 4.100194
963.1861, 3.995349
963.6682, 3.996524
964.1503, 4.045275
964.6324, 4.211173
965.1146, 4.303389
965.5967, 4.201717
966.0788, 4.041807
966.5609, 3.959296
967.0430, 3.946621
967.5251, 3.955961
968.0073, 3.994972
968.4894, 4.041847
968.9715, 4.153399
969.4536, 4.207669
969.9357, 4.083055
970.4178, 3.895621
970.9000, 3.786121
971.3821, 3.773717
971.8642, 3.839417
972.3463, 4.073809
972.8284, 4.259267
973.3105, 4.266879
973.7927, 4.199720
974.2748, 4.123003
974.7569, 4.058277
975.2390, 4.030330
975.7211, 4.044185
976.2032, 4.064973
976.6854, 4.081332
977.1675, 4.079743
977.6496, 4.030815
978.1317, 3.960486
978.6138, 3.908960
979.0959, 3.881891
979.5781, 3.878243
980.0602, 3.897260
980.5423, 3.922884
981.0244, 3.932570
981.5065, 3.936805
981.9886, 3.963345
982.4708, 4.008565
982.9529, 4.061198
983.4350, 4.117491
983.9171, 4.159129
984.3992, 4.175250
984.8813, 4.167880
985.3635, 4.128533
985.8456, 4.062128
986.3277, 4.055067
986.8098, 4.114386
987.2919, 4.125637
987.7740, 4.051861
988.2562, 3.963709
988.7383, 3.913875
989.2204, 3.894406
989.7025, 3.883023
990.1846, 3.875994
990.6667, 3.898986
991.1489, 3.966232
991.6310, 4.028987
992.1131, 4.088883
992.5952, 4.111414
993.0773, 4.041223
993.5594, 3.908047
994.0416, 3.846517
994.5237, 3.887506
995.0058, 3.936913
995.4879, 4.030684
995.9700, 4.086848
996.4521, 4.050589
996.9343, 3.988288
997.4164, 3.974019
997.8985, 3.995586
998.3806, 3.972340
998.8627, 3.847485
999.3448, 3.768511
999.8270, 3.794272
1000.309, 3.832620
1000.791, 3.828281
1001.273, 3.814948
1001.755, 3.833535
1002.238, 3.887047
1002.720, 3.966098
1003.202, 4.137083
1003.684, 4.203987
1004.166, 3.944598
1004.648, 3.679435
1005.130, 3.689415
1005.612, 3.857434
1006.094, 3.995672
1006.577, 4.060674
1007.059, 4.073699
1007.541, 4.025388
1008.023, 3.966511
1008.505, 3.930927
1008.987, 3.909802
1009.469, 3.900378
1009.951, 3.894533
1010.433, 3.868352
1010.916, 3.821508
1011.398, 3.800651
1011.880, 3.854105
1012.362, 3.922342
1012.844, 3.924122
1013.326, 3.893516
1013.808, 3.894450
1014.290, 3.924049
1014.773, 3.956637
1015.255, 3.980663
1015.737, 3.978337
1016.219, 3.920869
1016.701, 3.848591
1017.183, 3.853806
1017.665, 3.906540
1018.147, 3.904678
1018.629, 3.844852
1019.112, 3.770112
1019.594, 3.699158
1020.076, 3.670357
1020.558, 3.736868
1021.040, 3.858656
1021.522, 3.907703
1022.004, 3.895991
1022.486, 3.956994
1022.969, 4.103350
1023.451, 4.177547
1023.933, 4.106242
1024.415, 3.967777
1024.897, 3.839316
1025.379, 3.735306
1025.861, 3.751178
1026.343, 3.896826
1026.825, 3.956098
1027.308, 3.893218
1027.790, 3.834006
1028.272, 3.837972
1028.754, 3.868448
1029.236, 3.882081
1029.718, 3.878887
1030.200, 3.851871
1030.682, 3.787793
1031.165, 3.767716
1031.647, 3.812818
1032.129, 3.861023
1032.611, 3.884391
1033.093, 3.897003
1033.575, 3.923371
1034.057, 3.959152
1034.539, 3.939193
1035.021, 3.835778
1035.504, 3.746493
1035.986, 3.650098
1036.468, 3.630473
1036.950, 3.776040
1037.432, 3.961195
1037.914, 4.015107
1038.396, 3.945285
1038.878, 3.912782
1039.360, 3.946015
1039.843, 3.961775
1040.325, 3.959716
1040.807, 3.932749
1041.289, 3.840984
1041.771, 3.750782
1042.253, 3.763193
1042.735, 3.870713
1043.217, 3.918432
1043.700, 3.903638
1044.182, 3.834404
1044.664, 3.590111
1045.146, 3.434582
1045.628, 3.541943
1046.110, 3.749304
1046.592, 3.903549
1047.074, 3.995917
1047.557, 3.989461
1048.039, 3.773563
1048.521, 3.636735
1049.003, 3.667772
1049.485, 3.711719
1049.967, 3.674296
1050.449, 3.632356
1050.931, 3.694225
1051.413, 3.841545
1051.896, 3.940323
1052.378, 3.981942
1052.860, 3.950668
1053.342, 3.761837
1053.824, 3.595632
1054.306, 3.540661
1054.788, 3.551469
1055.270, 3.602964
1055.752, 3.674155
1056.235, 3.694689
1056.717, 3.619473
1057.199, 3.573882
1057.681, 3.631443
1058.163, 3.678280
1058.645, 3.612231
1059.127, 3.540849
1059.609, 3.627748
1060.092, 3.815676
1060.574, 3.867604
1061.056, 3.688192
1061.538, 3.526566
1062.020, 3.452306
1062.502, 3.430775
1062.984, 3.462069
1063.466, 3.522565
1063.948, 3.614429
1064.431, 3.712636
1064.913, 3.749728
1065.395, 3.697270
1065.877, 3.662067
1066.359, 3.720051
1066.841, 3.763260
1067.323, 3.734618
1067.805, 3.664436
1068.287, 3.567300
1068.770, 3.458355
1069.252, 3.356043
1069.734, 3.262260
1070.216, 3.211920
1070.698, 3.208649
1071.180, 3.265619
1071.662, 3.499676
1072.144, 3.700939
1072.627, 3.608293
1073.109, 3.354005
1073.591, 3.234347
1074.073, 3.312329
1074.555, 3.406111
1075.037, 3.459028
1075.519, 3.482402
1076.001, 3.477071
1076.484, 3.448760
1076.966, 3.383143
1077.448, 3.306668
1077.930, 3.253708
1078.412, 3.233525
1078.894, 3.259983
1079.376, 3.400496
1079.858, 3.489605
1080.340, 3.388406
1080.823, 3.263967
1081.305, 3.242173
1081.787, 3.288277
1082.269, 3.355152
1082.751, 3.425140
1083.233, 3.459833
1083.715, 3.421791
1084.197, 3.401409
1084.679, 3.478199
1085.161, 3.547205
1085.644, 3.531703
1086.126, 3.466754
1086.608, 3.378687
1087.090, 3.287609
1087.572, 3.242767
1088.054, 3.268288
1088.536, 3.305690
1089.018, 3.325812
1089.501, 3.354931
1089.983, 3.449876
1090.465, 3.530168
1090.947, 3.485813
1091.429, 3.354388
1091.911, 3.242866
1092.393, 3.169811
1092.875, 3.186032
1093.358, 3.437801
1093.840, 3.622447
1094.322, 3.544351
1094.804, 3.380918
1095.286, 3.252600
1095.768, 3.178667
1096.250, 3.181842
1096.732, 3.265023
1097.214, 3.322448
1097.697, 3.288890
1098.179, 3.265210
1098.661, 3.277461
1099.143, 3.322824
1099.625, 3.421828
1100.107, 3.540403
1100.589, 3.657050
1101.071, 3.755945
1101.553, 3.737806
1102.036, 3.466422
1102.518, 3.269231
1103.000, 3.315027
1103.482, 3.362308
1103.964, 3.228504
1104.446, 3.065632
1104.928, 3.079574
1105.410, 3.234619
1105.893, 3.306306
1106.375, 3.214491
1106.857, 3.165160
1107.339, 3.239788
1107.821, 3.306844
1108.303, 3.324165
1108.785, 3.308007
1109.267, 3.247709
1109.750, 3.170788
1110.232, 3.151125
1110.714, 3.211902
1111.196, 3.234426
1111.678, 3.183278
1112.160, 3.126292
1112.642, 3.033153
1113.124, 2.985112
1113.606, 3.073797
1114.089, 3.218436
1114.571, 3.293919
1115.053, 3.296379
1115.535, 3.266399
1116.017, 3.144360
1116.499, 3.088604
1116.981, 3.152950
1117.463, 3.223665
1117.945, 3.259562
1118.428, 3.276110
1118.910, 3.292840
1119.392, 3.305419
1119.874, 3.285789
1120.356, 3.203975
1120.838, 3.168442
1121.320, 3.201103
1121.802, 3.240069
1122.285, 3.288732
1122.767, 3.301775
1123.249, 3.221737
1123.731, 3.100025
1124.213, 3.074495
1124.695, 3.165917
1125.177, 3.152126
1125.659, 2.987411
1126.141, 2.865023
1126.624, 2.812879
1127.106, 2.830154
1127.588, 2.937053
1128.070, 3.068145
1128.552, 3.127867
1129.034, 3.123986
1129.516, 3.124256
1129.998, 3.130954
1130.480, 3.115718
1130.963, 3.069297
1131.445, 3.062694
1131.927, 3.134745
1132.409, 3.175944
1132.891, 3.066103
1133.373, 2.885318
1133.855, 2.861784
1134.337, 2.986111
1134.820, 3.100928
1135.302, 3.201385
1135.784, 3.254994
1136.266, 3.254656
1136.748, 3.265220
1137.230, 3.330850
1137.712, 3.395002
1138.194, 3.368054
1138.677, 3.272872
1139.159, 3.167965
1139.641, 3.065466
1140.123, 3.038948
1140.605, 3.082696
1141.087, 3.089562
1141.569, 3.020744
1142.051, 2.966201
1142.533, 3.017690
1143.016, 3.109451
1143.498, 3.148848
1143.980, 3.142029
1144.462, 3.067876
1144.944, 2.965149
1145.426, 2.952420
1145.908, 3.038442
1146.390, 3.116107
1146.872, 3.125450
1147.355, 3.105700
1147.837, 3.083940
1148.319, 3.063906
1148.801, 3.041222
1149.283, 3.028568
1149.765, 3.076256
1150.247, 3.147646
1150.729, 3.113639
1151.212, 2.942354
1151.694, 2.815633
1152.176, 2.842998
1152.658, 2.946005
1153.140, 3.175008
1153.622, 3.360818
1154.104, 3.279735
1154.586, 3.090146
1155.068, 3.062914
1155.551, 3.195961
1156.033, 3.264540
1156.515, 3.187973
1156.997, 3.084302
1157.479, 2.918341
1157.961, 2.826893
1158.443, 2.959584
1158.925, 3.116989
1159.407, 3.079440
1159.890, 2.941473
1160.372, 2.959244
1160.854, 3.180359
1161.336, 3.307059
1161.818, 3.226544
1162.300, 3.185452
1162.782, 3.248250
1163.264, 3.311610
1163.747, 3.337082
1164.229, 3.335107
1164.711, 3.322173
1165.193, 3.292245
1165.675, 3.205994
1166.157, 3.027076
1166.639, 2.909432
1167.121, 2.859947
1167.604, 2.854240
1168.086, 2.894593
1168.568, 2.953765
1169.050, 3.013419
1169.532, 3.081805
1170.014, 3.186611
1170.496, 3.315308
1170.978, 3.316911
1171.460, 3.187225
1171.943, 3.154737
1172.425, 3.247524
1172.907, 3.258921
1173.389, 3.105348
1173.871, 2.970895
1174.353, 3.030437
1174.835, 3.188081
1175.317, 3.262643
1175.799, 3.269238
1176.282, 3.253530
1176.764, 3.218024
1177.246, 3.158556
1177.728, 3.079190
1178.210, 2.987967
1178.692, 2.889828
1179.174, 2.847294
1179.656, 2.967433
1180.139, 3.123090
1180.621, 3.147362
1181.103, 3.106341
1181.585, 3.079436
1182.067, 3.075589
1182.549, 3.117599
1183.031, 3.187385
1183.513, 3.157771
1183.995, 2.910216
1184.478, 2.771051
1184.960, 3.095060
1185.442, 3.398340
1185.924, 3.291755
1186.406, 3.057805
1186.888, 2.981997
1187.370, 3.027848
1187.852, 3.054115
1188.334, 3.038403
1188.817, 3.035782
1189.299, 3.075353
1189.781, 3.101069
1190.263, 3.102073
1190.745, 3.088844
1191.227, 3.018808
1191.709, 2.978919
1192.191, 3.088141
1192.674, 3.288847
1193.156, 3.380846
1193.638, 3.354120
1194.120, 3.258727
1194.602, 3.055676
1195.084, 2.908780
1195.566, 2.850564
1196.048, 2.843887
1196.531, 2.878750
1197.013, 2.923561
1197.495, 2.934328
1197.977, 2.927264
1198.459, 2.971205
1198.941, 3.061477
1199.423, 3.151368
1199.905, 3.231331
1200.387, 3.193550
1200.870, 3.025853
1201.352, 2.946064
1201.834, 3.091934
1202.316, 3.274102
1202.798, 3.264885
1203.280, 3.127957
1203.762, 2.892221
1204.244, 2.660719
1204.726, 2.684246
1205.209, 2.884121
1205.691, 2.999892
1206.173, 2.969892
1206.655, 2.887251
1207.137, 2.779661
1207.619, 2.703633
1208.101, 2.706525
1208.583, 2.744938
1209.066, 2.801473
1209.548, 2.864365
1210.030, 2.939021
1210.512, 3.005464
1210.994, 3.005867
1211.476, 2.932092
1211.958, 2.917134
1212.440, 3.066539
1212.922, 3.151410
1213.405, 3.087592
1213.887, 3.021748
1214.369, 2.984998
1214.851, 2.994637
1215.333, 3.086958
1215.815, 3.224126
1216.297, 3.314154
1216.779, 3.358072
1217.261, 3.337731
1217.744, 3.237154
1218.226, 3.159665
1218.708, 3.122454
1219.190, 3.074492
1219.672, 2.988540
1220.154, 2.945704
1220.636, 3.034852
1221.118, 3.182291
1221.600, 3.230073
1222.083, 3.199924
1222.565, 3.168037
1223.047, 3.134206
1223.529, 3.069332
1224.011, 2.988817
1224.493, 2.985550
1224.975, 3.092339
1225.457, 3.228573
1225.940, 3.368318
1226.422, 3.442118
1226.904, 3.310287
1227.386, 3.147306
1227.868, 3.182826
1228.350, 3.278379
1228.832, 3.185070
1229.314, 2.950533
1229.797, 2.825076
1230.279, 2.880182
1230.761, 2.920201
1231.243, 2.824187
1231.725, 2.805334
1232.207, 3.043729
1232.689, 3.223463
1233.171, 3.127599
1233.653, 2.935521
1234.135, 2.797571
1234.618, 2.720149
1235.100, 2.733607
1235.582, 2.855232
1236.064, 2.956459
1236.546, 3.040058
1237.028, 3.093671
1237.510, 3.121631
1237.992, 3.038718
1238.475, 2.785822
1238.957, 2.621982
1239.439, 2.850807
1239.921, 3.235164
1240.403, 3.211182
1240.885, 2.937877
1241.367, 2.924100
1241.849, 3.096138
1242.332, 3.181548
1242.814, 3.155489
1243.296, 3.128426
1243.778, 3.143124
1244.260, 3.177420
1244.742, 3.221887
1245.224, 3.269981
1245.706, 3.344291
1246.188, 3.390948
1246.671, 3.343556
1247.153, 3.258381
1247.635, 3.196167
1248.117, 3.161382
1248.599, 3.150444
1249.081, 3.167718
1249.563, 3.164203
1250.045, 3.040590
1250.527, 3.059457
1251.010, 3.390462
1251.492, 3.594425
1251.974, 3.420037
1252.456, 3.229455
1252.938, 3.377554
1253.420, 3.670724
1253.902, 3.646313
1254.384, 3.332631
1254.867, 3.173733
1255.349, 3.162131
1255.831, 3.170328
1256.313, 3.177610
1256.795, 3.119863
1257.277, 2.987151
1257.759, 2.936090
1258.241, 3.094498
1258.724, 3.281443
1259.206, 3.231780
1259.688, 3.130534
1260.170, 3.245621
1260.652, 3.442344
1261.134, 3.551328
1261.616, 3.563830
1262.098, 3.480500
1262.580, 3.323619
1263.063, 3.219686
1263.545, 3.215124
1264.027, 3.248889
1264.509, 3.367496
1264.991, 3.436251
1265.473, 3.352744
1265.955, 3.270884
1266.437, 3.310827
1266.919, 3.380118
1267.402, 3.342921
1267.884, 3.220250
1268.366, 3.138569
1268.848, 3.099641
1269.330, 3.104436
1269.812, 3.157156
1270.294, 3.116376
1270.776, 2.955413
1271.259, 2.824759
1271.741, 2.800154
1272.223, 2.868961
1272.705, 3.058409
1273.187, 3.242895
1273.669, 3.166976
1274.151, 3.009933
1274.633, 3.084822
1275.115, 3.270404
1275.598, 3.316308
1276.080, 3.239095
1276.562, 3.208683
1277.044, 3.269561
1277.526, 3.293480
1278.008, 3.213759
1278.490, 3.121107
1278.972, 3.022393
1279.454, 2.935294
1279.937, 2.861535
1280.419, 2.809733
1280.901, 2.791945
1281.383, 2.796500
1281.865, 2.806439
1282.347, 2.819328
1282.829, 2.777462
1283.311, 2.670209
1283.794, 2.719707
1284.276, 2.938512
1284.758, 3.093354
1285.240, 3.124606
1285.722, 3.121767
1286.204, 3.136124
##END=



