##NAMES=Pyrosmalite-(Fe)
##RRUFFID=R050158
##IDEAL CHEMISTRY=Fe^2+^_8_Si_6_O_15_(OH)_10_
##LOCALITY=Burguillos del Cerro, Badajos, Spain
##OWNER=RRUFF
##SOURCE=Jim McGlasson
##DESCRIPTION=Green subhedral crystal aggregate
##STATUS=The identification of this mineral has been confirmed by X-ray diffraction and chemical analysis
##URL=rruff.info/R050158
##MEASURED CHEMISTRY=(Fe^2+^_0.92_Mn^2+^_0.06_Mg_0.02_)_8_Si_6_O_15_(OH_0.83_Cl_0.17_)_10_
93.74609, 24.93642
94.22821, 24.17769
94.71033, 24.36599
95.19244, 25.44698
95.67456, 27.23963
96.15668, 30.23659
96.63879, 33.93668
97.12091, 36.43899
97.60303, 37.49545
98.08514, 38.37002
98.56726, 40.98020
99.04938, 45.37543
99.53149, 49.98743
100.0136, 53.72277
100.4957, 56.53106
100.9778, 60.74796
101.4600, 66.80392
101.9421, 73.94782
102.4242, 80.12859
102.9063, 85.05305
103.3884, 89.93711
103.8705, 95.50269
104.3527, 102.1032
104.8348, 108.5220
105.3169, 114.7810
105.7990, 120.8188
106.2811, 126.6196
106.7632, 132.0771
107.2454, 137.3548
107.7275, 142.4966
108.2096, 147.6108
108.6917, 152.5146
109.1738, 156.9447
109.6559, 160.7946
110.1381, 165.5326
110.6202, 171.3190
111.1023, 177.9761
111.5844, 185.3288
112.0665, 193.1173
112.5486, 201.9347
113.0308, 212.1612
113.5129, 224.2909
113.9950, 236.3675
114.4771, 248.0847
114.9592, 259.5578
115.4413, 271.1269
115.9235, 283.9147
116.4056, 295.9709
116.8877, 306.0631
117.3698, 313.4834
117.8519, 320.6462
118.3340, 328.5992
118.8162, 336.9472
119.2983, 344.7140
119.7804, 351.2851
120.2625, 357.3307
120.7446, 363.3107
121.2267, 369.3828
121.7089, 375.4243
122.1910, 381.3998
122.6731, 387.2964
123.1552, 393.0534
123.6373, 399.1732
124.1194, 404.9669
124.6016, 409.5757
125.0837, 411.2168
125.5658, 412.5786
126.0479, 416.5869
126.5300, 423.1663
127.0121, 430.6119
127.4943, 437.5244
127.9764, 444.1857
128.4585, 451.4554
128.9406, 459.6569
129.4227, 468.6194
129.9048, 477.9362
130.3869, 487.5822
130.8691, 497.7822
131.3512, 508.9451
131.8333, 519.2687
132.3154, 527.1460
132.7975, 534.2820
133.2796, 541.4622
133.7618, 548.7761
134.2439, 556.3575
134.7260, 563.9430
135.2081, 570.7780
135.6902, 576.8802
136.1723, 583.3600
136.6545, 590.7451
137.1366, 599.0037
137.6187, 608.2462
138.1008, 619.0115
138.5829, 630.2609
139.0650, 639.4767
139.5472, 646.1292
140.0293, 652.7539
140.5114, 661.1059
140.9935, 671.6876
141.4756, 681.7950
141.9577, 691.4163
142.4399, 700.4839
142.9220, 708.4952
143.4041, 715.5476
143.8862, 721.5101
144.3683, 726.2460
144.8504, 729.2097
145.3326, 732.3049
145.8147, 736.7836
146.2968, 742.4609
146.7789, 743.1312
147.2610, 735.8637
147.7431, 726.3610
148.2253, 719.3920
148.7074, 717.2787
149.1895, 714.5182
149.6716, 709.9000
150.1537, 703.0939
150.6358, 697.4219
151.1180, 692.8204
151.6001, 689.3595
152.0822, 687.1822
152.5643, 687.2723
153.0464, 687.5907
153.5285, 687.6454
154.0107, 687.2075
154.4928, 687.3260
154.9749, 688.3121
155.4570, 689.7968
155.9391, 691.3116
156.4212, 691.9775
156.9034, 693.3937
157.3855, 696.4124
157.8676, 701.8737
158.3497, 706.5640
158.8318, 709.1678
159.3139, 710.7662
159.7961, 713.2137
160.2782, 717.7571
160.7603, 722.7009
161.2424, 727.1540
161.7245, 730.5569
162.2066, 734.4606
162.6888, 740.1959
163.1709, 746.8393
163.6530, 752.3497
164.1351, 755.2128
164.6172, 757.1163
165.0993, 759.0955
165.5815, 761.2621
166.0636, 763.6572
166.5457, 766.4902
167.0278, 769.6011
167.5099, 772.5273
167.9921, 775.0221
168.4742, 777.2203
168.9563, 779.2697
169.4384, 781.3811
169.9205, 783.1332
170.4026, 783.7542
170.8848, 783.5857
171.3669, 784.0530
171.8490, 786.6534
172.3311, 790.1851
172.8132, 793.1674
173.2953, 794.6282
173.7775, 795.9996
174.2596, 798.5173
174.7417, 802.1339
175.2238, 806.4496
175.7059, 811.2535
176.1880, 816.5234
176.6702, 822.1912
177.1523, 828.2479
177.6344, 834.7012
178.1165, 841.7275
178.5986, 849.3557
179.0807, 856.9797
179.5629, 864.1774
180.0450, 871.0824
180.5271, 877.8574
181.0092, 884.1826
181.4913, 890.6545
181.9734, 898.4531
182.4556, 907.6005
182.9377, 916.9084
183.4198, 926.1741
183.9019, 934.9791
184.3840, 941.6666
184.8661, 944.8805
185.3483, 945.7151
185.8304, 947.1777
186.3125, 949.4559
186.7946, 950.7058
187.2767, 949.0311
187.7588, 944.5735
188.2409, 938.2072
188.7231, 929.8571
189.2052, 919.8253
189.6873, 908.9493
190.1694, 897.0727
190.6515, 884.7077
191.1336, 872.5939
191.6158, 860.6801
192.0979, 848.1674
192.5800, 834.5445
193.0621, 819.9384
193.5442, 804.7659
194.0263, 788.8018
194.5085, 772.4121
194.9906, 756.4216
195.4727, 740.8314
195.9548, 724.6091
196.4369, 706.9824
196.9190, 688.0771
197.4012, 670.0602
197.8833, 652.9657
198.3654, 636.6722
198.8475, 621.7818
199.3296, 608.3186
199.8117, 595.1244
200.2939, 581.3799
200.7760, 567.1121
201.2581, 554.2875
201.7402, 543.2126
202.2223, 533.2719
202.7044, 523.4915
203.1866, 513.9908
203.6687, 504.5111
204.1508, 494.5187
204.6329, 483.7944
205.1150, 475.1992
205.5971, 469.2051
206.0793, 464.8055
206.5614, 460.2321
207.0435, 455.5815
207.5256, 450.5684
208.0077, 444.7980
208.4898, 437.9951
208.9720, 432.2067
209.4541, 427.6188
209.9362, 423.8897
210.4183, 420.3538
210.9004, 417.0503
211.3825, 413.8777
211.8647, 410.7968
212.3468, 407.8370
212.8289, 404.7640
213.3110, 401.4160
213.7931, 398.0483
214.2752, 395.2348
214.7574, 392.8844
215.2395, 391.2458
215.7216, 390.5944
216.2037, 391.3108
216.6858, 391.5790
217.1679, 391.1542
217.6501, 390.4159
218.1322, 390.3378
218.6143, 391.2660
219.0964, 392.1426
219.5785, 392.4605
220.0606, 392.0566
220.5428, 391.5835
221.0249, 390.8372
221.5070, 390.1273
221.9891, 390.2209
222.4712, 391.2810
222.9533, 392.8409
223.4355, 394.7663
223.9176, 397.3450
224.3997, 399.5231
224.8818, 401.2045
225.3639, 402.5384
225.8460, 403.9588
226.3282, 405.6810
226.8103, 407.1070
227.2924, 407.9259
227.7745, 407.9737
228.2566, 407.8863
228.7387, 407.6046
229.2209, 407.2171
229.7030, 406.8540
230.1851, 406.1816
230.6672, 406.0812
231.1493, 407.0072
231.6314, 409.3883
232.1136, 411.6375
232.5957, 413.6414
233.0778, 415.5712
233.5599, 417.7296
234.0420, 420.0594
234.5241, 422.7015
235.0063, 425.7853
235.4884, 429.5443
235.9705, 432.8889
236.4526, 435.4129
236.9347, 437.7186
237.4168, 441.1817
237.8990, 446.5192
238.3811, 451.8383
238.8632, 456.3286
239.3453, 459.6240
239.8274, 463.2001
240.3095, 467.0555
240.7917, 471.2122
241.2738, 475.6490
241.7559, 480.0345
242.2380, 485.2520
242.7201, 491.9223
243.2022, 501.0027
243.6844, 508.2721
244.1665, 512.9232
244.6486, 516.3041
245.1307, 520.7166
245.6128, 526.4631
246.0949, 532.7429
246.5771, 539.3452
247.0592, 546.3060
247.5413, 553.5109
248.0234, 561.1271
248.5055, 568.8221
248.9876, 575.8368
249.4697, 581.6901
249.9519, 587.8245
250.4340, 594.8313
250.9161, 603.0195
251.3982, 610.4309
251.8803, 616.6034
252.3624, 622.3301
252.8446, 628.6542
253.3267, 636.0985
253.8088, 643.2087
254.2909, 649.6424
254.7730, 655.4193
255.2551, 660.5264
255.7373, 664.7231
256.2194, 668.4982
256.7015, 672.4589
257.1836, 677.0445
257.6657, 680.8682
258.1479, 683.4708
258.6300, 684.7549
259.1121, 685.9993
259.5942, 687.4617
260.0763, 688.5587
260.5584, 688.6463
261.0406, 687.4777
261.5227, 685.9467
262.0048, 684.3965
262.4869, 682.8254
262.9690, 679.9263
263.4511, 675.1895
263.9333, 669.9229
264.4154, 665.3850
264.8975, 661.7725
265.3796, 658.2659
265.8617, 654.9084
266.3438, 651.6404
266.8260, 647.2224
267.3081, 641.2689
267.7902, 634.9346
268.2723, 629.6295
268.7544, 625.8810
269.2365, 620.7508
269.7187, 613.3950
270.2008, 604.2374
270.6829, 596.1563
271.1650, 589.5898
271.6471, 583.0393
272.1292, 575.4371
272.6114, 566.5672
273.0935, 557.7565
273.5756, 549.2205
274.0577, 540.9135
274.5398, 532.2999
275.0219, 523.1160
275.5041, 514.5816
275.9862, 507.7680
276.4683, 502.9128
276.9504, 497.6532
277.4325, 491.6524
277.9146, 485.2348
278.3968, 479.0949
278.8788, 473.2091
279.3610, 467.8477
279.8431, 463.4019
280.3252, 459.9557
280.8073, 456.2111
281.2894, 451.8350
281.7715, 447.5639
282.2537, 444.8403
282.7358, 443.7415
283.2179, 443.4650
283.7000, 443.8629
284.1821, 444.9024
284.6642, 445.6800
285.1464, 446.0461
285.6285, 446.4571
286.1106, 447.7000
286.5927, 449.7706
287.0748, 451.9474
287.5569, 453.6357
288.0391, 455.0339
288.5212, 457.6129
289.0033, 461.5416
289.4854, 465.9337
289.9675, 469.7654
290.4496, 473.0823
290.9318, 476.1970
291.4139, 478.9615
291.8960, 481.6743
292.3781, 485.1798
292.8602, 489.5099
293.3423, 494.6461
293.8245, 501.0807
294.3066, 508.5261
294.7887, 515.6865
295.2708, 522.2641
295.7529, 528.1676
296.2350, 532.6344
296.7172, 535.6599
297.1993, 539.0416
297.6814, 544.2845
298.1635, 551.1208
298.6456, 558.7520
299.1277, 567.3184
299.6099, 576.3421
300.0920, 584.9602
300.5741, 593.2916
301.0562, 601.2732
301.5383, 608.4511
302.0204, 615.4316
302.5026, 623.2775
302.9847, 632.4373
303.4668, 642.1738
303.9489, 652.0383
304.4310, 661.8420
304.9131, 671.6248
305.3953, 681.1081
305.8774, 690.5793
306.3595, 700.4848
306.8416, 711.0839
307.3237, 721.1761
307.8058, 729.7415
308.2880, 736.8932
308.7701, 742.8746
309.2522, 747.8840
309.7343, 751.7970
310.2164, 754.3368
310.6985, 755.4345
311.1807, 755.9548
311.6628, 756.4666
312.1449, 756.8159
312.6270, 756.7494
313.1091, 755.9276
313.5912, 754.8737
314.0734, 753.2281
314.5555, 751.0354
315.0376, 750.6877
315.5197, 754.5739
316.0018, 760.5237
316.4839, 766.1754
316.9661, 768.5795
317.4482, 772.6155
317.9303, 780.9059
318.4124, 792.9247
318.8945, 805.6667
319.3766, 816.3670
319.8588, 828.2263
320.3409, 843.4005
320.8230, 862.7294
321.3051, 885.0222
321.7872, 910.9808
322.2693, 939.8290
322.7515, 969.2055
323.2336, 998.7516
323.7157, 1028.530
324.1978, 1059.254
324.6799, 1093.603
325.1620, 1123.070
325.6442, 1148.631
326.1263, 1168.337
326.6084, 1178.724
327.0905, 1181.544
327.5726, 1173.128
328.0547, 1151.406
328.5369, 1114.292
329.0190, 1070.933
329.5011, 1018.321
329.9832, 961.2902
330.4653, 905.2628
330.9474, 847.5998
331.4296, 794.1869
331.9117, 745.7426
332.3938, 702.4969
332.8759, 664.3934
333.3580, 631.5256
333.8401, 603.2323
334.3223, 579.6130
334.8044, 562.1389
335.2865, 545.9344
335.7686, 530.3774
336.2507, 515.5891
336.7328, 503.0796
337.2150, 492.8693
337.6971, 484.6755
338.1792, 478.7227
338.6613, 475.9109
339.1434, 471.7741
339.6255, 465.4369
340.1077, 458.1379
340.5898, 452.5229
341.0719, 448.8858
341.5540, 446.1106
342.0361, 443.8542
342.5182, 442.1183
343.0004, 440.6285
343.4825, 439.3979
343.9646, 438.4350
344.4467, 437.8040
344.9288, 437.5171
345.4109, 437.4183
345.8931, 437.5304
346.3752, 437.7944
346.8573, 437.8400
347.3394, 437.6143
347.8215, 437.6131
348.3036, 438.4299
348.7858, 439.9315
349.2679, 441.4562
349.7500, 442.6857
350.2321, 443.9918
350.7142, 446.2206
351.1964, 449.2710
351.6785, 452.3063
352.1606, 454.2954
352.6427, 455.8644
353.1248, 458.3509
353.6069, 462.1612
354.0891, 466.4671
354.5712, 470.5648
355.0533, 474.4540
355.5354, 478.2045
356.0175, 481.5169
356.4996, 484.8424
356.9818, 488.7615
357.4639, 493.3640
357.9460, 498.1693
358.4281, 502.5876
358.9102, 507.0565
359.3923, 512.1404
359.8745, 518.7088
360.3566, 525.4696
360.8387, 531.4769
361.3208, 536.7995
361.8029, 542.2156
362.2850, 549.6208
362.7672, 556.4749
363.2493, 560.6082
363.7314, 559.3292
364.2135, 557.8572
364.6956, 558.2700
365.1777, 559.8410
365.6599, 560.3097
366.1420, 558.5417
366.6241, 555.9863
367.1062, 553.3705
367.5883, 550.9888
368.0704, 548.0177
368.5526, 544.0320
369.0347, 539.4857
369.5168, 535.0197
369.9989, 531.1861
370.4810, 526.8601
370.9631, 521.6163
371.4453, 515.3043
371.9274, 509.1670
372.4095, 503.1472
372.8916, 497.4170
373.3737, 492.1423
373.8558, 487.6710
374.3380, 482.8853
374.8201, 477.2889
375.3022, 471.1678
375.7843, 466.3839
376.2664, 463.3359
376.7485, 460.6960
377.2307, 457.6891
377.7128, 454.2303
378.1949, 450.7582
378.6770, 447.0821
379.1591, 443.7455
379.6412, 442.3480
380.1234, 443.1611
380.6055, 443.2419
381.0876, 440.7604
381.5697, 436.2360
382.0518, 433.0510
382.5339, 431.2864
383.0161, 430.5404
383.4982, 430.9224
383.9803, 432.1662
384.4624, 432.7820
384.9445, 432.0329
385.4266, 430.6972
385.9088, 430.0501
386.3909, 430.0666
386.8730, 430.4826
387.3551, 431.4672
387.8372, 432.6425
388.3193, 433.3302
388.8015, 433.3351
389.2836, 433.0749
389.7657, 432.7435
390.2478, 432.4383
390.7299, 432.3925
391.2120, 433.1905
391.6942, 433.9964
392.1763, 433.6696
392.6584, 432.0438
393.1405, 431.4527
393.6226, 434.2550
394.1047, 438.3224
394.5869, 441.3466
395.0690, 441.3413
395.5511, 441.4348
396.0332, 442.9629
396.5153, 445.6606
396.9974, 448.0576
397.4796, 449.1359
397.9617, 450.2720
398.4438, 452.1863
398.9259, 455.0336
399.4080, 458.5252
399.8901, 463.3167
400.3723, 468.6582
400.8544, 473.0697
401.3365, 475.2570
401.8186, 478.1009
402.3007, 482.8206
402.7828, 489.8562
403.2649, 494.7507
403.7470, 496.2922
404.2292, 497.0003
404.7113, 499.1668
405.1934, 503.3172
405.6755, 507.3663
406.1576, 510.7669
406.6397, 513.9051
407.1219, 518.2800
407.6040, 524.1595
408.0861, 530.2096
408.5682, 535.5930
409.0503, 540.2314
409.5324, 545.2707
410.0146, 550.7703
410.4967, 556.6129
410.9788, 562.7354
411.4609, 569.0682
411.9430, 575.4503
412.4251, 581.6910
412.9073, 587.9510
413.3894, 594.9476
413.8715, 602.7043
414.3536, 610.7090
414.8357, 618.9490
415.3178, 627.2006
415.8000, 634.9828
416.2821, 642.4308
416.7642, 649.0959
417.2463, 654.5361
417.7284, 658.9041
418.2105, 662.4349
418.6927, 665.7299
419.1748, 667.9675
419.6569, 668.5546
420.1390, 667.3944
420.6211, 664.8796
421.1032, 661.0222
421.5854, 655.9584
422.0675, 649.8531
422.5496, 643.3641
423.0317, 635.1654
423.5138, 623.8790
423.9959, 610.1174
424.4781, 597.0222
424.9602, 586.1678
425.4423, 575.5589
425.9244, 563.9909
426.4065, 549.9208
426.8886, 537.9187
427.3708, 528.5441
427.8529, 520.9059
428.3350, 513.6335
428.8171, 506.9383
429.2992, 500.1819
429.7813, 492.9604
430.2635, 485.3474
430.7456, 479.0037
431.2277, 474.2191
431.7098, 470.1700
432.1919, 466.1872
432.6740, 462.2399
433.1562, 458.7442
433.6383, 455.7011
434.1204, 453.2110
434.6025, 451.8641
435.0846, 451.6244
435.5667, 450.9544
436.0489, 448.6852
436.5310, 445.3433
437.0131, 442.6366
437.4952, 440.6181
437.9773, 438.7519
438.4594, 436.7459
438.9416, 434.5015
439.4237, 431.8094
439.9058, 428.6047
440.3879, 424.9355
440.8700, 420.5831
441.3521, 415.7139
441.8343, 410.9056
442.3164, 406.5462
442.7985, 402.3262
443.2806, 397.9124
443.7627, 393.1931
444.2448, 388.7599
444.7270, 385.2568
445.2091, 382.0754
445.6912, 378.5133
446.1733, 373.4409
446.6554, 368.9321
447.1375, 365.8458
447.6197, 364.0387
448.1018, 361.9687
448.5839, 359.2101
449.0660, 356.4453
449.5481, 353.9541
450.0302, 351.3675
450.5124, 349.8500
450.9945, 349.8988
451.4766, 350.6997
451.9587, 350.9698
452.4408, 350.6217
452.9229, 349.9525
453.4051, 348.8008
453.8872, 347.3279
454.3693, 346.8572
454.8514, 347.5143
455.3335, 348.6415
455.8156, 349.9682
456.2978, 351.4165
456.7799, 352.2069
457.2620, 352.0675
457.7441, 351.6749
458.2262, 352.0533
458.7083, 353.0768
459.1905, 354.2076
459.6726, 355.2042
460.1547, 356.1235
460.6368, 357.0630
461.1189, 358.0260
461.6010, 358.9081
462.0832, 359.2772
462.5653, 359.6729
463.0474, 360.7185
463.5295, 362.7281
464.0116, 365.1752
464.4937, 368.0175
464.9759, 371.0975
465.4580, 374.0020
465.9401, 376.6590
466.4222, 379.0816
466.9043, 380.9894
467.3864, 382.1888
467.8686, 384.3069
468.3507, 388.5357
468.8328, 393.1109
469.3149, 396.7376
469.7970, 398.7159
470.2791, 400.9072
470.7613, 403.6867
471.2434, 406.6642
471.7255, 408.6284
472.2076, 409.0594
472.6897, 409.7908
473.1718, 411.8750
473.6540, 415.3027
474.1361, 417.1428
474.6182, 416.9937
475.1003, 416.7249
475.5824, 418.2203
476.0645, 421.3825
476.5467, 425.1510
477.0288, 429.2635
477.5109, 434.0246
477.9930, 440.0641
478.4751, 447.2526
478.9572, 454.9666
479.4394, 462.9015
479.9215, 471.1715
480.4036, 479.8141
480.8857, 488.8657
481.3678, 498.2545
481.8499, 509.1391
482.3321, 519.8851
482.8142, 528.4671
483.2963, 533.0147
483.7784, 537.1660
484.2605, 543.3733
484.7426, 550.2722
485.2248, 554.4137
485.7069, 555.6035
486.1890, 553.3024
486.6711, 546.8163
487.1532, 535.4017
487.6353, 523.0012
488.1175, 509.5327
488.5996, 495.4591
489.0817, 481.0446
489.5638, 466.0015
490.0459, 451.6139
490.5280, 437.7220
491.0102, 424.7518
491.4923, 413.5529
491.9744, 404.1994
492.4565, 395.9101
492.9386, 388.2231
493.4207, 381.1419
493.9029, 375.1092
494.3850, 370.1408
494.8671, 365.5574
495.3492, 360.3838
495.8313, 355.0242
496.3134, 350.6062
496.7956, 347.5137
497.2777, 345.1126
497.7598, 343.1107
498.2419, 341.3129
498.7240, 339.2838
499.2061, 336.2432
499.6883, 333.2902
500.1704, 331.2013
500.6525, 330.0031
501.1346, 329.2635
501.6167, 329.0796
502.0988, 329.1088
502.5810, 329.1486
503.0631, 329.7391
503.5452, 329.4455
504.0273, 327.0536
504.5094, 323.8716
504.9915, 322.2621
505.4737, 323.3040
505.9558, 324.3149
506.4379, 324.6771
506.9200, 324.4151
507.4021, 323.9133
507.8842, 322.9390
508.3664, 322.2508
508.8485, 322.5350
509.3306, 323.8166
509.8127, 324.7861
510.2948, 325.3029
510.7769, 325.6318
511.2591, 326.0353
511.7412, 326.5427
512.2233, 327.3180
512.7054, 328.6008
513.1875, 330.0415
513.6696, 331.1104
514.1517, 331.8587
514.6339, 332.5633
515.1160, 333.3692
515.5981, 334.2340
516.0802, 335.2290
516.5623, 336.4571
517.0444, 337.3109
517.5266, 337.2630
518.0087, 336.7954
518.4908, 336.4335
518.9729, 336.1650
519.4550, 336.1633
519.9371, 336.9586
520.4193, 338.1752
520.9014, 338.2054
521.3835, 336.2903
521.8656, 334.1733
522.3477, 332.5046
522.8298, 331.3749
523.3120, 329.9864
523.7941, 328.4314
524.2762, 326.4935
524.7583, 323.6130
525.2404, 319.7111
525.7225, 316.8939
526.2047, 315.5931
526.6868, 315.2378
527.1689, 315.0474
527.6510, 314.9810
528.1331, 314.7878
528.6152, 314.2982
529.0974, 313.6290
529.5795, 312.9886
530.0616, 312.3548
530.5437, 311.5138
531.0258, 310.0986
531.5079, 308.5266
531.9901, 307.0697
532.4722, 305.5921
532.9543, 304.7622
533.4364, 305.5163
533.9185, 306.8589
534.4006, 307.4520
534.8828, 305.8408
535.3649, 304.7817
535.8470, 305.2063
536.3291, 306.7801
536.8112, 307.6216
537.2933, 307.5412
537.7755, 307.0153
538.2576, 306.1234
538.7397, 304.7545
539.2218, 303.8624
539.7039, 303.5231
540.1860, 303.4685
540.6682, 303.4226
541.1503, 303.3965
541.6324, 303.5737
542.1145, 304.0914
542.5966, 304.6387
543.0787, 304.5890
543.5609, 304.1100
544.0430, 303.8217
544.5251, 304.2303
545.0072, 304.8662
545.4893, 305.4292
545.9714, 305.8768
546.4536, 305.8281
546.9357, 304.2230
547.4178, 302.5775
547.8999, 302.1662
548.3820, 303.8782
548.8641, 305.2402
549.3463, 305.4732
549.8284, 305.1826
550.3105, 305.1769
550.7926, 305.8254
551.2747, 306.2241
551.7568, 306.2252
552.2390, 305.8820
552.7211, 305.3603
553.2032, 304.5553
553.6853, 303.9035
554.1674, 303.5913
554.6495, 303.6194
555.1317, 304.0895
555.6138, 305.0620
556.0959, 305.9774
556.5780, 306.1928
557.0601, 305.9271
557.5422, 305.7823
558.0244, 305.9185
558.5065, 306.0966
558.9886, 305.9294
559.4707, 305.6342
559.9528, 305.6486
560.4349, 306.0780
560.9171, 306.9312
561.3992, 308.6702
561.8813, 311.0682
562.3634, 312.5782
562.8455, 311.6739
563.3276, 310.7154
563.8098, 310.9968
564.2919, 313.0804
564.7740, 314.5038
565.2561, 314.9789
565.7382, 315.0729
566.2203, 315.2625
566.7025, 315.4978
567.1846, 316.0844
567.6667, 317.1707
568.1488, 318.4925
568.6309, 319.5035
569.1130, 320.2216
569.5952, 320.8140
570.0773, 321.1701
570.5594, 321.5489
571.0415, 322.7763
571.5236, 324.7269
572.0057, 326.1750
572.4879, 325.6046
572.9700, 324.4964
573.4521, 324.5061
573.9342, 326.0686
574.4163, 327.5843
574.8984, 327.9902
575.3806, 328.1273
575.8627, 328.8559
576.3448, 330.7740
576.8269, 332.7632
577.3090, 334.9660
577.7911, 337.1165
578.2733, 338.5884
578.7554, 338.9488
579.2375, 339.4283
579.7196, 340.3653
580.2017, 341.7407
580.6838, 343.4257
581.1660, 345.4840
581.6481, 347.4249
582.1302, 348.5797
582.6123, 349.2536
583.0944, 350.7675
583.5765, 353.2700
584.0587, 356.1158
584.5408, 358.6563
585.0229, 361.0720
585.5050, 363.7110
585.9871, 366.9738
586.4692, 370.0262
586.9514, 371.7706
587.4335, 373.0077
587.9156, 375.3613
588.3977, 379.9223
588.8798, 385.0923
589.3619, 390.4530
589.8441, 395.9928
590.3262, 401.5789
590.8083, 406.5797
591.2904, 412.3595
591.7725, 419.7973
592.2546, 429.2550
592.7368, 437.9621
593.2189, 445.4253
593.7010, 453.4120
594.1831, 464.1620
594.6652, 477.2663
595.1473, 490.9747
595.6295, 504.8535
596.1116, 519.4177
596.5937, 535.1148
597.0758, 552.0349
597.5579, 570.5710
598.0400, 590.1175
598.5222, 611.5082
599.0043, 635.3699
599.4864, 661.5613
599.9685, 689.4916
600.4506, 718.8859
600.9327, 749.6510
601.4149, 781.8152
601.8970, 815.2509
602.3791, 849.9139
602.8612, 886.0402
603.3433, 923.5219
603.8254, 961.7548
604.3076, 1000.827
604.7897, 1041.492
605.2718, 1083.921
605.7539, 1128.599
606.2360, 1174.921
606.7181, 1223.464
607.2003, 1274.002
607.6824, 1326.995
608.1645, 1382.204
608.6466, 1437.247
609.1287, 1493.530
609.6108, 1554.440
610.0930, 1625.509
610.5751, 1699.065
611.0572, 1770.062
611.5393, 1837.990
612.0214, 1905.887
612.5035, 1979.062
612.9857, 2049.921
613.4678, 2115.526
613.9499, 2176.585
614.4320, 2227.266
614.9141, 2269.531
615.3962, 2300.118
615.8784, 2315.596
616.3605, 2315.406
616.8426, 2303.364
617.3247, 2280.561
617.8068, 2242.159
618.2889, 2194.681
618.7711, 2128.981
619.2532, 2052.946
619.7353, 1964.500
620.2174, 1868.890
620.6995, 1771.471
621.1816, 1672.331
621.6638, 1575.049
622.1459, 1476.387
622.6280, 1381.761
623.1101, 1294.991
623.5922, 1216.633
624.0743, 1143.002
624.5565, 1071.744
625.0386, 1005.721
625.5207, 947.5466
626.0028, 898.7553
626.4849, 853.7101
626.9670, 811.9102
627.4492, 773.8226
627.9313, 740.1146
628.4134, 710.9882
628.8955, 684.3353
629.3776, 660.0523
629.8597, 637.9512
630.3419, 617.5743
630.8240, 598.8755
631.3061, 581.6417
631.7882, 566.0134
632.2703, 551.6405
632.7524, 537.9297
633.2346, 525.1275
633.7167, 513.8062
634.1988, 505.5522
634.6809, 498.0029
635.1630, 489.6597
635.6451, 480.1260
636.1273, 471.5781
636.6094, 464.4588
637.0915, 458.2729
637.5736, 452.8827
638.0557, 448.4353
638.5378, 444.2442
639.0200, 440.3587
639.5021, 436.5515
639.9842, 432.3471
640.4663, 427.8295
640.9484, 423.8191
641.4305, 420.6224
641.9127, 417.8460
642.3948, 414.8368
642.8769, 411.7664
643.3590, 409.0384
643.8411, 407.1411
644.3232, 405.3995
644.8054, 403.2491
645.2875, 400.8196
645.7696, 398.5801
646.2517, 396.9530
646.7338, 395.3209
647.2159, 393.2409
647.6981, 390.5822
648.1802, 388.9318
648.6623, 388.9137
649.1444, 388.9197
649.6265, 387.6657
650.1086, 385.0147
650.5908, 383.3542
651.0729, 382.9629
651.5550, 382.7065
652.0371, 380.9735
652.5192, 378.2945
653.0013, 376.3642
653.4835, 375.6825
653.9656, 375.4815
654.4477, 375.1967
654.9298, 374.9087
655.4119, 374.7481
655.8940, 374.7067
656.3762, 374.8605
656.8583, 375.6395
657.3404, 376.6949
657.8225, 376.7084
658.3046, 374.4927
658.7867, 372.8941
659.2689, 372.9627
659.7510, 374.4758
660.2331, 375.1781
660.7152, 374.9218
661.1973, 374.5779
661.6794, 374.6099
662.1616, 374.9949
662.6437, 375.9815
663.1258, 377.5986
663.6079, 378.5734
664.0900, 377.3298
664.5721, 375.0770
665.0543, 373.2471
665.5364, 372.1639
666.0185, 371.2976
666.5006, 370.7747
666.9827, 370.2002
667.4648, 369.1624
667.9470, 366.7173
668.4291, 365.0465
668.9112, 364.7076
669.3933, 364.8799
669.8754, 364.0089
670.3575, 361.8487
670.8397, 359.9027
671.3218, 358.5756
671.8039, 357.6585
672.2860, 356.7415
672.7681, 355.8230
673.2502, 354.8077
673.7324, 353.7449
674.2145, 352.4872
674.6966, 350.6353
675.1787, 348.3334
675.6608, 346.4373
676.1429, 345.4413
676.6251, 344.9239
677.1072, 344.8668
677.5893, 345.4314
678.0714, 345.2474
678.5535, 343.8790
679.0356, 342.1984
679.5178, 340.6452
679.9999, 339.1173
680.4820, 338.2812
680.9641, 338.2802
681.4462, 338.4763
681.9283, 338.1314
682.4105, 337.3814
682.8926, 336.7825
683.3747, 336.4545
683.8568, 336.2276
684.3389, 335.8912
684.8210, 335.5497
685.3032, 335.3566
685.7853, 335.3081
686.2674, 335.4866
686.7495, 336.2902
687.2316, 337.3096
687.7137, 337.5742
688.1959, 336.4554
688.6780, 335.4828
689.1601, 334.8498
689.6422, 334.5997
690.1243, 335.0778
690.6064, 336.4040
691.0886, 337.5247
691.5707, 337.9502
692.0528, 337.8104
692.5349, 337.0660
693.0170, 335.8557
693.4991, 335.3128
693.9813, 336.8761
694.4634, 338.9977
694.9455, 340.2438
695.4276, 340.4640
695.9097, 340.5956
696.3918, 341.0775
696.8740, 341.4682
697.3561, 341.3578
697.8382, 340.2805
698.3203, 340.2466
698.8024, 341.6177
699.2845, 343.4674
699.7667, 345.0594
700.2488, 346.3955
700.7309, 347.0697
701.2130, 346.9355
701.6951, 346.5402
702.1772, 346.4894
702.6594, 346.6938
703.1415, 346.9587
703.6236, 347.2393
704.1057, 347.5615
704.5878, 348.0880
705.0699, 348.6400
705.5521, 348.9259
706.0342, 348.1937
706.5163, 348.0374
706.9984, 349.1002
707.4805, 350.8232
707.9626, 351.7179
708.4448, 351.4436
708.9269, 351.5170
709.4090, 352.5594
709.8911, 354.1780
710.3732, 355.2530
710.8553, 355.8076
711.3374, 356.0846
711.8195, 355.7426
712.3016, 355.4997
712.7838, 356.4312
713.2659, 358.3735
713.7480, 360.1021
714.2301, 361.1464
714.7122, 361.7372
715.1943, 361.7906
715.6765, 361.1489
716.1586, 361.3275
716.6407, 362.7487
717.1228, 364.4083
717.6049, 365.8075
718.0870, 366.9571
718.5692, 367.6645
719.0513, 367.8742
719.5334, 367.9613
720.0155, 368.0366
720.4976, 368.2929
720.9797, 369.3517
721.4619, 371.4301
721.9440, 373.3866
722.4261, 374.4348
722.9082, 374.8677
723.3903, 374.9156
723.8724, 373.9975
724.3546, 373.7994
724.8367, 374.9089
725.3188, 376.6401
725.8009, 378.3360
726.2830, 380.0369
726.7651, 381.5159
727.2473, 382.7255
727.7294, 383.7755
728.2115, 384.6260
728.6936, 385.4072
729.1757, 386.9200
729.6578, 389.9403
730.1400, 392.9633
730.6221, 394.2660
731.1042, 394.4367
731.5863, 394.6707
732.0684, 395.2733
732.5505, 396.1933
733.0327, 397.4660
733.5148, 399.0750
733.9969, 400.9286
734.4790, 403.4034
734.9611, 405.3519
735.4432, 406.3511
735.9254, 406.5964
736.4075, 406.8523
736.8896, 407.1161
737.3717, 407.3424
737.8538, 407.2662
738.3359, 407.2430
738.8181, 408.1750
739.3002, 409.8326
739.7823, 410.8556
740.2644, 410.0646
740.7465, 408.7710
741.2286, 407.7169
741.7108, 406.9810
742.1929, 406.1080
742.6750, 405.2226
743.1571, 404.0084
743.6392, 402.2417
744.1213, 399.9066
744.6035, 397.7104
745.0856, 395.7287
745.5677, 393.4138
746.0498, 389.8531
746.5319, 385.7768
747.0140, 383.0236
747.4962, 381.7796
747.9783, 380.6040
748.4604, 378.1630
748.9425, 375.5301
749.4246, 373.7498
749.9067, 373.3337
750.3889, 372.6784
750.8710, 371.4789
751.3531, 370.0631
751.8352, 368.5817
752.3173, 366.9209
752.7994, 365.6005
753.2816, 364.5406
753.7637, 364.0824
754.2458, 365.0767
754.7279, 366.9887
755.2100, 368.1330
755.6921, 368.0525
756.1743, 367.6958
756.6564, 367.6817
757.1385, 367.9076
757.6206, 368.2610
758.1027, 368.9301
758.5848, 369.4174
759.0670, 369.4219
759.5491, 369.3509
760.0312, 369.5113
760.5133, 369.5693
760.9954, 371.4922
761.4775, 376.3346
761.9597, 381.5916
762.4418, 382.4786
762.9239, 380.0363
763.4060, 378.6118
763.8881, 379.9542
764.3702, 381.9755
764.8524, 382.6366
765.3345, 382.6474
765.8166, 383.2313
766.2987, 385.5031
766.7808, 387.5172
767.2629, 388.8436
767.7451, 389.6184
768.2272, 390.0782
768.7093, 390.2035
769.1914, 390.0299
769.6735, 389.5069
770.1556, 388.7650
770.6378, 388.1318
771.1199, 387.5585
771.6020, 386.7828
772.0841, 385.6153
772.5662, 384.2829
773.0483, 382.9525
773.5305, 381.6209
774.0126, 380.2758
774.4947, 378.6910
774.9768, 377.3492
775.4589, 376.7667
775.9410, 376.5411
776.4232, 375.0630
776.9053, 371.8239
777.3874, 369.0898
777.8695, 367.8091
778.3516, 367.4091
778.8337, 366.2715
779.3159, 364.5261
779.7980, 362.9408
780.2801, 361.9045
780.7622, 361.2510
781.2443, 360.9814
781.7264, 361.0145
782.2086, 361.0396
782.6907, 361.4633
783.1728, 361.2889
783.6549, 359.7701
784.1370, 357.2893
784.6191, 356.3299
785.1013, 357.2748
785.5834, 358.1263
786.0655, 357.8408
786.5476, 356.8624
787.0297, 356.4171
787.5118, 356.4718
787.9940, 356.8229
788.4761, 357.6948
788.9582, 358.5387
789.4403, 358.7348
789.9224, 358.3907
790.4045, 358.4549
790.8867, 359.5801
791.3688, 360.6906
791.8509, 361.3819
792.3330, 361.7047
792.8151, 362.1632
793.2972, 362.7831
793.7794, 363.3719
794.2615, 363.6383
794.7436, 363.8517
795.2257, 364.7990
795.7078, 366.3853
796.1899, 367.9535
796.6721, 369.1511
797.1542, 370.1957
797.6363, 371.2527
798.1184, 372.3358
798.6005, 373.2318
799.0826, 373.5560
799.5648, 374.2107
800.0469, 375.6827
800.5290, 377.8561
801.0111, 379.2455
801.4932, 379.7401
801.9753, 380.9837
802.4575, 385.1613
802.9396, 390.2379
803.4217, 392.0829
803.9038, 391.1859
804.3859, 391.2902
804.8680, 395.5898
805.3502, 400.3213
805.8323, 403.3288
806.3144, 404.4379
806.7965, 406.2308
807.2786, 409.0963
807.7607, 411.8691
808.2429, 413.9008
808.7250, 415.3792
809.2071, 417.5714
809.6892, 420.4536
810.1713, 423.3391
810.6534, 425.7257
811.1356, 427.8916
811.6177, 430.4034
812.0998, 433.1246
812.5819, 434.9927
813.0640, 434.4887
813.5461, 434.1470
814.0283, 435.5845
814.5104, 438.5558
814.9925, 439.4734
815.4746, 437.6851
815.9567, 436.0890
816.4388, 436.4007
816.9210, 437.8696
817.4031, 438.0337
817.8852, 437.0068
818.3673, 435.6834
818.8494, 434.4276
819.3315, 433.2221
819.8137, 432.1652
820.2958, 431.1891
820.7779, 429.9086
821.2600, 428.0213
821.7421, 426.0376
822.2242, 424.2521
822.7064, 422.5272
823.1885, 420.1180
823.6706, 417.0368
824.1527, 413.4545
824.6348, 409.2014
825.1169, 404.6888
825.5991, 400.6472
826.0812, 396.9793
826.5633, 393.0141
827.0454, 387.6497
827.5275, 382.6967
828.0096, 379.3040
828.4918, 377.2148
828.9739, 374.3733
829.4560, 370.0690
829.9381, 366.6125
830.4202, 365.0005
830.9023, 364.5075
831.3845, 362.8219
831.8666, 360.1235
832.3487, 357.6669
832.8308, 356.2846
833.3129, 355.2249
833.7950, 353.8513
834.2772, 352.2370
834.7593, 350.5758
835.2414, 348.4527
835.7235, 346.8499
836.2056, 345.9921
836.6877, 345.7601
837.1699, 346.0112
837.6520, 346.8445
838.1341, 347.3908
838.6162, 347.4074
839.0983, 346.9959
839.5804, 346.1950
840.0626, 345.1052
840.5447, 343.9917
841.0268, 342.5968
841.5089, 341.6136
841.9910, 341.5925
842.4731, 342.1455
842.9553, 342.5565
843.4374, 342.8854
843.9195, 342.8634
844.4016, 342.3717
844.8837, 341.6408
845.3658, 341.0473
845.8480, 340.5826
846.3301, 340.1813
846.8122, 339.8288
847.2943, 339.5534
847.7764, 339.4331
848.2585, 339.3939
848.7407, 339.3363
849.2228, 339.3483
849.7049, 339.1490
850.1870, 338.4305
850.6691, 337.7018
851.1512, 337.5734
851.6334, 338.1258
852.1155, 338.5503
852.5976, 338.7200
853.0797, 338.8907
853.5618, 339.5115
854.0439, 340.2953
854.5261, 340.7163
855.0082, 340.6241
855.4903, 340.3436
855.9724, 339.9443
856.4545, 339.4734
856.9366, 338.9043
857.4188, 338.0003
857.9009, 337.8733
858.3830, 338.7906
858.8651, 339.8326
859.3472, 340.3220
859.8293, 340.2726
860.3115, 339.4659
860.7936, 337.8867
861.2757, 336.7176
861.7578, 337.3009
862.2399, 338.3060
862.7220, 338.5408
863.2042, 337.7466
863.6863, 337.4292
864.1684, 338.0474
864.6505, 338.6308
865.1326, 338.5467
865.6147, 337.8960
866.0969, 338.1849
866.5790, 339.4114
867.0611, 340.4700
867.5432, 340.6255
868.0253, 340.2241
868.5074, 339.4113
868.9896, 338.3220
869.4717, 337.6527
869.9538, 337.8751
870.4359, 338.3336
870.9180, 338.9498
871.4001, 339.6158
871.8823, 339.6882
872.3644, 339.0595
872.8465, 338.6844
873.3286, 339.1083
873.8107, 339.8039
874.2928, 339.8120
874.7750, 339.2952
875.2571, 338.7212
875.7392, 338.1905
876.2213, 337.7404
876.7034, 337.1882
877.1855, 336.7778
877.6677, 337.0898
878.1498, 338.6043
878.6319, 339.4469
879.1140, 339.1792
879.5961, 338.3284
880.0782, 337.6092
880.5604, 337.0239
881.0425, 336.5749
881.5246, 336.2471
882.0067, 336.0996
882.4888, 336.2770
882.9709, 336.6096
883.4531, 336.9144
883.9352, 337.3141
884.4173, 337.3502
884.8994, 336.7474
885.3815, 336.2248
885.8636, 336.8778
886.3458, 338.4242
886.8279, 338.5238
887.3100, 336.9046
887.7921, 335.3909
888.2742, 335.5659
888.7563, 336.5404
889.2385, 337.6877
889.7206, 339.0473
890.2027, 339.5280
890.6848, 338.4050
891.1669, 337.1488
891.6490, 336.5206
892.1312, 336.4557
892.6133, 336.1036
893.0954, 335.4672
893.5775, 334.6638
894.0596, 333.3055
894.5417, 332.1442
895.0239, 332.2199
895.5060, 333.3134
895.9881, 334.2697
896.4702, 334.8994
896.9523, 335.0997
897.4344, 334.6984
897.9166, 333.9042
898.3987, 333.4020
898.8808, 333.1883
899.3629, 333.2505
899.8450, 333.6739
900.3271, 334.2206
900.8093, 334.6862
901.2914, 335.0110
901.7735, 335.0791
902.2556, 334.9193
902.7377, 334.4115
903.2198, 333.0159
903.7020, 331.5381
904.1841, 330.9072
904.6662, 331.2206
905.1483, 332.0301
905.6304, 333.4608
906.1125, 334.7466
906.5947, 334.7491
907.0768, 334.0763
907.5589, 333.8947
908.0410, 334.4819
908.5231, 334.8996
909.0052, 334.6404
909.4874, 334.1011
909.9695, 333.4749
910.4516, 332.7041
910.9337, 332.4612
911.4158, 332.8438
911.8979, 333.3429
912.3801, 333.6872
912.8622, 333.8804
913.3443, 333.7432
913.8264, 333.3813
914.3085, 333.4013
914.7906, 334.6221
915.2728, 335.8150
915.7549, 336.4120
916.2370, 336.4734
916.7191, 336.2210
917.2012, 335.5221
917.6833, 335.0414
918.1655, 335.0331
918.6476, 335.2647
919.1297, 335.2414
919.6118, 335.0880
920.0939, 335.1702
920.5760, 335.8741
921.0582, 336.4369
921.5403, 336.2357
922.0224, 335.7964
922.5045, 335.8528
922.9866, 336.5998
923.4688, 337.3036
923.9509, 337.9478
924.4330, 338.4565
924.9151, 338.7756
925.3972, 338.8789
925.8793, 338.6406
926.3615, 338.0294
926.8436, 337.3558
927.3257, 336.3110
927.8078, 335.6471
928.2899, 336.2990
928.7720, 338.3877
929.2542, 338.9262
929.7363, 337.3141
930.2184, 336.2276
930.7005, 337.6521
931.1826, 340.4125
931.6647, 341.3888
932.1469, 340.8846
932.6290, 340.1942
933.1111, 339.6484
933.5932, 339.4067
934.0753, 339.8519
934.5574, 340.6323
935.0396, 340.7230
935.5217, 339.8085
936.0038, 339.2556
936.4859, 339.3967
936.9680, 339.7932
937.4501, 339.7751
937.9323, 339.4746
938.4144, 339.1646
938.8965, 338.8344
939.3786, 338.7474
939.8607, 339.1801
940.3428, 339.8215
940.8250, 340.3541
941.3071, 340.6529
941.7892, 341.4549
942.2713, 342.9291
942.7534, 344.1939
943.2355, 344.2523
943.7177, 343.7093
944.1998, 344.0611
944.6819, 345.1955
945.1640, 345.7642
945.6461, 344.3842
946.1282, 342.9725
946.6104, 342.3842
947.0925, 342.5096
947.5746, 343.1708
948.0567, 344.5648
948.5388, 345.2507
949.0209, 344.5293
949.5031, 343.2996
949.9852, 343.0021
950.4673, 343.2879
950.9494, 343.4092
951.4315, 342.9027
951.9136, 342.5793
952.3958, 343.1464
952.8779, 343.6926
953.3600, 343.1095
953.8421, 341.0601
954.3242, 340.5069
954.8063, 341.7457
955.2885, 343.3416
955.7706, 344.0551
956.2527, 344.2773
956.7348, 344.6063
957.2169, 345.0773
957.6990, 345.1078
958.1811, 343.4160
958.6632, 342.4850
959.1453, 343.6286
959.6274, 346.2748
960.1096, 347.2314
960.5917, 346.5021
961.0738, 345.8143
961.5559, 345.8910
962.0380, 346.3370
962.5201, 347.1144
963.0023, 347.8568
963.4844, 347.9088
963.9665, 345.8570
964.4486, 344.9219
964.9307, 345.9431
965.4128, 347.4227
965.8950, 347.3963
966.3771, 346.0628
966.8592, 345.4386
967.3413, 345.7491
967.8234, 346.3065
968.3055, 346.7890
968.7877, 347.0844
969.2698, 346.8521
969.7519, 346.0030
970.2340, 346.1752
970.7161, 348.1529
971.1982, 349.6781
971.6804, 349.6715
972.1625, 348.6350
972.6446, 347.8641
973.1267, 347.4370
973.6088, 347.7070
974.0909, 349.6016
974.5731, 351.3039
975.0552, 351.4234
975.5373, 350.8263
976.0194, 351.0966
976.5015, 352.9684
976.9836, 353.5861
977.4658, 352.3434
977.9479, 351.0227
978.4300, 352.2446
978.9121, 354.7637
979.3942, 355.6602
979.8763, 354.5309
980.3585, 353.8960
980.8406, 355.5050
981.3227, 357.4966
981.8048, 359.0450
982.2869, 360.1235
982.7690, 360.4329
983.2512, 359.8692
983.7333, 359.6024
984.2154, 360.3808
984.6975, 361.4416
985.1796, 361.4292
985.6617, 360.9447
986.1439, 361.2090
986.6260, 363.9700
987.1081, 365.6385
987.5902, 365.0352
988.0723, 363.9294
988.5544, 364.4820
989.0366, 366.6058
989.5187, 368.2121
990.0008, 369.1207
990.4829, 369.8237
990.9650, 370.5917
991.4471, 371.4552
991.9293, 372.4499
992.4114, 373.5690
992.8935, 374.7923
993.3756, 376.2788
993.8577, 377.4563
994.3398, 377.8101
994.8220, 377.9825
995.3041, 380.1280
995.7862, 383.6341
996.2683, 386.2674
996.7504, 386.4010
997.2325, 386.7256
997.7147, 389.0224
998.1968, 392.1024
998.6789, 394.4628
999.1610, 395.7205
999.6431, 397.5558
1000.125, 400.0276
1000.607, 402.8379
1001.089, 405.8130
1001.572, 408.8581
1002.054, 411.7615
1002.536, 414.5169
1003.018, 417.4354
1003.500, 420.3262
1003.982, 423.7208
1004.464, 427.8513
1004.946, 432.5235
1005.429, 436.8575
1005.911, 440.9276
1006.393, 445.7629
1006.875, 451.9111
1007.357, 458.4331
1007.839, 464.5331
1008.321, 470.5707
1008.803, 477.0605
1009.285, 483.9789
1009.768, 491.6851
1010.250, 500.5735
1010.732, 509.6162
1011.214, 517.4078
1011.696, 524.7477
1012.178, 534.4510
1012.660, 546.2388
1013.142, 558.5623
1013.625, 570.6563
1014.107, 582.8569
1014.589, 594.9011
1015.071, 607.2250
1015.553, 620.4565
1016.035, 634.6981
1016.517, 649.1719
1016.999, 663.5922
1017.481, 678.6223
1017.964, 695.5339
1018.446, 713.1104
1018.928, 729.9710
1019.410, 745.9030
1019.892, 760.8776
1020.374, 773.7726
1020.856, 787.2591
1021.338, 803.0969
1021.820, 820.6385
1022.303, 835.9495
1022.785, 849.1843
1023.267, 861.0071
1023.749, 872.5342
1024.231, 881.8558
1024.713, 886.9473
1025.195, 889.1610
1025.677, 890.9235
1026.160, 892.7369
1026.642, 893.5555
1027.124, 893.7894
1027.606, 891.4313
1028.088, 883.6429
1028.570, 872.0773
1029.052, 859.2628
1029.534, 845.5643
1030.016, 831.2457
1030.499, 816.6798
1030.981, 801.1121
1031.463, 783.7944
1031.945, 765.3860
1032.427, 747.8839
1032.909, 731.4185
1033.391, 716.1495
1033.873, 702.8380
1034.356, 689.2333
1034.838, 672.0273
1035.320, 653.8170
1035.802, 637.9841
1036.284, 625.5385
1036.766, 613.5109
1037.248, 601.9961
1037.730, 590.7493
1038.213, 579.5613
1038.695, 568.6310
1039.177, 558.7640
1039.659, 549.8212
1040.141, 541.5519
1040.623, 534.3907
1041.105, 527.2263
1041.587, 519.1129
1042.069, 511.0975
1042.552, 504.8563
1043.034, 500.4333
1043.516, 495.9066
1043.998, 490.9492
1044.480, 485.9857
1044.962, 481.0974
1045.444, 476.4300
1045.926, 472.2394
1046.408, 468.5375
1046.891, 464.4981
1047.373, 459.9424
1047.855, 455.4258
1048.337, 451.0728
1048.819, 446.9946
1049.301, 443.3263
1049.783, 440.1434
1050.265, 437.6463
1050.748, 436.4434
1051.230, 434.9317
1051.712, 432.0964
1052.194, 429.1112
1052.676, 426.9030
1053.158, 425.5015
1053.640, 423.8165
1054.122, 421.8411
1054.604, 419.6035
1055.087, 416.6671
1055.569, 413.8707
1056.051, 412.0392
1056.533, 410.9014
1057.015, 409.4968
1057.497, 407.5657
1057.979, 405.9299
1058.461, 404.7899
1058.943, 403.7684
1059.426, 402.3028
1059.908, 400.6315
1060.390, 399.1093
1060.872, 397.7784
1061.354, 396.8389
1061.836, 396.9542
1062.318, 396.8401
1062.800, 395.9300
1063.283, 394.4048
1063.765, 392.8028
1064.247, 391.1692
1064.729, 390.0435
1065.211, 389.7581
1065.693, 389.6834
1066.175, 389.5443
1066.657, 389.2389
1067.140, 388.6637
1067.622, 387.9008
1068.104, 386.5393
1068.586, 384.5177
1069.068, 382.2969
1069.550, 379.9095
1070.032, 377.7099
1070.514, 376.2746
1070.996, 375.5020
1071.479, 375.0143
1071.961, 374.8944
1072.443, 374.8085
1072.925, 374.7449
1073.407, 374.6481
1073.889, 374.4773
1074.371, 374.2116
1074.853, 373.6891
1075.335, 372.8946
1075.818, 372.1432
1076.300, 371.7513
1076.782, 371.3509
1077.264, 370.7340
1077.746, 369.9262
1078.228, 368.8854
1078.710, 367.5663
1079.192, 367.1546
1079.675, 368.3500
1080.157, 369.6207
1080.639, 369.1559
1081.121, 367.8931
1081.603, 367.0409
1082.085, 367.0225
1082.567, 366.4732
1083.049, 365.1892
1083.531, 363.9008
1084.014, 362.7309
1084.496, 362.0124
1084.978, 363.0713
1085.460, 365.2384
1085.942, 366.6375
1086.424, 365.7764
1086.906, 365.1092
1087.388, 365.2786
1087.870, 365.6599
1088.353, 365.5736
1088.835, 365.0757
1089.317, 364.7279
1089.799, 364.5532
1090.281, 364.5099
1090.763, 364.6703
1091.245, 364.8501
1091.727, 365.0359
1092.209, 365.1300
1092.692, 364.7654
1093.174, 363.8135
1093.656, 363.4285
1094.138, 363.9192
1094.620, 364.5346
1095.102, 364.3563
1095.584, 363.9115
1096.066, 363.9089
1096.549, 364.4906
1097.031, 364.4698
1097.513, 363.4731
1097.995, 362.6928
1098.477, 362.6792
1098.959, 363.0157
1099.441, 362.7581
1099.923, 362.1915
1100.406, 361.9673
1100.888, 362.4223
1101.370, 362.8864
1101.852, 363.1865
1102.334, 363.4492
1102.816, 363.7716
1103.298, 364.1315
1103.780, 364.3062
1104.262, 364.3303
1104.745, 364.4571
1105.227, 364.8377
1105.709, 365.3344
1106.191, 366.1465
1106.673, 366.8861
1107.155, 366.8357
1107.637, 365.7748
1108.119, 365.8418
1108.601, 367.2165
1109.084, 368.7382
1109.566, 369.6128
1110.048, 370.0804
1110.530, 370.2365
1111.012, 370.1659
1111.494, 370.2265
1111.976, 370.4500
1112.458, 370.6856
1112.941, 370.7738
1113.423, 371.2807
1113.905, 373.4802
1114.387, 376.3804
1114.869, 378.4252
1115.351, 379.4275
1115.833, 379.8164
1116.315, 379.1342
1116.797, 378.7607
1117.280, 379.1354
1117.762, 380.1255
1118.244, 381.4117
1118.726, 383.0270
1119.208, 385.3380
1119.690, 388.9623
1120.172, 391.6058
1120.654, 391.1625
1121.136, 390.5052
1121.619, 391.3969
1122.101, 393.6717
1122.583, 395.8154
1123.065, 397.8067
1123.547, 399.4456
1124.029, 400.0621
1124.511, 401.0584
1124.993, 404.3434
1125.476, 407.9091
1125.958, 408.9809
1126.440, 406.8991
1126.922, 406.1291
1127.404, 406.7802
1127.886, 407.7623
1128.368, 408.6695
1128.850, 409.1986
1129.333, 408.7426
1129.815, 407.6837
1130.297, 407.2130
1130.779, 407.8508
1131.261, 407.8002
1131.743, 406.9061
1132.225, 405.2217
1132.707, 402.3258
1133.189, 398.9593
1133.672, 395.8950
1134.154, 393.2407
1134.636, 391.3417
1135.118, 390.7829
1135.600, 389.9645
1136.082, 388.2592
1136.564, 386.6767
1137.046, 388.1113
1137.528, 390.6408
1138.011, 389.0545
1138.493, 382.0113
1138.975, 376.8996
1139.457, 378.7903
1139.939, 380.4303
1140.421, 378.9422
1140.903, 375.5349
1141.385, 373.8232
1141.868, 373.3508
1142.350, 372.0328
1142.832, 368.6293
1143.314, 366.2991
1143.796, 368.1198
1144.278, 370.2509
1144.760, 369.9317
1145.242, 367.4335
1145.724, 366.0030
1146.207, 365.5482
1146.689, 365.1393
1147.171, 364.3488
1147.653, 363.4902
1148.135, 362.6437
1148.617, 361.9564
1149.099, 361.6371
1149.581, 361.8034
1150.063, 361.4422
1150.546, 360.5346
1151.028, 359.9808
1151.510, 361.2235
1151.992, 362.2987
1152.474, 360.9198
1152.956, 358.3356
1153.438, 357.2166
1153.920, 358.0190
1154.403, 359.0152
1154.885, 360.1501
1155.367, 361.1693
1155.849, 361.8602
1156.331, 362.2680
1156.813, 362.4383
1157.295, 362.3640
1157.777, 361.9726
1158.260, 361.1568
1158.742, 360.2900
1159.224, 359.3488
1159.706, 358.6422
1160.188, 358.4773
1160.670, 358.8143
1161.152, 359.8796
1161.634, 361.6035
1162.116, 362.6505
1162.599, 362.3161
1163.081, 362.2115
1163.563, 362.6159
1164.045, 363.6042
1164.527, 365.9997
1165.009, 368.8388
1165.491, 370.2692
1165.973, 369.9454
1166.455, 368.8403
1166.938, 366.6369
1167.420, 364.5307
1167.902, 362.8058
1168.384, 361.5205
1168.866, 361.0867
1169.348, 361.1774
1169.830, 360.8315
1170.312, 359.6087
1170.795, 358.7712
1171.277, 358.9069
1171.759, 359.3848
1172.241, 360.1144
1172.723, 360.9008
1173.205, 360.8276
1173.687, 360.1525
1174.169, 359.8151
1174.651, 360.2360
1175.134, 360.8537
1175.616, 361.8655
1176.098, 362.5956
1176.580, 362.4822
1177.062, 361.6648
1177.544, 361.1165
1178.026, 360.8633
1178.508, 361.0709
1178.990, 362.2276
1179.473, 363.2901
1179.955, 363.6585
1180.437, 363.8311
1180.919, 364.3125
1181.401, 365.0855
1181.883, 365.5204
1182.365, 365.6272
1182.847, 365.5244
1183.330, 365.0700
1183.812, 364.6719
1184.294, 364.7921
1184.776, 364.9434
1185.258, 364.3626
1185.740, 363.0250
1186.222, 362.4530
1186.704, 362.7016
1187.187, 363.2455
1187.669, 364.2854
1188.151, 364.9447
1188.633, 364.4056
1189.115, 363.2065
1189.597, 362.1924
1190.079, 361.3488
1190.561, 360.9409
1191.043, 360.9845
1191.526, 361.4897
1192.008, 363.0609
1192.490, 364.5064
1192.972, 364.8940
1193.454, 364.4931
1193.936, 363.9691
1194.418, 363.2889
1194.900, 363.0963
1195.382, 363.5490
1195.865, 363.7725
1196.347, 362.7580
1196.829, 361.4626
1197.311, 360.4724
1197.793, 359.8486
1198.275, 359.8249
1198.757, 360.4819
1199.239, 360.6835
1199.722, 360.1524
1200.204, 359.4919
1200.686, 359.0033
1201.168, 358.8151
1201.650, 359.2227
1202.132, 360.1003
1202.614, 360.6676
1203.096, 360.9329
1203.578, 360.5392
1204.061, 359.1146
1204.543, 358.1776
1205.025, 359.8760
1205.507, 362.2374
1205.989, 363.2961
1206.471, 363.0607
1206.953, 362.8720
1207.435, 362.7088
1207.917, 362.8661
1208.400, 363.6241
1208.882, 364.1349
1209.364, 362.8226
1209.846, 361.3472
1210.328, 361.9305
1210.810, 364.5308
1211.292, 365.3139
1211.774, 364.1986
1212.257, 362.9424
1212.739, 362.1239
1213.221, 361.6151
1213.703, 361.4791
1214.185, 361.4658
1214.667, 361.2220
1215.149, 360.7148
1215.631, 360.7994
1216.114, 361.5085
1216.596, 361.7353
1217.078, 360.5703
1217.560, 359.4977
1218.042, 360.1576
1218.524, 361.3978
1219.006, 361.8182
1219.488, 361.2974
1219.970, 361.1263
1220.453, 361.3068
1220.935, 361.6950
1221.417, 362.3574
1221.899, 362.9771
1222.381, 363.4389
1222.863, 363.6178
1223.345, 363.3501
1223.827, 362.6004
1224.309, 361.6551
1224.792, 360.5165
1225.274, 360.0859
1225.756, 361.3930
1226.238, 362.9063
1226.720, 363.8405
1227.202, 364.1598
1227.684, 363.7768
1228.166, 362.5727
1228.649, 361.9045
1229.131, 361.7668
1229.613, 362.0978
1230.095, 363.8515
1230.577, 364.9521
1231.059, 363.0135
1231.541, 360.4129
1232.023, 360.3320
1232.505, 362.9673
1232.988, 363.7992
1233.470, 362.9048
1233.952, 361.9702
1234.434, 362.3246
1234.916, 362.5586
1235.398, 361.6307
1235.880, 360.3719
1236.362, 359.6519
1236.844, 359.4680
1237.327, 359.6674
1237.809, 360.2130
1238.291, 360.7663
1238.773, 361.0928
1239.255, 361.4253
1239.737, 362.0752
1240.219, 362.6064
1240.701, 362.4277
1241.184, 361.6423
1241.666, 361.1590
1242.148, 360.9766
1242.630, 360.8239
1243.112, 360.2951
1243.594, 360.1406
1244.076, 360.9757
1244.558, 361.8508
1245.041, 361.3375
1245.523, 359.9080
1246.005, 360.0948
1246.487, 361.7263
1246.969, 362.8544
1247.451, 361.7639
1247.933, 361.2082
1248.415, 362.0477
1248.897, 363.2194
1249.380, 363.5670
1249.862, 363.2460
1250.344, 362.5326
1250.826, 361.5470
1251.308, 360.8216
1251.790, 360.7413
1252.272, 360.7108
1252.754, 360.6251
1253.236, 360.5894
1253.719, 360.5488
1254.201, 360.7232
1254.683, 361.9264
1255.165, 363.8742
1255.647, 365.0786
1256.129, 364.8538
1256.611, 364.2147
1257.093, 363.1284
1257.576, 362.0467
1258.058, 361.4938
1258.540, 361.2382
1259.022, 360.7570
1259.504, 360.2195
1259.986, 360.5974
1260.468, 362.5141
1260.950, 363.8536
1261.432, 364.3617
1261.915, 364.3796
1262.397, 363.7739
1262.879, 363.2106
1263.361, 363.6908
1263.843, 364.8792
1264.325, 365.3978
1264.807, 365.0576
1265.289, 364.5584
1265.771, 363.9162
1266.254, 363.5777
1266.736, 364.3134
1267.218, 365.1714
1267.700, 365.1564
1268.182, 365.7055
1268.664, 366.1308
1269.146, 366.1032
1269.628, 366.7944
1270.111, 366.9075
1270.593, 366.9275
1271.075, 367.7598
1271.557, 368.0602
1272.039, 366.1010
1272.521, 363.5161
1273.003, 363.0249
1273.485, 364.4555
1273.968, 365.7041
1274.450, 366.5870
1274.932, 367.0685
1275.414, 366.8549
1275.896, 366.5611
1276.378, 366.3654
1276.860, 366.2617
1277.342, 366.3103
1277.824, 366.4413
1278.307, 366.2444
1278.789, 365.7708
1279.271, 365.6798
1279.753, 366.6010
1280.235, 367.5198
1280.717, 368.3615
1281.199, 368.8944
1281.681, 368.4455
1282.163, 367.6509
1282.646, 368.1683
1283.128, 369.7569
1283.610, 370.6310
1284.092, 369.9155
1284.574, 369.2153
1285.056, 368.6225
1285.538, 368.3011
1286.020, 368.7858
1286.503, 369.3750
1286.985, 368.9118
1287.467, 367.7218
1287.949, 367.1188
1288.431, 367.3025
1288.913, 367.6507
1289.395, 368.1245
1289.877, 368.6633
1290.359, 369.3587
1290.842, 369.9579
1291.324, 370.2820
1291.806, 370.3176
1292.288, 370.0117
1292.770, 369.3068
1293.252, 369.1330
1293.734, 369.5345
1294.216, 369.8401
1294.698, 369.3700
1295.181, 368.9311
1295.663, 369.4952
1296.145, 369.9594
1296.627, 368.4408
1297.109, 365.4026
1297.591, 364.8558
1298.073, 366.6297
1298.555, 368.4814
1299.038, 369.3041
1299.520, 370.0765
1300.002, 371.2615
1300.484, 372.2792
1300.966, 372.1051
1301.448, 371.1878
1301.930, 370.8470
1302.412, 371.0757
1302.895, 371.6875
1303.377, 373.1581
1303.859, 374.0511
1304.341, 374.0562
1304.823, 373.7903
1305.305, 373.0332
##END=



