##NAMES=Pyroxmangite
##RRUFFID=R130536
##IDEAL CHEMISTRY=Mn^2+^SiO_3_
##LOCALITY=Taguchi mine, Shidara, Aichi Prefecture, Japan
##OWNER=RRUFF
##SOURCE=Rock Currier and Marcus Origlieri
##DESCRIPTION=Tabular gemmy red crystals
##STATUS=The identification of this mineral has been confirmed by single-crystal X-ray diffraction.
##URL=rruff.info/R130536
9.059570e+001, 2.293443e+004
9.107782e+001, 2.203868e+004
9.155994e+001, 2.172127e+004
9.204205e+001, 2.239001e+004
9.252417e+001, 2.336142e+004
9.300629e+001, 2.441287e+004
9.348840e+001, 2.533543e+004
9.397052e+001, 2.595523e+004
9.445264e+001, 2.619314e+004
9.493475e+001, 2.637964e+004
9.541687e+001, 2.653221e+004
9.589898e+001, 2.667998e+004
9.638110e+001, 2.681789e+004
9.686321e+001, 2.694086e+004
9.734533e+001, 2.702915e+004
9.782745e+001, 2.703529e+004
9.830956e+001, 2.704673e+004
9.879168e+001, 2.707078e+004
9.927380e+001, 2.710497e+004
9.975591e+001, 2.714369e+004
1.002380e+002, 2.718504e+004
1.007201e+002, 2.723036e+004
1.012023e+002, 2.727929e+004
1.016844e+002, 2.733265e+004
1.021665e+002, 2.738939e+004
1.026486e+002, 2.745453e+004
1.031307e+002, 2.751649e+004
1.036128e+002, 2.755922e+004
1.040950e+002, 2.757740e+004
1.045771e+002, 2.759792e+004
1.050592e+002, 2.763051e+004
1.055413e+002, 2.766954e+004
1.060234e+002, 2.770991e+004
1.065055e+002, 2.774738e+004
1.069877e+002, 2.778280e+004
1.074698e+002, 2.782334e+004
1.079519e+002, 2.787369e+004
1.084340e+002, 2.792008e+004
1.089161e+002, 2.795436e+004
1.093982e+002, 2.797914e+004
1.098804e+002, 2.800130e+004
1.103625e+002, 2.802642e+004
1.108446e+002, 2.805417e+004
1.113267e+002, 2.808393e+004
1.118088e+002, 2.811810e+004
1.122909e+002, 2.815181e+004
1.127731e+002, 2.818381e+004
1.132552e+002, 2.821313e+004
1.137373e+002, 2.823861e+004
1.142194e+002, 2.825797e+004
1.147015e+002, 2.826515e+004
1.151836e+002, 2.827688e+004
1.156658e+002, 2.830307e+004
1.161479e+002, 2.832921e+004
1.166300e+002, 2.833897e+004
1.171121e+002, 2.832598e+004
1.175942e+002, 2.830003e+004
1.180763e+002, 2.828460e+004
1.185584e+002, 2.828526e+004
1.190406e+002, 2.828214e+004
1.195227e+002, 2.826574e+004
1.200048e+002, 2.824042e+004
1.204869e+002, 2.821781e+004
1.209690e+002, 2.820217e+004
1.214511e+002, 2.819358e+004
1.219333e+002, 2.819010e+004
1.224154e+002, 2.819399e+004
1.228975e+002, 2.819850e+004
1.233796e+002, 2.819757e+004
1.238617e+002, 2.819054e+004
1.243438e+002, 2.818204e+004
1.248260e+002, 2.817104e+004
1.253081e+002, 2.816055e+004
1.257902e+002, 2.815368e+004
1.262723e+002, 2.815176e+004
1.267544e+002, 2.815364e+004
1.272365e+002, 2.815775e+004
1.277187e+002, 2.816811e+004
1.282008e+002, 2.817356e+004
1.286829e+002, 2.816946e+004
1.291650e+002, 2.815977e+004
1.296471e+002, 2.814983e+004
1.301292e+002, 2.814324e+004
1.306114e+002, 2.813970e+004
1.310935e+002, 2.813358e+004
1.315756e+002, 2.812052e+004
1.320577e+002, 2.810934e+004
1.325398e+002, 2.810066e+004
1.330219e+002, 2.809565e+004
1.335041e+002, 2.809697e+004
1.339862e+002, 2.810816e+004
1.344683e+002, 2.813242e+004
1.349504e+002, 2.814444e+004
1.354325e+002, 2.813327e+004
1.359146e+002, 2.812104e+004
1.363968e+002, 2.812153e+004
1.368789e+002, 2.813549e+004
1.373610e+002, 2.815380e+004
1.378431e+002, 2.816700e+004
1.383252e+002, 2.817455e+004
1.388073e+002, 2.817624e+004
1.392895e+002, 2.816511e+004
1.397716e+002, 2.815068e+004
1.402537e+002, 2.814438e+004
1.407358e+002, 2.814928e+004
1.412179e+002, 2.816013e+004
1.417000e+002, 2.817254e+004
1.421821e+002, 2.818646e+004
1.426643e+002, 2.819732e+004
1.431464e+002, 2.820190e+004
1.436285e+002, 2.820162e+004
1.441106e+002, 2.820154e+004
1.445927e+002, 2.820303e+004
1.450748e+002, 2.820478e+004
1.455570e+002, 2.820591e+004
1.460391e+002, 2.820638e+004
1.465212e+002, 2.820597e+004
1.470033e+002, 2.820397e+004
1.474854e+002, 2.820007e+004
1.479675e+002, 2.819724e+004
1.484497e+002, 2.819863e+004
1.489318e+002, 2.819955e+004
1.494139e+002, 2.819636e+004
1.498960e+002, 2.818855e+004
1.503781e+002, 2.817981e+004
1.508602e+002, 2.817588e+004
1.513424e+002, 2.817895e+004
1.518245e+002, 2.818239e+004
1.523066e+002, 2.818671e+004
1.527887e+002, 2.819053e+004
1.532708e+002, 2.819235e+004
1.537529e+002, 2.819170e+004
1.542351e+002, 2.818990e+004
1.547172e+002, 2.819028e+004
1.551993e+002, 2.819745e+004
1.556814e+002, 2.820127e+004
1.561635e+002, 2.820040e+004
1.566456e+002, 2.819625e+004
1.571278e+002, 2.819047e+004
1.576099e+002, 2.818384e+004
1.580920e+002, 2.817614e+004
1.585741e+002, 2.816647e+004
1.590562e+002, 2.814920e+004
1.595383e+002, 2.813615e+004
1.600205e+002, 2.813293e+004
1.605026e+002, 2.813625e+004
1.609847e+002, 2.813847e+004
1.614668e+002, 2.813493e+004
1.619489e+002, 2.812699e+004
1.624310e+002, 2.812160e+004
1.629131e+002, 2.812294e+004
1.633953e+002, 2.812275e+004
1.638774e+002, 2.811436e+004
1.643595e+002, 2.809867e+004
1.648416e+002, 2.808449e+004
1.653237e+002, 2.807815e+004
1.658058e+002, 2.807721e+004
1.662880e+002, 2.807566e+004
1.667701e+002, 2.807454e+004
1.672522e+002, 2.807129e+004
1.677343e+002, 2.806072e+004
1.682164e+002, 2.804061e+004
1.686985e+002, 2.802384e+004
1.691807e+002, 2.802145e+004
1.696628e+002, 2.802609e+004
1.701449e+002, 2.802930e+004
1.706270e+002, 2.802731e+004
1.711091e+002, 2.802228e+004
1.715912e+002, 2.801922e+004
1.720734e+002, 2.801910e+004
1.725555e+002, 2.801934e+004
1.730376e+002, 2.801913e+004
1.735197e+002, 2.801862e+004
1.740018e+002, 2.801830e+004
1.744839e+002, 2.801932e+004
1.749661e+002, 2.802081e+004
1.754482e+002, 2.801660e+004
1.759303e+002, 2.799769e+004
1.764124e+002, 2.798350e+004
1.768945e+002, 2.798057e+004
1.773766e+002, 2.798593e+004
1.778588e+002, 2.799420e+004
1.783409e+002, 2.800188e+004
1.788230e+002, 2.800901e+004
1.793051e+002, 2.801462e+004
1.797872e+002, 2.801775e+004
1.802693e+002, 2.802021e+004
1.807515e+002, 2.802262e+004
1.812336e+002, 2.802468e+004
1.817157e+002, 2.802517e+004
1.821978e+002, 2.802247e+004
1.826799e+002, 2.801553e+004
1.831620e+002, 2.801513e+004
1.836441e+002, 2.802622e+004
1.841263e+002, 2.803760e+004
1.846084e+002, 2.804447e+004
1.850905e+002, 2.804643e+004
1.855726e+002, 2.804464e+004
1.860547e+002, 2.803924e+004
1.865368e+002, 2.802940e+004
1.870190e+002, 2.802507e+004
1.875011e+002, 2.803796e+004
1.879832e+002, 2.804822e+004
1.884653e+002, 2.803635e+004
1.889474e+002, 2.800132e+004
1.894296e+002, 2.796526e+004
1.899117e+002, 2.795201e+004
1.903938e+002, 2.796108e+004
1.908759e+002, 2.796307e+004
1.913580e+002, 2.794891e+004
1.918401e+002, 2.792904e+004
1.923223e+002, 2.791582e+004
1.928044e+002, 2.791156e+004
1.932865e+002, 2.790896e+004
1.937686e+002, 2.790079e+004
1.942507e+002, 2.788847e+004
1.947328e+002, 2.787565e+004
1.952150e+002, 2.785857e+004
1.956971e+002, 2.784233e+004
1.961792e+002, 2.783981e+004
1.966613e+002, 2.785870e+004
1.971434e+002, 2.787627e+004
1.976255e+002, 2.787409e+004
1.981077e+002, 2.785739e+004
1.985898e+002, 2.783860e+004
1.990719e+002, 2.782215e+004
1.995540e+002, 2.780824e+004
2.000361e+002, 2.779835e+004
2.005182e+002, 2.779463e+004
2.010004e+002, 2.779224e+004
2.014825e+002, 2.778875e+004
2.019646e+002, 2.778447e+004
2.024467e+002, 2.778032e+004
2.029288e+002, 2.777826e+004
2.034109e+002, 2.777796e+004
2.038930e+002, 2.777207e+004
2.043752e+002, 2.774869e+004
2.048573e+002, 2.773284e+004
2.053394e+002, 2.774156e+004
2.058215e+002, 2.776641e+004
2.063036e+002, 2.778657e+004
2.067857e+002, 2.778295e+004
2.072679e+002, 2.775396e+004
2.077500e+002, 2.773274e+004
2.082321e+002, 2.772555e+004
2.087142e+002, 2.772088e+004
2.091963e+002, 2.771750e+004
2.096784e+002, 2.771393e+004
2.101606e+002, 2.770754e+004
2.106427e+002, 2.769506e+004
2.111248e+002, 2.767504e+004
2.116069e+002, 2.766198e+004
2.120890e+002, 2.766115e+004
2.125711e+002, 2.766154e+004
2.130533e+002, 2.765905e+004
2.135354e+002, 2.765378e+004
2.140175e+002, 2.764801e+004
2.144996e+002, 2.764387e+004
2.149817e+002, 2.764181e+004
2.154638e+002, 2.763820e+004
2.159460e+002, 2.763143e+004
2.164281e+002, 2.762496e+004
2.169102e+002, 2.762101e+004
2.173923e+002, 2.761929e+004
2.178744e+002, 2.761762e+004
2.183565e+002, 2.761388e+004
2.188387e+002, 2.760776e+004
2.193208e+002, 2.760272e+004
2.198029e+002, 2.760086e+004
2.202850e+002, 2.759819e+004
2.207671e+002, 2.759101e+004
2.212492e+002, 2.757978e+004
2.217314e+002, 2.756912e+004
2.222135e+002, 2.756332e+004
2.226956e+002, 2.756273e+004
2.231777e+002, 2.756042e+004
2.236598e+002, 2.755690e+004
2.241419e+002, 2.755134e+004
2.246240e+002, 2.754143e+004
2.251062e+002, 2.752744e+004
2.255883e+002, 2.751514e+004
2.260704e+002, 2.751063e+004
2.265525e+002, 2.751277e+004
2.270346e+002, 2.751095e+004
2.275167e+002, 2.750206e+004
2.279989e+002, 2.749058e+004
2.284810e+002, 2.747918e+004
2.289631e+002, 2.746792e+004
2.294452e+002, 2.746042e+004
2.299273e+002, 2.746355e+004
2.304094e+002, 2.747260e+004
2.308916e+002, 2.747438e+004
2.313737e+002, 2.745971e+004
2.318558e+002, 2.744066e+004
2.323379e+002, 2.743188e+004
2.328200e+002, 2.743469e+004
2.333021e+002, 2.743831e+004
2.337843e+002, 2.743661e+004
2.342664e+002, 2.743102e+004
2.347485e+002, 2.742288e+004
2.352306e+002, 2.741012e+004
2.357127e+002, 2.739688e+004
2.361948e+002, 2.738981e+004
2.366770e+002, 2.739056e+004
2.371591e+002, 2.739044e+004
2.376412e+002, 2.738245e+004
2.381233e+002, 2.737190e+004
2.386054e+002, 2.736554e+004
2.390875e+002, 2.736802e+004
2.395697e+002, 2.737182e+004
2.400518e+002, 2.736240e+004
2.405339e+002, 2.733404e+004
2.410160e+002, 2.731088e+004
2.414981e+002, 2.730554e+004
2.419802e+002, 2.730828e+004
2.424624e+002, 2.731131e+004
2.429445e+002, 2.731251e+004
2.434266e+002, 2.731116e+004
2.439087e+002, 2.730382e+004
2.443908e+002, 2.728515e+004
2.448729e+002, 2.727528e+004
2.453550e+002, 2.729066e+004
2.458372e+002, 2.731081e+004
2.463193e+002, 2.731744e+004
2.468014e+002, 2.730399e+004
2.472835e+002, 2.727945e+004
2.477656e+002, 2.725853e+004
2.482477e+002, 2.724211e+004
2.487299e+002, 2.722740e+004
2.492120e+002, 2.721376e+004
2.496941e+002, 2.720148e+004
2.501762e+002, 2.719138e+004
2.506583e+002, 2.718366e+004
2.511404e+002, 2.717688e+004
2.516226e+002, 2.716884e+004
2.521047e+002, 2.716010e+004
2.525868e+002, 2.714896e+004
2.530689e+002, 2.713300e+004
2.535510e+002, 2.711670e+004
2.540331e+002, 2.710371e+004
2.545153e+002, 2.709483e+004
2.549974e+002, 2.708759e+004
2.554795e+002, 2.707781e+004
2.559616e+002, 2.706333e+004
2.564437e+002, 2.705145e+004
2.569258e+002, 2.704334e+004
2.574080e+002, 2.703676e+004
2.578901e+002, 2.703044e+004
2.583722e+002, 2.702407e+004
2.588543e+002, 2.701796e+004
2.593364e+002, 2.701265e+004
2.598185e+002, 2.700909e+004
2.603007e+002, 2.700374e+004
2.607828e+002, 2.699594e+004
2.612649e+002, 2.698716e+004
2.617470e+002, 2.697650e+004
2.622291e+002, 2.696485e+004
2.627112e+002, 2.695596e+004
2.631934e+002, 2.695464e+004
2.636755e+002, 2.696378e+004
2.641576e+002, 2.696980e+004
2.646397e+002, 2.697360e+004
2.651218e+002, 2.697413e+004
2.656039e+002, 2.696933e+004
2.660861e+002, 2.696006e+004
2.665682e+002, 2.694950e+004
2.670503e+002, 2.694026e+004
2.675324e+002, 2.693182e+004
2.680145e+002, 2.692906e+004
2.684966e+002, 2.694307e+004
2.689788e+002, 2.695166e+004
2.694609e+002, 2.693931e+004
2.699430e+002, 2.691011e+004
2.704251e+002, 2.688058e+004
2.709072e+002, 2.686401e+004
2.713893e+002, 2.686091e+004
2.718715e+002, 2.686025e+004
2.723536e+002, 2.686428e+004
2.728357e+002, 2.686794e+004
2.733178e+002, 2.686888e+004
2.737999e+002, 2.686761e+004
2.742820e+002, 2.686616e+004
2.747642e+002, 2.686627e+004
2.752463e+002, 2.686744e+004
2.757284e+002, 2.686325e+004
2.762105e+002, 2.684975e+004
2.766926e+002, 2.683643e+004
2.771747e+002, 2.682465e+004
2.776568e+002, 2.681534e+004
2.781389e+002, 2.681088e+004
2.786211e+002, 2.681324e+004
2.791032e+002, 2.682050e+004
2.795853e+002, 2.682437e+004
2.800674e+002, 2.682265e+004
2.805495e+002, 2.682101e+004
2.810316e+002, 2.682221e+004
2.815138e+002, 2.682438e+004
2.819959e+002, 2.682406e+004
2.824780e+002, 2.681971e+004
2.829601e+002, 2.681249e+004
2.834422e+002, 2.680513e+004
2.839243e+002, 2.679687e+004
2.844065e+002, 2.679009e+004
2.848886e+002, 2.678519e+004
2.853707e+002, 2.678217e+004
2.858528e+002, 2.678185e+004
2.863349e+002, 2.678483e+004
2.868170e+002, 2.678854e+004
2.872992e+002, 2.678846e+004
2.877813e+002, 2.678414e+004
2.882634e+002, 2.677822e+004
2.887455e+002, 2.676746e+004
2.892276e+002, 2.675675e+004
2.897097e+002, 2.675444e+004
2.901919e+002, 2.676277e+004
2.906740e+002, 2.677169e+004
2.911561e+002, 2.676856e+004
2.916382e+002, 2.675201e+004
2.921203e+002, 2.673275e+004
2.926024e+002, 2.670800e+004
2.930846e+002, 2.668306e+004
2.935667e+002, 2.666346e+004
2.940488e+002, 2.664976e+004
2.945309e+002, 2.663872e+004
2.950130e+002, 2.662862e+004
2.954951e+002, 2.661915e+004
2.959773e+002, 2.660515e+004
2.964594e+002, 2.658166e+004
2.969415e+002, 2.655687e+004
2.974236e+002, 2.653781e+004
2.979057e+002, 2.652430e+004
2.983878e+002, 2.651021e+004
2.988700e+002, 2.649001e+004
2.993521e+002, 2.646539e+004
2.998342e+002, 2.644708e+004
3.003163e+002, 2.644279e+004
3.007984e+002, 2.643770e+004
3.012805e+002, 2.642123e+004
3.017627e+002, 2.639558e+004
3.022448e+002, 2.637101e+004
3.027269e+002, 2.635301e+004
3.032090e+002, 2.633964e+004
3.036911e+002, 2.632450e+004
3.041732e+002, 2.630713e+004
3.046554e+002, 2.628921e+004
3.051375e+002, 2.627184e+004
3.056196e+002, 2.625468e+004
3.061017e+002, 2.623612e+004
3.065838e+002, 2.621490e+004
3.070659e+002, 2.619357e+004
3.075481e+002, 2.617779e+004
3.080302e+002, 2.616867e+004
3.085123e+002, 2.615953e+004
3.089944e+002, 2.614827e+004
3.094765e+002, 2.613568e+004
3.099586e+002, 2.612259e+004
3.104408e+002, 2.610882e+004
3.109229e+002, 2.609631e+004
3.114050e+002, 2.608792e+004
3.118871e+002, 2.608333e+004
3.123692e+002, 2.608113e+004
3.128513e+002, 2.608722e+004
3.133335e+002, 2.609253e+004
3.138156e+002, 2.608239e+004
3.142977e+002, 2.605396e+004
3.147798e+002, 2.602628e+004
3.152619e+002, 2.601943e+004
3.157440e+002, 2.603180e+004
3.162262e+002, 2.603613e+004
3.167083e+002, 2.602333e+004
3.171904e+002, 2.600647e+004
3.176725e+002, 2.599752e+004
3.181546e+002, 2.599616e+004
3.186367e+002, 2.599283e+004
3.191188e+002, 2.598031e+004
3.196010e+002, 2.596051e+004
3.200831e+002, 2.594394e+004
3.205652e+002, 2.593152e+004
3.210473e+002, 2.592128e+004
3.215294e+002, 2.591387e+004
3.220115e+002, 2.590825e+004
3.224937e+002, 2.590056e+004
3.229758e+002, 2.588915e+004
3.234579e+002, 2.587455e+004
3.239400e+002, 2.585853e+004
3.244221e+002, 2.584165e+004
3.249042e+002, 2.582279e+004
3.253864e+002, 2.579728e+004
3.258685e+002, 2.577017e+004
3.263506e+002, 2.575192e+004
3.268327e+002, 2.574693e+004
3.273148e+002, 2.574782e+004
3.277969e+002, 2.574375e+004
3.282791e+002, 2.573461e+004
3.287612e+002, 2.572329e+004
3.292433e+002, 2.570835e+004
3.297254e+002, 2.569246e+004
3.302075e+002, 2.567886e+004
3.306896e+002, 2.566809e+004
3.311718e+002, 2.565833e+004
3.316539e+002, 2.564741e+004
3.321360e+002, 2.563523e+004
3.326181e+002, 2.562538e+004
3.331002e+002, 2.562013e+004
3.335823e+002, 2.561567e+004
3.340645e+002, 2.560822e+004
3.345466e+002, 2.559827e+004
3.350287e+002, 2.559035e+004
3.355108e+002, 2.558883e+004
3.359929e+002, 2.559198e+004
3.364750e+002, 2.558805e+004
3.369572e+002, 2.556929e+004
3.374393e+002, 2.555212e+004
3.379214e+002, 2.554699e+004
3.384035e+002, 2.554873e+004
3.388856e+002, 2.554444e+004
3.393677e+002, 2.552746e+004
3.398499e+002, 2.550231e+004
3.403320e+002, 2.548099e+004
3.408141e+002, 2.546317e+004
3.412962e+002, 2.544876e+004
3.417783e+002, 2.544287e+004
3.422604e+002, 2.543853e+004
3.427426e+002, 2.542564e+004
3.432247e+002, 2.540138e+004
3.437068e+002, 2.537251e+004
3.441889e+002, 2.534819e+004
3.446710e+002, 2.533005e+004
3.451531e+002, 2.531311e+004
3.456353e+002, 2.529495e+004
3.461174e+002, 2.527994e+004
3.465995e+002, 2.527551e+004
3.470816e+002, 2.528020e+004
3.475637e+002, 2.528128e+004
3.480458e+002, 2.526642e+004
3.485280e+002, 2.523453e+004
3.490101e+002, 2.520899e+004
3.494922e+002, 2.519472e+004
3.499743e+002, 2.518082e+004
3.504564e+002, 2.516174e+004
3.509385e+002, 2.513956e+004
3.514207e+002, 2.511909e+004
3.519028e+002, 2.510299e+004
3.523849e+002, 2.509130e+004
3.528670e+002, 2.508413e+004
3.533491e+002, 2.508801e+004
3.538312e+002, 2.508844e+004
3.543134e+002, 2.508006e+004
3.547955e+002, 2.506880e+004
3.552776e+002, 2.506238e+004
3.557597e+002, 2.506336e+004
3.562418e+002, 2.506706e+004
3.567239e+002, 2.506548e+004
3.572061e+002, 2.505599e+004
3.576882e+002, 2.504598e+004
3.581703e+002, 2.503605e+004
3.586524e+002, 2.502504e+004
3.591345e+002, 2.501148e+004
3.596166e+002, 2.499556e+004
3.600987e+002, 2.497917e+004
3.605808e+002, 2.496377e+004
3.610630e+002, 2.494910e+004
3.615451e+002, 2.493725e+004
3.620272e+002, 2.493486e+004
3.625093e+002, 2.492816e+004
3.629914e+002, 2.490954e+004
3.634735e+002, 2.488338e+004
3.639557e+002, 2.485830e+004
3.644378e+002, 2.483945e+004
3.649199e+002, 2.482588e+004
3.654020e+002, 2.481362e+004
3.658841e+002, 2.480480e+004
3.663662e+002, 2.479453e+004
3.668484e+002, 2.478021e+004
3.673305e+002, 2.476545e+004
3.678126e+002, 2.475520e+004
3.682947e+002, 2.475070e+004
3.687768e+002, 2.474667e+004
3.692589e+002, 2.473437e+004
3.697411e+002, 2.471077e+004
3.702232e+002, 2.468699e+004
3.707053e+002, 2.466169e+004
3.711874e+002, 2.463759e+004
3.716695e+002, 2.461456e+004
3.721516e+002, 2.459358e+004
3.726338e+002, 2.457683e+004
3.731159e+002, 2.456790e+004
3.735980e+002, 2.456640e+004
3.740801e+002, 2.455984e+004
3.745622e+002, 2.454340e+004
3.750443e+002, 2.452742e+004
3.755265e+002, 2.451782e+004
3.760086e+002, 2.451029e+004
3.764907e+002, 2.449752e+004
3.769728e+002, 2.447488e+004
3.774549e+002, 2.444740e+004
3.779370e+002, 2.442609e+004
3.784192e+002, 2.441216e+004
3.789013e+002, 2.440120e+004
3.793834e+002, 2.439353e+004
3.798655e+002, 2.438747e+004
3.803476e+002, 2.438240e+004
3.808297e+002, 2.437818e+004
3.813119e+002, 2.437348e+004
3.817940e+002, 2.436772e+004
3.822761e+002, 2.436090e+004
3.827582e+002, 2.435012e+004
3.832403e+002, 2.433160e+004
3.837224e+002, 2.431316e+004
3.842046e+002, 2.430160e+004
3.846867e+002, 2.429498e+004
3.851688e+002, 2.428579e+004
3.856509e+002, 2.426634e+004
3.861330e+002, 2.424221e+004
3.866151e+002, 2.422673e+004
3.870973e+002, 2.422162e+004
3.875794e+002, 2.421872e+004
3.880615e+002, 2.421360e+004
3.885436e+002, 2.420754e+004
3.890257e+002, 2.420272e+004
3.895078e+002, 2.420057e+004
3.899900e+002, 2.419750e+004
3.904721e+002, 2.419082e+004
3.909542e+002, 2.418046e+004
3.914363e+002, 2.416584e+004
3.919184e+002, 2.414364e+004
3.924005e+002, 2.412095e+004
3.928827e+002, 2.410859e+004
3.933648e+002, 2.410727e+004
3.938469e+002, 2.410521e+004
3.943290e+002, 2.409915e+004
3.948111e+002, 2.408930e+004
3.952932e+002, 2.407533e+004
3.957754e+002, 2.405693e+004
3.962575e+002, 2.403714e+004
3.967396e+002, 2.401773e+004
3.972217e+002, 2.399913e+004
3.977038e+002, 2.398328e+004
3.981859e+002, 2.397346e+004
3.986681e+002, 2.396354e+004
3.991501e+002, 2.394752e+004
3.996323e+002, 2.392743e+004
4.001144e+002, 2.391068e+004
4.005965e+002, 2.390104e+004
4.010786e+002, 2.389692e+004
4.015607e+002, 2.389476e+004
4.020428e+002, 2.389858e+004
4.025250e+002, 2.389685e+004
4.030071e+002, 2.388579e+004
4.034892e+002, 2.386876e+004
4.039713e+002, 2.384738e+004
4.044534e+002, 2.382267e+004
4.049355e+002, 2.379960e+004
4.054177e+002, 2.378455e+004
4.058998e+002, 2.377973e+004
4.063819e+002, 2.377266e+004
4.068640e+002, 2.376273e+004
4.073461e+002, 2.375154e+004
4.078282e+002, 2.373858e+004
4.083104e+002, 2.372497e+004
4.087925e+002, 2.371315e+004
4.092746e+002, 2.370466e+004
4.097567e+002, 2.369879e+004
4.102388e+002, 2.369213e+004
4.107209e+002, 2.368856e+004
4.112031e+002, 2.367871e+004
4.116852e+002, 2.365424e+004
4.121673e+002, 2.362741e+004
4.126494e+002, 2.361119e+004
4.131315e+002, 2.360832e+004
4.136136e+002, 2.360996e+004
4.140958e+002, 2.360334e+004
4.145779e+002, 2.358451e+004
4.150600e+002, 2.357321e+004
4.155421e+002, 2.358081e+004
4.160242e+002, 2.358561e+004
4.165063e+002, 2.357607e+004
4.169885e+002, 2.355672e+004
4.174706e+002, 2.353925e+004
4.179527e+002, 2.353051e+004
4.184348e+002, 2.352959e+004
4.189169e+002, 2.353435e+004
4.193990e+002, 2.354873e+004
4.198812e+002, 2.356007e+004
4.203633e+002, 2.356551e+004
4.208454e+002, 2.356580e+004
4.213275e+002, 2.356041e+004
4.218096e+002, 2.354905e+004
4.222917e+002, 2.353500e+004
4.227739e+002, 2.352115e+004
4.232560e+002, 2.350742e+004
4.237381e+002, 2.349328e+004
4.242202e+002, 2.347926e+004
4.247023e+002, 2.346355e+004
4.251844e+002, 2.344569e+004
4.256666e+002, 2.342529e+004
4.261487e+002, 2.340079e+004
4.266308e+002, 2.336529e+004
4.271129e+002, 2.332800e+004
4.275950e+002, 2.330462e+004
4.280771e+002, 2.329584e+004
4.285593e+002, 2.328853e+004
4.290414e+002, 2.327785e+004
4.295235e+002, 2.326320e+004
4.300056e+002, 2.324400e+004
4.304877e+002, 2.321815e+004
4.309698e+002, 2.319297e+004
4.314520e+002, 2.317379e+004
4.319341e+002, 2.315785e+004
4.324162e+002, 2.313864e+004
4.328983e+002, 2.311427e+004
4.333804e+002, 2.308963e+004
4.338625e+002, 2.307099e+004
4.343447e+002, 2.305938e+004
4.348268e+002, 2.304543e+004
4.353089e+002, 2.302600e+004
4.357910e+002, 2.300642e+004
4.362731e+002, 2.299097e+004
4.367552e+002, 2.297862e+004
4.372374e+002, 2.296493e+004
4.377195e+002, 2.294696e+004
4.382016e+002, 2.292644e+004
4.386837e+002, 2.291035e+004
4.391658e+002, 2.290488e+004
4.396479e+002, 2.289593e+004
4.401301e+002, 2.287400e+004
4.406122e+002, 2.285317e+004
4.410943e+002, 2.285362e+004
4.415764e+002, 2.287585e+004
4.420585e+002, 2.289532e+004
4.425406e+002, 2.288157e+004
4.430227e+002, 2.282834e+004
4.435049e+002, 2.278804e+004
4.439870e+002, 2.276677e+004
4.444691e+002, 2.275268e+004
4.449512e+002, 2.274709e+004
4.454333e+002, 2.274558e+004
4.459154e+002, 2.274126e+004
4.463976e+002, 2.273032e+004
4.468797e+002, 2.271629e+004
4.473618e+002, 2.270755e+004
4.478439e+002, 2.270651e+004
4.483260e+002, 2.270346e+004
4.488081e+002, 2.269300e+004
4.492903e+002, 2.268245e+004
4.497724e+002, 2.267800e+004
4.502545e+002, 2.267910e+004
4.507366e+002, 2.267818e+004
4.512187e+002, 2.266815e+004
4.517008e+002, 2.265098e+004
4.521830e+002, 2.263544e+004
4.526651e+002, 2.262204e+004
4.531472e+002, 2.260939e+004
4.536293e+002, 2.259465e+004
4.541114e+002, 2.258053e+004
4.545935e+002, 2.257207e+004
4.550757e+002, 2.257310e+004
4.555578e+002, 2.257450e+004
4.560399e+002, 2.256910e+004
4.565220e+002, 2.255767e+004
4.570041e+002, 2.254245e+004
4.574862e+002, 2.252231e+004
4.579684e+002, 2.250230e+004
4.584505e+002, 2.249119e+004
4.589326e+002, 2.248908e+004
4.594147e+002, 2.248200e+004
4.598968e+002, 2.246340e+004
4.603789e+002, 2.244202e+004
4.608611e+002, 2.242510e+004
4.613432e+002, 2.241274e+004
4.618253e+002, 2.240244e+004
4.623074e+002, 2.239305e+004
4.627895e+002, 2.238416e+004
4.632716e+002, 2.237360e+004
4.637538e+002, 2.236137e+004
4.642359e+002, 2.234768e+004
4.647180e+002, 2.232966e+004
4.652001e+002, 2.231157e+004
4.656822e+002, 2.229830e+004
4.661643e+002, 2.229040e+004
4.666465e+002, 2.228409e+004
4.671286e+002, 2.227461e+004
4.676107e+002, 2.226075e+004
4.680928e+002, 2.225376e+004
4.685749e+002, 2.226564e+004
4.690570e+002, 2.227125e+004
4.695392e+002, 2.225976e+004
4.700213e+002, 2.223865e+004
4.705034e+002, 2.221970e+004
4.709855e+002, 2.220820e+004
4.714676e+002, 2.219919e+004
4.719497e+002, 2.218260e+004
4.724319e+002, 2.215565e+004
4.729140e+002, 2.213403e+004
4.733961e+002, 2.212870e+004
4.738782e+002, 2.212209e+004
4.743603e+002, 2.210057e+004
4.748424e+002, 2.206783e+004
4.753246e+002, 2.203979e+004
4.758067e+002, 2.202998e+004
4.762888e+002, 2.203005e+004
4.767709e+002, 2.202087e+004
4.772530e+002, 2.200110e+004
4.777351e+002, 2.198096e+004
4.782173e+002, 2.196462e+004
4.786994e+002, 2.195110e+004
4.791815e+002, 2.193927e+004
4.796636e+002, 2.192989e+004
4.801457e+002, 2.191910e+004
4.806278e+002, 2.190143e+004
4.811100e+002, 2.188182e+004
4.815920e+002, 2.187168e+004
4.820742e+002, 2.187340e+004
4.825563e+002, 2.187386e+004
4.830384e+002, 2.186007e+004
4.835205e+002, 2.183214e+004
4.840026e+002, 2.180972e+004
4.844847e+002, 2.179344e+004
4.849669e+002, 2.178144e+004
4.854490e+002, 2.177692e+004
4.859311e+002, 2.177520e+004
4.864132e+002, 2.176743e+004
4.868953e+002, 2.175033e+004
4.873774e+002, 2.172960e+004
4.878596e+002, 2.171524e+004
4.883417e+002, 2.171152e+004
4.888238e+002, 2.170209e+004
4.893059e+002, 2.168347e+004
4.897880e+002, 2.166362e+004
4.902701e+002, 2.164474e+004
4.907523e+002, 2.162796e+004
4.912344e+002, 2.161562e+004
4.917165e+002, 2.161010e+004
4.921986e+002, 2.160743e+004
4.926807e+002, 2.159549e+004
4.931628e+002, 2.157009e+004
4.936450e+002, 2.154728e+004
4.941271e+002, 2.153251e+004
4.946092e+002, 2.152016e+004
4.950913e+002, 2.150747e+004
4.955734e+002, 2.149398e+004
4.960555e+002, 2.147901e+004
4.965377e+002, 2.146099e+004
4.970198e+002, 2.144132e+004
4.975019e+002, 2.142439e+004
4.979840e+002, 2.141076e+004
4.984661e+002, 2.139715e+004
4.989482e+002, 2.138020e+004
4.994304e+002, 2.136260e+004
4.999125e+002, 2.135024e+004
5.003946e+002, 2.134626e+004
5.008767e+002, 2.134046e+004
5.013588e+002, 2.132720e+004
5.018409e+002, 2.130884e+004
5.023231e+002, 2.128832e+004
5.028052e+002, 2.126626e+004
5.032873e+002, 2.124541e+004
5.037694e+002, 2.122887e+004
5.042515e+002, 2.121676e+004
5.047336e+002, 2.120294e+004
5.052158e+002, 2.118529e+004
5.056979e+002, 2.116851e+004
5.061800e+002, 2.115282e+004
5.066621e+002, 2.113946e+004
5.071442e+002, 2.113110e+004
5.076263e+002, 2.112849e+004
5.081085e+002, 2.112819e+004
5.085906e+002, 2.112491e+004
5.090727e+002, 2.111776e+004
5.095548e+002, 2.111056e+004
5.100369e+002, 2.110680e+004
5.105190e+002, 2.109927e+004
5.110012e+002, 2.108291e+004
5.114833e+002, 2.106093e+004
5.119654e+002, 2.103884e+004
5.124475e+002, 2.101870e+004
5.129296e+002, 2.100191e+004
5.134117e+002, 2.099321e+004
5.138939e+002, 2.099438e+004
5.143760e+002, 2.098974e+004
5.148581e+002, 2.097260e+004
5.153402e+002, 2.095172e+004
5.158223e+002, 2.093417e+004
5.163044e+002, 2.091971e+004
5.167866e+002, 2.090590e+004
5.172687e+002, 2.089157e+004
5.177508e+002, 2.087741e+004
5.182329e+002, 2.086486e+004
5.187150e+002, 2.085374e+004
5.191971e+002, 2.084113e+004
5.196793e+002, 2.082507e+004
5.201614e+002, 2.080732e+004
5.206435e+002, 2.079257e+004
5.211256e+002, 2.078234e+004
5.216077e+002, 2.076973e+004
5.220898e+002, 2.075265e+004
5.225720e+002, 2.073338e+004
5.230541e+002, 2.071245e+004
5.235362e+002, 2.069097e+004
5.240183e+002, 2.067185e+004
5.245004e+002, 2.065738e+004
5.249825e+002, 2.064702e+004
5.254647e+002, 2.063790e+004
5.259468e+002, 2.063580e+004
5.264289e+002, 2.062645e+004
5.269110e+002, 2.060368e+004
5.273931e+002, 2.057708e+004
5.278752e+002, 2.055373e+004
5.283574e+002, 2.053489e+004
5.288395e+002, 2.051873e+004
5.293216e+002, 2.050400e+004
5.298037e+002, 2.049067e+004
5.302858e+002, 2.047856e+004
5.307679e+002, 2.046881e+004
5.312501e+002, 2.045772e+004
5.317322e+002, 2.044310e+004
5.322143e+002, 2.042658e+004
5.326964e+002, 2.040845e+004
5.331785e+002, 2.038815e+004
5.336606e+002, 2.037066e+004
5.341428e+002, 2.036247e+004
5.346249e+002, 2.035872e+004
5.351070e+002, 2.034629e+004
5.355891e+002, 2.032257e+004
5.360712e+002, 2.030347e+004
5.365533e+002, 2.030533e+004
5.370355e+002, 2.032249e+004
5.375176e+002, 2.032015e+004
5.379997e+002, 2.027688e+004
5.384818e+002, 2.024217e+004
5.389639e+002, 2.023859e+004
5.394460e+002, 2.024725e+004
5.399282e+002, 2.024513e+004
5.404103e+002, 2.022741e+004
5.408924e+002, 2.020228e+004
5.413745e+002, 2.017737e+004
5.418566e+002, 2.015255e+004
5.423387e+002, 2.013273e+004
5.428209e+002, 2.012138e+004
5.433029e+002, 2.011133e+004
5.437850e+002, 2.010244e+004
5.442672e+002, 2.009354e+004
5.447493e+002, 2.008414e+004
5.452314e+002, 2.007397e+004
5.457135e+002, 2.006138e+004
5.461956e+002, 2.004160e+004
5.466777e+002, 2.001585e+004
5.471599e+002, 2.000125e+004
5.476420e+002, 2.000488e+004
5.481241e+002, 2.000660e+004
5.486062e+002, 1.998654e+004
5.490883e+002, 1.995787e+004
5.495704e+002, 1.994351e+004
5.500526e+002, 1.995486e+004
5.505347e+002, 1.996480e+004
5.510168e+002, 1.995366e+004
5.514989e+002, 1.992936e+004
5.519810e+002, 1.990780e+004
5.524631e+002, 1.989230e+004
5.529453e+002, 1.987939e+004
5.534274e+002, 1.986617e+004
5.539095e+002, 1.985256e+004
5.543916e+002, 1.983866e+004
5.548737e+002, 1.982142e+004
5.553558e+002, 1.980746e+004
5.558380e+002, 1.980050e+004
5.563201e+002, 1.979685e+004
5.568022e+002, 1.979284e+004
5.572843e+002, 1.978714e+004
5.577664e+002, 1.977939e+004
5.582485e+002, 1.976903e+004
5.587307e+002, 1.975610e+004
5.592128e+002, 1.974108e+004
5.596949e+002, 1.972206e+004
5.601770e+002, 1.970391e+004
5.606591e+002, 1.968943e+004
5.611412e+002, 1.967614e+004
5.616234e+002, 1.966032e+004
5.621055e+002, 1.964083e+004
5.625876e+002, 1.962191e+004
5.630697e+002, 1.960611e+004
5.635518e+002, 1.959380e+004
5.640339e+002, 1.958783e+004
5.645161e+002, 1.958992e+004
5.649982e+002, 1.959099e+004
5.654803e+002, 1.958430e+004
5.659624e+002, 1.957100e+004
5.664445e+002, 1.955765e+004
5.669266e+002, 1.954462e+004
5.674088e+002, 1.953100e+004
5.678909e+002, 1.951549e+004
5.683730e+002, 1.949967e+004
5.688551e+002, 1.948584e+004
5.693372e+002, 1.947423e+004
5.698193e+002, 1.946245e+004
5.703015e+002, 1.944824e+004
5.707836e+002, 1.943172e+004
5.712657e+002, 1.941705e+004
5.717478e+002, 1.940497e+004
5.722299e+002, 1.939372e+004
5.727120e+002, 1.938399e+004
5.731942e+002, 1.937424e+004
5.736763e+002, 1.936195e+004
5.741584e+002, 1.934722e+004
5.746405e+002, 1.933420e+004
5.751226e+002, 1.932900e+004
5.756047e+002, 1.932877e+004
5.760869e+002, 1.932110e+004
5.765690e+002, 1.930451e+004
5.770511e+002, 1.928652e+004
5.775332e+002, 1.927119e+004
5.780153e+002, 1.925625e+004
5.784974e+002, 1.923755e+004
5.789796e+002, 1.921371e+004
5.794617e+002, 1.919215e+004
5.799438e+002, 1.917710e+004
5.804259e+002, 1.916507e+004
5.809080e+002, 1.915271e+004
5.813901e+002, 1.913958e+004
5.818723e+002, 1.912491e+004
5.823544e+002, 1.910779e+004
5.828365e+002, 1.908973e+004
5.833186e+002, 1.907575e+004
5.838007e+002, 1.907084e+004
5.842828e+002, 1.906262e+004
5.847650e+002, 1.905141e+004
5.852471e+002, 1.903674e+004
5.857292e+002, 1.901506e+004
5.862113e+002, 1.898939e+004
5.866934e+002, 1.896850e+004
5.871755e+002, 1.895923e+004
5.876577e+002, 1.895569e+004
5.881398e+002, 1.894356e+004
5.886219e+002, 1.892117e+004
5.891040e+002, 1.890114e+004
5.895861e+002, 1.888533e+004
5.900682e+002, 1.887414e+004
5.905504e+002, 1.887086e+004
5.910325e+002, 1.887365e+004
5.915146e+002, 1.887046e+004
5.919967e+002, 1.885461e+004
5.924788e+002, 1.883386e+004
5.929609e+002, 1.881157e+004
5.934431e+002, 1.878974e+004
5.939252e+002, 1.877484e+004
5.944073e+002, 1.876966e+004
5.948894e+002, 1.876804e+004
5.953715e+002, 1.876089e+004
5.958536e+002, 1.874571e+004
5.963358e+002, 1.873652e+004
5.968179e+002, 1.874203e+004
5.973000e+002, 1.874303e+004
5.977821e+002, 1.872898e+004
5.982642e+002, 1.870752e+004
5.987463e+002, 1.868997e+004
5.992285e+002, 1.868012e+004
5.997106e+002, 1.867273e+004
6.001927e+002, 1.866077e+004
6.006748e+002, 1.864441e+004
6.011569e+002, 1.863129e+004
6.016390e+002, 1.862313e+004
6.021212e+002, 1.861517e+004
6.026033e+002, 1.860532e+004
6.030854e+002, 1.859368e+004
6.035675e+002, 1.857984e+004
6.040496e+002, 1.856234e+004
6.045317e+002, 1.854661e+004
6.050139e+002, 1.853686e+004
6.054960e+002, 1.852988e+004
6.059781e+002, 1.852100e+004
6.064602e+002, 1.850982e+004
6.069423e+002, 1.849918e+004
6.074244e+002, 1.849213e+004
6.079066e+002, 1.848642e+004
6.083887e+002, 1.847115e+004
6.088708e+002, 1.843285e+004
6.093529e+002, 1.840462e+004
6.098350e+002, 1.839346e+004
6.103171e+002, 1.838788e+004
6.107993e+002, 1.838184e+004
6.112814e+002, 1.837405e+004
6.117635e+002, 1.836432e+004
6.122456e+002, 1.835240e+004
6.127277e+002, 1.833863e+004
6.132098e+002, 1.832171e+004
6.136920e+002, 1.830067e+004
6.141741e+002, 1.828750e+004
6.146562e+002, 1.829062e+004
6.151383e+002, 1.829505e+004
6.156204e+002, 1.828360e+004
6.161025e+002, 1.825898e+004
6.165847e+002, 1.823717e+004
6.170668e+002, 1.822276e+004
6.175489e+002, 1.821073e+004
6.180310e+002, 1.819785e+004
6.185131e+002, 1.818504e+004
6.189952e+002, 1.817490e+004
6.194774e+002, 1.816809e+004
6.199595e+002, 1.816149e+004
6.204416e+002, 1.815126e+004
6.209237e+002, 1.813708e+004
6.214058e+002, 1.812424e+004
6.218879e+002, 1.811558e+004
6.223701e+002, 1.810488e+004
6.228522e+002, 1.808883e+004
6.233343e+002, 1.807146e+004
6.238164e+002, 1.805715e+004
6.242985e+002, 1.804670e+004
6.247806e+002, 1.803749e+004
6.252628e+002, 1.802818e+004
6.257448e+002, 1.801842e+004
6.262269e+002, 1.800672e+004
6.267090e+002, 1.799274e+004
6.271912e+002, 1.798019e+004
6.276733e+002, 1.797101e+004
6.281554e+002, 1.796391e+004
6.286375e+002, 1.795679e+004
6.291196e+002, 1.795016e+004
6.296017e+002, 1.794136e+004
6.300839e+002, 1.792802e+004
6.305660e+002, 1.791402e+004
6.310481e+002, 1.790176e+004
6.315302e+002, 1.789094e+004
6.320123e+002, 1.787963e+004
6.324944e+002, 1.786699e+004
6.329766e+002, 1.785549e+004
6.334587e+002, 1.785069e+004
6.339408e+002, 1.785485e+004
6.344229e+002, 1.785386e+004
6.349050e+002, 1.784630e+004
6.353871e+002, 1.783490e+004
6.358693e+002, 1.781709e+004
6.363514e+002, 1.779791e+004
6.368335e+002, 1.778598e+004
6.373156e+002, 1.778479e+004
6.377977e+002, 1.778456e+004
6.382798e+002, 1.777668e+004
6.387620e+002, 1.776554e+004
6.392441e+002, 1.776144e+004
6.397262e+002, 1.776518e+004
6.402083e+002, 1.776487e+004
6.406904e+002, 1.775152e+004
6.411725e+002, 1.772991e+004
6.416547e+002, 1.771595e+004
6.421368e+002, 1.771659e+004
6.426189e+002, 1.771482e+004
6.431010e+002, 1.770604e+004
6.435831e+002, 1.769886e+004
6.440652e+002, 1.770078e+004
6.445474e+002, 1.770882e+004
6.450295e+002, 1.771462e+004
6.455116e+002, 1.771365e+004
6.459937e+002, 1.770911e+004
6.464758e+002, 1.770704e+004
6.469579e+002, 1.770738e+004
6.474401e+002, 1.770175e+004
6.479222e+002, 1.768527e+004
6.484043e+002, 1.767063e+004
6.488864e+002, 1.766994e+004
6.493685e+002, 1.767906e+004
6.498506e+002, 1.768491e+004
6.503328e+002, 1.768591e+004
6.508149e+002, 1.768474e+004
6.512970e+002, 1.768010e+004
6.517791e+002, 1.767524e+004
6.522612e+002, 1.767527e+004
6.527433e+002, 1.767987e+004
6.532255e+002, 1.768279e+004
6.537076e+002, 1.767846e+004
6.541897e+002, 1.767076e+004
6.546718e+002, 1.767592e+004
6.551539e+002, 1.770212e+004
6.556360e+002, 1.772099e+004
6.561182e+002, 1.772459e+004
6.566003e+002, 1.772284e+004
6.570824e+002, 1.771813e+004
6.575645e+002, 1.771208e+004
6.580466e+002, 1.770865e+004
6.585287e+002, 1.770927e+004
6.590109e+002, 1.771278e+004
6.594930e+002, 1.772022e+004
6.599751e+002, 1.772953e+004
6.604572e+002, 1.773469e+004
6.609393e+002, 1.773431e+004
6.614214e+002, 1.773187e+004
6.619036e+002, 1.772959e+004
6.623857e+002, 1.772796e+004
6.628678e+002, 1.773181e+004
6.633499e+002, 1.774942e+004
6.638320e+002, 1.776195e+004
6.643141e+002, 1.776637e+004
6.647963e+002, 1.776655e+004
6.652784e+002, 1.776343e+004
6.657605e+002, 1.775881e+004
6.662426e+002, 1.775805e+004
6.667247e+002, 1.776800e+004
6.672068e+002, 1.777779e+004
6.676890e+002, 1.776616e+004
6.681711e+002, 1.773362e+004
6.686532e+002, 1.769665e+004
6.691353e+002, 1.765815e+004
6.696174e+002, 1.761826e+004
6.700995e+002, 1.757847e+004
6.705817e+002, 1.753793e+004
6.710638e+002, 1.749214e+004
6.715459e+002, 1.743620e+004
6.720280e+002, 1.738081e+004
6.725101e+002, 1.732835e+004
6.729922e+002, 1.727918e+004
6.734744e+002, 1.723391e+004
6.739565e+002, 1.719230e+004
6.744386e+002, 1.715308e+004
6.749207e+002, 1.711567e+004
6.754028e+002, 1.707882e+004
6.758849e+002, 1.703655e+004
6.763671e+002, 1.698585e+004
6.768492e+002, 1.694315e+004
6.773313e+002, 1.691263e+004
6.778134e+002, 1.689001e+004
6.782955e+002, 1.687608e+004
6.787776e+002, 1.686745e+004
6.792598e+002, 1.685158e+004
6.797419e+002, 1.682032e+004
6.802240e+002, 1.678805e+004
6.807061e+002, 1.676247e+004
6.811882e+002, 1.674171e+004
6.816703e+002, 1.672381e+004
6.821525e+002, 1.670793e+004
6.826346e+002, 1.669088e+004
6.831167e+002, 1.666935e+004
6.835988e+002, 1.664536e+004
6.840809e+002, 1.662944e+004
6.845630e+002, 1.662765e+004
6.850452e+002, 1.662083e+004
6.855273e+002, 1.660165e+004
6.860094e+002, 1.658100e+004
6.864915e+002, 1.656436e+004
6.869736e+002, 1.655139e+004
6.874557e+002, 1.654017e+004
6.879379e+002, 1.653133e+004
6.884200e+002, 1.652147e+004
6.889021e+002, 1.650499e+004
6.893842e+002, 1.648550e+004
6.898663e+002, 1.647274e+004
6.903484e+002, 1.646819e+004
6.908306e+002, 1.646483e+004
6.913127e+002, 1.645747e+004
6.917948e+002, 1.644644e+004
6.922769e+002, 1.643282e+004
6.927590e+002, 1.641125e+004
6.932411e+002, 1.639608e+004
6.937233e+002, 1.639417e+004
6.942054e+002, 1.639311e+004
6.946875e+002, 1.638598e+004
6.951696e+002, 1.637356e+004
6.956517e+002, 1.635918e+004
6.961339e+002, 1.634395e+004
6.966160e+002, 1.632868e+004
6.970981e+002, 1.631271e+004
6.975802e+002, 1.629733e+004
6.980623e+002, 1.628840e+004
6.985444e+002, 1.628737e+004
6.990266e+002, 1.628471e+004
6.995087e+002, 1.627332e+004
6.999908e+002, 1.625524e+004
7.004729e+002, 1.623873e+004
7.009550e+002, 1.622591e+004
7.014371e+002, 1.621111e+004
7.019193e+002, 1.619135e+004
7.024014e+002, 1.617213e+004
7.028835e+002, 1.615693e+004
7.033656e+002, 1.614492e+004
7.038477e+002, 1.613411e+004
7.043298e+002, 1.612398e+004
7.048120e+002, 1.611282e+004
7.052941e+002, 1.609741e+004
7.057762e+002, 1.607906e+004
7.062583e+002, 1.606405e+004
7.067404e+002, 1.605336e+004
7.072225e+002, 1.604433e+004
7.077046e+002, 1.603653e+004
7.081867e+002, 1.602852e+004
7.086688e+002, 1.601579e+004
7.091509e+002, 1.599461e+004
7.096331e+002, 1.597831e+004
7.101152e+002, 1.597111e+004
7.105973e+002, 1.596549e+004
7.110794e+002, 1.595858e+004
7.115615e+002, 1.594952e+004
7.120436e+002, 1.593582e+004
7.125258e+002, 1.591673e+004
7.130079e+002, 1.589976e+004
7.134900e+002, 1.589592e+004
7.139721e+002, 1.590240e+004
7.144542e+002, 1.590415e+004
7.149363e+002, 1.590080e+004
7.154185e+002, 1.589184e+004
7.159006e+002, 1.587397e+004
7.163827e+002, 1.585367e+004
7.168648e+002, 1.584336e+004
7.173469e+002, 1.584554e+004
7.178290e+002, 1.584213e+004
7.183112e+002, 1.582776e+004
7.187933e+002, 1.581168e+004
7.192754e+002, 1.579878e+004
7.197575e+002, 1.578700e+004
7.202396e+002, 1.577238e+004
7.207217e+002, 1.575426e+004
7.212039e+002, 1.573601e+004
7.216860e+002, 1.572189e+004
7.221681e+002, 1.571010e+004
7.226502e+002, 1.569290e+004
7.231323e+002, 1.566940e+004
7.236144e+002, 1.564700e+004
7.240966e+002, 1.562784e+004
7.245787e+002, 1.561126e+004
7.250608e+002, 1.559793e+004
7.255429e+002, 1.558770e+004
7.260250e+002, 1.557473e+004
7.265071e+002, 1.555596e+004
7.269893e+002, 1.553787e+004
7.274714e+002, 1.552301e+004
7.279535e+002, 1.550999e+004
7.284356e+002, 1.549706e+004
7.289177e+002, 1.548426e+004
7.293998e+002, 1.547364e+004
7.298820e+002, 1.546733e+004
7.303641e+002, 1.546287e+004
7.308462e+002, 1.545296e+004
7.313283e+002, 1.543721e+004
7.318104e+002, 1.542755e+004
7.322925e+002, 1.542857e+004
7.327747e+002, 1.543045e+004
7.332568e+002, 1.542499e+004
7.337389e+002, 1.541329e+004
7.342210e+002, 1.540250e+004
7.347031e+002, 1.539283e+004
7.351852e+002, 1.538354e+004
7.356674e+002, 1.537714e+004
7.361495e+002, 1.536874e+004
7.366316e+002, 1.535190e+004
7.371137e+002, 1.532941e+004
7.375958e+002, 1.530965e+004
7.380779e+002, 1.529675e+004
7.385601e+002, 1.528707e+004
7.390422e+002, 1.527599e+004
7.395243e+002, 1.526351e+004
7.400064e+002, 1.524844e+004
7.404885e+002, 1.523014e+004
7.409706e+002, 1.521209e+004
7.414528e+002, 1.519558e+004
7.419349e+002, 1.518118e+004
7.424170e+002, 1.517069e+004
7.428991e+002, 1.516530e+004
7.433812e+002, 1.515956e+004
7.438633e+002, 1.515779e+004
7.443455e+002, 1.515083e+004
7.448276e+002, 1.513075e+004
7.453097e+002, 1.510359e+004
7.457918e+002, 1.507604e+004
7.462739e+002, 1.505113e+004
7.467560e+002, 1.503412e+004
7.472382e+002, 1.503659e+004
7.477203e+002, 1.504999e+004
7.482024e+002, 1.504495e+004
7.486845e+002, 1.502095e+004
7.491666e+002, 1.500212e+004
7.496487e+002, 1.499784e+004
7.501309e+002, 1.499834e+004
7.506130e+002, 1.499174e+004
7.510951e+002, 1.497739e+004
7.515772e+002, 1.496720e+004
7.520593e+002, 1.496592e+004
7.525414e+002, 1.496192e+004
7.530236e+002, 1.495006e+004
7.535057e+002, 1.493589e+004
7.539878e+002, 1.492313e+004
7.544699e+002, 1.491274e+004
7.549520e+002, 1.490583e+004
7.554341e+002, 1.490474e+004
7.559163e+002, 1.490340e+004
7.563984e+002, 1.489138e+004
7.568805e+002, 1.487129e+004
7.573626e+002, 1.485594e+004
7.578447e+002, 1.484780e+004
7.583268e+002, 1.483806e+004
7.588090e+002, 1.481964e+004
7.592911e+002, 1.479598e+004
7.597732e+002, 1.477870e+004
7.602553e+002, 1.477552e+004
7.607374e+002, 1.476506e+004
7.612195e+002, 1.474060e+004
7.617017e+002, 1.471707e+004
7.621838e+002, 1.470320e+004
7.626659e+002, 1.469461e+004
7.631480e+002, 1.468280e+004
7.636301e+002, 1.466533e+004
7.641122e+002, 1.465020e+004
7.645944e+002, 1.464684e+004
7.650765e+002, 1.464772e+004
7.655586e+002, 1.463949e+004
7.660407e+002, 1.462340e+004
7.665228e+002, 1.461008e+004
7.670049e+002, 1.460365e+004
7.674871e+002, 1.459899e+004
7.679692e+002, 1.458871e+004
7.684513e+002, 1.457213e+004
7.689334e+002, 1.456276e+004
7.694155e+002, 1.456728e+004
7.698976e+002, 1.456761e+004
7.703798e+002, 1.455480e+004
7.708619e+002, 1.454025e+004
7.713440e+002, 1.453456e+004
7.718261e+002, 1.453601e+004
7.723082e+002, 1.453340e+004
7.727903e+002, 1.452014e+004
7.732725e+002, 1.450538e+004
7.737546e+002, 1.449596e+004
7.742367e+002, 1.448906e+004
7.747188e+002, 1.448076e+004
7.752009e+002, 1.447038e+004
7.756830e+002, 1.445801e+004
7.761652e+002, 1.444338e+004
7.766473e+002, 1.442837e+004
7.771294e+002, 1.441783e+004
7.776115e+002, 1.441248e+004
7.780936e+002, 1.440725e+004
7.785757e+002, 1.440309e+004
7.790579e+002, 1.439672e+004
7.795400e+002, 1.438505e+004
7.800221e+002, 1.437060e+004
7.805042e+002, 1.435803e+004
7.809863e+002, 1.434800e+004
7.814684e+002, 1.433660e+004
7.819506e+002, 1.432184e+004
7.824327e+002, 1.430645e+004
7.829148e+002, 1.428924e+004
7.833969e+002, 1.427352e+004
7.838790e+002, 1.426628e+004
7.843611e+002, 1.426826e+004
7.848433e+002, 1.427074e+004
7.853254e+002, 1.426613e+004
7.858075e+002, 1.425564e+004
7.862896e+002, 1.424100e+004
7.867717e+002, 1.422211e+004
7.872538e+002, 1.420959e+004
7.877360e+002, 1.420814e+004
7.882181e+002, 1.420734e+004
7.887002e+002, 1.419660e+004
7.891823e+002, 1.417760e+004
7.896644e+002, 1.416490e+004
7.901465e+002, 1.416507e+004
7.906286e+002, 1.416181e+004
7.911107e+002, 1.415210e+004
7.915928e+002, 1.414032e+004
7.920750e+002, 1.412654e+004
7.925571e+002, 1.411346e+004
7.930392e+002, 1.410744e+004
7.935213e+002, 1.411186e+004
7.940034e+002, 1.411405e+004
7.944855e+002, 1.409947e+004
7.949677e+002, 1.407650e+004
7.954498e+002, 1.406060e+004
7.959319e+002, 1.405191e+004
7.964140e+002, 1.404569e+004
7.968961e+002, 1.404016e+004
7.973782e+002, 1.403378e+004
7.978604e+002, 1.402395e+004
7.983425e+002, 1.401026e+004
7.988246e+002, 1.400042e+004
7.993067e+002, 1.399668e+004
7.997888e+002, 1.399241e+004
8.002709e+002, 1.398535e+004
8.007531e+002, 1.397757e+004
8.012352e+002, 1.397209e+004
8.017173e+002, 1.396767e+004
8.021994e+002, 1.395805e+004
8.026815e+002, 1.393547e+004
8.031636e+002, 1.391636e+004
8.036458e+002, 1.391122e+004
8.041279e+002, 1.391324e+004
8.046100e+002, 1.391673e+004
8.050921e+002, 1.391969e+004
8.055742e+002, 1.391962e+004
8.060563e+002, 1.391516e+004
8.065385e+002, 1.390742e+004
8.070206e+002, 1.389679e+004
8.075027e+002, 1.388375e+004
8.079848e+002, 1.387610e+004
8.084669e+002, 1.387625e+004
8.089490e+002, 1.386998e+004
8.094312e+002, 1.384733e+004
8.099133e+002, 1.382015e+004
8.103954e+002, 1.380781e+004
8.108775e+002, 1.381400e+004
8.113596e+002, 1.381063e+004
8.118417e+002, 1.379396e+004
8.123239e+002, 1.377279e+004
8.128060e+002, 1.374174e+004
8.132881e+002, 1.371288e+004
8.137702e+002, 1.369961e+004
8.142523e+002, 1.370028e+004
8.147344e+002, 1.370278e+004
8.152166e+002, 1.370259e+004
8.156987e+002, 1.369877e+004
8.161808e+002, 1.368805e+004
8.166629e+002, 1.367349e+004
8.171450e+002, 1.366191e+004
8.176271e+002, 1.365391e+004
8.181093e+002, 1.364665e+004
8.185914e+002, 1.363844e+004
8.190735e+002, 1.363002e+004
8.195556e+002, 1.362342e+004
8.200377e+002, 1.361938e+004
8.205198e+002, 1.361110e+004
8.210020e+002, 1.359491e+004
8.214841e+002, 1.358103e+004
8.219662e+002, 1.357510e+004
8.224483e+002, 1.357206e+004
8.229304e+002, 1.356746e+004
8.234125e+002, 1.356115e+004
8.238947e+002, 1.355130e+004
8.243768e+002, 1.353343e+004
8.248589e+002, 1.351720e+004
8.253410e+002, 1.350614e+004
8.258231e+002, 1.349950e+004
8.263052e+002, 1.350023e+004
8.267874e+002, 1.350508e+004
8.272695e+002, 1.350291e+004
8.277516e+002, 1.348642e+004
8.282337e+002, 1.346516e+004
8.287158e+002, 1.345357e+004
8.291979e+002, 1.344895e+004
8.296801e+002, 1.343875e+004
8.301622e+002, 1.342188e+004
8.306443e+002, 1.340749e+004
8.311264e+002, 1.340110e+004
8.316085e+002, 1.339655e+004
8.320906e+002, 1.338280e+004
8.325728e+002, 1.335767e+004
8.330549e+002, 1.333909e+004
8.335370e+002, 1.333066e+004
8.340191e+002, 1.332370e+004
8.345012e+002, 1.331608e+004
8.349833e+002, 1.330920e+004
8.354655e+002, 1.330533e+004
8.359476e+002, 1.330358e+004
8.364297e+002, 1.329944e+004
8.369118e+002, 1.329038e+004
8.373939e+002, 1.328071e+004
8.378760e+002, 1.327233e+004
8.383582e+002, 1.326499e+004
8.388403e+002, 1.325896e+004
8.393224e+002, 1.325370e+004
8.398045e+002, 1.324789e+004
8.402866e+002, 1.324099e+004
8.407687e+002, 1.323233e+004
8.412509e+002, 1.322086e+004
8.417330e+002, 1.320687e+004
8.422151e+002, 1.319071e+004
8.426972e+002, 1.317207e+004
8.431793e+002, 1.315823e+004
8.436614e+002, 1.315255e+004
8.441436e+002, 1.315085e+004
8.446257e+002, 1.314888e+004
8.451078e+002, 1.314654e+004
8.455899e+002, 1.314269e+004
8.460720e+002, 1.313609e+004
8.465541e+002, 1.312949e+004
8.470363e+002, 1.312493e+004
8.475184e+002, 1.311853e+004
8.480005e+002, 1.310711e+004
8.484826e+002, 1.309201e+004
8.489647e+002, 1.307559e+004
8.494468e+002, 1.305726e+004
8.499290e+002, 1.304306e+004
8.504111e+002, 1.303939e+004
8.508932e+002, 1.303896e+004
8.513753e+002, 1.303500e+004
8.518574e+002, 1.302806e+004
8.523395e+002, 1.302167e+004
8.528217e+002, 1.301650e+004
8.533038e+002, 1.300722e+004
8.537859e+002, 1.298649e+004
8.542680e+002, 1.295967e+004
8.547501e+002, 1.294490e+004
8.552322e+002, 1.294218e+004
8.557144e+002, 1.293879e+004
8.561965e+002, 1.293275e+004
8.566786e+002, 1.292325e+004
8.571607e+002, 1.290834e+004
8.576428e+002, 1.289048e+004
8.581249e+002, 1.287760e+004
8.586071e+002, 1.287167e+004
8.590892e+002, 1.286636e+004
8.595713e+002, 1.286223e+004
8.600534e+002, 1.285788e+004
8.605355e+002, 1.285361e+004
8.610176e+002, 1.284827e+004
8.614998e+002, 1.283955e+004
8.619819e+002, 1.282747e+004
8.624640e+002, 1.281728e+004
8.629461e+002, 1.281380e+004
8.634282e+002, 1.280983e+004
8.639103e+002, 1.279842e+004
8.643925e+002, 1.278457e+004
8.648746e+002, 1.277717e+004
8.653567e+002, 1.277522e+004
8.658388e+002, 1.276931e+004
8.663209e+002, 1.275364e+004
8.668030e+002, 1.273395e+004
8.672852e+002, 1.271805e+004
8.677673e+002, 1.270588e+004
8.682494e+002, 1.269724e+004
8.687315e+002, 1.269220e+004
8.692136e+002, 1.268981e+004
8.696957e+002, 1.269085e+004
8.701779e+002, 1.268989e+004
8.706600e+002, 1.267844e+004
8.711421e+002, 1.265632e+004
8.716242e+002, 1.264230e+004
8.721063e+002, 1.264204e+004
8.725884e+002, 1.263982e+004
8.730705e+002, 1.263126e+004
8.735526e+002, 1.262167e+004
8.740347e+002, 1.261440e+004
8.745168e+002, 1.260849e+004
8.749990e+002, 1.260124e+004
8.754811e+002, 1.259198e+004
8.759632e+002, 1.258224e+004
8.764453e+002, 1.257272e+004
8.769274e+002, 1.256281e+004
8.774095e+002, 1.255283e+004
8.778917e+002, 1.254184e+004
8.783738e+002, 1.252640e+004
8.788559e+002, 1.250695e+004
8.793380e+002, 1.249162e+004
8.798201e+002, 1.248999e+004
8.803022e+002, 1.249233e+004
8.807844e+002, 1.247869e+004
8.812665e+002, 1.245494e+004
8.817486e+002, 1.244533e+004
8.822307e+002, 1.245285e+004
8.827128e+002, 1.245868e+004
8.831949e+002, 1.245089e+004
8.836771e+002, 1.243441e+004
8.841592e+002, 1.241866e+004
8.846413e+002, 1.240314e+004
8.851234e+002, 1.239208e+004
8.856055e+002, 1.238759e+004
8.860876e+002, 1.238235e+004
8.865698e+002, 1.237530e+004
8.870519e+002, 1.236476e+004
8.875340e+002, 1.234554e+004
8.880161e+002, 1.231875e+004
8.884982e+002, 1.230104e+004
8.889803e+002, 1.229975e+004
8.894625e+002, 1.229785e+004
8.899446e+002, 1.229178e+004
8.904267e+002, 1.228480e+004
8.909088e+002, 1.228001e+004
8.913909e+002, 1.227589e+004
8.918730e+002, 1.226829e+004
8.923552e+002, 1.225579e+004
8.928373e+002, 1.224583e+004
8.933194e+002, 1.224886e+004
8.938015e+002, 1.225205e+004
8.942836e+002, 1.223956e+004
8.947657e+002, 1.221721e+004
8.952479e+002, 1.219741e+004
8.957300e+002, 1.218290e+004
8.962121e+002, 1.216946e+004
8.966942e+002, 1.215375e+004
8.971763e+002, 1.213808e+004
8.976584e+002, 1.212690e+004
8.981406e+002, 1.212009e+004
8.986227e+002, 1.211805e+004
8.991048e+002, 1.212141e+004
8.995869e+002, 1.212098e+004
9.000690e+002, 1.211168e+004
9.005511e+002, 1.209827e+004
9.010333e+002, 1.208788e+004
9.015154e+002, 1.208072e+004
9.019975e+002, 1.207172e+004
9.024796e+002, 1.205965e+004
9.029617e+002, 1.204800e+004
9.034438e+002, 1.203669e+004
9.039260e+002, 1.202683e+004
9.044081e+002, 1.201998e+004
9.048902e+002, 1.201514e+004
9.053723e+002, 1.201005e+004
9.058544e+002, 1.200487e+004
9.063365e+002, 1.199845e+004
9.068187e+002, 1.199010e+004
9.073008e+002, 1.198090e+004
9.077829e+002, 1.197237e+004
9.082650e+002, 1.196297e+004
9.087471e+002, 1.194829e+004
9.092292e+002, 1.192928e+004
9.097114e+002, 1.191551e+004
9.101935e+002, 1.191592e+004
9.106756e+002, 1.191873e+004
9.111577e+002, 1.191098e+004
9.116398e+002, 1.189742e+004
9.121219e+002, 1.188731e+004
9.126041e+002, 1.188073e+004
9.130862e+002, 1.187255e+004
9.135683e+002, 1.186040e+004
9.140504e+002, 1.184564e+004
9.145325e+002, 1.182884e+004
9.150146e+002, 1.181102e+004
9.154968e+002, 1.179712e+004
9.159789e+002, 1.178722e+004
9.164610e+002, 1.178146e+004
9.169431e+002, 1.178108e+004
9.174252e+002, 1.177907e+004
9.179073e+002, 1.176879e+004
9.183895e+002, 1.175288e+004
9.188716e+002, 1.174065e+004
9.193537e+002, 1.173222e+004
9.198358e+002, 1.172700e+004
9.203179e+002, 1.172899e+004
9.208000e+002, 1.172815e+004
9.212822e+002, 1.171618e+004
9.217643e+002, 1.170199e+004
9.222464e+002, 1.169639e+004
9.227285e+002, 1.169901e+004
9.232106e+002, 1.169890e+004
9.236927e+002, 1.169565e+004
9.241749e+002, 1.168794e+004
9.246570e+002, 1.167174e+004
9.251391e+002, 1.165421e+004
9.256212e+002, 1.163992e+004
9.261033e+002, 1.162916e+004
9.265854e+002, 1.162222e+004
9.270676e+002, 1.161938e+004
9.275497e+002, 1.161606e+004
9.280318e+002, 1.160962e+004
9.285139e+002, 1.160118e+004
9.289960e+002, 1.159012e+004
9.294781e+002, 1.157849e+004
9.299603e+002, 1.157050e+004
9.304424e+002, 1.156629e+004
9.309245e+002, 1.156245e+004
9.314066e+002, 1.155697e+004
9.318887e+002, 1.154989e+004
9.323708e+002, 1.154031e+004
9.328530e+002, 1.152914e+004
9.333351e+002, 1.152034e+004
9.338172e+002, 1.151399e+004
9.342993e+002, 1.150816e+004
9.347814e+002, 1.150202e+004
9.352635e+002, 1.149764e+004
9.357457e+002, 1.149825e+004
9.362278e+002, 1.150201e+004
9.367099e+002, 1.149706e+004
9.371920e+002, 1.148039e+004
9.376741e+002, 1.146833e+004
9.381563e+002, 1.146454e+004
9.386384e+002, 1.146155e+004
9.391205e+002, 1.145642e+004
9.396026e+002, 1.144854e+004
9.400847e+002, 1.143628e+004
9.405668e+002, 1.141880e+004
9.410490e+002, 1.140215e+004
9.415311e+002, 1.138608e+004
9.420132e+002, 1.137121e+004
9.424953e+002, 1.135811e+004
9.429774e+002, 1.134594e+004
9.434595e+002, 1.133346e+004
9.439417e+002, 1.132152e+004
9.444238e+002, 1.131274e+004
9.449059e+002, 1.130834e+004
9.453880e+002, 1.130437e+004
9.458701e+002, 1.130007e+004
9.463522e+002, 1.129509e+004
9.468344e+002, 1.128911e+004
9.473165e+002, 1.128242e+004
9.477986e+002, 1.127531e+004
9.482807e+002, 1.126790e+004
9.487628e+002, 1.126018e+004
9.492449e+002, 1.125191e+004
9.497271e+002, 1.124390e+004
9.502092e+002, 1.123716e+004
9.506913e+002, 1.123099e+004
9.511734e+002, 1.122361e+004
9.516555e+002, 1.121571e+004
9.521376e+002, 1.120973e+004
9.526198e+002, 1.120650e+004
9.531019e+002, 1.120557e+004
9.535840e+002, 1.120762e+004
9.540661e+002, 1.121021e+004
9.545482e+002, 1.120663e+004
9.550303e+002, 1.119775e+004
9.555124e+002, 1.118885e+004
9.559945e+002, 1.118062e+004
9.564766e+002, 1.117356e+004
9.569587e+002, 1.116765e+004
9.574409e+002, 1.116451e+004
9.579230e+002, 1.116741e+004
9.584051e+002, 1.117623e+004
9.588872e+002, 1.118359e+004
9.593693e+002, 1.119000e+004
9.598514e+002, 1.119240e+004
9.603336e+002, 1.118886e+004
9.608157e+002, 1.118392e+004
9.612978e+002, 1.118015e+004
9.617799e+002, 1.117800e+004
9.622620e+002, 1.117908e+004
9.627441e+002, 1.118514e+004
9.632263e+002, 1.118897e+004
9.637084e+002, 1.118782e+004
9.641905e+002, 1.118824e+004
9.646726e+002, 1.119356e+004
9.651547e+002, 1.119989e+004
9.656368e+002, 1.120335e+004
9.661190e+002, 1.120475e+004
9.666011e+002, 1.120804e+004
9.670832e+002, 1.121363e+004
9.675653e+002, 1.122126e+004
9.680474e+002, 1.123275e+004
9.685295e+002, 1.124423e+004
9.690117e+002, 1.125332e+004
9.694938e+002, 1.126111e+004
9.699759e+002, 1.126995e+004
9.704580e+002, 1.127956e+004
9.709401e+002, 1.128606e+004
9.714222e+002, 1.128812e+004
9.719044e+002, 1.128596e+004
9.723865e+002, 1.128012e+004
9.728686e+002, 1.126983e+004
9.733507e+002, 1.125241e+004
9.738328e+002, 1.123030e+004
9.743149e+002, 1.120858e+004
9.747971e+002, 1.118886e+004
9.752792e+002, 1.116943e+004
9.757613e+002, 1.114900e+004
9.762434e+002, 1.112829e+004
9.767255e+002, 1.110826e+004
9.772076e+002, 1.108869e+004
9.776898e+002, 1.106823e+004
9.781719e+002, 1.104723e+004
9.786540e+002, 1.102880e+004
9.791361e+002, 1.101427e+004
9.796182e+002, 1.100151e+004
9.801003e+002, 1.098725e+004
9.805825e+002, 1.097274e+004
9.810646e+002, 1.096449e+004
9.815467e+002, 1.096128e+004
9.820288e+002, 1.095178e+004
9.825109e+002, 1.093383e+004
9.829930e+002, 1.091709e+004
9.834752e+002, 1.090790e+004
9.839573e+002, 1.090366e+004
9.844394e+002, 1.089984e+004
9.849215e+002, 1.089646e+004
9.854036e+002, 1.089241e+004
9.858857e+002, 1.088733e+004
9.863679e+002, 1.088337e+004
9.868500e+002, 1.088062e+004
9.873321e+002, 1.088055e+004
9.878142e+002, 1.088508e+004
9.882963e+002, 1.089250e+004
9.887784e+002, 1.089768e+004
9.892606e+002, 1.090072e+004
9.897427e+002, 1.090057e+004
9.902248e+002, 1.089461e+004
9.907069e+002, 1.089033e+004
9.911890e+002, 1.088938e+004
9.916711e+002, 1.089173e+004
9.921533e+002, 1.089767e+004
9.926354e+002, 1.090695e+004
9.931175e+002, 1.091849e+004
9.935996e+002, 1.093848e+004
9.940817e+002, 1.094957e+004
9.945638e+002, 1.094615e+004
9.950460e+002, 1.094029e+004
9.955281e+002, 1.093492e+004
9.960102e+002, 1.093061e+004
9.964923e+002, 1.092798e+004
9.969744e+002, 1.092691e+004
9.974565e+002, 1.092667e+004
9.979387e+002, 1.093012e+004
9.984208e+002, 1.092941e+004
9.989029e+002, 1.092037e+004
9.993850e+002, 1.090888e+004
9.998671e+002, 1.089900e+004
1.000349e+003, 1.088881e+004
1.000831e+003, 1.087536e+004
1.001313e+003, 1.085830e+004
1.001796e+003, 1.083930e+004
1.002278e+003, 1.081798e+004
1.002760e+003, 1.079655e+004
1.003242e+003, 1.077616e+004
1.003724e+003, 1.075634e+004
1.004206e+003, 1.073671e+004
1.004688e+003, 1.071714e+004
1.005170e+003, 1.069624e+004
1.005653e+003, 1.067418e+004
1.006135e+003, 1.065531e+004
1.006617e+003, 1.064460e+004
1.007099e+003, 1.063502e+004
1.007581e+003, 1.061813e+004
1.008063e+003, 1.059943e+004
1.008545e+003, 1.058861e+004
1.009027e+003, 1.058314e+004
1.009509e+003, 1.057273e+004
1.009992e+003, 1.055422e+004
1.010474e+003, 1.053554e+004
1.010956e+003, 1.052454e+004
1.011438e+003, 1.051659e+004
1.011920e+003, 1.050326e+004
1.012402e+003, 1.048796e+004
1.012884e+003, 1.047943e+004
1.013366e+003, 1.047742e+004
1.013849e+003, 1.047538e+004
1.014331e+003, 1.047045e+004
1.014813e+003, 1.046526e+004
1.015295e+003, 1.046339e+004
1.015777e+003, 1.046295e+004
1.016259e+003, 1.045957e+004
1.016741e+003, 1.045338e+004
1.017223e+003, 1.044365e+004
1.017705e+003, 1.043088e+004
1.018188e+003, 1.042150e+004
1.018670e+003, 1.041902e+004
1.019152e+003, 1.041828e+004
1.019634e+003, 1.041300e+004
1.020116e+003, 1.040312e+004
1.020598e+003, 1.038698e+004
1.021080e+003, 1.036488e+004
1.021562e+003, 1.034340e+004
1.022044e+003, 1.032363e+004
1.022527e+003, 1.030393e+004
1.023009e+003, 1.028285e+004
1.023491e+003, 1.026372e+004
1.023973e+003, 1.025346e+004
1.024455e+003, 1.025102e+004
1.024937e+003, 1.023718e+004
1.025419e+003, 1.020996e+004
1.025901e+003, 1.018940e+004
1.026384e+003, 1.018036e+004
1.026866e+003, 1.017245e+004
1.027348e+003, 1.015850e+004
1.027830e+003, 1.014360e+004
1.028312e+003, 1.013918e+004
1.028794e+003, 1.014628e+004
1.029276e+003, 1.013543e+004
1.029758e+003, 1.009908e+004
1.030240e+003, 1.007195e+004
1.030723e+003, 1.006336e+004
1.031205e+003, 1.005834e+004
1.031687e+003, 1.004714e+004
1.032169e+003, 1.003309e+004
1.032651e+003, 1.002311e+004
1.033133e+003, 1.001774e+004
1.033615e+003, 1.001109e+004
1.034097e+003, 9.999323e+003
1.034579e+003, 9.995221e+003
1.035062e+003, 1.000849e+004
1.035544e+003, 1.001847e+004
1.036026e+003, 1.000848e+004
1.036508e+003, 9.987701e+003
1.036990e+003, 9.976410e+003
1.037472e+003, 9.977681e+003
1.037954e+003, 9.970734e+003
1.038436e+003, 9.947337e+003
1.038919e+003, 9.929031e+003
1.039401e+003, 9.923577e+003
1.039883e+003, 9.919944e+003
1.040365e+003, 9.911318e+003
1.040847e+003, 9.899554e+003
1.041329e+003, 9.887654e+003
1.041811e+003, 9.874528e+003
1.042293e+003, 9.867263e+003
1.042776e+003, 9.872204e+003
1.043258e+003, 9.874422e+003
1.043740e+003, 9.872196e+003
1.044222e+003, 9.865552e+003
1.044704e+003, 9.852146e+003
1.045186e+003, 9.835173e+003
1.045668e+003, 9.819874e+003
1.046150e+003, 9.806107e+003
1.046632e+003, 9.797849e+003
1.047115e+003, 9.800524e+003
1.047597e+003, 9.801784e+003
1.048079e+003, 9.799081e+003
1.048561e+003, 9.793479e+003
1.049043e+003, 9.784118e+003
1.049525e+003, 9.772976e+003
1.050007e+003, 9.763517e+003
1.050489e+003, 9.756314e+003
1.050971e+003, 9.748888e+003
1.051454e+003, 9.740614e+003
1.051936e+003, 9.732276e+003
1.052418e+003, 9.722949e+003
1.052900e+003, 9.714724e+003
1.053382e+003, 9.710819e+003
1.053864e+003, 9.708426e+003
1.054346e+003, 9.701854e+003
1.054828e+003, 9.690168e+003
1.055311e+003, 9.679854e+003
1.055793e+003, 9.674233e+003
1.056275e+003, 9.668099e+003
1.056757e+003, 9.658807e+003
1.057239e+003, 9.649237e+003
1.057721e+003, 9.641496e+003
1.058203e+003, 9.635146e+003
1.058685e+003, 9.629291e+003
1.059167e+003, 9.623774e+003
1.059650e+003, 9.618096e+003
1.060132e+003, 9.611372e+003
1.060614e+003, 9.605438e+003
1.061096e+003, 9.600875e+003
1.061578e+003, 9.597400e+003
1.062060e+003, 9.596220e+003
1.062542e+003, 9.595231e+003
1.063024e+003, 9.590771e+003
1.063506e+003, 9.582463e+003
1.063989e+003, 9.573993e+003
1.064471e+003, 9.566825e+003
1.064953e+003, 9.559388e+003
1.065435e+003, 9.551165e+003
1.065917e+003, 9.542231e+003
1.066399e+003, 9.531374e+003
1.066881e+003, 9.520474e+003
1.067363e+003, 9.513032e+003
1.067846e+003, 9.509113e+003
1.068328e+003, 9.504385e+003
1.068810e+003, 9.496763e+003
1.069292e+003, 9.488993e+003
1.069774e+003, 9.482224e+003
1.070256e+003, 9.475954e+003
1.070738e+003, 9.468843e+003
1.071220e+003, 9.462564e+003
1.071703e+003, 9.461649e+003
1.072185e+003, 9.464788e+003
1.072667e+003, 9.461332e+003
1.073149e+003, 9.443006e+003
1.073631e+003, 9.427670e+003
1.074113e+003, 9.423896e+003
1.074595e+003, 9.425804e+003
1.075077e+003, 9.433540e+003
1.075559e+003, 9.441543e+003
1.076042e+003, 9.441848e+003
1.076524e+003, 9.435331e+003
1.077006e+003, 9.430459e+003
1.077488e+003, 9.430629e+003
1.077970e+003, 9.431042e+003
1.078452e+003, 9.428262e+003
1.078934e+003, 9.426322e+003
1.079416e+003, 9.428886e+003
1.079898e+003, 9.433230e+003
1.080380e+003, 9.434688e+003
1.080863e+003, 9.434712e+003
1.081345e+003, 9.439528e+003
1.081827e+003, 9.451438e+003
1.082309e+003, 9.466185e+003
1.082791e+003, 9.482790e+003
1.083273e+003, 9.500569e+003
1.083755e+003, 9.517472e+003
1.084237e+003, 9.536419e+003
1.084720e+003, 9.562000e+003
1.085202e+003, 9.592024e+003
1.085684e+003, 9.621304e+003
1.086166e+003, 9.648806e+003
1.086648e+003, 9.671042e+003
1.087130e+003, 9.695991e+003
1.087612e+003, 9.703481e+003
1.088094e+003, 9.678498e+003
1.088577e+003, 9.635223e+003
1.089059e+003, 9.579837e+003
1.089541e+003, 9.519295e+003
1.090023e+003, 9.464038e+003
1.090505e+003, 9.415839e+003
1.090987e+003, 9.373833e+003
1.091469e+003, 9.340958e+003
1.091951e+003, 9.309638e+003
1.092433e+003, 9.275481e+003
1.092916e+003, 9.242848e+003
1.093398e+003, 9.215436e+003
1.093880e+003, 9.192324e+003
1.094362e+003, 9.171229e+003
1.094844e+003, 9.152024e+003
1.095326e+003, 9.137075e+003
1.095808e+003, 9.130384e+003
1.096290e+003, 9.123395e+003
1.096772e+003, 9.111893e+003
1.097255e+003, 9.100762e+003
1.097737e+003, 9.093876e+003
1.098219e+003, 9.088635e+003
1.098701e+003, 9.081124e+003
1.099183e+003, 9.071374e+003
1.099665e+003, 9.062557e+003
1.100147e+003, 9.056411e+003
1.100629e+003, 9.048919e+003
1.101112e+003, 9.036682e+003
1.101594e+003, 9.025603e+003
1.102076e+003, 9.018229e+003
1.102558e+003, 9.013649e+003
1.103040e+003, 9.012541e+003
1.103522e+003, 9.013312e+003
1.104004e+003, 9.010285e+003
1.104486e+003, 9.000662e+003
1.104969e+003, 8.993499e+003
1.105451e+003, 8.992107e+003
1.105933e+003, 8.991202e+003
1.106415e+003, 8.991266e+003
1.106897e+003, 8.988978e+003
1.107379e+003, 8.980484e+003
1.107861e+003, 8.967837e+003
1.108343e+003, 8.955713e+003
1.108825e+003, 8.944092e+003
1.109307e+003, 8.934956e+003
1.109790e+003, 8.929229e+003
1.110272e+003, 8.924896e+003
1.110754e+003, 8.923529e+003
1.111236e+003, 8.921429e+003
1.111718e+003, 8.915354e+003
1.112200e+003, 8.907643e+003
1.112682e+003, 8.902995e+003
1.113164e+003, 8.901843e+003
1.113647e+003, 8.896544e+003
1.114129e+003, 8.885651e+003
1.114611e+003, 8.873032e+003
1.115093e+003, 8.854108e+003
1.115575e+003, 8.840356e+003
1.116057e+003, 8.840431e+003
1.116539e+003, 8.844676e+003
1.117021e+003, 8.842431e+003
1.117504e+003, 8.834297e+003
1.117986e+003, 8.824339e+003
1.118468e+003, 8.808709e+003
1.118950e+003, 8.800979e+003
1.119432e+003, 8.806804e+003
1.119914e+003, 8.809011e+003
1.120396e+003, 8.799826e+003
1.120878e+003, 8.789216e+003
1.121360e+003, 8.786375e+003
1.121843e+003, 8.788137e+003
1.122325e+003, 8.785054e+003
1.122807e+003, 8.776264e+003
1.123289e+003, 8.767951e+003
1.123771e+003, 8.760074e+003
1.124253e+003, 8.752886e+003
1.124735e+003, 8.746630e+003
1.125217e+003, 8.740603e+003
1.125699e+003, 8.734458e+003
1.126182e+003, 8.728062e+003
1.126664e+003, 8.720972e+003
1.127146e+003, 8.713331e+003
1.127628e+003, 8.708417e+003
1.128110e+003, 8.706893e+003
1.128592e+003, 8.700985e+003
1.129074e+003, 8.688628e+003
1.129556e+003, 8.680657e+003
1.130039e+003, 8.682651e+003
1.130521e+003, 8.687082e+003
1.131003e+003, 8.685318e+003
1.131485e+003, 8.679130e+003
1.131967e+003, 8.674634e+003
1.132449e+003, 8.671746e+003
1.132931e+003, 8.669666e+003
1.133413e+003, 8.668255e+003
1.133896e+003, 8.665365e+003
1.134378e+003, 8.660342e+003
1.134860e+003, 8.653389e+003
1.135342e+003, 8.644455e+003
1.135824e+003, 8.634826e+003
1.136306e+003, 8.626341e+003
1.136788e+003, 8.619222e+003
1.137270e+003, 8.614824e+003
1.137752e+003, 8.612656e+003
1.138234e+003, 8.610197e+003
1.138717e+003, 8.607123e+003
1.139199e+003, 8.605347e+003
1.139681e+003, 8.605857e+003
1.140163e+003, 8.605388e+003
1.140645e+003, 8.600322e+003
1.141127e+003, 8.591757e+003
1.141609e+003, 8.579688e+003
1.142091e+003, 8.566487e+003
1.142574e+003, 8.557238e+003
1.143056e+003, 8.552036e+003
1.143538e+003, 8.550155e+003
1.144020e+003, 8.550663e+003
1.144502e+003, 8.548604e+003
1.144984e+003, 8.539145e+003
1.145466e+003, 8.528821e+003
1.145948e+003, 8.525232e+003
1.146431e+003, 8.524078e+003
1.146913e+003, 8.520264e+003
1.147395e+003, 8.514535e+003
1.147877e+003, 8.508043e+003
1.148359e+003, 8.501698e+003
1.148841e+003, 8.498245e+003
1.149323e+003, 8.499596e+003
1.149805e+003, 8.499043e+003
1.150287e+003, 8.489787e+003
1.150770e+003, 8.480009e+003
1.151252e+003, 8.476265e+003
1.151734e+003, 8.474610e+003
1.152216e+003, 8.470332e+003
1.152698e+003, 8.464500e+003
1.153180e+003, 8.461514e+003
1.153662e+003, 8.462269e+003
1.154144e+003, 8.459329e+003
1.154626e+003, 8.446716e+003
1.155109e+003, 8.435042e+003
1.155591e+003, 8.427541e+003
1.156073e+003, 8.422397e+003
1.156555e+003, 8.419521e+003
1.157037e+003, 8.417630e+003
1.157519e+003, 8.416414e+003
1.158001e+003, 8.415090e+003
1.158483e+003, 8.409021e+003
1.158966e+003, 8.394572e+003
1.159448e+003, 8.382150e+003
1.159930e+003, 8.370790e+003
1.160412e+003, 8.363733e+003
1.160894e+003, 8.364448e+003
1.161376e+003, 8.366749e+003
1.161858e+003, 8.366899e+003
1.162340e+003, 8.364966e+003
1.162822e+003, 8.360866e+003
1.163305e+003, 8.354370e+003
1.163787e+003, 8.348052e+003
1.164269e+003, 8.341955e+003
1.164751e+003, 8.335761e+003
1.165233e+003, 8.328859e+003
1.165715e+003, 8.323924e+003
1.166197e+003, 8.323033e+003
1.166679e+003, 8.322239e+003
1.167161e+003, 8.316125e+003
1.167644e+003, 8.306959e+003
1.168126e+003, 8.305621e+003
1.168608e+003, 8.312590e+003
1.169090e+003, 8.311131e+003
1.169572e+003, 8.300298e+003
1.170054e+003, 8.289747e+003
1.170536e+003, 8.282080e+003
1.171018e+003, 8.277565e+003
1.171500e+003, 8.276729e+003
1.171983e+003, 8.276843e+003
1.172465e+003, 8.273433e+003
1.172947e+003, 8.267454e+003
1.173429e+003, 8.261987e+003
1.173911e+003, 8.256771e+003
1.174393e+003, 8.249834e+003
1.174875e+003, 8.241795e+003
1.175357e+003, 8.237771e+003
1.175840e+003, 8.239186e+003
1.176322e+003, 8.238525e+003
1.176804e+003, 8.228210e+003
1.177286e+003, 8.215872e+003
1.177768e+003, 8.211606e+003
1.178250e+003, 8.210910e+003
1.178732e+003, 8.208358e+003
1.179214e+003, 8.203676e+003
1.179697e+003, 8.196407e+003
1.180179e+003, 8.187338e+003
1.180661e+003, 8.179679e+003
1.181143e+003, 8.174903e+003
1.181625e+003, 8.170190e+003
1.182107e+003, 8.163046e+003
1.182589e+003, 8.156342e+003
1.183071e+003, 8.152473e+003
1.183553e+003, 8.149484e+003
1.184036e+003, 8.146270e+003
1.184518e+003, 8.142151e+003
1.185000e+003, 8.135883e+003
1.185482e+003, 8.127437e+003
1.185964e+003, 8.119273e+003
1.186446e+003, 8.112339e+003
1.186928e+003, 8.105149e+003
1.187410e+003, 8.095278e+003
1.187892e+003, 8.087917e+003
1.188375e+003, 8.087963e+003
1.188857e+003, 8.089266e+003
1.189339e+003, 8.085869e+003
1.189821e+003, 8.079420e+003
1.190303e+003, 8.075070e+003
1.190785e+003, 8.073970e+003
1.191267e+003, 8.067855e+003
1.191749e+003, 8.053662e+003
1.192232e+003, 8.043249e+003
1.192714e+003, 8.039245e+003
1.193196e+003, 8.036841e+003
1.193678e+003, 8.033499e+003
1.194160e+003, 8.031072e+003
1.194642e+003, 8.032423e+003
1.195124e+003, 8.035849e+003
1.195606e+003, 8.034964e+003
1.196089e+003, 8.029798e+003
1.196571e+003, 8.020561e+003
1.197053e+003, 8.007592e+003
1.197535e+003, 7.996392e+003
1.198017e+003, 7.988456e+003
1.198499e+003, 7.984442e+003
1.198981e+003, 7.985032e+003
1.199463e+003, 7.986044e+003
1.199945e+003, 7.981078e+003
1.200427e+003, 7.973357e+003
1.200910e+003, 7.970579e+003
1.201392e+003, 7.969524e+003
1.201874e+003, 7.961689e+003
1.202356e+003, 7.948922e+003
1.202838e+003, 7.939295e+003
1.203320e+003, 7.934681e+003
1.203802e+003, 7.930625e+003
1.204284e+003, 7.924266e+003
1.204767e+003, 7.918479e+003
1.205249e+003, 7.917858e+003
1.205731e+003, 7.916157e+003
1.206213e+003, 7.906362e+003
1.206695e+003, 7.893854e+003
1.207177e+003, 7.885185e+003
1.207659e+003, 7.879666e+003
1.208141e+003, 7.873558e+003
1.208624e+003, 7.866118e+003
1.209106e+003, 7.859003e+003
1.209588e+003, 7.852769e+003
1.210070e+003, 7.846731e+003
1.210552e+003, 7.839982e+003
1.211034e+003, 7.834203e+003
1.211516e+003, 7.830891e+003
1.211998e+003, 7.828333e+003
1.212480e+003, 7.825472e+003
1.212963e+003, 7.821735e+003
1.213445e+003, 7.814845e+003
1.213927e+003, 7.803740e+003
1.214409e+003, 7.794144e+003
1.214891e+003, 7.785693e+003
1.215373e+003, 7.780442e+003
1.215855e+003, 7.779518e+003
1.216337e+003, 7.778689e+003
1.216819e+003, 7.776205e+003
1.217302e+003, 7.770322e+003
1.217784e+003, 7.758046e+003
1.218266e+003, 7.742217e+003
1.218748e+003, 7.731566e+003
1.219230e+003, 7.725398e+003
1.219712e+003, 7.720384e+003
1.220194e+003, 7.716092e+003
1.220676e+003, 7.711616e+003
1.221159e+003, 7.706598e+003
1.221641e+003, 7.699842e+003
1.222123e+003, 7.690593e+003
1.222605e+003, 7.681458e+003
1.223087e+003, 7.675156e+003
1.223569e+003, 7.670111e+003
1.224051e+003, 7.662690e+003
1.224533e+003, 7.656672e+003
1.225016e+003, 7.659692e+003
1.225498e+003, 7.666913e+003
1.225980e+003, 7.668042e+003
1.226462e+003, 7.662080e+003
1.226944e+003, 7.656164e+003
1.227426e+003, 7.653344e+003
1.227908e+003, 7.648714e+003
1.228390e+003, 7.636827e+003
1.228872e+003, 7.627654e+003
1.229354e+003, 7.629103e+003
1.229837e+003, 7.631222e+003
1.230319e+003, 7.624788e+003
1.230801e+003, 7.614423e+003
1.231283e+003, 7.609231e+003
1.231765e+003, 7.609009e+003
1.232247e+003, 7.605447e+003
1.232729e+003, 7.598157e+003
1.233211e+003, 7.588334e+003
1.233694e+003, 7.574158e+003
1.234176e+003, 7.564885e+003
1.234658e+003, 7.564421e+003
1.235140e+003, 7.564664e+003
1.235622e+003, 7.559888e+003
1.236104e+003, 7.551687e+003
1.236586e+003, 7.541970e+003
1.237068e+003, 7.531559e+003
1.237551e+003, 7.524018e+003
1.238033e+003, 7.518838e+003
1.238515e+003, 7.514304e+003
1.238997e+003, 7.509722e+003
1.239479e+003, 7.502174e+003
1.239961e+003, 7.491501e+003
1.240443e+003, 7.483134e+003
1.240925e+003, 7.481134e+003
1.241407e+003, 7.479315e+003
1.241890e+003, 7.468828e+003
1.242372e+003, 7.458714e+003
1.242854e+003, 7.461317e+003
1.243336e+003, 7.466803e+003
1.243818e+003, 7.460921e+003
1.244300e+003, 7.448569e+003
1.244782e+003, 7.443218e+003
1.245264e+003, 7.446502e+003
1.245746e+003, 7.447678e+003
1.246229e+003, 7.442831e+003
1.246711e+003, 7.437834e+003
1.247193e+003, 7.435362e+003
1.247675e+003, 7.430483e+003
1.248157e+003, 7.419187e+003
1.248639e+003, 7.407610e+003
1.249121e+003, 7.398836e+003
1.249603e+003, 7.393838e+003
1.250085e+003, 7.395749e+003
1.250568e+003, 7.403732e+003
1.251050e+003, 7.402753e+003
1.251532e+003, 7.391662e+003
1.252014e+003, 7.383923e+003
1.252496e+003, 7.380604e+003
1.252978e+003, 7.378248e+003
1.253460e+003, 7.375790e+003
1.253942e+003, 7.370960e+003
1.254425e+003, 7.361820e+003
1.254907e+003, 7.353871e+003
1.255389e+003, 7.358279e+003
1.255871e+003, 7.366607e+003
1.256353e+003, 7.361365e+003
1.256835e+003, 7.349130e+003
1.257317e+003, 7.341656e+003
1.257799e+003, 7.338406e+003
1.258281e+003, 7.334677e+003
1.258764e+003, 7.329685e+003
1.259246e+003, 7.325946e+003
1.259728e+003, 7.325251e+003
1.260210e+003, 7.323310e+003
1.260692e+003, 7.316070e+003
1.261174e+003, 7.309863e+003
1.261656e+003, 7.309168e+003
1.262138e+003, 7.309113e+003
1.262620e+003, 7.305617e+003
1.263103e+003, 7.300393e+003
1.263585e+003, 7.296780e+003
1.264067e+003, 7.294338e+003
1.264549e+003, 7.289397e+003
1.265031e+003, 7.280058e+003
1.265513e+003, 7.274921e+003
1.265995e+003, 7.275452e+003
1.266477e+003, 7.273250e+003
1.266960e+003, 7.266038e+003
1.267442e+003, 7.258469e+003
1.267924e+003, 7.253119e+003
1.268406e+003, 7.248748e+003
1.268888e+003, 7.243760e+003
1.269370e+003, 7.238838e+003
1.269852e+003, 7.236174e+003
1.270334e+003, 7.234549e+003
1.270817e+003, 7.230451e+003
1.271299e+003, 7.224713e+003
1.271781e+003, 7.221017e+003
1.272263e+003, 7.218688e+003
1.272745e+003, 7.211909e+003
1.273227e+003, 7.198469e+003
1.273709e+003, 7.186409e+003
1.274191e+003, 7.181420e+003
1.274673e+003, 7.177800e+003
1.275156e+003, 7.171031e+003
1.275638e+003, 7.166447e+003
1.276120e+003, 7.170206e+003
1.276602e+003, 7.175938e+003
1.277084e+003, 7.175880e+003
1.277566e+003, 7.171563e+003
1.278048e+003, 7.169718e+003
1.278530e+003, 7.171264e+003
1.279012e+003, 7.166404e+003
1.279495e+003, 7.151532e+003
1.279977e+003, 7.142330e+003
1.280459e+003, 7.141452e+003
1.280941e+003, 7.143756e+003
1.281423e+003, 7.147950e+003
1.281905e+003, 7.148979e+003
1.282387e+003, 7.142572e+003
1.282869e+003, 7.132388e+003
1.283352e+003, 7.123045e+003
1.283834e+003, 7.114727e+003
1.284316e+003, 7.107346e+003
1.284798e+003, 7.101240e+003
##END=



