##NAMES=Pyroxferroite
##RRUFFID=R140465
##IDEAL CHEMISTRY=Fe^2+^SiO_3_
##LOCALITY=Isanago mine, Ohro, Kyotango city, Kyoto Prefecture, Kinki Region, Honshu Island, Japan
##OWNER=RRUFF
##SOURCE=Rock Currier
##DESCRIPTION=Vitreous pinkish granular crystals, associated with black magnetite.
##STATUS=The identification of this mineral has been confirmed by single-crystal X-ray diffraction.
##URL=rruff.info/R140465
8.930109e+001, 0.000000e+000
8.978320e+001, 6.812574e+002
9.026532e+001, 6.790394e+002
9.074744e+001, 6.794608e+002
9.122955e+001, 6.837062e+002
9.171167e+001, 6.897283e+002
9.219379e+001, 6.949710e+002
9.267590e+001, 6.997690e+002
9.315802e+001, 7.032297e+002
9.364014e+001, 7.048458e+002
9.412225e+001, 7.047990e+002
9.460437e+001, 7.028911e+002
9.508649e+001, 6.980036e+002
9.556860e+001, 6.917126e+002
9.605072e+001, 6.889387e+002
9.653284e+001, 6.905701e+002
9.701495e+001, 6.926674e+002
9.749707e+001, 6.905695e+002
9.797919e+001, 6.843891e+002
9.846130e+001, 6.789984e+002
9.894342e+001, 6.757391e+002
9.942554e+001, 6.744736e+002
9.990765e+001, 6.742803e+002
1.003898e+002, 6.752854e+002
1.008719e+002, 6.769873e+002
1.013540e+002, 6.789424e+002
1.018361e+002, 6.814891e+002
1.023182e+002, 6.831774e+002
1.028004e+002, 6.832267e+002
1.032825e+002, 6.810618e+002
1.037646e+002, 6.799911e+002
1.042467e+002, 6.802081e+002
1.047288e+002, 6.814100e+002
1.052109e+002, 6.828331e+002
1.056931e+002, 6.841277e+002
1.061752e+002, 6.861868e+002
1.066573e+002, 6.894402e+002
1.071394e+002, 6.941114e+002
1.076215e+002, 6.995642e+002
1.081036e+002, 7.064816e+002
1.085858e+002, 7.144438e+002
1.090679e+002, 7.210104e+002
1.095500e+002, 7.264553e+002
1.100321e+002, 7.305025e+002
1.105142e+002, 7.329944e+002
1.109963e+002, 7.311719e+002
1.114785e+002, 7.309357e+002
1.119606e+002, 7.334073e+002
1.124427e+002, 7.384806e+002
1.129248e+002, 7.435392e+002
1.134069e+002, 7.476557e+002
1.138890e+002, 7.518741e+002
1.143712e+002, 7.570879e+002
1.148533e+002, 7.640302e+002
1.153354e+002, 7.714288e+002
1.158175e+002, 7.790604e+002
1.162996e+002, 7.870642e+002
1.167817e+002, 7.946661e+002
1.172639e+002, 8.019825e+002
1.177460e+002, 8.087436e+002
1.182281e+002, 8.145999e+002
1.187102e+002, 8.195139e+002
1.191923e+002, 8.234520e+002
1.196744e+002, 8.262911e+002
1.201566e+002, 8.279687e+002
1.206387e+002, 8.287809e+002
1.211208e+002, 8.285761e+002
1.216029e+002, 8.276031e+002
1.220850e+002, 8.263723e+002
1.225671e+002, 8.246237e+002
1.230493e+002, 8.229345e+002
1.235314e+002, 8.218198e+002
1.240135e+002, 8.212578e+002
1.244956e+002, 8.214589e+002
1.249777e+002, 8.234495e+002
1.254598e+002, 8.266608e+002
1.259420e+002, 8.289572e+002
1.264241e+002, 8.282471e+002
1.269062e+002, 8.257332e+002
1.273883e+002, 8.235715e+002
1.278704e+002, 8.221352e+002
1.283525e+002, 8.213220e+002
1.288347e+002, 8.208817e+002
1.293168e+002, 8.208340e+002
1.297989e+002, 8.215395e+002
1.302810e+002, 8.239371e+002
1.307631e+002, 8.275259e+002
1.312452e+002, 8.302886e+002
1.317274e+002, 8.314193e+002
1.322095e+002, 8.315465e+002
1.326916e+002, 8.325265e+002
1.331737e+002, 8.345151e+002
1.336558e+002, 8.363798e+002
1.341379e+002, 8.369324e+002
1.346201e+002, 8.361965e+002
1.351022e+002, 8.353048e+002
1.355843e+002, 8.346580e+002
1.360664e+002, 8.341755e+002
1.365485e+002, 8.331819e+002
1.370306e+002, 8.315521e+002
1.375128e+002, 8.296903e+002
1.379949e+002, 8.280856e+002
1.384770e+002, 8.268126e+002
1.389591e+002, 8.253559e+002
1.394412e+002, 8.232703e+002
1.399233e+002, 8.204402e+002
1.404055e+002, 8.188674e+002
1.408876e+002, 8.191113e+002
1.413697e+002, 8.200071e+002
1.418518e+002, 8.196335e+002
1.423339e+002, 8.176726e+002
1.428160e+002, 8.151410e+002
1.432982e+002, 8.122158e+002
1.437803e+002, 8.085666e+002
1.442624e+002, 8.056544e+002
1.447445e+002, 8.035312e+002
1.452266e+002, 8.021434e+002
1.457087e+002, 8.015049e+002
1.461909e+002, 8.021540e+002
1.466730e+002, 8.028682e+002
1.471551e+002, 8.031495e+002
1.476372e+002, 8.025491e+002
1.481193e+002, 8.022982e+002
1.486014e+002, 8.025684e+002
1.490836e+002, 8.032222e+002
1.495657e+002, 8.037800e+002
1.500478e+002, 8.041529e+002
1.505299e+002, 8.044941e+002
1.510120e+002, 8.048707e+002
1.514941e+002, 8.051819e+002
1.519763e+002, 8.056261e+002
1.524584e+002, 8.062182e+002
1.529405e+002, 8.069418e+002
1.534226e+002, 8.077455e+002
1.539047e+002, 8.087001e+002
1.543868e+002, 8.096752e+002
1.548690e+002, 8.105984e+002
1.553511e+002, 8.113899e+002
1.558332e+002, 8.121989e+002
1.563153e+002, 8.130920e+002
1.567974e+002, 8.140490e+002
1.572795e+002, 8.148966e+002
1.577617e+002, 8.158225e+002
1.582438e+002, 8.165209e+002
1.587259e+002, 8.167731e+002
1.592080e+002, 8.156057e+002
1.596901e+002, 8.148896e+002
1.601722e+002, 8.154055e+002
1.606544e+002, 8.171081e+002
1.611365e+002, 8.188123e+002
1.616186e+002, 8.205442e+002
1.621007e+002, 8.218938e+002
1.625828e+002, 8.225195e+002
1.630649e+002, 8.211143e+002
1.635471e+002, 8.199257e+002
1.640292e+002, 8.203327e+002
1.645113e+002, 8.223756e+002
1.649934e+002, 8.240748e+002
1.654755e+002, 8.241326e+002
1.659576e+002, 8.233484e+002
1.664398e+002, 8.227152e+002
1.669219e+002, 8.229102e+002
1.674040e+002, 8.231552e+002
1.678861e+002, 8.227661e+002
1.683682e+002, 8.216627e+002
1.688503e+002, 8.207996e+002
1.693325e+002, 8.210507e+002
1.698146e+002, 8.219276e+002
1.702967e+002, 8.226348e+002
1.707788e+002, 8.224897e+002
1.712609e+002, 8.222275e+002
1.717430e+002, 8.226975e+002
1.722252e+002, 8.240565e+002
1.727073e+002, 8.252635e+002
1.731894e+002, 8.251039e+002
1.736715e+002, 8.241390e+002
1.741536e+002, 8.236270e+002
1.746357e+002, 8.248656e+002
1.751179e+002, 8.265978e+002
1.756000e+002, 8.269915e+002
1.760821e+002, 8.256396e+002
1.765642e+002, 8.243838e+002
1.770463e+002, 8.255368e+002
1.775284e+002, 8.283969e+002
1.780106e+002, 8.307903e+002
1.784927e+002, 8.311210e+002
1.789748e+002, 8.303400e+002
1.794569e+002, 8.299581e+002
1.799390e+002, 8.300974e+002
1.804211e+002, 8.307267e+002
1.809033e+002, 8.321038e+002
1.813854e+002, 8.340803e+002
1.818675e+002, 8.358958e+002
1.823496e+002, 8.369645e+002
1.828317e+002, 8.375635e+002
1.833138e+002, 8.384233e+002
1.837960e+002, 8.396472e+002
1.842781e+002, 8.410344e+002
1.847602e+002, 8.423214e+002
1.852423e+002, 8.435167e+002
1.857244e+002, 8.446155e+002
1.862065e+002, 8.456395e+002
1.866887e+002, 8.465676e+002
1.871708e+002, 8.473389e+002
1.876529e+002, 8.479130e+002
1.881350e+002, 8.483746e+002
1.886171e+002, 8.488386e+002
1.890992e+002, 8.493060e+002
1.895814e+002, 8.497740e+002
1.900635e+002, 8.502808e+002
1.905456e+002, 8.508133e+002
1.910277e+002, 8.511935e+002
1.915098e+002, 8.513423e+002
1.919919e+002, 8.514359e+002
1.924741e+002, 8.518769e+002
1.929562e+002, 8.526785e+002
1.934383e+002, 8.535198e+002
1.939204e+002, 8.541152e+002
1.944025e+002, 8.544870e+002
1.948846e+002, 8.550754e+002
1.953668e+002, 8.560015e+002
1.958489e+002, 8.570887e+002
1.963310e+002, 8.579163e+002
1.968131e+002, 8.584634e+002
1.972952e+002, 8.588867e+002
1.977773e+002, 8.591912e+002
1.982595e+002, 8.593645e+002
1.987416e+002, 8.599242e+002
1.992237e+002, 8.611519e+002
1.997058e+002, 8.626268e+002
2.001879e+002, 8.629254e+002
2.006700e+002, 8.617748e+002
2.011522e+002, 8.607236e+002
2.016343e+002, 8.610707e+002
2.021164e+002, 8.630106e+002
2.025985e+002, 8.643496e+002
2.030806e+002, 8.646251e+002
2.035627e+002, 8.642285e+002
2.040449e+002, 8.645139e+002
2.045270e+002, 8.656967e+002
2.050091e+002, 8.668328e+002
2.054912e+002, 8.670545e+002
2.059733e+002, 8.660905e+002
2.064554e+002, 8.658615e+002
2.069376e+002, 8.667654e+002
2.074197e+002, 8.685072e+002
2.079018e+002, 8.700948e+002
2.083839e+002, 8.716146e+002
2.088660e+002, 8.727764e+002
2.093481e+002, 8.732214e+002
2.098303e+002, 8.727267e+002
2.103124e+002, 8.725641e+002
2.107945e+002, 8.728492e+002
2.112766e+002, 8.735875e+002
2.117587e+002, 8.749190e+002
2.122408e+002, 8.771473e+002
2.127230e+002, 8.793503e+002
2.132051e+002, 8.807883e+002
2.136872e+002, 8.810665e+002
2.141693e+002, 8.819766e+002
2.146514e+002, 8.839583e+002
2.151335e+002, 8.866929e+002
2.156157e+002, 8.886186e+002
2.160978e+002, 8.895101e+002
2.165799e+002, 8.899859e+002
2.170620e+002, 8.904504e+002
2.175441e+002, 8.909631e+002
2.180262e+002, 8.912084e+002
2.185084e+002, 8.909465e+002
2.189905e+002, 8.903793e+002
2.194726e+002, 8.905432e+002
2.199547e+002, 8.916351e+002
2.204368e+002, 8.931407e+002
2.209189e+002, 8.948520e+002
2.214011e+002, 8.971264e+002
2.218832e+002, 8.987196e+002
2.223653e+002, 8.993577e+002
2.228474e+002, 8.992559e+002
2.233295e+002, 8.993480e+002
2.238116e+002, 8.996251e+002
2.242938e+002, 9.001182e+002
2.247759e+002, 9.008933e+002
2.252580e+002, 9.021110e+002
2.257401e+002, 9.031926e+002
2.262222e+002, 9.040971e+002
2.267043e+002, 9.048244e+002
2.271865e+002, 9.053984e+002
2.276686e+002, 9.056599e+002
2.281507e+002, 9.059705e+002
2.286328e+002, 9.066156e+002
2.291149e+002, 9.079843e+002
2.295970e+002, 9.087175e+002
2.300792e+002, 9.083776e+002
2.305613e+002, 9.073491e+002
2.310434e+002, 9.071408e+002
2.315255e+002, 9.079439e+002
2.320076e+002, 9.093109e+002
2.324897e+002, 9.111427e+002
2.329719e+002, 9.140102e+002
2.334540e+002, 9.160436e+002
2.339361e+002, 9.168085e+002
2.344182e+002, 9.167365e+002
2.349003e+002, 9.173745e+002
2.353824e+002, 9.191251e+002
2.358646e+002, 9.210105e+002
2.363467e+002, 9.225170e+002
2.368288e+002, 9.233566e+002
2.373109e+002, 9.244408e+002
2.377930e+002, 9.258782e+002
2.382751e+002, 9.275447e+002
2.387573e+002, 9.290672e+002
2.392394e+002, 9.305245e+002
2.397215e+002, 9.316820e+002
2.402036e+002, 9.323161e+002
2.406857e+002, 9.318124e+002
2.411678e+002, 9.321882e+002
2.416500e+002, 9.338534e+002
2.421321e+002, 9.362668e+002
2.426142e+002, 9.380903e+002
2.430963e+002, 9.391027e+002
2.435784e+002, 9.398271e+002
2.440605e+002, 9.403861e+002
2.445427e+002, 9.404996e+002
2.450248e+002, 9.412606e+002
2.455069e+002, 9.431759e+002
2.459890e+002, 9.455551e+002
2.464711e+002, 9.467326e+002
2.469532e+002, 9.459052e+002
2.474354e+002, 9.452539e+002
2.479175e+002, 9.457522e+002
2.483996e+002, 9.479840e+002
2.488817e+002, 9.495049e+002
2.493638e+002, 9.500956e+002
2.498459e+002, 9.501252e+002
2.503281e+002, 9.502299e+002
2.508102e+002, 9.503633e+002
2.512923e+002, 9.506790e+002
2.517744e+002, 9.511920e+002
2.522565e+002, 9.518295e+002
2.527386e+002, 9.530491e+002
2.532208e+002, 9.552420e+002
2.537029e+002, 9.577303e+002
2.541850e+002, 9.593873e+002
2.546671e+002, 9.596561e+002
2.551492e+002, 9.601635e+002
2.556313e+002, 9.614597e+002
2.561135e+002, 9.636613e+002
2.565956e+002, 9.656847e+002
2.570777e+002, 9.672997e+002
2.575598e+002, 9.688965e+002
2.580419e+002, 9.710781e+002
2.585240e+002, 9.741349e+002
2.590062e+002, 9.770316e+002
2.594883e+002, 9.795333e+002
2.599704e+002, 9.815930e+002
2.604525e+002, 9.832034e+002
2.609346e+002, 9.840841e+002
2.614167e+002, 9.848446e+002
2.618989e+002, 9.862572e+002
2.623810e+002, 9.886011e+002
2.628631e+002, 9.908527e+002
2.633452e+002, 9.927043e+002
2.638273e+002, 9.941973e+002
2.643094e+002, 9.960309e+002
2.647916e+002, 9.984588e+002
2.652737e+002, 1.000916e+003
2.657558e+002, 1.002829e+003
2.662379e+002, 1.004000e+003
2.667200e+002, 1.005310e+003
2.672021e+002, 1.007141e+003
2.676843e+002, 1.009355e+003
2.681664e+002, 1.010504e+003
2.686485e+002, 1.010148e+003
2.691306e+002, 1.009616e+003
2.696127e+002, 1.010173e+003
2.700948e+002, 1.012144e+003
2.705770e+002, 1.013623e+003
2.710591e+002, 1.014086e+003
2.715412e+002, 1.013795e+003
2.720233e+002, 1.014202e+003
2.725054e+002, 1.015563e+003
2.729875e+002, 1.016859e+003
2.734697e+002, 1.017083e+003
2.739518e+002, 1.015938e+003
2.744339e+002, 1.015811e+003
2.749160e+002, 1.017396e+003
2.753981e+002, 1.019935e+003
2.758802e+002, 1.020932e+003
2.763624e+002, 1.020007e+003
2.768445e+002, 1.019010e+003
2.773266e+002, 1.019136e+003
2.778087e+002, 1.020457e+003
2.782908e+002, 1.022000e+003
2.787729e+002, 1.023813e+003
2.792551e+002, 1.025675e+003
2.797372e+002, 1.027020e+003
2.802193e+002, 1.027816e+003
2.807014e+002, 1.028353e+003
2.811835e+002, 1.028615e+003
2.816656e+002, 1.028615e+003
2.821478e+002, 1.029062e+003
2.826299e+002, 1.029987e+003
2.831120e+002, 1.031364e+003
2.835941e+002, 1.033428e+003
2.840762e+002, 1.036240e+003
2.845583e+002, 1.038634e+003
2.850405e+002, 1.039805e+003
2.855226e+002, 1.039924e+003
2.860047e+002, 1.040626e+003
2.864868e+002, 1.041996e+003
2.869689e+002, 1.043689e+003
2.874510e+002, 1.045207e+003
2.879332e+002, 1.046563e+003
2.884153e+002, 1.048152e+003
2.888974e+002, 1.050373e+003
2.893795e+002, 1.052940e+003
2.898616e+002, 1.054654e+003
2.903438e+002, 1.055451e+003
2.908259e+002, 1.055813e+003
2.913080e+002, 1.056056e+003
2.917901e+002, 1.056236e+003
2.922722e+002, 1.056724e+003
2.927543e+002, 1.057711e+003
2.932365e+002, 1.059044e+003
2.937186e+002, 1.060615e+003
2.942007e+002, 1.062425e+003
2.946828e+002, 1.063743e+003
2.951649e+002, 1.063353e+003
2.956470e+002, 1.061832e+003
2.961292e+002, 1.061139e+003
2.966113e+002, 1.062131e+003
2.970934e+002, 1.063829e+003
2.975755e+002, 1.064629e+003
2.980576e+002, 1.064612e+003
2.985397e+002, 1.064552e+003
2.990219e+002, 1.065055e+003
2.995040e+002, 1.065943e+003
2.999861e+002, 1.066872e+003
3.004682e+002, 1.067882e+003
3.009503e+002, 1.068722e+003
3.014324e+002, 1.068820e+003
3.019146e+002, 1.068392e+003
3.023967e+002, 1.068316e+003
3.028788e+002, 1.069534e+003
3.033609e+002, 1.071328e+003
3.038430e+002, 1.072600e+003
3.043251e+002, 1.073115e+003
3.048073e+002, 1.073421e+003
3.052894e+002, 1.074059e+003
3.057715e+002, 1.074876e+003
3.062536e+002, 1.075534e+003
3.067357e+002, 1.075613e+003
3.072178e+002, 1.075537e+003
3.077000e+002, 1.075676e+003
3.081821e+002, 1.076035e+003
3.086642e+002, 1.076670e+003
3.091463e+002, 1.077789e+003
3.096284e+002, 1.079160e+003
3.101105e+002, 1.080446e+003
3.105927e+002, 1.081409e+003
3.110748e+002, 1.082277e+003
3.115569e+002, 1.083181e+003
3.120390e+002, 1.084130e+003
3.125211e+002, 1.085186e+003
3.130032e+002, 1.086761e+003
3.134854e+002, 1.088352e+003
3.139675e+002, 1.089406e+003
3.144496e+002, 1.088750e+003
3.149317e+002, 1.088433e+003
3.154138e+002, 1.089780e+003
3.158959e+002, 1.092530e+003
3.163781e+002, 1.095062e+003
3.168602e+002, 1.096846e+003
3.173423e+002, 1.098038e+003
3.178244e+002, 1.098678e+003
3.183065e+002, 1.098142e+003
3.187886e+002, 1.097967e+003
3.192708e+002, 1.098794e+003
3.197529e+002, 1.100384e+003
3.202350e+002, 1.102072e+003
3.207171e+002, 1.103854e+003
3.211992e+002, 1.105505e+003
3.216813e+002, 1.106843e+003
3.221635e+002, 1.107589e+003
3.226456e+002, 1.108561e+003
3.231277e+002, 1.110069e+003
3.236098e+002, 1.111858e+003
3.240919e+002, 1.113516e+003
3.245740e+002, 1.114778e+003
3.250562e+002, 1.116048e+003
3.255383e+002, 1.117557e+003
3.260204e+002, 1.119506e+003
3.265025e+002, 1.120919e+003
3.269846e+002, 1.121089e+003
3.274667e+002, 1.120971e+003
3.279489e+002, 1.121587e+003
3.284310e+002, 1.123861e+003
3.289131e+002, 1.125882e+003
3.293952e+002, 1.127350e+003
3.298773e+002, 1.128264e+003
3.303594e+002, 1.129117e+003
3.308416e+002, 1.129980e+003
3.313237e+002, 1.130723e+003
3.318058e+002, 1.131249e+003
3.322879e+002, 1.131514e+003
3.327700e+002, 1.131581e+003
3.332521e+002, 1.131100e+003
3.337343e+002, 1.130359e+003
3.342164e+002, 1.130949e+003
3.346985e+002, 1.133795e+003
3.351806e+002, 1.136492e+003
3.356627e+002, 1.137680e+003
3.361448e+002, 1.136844e+003
3.366270e+002, 1.135995e+003
3.371091e+002, 1.135153e+003
3.375912e+002, 1.134357e+003
3.380733e+002, 1.133737e+003
3.385554e+002, 1.133408e+003
3.390375e+002, 1.132936e+003
3.395197e+002, 1.132221e+003
3.400018e+002, 1.131287e+003
3.404839e+002, 1.129669e+003
3.409660e+002, 1.127138e+003
3.414481e+002, 1.124485e+003
3.419302e+002, 1.122782e+003
3.424124e+002, 1.122053e+003
3.428945e+002, 1.121786e+003
3.433766e+002, 1.122273e+003
3.438587e+002, 1.123076e+003
3.443408e+002, 1.121907e+003
3.448229e+002, 1.118554e+003
3.453051e+002, 1.114671e+003
3.457872e+002, 1.111549e+003
3.462693e+002, 1.109167e+003
3.467514e+002, 1.107328e+003
3.472335e+002, 1.106063e+003
3.477156e+002, 1.105273e+003
3.481978e+002, 1.105062e+003
3.486799e+002, 1.105375e+003
3.491620e+002, 1.105430e+003
3.496441e+002, 1.104468e+003
3.501262e+002, 1.102887e+003
3.506083e+002, 1.101599e+003
3.510905e+002, 1.100711e+003
3.515726e+002, 1.100117e+003
3.520547e+002, 1.099729e+003
3.525368e+002, 1.099531e+003
3.530189e+002, 1.099478e+003
3.535010e+002, 1.099279e+003
3.539832e+002, 1.099328e+003
3.544653e+002, 1.100363e+003
3.549474e+002, 1.102459e+003
3.554295e+002, 1.104412e+003
3.559116e+002, 1.105010e+003
3.563937e+002, 1.104913e+003
3.568759e+002, 1.105108e+003
3.573580e+002, 1.106228e+003
3.578401e+002, 1.107532e+003
3.583222e+002, 1.108477e+003
3.588043e+002, 1.109136e+003
3.592864e+002, 1.109886e+003
3.597686e+002, 1.111126e+003
3.602507e+002, 1.112448e+003
3.607328e+002, 1.113432e+003
3.612149e+002, 1.113599e+003
3.616970e+002, 1.114075e+003
3.621791e+002, 1.116043e+003
3.626613e+002, 1.118659e+003
3.631434e+002, 1.119992e+003
3.636255e+002, 1.118227e+003
3.641076e+002, 1.115979e+003
3.645897e+002, 1.114443e+003
3.650718e+002, 1.113954e+003
3.655540e+002, 1.113554e+003
3.660361e+002, 1.113274e+003
3.665182e+002, 1.112932e+003
3.670003e+002, 1.112309e+003
3.674824e+002, 1.111304e+003
3.679645e+002, 1.110120e+003
3.684467e+002, 1.108709e+003
3.689288e+002, 1.107094e+003
3.694109e+002, 1.105670e+003
3.698930e+002, 1.104636e+003
3.703751e+002, 1.103678e+003
3.708572e+002, 1.102534e+003
3.713394e+002, 1.100616e+003
3.718215e+002, 1.099596e+003
3.723036e+002, 1.100100e+003
3.727857e+002, 1.101574e+003
3.732678e+002, 1.101935e+003
3.737499e+002, 1.100494e+003
3.742321e+002, 1.099133e+003
3.747142e+002, 1.098863e+003
3.751963e+002, 1.100070e+003
3.756784e+002, 1.100622e+003
3.761605e+002, 1.100304e+003
3.766426e+002, 1.099575e+003
3.771248e+002, 1.099079e+003
3.776069e+002, 1.098786e+003
3.780890e+002, 1.098862e+003
3.785711e+002, 1.099552e+003
3.790532e+002, 1.100719e+003
3.795353e+002, 1.101229e+003
3.800175e+002, 1.100984e+003
3.804996e+002, 1.100606e+003
3.809817e+002, 1.100546e+003
3.814638e+002, 1.100821e+003
3.819459e+002, 1.101705e+003
3.824280e+002, 1.103550e+003
3.829102e+002, 1.105617e+003
3.833923e+002, 1.106161e+003
3.838744e+002, 1.105329e+003
3.843565e+002, 1.104656e+003
3.848386e+002, 1.105294e+003
3.853207e+002, 1.106758e+003
3.858029e+002, 1.108076e+003
3.862850e+002, 1.109152e+003
3.867671e+002, 1.110119e+003
3.872492e+002, 1.111157e+003
3.877313e+002, 1.112202e+003
3.882134e+002, 1.113084e+003
3.886956e+002, 1.113438e+003
3.891777e+002, 1.113787e+003
3.896598e+002, 1.114784e+003
3.901419e+002, 1.116397e+003
3.906240e+002, 1.117840e+003
3.911061e+002, 1.118664e+003
3.915883e+002, 1.119091e+003
3.920704e+002, 1.119326e+003
3.925525e+002, 1.119170e+003
3.930346e+002, 1.119215e+003
3.935167e+002, 1.119936e+003
3.939988e+002, 1.121103e+003
3.944810e+002, 1.122067e+003
3.949631e+002, 1.122014e+003
3.954452e+002, 1.122160e+003
3.959273e+002, 1.123271e+003
3.964094e+002, 1.125869e+003
3.968915e+002, 1.128037e+003
3.973737e+002, 1.129202e+003
3.978558e+002, 1.129808e+003
3.983379e+002, 1.130398e+003
3.988200e+002, 1.130808e+003
3.993021e+002, 1.131405e+003
3.997842e+002, 1.132419e+003
4.002664e+002, 1.133834e+003
4.007485e+002, 1.134725e+003
4.012306e+002, 1.134681e+003
4.017127e+002, 1.134473e+003
4.021948e+002, 1.134588e+003
4.026769e+002, 1.135169e+003
4.031591e+002, 1.135765e+003
4.036412e+002, 1.136456e+003
4.041233e+002, 1.137092e+003
4.046054e+002, 1.137313e+003
4.050875e+002, 1.137070e+003
4.055696e+002, 1.136548e+003
4.060518e+002, 1.135640e+003
4.065339e+002, 1.134326e+003
4.070160e+002, 1.133831e+003
4.074981e+002, 1.134352e+003
4.079802e+002, 1.135208e+003
4.084623e+002, 1.135623e+003
4.089445e+002, 1.135618e+003
4.094266e+002, 1.135564e+003
4.099087e+002, 1.135413e+003
4.103908e+002, 1.135423e+003
4.108729e+002, 1.136394e+003
4.113550e+002, 1.138312e+003
4.118372e+002, 1.140286e+003
4.123193e+002, 1.141786e+003
4.128014e+002, 1.142875e+003
4.132835e+002, 1.143648e+003
4.137656e+002, 1.144061e+003
4.142477e+002, 1.144377e+003
4.147299e+002, 1.144697e+003
4.152120e+002, 1.145106e+003
4.156941e+002, 1.145821e+003
4.161762e+002, 1.147073e+003
4.166583e+002, 1.148557e+003
4.171404e+002, 1.149967e+003
4.176226e+002, 1.151299e+003
4.181047e+002, 1.152734e+003
4.185868e+002, 1.154660e+003
4.190689e+002, 1.156595e+003
4.195510e+002, 1.158099e+003
4.200331e+002, 1.158771e+003
4.205153e+002, 1.159345e+003
4.209974e+002, 1.160237e+003
4.214795e+002, 1.161257e+003
4.219616e+002, 1.161873e+003
4.224437e+002, 1.161476e+003
4.229258e+002, 1.161095e+003
4.234080e+002, 1.161293e+003
4.238901e+002, 1.162422e+003
4.243722e+002, 1.163071e+003
4.248543e+002, 1.163238e+003
4.253364e+002, 1.162859e+003
4.258185e+002, 1.161821e+003
4.263007e+002, 1.159346e+003
4.267828e+002, 1.157355e+003
4.272649e+002, 1.156286e+003
4.277470e+002, 1.155984e+003
4.282291e+002, 1.155352e+003
4.287112e+002, 1.154109e+003
4.291934e+002, 1.153009e+003
4.296755e+002, 1.152657e+003
4.301576e+002, 1.153383e+003
4.306397e+002, 1.152930e+003
4.311218e+002, 1.150808e+003
4.316039e+002, 1.148168e+003
4.320861e+002, 1.146799e+003
4.325682e+002, 1.146760e+003
4.330503e+002, 1.147264e+003
4.335324e+002, 1.148438e+003
4.340145e+002, 1.149878e+003
4.344966e+002, 1.149863e+003
4.349788e+002, 1.148354e+003
4.354609e+002, 1.146830e+003
4.359430e+002, 1.146578e+003
4.364251e+002, 1.147294e+003
4.369072e+002, 1.148104e+003
4.373893e+002, 1.148840e+003
4.378715e+002, 1.149682e+003
4.383536e+002, 1.151090e+003
4.388357e+002, 1.152806e+003
4.393178e+002, 1.154110e+003
4.397999e+002, 1.154012e+003
4.402820e+002, 1.153703e+003
4.407642e+002, 1.154334e+003
4.412463e+002, 1.155962e+003
4.417284e+002, 1.157720e+003
4.422105e+002, 1.159428e+003
4.426926e+002, 1.160888e+003
4.431747e+002, 1.161887e+003
4.436569e+002, 1.161694e+003
4.441390e+002, 1.161818e+003
4.446211e+002, 1.163071e+003
4.451032e+002, 1.165039e+003
4.455853e+002, 1.166500e+003
4.460674e+002, 1.166981e+003
4.465496e+002, 1.167174e+003
4.470317e+002, 1.167275e+003
4.475138e+002, 1.167202e+003
4.479959e+002, 1.167439e+003
4.484780e+002, 1.168091e+003
4.489601e+002, 1.169033e+003
4.494423e+002, 1.170216e+003
4.499244e+002, 1.171904e+003
4.504065e+002, 1.173283e+003
4.508886e+002, 1.174087e+003
4.513707e+002, 1.174503e+003
4.518528e+002, 1.175439e+003
4.523350e+002, 1.177099e+003
4.528171e+002, 1.178633e+003
4.532992e+002, 1.179724e+003
4.537813e+002, 1.180358e+003
4.542634e+002, 1.179781e+003
4.547455e+002, 1.177510e+003
4.552277e+002, 1.175426e+003
4.557098e+002, 1.176596e+003
4.561919e+002, 1.180486e+003
4.566740e+002, 1.183605e+003
4.571561e+002, 1.184659e+003
4.576382e+002, 1.184341e+003
4.581204e+002, 1.183287e+003
4.586025e+002, 1.181650e+003
4.590846e+002, 1.180564e+003
4.595667e+002, 1.181102e+003
4.600488e+002, 1.182537e+003
4.605309e+002, 1.183960e+003
4.610131e+002, 1.185241e+003
4.614952e+002, 1.186539e+003
4.619773e+002, 1.188420e+003
4.624594e+002, 1.190275e+003
4.629415e+002, 1.191227e+003
4.634236e+002, 1.189714e+003
4.639058e+002, 1.188360e+003
4.643879e+002, 1.188504e+003
4.648700e+002, 1.190003e+003
4.653521e+002, 1.191304e+003
4.658342e+002, 1.191513e+003
4.663163e+002, 1.191798e+003
4.667985e+002, 1.192914e+003
4.672806e+002, 1.196004e+003
4.677627e+002, 1.197868e+003
4.682448e+002, 1.197393e+003
4.687269e+002, 1.196103e+003
4.692090e+002, 1.196272e+003
4.696912e+002, 1.199144e+003
4.701733e+002, 1.201159e+003
4.706554e+002, 1.201113e+003
4.711375e+002, 1.199316e+003
4.716196e+002, 1.198890e+003
4.721017e+002, 1.200132e+003
4.725839e+002, 1.201896e+003
4.730660e+002, 1.203981e+003
4.735481e+002, 1.206394e+003
4.740302e+002, 1.206383e+003
4.745123e+002, 1.203089e+003
4.749944e+002, 1.199124e+003
4.754766e+002, 1.198836e+003
4.759587e+002, 1.201674e+003
4.764408e+002, 1.204048e+003
4.769229e+002, 1.204063e+003
4.774050e+002, 1.203040e+003
4.778871e+002, 1.203190e+003
4.783693e+002, 1.204417e+003
4.788514e+002, 1.205758e+003
4.793335e+002, 1.206572e+003
4.798156e+002, 1.207108e+003
4.802977e+002, 1.207582e+003
4.807798e+002, 1.207934e+003
4.812620e+002, 1.208534e+003
4.817441e+002, 1.209639e+003
4.822262e+002, 1.211097e+003
4.827083e+002, 1.212687e+003
4.831904e+002, 1.214542e+003
4.836725e+002, 1.216289e+003
4.841547e+002, 1.217670e+003
4.846368e+002, 1.218703e+003
4.851189e+002, 1.219883e+003
4.856010e+002, 1.221449e+003
4.860831e+002, 1.223028e+003
4.865652e+002, 1.224393e+003
4.870474e+002, 1.225327e+003
4.875295e+002, 1.226540e+003
4.880116e+002, 1.228199e+003
4.884937e+002, 1.229998e+003
4.889758e+002, 1.231629e+003
4.894579e+002, 1.233286e+003
4.899401e+002, 1.234097e+003
4.904222e+002, 1.233452e+003
4.909043e+002, 1.231854e+003
4.913864e+002, 1.231802e+003
4.918685e+002, 1.233474e+003
4.923506e+002, 1.235484e+003
4.928328e+002, 1.237129e+003
4.933149e+002, 1.238365e+003
4.937970e+002, 1.238880e+003
4.942791e+002, 1.238552e+003
4.947612e+002, 1.238046e+003
4.952433e+002, 1.238016e+003
4.957255e+002, 1.238411e+003
4.962076e+002, 1.239098e+003
4.966897e+002, 1.240272e+003
4.971718e+002, 1.241498e+003
4.976539e+002, 1.242144e+003
4.981360e+002, 1.242411e+003
4.986182e+002, 1.243084e+003
4.991003e+002, 1.245423e+003
4.995824e+002, 1.247734e+003
5.000645e+002, 1.248510e+003
5.005466e+002, 1.247123e+003
5.010287e+002, 1.246375e+003
5.015109e+002, 1.247888e+003
5.019930e+002, 1.250057e+003
5.024751e+002, 1.251260e+003
5.029572e+002, 1.250117e+003
5.034393e+002, 1.249376e+003
5.039214e+002, 1.249267e+003
5.044036e+002, 1.249764e+003
5.048857e+002, 1.250852e+003
5.053678e+002, 1.252888e+003
5.058499e+002, 1.254925e+003
5.063320e+002, 1.256566e+003
5.068141e+002, 1.257784e+003
5.072963e+002, 1.259044e+003
5.077784e+002, 1.260321e+003
5.082605e+002, 1.261767e+003
5.087426e+002, 1.263530e+003
5.092247e+002, 1.265609e+003
5.097068e+002, 1.268118e+003
5.101890e+002, 1.271262e+003
5.106711e+002, 1.274473e+003
5.111532e+002, 1.276588e+003
5.116353e+002, 1.277801e+003
5.121174e+002, 1.279029e+003
5.125995e+002, 1.280523e+003
5.130817e+002, 1.282417e+003
5.135638e+002, 1.285331e+003
5.140459e+002, 1.289182e+003
5.145280e+002, 1.292285e+003
5.150101e+002, 1.292824e+003
5.154922e+002, 1.292515e+003
5.159744e+002, 1.293003e+003
5.164565e+002, 1.295096e+003
5.169386e+002, 1.297128e+003
5.174207e+002, 1.298684e+003
5.179028e+002, 1.299826e+003
5.183849e+002, 1.300647e+003
5.188671e+002, 1.301063e+003
5.193492e+002, 1.301255e+003
5.198313e+002, 1.301065e+003
5.203134e+002, 1.300549e+003
5.207955e+002, 1.300614e+003
5.212776e+002, 1.301488e+003
5.217598e+002, 1.302583e+003
5.222419e+002, 1.303647e+003
5.227240e+002, 1.304753e+003
5.232061e+002, 1.305427e+003
5.236882e+002, 1.305675e+003
5.241703e+002, 1.305443e+003
5.246525e+002, 1.304413e+003
5.251346e+002, 1.302654e+003
5.256167e+002, 1.301272e+003
5.260988e+002, 1.300723e+003
5.265809e+002, 1.300587e+003
5.270630e+002, 1.300382e+003
5.275452e+002, 1.300030e+003
5.280273e+002, 1.299047e+003
5.285094e+002, 1.296475e+003
5.289915e+002, 1.293473e+003
5.294736e+002, 1.291246e+003
5.299557e+002, 1.289880e+003
5.304379e+002, 1.289145e+003
5.309200e+002, 1.289464e+003
5.314021e+002, 1.290045e+003
5.318842e+002, 1.290086e+003
5.323663e+002, 1.288888e+003
5.328484e+002, 1.287822e+003
5.333306e+002, 1.287232e+003
5.338127e+002, 1.286986e+003
5.342948e+002, 1.286842e+003
5.347769e+002, 1.287318e+003
5.352590e+002, 1.287249e+003
5.357411e+002, 1.286085e+003
5.362233e+002, 1.283895e+003
5.367054e+002, 1.282615e+003
5.371875e+002, 1.282472e+003
5.376696e+002, 1.282872e+003
5.381517e+002, 1.283670e+003
5.386339e+002, 1.284950e+003
5.391160e+002, 1.285450e+003
5.395981e+002, 1.284900e+003
5.400802e+002, 1.284158e+003
5.405623e+002, 1.284532e+003
5.410444e+002, 1.285804e+003
5.415266e+002, 1.286723e+003
5.420087e+002, 1.286733e+003
5.424908e+002, 1.286367e+003
5.429729e+002, 1.286233e+003
5.434550e+002, 1.286336e+003
5.439371e+002, 1.286706e+003
5.444193e+002, 1.287464e+003
5.449014e+002, 1.288418e+003
5.453835e+002, 1.289422e+003
5.458656e+002, 1.290457e+003
5.463477e+002, 1.291540e+003
5.468298e+002, 1.292760e+003
5.473120e+002, 1.293993e+003
5.477941e+002, 1.295116e+003
5.482762e+002, 1.295653e+003
5.487583e+002, 1.296715e+003
5.492404e+002, 1.299076e+003
5.497225e+002, 1.301794e+003
5.502047e+002, 1.303185e+003
5.506868e+002, 1.302503e+003
5.511689e+002, 1.301917e+003
5.516510e+002, 1.301916e+003
5.521331e+002, 1.302462e+003
5.526152e+002, 1.303400e+003
5.530974e+002, 1.304809e+003
5.535795e+002, 1.306287e+003
5.540616e+002, 1.307711e+003
5.545437e+002, 1.309043e+003
5.550258e+002, 1.309956e+003
5.555079e+002, 1.310435e+003
5.559901e+002, 1.310632e+003
5.564722e+002, 1.310627e+003
5.569543e+002, 1.310478e+003
5.574364e+002, 1.310208e+003
5.579185e+002, 1.309415e+003
5.584006e+002, 1.309158e+003
5.588828e+002, 1.310578e+003
5.593649e+002, 1.313147e+003
5.598470e+002, 1.315685e+003
5.603291e+002, 1.318344e+003
5.608112e+002, 1.320236e+003
5.612933e+002, 1.320582e+003
5.617755e+002, 1.319327e+003
5.622576e+002, 1.318543e+003
5.627397e+002, 1.318693e+003
5.632218e+002, 1.319214e+003
5.637039e+002, 1.319949e+003
5.641860e+002, 1.321328e+003
5.646682e+002, 1.321746e+003
5.651503e+002, 1.320870e+003
5.656324e+002, 1.319492e+003
5.661145e+002, 1.318630e+003
5.665966e+002, 1.318344e+003
5.670787e+002, 1.318155e+003
5.675609e+002, 1.317973e+003
5.680430e+002, 1.317871e+003
5.685251e+002, 1.317957e+003
5.690072e+002, 1.318247e+003
5.694893e+002, 1.318774e+003
5.699714e+002, 1.319716e+003
5.704536e+002, 1.320839e+003
5.709357e+002, 1.321819e+003
5.714178e+002, 1.322644e+003
5.718999e+002, 1.323414e+003
5.723820e+002, 1.324359e+003
5.728641e+002, 1.325153e+003
5.733463e+002, 1.325420e+003
5.738284e+002, 1.324848e+003
5.743105e+002, 1.324381e+003
5.747926e+002, 1.324387e+003
5.752747e+002, 1.324601e+003
5.757568e+002, 1.324679e+003
5.762390e+002, 1.323642e+003
5.767211e+002, 1.323758e+003
5.772032e+002, 1.325829e+003
5.776853e+002, 1.329191e+003
5.781674e+002, 1.331484e+003
5.786495e+002, 1.332491e+003
5.791317e+002, 1.333082e+003
5.796138e+002, 1.333670e+003
5.800959e+002, 1.334189e+003
5.805780e+002, 1.333829e+003
5.810601e+002, 1.332501e+003
5.815422e+002, 1.331309e+003
5.820244e+002, 1.331476e+003
5.825065e+002, 1.332478e+003
5.829886e+002, 1.332937e+003
5.834707e+002, 1.332596e+003
5.839528e+002, 1.332186e+003
5.844349e+002, 1.332366e+003
5.849171e+002, 1.332903e+003
5.853992e+002, 1.333444e+003
5.858813e+002, 1.333613e+003
5.863634e+002, 1.334027e+003
5.868455e+002, 1.335434e+003
5.873276e+002, 1.337308e+003
5.878098e+002, 1.338165e+003
5.882919e+002, 1.335722e+003
5.887740e+002, 1.334266e+003
5.892561e+002, 1.335472e+003
5.897382e+002, 1.339396e+003
5.902203e+002, 1.342215e+003
5.907025e+002, 1.343687e+003
5.911846e+002, 1.344435e+003
5.916667e+002, 1.344805e+003
5.921488e+002, 1.344795e+003
5.926309e+002, 1.344345e+003
5.931130e+002, 1.343346e+003
5.935952e+002, 1.342347e+003
5.940773e+002, 1.342174e+003
5.945594e+002, 1.342619e+003
5.950415e+002, 1.342792e+003
5.955236e+002, 1.342254e+003
5.960057e+002, 1.341806e+003
5.964879e+002, 1.342488e+003
5.969700e+002, 1.343960e+003
5.974521e+002, 1.345408e+003
5.979342e+002, 1.346466e+003
5.984163e+002, 1.347389e+003
5.988984e+002, 1.348421e+003
5.993806e+002, 1.349516e+003
5.998627e+002, 1.350200e+003
6.003448e+002, 1.349338e+003
6.008269e+002, 1.348916e+003
6.013090e+002, 1.350052e+003
6.017911e+002, 1.353363e+003
6.022733e+002, 1.355775e+003
6.027554e+002, 1.357074e+003
6.032375e+002, 1.357763e+003
6.037196e+002, 1.358132e+003
6.042017e+002, 1.358121e+003
6.046838e+002, 1.358497e+003
6.051660e+002, 1.359403e+003
6.056481e+002, 1.360635e+003
6.061302e+002, 1.361934e+003
6.066123e+002, 1.363286e+003
6.070944e+002, 1.364586e+003
6.075765e+002, 1.365651e+003
6.080587e+002, 1.366793e+003
6.085408e+002, 1.368445e+003
6.090229e+002, 1.370498e+003
6.095050e+002, 1.372631e+003
6.099871e+002, 1.375445e+003
6.104692e+002, 1.377625e+003
6.109514e+002, 1.377677e+003
6.114335e+002, 1.375327e+003
6.119156e+002, 1.374662e+003
6.123977e+002, 1.378522e+003
6.128798e+002, 1.382764e+003
6.133619e+002, 1.384824e+003
6.138441e+002, 1.383374e+003
6.143262e+002, 1.383050e+003
6.148083e+002, 1.384230e+003
6.152904e+002, 1.386034e+003
6.157725e+002, 1.387366e+003
6.162546e+002, 1.388210e+003
6.167368e+002, 1.389092e+003
6.172189e+002, 1.390186e+003
6.177010e+002, 1.391292e+003
6.181831e+002, 1.391929e+003
6.186652e+002, 1.392224e+003
6.191473e+002, 1.392681e+003
6.196295e+002, 1.393475e+003
6.201116e+002, 1.394596e+003
6.205937e+002, 1.396221e+003
6.210758e+002, 1.398227e+003
6.215579e+002, 1.400055e+003
6.220400e+002, 1.400691e+003
6.225222e+002, 1.401606e+003
6.230043e+002, 1.404010e+003
6.234864e+002, 1.408482e+003
6.239685e+002, 1.411656e+003
6.244506e+002, 1.412282e+003
6.249327e+002, 1.412285e+003
6.254149e+002, 1.412883e+003
6.258970e+002, 1.414216e+003
6.263791e+002, 1.415668e+003
6.268612e+002, 1.417137e+003
6.273433e+002, 1.418852e+003
6.278254e+002, 1.421333e+003
6.283076e+002, 1.424531e+003
6.287897e+002, 1.427453e+003
6.292718e+002, 1.429938e+003
6.297539e+002, 1.431900e+003
6.302360e+002, 1.432483e+003
6.307181e+002, 1.432284e+003
6.312003e+002, 1.433190e+003
6.316824e+002, 1.436730e+003
6.321645e+002, 1.441308e+003
6.326466e+002, 1.446126e+003
6.331287e+002, 1.451066e+003
6.336108e+002, 1.455294e+003
6.340930e+002, 1.457942e+003
6.345751e+002, 1.460359e+003
6.350572e+002, 1.463200e+003
6.355393e+002, 1.466614e+003
6.360214e+002, 1.469903e+003
6.365035e+002, 1.473013e+003
6.369857e+002, 1.476060e+003
6.374678e+002, 1.478925e+003
6.379499e+002, 1.481427e+003
6.384320e+002, 1.484988e+003
6.389141e+002, 1.489789e+003
6.393962e+002, 1.495270e+003
6.398784e+002, 1.500650e+003
6.403605e+002, 1.506009e+003
6.408426e+002, 1.511963e+003
6.413247e+002, 1.518750e+003
6.418068e+002, 1.525966e+003
6.422889e+002, 1.533283e+003
6.427711e+002, 1.540723e+003
6.432532e+002, 1.548527e+003
6.437353e+002, 1.556421e+003
6.442174e+002, 1.564955e+003
6.446995e+002, 1.574695e+003
6.451816e+002, 1.585439e+003
6.456638e+002, 1.596039e+003
6.461459e+002, 1.606125e+003
6.466280e+002, 1.616193e+003
6.471101e+002, 1.626238e+003
6.475922e+002, 1.636081e+003
6.480743e+002, 1.647613e+003
6.485565e+002, 1.661010e+003
6.490386e+002, 1.675406e+003
6.495207e+002, 1.690099e+003
6.500028e+002, 1.705007e+003
6.504849e+002, 1.719320e+003
6.509670e+002, 1.732668e+003
6.514492e+002, 1.746626e+003
6.519313e+002, 1.763965e+003
6.524134e+002, 1.782799e+003
6.528955e+002, 1.798955e+003
6.533776e+002, 1.810423e+003
6.538597e+002, 1.821923e+003
6.543419e+002, 1.837241e+003
6.548240e+002, 1.854414e+003
6.553061e+002, 1.870180e+003
6.557882e+002, 1.882726e+003
6.562703e+002, 1.894938e+003
6.567524e+002, 1.907159e+003
6.572346e+002, 1.919564e+003
6.577167e+002, 1.932766e+003
6.581988e+002, 1.947287e+003
6.586809e+002, 1.961472e+003
6.591630e+002, 1.974643e+003
6.596451e+002, 1.987001e+003
6.601273e+002, 1.999667e+003
6.606094e+002, 2.012791e+003
6.610915e+002, 2.025982e+003
6.615736e+002, 2.039313e+003
6.620557e+002, 2.052563e+003
6.625378e+002, 2.065532e+003
6.630200e+002, 2.078181e+003
6.635021e+002, 2.089785e+003
6.639842e+002, 2.099480e+003
6.644663e+002, 2.108103e+003
6.649484e+002, 2.116425e+003
6.654305e+002, 2.124954e+003
6.659127e+002, 2.132268e+003
6.663948e+002, 2.138338e+003
6.668769e+002, 2.142833e+003
6.673590e+002, 2.145588e+003
6.678411e+002, 2.146686e+003
6.683232e+002, 2.146018e+003
6.688054e+002, 2.144107e+003
6.692875e+002, 2.139887e+003
6.697696e+002, 2.131347e+003
6.702517e+002, 2.118452e+003
6.707338e+002, 2.102507e+003
6.712159e+002, 2.083587e+003
6.716981e+002, 2.062470e+003
6.721802e+002, 2.040249e+003
6.726623e+002, 2.017125e+003
6.731444e+002, 1.993000e+003
6.736265e+002, 1.967343e+003
6.741086e+002, 1.941438e+003
6.745908e+002, 1.916006e+003
6.750729e+002, 1.891302e+003
6.755550e+002, 1.867265e+003
6.760371e+002, 1.843819e+003
6.765192e+002, 1.821204e+003
6.770013e+002, 1.798889e+003
6.774835e+002, 1.776636e+003
6.779656e+002, 1.756467e+003
6.784477e+002, 1.738524e+003
6.789298e+002, 1.722095e+003
6.794119e+002, 1.706866e+003
6.798940e+002, 1.692651e+003
6.803762e+002, 1.680058e+003
6.808583e+002, 1.668991e+003
6.813404e+002, 1.659058e+003
6.818225e+002, 1.649984e+003
6.823046e+002, 1.641608e+003
6.827867e+002, 1.633260e+003
6.832689e+002, 1.624678e+003
6.837510e+002, 1.616797e+003
6.842331e+002, 1.610546e+003
6.847152e+002, 1.605462e+003
6.851973e+002, 1.601111e+003
6.856794e+002, 1.597692e+003
6.861616e+002, 1.594568e+003
6.866437e+002, 1.591711e+003
6.871258e+002, 1.589059e+003
6.876079e+002, 1.586471e+003
6.880900e+002, 1.583732e+003
6.885721e+002, 1.581715e+003
6.890543e+002, 1.580756e+003
6.895364e+002, 1.580581e+003
6.900185e+002, 1.580423e+003
6.905006e+002, 1.580276e+003
6.909827e+002, 1.580241e+003
6.914648e+002, 1.580321e+003
6.919470e+002, 1.580553e+003
6.924291e+002, 1.581144e+003
6.929112e+002, 1.582006e+003
6.933933e+002, 1.582667e+003
6.938754e+002, 1.582681e+003
6.943575e+002, 1.582574e+003
6.948397e+002, 1.582603e+003
6.953218e+002, 1.582793e+003
6.958039e+002, 1.583396e+003
6.962860e+002, 1.584549e+003
6.967681e+002, 1.586076e+003
6.972502e+002, 1.588083e+003
6.977324e+002, 1.590841e+003
6.982145e+002, 1.592722e+003
6.986966e+002, 1.593581e+003
6.991787e+002, 1.594006e+003
6.996608e+002, 1.594530e+003
7.001429e+002, 1.595108e+003
7.006251e+002, 1.595670e+003
7.011072e+002, 1.596290e+003
7.015893e+002, 1.596345e+003
7.020714e+002, 1.594575e+003
7.025535e+002, 1.592019e+003
7.030356e+002, 1.590266e+003
7.035178e+002, 1.590410e+003
7.039999e+002, 1.590288e+003
7.044820e+002, 1.589177e+003
7.049641e+002, 1.587250e+003
7.054462e+002, 1.584703e+003
7.059283e+002, 1.580876e+003
7.064105e+002, 1.577577e+003
7.068926e+002, 1.575217e+003
7.073747e+002, 1.573411e+003
7.078568e+002, 1.571082e+003
7.083389e+002, 1.568151e+003
7.088210e+002, 1.565790e+003
7.093032e+002, 1.564694e+003
7.097853e+002, 1.564144e+003
7.102674e+002, 1.562723e+003
7.107495e+002, 1.560556e+003
7.112316e+002, 1.558200e+003
7.117137e+002, 1.555441e+003
7.121959e+002, 1.553032e+003
7.126780e+002, 1.551800e+003
7.131601e+002, 1.551572e+003
7.136422e+002, 1.551072e+003
7.141243e+002, 1.549352e+003
7.146064e+002, 1.547854e+003
7.150886e+002, 1.547311e+003
7.155707e+002, 1.547761e+003
7.160528e+002, 1.547505e+003
7.165349e+002, 1.546150e+003
7.170170e+002, 1.545105e+003
7.174991e+002, 1.545846e+003
7.179813e+002, 1.547975e+003
7.184634e+002, 1.547800e+003
7.189455e+002, 1.545128e+003
7.194276e+002, 1.542745e+003
7.199097e+002, 1.543617e+003
7.203918e+002, 1.545981e+003
7.208740e+002, 1.547381e+003
7.213561e+002, 1.547292e+003
7.218382e+002, 1.547333e+003
7.223203e+002, 1.548897e+003
7.228024e+002, 1.550554e+003
7.232845e+002, 1.550988e+003
7.237667e+002, 1.548705e+003
7.242488e+002, 1.547643e+003
7.247309e+002, 1.548308e+003
7.252130e+002, 1.549625e+003
7.256951e+002, 1.550310e+003
7.261772e+002, 1.550306e+003
7.266594e+002, 1.550621e+003
7.271415e+002, 1.551570e+003
7.276236e+002, 1.552414e+003
7.281057e+002, 1.551818e+003
7.285878e+002, 1.550303e+003
7.290699e+002, 1.549230e+003
7.295521e+002, 1.549222e+003
7.300342e+002, 1.549520e+003
7.305163e+002, 1.549746e+003
7.309984e+002, 1.549910e+003
7.314805e+002, 1.550026e+003
7.319626e+002, 1.550225e+003
7.324448e+002, 1.550207e+003
7.329269e+002, 1.549561e+003
7.334090e+002, 1.548746e+003
7.338911e+002, 1.549275e+003
7.343732e+002, 1.551642e+003
7.348553e+002, 1.553292e+003
7.353375e+002, 1.553277e+003
7.358196e+002, 1.552138e+003
7.363017e+002, 1.550947e+003
7.367838e+002, 1.549790e+003
7.372659e+002, 1.549187e+003
7.377480e+002, 1.549593e+003
7.382302e+002, 1.550552e+003
7.387123e+002, 1.552118e+003
7.391944e+002, 1.554017e+003
7.396765e+002, 1.555000e+003
7.401586e+002, 1.553152e+003
7.406407e+002, 1.551660e+003
7.411229e+002, 1.552366e+003
7.416050e+002, 1.555138e+003
7.420871e+002, 1.556689e+003
7.425692e+002, 1.556594e+003
7.430513e+002, 1.556319e+003
7.435334e+002, 1.556704e+003
7.440156e+002, 1.557641e+003
7.444977e+002, 1.558008e+003
7.449798e+002, 1.557812e+003
7.454619e+002, 1.557847e+003
7.459440e+002, 1.559070e+003
7.464261e+002, 1.560694e+003
7.469083e+002, 1.561603e+003
7.473904e+002, 1.561682e+003
7.478725e+002, 1.562012e+003
7.483546e+002, 1.563420e+003
7.488367e+002, 1.564984e+003
7.493188e+002, 1.566025e+003
7.498010e+002, 1.566253e+003
7.502831e+002, 1.566819e+003
7.507652e+002, 1.568206e+003
7.512473e+002, 1.569146e+003
7.517294e+002, 1.568210e+003
7.522115e+002, 1.565443e+003
7.526937e+002, 1.564110e+003
7.531758e+002, 1.564608e+003
7.536579e+002, 1.565186e+003
7.541400e+002, 1.563542e+003
7.546221e+002, 1.560945e+003
7.551042e+002, 1.559467e+003
7.555864e+002, 1.559661e+003
7.560685e+002, 1.560505e+003
7.565506e+002, 1.562110e+003
7.570327e+002, 1.563806e+003
7.575148e+002, 1.564867e+003
7.579969e+002, 1.564550e+003
7.584791e+002, 1.564725e+003
7.589612e+002, 1.565838e+003
7.594433e+002, 1.566936e+003
7.599254e+002, 1.566524e+003
7.604075e+002, 1.564480e+003
7.608896e+002, 1.563383e+003
7.613718e+002, 1.563712e+003
7.618539e+002, 1.564759e+003
7.623360e+002, 1.566193e+003
7.628181e+002, 1.567568e+003
7.633002e+002, 1.567801e+003
7.637823e+002, 1.565647e+003
7.642645e+002, 1.563995e+003
7.647466e+002, 1.565102e+003
7.652287e+002, 1.567522e+003
7.657108e+002, 1.569090e+003
7.661929e+002, 1.568557e+003
7.666750e+002, 1.568502e+003
7.671572e+002, 1.569434e+003
7.676393e+002, 1.570750e+003
7.681214e+002, 1.571178e+003
7.686035e+002, 1.570635e+003
7.690856e+002, 1.570447e+003
7.695677e+002, 1.570975e+003
7.700499e+002, 1.571939e+003
7.705320e+002, 1.572921e+003
7.710141e+002, 1.573976e+003
7.714962e+002, 1.575264e+003
7.719783e+002, 1.577612e+003
7.724604e+002, 1.579389e+003
7.729426e+002, 1.579255e+003
7.734247e+002, 1.577937e+003
7.739068e+002, 1.577134e+003
7.743889e+002, 1.577480e+003
7.748710e+002, 1.577753e+003
7.753531e+002, 1.577835e+003
7.758353e+002, 1.577683e+003
7.763174e+002, 1.577021e+003
7.767995e+002, 1.575830e+003
7.772816e+002, 1.574905e+003
7.777637e+002, 1.574584e+003
7.782458e+002, 1.574673e+003
7.787280e+002, 1.574805e+003
7.792101e+002, 1.575069e+003
7.796922e+002, 1.575717e+003
7.801743e+002, 1.577242e+003
7.806564e+002, 1.578832e+003
7.811385e+002, 1.580309e+003
7.816207e+002, 1.581565e+003
7.821028e+002, 1.582034e+003
7.825849e+002, 1.580461e+003
7.830670e+002, 1.580109e+003
7.835491e+002, 1.582272e+003
7.840313e+002, 1.586170e+003
7.845134e+002, 1.588973e+003
7.849955e+002, 1.590689e+003
7.854776e+002, 1.591193e+003
7.859597e+002, 1.589772e+003
7.864418e+002, 1.587564e+003
7.869240e+002, 1.586207e+003
7.874061e+002, 1.585612e+003
7.878882e+002, 1.585505e+003
7.883703e+002, 1.585903e+003
7.888524e+002, 1.586619e+003
7.893345e+002, 1.587973e+003
7.898167e+002, 1.589764e+003
7.902988e+002, 1.590428e+003
7.907809e+002, 1.589398e+003
7.912630e+002, 1.588273e+003
7.917451e+002, 1.587396e+003
7.922272e+002, 1.586906e+003
7.927094e+002, 1.587613e+003
7.931915e+002, 1.589466e+003
7.936736e+002, 1.591230e+003
7.941557e+002, 1.592048e+003
7.946378e+002, 1.592458e+003
7.951199e+002, 1.593383e+003
7.956021e+002, 1.594578e+003
7.960842e+002, 1.594958e+003
7.965663e+002, 1.592650e+003
7.970484e+002, 1.590756e+003
7.975305e+002, 1.590964e+003
7.980126e+002, 1.593021e+003
7.984948e+002, 1.594845e+003
7.989769e+002, 1.596642e+003
7.994590e+002, 1.597589e+003
7.999411e+002, 1.596746e+003
8.004232e+002, 1.594931e+003
8.009053e+002, 1.595819e+003
8.013875e+002, 1.599145e+003
8.018696e+002, 1.602234e+003
8.023517e+002, 1.603771e+003
8.028338e+002, 1.604107e+003
8.033159e+002, 1.602439e+003
8.037980e+002, 1.599412e+003
8.042802e+002, 1.598633e+003
8.047623e+002, 1.604199e+003
8.052444e+002, 1.609107e+003
8.057265e+002, 1.610485e+003
8.062086e+002, 1.608764e+003
8.066907e+002, 1.607735e+003
8.071729e+002, 1.607351e+003
8.076550e+002, 1.607821e+003
8.081371e+002, 1.609904e+003
8.086192e+002, 1.612624e+003
8.091013e+002, 1.613125e+003
8.095834e+002, 1.611729e+003
8.100656e+002, 1.610252e+003
8.105477e+002, 1.609918e+003
8.110298e+002, 1.609783e+003
8.115119e+002, 1.608905e+003
8.119940e+002, 1.607480e+003
8.124761e+002, 1.607082e+003
8.129583e+002, 1.609053e+003
8.134404e+002, 1.610724e+003
8.139225e+002, 1.611239e+003
8.144046e+002, 1.610793e+003
8.148867e+002, 1.610389e+003
8.153688e+002, 1.610012e+003
8.158510e+002, 1.610105e+003
8.163331e+002, 1.611016e+003
8.168152e+002, 1.612456e+003
8.172973e+002, 1.614192e+003
8.177794e+002, 1.616068e+003
8.182615e+002, 1.617494e+003
8.187437e+002, 1.617402e+003
8.192258e+002, 1.617479e+003
8.197079e+002, 1.618892e+003
8.201900e+002, 1.621350e+003
8.206721e+002, 1.622624e+003
8.211542e+002, 1.622266e+003
8.216364e+002, 1.621676e+003
8.221185e+002, 1.621233e+003
8.226006e+002, 1.620935e+003
8.230827e+002, 1.620695e+003
8.235648e+002, 1.620548e+003
8.240469e+002, 1.620668e+003
8.245291e+002, 1.621713e+003
8.250112e+002, 1.622660e+003
8.254933e+002, 1.622436e+003
8.259754e+002, 1.621311e+003
8.264575e+002, 1.620113e+003
8.269396e+002, 1.618750e+003
8.274218e+002, 1.617799e+003
8.279039e+002, 1.617468e+003
8.283860e+002, 1.617643e+003
8.288681e+002, 1.617969e+003
8.293502e+002, 1.618447e+003
8.298323e+002, 1.619123e+003
8.303145e+002, 1.620225e+003
8.307966e+002, 1.621263e+003
8.312787e+002, 1.621155e+003
8.317608e+002, 1.620160e+003
8.322429e+002, 1.619111e+003
8.327250e+002, 1.617880e+003
8.332072e+002, 1.617196e+003
8.336893e+002, 1.617763e+003
8.341714e+002, 1.619170e+003
8.346535e+002, 1.620331e+003
8.351356e+002, 1.621165e+003
8.356177e+002, 1.621763e+003
8.360999e+002, 1.622012e+003
8.365820e+002, 1.622177e+003
8.370641e+002, 1.622850e+003
8.375462e+002, 1.624008e+003
8.380283e+002, 1.625471e+003
8.385104e+002, 1.627464e+003
8.389926e+002, 1.629205e+003
8.394747e+002, 1.629373e+003
8.399568e+002, 1.628760e+003
8.404389e+002, 1.628757e+003
8.409210e+002, 1.630421e+003
8.414031e+002, 1.632007e+003
8.418853e+002, 1.633045e+003
8.423674e+002, 1.633807e+003
8.428495e+002, 1.634646e+003
8.433316e+002, 1.635562e+003
8.438137e+002, 1.636517e+003
8.442958e+002, 1.637554e+003
8.447780e+002, 1.638476e+003
8.452601e+002, 1.638876e+003
8.457422e+002, 1.638944e+003
8.462243e+002, 1.639261e+003
8.467064e+002, 1.640333e+003
8.471885e+002, 1.640799e+003
8.476707e+002, 1.638938e+003
8.481528e+002, 1.636487e+003
8.486349e+002, 1.635564e+003
8.491170e+002, 1.637735e+003
8.495991e+002, 1.638926e+003
8.500812e+002, 1.638796e+003
8.505634e+002, 1.638181e+003
8.510455e+002, 1.637894e+003
8.515276e+002, 1.637953e+003
8.520097e+002, 1.638495e+003
8.524918e+002, 1.639625e+003
8.529739e+002, 1.640701e+003
8.534561e+002, 1.640872e+003
8.539382e+002, 1.640796e+003
8.544203e+002, 1.641147e+003
8.549024e+002, 1.641996e+003
8.553845e+002, 1.643453e+003
8.558666e+002, 1.646611e+003
8.563488e+002, 1.649385e+003
8.568309e+002, 1.650032e+003
8.573130e+002, 1.648082e+003
8.577951e+002, 1.647445e+003
8.582772e+002, 1.648168e+003
8.587593e+002, 1.649784e+003
8.592415e+002, 1.653001e+003
8.597236e+002, 1.656385e+003
8.602057e+002, 1.657066e+003
8.606878e+002, 1.654822e+003
8.611699e+002, 1.652974e+003
8.616520e+002, 1.653215e+003
8.621342e+002, 1.654297e+003
8.626163e+002, 1.655766e+003
8.630984e+002, 1.657637e+003
8.635805e+002, 1.658752e+003
8.640626e+002, 1.658956e+003
8.645447e+002, 1.658945e+003
8.650269e+002, 1.659292e+003
8.655090e+002, 1.659750e+003
8.659911e+002, 1.659141e+003
8.664732e+002, 1.657649e+003
8.669553e+002, 1.656425e+003
8.674374e+002, 1.655339e+003
8.679196e+002, 1.655512e+003
8.684017e+002, 1.658845e+003
8.688838e+002, 1.664679e+003
8.693659e+002, 1.668094e+003
8.698480e+002, 1.667302e+003
8.703301e+002, 1.666351e+003
8.708123e+002, 1.666233e+003
8.712944e+002, 1.666819e+003
8.717765e+002, 1.668054e+003
8.722586e+002, 1.669797e+003
8.727407e+002, 1.670830e+003
8.732228e+002, 1.669889e+003
8.737050e+002, 1.668786e+003
8.741871e+002, 1.669853e+003
8.746692e+002, 1.672152e+003
8.751513e+002, 1.673658e+003
8.756334e+002, 1.673416e+003
8.761155e+002, 1.672693e+003
8.765977e+002, 1.671497e+003
8.770798e+002, 1.670180e+003
8.775619e+002, 1.669356e+003
8.780440e+002, 1.669056e+003
8.785261e+002, 1.668952e+003
8.790082e+002, 1.668888e+003
8.794904e+002, 1.669266e+003
8.799725e+002, 1.671563e+003
8.804546e+002, 1.674428e+003
8.809367e+002, 1.675279e+003
8.814188e+002, 1.672232e+003
8.819009e+002, 1.669696e+003
8.823831e+002, 1.669554e+003
8.828652e+002, 1.670452e+003
8.833473e+002, 1.671100e+003
8.838294e+002, 1.671608e+003
8.843115e+002, 1.671317e+003
8.847936e+002, 1.669969e+003
8.852758e+002, 1.668770e+003
8.857579e+002, 1.669604e+003
8.862400e+002, 1.671411e+003
8.867221e+002, 1.671207e+003
8.872042e+002, 1.668490e+003
8.876863e+002, 1.666972e+003
8.881685e+002, 1.670410e+003
8.886506e+002, 1.674548e+003
8.891327e+002, 1.675962e+003
8.896148e+002, 1.673943e+003
8.900969e+002, 1.673705e+003
8.905790e+002, 1.675687e+003
8.910612e+002, 1.678232e+003
8.915433e+002, 1.680706e+003
8.920254e+002, 1.682888e+003
8.925075e+002, 1.683855e+003
8.929896e+002, 1.683669e+003
8.934717e+002, 1.682990e+003
8.939539e+002, 1.681488e+003
8.944360e+002, 1.680273e+003
8.949181e+002, 1.680415e+003
8.954002e+002, 1.681679e+003
8.958823e+002, 1.682299e+003
8.963644e+002, 1.681626e+003
8.968466e+002, 1.681484e+003
8.973287e+002, 1.682644e+003
8.978108e+002, 1.684480e+003
8.982929e+002, 1.685132e+003
8.987750e+002, 1.684828e+003
8.992571e+002, 1.684979e+003
8.997393e+002, 1.686693e+003
9.002214e+002, 1.688218e+003
9.007035e+002, 1.687649e+003
9.011856e+002, 1.685969e+003
9.016677e+002, 1.684843e+003
9.021498e+002, 1.684990e+003
9.026320e+002, 1.685147e+003
9.031141e+002, 1.685025e+003
9.035962e+002, 1.685068e+003
9.040783e+002, 1.686134e+003
9.045604e+002, 1.688107e+003
9.050425e+002, 1.689406e+003
9.055247e+002, 1.689747e+003
9.060068e+002, 1.689741e+003
9.064889e+002, 1.690074e+003
9.069710e+002, 1.690343e+003
9.074531e+002, 1.689912e+003
9.079352e+002, 1.688268e+003
9.084174e+002, 1.687665e+003
9.088995e+002, 1.689350e+003
9.093816e+002, 1.691063e+003
9.098637e+002, 1.691265e+003
9.103458e+002, 1.689968e+003
9.108279e+002, 1.689477e+003
9.113101e+002, 1.689802e+003
9.117922e+002, 1.690163e+003
9.122743e+002, 1.689734e+003
9.127564e+002, 1.689196e+003
9.132385e+002, 1.689278e+003
9.137206e+002, 1.689959e+003
9.142028e+002, 1.690877e+003
9.146849e+002, 1.692042e+003
9.151670e+002, 1.693335e+003
9.156491e+002, 1.694975e+003
9.161312e+002, 1.696686e+003
9.166133e+002, 1.697300e+003
9.170955e+002, 1.696822e+003
9.175776e+002, 1.695901e+003
9.180597e+002, 1.694225e+003
9.185418e+002, 1.693093e+003
9.190239e+002, 1.695040e+003
9.195060e+002, 1.698579e+003
9.199882e+002, 1.700794e+003
9.204703e+002, 1.698795e+003
9.209524e+002, 1.697975e+003
9.214345e+002, 1.700060e+003
9.219166e+002, 1.702964e+003
9.223987e+002, 1.703819e+003
9.228809e+002, 1.702404e+003
9.233630e+002, 1.702347e+003
9.238451e+002, 1.704209e+003
9.243272e+002, 1.706429e+003
9.248093e+002, 1.707094e+003
9.252914e+002, 1.707211e+003
9.257736e+002, 1.708240e+003
9.262557e+002, 1.710604e+003
9.267378e+002, 1.712651e+003
9.272199e+002, 1.714210e+003
9.277020e+002, 1.715004e+003
9.281841e+002, 1.714433e+003
9.286663e+002, 1.712524e+003
9.291484e+002, 1.713022e+003
9.296305e+002, 1.716064e+003
9.301126e+002, 1.718781e+003
9.305947e+002, 1.718489e+003
9.310768e+002, 1.717411e+003
9.315590e+002, 1.718911e+003
9.320411e+002, 1.722307e+003
9.325232e+002, 1.724547e+003
9.330053e+002, 1.723258e+003
9.334874e+002, 1.722318e+003
9.339695e+002, 1.722640e+003
9.344517e+002, 1.723985e+003
9.349338e+002, 1.726195e+003
9.354159e+002, 1.729297e+003
9.358980e+002, 1.731290e+003
9.363801e+002, 1.731342e+003
9.368622e+002, 1.730797e+003
9.373444e+002, 1.730848e+003
9.378265e+002, 1.731477e+003
9.383086e+002, 1.732731e+003
9.387907e+002, 1.735164e+003
9.392728e+002, 1.737101e+003
9.397549e+002, 1.737792e+003
9.402371e+002, 1.738335e+003
9.407192e+002, 1.739681e+003
9.412013e+002, 1.741840e+003
9.416834e+002, 1.743990e+003
9.421655e+002, 1.746097e+003
9.426476e+002, 1.747928e+003
9.431298e+002, 1.748583e+003
9.436119e+002, 1.749271e+003
9.440940e+002, 1.751582e+003
9.445761e+002, 1.755550e+003
9.450582e+002, 1.759147e+003
9.455403e+002, 1.762293e+003
9.460225e+002, 1.764418e+003
9.465046e+002, 1.764790e+003
9.469867e+002, 1.764128e+003
9.474688e+002, 1.765669e+003
9.479509e+002, 1.769271e+003
9.484330e+002, 1.772934e+003
9.489152e+002, 1.775731e+003
9.493973e+002, 1.778336e+003
9.498794e+002, 1.781595e+003
9.503615e+002, 1.785077e+003
9.508436e+002, 1.788025e+003
9.513257e+002, 1.788928e+003
9.518079e+002, 1.791274e+003
9.522900e+002, 1.795873e+003
9.527721e+002, 1.801125e+003
9.532542e+002, 1.804916e+003
9.537363e+002, 1.807496e+003
9.542184e+002, 1.810725e+003
9.547006e+002, 1.814846e+003
9.551827e+002, 1.819488e+003
9.556648e+002, 1.824736e+003
9.561469e+002, 1.830196e+003
9.566290e+002, 1.835238e+003
9.571111e+002, 1.839686e+003
9.575933e+002, 1.845459e+003
9.580754e+002, 1.852871e+003
9.585575e+002, 1.861169e+003
9.590396e+002, 1.870479e+003
9.595217e+002, 1.880142e+003
9.600038e+002, 1.887837e+003
9.604860e+002, 1.893814e+003
9.609681e+002, 1.899399e+003
9.614502e+002, 1.904031e+003
9.619323e+002, 1.909693e+003
9.624144e+002, 1.917498e+003
9.628965e+002, 1.927181e+003
9.633787e+002, 1.938067e+003
9.638608e+002, 1.951048e+003
9.643429e+002, 1.962783e+003
9.648250e+002, 1.972695e+003
9.653071e+002, 1.981877e+003
9.657892e+002, 1.991448e+003
9.662714e+002, 2.001390e+003
9.667535e+002, 2.011986e+003
9.672356e+002, 2.023291e+003
9.677177e+002, 2.034459e+003
9.681998e+002, 2.044987e+003
9.686819e+002, 2.055099e+003
9.691641e+002, 2.064685e+003
9.696462e+002, 2.073803e+003
9.701283e+002, 2.083437e+003
9.706104e+002, 2.093838e+003
9.710925e+002, 2.104018e+003
9.715746e+002, 2.113925e+003
9.720568e+002, 2.123064e+003
9.725389e+002, 2.130469e+003
9.730210e+002, 2.136401e+003
9.735031e+002, 2.141517e+003
9.739852e+002, 2.145928e+003
9.744673e+002, 2.149726e+003
9.749495e+002, 2.152480e+003
9.754316e+002, 2.154938e+003
9.759137e+002, 2.158823e+003
9.763958e+002, 2.164339e+003
9.768779e+002, 2.167486e+003
9.773600e+002, 2.167278e+003
9.778422e+002, 2.165944e+003
9.783243e+002, 2.166046e+003
9.788064e+002, 2.166405e+003
9.792885e+002, 2.165212e+003
9.797706e+002, 2.161643e+003
9.802527e+002, 2.159358e+003
9.807349e+002, 2.159828e+003
9.812170e+002, 2.160420e+003
9.816991e+002, 2.159464e+003
9.821812e+002, 2.157297e+003
9.826633e+002, 2.156470e+003
9.831454e+002, 2.156956e+003
9.836276e+002, 2.158679e+003
9.841097e+002, 2.162578e+003
9.845918e+002, 2.166754e+003
9.850739e+002, 2.169372e+003
9.855560e+002, 2.171100e+003
9.860381e+002, 2.173804e+003
9.865203e+002, 2.177966e+003
9.870024e+002, 2.182423e+003
9.874845e+002, 2.187278e+003
9.879666e+002, 2.191935e+003
9.884487e+002, 2.194920e+003
9.889308e+002, 2.197028e+003
9.894130e+002, 2.201136e+003
9.898951e+002, 2.208128e+003
9.903772e+002, 2.214097e+003
9.908593e+002, 2.215450e+003
9.913414e+002, 2.215993e+003
9.918235e+002, 2.218769e+003
9.923057e+002, 2.223997e+003
9.927878e+002, 2.227898e+003
9.932699e+002, 2.230432e+003
9.937520e+002, 2.232126e+003
9.942341e+002, 2.232858e+003
9.947162e+002, 2.233222e+003
9.951984e+002, 2.234855e+003
9.956805e+002, 2.236986e+003
9.961626e+002, 2.237476e+003
9.966447e+002, 2.234563e+003
9.971268e+002, 2.231096e+003
9.976089e+002, 2.227612e+003
9.980911e+002, 2.223970e+003
9.985732e+002, 2.220108e+003
9.990553e+002, 2.216005e+003
9.995374e+002, 2.211304e+003
1.000020e+003, 2.206087e+003
1.000502e+003, 2.199821e+003
1.000984e+003, 2.191888e+003
1.001466e+003, 2.182860e+003
1.001948e+003, 2.172913e+003
1.002430e+003, 2.162024e+003
1.002912e+003, 2.152177e+003
1.003394e+003, 2.144229e+003
1.003876e+003, 2.135920e+003
1.004359e+003, 2.125826e+003
1.004841e+003, 2.115007e+003
1.005323e+003, 2.107785e+003
1.005805e+003, 2.103163e+003
1.006287e+003, 2.097273e+003
1.006769e+003, 2.086889e+003
1.007251e+003, 2.076705e+003
1.007733e+003, 2.069041e+003
1.008216e+003, 2.063191e+003
1.008698e+003, 2.058438e+003
1.009180e+003, 2.055389e+003
1.009662e+003, 2.050734e+003
1.010144e+003, 2.044111e+003
1.010626e+003, 2.036846e+003
1.011108e+003, 2.030006e+003
1.011590e+003, 2.023650e+003
1.012072e+003, 2.017878e+003
1.012555e+003, 2.012656e+003
1.013037e+003, 2.008202e+003
1.013519e+003, 2.005132e+003
1.014001e+003, 2.002263e+003
1.014483e+003, 1.999426e+003
1.014965e+003, 1.996379e+003
1.015447e+003, 1.992215e+003
1.015929e+003, 1.987009e+003
1.016411e+003, 1.981568e+003
1.016894e+003, 1.975924e+003
1.017376e+003, 1.970723e+003
1.017858e+003, 1.967912e+003
1.018340e+003, 1.965282e+003
1.018822e+003, 1.959842e+003
1.019304e+003, 1.949215e+003
1.019786e+003, 1.941146e+003
1.020268e+003, 1.936489e+003
1.020751e+003, 1.932177e+003
1.021233e+003, 1.925541e+003
1.021715e+003, 1.917494e+003
1.022197e+003, 1.910357e+003
1.022679e+003, 1.904127e+003
1.023161e+003, 1.898635e+003
1.023643e+003, 1.894682e+003
1.024125e+003, 1.890443e+003
1.024607e+003, 1.884744e+003
1.025090e+003, 1.878397e+003
1.025572e+003, 1.873153e+003
1.026054e+003, 1.869037e+003
1.026536e+003, 1.864770e+003
1.027018e+003, 1.859878e+003
1.027500e+003, 1.855508e+003
1.027982e+003, 1.853737e+003
1.028464e+003, 1.852700e+003
1.028947e+003, 1.850066e+003
1.029429e+003, 1.845103e+003
1.029911e+003, 1.840633e+003
1.030393e+003, 1.836981e+003
1.030875e+003, 1.833648e+003
1.031357e+003, 1.830591e+003
1.031839e+003, 1.827658e+003
1.032321e+003, 1.823573e+003
1.032803e+003, 1.818965e+003
1.033286e+003, 1.816280e+003
1.033768e+003, 1.819407e+003
1.034250e+003, 1.821723e+003
1.034732e+003, 1.819262e+003
1.035214e+003, 1.814710e+003
1.035696e+003, 1.811947e+003
1.036178e+003, 1.811181e+003
1.036660e+003, 1.810962e+003
1.037143e+003, 1.811261e+003
1.037625e+003, 1.811440e+003
1.038107e+003, 1.810980e+003
1.038589e+003, 1.809979e+003
1.039071e+003, 1.808266e+003
1.039553e+003, 1.805897e+003
1.040035e+003, 1.804207e+003
1.040517e+003, 1.803909e+003
1.041000e+003, 1.803599e+003
1.041482e+003, 1.802768e+003
1.041964e+003, 1.801855e+003
1.042446e+003, 1.802325e+003
1.042928e+003, 1.803754e+003
1.043410e+003, 1.804217e+003
1.043892e+003, 1.802775e+003
1.044374e+003, 1.801463e+003
1.044856e+003, 1.802094e+003
1.045339e+003, 1.803045e+003
1.045821e+003, 1.802825e+003
1.046303e+003, 1.801267e+003
1.046785e+003, 1.799760e+003
1.047267e+003, 1.798336e+003
1.047749e+003, 1.796753e+003
1.048231e+003, 1.794300e+003
1.048713e+003, 1.792015e+003
1.049195e+003, 1.791438e+003
1.049677e+003, 1.792149e+003
1.050160e+003, 1.792964e+003
1.050642e+003, 1.794001e+003
1.051124e+003, 1.794404e+003
1.051606e+003, 1.793976e+003
1.052088e+003, 1.793012e+003
1.052570e+003, 1.791594e+003
1.053052e+003, 1.789948e+003
1.053534e+003, 1.789328e+003
1.054017e+003, 1.789912e+003
1.054499e+003, 1.790108e+003
1.054981e+003, 1.788228e+003
1.055463e+003, 1.786278e+003
1.055945e+003, 1.785808e+003
1.056427e+003, 1.786480e+003
1.056909e+003, 1.786250e+003
1.057391e+003, 1.785068e+003
1.057874e+003, 1.783760e+003
1.058356e+003, 1.782623e+003
1.058838e+003, 1.781501e+003
1.059320e+003, 1.779771e+003
1.059802e+003, 1.778129e+003
1.060284e+003, 1.777602e+003
1.060766e+003, 1.779195e+003
1.061248e+003, 1.780089e+003
1.061730e+003, 1.779980e+003
1.062213e+003, 1.779585e+003
1.062695e+003, 1.779230e+003
1.063177e+003, 1.779000e+003
1.063659e+003, 1.779383e+003
1.064141e+003, 1.780231e+003
1.064623e+003, 1.780893e+003
1.065105e+003, 1.780793e+003
1.065587e+003, 1.780679e+003
1.066070e+003, 1.780980e+003
1.066552e+003, 1.781329e+003
1.067034e+003, 1.780995e+003
1.067516e+003, 1.779922e+003
1.067998e+003, 1.779786e+003
1.068480e+003, 1.780871e+003
1.068962e+003, 1.781964e+003
1.069444e+003, 1.782004e+003
1.069927e+003, 1.781533e+003
1.070409e+003, 1.780766e+003
1.070891e+003, 1.779805e+003
1.071373e+003, 1.779956e+003
1.071855e+003, 1.781824e+003
1.072337e+003, 1.783226e+003
1.072819e+003, 1.783391e+003
1.073301e+003, 1.782917e+003
1.073783e+003, 1.782608e+003
1.074266e+003, 1.782543e+003
1.074748e+003, 1.782934e+003
1.075230e+003, 1.784048e+003
1.075712e+003, 1.785021e+003
1.076194e+003, 1.785577e+003
1.076676e+003, 1.785984e+003
1.077158e+003, 1.786407e+003
1.077640e+003, 1.786824e+003
1.078122e+003, 1.786809e+003
1.078604e+003, 1.786474e+003
1.079087e+003, 1.786799e+003
1.079569e+003, 1.788485e+003
1.080051e+003, 1.790827e+003
1.080533e+003, 1.794221e+003
1.081015e+003, 1.797656e+003
1.081497e+003, 1.799251e+003
1.081979e+003, 1.798346e+003
1.082461e+003, 1.798683e+003
1.082944e+003, 1.800696e+003
1.083426e+003, 1.802854e+003
1.083908e+003, 1.802532e+003
1.084390e+003, 1.802262e+003
1.084872e+003, 1.806787e+003
1.085354e+003, 1.815566e+003
1.085836e+003, 1.819024e+003
1.086318e+003, 1.812458e+003
1.086801e+003, 1.807257e+003
1.087283e+003, 1.806436e+003
1.087765e+003, 1.807819e+003
1.088247e+003, 1.807638e+003
1.088729e+003, 1.806386e+003
1.089211e+003, 1.805369e+003
1.089693e+003, 1.804923e+003
1.090175e+003, 1.804351e+003
1.090657e+003, 1.803186e+003
1.091140e+003, 1.801961e+003
1.091622e+003, 1.800998e+003
1.092104e+003, 1.800233e+003
1.092586e+003, 1.799031e+003
1.093068e+003, 1.797454e+003
1.093550e+003, 1.796351e+003
1.094032e+003, 1.796493e+003
1.094514e+003, 1.796634e+003
1.094997e+003, 1.795673e+003
1.095479e+003, 1.794261e+003
1.095961e+003, 1.793231e+003
1.096443e+003, 1.792546e+003
1.096925e+003, 1.792520e+003
1.097407e+003, 1.793214e+003
1.097889e+003, 1.794174e+003
1.098371e+003, 1.795411e+003
1.098854e+003, 1.796446e+003
1.099336e+003, 1.796324e+003
1.099818e+003, 1.795390e+003
1.100300e+003, 1.795047e+003
1.100782e+003, 1.796606e+003
1.101264e+003, 1.796898e+003
1.101746e+003, 1.795099e+003
1.102228e+003, 1.792793e+003
1.102710e+003, 1.792174e+003
1.103193e+003, 1.792713e+003
1.103675e+003, 1.793369e+003
1.104157e+003, 1.794019e+003
1.104639e+003, 1.793781e+003
1.105121e+003, 1.790615e+003
1.105603e+003, 1.788464e+003
1.106085e+003, 1.789164e+003
1.106567e+003, 1.791723e+003
1.107049e+003, 1.793083e+003
1.107531e+003, 1.793398e+003
1.108014e+003, 1.793838e+003
1.108496e+003, 1.794856e+003
1.108978e+003, 1.795573e+003
1.109460e+003, 1.794307e+003
1.109942e+003, 1.793245e+003
1.110424e+003, 1.794957e+003
1.110906e+003, 1.799656e+003
1.111388e+003, 1.800527e+003
1.111871e+003, 1.797268e+003
1.112353e+003, 1.794525e+003
1.112835e+003, 1.795201e+003
1.113317e+003, 1.796807e+003
1.113799e+003, 1.796582e+003
1.114281e+003, 1.795445e+003
1.114763e+003, 1.794922e+003
1.115245e+003, 1.795721e+003
1.115728e+003, 1.796334e+003
1.116210e+003, 1.796853e+003
1.116692e+003, 1.796964e+003
1.117174e+003, 1.795604e+003
1.117656e+003, 1.794058e+003
1.118138e+003, 1.795321e+003
1.118620e+003, 1.798670e+003
1.119102e+003, 1.800947e+003
1.119584e+003, 1.799540e+003
1.120067e+003, 1.799078e+003
1.120549e+003, 1.800532e+003
1.121031e+003, 1.802690e+003
1.121513e+003, 1.804218e+003
1.121995e+003, 1.805062e+003
1.122477e+003, 1.804850e+003
1.122959e+003, 1.803566e+003
1.123441e+003, 1.802273e+003
1.123924e+003, 1.801203e+003
1.124406e+003, 1.800651e+003
1.124888e+003, 1.800951e+003
1.125370e+003, 1.801721e+003
1.125852e+003, 1.801928e+003
1.126334e+003, 1.801616e+003
1.126816e+003, 1.801164e+003
1.127298e+003, 1.800771e+003
1.127781e+003, 1.799855e+003
1.128263e+003, 1.796929e+003
1.128745e+003, 1.794165e+003
1.129227e+003, 1.793500e+003
1.129709e+003, 1.794846e+003
1.130191e+003, 1.796657e+003
1.130673e+003, 1.799008e+003
1.131155e+003, 1.800828e+003
1.131637e+003, 1.801601e+003
1.132120e+003, 1.801815e+003
1.132602e+003, 1.801489e+003
1.133084e+003, 1.801126e+003
1.133566e+003, 1.801565e+003
1.134048e+003, 1.803352e+003
1.134530e+003, 1.804108e+003
1.135012e+003, 1.803508e+003
1.135494e+003, 1.803136e+003
1.135976e+003, 1.804545e+003
1.136458e+003, 1.806479e+003
1.136941e+003, 1.806611e+003
1.137423e+003, 1.805655e+003
1.137905e+003, 1.805345e+003
1.138387e+003, 1.806870e+003
1.138869e+003, 1.807975e+003
1.139351e+003, 1.808373e+003
1.139833e+003, 1.808696e+003
1.140315e+003, 1.809611e+003
1.140798e+003, 1.810897e+003
1.141280e+003, 1.811932e+003
1.141762e+003, 1.812780e+003
1.142244e+003, 1.813963e+003
1.142726e+003, 1.816781e+003
1.143208e+003, 1.818420e+003
1.143690e+003, 1.817862e+003
1.144172e+003, 1.816410e+003
1.144655e+003, 1.816315e+003
1.145137e+003, 1.817098e+003
1.145619e+003, 1.816361e+003
1.146101e+003, 1.813808e+003
1.146583e+003, 1.812172e+003
1.147065e+003, 1.813814e+003
1.147547e+003, 1.815883e+003
1.148029e+003, 1.817212e+003
1.148511e+003, 1.817923e+003
1.148994e+003, 1.818196e+003
1.149476e+003, 1.818093e+003
1.149958e+003, 1.818136e+003
1.150440e+003, 1.818465e+003
1.150922e+003, 1.818852e+003
1.151404e+003, 1.818432e+003
1.151886e+003, 1.818609e+003
1.152368e+003, 1.820905e+003
1.152851e+003, 1.824939e+003
1.153333e+003, 1.827257e+003
1.153815e+003, 1.827826e+003
1.154297e+003, 1.828009e+003
1.154779e+003, 1.828234e+003
1.155261e+003, 1.828369e+003
1.155743e+003, 1.828000e+003
1.156225e+003, 1.827627e+003
1.156708e+003, 1.827973e+003
1.157190e+003, 1.829208e+003
1.157672e+003, 1.829837e+003
1.158154e+003, 1.829789e+003
1.158636e+003, 1.829867e+003
1.159118e+003, 1.830935e+003
1.159600e+003, 1.831942e+003
1.160082e+003, 1.831130e+003
1.160564e+003, 1.829639e+003
1.161047e+003, 1.829547e+003
1.161529e+003, 1.832132e+003
1.162011e+003, 1.833872e+003
1.162493e+003, 1.834799e+003
1.162975e+003, 1.834806e+003
1.163457e+003, 1.832964e+003
1.163939e+003, 1.830725e+003
1.164421e+003, 1.830137e+003
1.164903e+003, 1.830878e+003
1.165385e+003, 1.831943e+003
1.165868e+003, 1.833443e+003
1.166350e+003, 1.834569e+003
1.166832e+003, 1.835264e+003
1.167314e+003, 1.835434e+003
1.167796e+003, 1.834337e+003
1.168278e+003, 1.832934e+003
1.168760e+003, 1.833146e+003
1.169242e+003, 1.834845e+003
1.169725e+003, 1.836498e+003
1.170207e+003, 1.838465e+003
1.170689e+003, 1.838939e+003
1.171171e+003, 1.836982e+003
1.171653e+003, 1.834747e+003
1.172135e+003, 1.835796e+003
1.172617e+003, 1.838783e+003
1.173099e+003, 1.840755e+003
1.173582e+003, 1.841381e+003
1.174064e+003, 1.841676e+003
1.174546e+003, 1.841605e+003
1.175028e+003, 1.841805e+003
1.175510e+003, 1.842647e+003
1.175992e+003, 1.843563e+003
1.176474e+003, 1.843193e+003
1.176956e+003, 1.841952e+003
1.177438e+003, 1.841043e+003
1.177921e+003, 1.840699e+003
1.178403e+003, 1.840578e+003
1.178885e+003, 1.839745e+003
1.179367e+003, 1.840218e+003
1.179849e+003, 1.843433e+003
1.180331e+003, 1.848092e+003
1.180813e+003, 1.850178e+003
1.181295e+003, 1.850102e+003
1.181778e+003, 1.849182e+003
1.182260e+003, 1.847411e+003
1.182742e+003, 1.846221e+003
1.183224e+003, 1.846365e+003
1.183706e+003, 1.847231e+003
1.184188e+003, 1.848688e+003
1.184670e+003, 1.850536e+003
1.185152e+003, 1.851508e+003
1.185635e+003, 1.851758e+003
1.186117e+003, 1.852225e+003
1.186599e+003, 1.853652e+003
1.187081e+003, 1.854505e+003
1.187563e+003, 1.853249e+003
1.188045e+003, 1.851777e+003
1.188527e+003, 1.851478e+003
1.189009e+003, 1.852294e+003
1.189491e+003, 1.853550e+003
1.189974e+003, 1.855189e+003
1.190456e+003, 1.856795e+003
1.190938e+003, 1.858652e+003
1.191420e+003, 1.859762e+003
1.191902e+003, 1.859256e+003
1.192384e+003, 1.858007e+003
1.192866e+003, 1.856634e+003
1.193348e+003, 1.855109e+003
1.193830e+003, 1.854982e+003
1.194313e+003, 1.856150e+003
1.194795e+003, 1.857384e+003
1.195277e+003, 1.858016e+003
1.195759e+003, 1.858433e+003
1.196241e+003, 1.858703e+003
1.196723e+003, 1.858953e+003
1.197205e+003, 1.859320e+003
1.197687e+003, 1.859810e+003
1.198169e+003, 1.860741e+003
1.198652e+003, 1.862096e+003
1.199134e+003, 1.862888e+003
1.199616e+003, 1.862424e+003
1.200098e+003, 1.861236e+003
1.200580e+003, 1.858464e+003
1.201062e+003, 1.855748e+003
1.201544e+003, 1.856088e+003
1.202026e+003, 1.859590e+003
1.202509e+003, 1.862304e+003
1.202991e+003, 1.863881e+003
1.203473e+003, 1.864730e+003
1.203955e+003, 1.863856e+003
1.204437e+003, 1.863620e+003
1.204919e+003, 1.866832e+003
1.205401e+003, 1.871402e+003
1.205883e+003, 1.872366e+003
1.206365e+003, 1.869620e+003
1.206848e+003, 1.867589e+003
1.207330e+003, 1.866829e+003
1.207812e+003, 1.866954e+003
1.208294e+003, 1.868552e+003
1.208776e+003, 1.870089e+003
1.209258e+003, 1.870156e+003
1.209740e+003, 1.869349e+003
1.210222e+003, 1.869287e+003
1.210705e+003, 1.869992e+003
1.211187e+003, 1.871123e+003
1.211669e+003, 1.872733e+003
1.212151e+003, 1.873928e+003
1.212633e+003, 1.873920e+003
1.213115e+003, 1.873308e+003
1.213597e+003, 1.871948e+003
1.214079e+003, 1.870394e+003
1.214562e+003, 1.870972e+003
1.215044e+003, 1.873627e+003
1.215526e+003, 1.875630e+003
1.216008e+003, 1.876326e+003
1.216490e+003, 1.876480e+003
1.216972e+003, 1.875906e+003
1.217454e+003, 1.875712e+003
1.217936e+003, 1.877120e+003
1.218418e+003, 1.879633e+003
1.218901e+003, 1.880777e+003
1.219383e+003, 1.880592e+003
1.219865e+003, 1.880124e+003
1.220347e+003, 1.879458e+003
1.220829e+003, 1.879362e+003
1.221311e+003, 1.881339e+003
1.221793e+003, 1.883263e+003
1.222275e+003, 1.883362e+003
1.222757e+003, 1.881951e+003
1.223240e+003, 1.881484e+003
1.223722e+003, 1.881879e+003
1.224204e+003, 1.881816e+003
1.224686e+003, 1.880702e+003
1.225168e+003, 1.879576e+003
1.225650e+003, 1.878982e+003
1.226132e+003, 1.878871e+003
1.226614e+003, 1.879439e+003
1.227096e+003, 1.880504e+003
1.227579e+003, 1.879872e+003
1.228061e+003, 1.877814e+003
1.228543e+003, 1.876684e+003
1.229025e+003, 1.877501e+003
1.229507e+003, 1.879131e+003
1.229989e+003, 1.881583e+003
1.230471e+003, 1.883971e+003
1.230953e+003, 1.885623e+003
1.231436e+003, 1.886570e+003
1.231918e+003, 1.886894e+003
1.232400e+003, 1.886723e+003
1.232882e+003, 1.887050e+003
1.233364e+003, 1.888728e+003
1.233846e+003, 1.890147e+003
1.234328e+003, 1.890741e+003
1.234810e+003, 1.890546e+003
1.235292e+003, 1.889125e+003
1.235775e+003, 1.886842e+003
1.236257e+003, 1.886993e+003
1.236739e+003, 1.889104e+003
1.237221e+003, 1.890577e+003
1.237703e+003, 1.889708e+003
1.238185e+003, 1.888948e+003
1.238667e+003, 1.888691e+003
1.239149e+003, 1.889449e+003
1.239632e+003, 1.892211e+003
1.240114e+003, 1.896408e+003
1.240596e+003, 1.899205e+003
1.241078e+003, 1.900598e+003
1.241560e+003, 1.900686e+003
1.242042e+003, 1.898011e+003
1.242524e+003, 1.896206e+003
1.243006e+003, 1.896342e+003
1.243489e+003, 1.897299e+003
1.243971e+003, 1.898415e+003
1.244453e+003, 1.899626e+003
1.244935e+003, 1.900835e+003
1.245417e+003, 1.901904e+003
1.245899e+003, 1.902296e+003
1.246381e+003, 1.900601e+003
1.246863e+003, 1.900064e+003
1.247345e+003, 1.901571e+003
1.247828e+003, 1.903435e+003
1.248310e+003, 1.904223e+003
1.248792e+003, 1.904264e+003
1.249274e+003, 1.903958e+003
1.249756e+003, 1.903654e+003
1.250238e+003, 1.904459e+003
1.250720e+003, 1.908620e+003
1.251202e+003, 1.910942e+003
1.251684e+003, 1.910568e+003
1.252167e+003, 1.909480e+003
1.252649e+003, 1.909214e+003
1.253131e+003, 1.909509e+003
1.253613e+003, 1.909841e+003
1.254095e+003, 1.910268e+003
1.254577e+003, 1.911073e+003
1.255059e+003, 1.913074e+003
1.255541e+003, 1.913812e+003
1.256023e+003, 1.912814e+003
1.256506e+003, 1.911682e+003
1.256988e+003, 1.911808e+003
1.257470e+003, 1.912684e+003
1.257952e+003, 1.914206e+003
1.258434e+003, 1.915868e+003
1.258916e+003, 1.915966e+003
1.259398e+003, 1.913344e+003
1.259880e+003, 1.912328e+003
1.260363e+003, 1.913339e+003
1.260845e+003, 1.915020e+003
1.261327e+003, 1.917195e+003
1.261809e+003, 1.918648e+003
1.262291e+003, 1.917215e+003
1.262773e+003, 1.914188e+003
1.263255e+003, 1.913182e+003
1.263737e+003, 1.914922e+003
1.264219e+003, 1.915493e+003
1.264702e+003, 1.914548e+003
1.265184e+003, 1.913638e+003
1.265666e+003, 1.914521e+003
1.266148e+003, 1.915370e+003
1.266630e+003, 1.913996e+003
1.267112e+003, 1.911855e+003
1.267594e+003, 1.912105e+003
1.268076e+003, 1.914943e+003
1.268559e+003, 1.917454e+003
1.269041e+003, 1.919438e+003
1.269523e+003, 1.920454e+003
1.270005e+003, 1.919071e+003
1.270487e+003, 1.917866e+003
1.270969e+003, 1.918646e+003
1.271451e+003, 1.920337e+003
1.271933e+003, 1.921744e+003
1.272416e+003, 1.922817e+003
1.272898e+003, 1.922693e+003
1.273380e+003, 1.921468e+003
1.273862e+003, 1.921033e+003
1.274344e+003, 1.923734e+003
1.274826e+003, 1.925790e+003
1.275308e+003, 1.925550e+003
1.275790e+003, 1.924494e+003
1.276272e+003, 1.924299e+003
1.276755e+003, 1.924886e+003
1.277237e+003, 1.926242e+003
1.277719e+003, 1.928211e+003
1.278201e+003, 1.929853e+003
1.278683e+003, 1.931054e+003
1.279165e+003, 1.931233e+003
1.279647e+003, 1.929741e+003
1.280129e+003, 1.928347e+003
1.280611e+003, 1.929576e+003
1.281094e+003, 1.932123e+003
1.281576e+003, 1.933220e+003
1.282058e+003, 1.932972e+003
1.282540e+003, 1.932589e+003
1.283022e+003, 1.932041e+003
1.283504e+003, 1.932132e+003
1.283986e+003, 1.933161e+003
1.284468e+003, 1.934036e+003
1.284950e+003, 1.932922e+003
1.285433e+003, 1.931520e+003
1.285915e+003, 1.932603e+003
1.286397e+003, 1.935464e+003
1.286879e+003, 1.937054e+003
1.287361e+003, 1.937000e+003
1.287843e+003, 1.936071e+003
1.288325e+003, 1.934135e+003
1.288807e+003, 1.933089e+003
1.289290e+003, 1.935956e+003
1.289772e+003, 1.939157e+003
1.290254e+003, 1.939222e+003
1.290736e+003, 1.937270e+003
1.291218e+003, 1.936071e+003
1.291700e+003, 1.935571e+003
1.292182e+003, 1.936874e+003
1.292664e+003, 1.940025e+003
1.293146e+003, 1.943040e+003
1.293629e+003, 1.945144e+003
1.294111e+003, 1.946015e+003
1.294593e+003, 1.944537e+003
1.295075e+003, 1.942280e+003
1.295557e+003, 1.941051e+003
1.296039e+003, 1.940771e+003
1.296521e+003, 1.940729e+003
1.297003e+003, 1.940884e+003
1.297486e+003, 1.941527e+003
1.297968e+003, 1.943979e+003
1.298450e+003, 1.945676e+003
1.298932e+003, 1.945993e+003
1.299414e+003, 1.945560e+003
1.299896e+003, 1.944988e+003
1.300378e+003, 1.944283e+003
1.300860e+003, 1.942844e+003
1.301343e+003, 1.941232e+003
1.301825e+003, 1.941597e+003
##END=



