##NAMES=Pyroaurite
##RRUFFID=R100053
##IDEAL CHEMISTRY=Mg_6_Fe^3+^_2_CO_3_(OH)_16_&#183;4H_2_O
##LOCALITY=Langban, Filipstad, Varmland, Sweden
##OWNER=RRUFF
##SOURCE=William W Pinch
##DESCRIPTION=Pale bluish-green hexagonal tablets embedded in calcite, associated with magnetite
##STATUS=The identification of this mineral has been confirmed by single-crystal X-ray diffraction.
##URL=rruff.info/R100053
90.01007, 0.0000000E+00
90.49219, 20.06028
90.97430, 19.63346
91.45642, 19.48235
91.93854, 19.75541
92.42065, 20.26229
92.90277, 20.79037
93.38489, 21.36753
93.86700, 21.80173
94.34912, 21.77343
94.83124, 21.34378
95.31335, 20.86100
95.79547, 20.54324
96.27759, 20.35241
96.75970, 20.08967
97.24182, 19.67069
97.72394, 19.24166
98.20605, 19.19557
98.68817, 19.57876
99.17029, 19.96905
99.65240, 19.94281
100.1345, 19.45686
100.6166, 19.21060
101.0988, 19.39689
101.5809, 19.96066
102.0630, 20.51358
102.5451, 21.19317
103.0272, 21.62719
103.5093, 21.28052
103.9915, 19.79119
104.4736, 18.45991
104.9557, 17.61088
105.4378, 17.26861
105.9199, 17.33407
106.4020, 18.19757
106.8842, 19.27874
107.3663, 19.53140
107.8484, 18.21465
108.3305, 16.92368
108.8126, 16.21939
109.2947, 16.50624
109.7769, 16.70851
110.2590, 16.84431
110.7411, 16.89882
111.2232, 16.82269
111.7053, 16.36211
112.1874, 15.94819
112.6696, 15.77830
113.1517, 16.44224
113.6338, 16.73623
114.1159, 16.14767
114.5980, 14.85144
115.0801, 14.08851
115.5623, 14.75507
116.0444, 15.78064
116.5265, 16.33553
117.0086, 15.73897
117.4907, 15.04864
117.9728, 14.60337
118.4550, 14.41779
118.9371, 14.45836
119.4192, 14.97711
119.9013, 15.65552
120.3834, 16.07906
120.8655, 15.68897
121.3477, 15.23159
121.8298, 15.36393
122.3119, 16.25903
122.7940, 17.05979
123.2761, 16.99392
123.7582, 16.36343
124.2404, 15.84096
124.7225, 15.85820
125.2046, 16.15808
125.6867, 16.41707
126.1688, 16.56366
126.6509, 16.72405
127.1331, 16.91478
127.6152, 17.18362
128.0973, 17.76782
128.5794, 19.05398
129.0615, 20.78271
129.5436, 22.35456
130.0258, 23.67645
130.5079, 24.74216
130.9900, 25.15199
131.4721, 24.90350
131.9542, 25.31089
132.4363, 27.99938
132.9185, 32.63844
133.4006, 36.94352
133.8827, 40.25389
134.3648, 42.75149
134.8469, 45.03117
135.3290, 46.91871
135.8112, 49.36809
136.2933, 53.57152
136.7754, 59.62160
137.2575, 66.21183
137.7396, 73.10866
138.2217, 80.18556
138.7039, 87.14774
139.1860, 93.95351
139.6681, 100.7279
140.1502, 107.8896
140.6323, 115.5239
141.1144, 123.0296
141.5966, 130.2867
142.0787, 137.3577
142.5608, 143.6892
143.0429, 149.1498
143.5250, 153.9370
144.0071, 158.3326
144.4893, 161.8555
144.9714, 165.7081
145.4535, 170.3979
145.9356, 176.2979
146.4177, 182.4037
146.8998, 188.8074
147.3820, 195.4331
147.8641, 202.2496
148.3462, 209.1501
148.8283, 216.2549
149.3104, 223.7149
149.7925, 231.6874
150.2747, 239.7623
150.7568, 247.7996
151.2389, 255.8080
151.7210, 263.9128
152.2031, 272.1740
152.6852, 280.4111
153.1674, 288.6045
153.6495, 297.9834
154.1316, 305.9506
154.6137, 311.8175
155.0958, 315.5485
155.5779, 318.9194
156.0601, 322.1945
156.5422, 325.1785
157.0243, 327.6634
157.5064, 329.2343
157.9885, 330.6562
158.4706, 332.0514
158.9528, 333.4012
159.4349, 334.9891
159.9170, 336.8692
160.3991, 339.0311
160.8812, 341.4627
161.3633, 343.9449
161.8455, 346.8687
162.3276, 350.5406
162.8097, 355.0703
163.2918, 359.6890
163.7739, 363.9977
164.2560, 367.7815
164.7382, 369.0388
165.2203, 369.7827
165.7024, 370.7867
166.1845, 372.0964
166.6666, 373.8404
167.1487, 375.4949
167.6309, 376.7261
168.1130, 377.6801
168.5951, 378.6403
169.0772, 380.1358
169.5593, 381.5013
170.0414, 382.1295
170.5236, 381.7761
171.0057, 381.0302
171.4878, 379.9665
171.9699, 378.7692
172.4520, 378.0294
172.9341, 378.7160
173.4163, 379.7951
173.8984, 380.0321
174.3805, 379.0000
174.8626, 377.3295
175.3447, 375.1064
175.8268, 372.5320
176.3090, 370.5751
176.7911, 370.6240
177.2732, 371.5979
177.7553, 371.7105
178.2374, 370.2124
178.7195, 367.9966
179.2017, 365.9273
179.6838, 364.0142
180.1659, 362.5989
180.6480, 362.3855
181.1301, 362.8657
181.6122, 362.7737
182.0944, 361.2537
182.5765, 359.3313
183.0586, 359.2012
183.5407, 360.8397
184.0228, 362.1247
184.5049, 360.6035
184.9871, 356.9868
185.4692, 353.8700
185.9513, 352.0474
186.4334, 351.2362
186.9155, 350.9644
187.3976, 351.2820
187.8798, 351.5729
188.3619, 351.2520
188.8440, 350.3573
189.3261, 349.1236
189.8082, 347.4359
190.2903, 345.4671
190.7725, 343.7997
191.2546, 342.4173
191.7367, 341.3027
192.2188, 340.4331
192.7009, 339.7958
193.1830, 339.3412
193.6652, 339.1359
194.1473, 339.1227
194.6294, 338.9809
195.1115, 338.7201
195.5936, 338.3017
196.0757, 337.5949
196.5579, 336.5884
197.0400, 335.6440
197.5221, 335.0261
198.0042, 334.6953
198.4863, 333.7987
198.9684, 332.1060
199.4506, 330.3722
199.9327, 329.8343
200.4148, 330.5895
200.8969, 331.5761
201.3790, 332.6400
201.8611, 333.8100
202.3433, 333.8219
202.8254, 332.3241
203.3075, 330.2169
203.7896, 329.1648
204.2717, 329.3803
204.7538, 329.5007
205.2360, 328.7321
205.7181, 326.8867
206.2002, 325.9505
206.6823, 326.2079
207.1644, 327.0256
207.6465, 327.2671
208.1287, 326.8700
208.6108, 326.1310
209.0929, 324.9575
209.5750, 323.1045
210.0571, 322.2895
210.5392, 322.9508
211.0214, 324.2617
211.5035, 324.3408
211.9856, 322.7118
212.4677, 321.1909
212.9498, 320.7455
213.4319, 321.7690
213.9140, 322.1844
214.3962, 321.7625
214.8783, 320.8553
215.3604, 320.2465
215.8425, 319.9220
216.3246, 319.8960
216.8067, 320.3242
217.2889, 321.5312
217.7710, 321.9800
218.2531, 321.3383
218.7352, 320.0762
219.2173, 319.3636
219.6994, 319.4948
220.1816, 319.5993
220.6637, 319.2523
221.1458, 318.2642
221.6279, 317.3311
222.1100, 316.2995
222.5921, 315.3928
223.0743, 315.3224
223.5564, 316.7211
224.0385, 317.8616
224.5206, 317.7896
225.0027, 315.8089
225.4848, 314.5397
225.9670, 314.2675
226.4491, 314.6617
226.9312, 314.8571
227.4133, 314.7461
227.8954, 314.6078
228.3775, 314.5451
228.8597, 314.4888
229.3418, 314.7032
229.8239, 315.4591
230.3060, 316.4046
230.7881, 316.4337
231.2702, 314.7861
231.7524, 313.3522
232.2345, 313.1180
232.7166, 314.9108
233.1987, 315.9025
233.6808, 315.6986
234.1629, 314.7867
234.6451, 314.4944
235.1272, 315.1873
235.6093, 315.9741
236.0914, 316.4887
236.5735, 316.7119
237.0556, 316.6933
237.5378, 316.1705
238.0199, 315.4953
238.5020, 315.6553
238.9841, 317.3711
239.4662, 318.8722
239.9483, 319.4098
240.4305, 318.7434
240.9126, 317.5966
241.3947, 315.5130
241.8768, 313.0828
242.3589, 311.7728
242.8410, 311.8532
243.3232, 312.6199
243.8053, 314.0114
244.2874, 316.9342
244.7695, 318.1539
245.2516, 316.7858
245.7337, 314.0713
246.2159, 312.8116
246.6980, 313.6025
247.1801, 314.9221
247.6622, 316.3099
248.1443, 318.0151
248.6264, 319.0469
249.1086, 319.0431
249.5907, 318.5555
250.0728, 318.8364
250.5549, 320.6081
251.0370, 321.9217
251.5191, 321.7735
252.0013, 319.3208
252.4834, 318.2819
252.9655, 319.1909
253.4476, 321.1886
253.9297, 322.7321
254.4118, 323.6924
254.8940, 324.3982
255.3761, 324.9215
255.8582, 325.2047
256.3403, 325.5194
256.8224, 325.7845
257.3046, 326.1457
257.7867, 326.8768
258.2688, 328.1560
258.7509, 329.4577
259.2330, 330.6307
259.7151, 331.6958
260.1973, 332.5763
260.6794, 333.2007
261.1615, 333.7033
261.6436, 334.1908
262.1257, 334.5059
262.6078, 335.1987
263.0900, 336.4549
263.5721, 338.3205
264.0542, 340.4079
264.5363, 342.8117
265.0184, 345.3375
265.5005, 347.8935
265.9827, 350.5862
266.4648, 352.9092
266.9469, 354.5995
267.4290, 355.6315
267.9111, 356.8036
268.3932, 358.0515
268.8754, 359.5234
269.3575, 361.4166
269.8396, 363.8297
270.3217, 366.3794
270.8038, 368.9797
271.2859, 371.6546
271.7681, 374.4865
272.2502, 377.6331
272.7323, 380.6160
273.2144, 382.6933
273.6965, 383.6424
274.1786, 384.9751
274.6608, 387.1660
275.1429, 390.0580
275.6250, 392.5514
276.1071, 394.5621
276.5892, 396.4140
277.0714, 398.1490
277.5535, 399.6797
278.0356, 402.0713
278.5177, 405.9101
278.9998, 410.6677
279.4819, 413.8854
279.9641, 415.2452
280.4462, 416.5406
280.9283, 419.5659
281.4104, 424.3809
281.8925, 428.2603
282.3746, 430.5983
282.8568, 431.8831
283.3389, 433.6365
283.8210, 435.9763
284.3031, 437.8503
284.7852, 438.2554
285.2673, 437.2731
285.7495, 436.5793
286.2316, 436.5197
286.7137, 436.6201
287.1958, 435.9102
287.6779, 434.3729
288.1600, 432.3724
288.6422, 429.9830
289.1243, 427.2347
289.6064, 424.6533
290.0885, 422.3850
290.5706, 419.9632
291.0527, 416.2558
291.5349, 411.3778
292.0170, 406.9488
292.4991, 404.1433
292.9812, 402.5631
293.4633, 400.9679
293.9454, 399.3347
294.4276, 397.4849
294.9097, 394.9299
295.3918, 391.8343
295.8739, 389.1130
296.3560, 387.4955
296.8381, 386.5448
297.3203, 385.0918
297.8024, 383.0249
298.2845, 381.2821
298.7666, 381.2348
299.2487, 382.4033
299.7308, 383.3230
300.2130, 383.6438
300.6951, 383.2516
301.1772, 381.5010
301.6593, 378.4082
302.1414, 375.6047
302.6235, 374.7645
303.1057, 375.2594
303.5878, 375.8714
304.0699, 376.4560
304.5520, 376.7589
305.0341, 376.1177
305.5162, 374.6803
305.9984, 373.6790
306.4805, 374.3957
306.9626, 376.0014
307.4447, 377.3787
307.9268, 378.4175
308.4089, 378.8861
308.8911, 378.0971
309.3732, 376.3831
309.8553, 375.1239
310.3374, 375.6781
310.8195, 376.8304
311.3016, 377.2805
311.7838, 376.4038
312.2659, 375.5485
312.7480, 375.8471
313.2301, 376.8756
313.7122, 377.5808
314.1943, 377.2755
314.6765, 376.6098
315.1586, 376.0132
315.6407, 375.5473
316.1228, 375.1684
316.6049, 374.7365
317.0870, 374.3971
317.5692, 374.3917
318.0513, 375.3822
318.5334, 376.2480
319.0155, 376.4496
319.4976, 375.9021
319.9797, 374.9501
320.4619, 373.2060
320.9440, 371.2740
321.4261, 369.8526
321.9082, 369.3727
322.3903, 369.1468
322.8724, 369.1722
323.3546, 369.4527
323.8367, 369.2608
324.3188, 367.9445
324.8009, 366.3903
325.2830, 365.2911
325.7651, 365.5069
326.2473, 365.3267
326.7294, 364.2291
327.2115, 362.3712
327.6936, 360.9699
328.1757, 360.3693
328.6578, 360.0619
329.1400, 359.8047
329.6221, 359.8742
330.1042, 359.6115
330.5863, 358.6712
331.0684, 357.3779
331.5505, 356.6917
332.0327, 356.6762
332.5148, 357.1753
332.9969, 358.3046
333.4790, 360.6168
333.9611, 361.9387
334.4432, 361.9691
334.9254, 361.1759
335.4075, 360.3058
335.8896, 359.2529
336.3717, 358.3154
336.8538, 357.5096
337.3359, 356.7859
337.8180, 356.8366
338.3001, 358.0694
338.7823, 359.4603
339.2644, 359.6358
339.7465, 358.2150
340.2286, 357.2933
340.7107, 357.5545
341.1928, 358.7799
341.6750, 359.2387
342.1571, 358.6823
342.6392, 358.2930
343.1213, 359.4296
343.6034, 362.1144
344.0855, 363.8387
344.5677, 363.8831
345.0498, 363.0246
345.5319, 363.2039
346.0140, 364.4509
346.4961, 365.8846
346.9782, 366.9559
347.4604, 367.7396
347.9425, 368.4948
348.4246, 369.2157
348.9067, 370.0462
349.3888, 371.5137
349.8709, 373.4367
350.3531, 374.7845
350.8352, 374.9695
351.3173, 374.2509
351.7994, 372.9870
352.2815, 371.1657
352.7636, 369.1480
353.2458, 367.1070
353.7279, 365.1271
354.2100, 363.3907
354.6921, 361.9091
355.1742, 360.7411
355.6563, 360.0420
356.1385, 359.7784
356.6206, 359.5875
357.1027, 359.1779
357.5848, 358.7153
358.0669, 358.3532
358.5490, 357.9398
359.0312, 357.9180
359.5133, 359.0049
359.9954, 360.7997
360.4775, 362.0764
360.9596, 361.4486
361.4417, 360.6191
361.9239, 360.8885
362.4060, 362.8961
362.8881, 364.7055
363.3702, 365.4004
363.8523, 365.4766
364.3344, 365.6942
364.8166, 366.3626
365.2987, 367.1302
365.7808, 367.7710
366.2629, 368.2238
366.7450, 369.0574
367.2271, 370.8516
367.7093, 372.8309
368.1914, 374.3141
368.6735, 375.0268
369.1556, 375.4891
369.6377, 375.5418
370.1198, 375.2736
370.6020, 375.4628
371.0841, 376.3178
371.5662, 377.4401
372.0483, 378.6288
372.5304, 380.0062
373.0125, 381.2119
373.4947, 382.0458
373.9768, 382.7578
374.4589, 384.0707
374.9410, 386.4748
375.4231, 388.4667
375.9052, 389.3122
376.3874, 388.7985
376.8695, 388.9147
377.3516, 389.8907
377.8337, 391.1153
378.3158, 391.8455
378.7979, 392.0351
379.2801, 392.0367
379.7622, 391.6721
380.2443, 391.2216
380.7264, 392.3403
381.2085, 395.2645
381.6906, 398.0318
382.1728, 398.7240
382.6549, 397.6533
383.1370, 396.6941
383.6191, 396.0326
384.1012, 395.8381
384.5833, 396.8118
385.0655, 398.7636
385.5476, 400.2648
386.0297, 400.1822
386.5118, 399.1851
386.9939, 398.4820
387.4760, 398.1994
387.9582, 398.0304
388.4403, 397.8536
388.9224, 397.5690
389.4045, 396.9775
389.8866, 395.7555
390.3687, 394.3542
390.8509, 393.1152
391.3330, 392.0443
391.8151, 391.1114
392.2972, 390.2773
392.7793, 389.5925
393.2614, 389.1025
393.7436, 388.8249
394.2257, 388.7437
394.7078, 389.1023
395.1899, 389.6812
395.6720, 389.9029
396.1541, 389.4051
396.6363, 388.6578
397.1184, 387.8217
397.6005, 386.8178
398.0826, 386.0414
398.5647, 385.6883
399.0468, 385.5497
399.5290, 385.3732
400.0111, 385.0916
400.4932, 384.8255
400.9753, 384.5603
401.4574, 384.2956
401.9395, 384.1667
402.4217, 384.0521
402.9038, 384.1913
403.3859, 384.8536
403.8680, 386.5422
404.3501, 387.4931
404.8322, 387.2923
405.3144, 386.4120
405.7965, 386.1317
406.2786, 386.5862
406.7607, 387.1831
407.2428, 387.6984
407.7249, 388.1333
408.2071, 388.4734
408.6892, 388.7193
409.1713, 388.8718
409.6534, 388.6527
410.1355, 388.1199
410.6176, 388.4674
411.0998, 390.5433
411.5819, 393.4074
412.0640, 394.4246
412.5461, 393.6664
413.0282, 393.1835
413.5103, 395.3857
413.9925, 398.8891
414.4746, 400.5989
414.9567, 399.5526
415.4388, 397.9833
415.9209, 398.2317
416.4030, 399.7808
416.8852, 401.3549
417.3673, 402.5897
417.8494, 403.3821
418.3315, 403.3174
418.8136, 402.3575
419.2957, 401.9084
419.7779, 403.2134
420.2600, 405.2325
420.7421, 406.9031
421.2242, 407.6261
421.7063, 408.2823
422.1884, 409.2274
422.6706, 410.3628
423.1527, 411.3474
423.6348, 412.1567
424.1169, 412.7497
424.5990, 413.0085
425.0811, 412.4656
425.5633, 412.6638
426.0454, 414.1176
426.5275, 416.1349
427.0096, 417.9411
427.4917, 420.0907
427.9738, 421.1057
428.4560, 420.1509
428.9381, 417.3628
429.4202, 416.1484
429.9023, 416.9181
430.3844, 418.5074
430.8665, 420.4267
431.3487, 422.9426
431.8308, 423.9059
432.3129, 422.5981
432.7950, 420.3406
433.2771, 420.1649
433.7592, 422.1604
434.2414, 423.9003
434.7235, 423.8805
435.2056, 422.6353
435.6877, 422.4750
436.1698, 423.4692
436.6519, 424.6403
437.1341, 425.0345
437.6162, 424.8325
438.0983, 424.4493
438.5804, 423.7425
439.0625, 423.2729
439.5446, 424.2119
440.0268, 426.1005
440.5089, 427.2539
440.9910, 426.1189
441.4731, 424.1554
441.9552, 422.5210
442.4373, 421.3431
442.9195, 420.6772
443.4016, 420.9956
443.8837, 421.7035
444.3658, 422.0775
444.8479, 421.8833
445.3300, 421.3458
445.8122, 420.2911
446.2943, 418.8221
446.7764, 417.7276
447.2585, 417.5300
447.7406, 417.4191
448.2227, 416.9779
448.7049, 415.9911
449.1870, 415.0738
449.6691, 414.1218
450.1512, 413.2956
450.6333, 412.9764
451.1154, 413.6520
451.5976, 413.7426
452.0797, 412.5717
452.5618, 410.2699
453.0439, 408.8148
453.5260, 408.2862
454.0081, 408.4255
454.4903, 409.3015
454.9724, 410.8921
455.4545, 412.2255
455.9366, 413.3258
456.4187, 413.8074
456.9008, 412.4478
457.3830, 409.5026
457.8651, 407.1079
458.3472, 406.3389
458.8293, 406.7361
459.3114, 407.7958
459.7935, 409.4882
460.2757, 410.8923
460.7578, 411.1426
461.2399, 410.6681
461.7220, 410.0503
462.2041, 409.4095
462.6862, 408.6987
463.1684, 407.7283
463.6505, 406.6515
464.1326, 405.8474
464.6147, 406.1293
465.0968, 406.1695
465.5789, 404.9185
466.0611, 402.0137
466.5432, 400.1493
467.0253, 400.4975
467.5074, 401.7769
467.9895, 402.9226
468.4716, 404.4428
468.9538, 405.0692
469.4359, 404.0607
469.9180, 402.1191
470.4001, 401.5817
470.8822, 403.1532
471.3643, 404.9097
471.8465, 406.1725
472.3286, 406.9454
472.8107, 407.2172
473.2928, 406.9311
473.7749, 406.3048
474.2570, 405.3133
474.7392, 403.9668
475.2213, 403.3684
475.7034, 403.8451
476.1855, 405.0990
476.6676, 406.8369
477.1497, 408.9798
477.6319, 410.7230
478.1140, 411.3772
478.5961, 411.3961
479.0782, 411.3256
479.5603, 411.1548
480.0424, 411.5237
480.5246, 413.5359
481.0067, 416.2569
481.4888, 418.3502
481.9709, 418.8938
482.4530, 419.2938
482.9352, 420.1532
483.4173, 421.4307
483.8994, 422.9968
484.3815, 425.5211
484.8636, 427.7438
485.3457, 428.7726
485.8279, 427.9585
486.3100, 428.2361
486.7921, 430.9165
487.2742, 434.2108
487.7563, 436.5516
488.2384, 437.2195
488.7206, 438.1872
489.2027, 439.7401
489.6848, 441.7411
490.1669, 443.6631
490.6490, 445.4065
491.1311, 447.3370
491.6133, 449.6731
492.0954, 452.4186
492.5775, 455.0877
493.0596, 457.6656
493.5417, 460.1834
494.0238, 462.4542
494.5060, 464.6253
494.9881, 467.3996
495.4702, 471.0729
495.9523, 475.1948
496.4344, 479.0869
496.9165, 482.8238
497.3987, 486.6696
497.8808, 490.7200
498.3629, 495.0226
498.8450, 499.7276
499.3271, 504.9020
499.8092, 509.9820
500.2914, 514.2172
500.7735, 518.4535
501.2556, 523.6338
501.7377, 531.2208
502.2198, 538.1905
502.7019, 543.0665
503.1841, 546.8235
503.6662, 552.1627
504.1483, 560.7561
504.6304, 569.5093
505.1125, 577.2765
505.5946, 583.8829
506.0768, 591.9287
506.5589, 602.0143
507.0410, 612.5829
507.5231, 621.9559
508.0052, 629.5980
508.4873, 639.5505
508.9695, 652.4690
509.4516, 667.2566
509.9337, 681.9558
510.4158, 696.5831
510.8979, 711.3952
511.3800, 726.9557
511.8622, 742.7562
512.3443, 757.0488
512.8264, 769.8751
513.3085, 784.3564
513.7906, 803.6689
514.2728, 825.7047
514.7549, 847.8190
515.2370, 869.5352
515.7191, 891.1987
516.2012, 912.4543
516.6833, 933.8533
517.1655, 956.5944
517.6476, 981.9063
518.1297, 1007.767
518.6118, 1033.326
519.0939, 1058.675
519.5760, 1085.091
520.0582, 1113.389
520.5403, 1142.039
521.0224, 1170.021
521.5045, 1197.167
521.9866, 1224.677
522.4688, 1253.166
522.9509, 1281.335
523.4330, 1308.245
523.9151, 1334.049
524.3972, 1357.842
524.8793, 1379.405
525.3615, 1398.551
525.8436, 1415.275
526.3257, 1429.616
526.8078, 1440.835
527.2899, 1449.668
527.7720, 1455.031
528.2542, 1453.912
528.7363, 1446.153
529.2184, 1434.337
529.7005, 1421.093
530.1826, 1405.115
530.6647, 1384.443
531.1469, 1357.789
531.6290, 1327.881
532.1111, 1295.226
532.5932, 1260.651
533.0753, 1225.987
533.5574, 1190.857
534.0396, 1156.264
534.5217, 1121.918
535.0038, 1088.081
535.4859, 1055.541
535.9680, 1024.903
536.4501, 995.2527
536.9323, 966.1503
537.4144, 937.0945
537.8965, 909.1911
538.3786, 882.5556
538.8607, 856.9886
539.3428, 832.6093
539.8250, 809.1822
540.3071, 787.4120
540.7892, 768.0960
541.2713, 750.3016
541.7534, 732.4796
542.2355, 714.6752
542.7177, 697.4078
543.1998, 680.6666
543.6819, 664.5660
544.1640, 649.6241
544.6461, 635.9046
545.1282, 622.2592
545.6104, 607.4587
546.0925, 592.6169
546.5746, 578.9428
547.0567, 566.4755
547.5388, 555.6310
548.0209, 547.5592
548.5031, 541.2823
548.9852, 534.4641
549.4673, 526.1082
549.9494, 517.8627
550.4315, 510.0088
550.9136, 502.5478
551.3958, 495.8203
551.8779, 489.9320
552.3600, 484.5874
552.8421, 479.6610
553.3242, 475.2128
553.8063, 470.4718
554.2885, 465.2021
554.7706, 460.2007
555.2527, 456.8243
555.7348, 454.8232
556.2169, 452.5924
556.6990, 449.4894
557.1812, 446.1729
557.6633, 443.9088
558.1454, 442.3521
558.6275, 440.1949
559.1096, 435.7745
559.5917, 431.0939
560.0739, 428.1323
560.5560, 427.0374
561.0381, 425.5611
561.5202, 422.0553
562.0023, 418.2841
562.4844, 415.5759
562.9666, 414.8317
563.4487, 414.0797
563.9308, 413.0922
564.4129, 412.0723
564.8950, 411.4979
565.3771, 412.1026
565.8593, 411.3780
566.3414, 408.0804
566.8235, 403.1105
567.3056, 400.6193
567.7877, 400.8699
568.2698, 401.7864
568.7520, 402.6016
569.2341, 403.1202
569.7162, 402.3910
570.1983, 400.3337
570.6804, 398.0004
571.1625, 396.4298
571.6447, 395.2473
572.1268, 393.8106
572.6089, 391.7788
573.0910, 389.8505
573.5731, 388.4252
574.0552, 387.4107
574.5374, 386.6128
575.0195, 385.9934
575.5016, 385.5771
575.9837, 385.5446
576.4658, 385.8404
576.9479, 385.7702
577.4301, 385.2076
577.9122, 384.4214
578.3943, 383.4846
578.8764, 382.3695
579.3585, 381.2480
579.8406, 380.0518
580.3228, 378.9982
580.8049, 378.2679
581.2870, 377.8622
581.7691, 377.8999
582.2512, 378.5045
582.7333, 379.3064
583.2155, 379.8163
583.6975, 380.0614
584.1796, 380.1600
584.6617, 380.1250
585.1439, 379.9826
585.6260, 379.7629
586.1081, 379.4570
586.5902, 379.0297
587.0723, 378.4192
587.5544, 377.7207
588.0366, 376.8611
588.5187, 375.6801
589.0008, 375.0618
589.4829, 375.6673
589.9650, 376.5075
590.4471, 376.8577
590.9293, 376.5667
591.4114, 376.1059
591.8935, 375.3754
592.3756, 374.6312
592.8577, 374.4794
593.3398, 374.9752
593.8220, 375.1099
594.3041, 374.2633
594.7862, 373.0678
595.2683, 373.3541
595.7504, 374.8891
596.2325, 375.9798
596.7147, 375.1220
597.1968, 373.4793
597.6789, 372.2521
598.1610, 371.5298
598.6431, 371.2609
599.1252, 371.9686
599.6074, 372.8043
600.0895, 373.0625
600.5716, 372.3621
601.0537, 371.5288
601.5358, 370.4063
602.0179, 369.3297
602.5001, 368.7338
602.9822, 368.6715
603.4643, 369.0481
603.9464, 370.1152
604.4285, 371.4978
604.9106, 371.7900
605.3928, 370.8397
605.8749, 370.1193
606.3570, 370.6423
606.8391, 371.9311
607.3212, 372.2454
607.8033, 371.6270
608.2855, 371.1576
608.7676, 372.0761
609.2497, 373.4647
609.7318, 374.1255
610.2139, 373.8098
610.6960, 373.1385
611.1782, 371.9008
611.6603, 370.7322
612.1424, 370.2971
612.6245, 371.9093
613.1066, 372.8659
613.5887, 372.3457
614.0709, 371.0453
614.5530, 370.3421
615.0351, 370.4834
615.5172, 370.7324
615.9993, 370.9398
616.4814, 371.0983
616.9636, 371.1052
617.4457, 370.9382
617.9278, 370.8971
618.4099, 371.4316
618.8920, 372.2182
619.3741, 372.1676
619.8563, 371.2269
620.3384, 370.4653
620.8205, 371.0445
621.3026, 372.1797
621.7847, 372.9311
622.2668, 373.0602
622.7490, 372.9190
623.2311, 372.4184
623.7132, 371.8229
624.1953, 371.4718
624.6774, 371.5940
625.1595, 371.7643
625.6417, 372.0439
626.1238, 372.3204
626.6059, 372.2488
627.0880, 371.7381
627.5701, 371.1387
628.0522, 370.4124
628.5344, 369.7049
629.0165, 369.9232
629.4986, 371.0885
629.9807, 372.2791
630.4628, 372.7119
630.9449, 372.7477
631.4271, 373.0958
631.9092, 373.8160
632.3913, 374.5734
632.8734, 375.1972
633.3555, 375.6918
633.8376, 376.1100
634.3198, 376.6612
634.8019, 376.7197
635.2840, 375.5957
635.7661, 374.0605
636.2482, 373.1865
636.7303, 373.3108
637.2125, 373.5810
637.6946, 373.9869
638.1767, 374.4248
638.6588, 374.5312
639.1409, 374.2407
639.6230, 374.1256
640.1052, 374.5949
640.5873, 375.3531
641.0694, 375.4271
641.5515, 374.8716
642.0336, 374.2379
642.5157, 373.6859
642.9979, 373.3852
643.4800, 373.6670
643.9621, 374.5880
644.4442, 375.4477
644.9263, 375.7503
645.4084, 375.9450
645.8906, 376.4559
646.3727, 378.0535
646.8548, 378.5786
647.3369, 376.8204
647.8190, 374.6980
648.3011, 374.7580
648.7833, 377.9495
649.2654, 380.0620
649.7475, 380.2243
650.2296, 379.2762
650.7117, 378.9083
651.1938, 379.0774
651.6760, 379.3223
652.1581, 379.4560
652.6402, 379.5589
653.1223, 379.7299
653.6044, 379.9737
654.0865, 380.3116
654.5687, 381.0369
655.0508, 381.6411
655.5329, 381.8697
656.0150, 381.7027
656.4971, 381.0311
656.9792, 378.4876
657.4614, 376.5544
657.9435, 376.7744
658.4256, 380.0686
658.9077, 382.2682
659.3898, 383.1277
659.8719, 383.3163
660.3541, 383.3634
660.8362, 383.2773
661.3183, 383.5040
661.8004, 384.2192
662.2825, 384.8921
662.7646, 384.5467
663.2468, 383.6100
663.7289, 383.1578
664.2110, 383.9965
664.6931, 384.9225
665.1752, 384.8773
665.6573, 384.2836
666.1395, 384.1370
666.6216, 385.6258
667.1037, 386.6989
667.5858, 386.3877
668.0679, 384.9363
668.5500, 383.9997
669.0322, 383.6326
669.5143, 383.6602
669.9964, 384.0995
670.4785, 384.9170
670.9606, 385.6414
671.4427, 386.2775
671.9249, 386.7540
672.4070, 386.8851
672.8891, 386.8431
673.3712, 387.0069
673.8533, 387.4249
674.3354, 387.9231
674.8176, 388.4633
675.2997, 388.9819
675.7818, 389.4001
676.2639, 389.6496
676.7460, 389.9113
677.2281, 390.3585
677.7103, 390.7807
678.1924, 390.8971
678.6745, 390.5204
679.1566, 390.2769
679.6387, 390.3388
680.1208, 390.4937
680.6030, 390.0190
681.0851, 388.9277
681.5672, 388.6168
682.0493, 390.0742
682.5314, 392.1442
683.0135, 392.7007
683.4957, 392.0504
683.9778, 391.3901
684.4599, 391.3965
684.9420, 391.6004
685.4241, 391.7113
685.9063, 391.7184
686.3884, 391.6974
686.8705, 391.8559
687.3526, 391.8152
687.8347, 391.2394
688.3168, 389.9319
688.7990, 389.6622
689.2811, 390.7873
689.7632, 392.1582
690.2453, 392.9169
690.7274, 393.1027
691.2095, 393.0483
691.6917, 392.7360
692.1738, 392.4766
692.6559, 392.7281
693.1380, 393.2249
693.6201, 393.4710
694.1022, 393.2182
694.5844, 393.0637
695.0665, 393.5027
695.5486, 394.1800
696.0307, 394.6435
696.5128, 394.9191
696.9949, 394.7685
697.4771, 393.7818
697.9592, 392.5337
698.4413, 392.2899
698.9234, 393.3430
699.4055, 394.2688
699.8876, 394.7681
700.3698, 394.8409
700.8519, 394.1335
701.3340, 392.8188
701.8161, 392.0653
702.2982, 393.2208
702.7803, 394.7624
703.2625, 394.7466
703.7446, 393.5003
704.2267, 392.7157
704.7088, 393.8198
705.1909, 394.9819
705.6730, 395.2024
706.1552, 394.3433
706.6373, 393.5377
707.1194, 392.4066
707.6015, 391.8729
708.0836, 392.6974
708.5657, 394.9726
709.0479, 396.4955
709.5300, 397.2079
710.0121, 397.4668
710.4942, 397.3604
710.9763, 397.0692
711.4584, 397.0612
711.9406, 397.4237
712.4227, 397.8142
712.9048, 398.3091
713.3869, 398.5435
713.8690, 398.0049
714.3511, 395.5116
714.8333, 394.2085
715.3154, 395.7462
715.7975, 398.2255
716.2796, 399.6998
716.7617, 399.9518
717.2438, 399.8418
717.7260, 399.4706
718.2081, 398.8036
718.6902, 397.5471
719.1723, 395.8107
719.6544, 394.5099
720.1365, 393.9449
720.6187, 393.9134
721.1008, 394.2994
721.5829, 395.0224
722.0650, 395.9093
722.5471, 397.4127
723.0292, 398.5137
723.5114, 398.5711
723.9935, 397.7840
724.4756, 397.0247
724.9577, 396.0383
725.4398, 395.5790
725.9219, 396.1344
726.4041, 397.4227
726.8862, 397.4555
727.3683, 396.0653
727.8504, 395.4190
728.3325, 397.6108
728.8146, 401.1407
729.2968, 402.7678
729.7789, 402.6123
730.2610, 401.9236
730.7431, 401.0922
731.2252, 400.3245
731.7073, 399.5909
732.1895, 398.8326
732.6716, 398.9512
733.1537, 401.5380
733.6358, 403.7187
734.1179, 403.7462
734.6000, 400.9487
735.0822, 400.0973
735.5643, 401.6212
736.0464, 403.5809
736.5285, 404.1194
737.0106, 403.6104
737.4927, 403.4649
737.9749, 403.8417
738.4570, 404.4351
738.9391, 405.3810
739.4212, 406.2117
739.9033, 406.2571
740.3854, 404.8664
740.8676, 403.9948
741.3497, 404.7215
741.8318, 405.9495
742.3139, 406.5670
742.7960, 406.4185
743.2781, 405.9013
743.7603, 404.6902
744.2424, 403.6845
744.7245, 404.6695
745.2066, 407.3238
745.6887, 408.9634
746.1708, 408.6804
746.6530, 407.8800
747.1351, 408.1765
747.6172, 409.1022
748.0993, 409.8390
748.5814, 409.6456
749.0635, 409.7242
749.5457, 410.8744
750.0278, 412.5347
750.5099, 413.4372
750.9920, 412.9937
751.4741, 412.9933
751.9562, 414.1028
752.4384, 415.5960
752.9205, 415.2335
753.4026, 413.0820
753.8847, 411.5362
754.3668, 411.8889
754.8489, 412.9418
755.3311, 413.0027
755.8132, 412.3159
756.2953, 411.5937
756.7774, 410.6790
757.2595, 410.2796
757.7416, 411.1339
758.2238, 412.9372
758.7059, 414.0443
759.1880, 414.2645
759.6701, 413.9325
760.1522, 412.8770
760.6343, 411.3505
761.1165, 410.8195
761.5986, 411.3346
762.0807, 411.8082
762.5628, 411.6994
763.0449, 411.1348
763.5270, 409.9863
764.0092, 408.4424
764.4913, 407.4922
764.9734, 408.0156
765.4555, 409.0333
765.9376, 410.2237
766.4197, 411.5639
766.9019, 412.1226
767.3840, 411.4347
767.8661, 410.5957
768.3482, 410.0060
768.8303, 409.6652
769.3124, 409.7586
769.7946, 410.3300
770.2767, 410.8009
770.7588, 410.4549
771.2409, 409.8439
771.7230, 410.1720
772.2051, 411.4233
772.6873, 412.3693
773.1694, 411.9164
773.6515, 411.1853
774.1336, 410.9473
774.6157, 411.3715
775.0978, 411.7063
775.5800, 412.0580
776.0621, 412.1275
776.5442, 411.5282
777.0263, 410.1903
777.5084, 409.8991
777.9905, 410.7596
778.4727, 411.6178
778.9548, 411.2060
779.4369, 410.2150
779.9190, 409.9230
780.4011, 410.4913
780.8832, 411.0684
781.3654, 411.2912
781.8475, 411.2548
782.3296, 411.0443
782.8117, 410.7202
783.2938, 409.9581
783.7759, 408.2568
784.2581, 406.8269
784.7402, 406.8188
785.2223, 408.2349
785.7044, 409.0367
786.1865, 409.0661
786.6686, 409.1435
787.1508, 410.0874
787.6329, 411.5631
788.1150, 413.3069
788.5971, 415.4441
789.0792, 416.7015
789.5613, 415.6122
790.0435, 413.9681
790.5256, 413.2713
791.0077, 414.1042
791.4898, 414.5237
791.9719, 414.4087
792.4540, 414.0689
792.9362, 413.6852
793.4183, 413.2812
793.9004, 413.2979
794.3825, 413.8260
794.8646, 414.3024
795.3467, 414.0545
795.8289, 413.4905
796.3110, 413.1019
796.7931, 412.9164
797.2752, 413.1603
797.7573, 414.6239
798.2394, 416.0826
798.7216, 416.4120
799.2037, 414.7372
799.6858, 414.4348
800.1679, 416.0107
800.6500, 417.8090
801.1321, 418.0029
801.6143, 416.9261
802.0964, 416.3269
802.5785, 416.4536
803.0606, 416.5314
803.5427, 415.4802
804.0248, 414.2120
804.5070, 413.7787
804.9891, 414.6290
805.4712, 415.5228
805.9533, 416.2909
806.4354, 416.9484
806.9175, 417.6144
807.3997, 418.5145
807.8818, 418.2010
808.3639, 416.3034
808.8460, 414.4874
809.3281, 414.8685
809.8102, 416.6499
810.2924, 417.7718
810.7745, 417.9159
811.2566, 417.8276
811.7387, 418.0925
812.2208, 418.3253
812.7029, 418.1313
813.1851, 417.2065
813.6672, 416.5159
814.1493, 416.2046
814.6314, 416.0038
815.1135, 415.5284
815.5956, 414.7227
816.0778, 415.0973
816.5599, 416.8476
817.0420, 418.6574
817.5241, 419.0827
818.0062, 418.8053
818.4883, 418.9879
818.9705, 419.8763
819.4526, 420.4423
819.9347, 419.9331
820.4168, 419.1157
820.8989, 418.5214
821.3810, 418.1858
821.8632, 418.0184
822.3453, 418.0379
822.8274, 418.1885
823.3095, 418.3877
823.7916, 418.6681
824.2737, 419.3745
824.7559, 420.5342
825.2380, 421.3654
825.7201, 420.6565
826.2022, 419.6577
826.6843, 419.9457
827.1664, 421.9436
827.6486, 422.8201
828.1307, 420.4273
828.6128, 418.1634
829.0949, 417.7592
829.5770, 419.3554
830.0591, 420.7938
830.5413, 422.1125
831.0234, 422.9866
831.5055, 422.9612
831.9876, 422.3901
832.4697, 421.7473
832.9518, 421.1064
833.4340, 421.0276
833.9161, 422.7242
834.3982, 424.3503
834.8803, 424.4583
835.3624, 422.8178
835.8445, 422.2679
836.3267, 423.5005
836.8088, 424.4517
837.2909, 423.7938
837.7730, 421.9659
838.2551, 421.7635
838.7372, 423.0967
839.2194, 424.4771
839.7015, 425.0281
840.1836, 425.1145
840.6657, 424.8908
841.1478, 424.4566
841.6299, 424.3108
842.1121, 425.1577
842.5942, 425.7006
843.0763, 425.2586
843.5584, 424.1156
844.0405, 424.0828
844.5226, 425.3556
845.0048, 426.2559
845.4869, 425.7671
845.9690, 424.6680
846.4511, 424.4677
846.9332, 424.9753
847.4153, 425.5809
847.8975, 426.2010
848.3796, 426.6269
848.8617, 426.5898
849.3438, 426.2661
849.8259, 426.2702
850.3080, 426.8527
850.7902, 427.2458
851.2723, 427.2408
851.7544, 427.0089
852.2365, 426.9699
852.7186, 427.0719
853.2007, 426.9643
853.6829, 426.3952
854.1650, 425.7869
854.6471, 425.3095
855.1292, 425.0907
855.6113, 425.3463
856.0934, 426.8316
856.5756, 427.8485
857.0577, 427.9581
857.5398, 427.7163
858.0219, 427.9413
858.5040, 428.6559
858.9861, 429.4698
859.4683, 430.4096
859.9504, 431.1006
860.4325, 430.7133
860.9146, 429.8510
861.3967, 429.6242
861.8788, 430.6321
862.3610, 431.3909
862.8431, 431.1108
863.3252, 430.4681
863.8073, 430.1083
864.2894, 430.1326
864.7715, 430.1802
865.2537, 430.3176
865.7358, 430.2679
866.2179, 429.3312
866.7000, 428.0341
867.1821, 428.0376
867.6642, 429.5646
868.1464, 431.0111
868.6285, 431.3561
869.1106, 431.1893
869.5927, 430.8449
870.0748, 430.2459
870.5569, 430.1618
871.0391, 430.8241
871.5212, 431.5636
872.0033, 431.9644
872.4854, 432.0746
872.9675, 432.2314
873.4496, 432.4362
873.9318, 432.7856
874.4139, 433.0423
874.8960, 433.6932
875.3781, 435.7948
875.8602, 439.0316
876.3423, 440.8071
876.8245, 439.1881
877.3066, 437.5367
877.7887, 436.8029
878.2708, 436.7129
878.7529, 436.0010
879.2350, 434.6742
879.7172, 433.6557
880.1993, 433.5453
880.6814, 433.7507
881.1635, 433.5055
881.6456, 432.9727
882.1277, 432.5275
882.6099, 432.3233
883.0920, 432.2157
883.5741, 432.1239
884.0562, 432.1281
884.5383, 432.4314
885.0204, 433.1142
885.5026, 433.5836
885.9847, 433.7244
886.4668, 433.6418
886.9489, 433.2348
887.4310, 432.7549
887.9131, 432.8304
888.3953, 433.9363
888.8774, 434.6743
889.3595, 433.7854
889.8416, 432.6351
890.3237, 432.6373
890.8058, 434.5649
891.2880, 435.2899
891.7701, 434.5089
892.2522, 433.4443
892.7343, 433.0094
893.2164, 433.1859
893.6985, 434.2874
894.1807, 436.3087
894.6628, 437.7354
895.1449, 436.6798
895.6270, 435.4197
896.1091, 435.8862
896.5912, 438.3741
897.0734, 438.9634
897.5555, 436.8658
898.0376, 434.7088
898.5197, 433.6310
899.0018, 433.4980
899.4839, 434.2597
899.9661, 435.7222
900.4482, 436.7497
900.9303, 436.4775
901.4124, 435.7998
901.8945, 435.1919
902.3766, 434.6571
902.8588, 434.1120
903.3409, 433.1938
903.8230, 433.0011
904.3051, 434.0258
904.7872, 435.5336
905.2693, 435.9791
905.7515, 435.5289
906.2336, 435.2428
906.7157, 435.4877
907.1978, 435.7457
907.6799, 435.5217
908.1620, 435.0710
908.6442, 434.7164
909.1263, 434.8053
909.6084, 434.4236
910.0905, 433.2044
910.5726, 432.0062
911.0547, 431.4478
911.5369, 431.5557
912.0190, 432.9750
912.5011, 435.8075
912.9832, 438.0680
913.4653, 437.4806
913.9474, 435.9818
914.4296, 435.4555
914.9117, 436.1254
915.3938, 436.5098
915.8759, 436.0990
916.3580, 435.7668
916.8401, 435.9438
917.3223, 436.4854
917.8044, 436.4979
918.2865, 436.0107
918.7686, 435.5801
919.2507, 435.9741
919.7328, 436.1524
920.2150, 434.3619
920.6971, 431.5782
921.1792, 430.1802
921.6613, 431.9529
922.1434, 433.7420
922.6255, 435.3112
923.1077, 436.4966
923.5898, 436.8933
924.0719, 436.5393
924.5540, 436.0989
925.0361, 435.6674
925.5182, 435.3249
926.0004, 435.3906
926.4825, 435.4642
926.9646, 434.9238
927.4467, 433.1368
927.9288, 432.2604
928.4109, 432.9275
928.8931, 433.9892
929.3752, 434.7643
929.8573, 435.2514
930.3394, 435.4012
930.8215, 435.2157
931.3036, 434.8136
931.7858, 433.9096
932.2679, 433.1160
932.7500, 433.1173
933.2321, 433.8564
933.7142, 434.6509
934.1964, 435.5405
934.6785, 436.2237
935.1606, 436.5826
935.6427, 436.7032
936.1248, 436.7822
936.6069, 436.8264
937.0891, 436.9412
937.5712, 437.1872
938.0533, 437.4592
938.5354, 437.7852
939.0175, 438.0226
939.4996, 437.9557
939.9818, 436.9416
940.4639, 436.5421
940.9460, 437.1340
941.4281, 437.8983
941.9102, 437.9973
942.3923, 437.4874
942.8745, 436.7641
943.3566, 435.8354
943.8387, 435.2097
944.3208, 435.2541
944.8029, 435.8222
945.2850, 437.0364
945.7672, 438.9219
946.2493, 440.2449
946.7314, 440.9385
947.2135, 441.0511
947.6956, 440.4634
948.1777, 439.3667
948.6599, 438.3077
949.1420, 437.3452
949.6241, 436.8517
950.1062, 437.1823
950.5883, 437.8258
951.0704, 438.7128
951.5526, 439.6070
952.0347, 439.9986
952.5168, 439.4405
952.9989, 439.3231
953.4810, 439.9692
953.9631, 440.6430
954.4453, 440.1372
954.9274, 438.8723
955.4095, 438.3581
955.8916, 438.8293
956.3737, 439.6095
956.8558, 440.7067
957.3380, 441.5868
957.8201, 441.7157
958.3022, 441.0161
958.7843, 440.6263
959.2664, 440.5721
959.7485, 440.7576
960.2307, 441.3295
960.7128, 441.9787
961.1949, 441.8260
961.6770, 441.0776
962.1591, 440.4644
962.6412, 440.4438
963.1234, 440.4982
963.6055, 440.3506
964.0876, 440.1851
964.5697, 440.3255
965.0518, 440.8472
965.5339, 441.4589
966.0161, 442.2531
966.4982, 442.6767
966.9803, 441.4603
967.4624, 439.6448
967.9445, 439.1822
968.4266, 440.5410
968.9088, 441.6740
969.3909, 441.6352
969.8730, 441.3238
970.3551, 441.1793
970.8372, 441.1894
971.3193, 441.2101
971.8015, 441.2401
972.2836, 441.1515
972.7657, 440.5511
973.2478, 440.0711
973.7299, 440.8477
974.2120, 442.3293
974.6942, 443.1564
975.1763, 442.2962
975.6584, 441.5790
976.1405, 441.2401
976.6226, 441.1500
977.1047, 440.9956
977.5869, 440.8394
978.0690, 441.6078
978.5511, 443.5585
979.0332, 445.1915
979.5153, 444.8436
979.9974, 443.8725
980.4796, 443.6639
980.9617, 444.5450
981.4438, 444.4897
981.9259, 442.7586
982.4080, 441.5792
982.8901, 442.3663
983.3723, 444.2496
983.8544, 444.2117
984.3365, 442.7188
984.8186, 441.7091
985.3007, 442.4757
985.7828, 443.5727
986.2650, 444.3929
986.7471, 445.0656
987.2292, 445.9176
987.7113, 447.2380
988.1934, 447.5516
988.6755, 446.5594
989.1577, 445.2056
989.6398, 444.3456
990.1219, 443.9254
990.6040, 443.9582
991.0861, 444.4496
991.5682, 444.9750
992.0504, 445.5481
992.5325, 445.9268
993.0146, 445.9867
993.4967, 445.7797
993.9788, 445.4435
994.4609, 444.9864
994.9431, 444.9933
995.4252, 446.0438
995.9073, 447.1660
996.3894, 447.1730
996.8715, 446.5713
997.3536, 446.1894
997.8358, 446.0991
998.3179, 446.5667
998.8000, 448.0493
999.2821, 449.3623
999.7642, 449.0444
1000.246, 447.4586
1000.728, 446.6618
1001.211, 446.7261
1001.693, 447.0302
1002.175, 447.0820
1002.657, 447.2976
1003.139, 448.1389
1003.621, 449.4718
1004.103, 450.2100
1004.585, 450.1209
1005.068, 450.3629
1005.550, 451.4142
1006.032, 452.6486
1006.514, 453.2483
1006.996, 453.2482
1007.478, 452.5736
1007.960, 450.6417
1008.442, 449.4981
1008.924, 450.3157
1009.407, 451.6875
1009.889, 452.8777
1010.371, 453.8959
1010.853, 453.9340
1011.335, 452.9789
1011.817, 452.4882
1012.299, 454.3671
1012.781, 456.3745
1013.263, 455.8563
1013.746, 453.6551
1014.228, 452.9327
1014.710, 455.5102
1015.192, 456.9576
1015.674, 456.2768
1016.156, 454.7956
1016.638, 454.2976
1017.120, 454.6747
1017.603, 455.9838
1018.085, 458.4718
1018.567, 459.8533
1019.049, 457.0331
1019.531, 454.1368
1020.013, 454.4619
1020.495, 457.8373
1020.977, 459.1404
1021.459, 458.1290
1021.942, 457.1549
1022.424, 457.3353
1022.906, 458.1286
1023.388, 459.2290
1023.870, 460.3061
1024.352, 460.7105
1024.834, 459.5860
1025.316, 458.6843
1025.799, 458.0083
1026.281, 457.8006
1026.763, 458.6317
1027.245, 460.2587
1027.727, 461.1577
1028.209, 461.2537
1028.691, 460.8920
1029.173, 459.4090
1029.656, 458.3537
1030.138, 459.3704
1030.620, 461.9030
1031.102, 462.7664
1031.584, 461.3866
1032.066, 460.6997
1032.548, 461.6296
1033.030, 463.0586
1033.512, 463.2723
1033.995, 462.8320
1034.477, 462.7148
1034.959, 463.2345
1035.441, 463.6947
1035.923, 463.8575
1036.405, 463.9883
1036.887, 464.0976
1037.369, 464.2607
1037.851, 465.4225
1038.334, 467.4485
1038.816, 469.2090
1039.298, 470.0384
1039.780, 470.4227
1040.262, 470.2604
1040.744, 470.0118
1041.226, 470.6353
1041.708, 472.5755
1042.191, 474.1574
1042.673, 475.2528
1043.155, 476.1089
1043.637, 476.5971
1044.119, 477.2025
1044.601, 478.7510
1045.083, 481.3148
1045.565, 484.4839
1046.047, 488.7505
1046.530, 492.8710
1047.012, 496.4203
1047.494, 499.5399
1047.976, 502.4523
1048.458, 505.2552
1048.940, 508.3507
1049.422, 511.7445
1049.904, 515.8617
1050.386, 521.4681
1050.869, 527.7349
1051.351, 533.9423
1051.833, 540.1110
1052.315, 545.6487
1052.797, 550.3513
1053.279, 555.4099
1053.761, 561.8948
1054.243, 569.0543
1054.726, 575.2986
1055.208, 581.1777
1055.690, 588.1533
1056.172, 598.5651
1056.654, 607.5643
1057.136, 614.3304
1057.618, 619.8437
1058.100, 625.6902
1058.583, 631.4749
1059.065, 634.9357
1059.547, 635.8809
1060.029, 633.4802
1060.511, 624.9782
1060.993, 615.0735
1061.475, 607.1242
1061.957, 600.3456
1062.439, 590.7654
1062.922, 577.8677
1063.404, 565.2994
1063.886, 553.9772
1064.368, 543.5689
1064.850, 533.4592
1065.332, 523.9783
1065.814, 515.6338
1066.296, 508.7911
1066.778, 502.2227
1067.261, 495.3325
1067.743, 489.4401
1068.225, 485.3603
1068.707, 482.6908
1069.189, 480.6082
1069.671, 478.9205
1070.153, 476.9429
1070.635, 473.8672
1071.118, 471.1530
1071.600, 469.6362
1072.082, 468.6801
1072.564, 467.7032
1073.046, 466.7025
1073.528, 465.7659
1074.010, 464.8976
1074.492, 464.2200
1074.974, 463.6535
1075.457, 463.4731
1075.939, 464.4088
1076.421, 466.0066
1076.903, 466.3257
1077.385, 464.4664
1077.867, 463.6521
1078.349, 464.7096
1078.831, 466.1567
1079.313, 466.0175
1079.796, 464.8849
1080.278, 463.6172
1080.760, 462.2920
1081.242, 461.5737
1081.724, 462.3099
1082.206, 462.9617
1082.688, 462.8627
1083.170, 462.3607
1083.652, 462.7290
1084.135, 463.7737
1084.617, 464.4396
1085.099, 464.2007
1085.581, 464.0069
1086.063, 464.7266
1086.545, 465.5614
1087.027, 465.7762
1087.509, 465.3129
1087.992, 464.8761
1088.474, 464.4834
1088.956, 463.9279
1089.438, 462.8146
1089.920, 461.7071
1090.402, 461.1861
1090.884, 461.1025
1091.366, 461.1700
1091.849, 461.5454
1092.331, 461.6149
1092.813, 461.3186
1093.295, 460.7485
1093.777, 459.6349
1094.259, 458.4420
1094.741, 458.2797
1095.223, 459.0639
1095.705, 459.7874
1096.188, 460.0995
1096.670, 460.2241
1097.152, 460.2395
1097.634, 460.1153
1098.116, 459.6949
1098.598, 459.0599
1099.080, 458.5967
1099.562, 458.3612
1100.044, 458.4324
1100.527, 459.3219
1101.009, 460.1252
1101.491, 460.1110
1101.973, 459.4463
1102.455, 459.1666
1102.937, 459.2826
1103.419, 459.2231
1103.901, 458.5976
1104.384, 458.2126
1104.866, 459.4199
1105.348, 461.0705
1105.830, 461.6305
1106.312, 460.3822
1106.794, 460.4807
1107.276, 462.4859
1107.758, 463.7960
1108.240, 462.1198
1108.723, 459.4900
1109.205, 459.6699
1109.687, 461.7114
1110.169, 463.4176
1110.651, 464.2447
1111.133, 464.3926
1111.615, 463.6094
1112.097, 462.6857
1112.579, 462.4489
1113.062, 462.6715
1113.544, 462.4653
1114.026, 461.8687
1114.508, 461.3029
1114.990, 460.8654
1115.472, 460.6440
1115.954, 460.6017
1116.436, 460.8382
1116.919, 461.7820
1117.401, 463.3475
1117.883, 463.8135
1118.365, 462.9392
1118.847, 462.3676
1119.329, 463.8023
1119.811, 465.5401
1120.293, 466.3867
1120.776, 466.4926
1121.258, 466.6666
1121.740, 466.9609
1122.222, 466.6723
1122.704, 465.4408
1123.186, 464.3682
1123.668, 465.1648
1124.150, 466.3896
1124.632, 466.1514
1125.115, 463.9585
1125.597, 463.5134
1126.079, 465.5231
1126.561, 467.0364
1127.043, 466.7103
1127.525, 465.5840
1128.007, 465.1638
1128.489, 465.2405
1128.971, 465.4704
1129.454, 465.7833
1129.936, 466.2701
1130.418, 467.1672
1130.900, 467.7692
1131.382, 467.3700
1131.864, 466.4955
1132.346, 466.9690
1132.828, 468.3343
1133.311, 469.1500
1133.793, 468.2980
1134.275, 467.5525
1134.757, 467.4728
1135.239, 467.4450
1135.721, 466.7340
1136.203, 465.5104
1136.685, 465.2628
1137.167, 465.9214
1137.650, 466.6478
1138.132, 467.0101
1138.614, 467.2672
1139.096, 467.5307
1139.578, 467.7676
1140.060, 467.9034
1140.542, 467.9377
1141.024, 467.9879
1141.506, 468.0621
1141.989, 468.3185
1142.471, 469.0585
1142.953, 469.8585
1143.435, 470.7083
1143.917, 471.3441
1144.399, 470.7372
1144.881, 468.5639
1145.363, 467.8631
1145.846, 469.3709
1146.328, 471.1129
1146.810, 470.6846
1147.292, 469.8120
1147.774, 470.5765
1148.256, 473.0091
1148.738, 473.6270
1149.220, 471.8686
1149.703, 470.2713
1150.185, 469.4302
1150.667, 469.2900
1151.149, 470.3642
1151.631, 471.7966
1152.113, 472.2305
1152.595, 471.2231
1153.077, 471.0763
1153.559, 472.2239
1154.042, 473.4342
1154.524, 474.2941
1155.006, 474.8109
1155.488, 474.9319
1155.970, 474.7372
1156.452, 474.3932
1156.934, 473.9872
1157.416, 473.1816
1157.898, 471.3882
1158.381, 470.2959
1158.863, 471.3052
1159.345, 473.4198
1159.827, 473.6078
1160.309, 472.4908
1160.791, 471.7642
1161.273, 472.3275
1161.755, 472.8399
1162.238, 473.0222
1162.720, 473.1109
1163.202, 473.2076
1163.684, 473.3578
1164.166, 473.9393
1164.648, 474.8211
1165.130, 475.4014
1165.612, 475.2054
1166.094, 474.8785
1166.577, 474.5538
1167.059, 474.2298
1167.541, 473.6898
1168.023, 473.0443
1168.505, 473.8770
1168.987, 475.9845
1169.469, 477.2893
1169.951, 475.2352
1170.433, 473.6424
1170.916, 474.9360
1171.398, 477.2261
1171.880, 478.1377
1172.362, 477.7377
1172.844, 476.9145
1173.326, 475.7701
1173.808, 475.1964
1174.290, 476.3451
1174.773, 477.7243
1175.255, 478.5583
1175.737, 478.9926
1176.219, 479.3863
1176.701, 479.7496
1177.183, 478.9595
1177.665, 476.7750
1178.147, 475.1123
1178.630, 476.1289
1179.112, 477.6084
1179.594, 477.8751
1180.076, 477.3082
1180.558, 477.2935
1181.040, 477.8590
1181.522, 478.3080
1182.004, 478.4572
1182.486, 478.7991
1182.969, 480.5536
1183.451, 482.0332
1183.933, 481.3223
1184.415, 478.8326
1184.897, 477.7332
1185.379, 478.1191
1185.861, 478.8325
1186.343, 479.7015
1186.825, 480.2691
1187.308, 479.8888
1187.790, 479.1386
1188.272, 478.3890
1188.754, 477.7169
1189.236, 477.9931
1189.718, 479.3432
1190.200, 480.5060
1190.682, 481.0145
1191.165, 481.3925
1191.647, 482.6828
1192.129, 483.8339
1192.611, 483.2690
1193.093, 480.6917
1193.575, 480.0277
1194.057, 481.5531
1194.539, 482.9839
1195.021, 483.5157
1195.504, 483.3677
1195.986, 481.8581
1196.468, 480.2979
1196.950, 480.6152
1197.432, 483.3143
1197.914, 485.6184
1198.396, 487.6554
1198.878, 488.3014
1199.360, 486.3404
1199.843, 483.7787
1200.325, 482.8393
1200.807, 482.8900
1201.289, 483.0952
1201.771, 483.3324
1202.253, 483.9497
1202.735, 485.0807
1203.217, 485.7515
1203.700, 485.0614
1204.182, 484.0667
1204.664, 483.7696
1205.146, 484.0806
1205.628, 484.9829
1206.110, 486.8830
1206.592, 487.8590
1207.074, 487.8416
1207.557, 487.3330
1208.039, 486.1021
1208.521, 485.0682
1209.003, 485.8237
1209.485, 487.3298
1209.967, 487.5680
1210.449, 485.7017
1210.931, 484.5263
1211.413, 484.0425
1211.896, 484.2354
1212.378, 485.8869
1212.860, 487.5142
1213.342, 487.0817
1213.824, 485.5417
1214.306, 484.9056
1214.788, 485.6209
1215.270, 486.1666
1215.752, 486.5055
1216.235, 486.7177
1216.717, 486.7028
1217.199, 486.7352
1217.681, 487.5178
1218.163, 488.4583
1218.645, 488.0371
1219.127, 485.5536
1219.609, 484.4461
1220.092, 484.9185
1220.574, 486.1390
1221.056, 488.1560
1221.538, 489.9819
1222.020, 490.7730
1222.502, 490.6076
1222.984, 489.5960
1223.466, 487.2481
1223.948, 486.9225
1224.431, 488.9800
1224.913, 490.8876
1225.395, 490.0060
1225.877, 488.6823
1226.359, 488.9643
1226.841, 490.2961
1227.323, 491.1781
1227.805, 491.5932
1228.287, 491.4760
1228.770, 490.7881
1229.252, 490.2898
1229.734, 490.7205
1230.216, 491.4373
1230.698, 492.2183
1231.180, 492.8429
1231.662, 492.8255
1232.144, 492.1058
1232.627, 491.6011
1233.109, 491.3933
1233.591, 491.0276
1234.073, 489.3185
1234.555, 488.1888
1235.037, 489.9753
1235.519, 492.7872
1236.001, 492.5877
1236.484, 489.3833
1236.966, 488.5238
1237.448, 490.4864
1237.930, 492.7534
1238.412, 494.4086
1238.894, 495.0215
1239.376, 493.4268
1239.858, 491.1198
1240.340, 490.5938
1240.823, 491.6942
1241.305, 492.7246
1241.787, 493.5049
1242.269, 493.9037
1242.751, 492.9388
1243.233, 492.6856
1243.715, 494.6126
1244.197, 497.2265
1244.679, 498.1382
1245.162, 497.6502
1245.644, 497.1215
1246.126, 496.7106
1246.608, 496.8175
1247.090, 498.3657
1247.572, 499.5549
1248.054, 499.8388
1248.536, 499.4995
1249.019, 498.5610
1249.501, 497.3849
1249.983, 497.2528
1250.465, 498.1997
1250.947, 499.2473
1251.429, 500.2646
1251.911, 500.8612
1252.393, 500.7560
1252.875, 500.5744
1253.358, 501.4710
1253.840, 502.8398
1254.322, 503.3620
1254.804, 502.9694
1255.286, 502.0771
1255.768, 499.9585
1256.250, 498.9307
1256.732, 499.6208
1257.214, 500.8319
1257.697, 501.1868
1258.179, 501.0420
1258.661, 500.9760
1259.143, 500.9822
1259.625, 500.6635
1260.107, 499.7672
1260.589, 499.1231
1261.071, 498.8519
1261.554, 498.8452
1262.036, 498.8839
1262.518, 499.1960
1263.000, 500.3615
1263.482, 502.0966
1263.964, 502.9984
1264.446, 502.8394
1264.928, 502.5253
1265.411, 502.1030
1265.893, 502.0422
1266.375, 503.2096
1266.857, 504.5193
1267.339, 504.8082
1267.821, 504.4931
1268.303, 505.1996
1268.785, 507.1250
1269.267, 507.2269
1269.750, 505.1265
1270.232, 502.9955
1270.714, 502.0967
1271.196, 502.0502
1271.678, 503.0408
1272.160, 504.5412
1272.642, 506.0113
1273.124, 507.3835
1273.606, 507.3792
1274.089, 506.0127
1274.571, 505.2486
1275.053, 507.1938
1275.535, 508.8082
1276.017, 508.8553
1276.499, 508.1684
1276.981, 507.5804
1277.463, 507.2135
1277.946, 507.8921
1278.428, 509.4400
1278.910, 510.3393
1279.392, 509.2228
1279.874, 508.3285
1280.356, 508.0276
1280.838, 508.1005
1281.320, 508.4008
1281.802, 508.8439
1282.285, 509.5224
1282.767, 510.2357
1283.249, 510.0860
1283.731, 507.9226
1284.213, 506.6961
1284.695, 506.6974
1285.177, 507.4213
1285.659, 509.0541
1286.141, 510.6595
1286.624, 510.5390
1287.106, 509.4360
1287.588, 509.7470
1288.070, 512.4307
1288.552, 512.8688
1289.034, 510.6430
1289.516, 508.4236
1289.998, 507.9849
1290.481, 508.6411
1290.963, 510.6265
1291.445, 512.9650
1291.927, 513.9187
1292.409, 513.3481
1292.891, 514.1600
1293.373, 516.2789
1293.855, 517.5618
1294.338, 515.4061
1294.820, 513.6917
1295.302, 515.2272
1295.784, 517.2167
1296.266, 516.7361
1296.748, 514.3973
1297.230, 514.7519
1297.712, 517.2569
1298.194, 519.3132
1298.677, 519.3477
1299.159, 519.0458
1299.641, 518.3968
1300.123, 518.0278
1300.605, 518.6281
1301.087, 519.7058
1301.569, 519.9753
1302.051, 519.6624
1302.533, 519.3346
1303.016, 518.7093
##END=



