##NAMES=Pyroxferroite
##RRUFFID=R141080
##IDEAL CHEMISTRY=Fe^2+^SiO_3_
##LOCALITY=Caspar quarry, Bellerberg volcano, Ettringen, Mayen, Eifel, Rhineland-Palatinate, Germany
##OWNER=RRUFF
##SOURCE=Ch. and H. Sch√§fer
##DESCRIPTION=Red-brown isolated crystals, associated with colorless tridymite, sanidine, and clinoferrosilite (R141085). Crystal is twinned by 180 deg rotation around (111).
##STATUS=The identification of this mineral has been confirmed by single-crystal X-ray diffraction.
##URL=rruff.info/R141080
8.758203e+001, 2.629763e+003
8.806415e+001, 2.585855e+003
8.854626e+001, 2.578186e+003
8.902838e+001, 2.618365e+003
8.951050e+001, 2.673689e+003
8.999261e+001, 2.737224e+003
9.047473e+001, 2.806381e+003
9.095685e+001, 2.873347e+003
9.143896e+001, 2.930101e+003
9.192108e+001, 2.976439e+003
9.240320e+001, 3.024273e+003
9.288531e+001, 3.038506e+003
9.336743e+001, 2.999261e+003
9.384955e+001, 2.922257e+003
9.433167e+001, 2.853768e+003
9.481378e+001, 2.780654e+003
9.529590e+001, 2.712558e+003
9.577802e+001, 2.650016e+003
9.626013e+001, 2.593365e+003
9.674225e+001, 2.541555e+003
9.722437e+001, 2.493647e+003
9.770648e+001, 2.451184e+003
9.818860e+001, 2.415859e+003
9.867072e+001, 2.383270e+003
9.915283e+001, 2.350707e+003
9.963495e+001, 2.317737e+003
1.001171e+002, 2.286091e+003
1.005992e+002, 2.258064e+003
1.010813e+002, 2.232633e+003
1.015634e+002, 2.211919e+003
1.020455e+002, 2.195671e+003
1.025277e+002, 2.181662e+003
1.030098e+002, 2.167783e+003
1.034919e+002, 2.153108e+003
1.039740e+002, 2.138601e+003
1.044561e+002, 2.127863e+003
1.049382e+002, 2.125083e+003
1.054204e+002, 2.120966e+003
1.059025e+002, 2.114488e+003
1.063846e+002, 2.105862e+003
1.068667e+002, 2.095255e+003
1.073488e+002, 2.082278e+003
1.078309e+002, 2.067458e+003
1.083131e+002, 2.055383e+003
1.087952e+002, 2.045327e+003
1.092773e+002, 2.037880e+003
1.097594e+002, 2.034895e+003
1.102415e+002, 2.036082e+003
1.107236e+002, 2.036838e+003
1.112058e+002, 2.032335e+003
1.116879e+002, 2.024378e+003
1.121700e+002, 2.018881e+003
1.126521e+002, 2.019278e+003
1.131342e+002, 2.022240e+003
1.136163e+002, 2.021947e+003
1.140985e+002, 2.016858e+003
1.145806e+002, 2.011188e+003
1.150627e+002, 2.007543e+003
1.155448e+002, 2.005502e+003
1.160269e+002, 2.004130e+003
1.165090e+002, 2.003662e+003
1.169912e+002, 2.004048e+003
1.174733e+002, 2.002231e+003
1.179554e+002, 1.997166e+003
1.184375e+002, 1.990344e+003
1.189196e+002, 1.981473e+003
1.194017e+002, 1.970990e+003
1.198839e+002, 1.960249e+003
1.203660e+002, 1.950732e+003
1.208481e+002, 1.942832e+003
1.213302e+002, 1.935242e+003
1.218123e+002, 1.928136e+003
1.222944e+002, 1.921075e+003
1.227766e+002, 1.913606e+003
1.232587e+002, 1.905646e+003
1.237408e+002, 1.897448e+003
1.242229e+002, 1.889562e+003
1.247050e+002, 1.881540e+003
1.251871e+002, 1.874455e+003
1.256693e+002, 1.869210e+003
1.261514e+002, 1.864667e+003
1.266335e+002, 1.859463e+003
1.271156e+002, 1.852983e+003
1.275977e+002, 1.845492e+003
1.280798e+002, 1.837548e+003
1.285620e+002, 1.827915e+003
1.290441e+002, 1.819667e+003
1.295262e+002, 1.815218e+003
1.300083e+002, 1.813651e+003
1.304904e+002, 1.811032e+003
1.309725e+002, 1.804760e+003
1.314547e+002, 1.796425e+003
1.319368e+002, 1.789675e+003
1.324189e+002, 1.785484e+003
1.329010e+002, 1.781982e+003
1.333831e+002, 1.777120e+003
1.338652e+002, 1.770596e+003
1.343474e+002, 1.764434e+003
1.348295e+002, 1.760232e+003
1.353116e+002, 1.756838e+003
1.357937e+002, 1.752963e+003
1.362758e+002, 1.747901e+003
1.367579e+002, 1.742204e+003
1.372401e+002, 1.737436e+003
1.377222e+002, 1.734454e+003
1.382043e+002, 1.731057e+003
1.386864e+002, 1.726109e+003
1.391685e+002, 1.720364e+003
1.396507e+002, 1.715041e+003
1.401328e+002, 1.711207e+003
1.406149e+002, 1.708748e+003
1.410970e+002, 1.704605e+003
1.415791e+002, 1.696697e+003
1.420612e+002, 1.688966e+003
1.425434e+002, 1.681996e+003
1.430255e+002, 1.676039e+003
1.435076e+002, 1.671368e+003
1.439897e+002, 1.668440e+003
1.444718e+002, 1.667826e+003
1.449539e+002, 1.665658e+003
1.454361e+002, 1.661273e+003
1.459182e+002, 1.656242e+003
1.464003e+002, 1.651270e+003
1.468824e+002, 1.646496e+003
1.473645e+002, 1.641809e+003
1.478466e+002, 1.637024e+003
1.483288e+002, 1.631936e+003
1.488109e+002, 1.627601e+003
1.492930e+002, 1.623717e+003
1.497751e+002, 1.620705e+003
1.502572e+002, 1.619583e+003
1.507393e+002, 1.620814e+003
1.512215e+002, 1.622345e+003
1.517036e+002, 1.620615e+003
1.521857e+002, 1.615755e+003
1.526678e+002, 1.611700e+003
1.531499e+002, 1.610431e+003
1.536320e+002, 1.610930e+003
1.541142e+002, 1.610800e+003
1.545963e+002, 1.609691e+003
1.550784e+002, 1.607386e+003
1.555605e+002, 1.603607e+003
1.560426e+002, 1.598390e+003
1.565247e+002, 1.592992e+003
1.570069e+002, 1.588069e+003
1.574890e+002, 1.583631e+003
1.579711e+002, 1.579996e+003
1.584532e+002, 1.577350e+003
1.589353e+002, 1.575574e+003
1.594174e+002, 1.575173e+003
1.598996e+002, 1.576137e+003
1.603817e+002, 1.576887e+003
1.608638e+002, 1.575284e+003
1.613459e+002, 1.570502e+003
1.618280e+002, 1.566101e+003
1.623102e+002, 1.562329e+003
1.627923e+002, 1.559221e+003
1.632744e+002, 1.557182e+003
1.637565e+002, 1.556242e+003
1.642386e+002, 1.555642e+003
1.647207e+002, 1.553832e+003
1.652029e+002, 1.549557e+003
1.656850e+002, 1.546094e+003
1.661671e+002, 1.544059e+003
1.666492e+002, 1.542664e+003
1.671313e+002, 1.541339e+003
1.676134e+002, 1.539843e+003
1.680956e+002, 1.538039e+003
1.685777e+002, 1.535521e+003
1.690598e+002, 1.530854e+003
1.695419e+002, 1.527108e+003
1.700240e+002, 1.525430e+003
1.705061e+002, 1.524616e+003
1.709883e+002, 1.522773e+003
1.714704e+002, 1.518823e+003
1.719525e+002, 1.513502e+003
1.724346e+002, 1.510031e+003
1.729167e+002, 1.509724e+003
1.733988e+002, 1.509336e+003
1.738810e+002, 1.507846e+003
1.743631e+002, 1.505529e+003
1.748452e+002, 1.503032e+003
1.753273e+002, 1.500595e+003
1.758094e+002, 1.498342e+003
1.762915e+002, 1.496667e+003
1.767737e+002, 1.496245e+003
1.772558e+002, 1.495615e+003
1.777379e+002, 1.493575e+003
1.782200e+002, 1.490266e+003
1.787021e+002, 1.487210e+003
1.791842e+002, 1.485562e+003
1.796664e+002, 1.484615e+003
1.801485e+002, 1.482965e+003
1.806306e+002, 1.480184e+003
1.811127e+002, 1.476940e+003
1.815948e+002, 1.474012e+003
1.820769e+002, 1.471476e+003
1.825591e+002, 1.468767e+003
1.830412e+002, 1.465612e+003
1.835233e+002, 1.462094e+003
1.840054e+002, 1.458073e+003
1.844875e+002, 1.453164e+003
1.849696e+002, 1.448158e+003
1.854518e+002, 1.444737e+003
1.859339e+002, 1.443688e+003
1.864160e+002, 1.442460e+003
1.868981e+002, 1.439600e+003
1.873802e+002, 1.436206e+003
1.878623e+002, 1.433658e+003
1.883445e+002, 1.432851e+003
1.888266e+002, 1.433098e+003
1.893087e+002, 1.432013e+003
1.897908e+002, 1.428358e+003
1.902729e+002, 1.425055e+003
1.907550e+002, 1.423028e+003
1.912372e+002, 1.421717e+003
1.917193e+002, 1.420385e+003
1.922014e+002, 1.418598e+003
1.926835e+002, 1.416432e+003
1.931656e+002, 1.414395e+003
1.936477e+002, 1.412667e+003
1.941299e+002, 1.410925e+003
1.946120e+002, 1.409034e+003
1.950941e+002, 1.407100e+003
1.955762e+002, 1.405335e+003
1.960583e+002, 1.403900e+003
1.965404e+002, 1.402763e+003
1.970226e+002, 1.401389e+003
1.975047e+002, 1.399541e+003
1.979868e+002, 1.397715e+003
1.984689e+002, 1.395836e+003
1.989510e+002, 1.394062e+003
1.994331e+002, 1.392725e+003
1.999153e+002, 1.392062e+003
2.003974e+002, 1.392064e+003
2.008795e+002, 1.392293e+003
2.013616e+002, 1.392947e+003
2.018437e+002, 1.393568e+003
2.023258e+002, 1.394058e+003
2.028080e+002, 1.394367e+003
2.032901e+002, 1.394383e+003
2.037722e+002, 1.394009e+003
2.042543e+002, 1.393231e+003
2.047364e+002, 1.392280e+003
2.052185e+002, 1.391134e+003
2.057007e+002, 1.389859e+003
2.061828e+002, 1.388286e+003
2.066649e+002, 1.386493e+003
2.071470e+002, 1.385078e+003
2.076291e+002, 1.384419e+003
2.081112e+002, 1.384586e+003
2.085934e+002, 1.385374e+003
2.090755e+002, 1.387598e+003
2.095576e+002, 1.389919e+003
2.100397e+002, 1.390920e+003
2.105218e+002, 1.390539e+003
2.110039e+002, 1.390279e+003
2.114861e+002, 1.391191e+003
2.119682e+002, 1.392939e+003
2.124503e+002, 1.394835e+003
2.129324e+002, 1.396478e+003
2.134145e+002, 1.398394e+003
2.138967e+002, 1.401100e+003
2.143788e+002, 1.404550e+003
2.148609e+002, 1.409025e+003
2.153430e+002, 1.414901e+003
2.158251e+002, 1.421882e+003
2.163072e+002, 1.429717e+003
2.167894e+002, 1.438037e+003
2.172715e+002, 1.447519e+003
2.177536e+002, 1.459394e+003
2.182357e+002, 1.473848e+003
2.187178e+002, 1.490275e+003
2.191999e+002, 1.509474e+003
2.196821e+002, 1.530086e+003
2.201642e+002, 1.551025e+003
2.206463e+002, 1.572672e+003
2.211284e+002, 1.593302e+003
2.216105e+002, 1.610075e+003
2.220926e+002, 1.625323e+003
2.225748e+002, 1.630995e+003
2.230569e+002, 1.624453e+003
2.235390e+002, 1.609011e+003
2.240211e+002, 1.586998e+003
2.245032e+002, 1.558590e+003
2.249853e+002, 1.526501e+003
2.254675e+002, 1.497493e+003
2.259496e+002, 1.472537e+003
2.264317e+002, 1.449969e+003
2.269138e+002, 1.428683e+003
2.273959e+002, 1.409523e+003
2.278780e+002, 1.393587e+003
2.283602e+002, 1.381432e+003
2.288423e+002, 1.372552e+003
2.293244e+002, 1.365353e+003
2.298065e+002, 1.361191e+003
2.302886e+002, 1.356979e+003
2.307707e+002, 1.351742e+003
2.312529e+002, 1.346378e+003
2.317350e+002, 1.341906e+003
2.322171e+002, 1.338812e+003
2.326992e+002, 1.336804e+003
2.331813e+002, 1.334961e+003
2.336634e+002, 1.333066e+003
2.341456e+002, 1.331620e+003
2.346277e+002, 1.331413e+003
2.351098e+002, 1.331399e+003
2.355919e+002, 1.330278e+003
2.360740e+002, 1.327451e+003
2.365561e+002, 1.323477e+003
2.370383e+002, 1.319985e+003
2.375204e+002, 1.316222e+003
2.380025e+002, 1.314000e+003
2.384846e+002, 1.314333e+003
2.389667e+002, 1.315999e+003
2.394488e+002, 1.317668e+003
2.399310e+002, 1.318809e+003
2.404131e+002, 1.319486e+003
2.408952e+002, 1.319843e+003
2.413773e+002, 1.320167e+003
2.418594e+002, 1.319791e+003
2.423415e+002, 1.318765e+003
2.428237e+002, 1.316968e+003
2.433058e+002, 1.313805e+003
2.437879e+002, 1.308920e+003
2.442700e+002, 1.303597e+003
2.447521e+002, 1.300776e+003
2.452342e+002, 1.302211e+003
2.457164e+002, 1.302436e+003
2.461985e+002, 1.299515e+003
2.466806e+002, 1.295230e+003
2.471627e+002, 1.292135e+003
2.476448e+002, 1.291126e+003
2.481269e+002, 1.291033e+003
2.486091e+002, 1.289801e+003
2.490912e+002, 1.287234e+003
2.495733e+002, 1.284475e+003
2.500554e+002, 1.280773e+003
2.505375e+002, 1.277258e+003
2.510196e+002, 1.276090e+003
2.515018e+002, 1.278175e+003
2.519839e+002, 1.281172e+003
2.524660e+002, 1.281403e+003
2.529481e+002, 1.278792e+003
2.534302e+002, 1.276496e+003
2.539123e+002, 1.275680e+003
2.543945e+002, 1.275564e+003
2.548766e+002, 1.274640e+003
2.553587e+002, 1.272311e+003
2.558408e+002, 1.270282e+003
2.563229e+002, 1.271444e+003
2.568051e+002, 1.275320e+003
2.572872e+002, 1.278139e+003
2.577693e+002, 1.277903e+003
2.582514e+002, 1.276211e+003
2.587335e+002, 1.275669e+003
2.592156e+002, 1.276757e+003
2.596978e+002, 1.278460e+003
2.601799e+002, 1.279987e+003
2.606620e+002, 1.281362e+003
2.611441e+002, 1.282609e+003
2.616262e+002, 1.283750e+003
2.621083e+002, 1.284744e+003
2.625905e+002, 1.285452e+003
2.630726e+002, 1.285754e+003
2.635547e+002, 1.286129e+003
2.640368e+002, 1.287082e+003
2.645189e+002, 1.288387e+003
2.650010e+002, 1.289609e+003
2.654832e+002, 1.290585e+003
2.659653e+002, 1.291421e+003
2.664474e+002, 1.292300e+003
2.669295e+002, 1.293268e+003
2.674116e+002, 1.294147e+003
2.678937e+002, 1.295127e+003
2.683759e+002, 1.295911e+003
2.688580e+002, 1.295886e+003
2.693401e+002, 1.294279e+003
2.698222e+002, 1.292319e+003
2.703043e+002, 1.291958e+003
2.707864e+002, 1.293523e+003
2.712686e+002, 1.295276e+003
2.717507e+002, 1.296366e+003
2.722328e+002, 1.297195e+003
2.727149e+002, 1.298027e+003
2.731970e+002, 1.298700e+003
2.736791e+002, 1.299880e+003
2.741613e+002, 1.302890e+003
2.746434e+002, 1.308249e+003
2.751255e+002, 1.312844e+003
2.756076e+002, 1.314499e+003
2.760897e+002, 1.315368e+003
2.765718e+002, 1.316867e+003
2.770540e+002, 1.319226e+003
2.775361e+002, 1.322824e+003
2.780182e+002, 1.328581e+003
2.785003e+002, 1.336843e+003
2.789824e+002, 1.344810e+003
2.794645e+002, 1.351039e+003
2.799467e+002, 1.357228e+003
2.804288e+002, 1.364340e+003
2.809109e+002, 1.372543e+003
2.813930e+002, 1.381708e+003
2.818751e+002, 1.391713e+003
2.823572e+002, 1.402534e+003
2.828394e+002, 1.414277e+003
2.833215e+002, 1.426861e+003
2.838036e+002, 1.440549e+003
2.842857e+002, 1.456312e+003
2.847678e+002, 1.473709e+003
2.852499e+002, 1.490669e+003
2.857321e+002, 1.505443e+003
2.862142e+002, 1.517952e+003
2.866963e+002, 1.528935e+003
2.871784e+002, 1.539090e+003
2.876605e+002, 1.546605e+003
2.881426e+002, 1.551068e+003
2.886248e+002, 1.552324e+003
2.891069e+002, 1.550084e+003
2.895890e+002, 1.543448e+003
2.900711e+002, 1.532669e+003
2.905532e+002, 1.521390e+003
2.910353e+002, 1.508947e+003
2.915175e+002, 1.496725e+003
2.919996e+002, 1.485084e+003
2.924817e+002, 1.474026e+003
2.929638e+002, 1.463642e+003
2.934459e+002, 1.454077e+003
2.939280e+002, 1.445167e+003
2.944102e+002, 1.436543e+003
2.948923e+002, 1.428652e+003
2.953744e+002, 1.420314e+003
2.958565e+002, 1.410984e+003
2.963386e+002, 1.401144e+003
2.968207e+002, 1.391465e+003
2.973029e+002, 1.382334e+003
2.977850e+002, 1.373519e+003
2.982671e+002, 1.364357e+003
2.987492e+002, 1.354283e+003
2.992313e+002, 1.345085e+003
2.997134e+002, 1.337689e+003
3.001956e+002, 1.330967e+003
3.006777e+002, 1.323808e+003
3.011598e+002, 1.315796e+003
3.016419e+002, 1.307710e+003
3.021240e+002, 1.300896e+003
3.026061e+002, 1.295555e+003
3.030883e+002, 1.290965e+003
3.035704e+002, 1.287430e+003
3.040525e+002, 1.284220e+003
3.045346e+002, 1.280945e+003
3.050167e+002, 1.277495e+003
3.054988e+002, 1.273898e+003
3.059810e+002, 1.270126e+003
3.064631e+002, 1.266104e+003
3.069452e+002, 1.262227e+003
3.074273e+002, 1.258221e+003
3.079094e+002, 1.254611e+003
3.083915e+002, 1.251513e+003
3.088737e+002, 1.249009e+003
3.093558e+002, 1.247244e+003
3.098379e+002, 1.246560e+003
3.103200e+002, 1.247014e+003
3.108021e+002, 1.247298e+003
3.112842e+002, 1.247768e+003
3.117664e+002, 1.247642e+003
3.122485e+002, 1.246551e+003
3.127306e+002, 1.244656e+003
3.132127e+002, 1.242203e+003
3.136948e+002, 1.239059e+003
3.141769e+002, 1.235547e+003
3.146591e+002, 1.233766e+003
3.151412e+002, 1.235426e+003
3.156233e+002, 1.236500e+003
3.161054e+002, 1.235312e+003
3.165875e+002, 1.233064e+003
3.170696e+002, 1.231399e+003
3.175518e+002, 1.231159e+003
3.180339e+002, 1.231800e+003
3.185160e+002, 1.232010e+003
3.189981e+002, 1.231804e+003
3.194802e+002, 1.231118e+003
3.199623e+002, 1.229542e+003
3.204445e+002, 1.227784e+003
3.209266e+002, 1.226357e+003
3.214087e+002, 1.225424e+003
3.218908e+002, 1.225102e+003
3.223729e+002, 1.225763e+003
3.228550e+002, 1.227798e+003
3.233372e+002, 1.229441e+003
3.238193e+002, 1.229966e+003
3.243014e+002, 1.230390e+003
3.247835e+002, 1.231344e+003
3.252656e+002, 1.232856e+003
3.257477e+002, 1.234486e+003
3.262299e+002, 1.235911e+003
3.267120e+002, 1.237145e+003
3.271941e+002, 1.237781e+003
3.276762e+002, 1.236822e+003
3.281583e+002, 1.236164e+003
3.286404e+002, 1.236648e+003
3.291226e+002, 1.238110e+003
3.296047e+002, 1.239991e+003
3.300868e+002, 1.242122e+003
3.305689e+002, 1.244374e+003
3.310510e+002, 1.245865e+003
3.315331e+002, 1.246255e+003
3.320153e+002, 1.246333e+003
3.324974e+002, 1.246120e+003
3.329795e+002, 1.245911e+003
3.334616e+002, 1.246301e+003
3.339437e+002, 1.247858e+003
3.344258e+002, 1.249687e+003
3.349080e+002, 1.249407e+003
3.353901e+002, 1.245891e+003
3.358722e+002, 1.243288e+003
3.363543e+002, 1.243387e+003
3.368365e+002, 1.244603e+003
3.373186e+002, 1.245648e+003
3.378007e+002, 1.246166e+003
3.382828e+002, 1.246635e+003
3.387649e+002, 1.247814e+003
3.392470e+002, 1.249853e+003
3.397292e+002, 1.251394e+003
3.402113e+002, 1.251430e+003
3.406934e+002, 1.251434e+003
3.411755e+002, 1.252529e+003
3.416576e+002, 1.254654e+003
3.421397e+002, 1.256685e+003
3.426219e+002, 1.257549e+003
3.431040e+002, 1.257352e+003
3.435861e+002, 1.257422e+003
3.440682e+002, 1.258179e+003
3.445503e+002, 1.258669e+003
3.450324e+002, 1.257750e+003
3.455146e+002, 1.256106e+003
3.459967e+002, 1.255547e+003
3.464788e+002, 1.258113e+003
3.469609e+002, 1.262054e+003
3.474430e+002, 1.262701e+003
3.479251e+002, 1.258873e+003
3.484073e+002, 1.255033e+003
3.488894e+002, 1.253666e+003
3.493715e+002, 1.253502e+003
3.498536e+002, 1.253092e+003
3.503357e+002, 1.251992e+003
3.508178e+002, 1.250656e+003
3.513000e+002, 1.249536e+003
3.517821e+002, 1.248639e+003
3.522642e+002, 1.248104e+003
3.527463e+002, 1.248545e+003
3.532284e+002, 1.248952e+003
3.537105e+002, 1.248055e+003
3.541927e+002, 1.245643e+003
3.546748e+002, 1.243438e+003
3.551569e+002, 1.243024e+003
3.556390e+002, 1.243932e+003
3.561211e+002, 1.243918e+003
3.566032e+002, 1.242106e+003
3.570854e+002, 1.240113e+003
3.575675e+002, 1.239644e+003
3.580496e+002, 1.240385e+003
3.585317e+002, 1.240867e+003
3.590138e+002, 1.240624e+003
3.594959e+002, 1.239740e+003
3.599781e+002, 1.238121e+003
3.604602e+002, 1.235641e+003
3.609423e+002, 1.233273e+003
3.614244e+002, 1.231836e+003
3.619065e+002, 1.231030e+003
3.623886e+002, 1.230078e+003
3.628708e+002, 1.228604e+003
3.633529e+002, 1.227238e+003
3.638350e+002, 1.226873e+003
3.643171e+002, 1.227289e+003
3.647992e+002, 1.226841e+003
3.652813e+002, 1.224358e+003
3.657635e+002, 1.221036e+003
3.662456e+002, 1.219405e+003
3.667277e+002, 1.220130e+003
3.672098e+002, 1.220373e+003
3.676919e+002, 1.218466e+003
3.681740e+002, 1.215378e+003
3.686562e+002, 1.213130e+003
3.691383e+002, 1.212370e+003
3.696204e+002, 1.211728e+003
3.701025e+002, 1.209250e+003
3.705846e+002, 1.204793e+003
3.710667e+002, 1.201068e+003
3.715489e+002, 1.198547e+003
3.720310e+002, 1.196796e+003
3.725131e+002, 1.195833e+003
3.729952e+002, 1.195512e+003
3.734773e+002, 1.194856e+003
3.739594e+002, 1.193191e+003
3.744416e+002, 1.190507e+003
3.749237e+002, 1.187300e+003
3.754058e+002, 1.181932e+003
3.758879e+002, 1.177832e+003
3.763700e+002, 1.177631e+003
3.768521e+002, 1.179630e+003
3.773343e+002, 1.180017e+003
3.778164e+002, 1.176912e+003
3.782985e+002, 1.172082e+003
3.787806e+002, 1.169759e+003
3.792627e+002, 1.172542e+003
3.797448e+002, 1.173433e+003
3.802270e+002, 1.170136e+003
3.807091e+002, 1.165759e+003
3.811912e+002, 1.163317e+003
3.816733e+002, 1.163330e+003
3.821554e+002, 1.164277e+003
3.826375e+002, 1.164496e+003
3.831197e+002, 1.163842e+003
3.836018e+002, 1.163109e+003
3.840839e+002, 1.162732e+003
3.845660e+002, 1.161885e+003
3.850481e+002, 1.159862e+003
3.855302e+002, 1.157037e+003
3.860124e+002, 1.154317e+003
3.864945e+002, 1.152279e+003
3.869766e+002, 1.150848e+003
3.874587e+002, 1.149589e+003
3.879408e+002, 1.148498e+003
3.884229e+002, 1.147618e+003
3.889051e+002, 1.147047e+003
3.893872e+002, 1.146646e+003
3.898693e+002, 1.146177e+003
3.903514e+002, 1.145595e+003
3.908335e+002, 1.145200e+003
3.913156e+002, 1.145673e+003
3.917978e+002, 1.147772e+003
3.922799e+002, 1.148648e+003
3.927620e+002, 1.147123e+003
3.932441e+002, 1.145449e+003
3.937262e+002, 1.144520e+003
3.942083e+002, 1.144465e+003
3.946905e+002, 1.145197e+003
3.951726e+002, 1.146858e+003
3.956547e+002, 1.149313e+003
3.961368e+002, 1.151122e+003
3.966189e+002, 1.151590e+003
3.971010e+002, 1.152404e+003
3.975832e+002, 1.154249e+003
3.980653e+002, 1.156651e+003
3.985474e+002, 1.159005e+003
3.990295e+002, 1.161087e+003
3.995116e+002, 1.163025e+003
3.999937e+002, 1.165039e+003
4.004759e+002, 1.167149e+003
4.009580e+002, 1.169216e+003
4.014401e+002, 1.171254e+003
4.019222e+002, 1.173188e+003
4.024043e+002, 1.175191e+003
4.028864e+002, 1.177202e+003
4.033686e+002, 1.178513e+003
4.038507e+002, 1.178375e+003
4.043328e+002, 1.177048e+003
4.048149e+002, 1.175750e+003
4.052970e+002, 1.174808e+003
4.057791e+002, 1.173371e+003
4.062613e+002, 1.170743e+003
4.067434e+002, 1.167224e+003
4.072255e+002, 1.163211e+003
4.077076e+002, 1.158205e+003
4.081897e+002, 1.153345e+003
4.086718e+002, 1.150557e+003
4.091540e+002, 1.149719e+003
4.096361e+002, 1.147695e+003
4.101182e+002, 1.142816e+003
4.106003e+002, 1.136222e+003
4.110824e+002, 1.129947e+003
4.115645e+002, 1.123943e+003
4.120467e+002, 1.118292e+003
4.125288e+002, 1.113172e+003
4.130109e+002, 1.108391e+003
4.134930e+002, 1.103631e+003
4.139751e+002, 1.098840e+003
4.144572e+002, 1.094018e+003
4.149394e+002, 1.089000e+003
4.154215e+002, 1.083789e+003
4.159036e+002, 1.079643e+003
4.163857e+002, 1.077890e+003
4.168678e+002, 1.076141e+003
4.173499e+002, 1.072726e+003
4.178321e+002, 1.067947e+003
4.183142e+002, 1.062904e+003
4.187963e+002, 1.058116e+003
4.192784e+002, 1.053724e+003
4.197605e+002, 1.050292e+003
4.202426e+002, 1.048643e+003
4.207248e+002, 1.046788e+003
4.212069e+002, 1.044472e+003
4.216890e+002, 1.041884e+003
4.221711e+002, 1.039164e+003
4.226532e+002, 1.036371e+003
4.231353e+002, 1.033553e+003
4.236175e+002, 1.030722e+003
4.240996e+002, 1.027777e+003
4.245817e+002, 1.025400e+003
4.250638e+002, 1.023753e+003
4.255459e+002, 1.022434e+003
4.260280e+002, 1.021657e+003
4.265102e+002, 1.021059e+003
4.269923e+002, 1.019800e+003
4.274744e+002, 1.017281e+003
4.279565e+002, 1.014189e+003
4.284386e+002, 1.013129e+003
4.289207e+002, 1.016286e+003
4.294029e+002, 1.017450e+003
4.298850e+002, 1.014532e+003
4.303671e+002, 1.010468e+003
4.308492e+002, 1.007483e+003
4.313313e+002, 1.005980e+003
4.318134e+002, 1.005097e+003
4.322956e+002, 1.003855e+003
4.327777e+002, 1.002226e+003
4.332598e+002, 1.001377e+003
4.337419e+002, 1.002378e+003
4.342241e+002, 1.002761e+003
4.347062e+002, 1.000756e+003
4.351883e+002, 9.974465e+002
4.356704e+002, 9.949526e+002
4.361525e+002, 9.944186e+002
4.366346e+002, 9.948408e+002
4.371168e+002, 9.946152e+002
4.375989e+002, 9.936630e+002
4.380810e+002, 9.929324e+002
4.385631e+002, 9.929323e+002
4.390452e+002, 9.931783e+002
4.395273e+002, 9.932576e+002
4.400095e+002, 9.931904e+002
4.404916e+002, 9.925509e+002
4.409737e+002, 9.905001e+002
4.414558e+002, 9.878273e+002
4.419379e+002, 9.863425e+002
4.424200e+002, 9.864138e+002
4.429022e+002, 9.867167e+002
4.433843e+002, 9.860475e+002
4.438664e+002, 9.846263e+002
4.443485e+002, 9.838373e+002
4.448306e+002, 9.845668e+002
4.453127e+002, 9.851571e+002
4.457949e+002, 9.843441e+002
4.462770e+002, 9.826246e+002
4.467591e+002, 9.813016e+002
4.472412e+002, 9.809017e+002
4.477233e+002, 9.811740e+002
4.482054e+002, 9.817628e+002
4.486876e+002, 9.833154e+002
4.491697e+002, 9.836520e+002
4.496518e+002, 9.814706e+002
4.501339e+002, 9.789362e+002
4.506160e+002, 9.778166e+002
4.510981e+002, 9.780704e+002
4.515803e+002, 9.785475e+002
4.520624e+002, 9.783591e+002
4.525445e+002, 9.775339e+002
4.530266e+002, 9.764330e+002
4.535087e+002, 9.739714e+002
4.539908e+002, 9.725134e+002
4.544730e+002, 9.730567e+002
4.549551e+002, 9.744811e+002
4.554372e+002, 9.756047e+002
4.559193e+002, 9.760377e+002
4.564014e+002, 9.760887e+002
4.568835e+002, 9.762217e+002
4.573657e+002, 9.765319e+002
4.578478e+002, 9.764444e+002
4.583299e+002, 9.754875e+002
4.588120e+002, 9.745368e+002
4.592941e+002, 9.741065e+002
4.597762e+002, 9.739664e+002
4.602584e+002, 9.735414e+002
4.607405e+002, 9.724923e+002
4.612226e+002, 9.709934e+002
4.617047e+002, 9.692053e+002
4.621868e+002, 9.669255e+002
4.626689e+002, 9.653282e+002
4.631511e+002, 9.652332e+002
4.636332e+002, 9.657813e+002
4.641153e+002, 9.662985e+002
4.645974e+002, 9.667637e+002
4.650795e+002, 9.667946e+002
4.655616e+002, 9.657239e+002
4.660438e+002, 9.641259e+002
4.665259e+002, 9.633612e+002
4.670080e+002, 9.636827e+002
4.674901e+002, 9.642946e+002
4.679722e+002, 9.646072e+002
4.684543e+002, 9.647042e+002
4.689365e+002, 9.649996e+002
4.694186e+002, 9.657480e+002
4.699007e+002, 9.664573e+002
4.703828e+002, 9.667763e+002
4.708649e+002, 9.668696e+002
4.713470e+002, 9.672350e+002
4.718292e+002, 9.680946e+002
4.723113e+002, 9.688142e+002
4.727934e+002, 9.682789e+002
4.732755e+002, 9.656072e+002
4.737576e+002, 9.643033e+002
4.742397e+002, 9.656638e+002
4.747219e+002, 9.671876e+002
4.752040e+002, 9.673489e+002
4.756861e+002, 9.663497e+002
4.761682e+002, 9.650810e+002
4.766503e+002, 9.640733e+002
4.771324e+002, 9.633504e+002
4.776146e+002, 9.630356e+002
4.780967e+002, 9.632916e+002
4.785788e+002, 9.637298e+002
4.790609e+002, 9.647491e+002
4.795430e+002, 9.656242e+002
4.800251e+002, 9.657357e+002
4.805073e+002, 9.650497e+002
4.809894e+002, 9.640215e+002
4.814715e+002, 9.628207e+002
4.819536e+002, 9.615287e+002
4.824357e+002, 9.610071e+002
4.829178e+002, 9.603987e+002
4.834000e+002, 9.622021e+002
4.838821e+002, 9.695117e+002
4.843642e+002, 9.789514e+002
4.848463e+002, 9.861094e+002
4.853284e+002, 9.896805e+002
4.858105e+002, 9.912879e+002
4.862927e+002, 9.924590e+002
4.867748e+002, 9.930770e+002
4.872569e+002, 9.922313e+002
4.877390e+002, 9.892547e+002
4.882211e+002, 9.857271e+002
4.887032e+002, 9.831485e+002
4.891854e+002, 9.814073e+002
4.896675e+002, 9.804088e+002
4.901496e+002, 9.809645e+002
4.906317e+002, 9.815839e+002
4.911138e+002, 9.810399e+002
4.915959e+002, 9.795094e+002
4.920781e+002, 9.775131e+002
4.925602e+002, 9.750745e+002
4.930423e+002, 9.729850e+002
4.935244e+002, 9.731318e+002
4.940065e+002, 9.774999e+002
4.944886e+002, 9.803142e+002
4.949708e+002, 9.804261e+002
4.954529e+002, 9.796379e+002
4.959350e+002, 9.791102e+002
4.964171e+002, 9.789568e+002
4.968992e+002, 9.787852e+002
4.973813e+002, 9.782390e+002
4.978635e+002, 9.774573e+002
4.983456e+002, 9.773519e+002
4.988277e+002, 9.780944e+002
4.993098e+002, 9.793007e+002
4.997919e+002, 9.816000e+002
5.002740e+002, 9.838522e+002
5.007562e+002, 9.850256e+002
5.012383e+002, 9.849682e+002
5.017204e+002, 9.843419e+002
5.022025e+002, 9.835347e+002
5.026846e+002, 9.826161e+002
5.031667e+002, 9.823439e+002
5.036489e+002, 9.828890e+002
5.041310e+002, 9.838304e+002
5.046131e+002, 9.852157e+002
5.050952e+002, 9.867834e+002
5.055773e+002, 9.880897e+002
5.060594e+002, 9.888790e+002
5.065416e+002, 9.897975e+002
5.070237e+002, 9.917040e+002
5.075058e+002, 9.942203e+002
5.079879e+002, 9.958992e+002
5.084700e+002, 9.962496e+002
5.089521e+002, 9.962773e+002
5.094343e+002, 9.970861e+002
5.099164e+002, 9.986721e+002
5.103985e+002, 1.000016e+003
5.108806e+002, 1.001089e+003
5.113627e+002, 1.001872e+003
5.118448e+002, 1.002447e+003
5.123270e+002, 1.002720e+003
5.128091e+002, 1.002389e+003
5.132912e+002, 1.001305e+003
5.137733e+002, 9.998875e+002
5.142554e+002, 9.989031e+002
5.147375e+002, 9.985999e+002
5.152197e+002, 9.981736e+002
5.157018e+002, 9.975806e+002
5.161839e+002, 9.969299e+002
5.166660e+002, 9.962403e+002
5.171481e+002, 9.955314e+002
5.176302e+002, 9.948939e+002
5.181124e+002, 9.944261e+002
5.185945e+002, 9.938885e+002
5.190766e+002, 9.925341e+002
5.195587e+002, 9.899525e+002
5.200408e+002, 9.878176e+002
5.205229e+002, 9.863291e+002
5.210051e+002, 9.855362e+002
5.214872e+002, 9.858096e+002
5.219693e+002, 9.869805e+002
5.224514e+002, 9.880735e+002
5.229335e+002, 9.884075e+002
5.234156e+002, 9.883282e+002
5.238978e+002, 9.886392e+002
5.243799e+002, 9.894061e+002
5.248620e+002, 9.896188e+002
5.253441e+002, 9.886339e+002
5.258262e+002, 9.869235e+002
5.263083e+002, 9.854459e+002
5.267905e+002, 9.841910e+002
5.272726e+002, 9.832421e+002
5.277547e+002, 9.827289e+002
5.282368e+002, 9.825049e+002
5.287189e+002, 9.824210e+002
5.292010e+002, 9.824647e+002
5.296832e+002, 9.826522e+002
5.301653e+002, 9.829509e+002
5.306474e+002, 9.834191e+002
5.311295e+002, 9.844933e+002
5.316116e+002, 9.868139e+002
5.320938e+002, 9.889248e+002
5.325759e+002, 9.906463e+002
5.330580e+002, 9.921210e+002
5.335401e+002, 9.933379e+002
5.340222e+002, 9.943762e+002
5.345043e+002, 9.956141e+002
5.349865e+002, 9.976120e+002
5.354686e+002, 1.000226e+003
5.359507e+002, 1.001605e+003
5.364328e+002, 1.000586e+003
5.369149e+002, 1.000560e+003
5.373970e+002, 1.004139e+003
5.378792e+002, 1.008623e+003
5.383613e+002, 1.010948e+003
5.388434e+002, 1.010393e+003
5.393255e+002, 1.009388e+003
5.398076e+002, 1.009590e+003
5.402897e+002, 1.010766e+003
5.407719e+002, 1.012484e+003
5.412540e+002, 1.014818e+003
5.417361e+002, 1.016914e+003
5.422182e+002, 1.018082e+003
5.427003e+002, 1.018479e+003
5.431824e+002, 1.019021e+003
5.436646e+002, 1.020157e+003
5.441467e+002, 1.020848e+003
5.446288e+002, 1.019958e+003
5.451109e+002, 1.018739e+003
5.455930e+002, 1.019250e+003
5.460751e+002, 1.021759e+003
5.465573e+002, 1.024267e+003
5.470394e+002, 1.024565e+003
5.475215e+002, 1.022554e+003
5.480036e+002, 1.021928e+003
5.484857e+002, 1.024573e+003
5.489678e+002, 1.026468e+003
5.494500e+002, 1.026328e+003
5.499321e+002, 1.025348e+003
5.504142e+002, 1.024985e+003
5.508963e+002, 1.025569e+003
5.513784e+002, 1.026065e+003
5.518605e+002, 1.025279e+003
5.523427e+002, 1.023283e+003
5.528248e+002, 1.021130e+003
5.533069e+002, 1.018786e+003
5.537890e+002, 1.016419e+003
5.542711e+002, 1.013863e+003
5.547532e+002, 1.011436e+003
5.552354e+002, 1.009667e+003
5.557175e+002, 1.008715e+003
5.561996e+002, 1.008242e+003
5.566817e+002, 1.008831e+003
5.571638e+002, 1.009588e+003
5.576459e+002, 1.008358e+003
5.581281e+002, 1.004727e+003
5.586102e+002, 1.000657e+003
5.590923e+002, 9.978153e+002
5.595744e+002, 9.961426e+002
5.600565e+002, 9.943704e+002
5.605386e+002, 9.925592e+002
5.610208e+002, 9.906075e+002
5.615029e+002, 9.886334e+002
5.619850e+002, 9.864194e+002
5.624671e+002, 9.833107e+002
5.629492e+002, 9.793899e+002
5.634313e+002, 9.760186e+002
5.639135e+002, 9.750003e+002
5.643956e+002, 9.762507e+002
5.648777e+002, 9.752822e+002
5.653598e+002, 9.701669e+002
5.658419e+002, 9.658850e+002
5.663240e+002, 9.650143e+002
5.668062e+002, 9.650900e+002
5.672883e+002, 9.631774e+002
5.677704e+002, 9.586290e+002
5.682525e+002, 9.542244e+002
5.687346e+002, 9.525160e+002
5.692167e+002, 9.525999e+002
5.696989e+002, 9.520445e+002
5.701810e+002, 9.506201e+002
5.706631e+002, 9.487373e+002
5.711452e+002, 9.465641e+002
5.716273e+002, 9.441402e+002
5.721094e+002, 9.416229e+002
5.725916e+002, 9.385250e+002
5.730737e+002, 9.362089e+002
5.735558e+002, 9.357728e+002
5.740379e+002, 9.358696e+002
5.745200e+002, 9.349125e+002
5.750021e+002, 9.328497e+002
5.754843e+002, 9.308167e+002
5.759664e+002, 9.297374e+002
5.764485e+002, 9.294619e+002
5.769306e+002, 9.291078e+002
5.774127e+002, 9.286972e+002
5.778948e+002, 9.281412e+002
5.783770e+002, 9.279346e+002
5.788591e+002, 9.272195e+002
5.793412e+002, 9.248207e+002
5.798233e+002, 9.210024e+002
5.803054e+002, 9.175908e+002
5.807875e+002, 9.158763e+002
5.812697e+002, 9.155248e+002
5.817518e+002, 9.163504e+002
5.822339e+002, 9.186681e+002
5.827161e+002, 9.191427e+002
5.831982e+002, 9.155390e+002
5.836803e+002, 9.102308e+002
5.841624e+002, 9.066935e+002
5.846445e+002, 9.049528e+002
5.851266e+002, 9.039756e+002
5.856088e+002, 9.043743e+002
5.860909e+002, 9.047599e+002
5.865730e+002, 9.034836e+002
5.870551e+002, 9.010267e+002
5.875372e+002, 8.993588e+002
5.880193e+002, 8.995847e+002
5.885015e+002, 9.007527e+002
5.889836e+002, 9.006719e+002
5.894657e+002, 8.983129e+002
5.899478e+002, 8.969774e+002
5.904299e+002, 8.977878e+002
5.909120e+002, 8.984150e+002
5.913942e+002, 8.973699e+002
5.918763e+002, 8.953038e+002
5.923584e+002, 8.936926e+002
5.928405e+002, 8.932486e+002
5.933226e+002, 8.934936e+002
5.938047e+002, 8.939983e+002
5.942869e+002, 8.947394e+002
5.947690e+002, 8.944635e+002
5.952511e+002, 8.921622e+002
5.957332e+002, 8.901684e+002
5.962153e+002, 8.909191e+002
5.966974e+002, 8.937211e+002
5.971796e+002, 8.964016e+002
5.976617e+002, 8.992753e+002
5.981438e+002, 9.012789e+002
5.986259e+002, 9.012794e+002
5.991080e+002, 9.001749e+002
5.995901e+002, 8.995550e+002
6.000723e+002, 8.998077e+002
6.005544e+002, 9.002055e+002
6.010365e+002, 8.998881e+002
6.015186e+002, 8.988277e+002
6.020007e+002, 8.986779e+002
6.024828e+002, 9.003030e+002
6.029650e+002, 9.018543e+002
6.034471e+002, 9.033128e+002
6.039292e+002, 9.044030e+002
6.044113e+002, 9.046802e+002
6.048934e+002, 9.041635e+002
6.053755e+002, 9.036287e+002
6.058577e+002, 9.039457e+002
6.063398e+002, 9.048028e+002
6.068219e+002, 9.049482e+002
6.073040e+002, 9.042430e+002
6.077861e+002, 9.036248e+002
6.082682e+002, 9.037942e+002
6.087504e+002, 9.040590e+002
6.092325e+002, 9.030651e+002
6.097146e+002, 9.004815e+002
6.101967e+002, 8.984520e+002
6.106788e+002, 8.983252e+002
6.111609e+002, 8.983679e+002
6.116431e+002, 8.966755e+002
6.121252e+002, 8.936911e+002
6.126073e+002, 8.912130e+002
6.130894e+002, 8.901865e+002
6.135715e+002, 8.901803e+002
6.140536e+002, 8.903595e+002
6.145358e+002, 8.910481e+002
6.150179e+002, 8.911299e+002
6.155000e+002, 8.900394e+002
6.159821e+002, 8.889211e+002
6.164642e+002, 8.884524e+002
6.169464e+002, 8.882733e+002
6.174285e+002, 8.874868e+002
6.179106e+002, 8.855252e+002
6.183927e+002, 8.837302e+002
6.188748e+002, 8.838847e+002
6.193569e+002, 8.856388e+002
6.198391e+002, 8.872752e+002
6.203212e+002, 8.886595e+002
6.208033e+002, 8.892703e+002
6.212854e+002, 8.882751e+002
6.217675e+002, 8.860533e+002
6.222496e+002, 8.849316e+002
6.227318e+002, 8.850837e+002
6.232139e+002, 8.860457e+002
6.236960e+002, 8.888061e+002
6.241781e+002, 8.916501e+002
6.246602e+002, 8.922107e+002
6.251423e+002, 8.906219e+002
6.256245e+002, 8.892200e+002
6.261066e+002, 8.898721e+002
6.265887e+002, 8.922288e+002
6.270708e+002, 8.948727e+002
6.275529e+002, 8.981451e+002
6.280350e+002, 9.008425e+002
6.285172e+002, 9.021425e+002
6.289993e+002, 9.032528e+002
6.294814e+002, 9.047871e+002
6.299635e+002, 9.068139e+002
6.304456e+002, 9.093784e+002
6.309277e+002, 9.129767e+002
6.314099e+002, 9.167424e+002
6.318920e+002, 9.196057e+002
6.323741e+002, 9.217816e+002
6.328562e+002, 9.242034e+002
6.333383e+002, 9.272129e+002
6.338204e+002, 9.302180e+002
6.343026e+002, 9.324052e+002
6.347847e+002, 9.336099e+002
6.352668e+002, 9.356146e+002
6.357489e+002, 9.384122e+002
6.362310e+002, 9.418864e+002
6.367131e+002, 9.465778e+002
6.371953e+002, 9.516088e+002
6.376774e+002, 9.556586e+002
6.381595e+002, 9.586042e+002
6.386416e+002, 9.619072e+002
6.391237e+002, 9.674798e+002
6.396058e+002, 9.746349e+002
6.400880e+002, 9.795092e+002
6.405701e+002, 9.812331e+002
6.410522e+002, 9.841213e+002
6.415343e+002, 9.903583e+002
6.420164e+002, 9.982811e+002
6.424985e+002, 1.005660e+003
6.429807e+002, 1.012462e+003
6.434628e+002, 1.019265e+003
6.439449e+002, 1.026200e+003
6.444270e+002, 1.033276e+003
6.449091e+002, 1.040018e+003
6.453912e+002, 1.046964e+003
6.458734e+002, 1.055682e+003
6.463555e+002, 1.066754e+003
6.468376e+002, 1.079029e+003
6.473197e+002, 1.090632e+003
6.478018e+002, 1.101538e+003
6.482839e+002, 1.112122e+003
6.487661e+002, 1.121984e+003
6.492482e+002, 1.132048e+003
6.497303e+002, 1.142619e+003
6.502124e+002, 1.153526e+003
6.506945e+002, 1.164386e+003
6.511766e+002, 1.175057e+003
6.516588e+002, 1.186563e+003
6.521409e+002, 1.200258e+003
6.526230e+002, 1.215045e+003
6.531051e+002, 1.228620e+003
6.535872e+002, 1.240852e+003
6.540693e+002, 1.252733e+003
6.545515e+002, 1.264547e+003
6.550336e+002, 1.276599e+003
6.555157e+002, 1.289746e+003
6.559978e+002, 1.304826e+003
6.564799e+002, 1.319004e+003
6.569620e+002, 1.331970e+003
6.574442e+002, 1.344188e+003
6.579263e+002, 1.355411e+003
6.584084e+002, 1.366128e+003
6.588905e+002, 1.377331e+003
6.593726e+002, 1.389318e+003
6.598547e+002, 1.401698e+003
6.603369e+002, 1.413739e+003
6.608190e+002, 1.425485e+003
6.613011e+002, 1.438410e+003
6.617832e+002, 1.453532e+003
6.622653e+002, 1.467164e+003
6.627474e+002, 1.476231e+003
6.632296e+002, 1.482893e+003
6.637117e+002, 1.491602e+003
6.641938e+002, 1.503430e+003
6.646759e+002, 1.514083e+003
6.651580e+002, 1.522371e+003
6.656401e+002, 1.528833e+003
6.661223e+002, 1.534357e+003
6.666044e+002, 1.538539e+003
6.670865e+002, 1.539705e+003
6.675686e+002, 1.536934e+003
6.680507e+002, 1.531595e+003
6.685328e+002, 1.526279e+003
6.690150e+002, 1.521297e+003
6.694971e+002, 1.515032e+003
6.699792e+002, 1.507646e+003
6.704613e+002, 1.498619e+003
6.709434e+002, 1.488033e+003
6.714255e+002, 1.475733e+003
6.719077e+002, 1.461202e+003
6.723898e+002, 1.444086e+003
6.728719e+002, 1.425955e+003
6.733540e+002, 1.407192e+003
6.738361e+002, 1.388315e+003
6.743182e+002, 1.370233e+003
6.748004e+002, 1.352915e+003
6.752825e+002, 1.335785e+003
6.757646e+002, 1.318601e+003
6.762467e+002, 1.301277e+003
6.767288e+002, 1.283441e+003
6.772109e+002, 1.264720e+003
6.776931e+002, 1.246157e+003
6.781752e+002, 1.226966e+003
6.786573e+002, 1.208668e+003
6.791394e+002, 1.192613e+003
6.796215e+002, 1.177707e+003
6.801036e+002, 1.162235e+003
6.805858e+002, 1.145628e+003
6.810679e+002, 1.129025e+003
6.815500e+002, 1.112877e+003
6.820321e+002, 1.097764e+003
6.825142e+002, 1.085640e+003
6.829963e+002, 1.076838e+003
6.834785e+002, 1.068453e+003
6.839606e+002, 1.058960e+003
6.844427e+002, 1.048720e+003
6.849248e+002, 1.038404e+003
6.854069e+002, 1.027814e+003
6.858890e+002, 1.017702e+003
6.863712e+002, 1.007660e+003
6.868533e+002, 9.985584e+002
6.873354e+002, 9.909863e+002
6.878175e+002, 9.846424e+002
6.882996e+002, 9.791299e+002
6.887817e+002, 9.742916e+002
6.892639e+002, 9.695343e+002
6.897460e+002, 9.638523e+002
6.902281e+002, 9.574948e+002
6.907102e+002, 9.525706e+002
6.911923e+002, 9.495212e+002
6.916744e+002, 9.463367e+002
6.921566e+002, 9.417311e+002
6.926387e+002, 9.366055e+002
6.931208e+002, 9.329723e+002
6.936029e+002, 9.312249e+002
6.940850e+002, 9.289137e+002
6.945671e+002, 9.250819e+002
6.950493e+002, 9.210935e+002
6.955314e+002, 9.176671e+002
6.960135e+002, 9.147761e+002
6.964956e+002, 9.122092e+002
6.969777e+002, 9.098929e+002
6.974598e+002, 9.079355e+002
6.979420e+002, 9.069795e+002
6.984241e+002, 9.069090e+002
6.989062e+002, 9.043207e+002
6.993883e+002, 8.979146e+002
6.998704e+002, 8.926884e+002
7.003525e+002, 8.918355e+002
7.008347e+002, 8.925853e+002
7.013168e+002, 8.911428e+002
7.017989e+002, 8.873293e+002
7.022810e+002, 8.833953e+002
7.027631e+002, 8.797006e+002
7.032452e+002, 8.763386e+002
7.037274e+002, 8.733317e+002
7.042095e+002, 8.707352e+002
7.046916e+002, 8.690179e+002
7.051737e+002, 8.682154e+002
7.056558e+002, 8.670039e+002
7.061379e+002, 8.636609e+002
7.066201e+002, 8.583230e+002
7.071022e+002, 8.535390e+002
7.075843e+002, 8.491793e+002
7.080664e+002, 8.456414e+002
7.085485e+002, 8.436884e+002
7.090306e+002, 8.421652e+002
7.095128e+002, 8.399842e+002
7.099949e+002, 8.371581e+002
7.104770e+002, 8.344906e+002
7.109591e+002, 8.322371e+002
7.114412e+002, 8.302313e+002
7.119233e+002, 8.285612e+002
7.124055e+002, 8.270129e+002
7.128876e+002, 8.253237e+002
7.133697e+002, 8.233936e+002
7.138518e+002, 8.209086e+002
7.143339e+002, 8.174540e+002
7.148160e+002, 8.132330e+002
7.152982e+002, 8.097565e+002
7.157803e+002, 8.071832e+002
7.162624e+002, 8.049837e+002
7.167445e+002, 8.029129e+002
7.172266e+002, 8.013287e+002
7.177087e+002, 8.007731e+002
7.181909e+002, 8.009726e+002
7.186730e+002, 8.008190e+002
7.191551e+002, 7.997509e+002
7.196372e+002, 7.985074e+002
7.201193e+002, 7.979806e+002
7.206014e+002, 7.974587e+002
7.210836e+002, 7.951973e+002
7.215657e+002, 7.912273e+002
7.220478e+002, 7.879804e+002
7.225299e+002, 7.874501e+002
7.230120e+002, 7.886918e+002
7.234941e+002, 7.882409e+002
7.239763e+002, 7.853850e+002
7.244584e+002, 7.828108e+002
7.249405e+002, 7.808433e+002
7.254226e+002, 7.791514e+002
7.259047e+002, 7.772744e+002
7.263868e+002, 7.755933e+002
7.268690e+002, 7.751576e+002
7.273511e+002, 7.769427e+002
7.278332e+002, 7.778937e+002
7.283153e+002, 7.753223e+002
7.287974e+002, 7.713277e+002
7.292795e+002, 7.689688e+002
7.297617e+002, 7.681519e+002
7.302438e+002, 7.665665e+002
7.307259e+002, 7.628405e+002
7.312080e+002, 7.584003e+002
7.316901e+002, 7.563485e+002
7.321722e+002, 7.575139e+002
7.326544e+002, 7.575846e+002
7.331365e+002, 7.559415e+002
7.336186e+002, 7.540231e+002
7.341007e+002, 7.520104e+002
7.345828e+002, 7.502770e+002
7.350649e+002, 7.495534e+002
7.355471e+002, 7.500441e+002
7.360292e+002, 7.500965e+002
7.365113e+002, 7.484719e+002
7.369934e+002, 7.464296e+002
7.374755e+002, 7.451910e+002
7.379576e+002, 7.446039e+002
7.384398e+002, 7.441549e+002
7.389219e+002, 7.436458e+002
7.394040e+002, 7.429519e+002
7.398861e+002, 7.418748e+002
7.403682e+002, 7.404167e+002
7.408503e+002, 7.391081e+002
7.413325e+002, 7.379472e+002
7.418146e+002, 7.369252e+002
7.422967e+002, 7.361961e+002
7.427788e+002, 7.354755e+002
7.432609e+002, 7.345741e+002
7.437430e+002, 7.334755e+002
7.442252e+002, 7.321652e+002
7.447073e+002, 7.302606e+002
7.451894e+002, 7.285327e+002
7.456715e+002, 7.278331e+002
7.461536e+002, 7.275100e+002
7.466357e+002, 7.264526e+002
7.471179e+002, 7.245455e+002
7.476000e+002, 7.225283e+002
7.480821e+002, 7.209384e+002
7.485642e+002, 7.197139e+002
7.490463e+002, 7.186285e+002
7.495284e+002, 7.176913e+002
7.500106e+002, 7.168969e+002
7.504927e+002, 7.163615e+002
7.509748e+002, 7.158156e+002
7.514569e+002, 7.151561e+002
7.519390e+002, 7.143404e+002
7.524211e+002, 7.131573e+002
7.529033e+002, 7.111453e+002
7.533854e+002, 7.097826e+002
7.538675e+002, 7.102150e+002
7.543496e+002, 7.110534e+002
7.548317e+002, 7.108039e+002
7.553138e+002, 7.097950e+002
7.557960e+002, 7.093666e+002
7.562781e+002, 7.101298e+002
7.567602e+002, 7.111876e+002
7.572423e+002, 7.112538e+002
7.577244e+002, 7.103486e+002
7.582065e+002, 7.091678e+002
7.586887e+002, 7.076229e+002
7.591708e+002, 7.060862e+002
7.596529e+002, 7.042847e+002
7.601350e+002, 7.029576e+002
7.606171e+002, 7.034921e+002
7.610992e+002, 7.060052e+002
7.615814e+002, 7.082390e+002
7.620635e+002, 7.106902e+002
7.625456e+002, 7.119478e+002
7.630277e+002, 7.104005e+002
7.635098e+002, 7.077852e+002
7.639919e+002, 7.064745e+002
7.644741e+002, 7.067240e+002
7.649562e+002, 7.069149e+002
7.654383e+002, 7.056798e+002
7.659204e+002, 7.036886e+002
7.664025e+002, 7.024570e+002
7.668846e+002, 7.019664e+002
7.673668e+002, 7.015949e+002
7.678489e+002, 7.012805e+002
7.683310e+002, 7.007866e+002
7.688131e+002, 6.997557e+002
7.692952e+002, 6.983675e+002
7.697773e+002, 6.976677e+002
7.702595e+002, 6.984980e+002
7.707416e+002, 6.987365e+002
7.712237e+002, 6.978534e+002
7.717058e+002, 6.967180e+002
7.721879e+002, 6.955880e+002
7.726700e+002, 6.946984e+002
7.731522e+002, 6.945216e+002
7.736343e+002, 6.952914e+002
7.741164e+002, 6.960767e+002
7.745985e+002, 6.959510e+002
7.750806e+002, 6.952031e+002
7.755627e+002, 6.944133e+002
7.760449e+002, 6.936290e+002
7.765270e+002, 6.928978e+002
7.770091e+002, 6.922412e+002
7.774912e+002, 6.916746e+002
7.779733e+002, 6.912559e+002
7.784554e+002, 6.910350e+002
7.789376e+002, 6.905554e+002
7.794197e+002, 6.892314e+002
7.799019e+002, 6.884678e+002
7.803840e+002, 6.892888e+002
7.808661e+002, 6.902245e+002
7.813482e+002, 6.895458e+002
7.818303e+002, 6.875328e+002
7.823124e+002, 6.864767e+002
7.827946e+002, 6.882537e+002
7.832767e+002, 6.901809e+002
7.837588e+002, 6.890759e+002
7.842409e+002, 6.869493e+002
7.847230e+002, 6.883453e+002
7.852051e+002, 6.932754e+002
7.856873e+002, 6.968478e+002
7.861694e+002, 6.954962e+002
7.866515e+002, 6.911379e+002
7.871336e+002, 6.887365e+002
7.876157e+002, 6.887464e+002
7.880978e+002, 6.882469e+002
7.885800e+002, 6.866725e+002
7.890621e+002, 6.852513e+002
7.895442e+002, 6.848636e+002
7.900263e+002, 6.849647e+002
7.905084e+002, 6.845955e+002
7.909905e+002, 6.835611e+002
7.914727e+002, 6.829285e+002
7.919548e+002, 6.833218e+002
7.924369e+002, 6.838400e+002
7.929190e+002, 6.840302e+002
7.934011e+002, 6.839044e+002
7.938832e+002, 6.833139e+002
7.943654e+002, 6.823480e+002
7.948475e+002, 6.818168e+002
7.953296e+002, 6.827700e+002
7.958117e+002, 6.844073e+002
7.962938e+002, 6.843141e+002
7.967759e+002, 6.825217e+002
7.972581e+002, 6.813233e+002
7.977402e+002, 6.813116e+002
7.982223e+002, 6.817405e+002
7.987044e+002, 6.819670e+002
7.991865e+002, 6.820779e+002
7.996686e+002, 6.825998e+002
8.001508e+002, 6.842529e+002
8.006329e+002, 6.852775e+002
8.011150e+002, 6.855667e+002
8.015971e+002, 6.853115e+002
8.020792e+002, 6.840485e+002
8.025613e+002, 6.825039e+002
8.030435e+002, 6.821483e+002
8.035256e+002, 6.835297e+002
8.040077e+002, 6.846573e+002
8.044898e+002, 6.835806e+002
8.049719e+002, 6.816671e+002
8.054540e+002, 6.809473e+002
8.059362e+002, 6.812426e+002
8.064183e+002, 6.813406e+002
8.069004e+002, 6.808165e+002
8.073825e+002, 6.804551e+002
8.078646e+002, 6.813983e+002
8.083467e+002, 6.834215e+002
8.088289e+002, 6.833893e+002
8.093110e+002, 6.803035e+002
8.097931e+002, 6.778668e+002
8.102752e+002, 6.770461e+002
8.107573e+002, 6.769179e+002
8.112394e+002, 6.767853e+002
8.117216e+002, 6.767253e+002
8.122037e+002, 6.768847e+002
8.126858e+002, 6.761406e+002
8.131679e+002, 6.776883e+002
8.136500e+002, 6.860836e+002
8.141321e+002, 6.943305e+002
8.146143e+002, 6.957322e+002
8.150964e+002, 6.918586e+002
8.155785e+002, 6.871887e+002
8.160606e+002, 6.835724e+002
8.165427e+002, 6.810984e+002
8.170248e+002, 6.800078e+002
8.175070e+002, 6.801334e+002
8.179891e+002, 6.814184e+002
8.184712e+002, 6.838458e+002
8.189533e+002, 6.848065e+002
8.194354e+002, 6.831352e+002
8.199175e+002, 6.805836e+002
8.203997e+002, 6.790931e+002
8.208818e+002, 6.786522e+002
8.213639e+002, 6.785248e+002
8.218460e+002, 6.792339e+002
8.223281e+002, 6.794778e+002
8.228102e+002, 6.786150e+002
8.232924e+002, 6.777393e+002
8.237745e+002, 6.776710e+002
8.242566e+002, 6.781674e+002
8.247387e+002, 6.785734e+002
8.252208e+002, 6.787997e+002
8.257029e+002, 6.786107e+002
8.261851e+002, 6.769449e+002
8.266672e+002, 6.754316e+002
8.271493e+002, 6.761879e+002
8.276314e+002, 6.788495e+002
8.281135e+002, 6.825351e+002
8.285956e+002, 6.867648e+002
8.290778e+002, 6.891945e+002
8.295599e+002, 6.860023e+002
8.300420e+002, 6.783797e+002
8.305241e+002, 6.746305e+002
8.310062e+002, 6.753021e+002
8.314883e+002, 6.764719e+002
8.319705e+002, 6.772930e+002
8.324526e+002, 6.778677e+002
8.329347e+002, 6.783314e+002
8.334168e+002, 6.786486e+002
8.338989e+002, 6.785052e+002
8.343810e+002, 6.768976e+002
8.348632e+002, 6.763220e+002
8.353453e+002, 6.783030e+002
8.358274e+002, 6.801179e+002
8.363095e+002, 6.796566e+002
8.367916e+002, 6.778772e+002
8.372737e+002, 6.767439e+002
8.377559e+002, 6.768423e+002
8.382380e+002, 6.774723e+002
8.387201e+002, 6.783741e+002
8.392022e+002, 6.793426e+002
8.396843e+002, 6.800757e+002
8.401664e+002, 6.806258e+002
8.406486e+002, 6.812588e+002
8.411307e+002, 6.820381e+002
8.416128e+002, 6.826720e+002
8.420949e+002, 6.828583e+002
8.425770e+002, 6.826627e+002
8.430591e+002, 6.822504e+002
8.435413e+002, 6.814368e+002
8.440234e+002, 6.814543e+002
8.445055e+002, 6.830216e+002
8.449876e+002, 6.844499e+002
8.454697e+002, 6.843673e+002
8.459518e+002, 6.833340e+002
8.464340e+002, 6.830421e+002
8.469161e+002, 6.839595e+002
8.473982e+002, 6.843467e+002
8.478803e+002, 6.830172e+002
8.483624e+002, 6.822178e+002
8.488445e+002, 6.837872e+002
8.493267e+002, 6.862250e+002
8.498088e+002, 6.875009e+002
8.502909e+002, 6.872792e+002
8.507730e+002, 6.865372e+002
8.512551e+002, 6.855547e+002
8.517372e+002, 6.847399e+002
8.522194e+002, 6.846619e+002
8.527015e+002, 6.851219e+002
8.531836e+002, 6.858289e+002
8.536657e+002, 6.866426e+002
8.541478e+002, 6.868652e+002
8.546299e+002, 6.859252e+002
8.551121e+002, 6.845565e+002
8.555942e+002, 6.846154e+002
8.560763e+002, 6.863713e+002
8.565584e+002, 6.871967e+002
8.570405e+002, 6.866642e+002
8.575226e+002, 6.861100e+002
8.580048e+002, 6.862104e+002
8.584869e+002, 6.864926e+002
8.589690e+002, 6.861758e+002
8.594511e+002, 6.852028e+002
8.599332e+002, 6.846282e+002
8.604153e+002, 6.840935e+002
8.608975e+002, 6.844779e+002
8.613796e+002, 6.875702e+002
8.618617e+002, 6.904490e+002
8.623438e+002, 6.899323e+002
8.628259e+002, 6.869149e+002
8.633080e+002, 6.847496e+002
8.637902e+002, 6.848787e+002
8.642723e+002, 6.858463e+002
8.647544e+002, 6.868887e+002
8.652365e+002, 6.877464e+002
8.657186e+002, 6.878793e+002
8.662007e+002, 6.874257e+002
8.666829e+002, 6.869398e+002
8.671650e+002, 6.866423e+002
8.676471e+002, 6.865948e+002
8.681292e+002, 6.869924e+002
8.686113e+002, 6.876766e+002
8.690934e+002, 6.874727e+002
8.695756e+002, 6.861390e+002
8.700577e+002, 6.858092e+002
8.705398e+002, 6.873741e+002
8.710219e+002, 6.890038e+002
8.715040e+002, 6.892156e+002
8.719861e+002, 6.883663e+002
8.724683e+002, 6.877610e+002
8.729504e+002, 6.873270e+002
8.734325e+002, 6.873004e+002
8.739146e+002, 6.880106e+002
8.743967e+002, 6.887620e+002
8.748788e+002, 6.894299e+002
8.753610e+002, 6.898793e+002
8.758431e+002, 6.898381e+002
8.763252e+002, 6.893214e+002
8.768073e+002, 6.889363e+002
8.772894e+002, 6.890722e+002
8.777715e+002, 6.893389e+002
8.782537e+002, 6.891504e+002
8.787358e+002, 6.890380e+002
8.792179e+002, 6.902779e+002
8.797000e+002, 6.925573e+002
8.801821e+002, 6.938984e+002
8.806642e+002, 6.931273e+002
8.811464e+002, 6.914193e+002
8.816285e+002, 6.902949e+002
8.821106e+002, 6.897746e+002
8.825927e+002, 6.902542e+002
8.830748e+002, 6.917875e+002
8.835569e+002, 6.929268e+002
8.840391e+002, 6.931795e+002
8.845212e+002, 6.925432e+002
8.850033e+002, 6.906955e+002
8.854854e+002, 6.877913e+002
8.859675e+002, 6.868608e+002
8.864496e+002, 6.895282e+002
8.869318e+002, 6.909379e+002
8.874139e+002, 6.888611e+002
8.878960e+002, 6.871081e+002
8.883781e+002, 6.883903e+002
8.888602e+002, 6.913373e+002
8.893423e+002, 6.932699e+002
8.898245e+002, 6.938290e+002
8.903066e+002, 6.937855e+002
8.907887e+002, 6.928083e+002
8.912708e+002, 6.918848e+002
8.917529e+002, 6.920022e+002
8.922350e+002, 6.923214e+002
8.927172e+002, 6.913226e+002
8.931993e+002, 6.891193e+002
8.936814e+002, 6.876096e+002
8.941635e+002, 6.881828e+002
8.946456e+002, 6.894462e+002
8.951277e+002, 6.896362e+002
8.956099e+002, 6.892610e+002
8.960920e+002, 6.895261e+002
8.965741e+002, 6.904635e+002
8.970562e+002, 6.913624e+002
8.975383e+002, 6.918749e+002
8.980204e+002, 6.923300e+002
8.985026e+002, 6.933241e+002
8.989847e+002, 6.947582e+002
8.994668e+002, 6.952164e+002
8.999489e+002, 6.944090e+002
9.004310e+002, 6.943473e+002
9.009131e+002, 6.958672e+002
9.013953e+002, 6.975179e+002
9.018774e+002, 6.979825e+002
9.023595e+002, 6.975676e+002
9.028416e+002, 6.976685e+002
9.033237e+002, 6.991514e+002
9.038058e+002, 6.995922e+002
9.042880e+002, 6.979359e+002
9.047701e+002, 6.965214e+002
9.052522e+002, 6.965145e+002
9.057343e+002, 6.971439e+002
9.062164e+002, 6.973605e+002
9.066985e+002, 6.970977e+002
9.071807e+002, 6.971934e+002
9.076628e+002, 6.985992e+002
9.081449e+002, 6.996638e+002
9.086270e+002, 6.985501e+002
9.091091e+002, 6.972449e+002
9.095912e+002, 6.984631e+002
9.100734e+002, 7.016090e+002
9.105555e+002, 7.041625e+002
9.110376e+002, 7.050095e+002
9.115197e+002, 7.049421e+002
9.120018e+002, 7.041877e+002
9.124839e+002, 7.033668e+002
9.129661e+002, 7.041381e+002
9.134482e+002, 7.061497e+002
9.139303e+002, 7.074629e+002
9.144124e+002, 7.075685e+002
9.148945e+002, 7.074709e+002
9.153766e+002, 7.080148e+002
9.158588e+002, 7.091269e+002
9.163409e+002, 7.108840e+002
9.168230e+002, 7.135076e+002
9.173051e+002, 7.145104e+002
9.177872e+002, 7.132582e+002
9.182693e+002, 7.117397e+002
9.187515e+002, 7.107289e+002
9.192336e+002, 7.102133e+002
9.197157e+002, 7.100975e+002
9.201978e+002, 7.103063e+002
9.206799e+002, 7.116566e+002
9.211620e+002, 7.162963e+002
9.216442e+002, 7.190701e+002
9.221263e+002, 7.174114e+002
9.226084e+002, 7.154264e+002
9.230905e+002, 7.162797e+002
9.235726e+002, 7.188718e+002
9.240547e+002, 7.203533e+002
9.245369e+002, 7.199736e+002
9.250190e+002, 7.194422e+002
9.255011e+002, 7.184979e+002
9.259832e+002, 7.185126e+002
9.264653e+002, 7.213648e+002
9.269474e+002, 7.252581e+002
9.274296e+002, 7.273702e+002
9.279117e+002, 7.275986e+002
9.283938e+002, 7.282857e+002
9.288759e+002, 7.311471e+002
9.293580e+002, 7.341571e+002
9.298401e+002, 7.346014e+002
9.303223e+002, 7.337924e+002
9.308044e+002, 7.343223e+002
9.312865e+002, 7.360983e+002
9.317686e+002, 7.376099e+002
9.322507e+002, 7.382518e+002
9.327328e+002, 7.387354e+002
9.332150e+002, 7.398889e+002
9.336971e+002, 7.415355e+002
9.341792e+002, 7.430643e+002
9.346613e+002, 7.444697e+002
9.351434e+002, 7.456953e+002
9.356255e+002, 7.467244e+002
9.361077e+002, 7.475352e+002
9.365898e+002, 7.480271e+002
9.370719e+002, 7.484611e+002
9.375540e+002, 7.494758e+002
9.380361e+002, 7.512200e+002
9.385182e+002, 7.527260e+002
9.390004e+002, 7.540420e+002
9.394825e+002, 7.549976e+002
9.399646e+002, 7.550256e+002
9.404467e+002, 7.551946e+002
9.409288e+002, 7.568242e+002
9.414109e+002, 7.595082e+002
9.418931e+002, 7.614053e+002
9.423752e+002, 7.619111e+002
9.428573e+002, 7.626331e+002
9.433394e+002, 7.638295e+002
9.438215e+002, 7.652076e+002
9.443036e+002, 7.667969e+002
9.447858e+002, 7.683778e+002
9.452679e+002, 7.695025e+002
9.457500e+002, 7.702195e+002
9.462321e+002, 7.714309e+002
9.467142e+002, 7.736921e+002
9.471964e+002, 7.763361e+002
9.476785e+002, 7.797037e+002
9.481606e+002, 7.827145e+002
9.486427e+002, 7.834855e+002
9.491248e+002, 7.829035e+002
9.496069e+002, 7.836173e+002
9.500891e+002, 7.865544e+002
9.505712e+002, 7.899221e+002
9.510533e+002, 7.919638e+002
9.515354e+002, 7.934650e+002
9.520175e+002, 7.956376e+002
9.524996e+002, 7.983711e+002
9.529818e+002, 8.014534e+002
9.534639e+002, 8.047953e+002
9.539460e+002, 8.080002e+002
9.544281e+002, 8.107903e+002
9.549102e+002, 8.135966e+002
9.553923e+002, 8.170838e+002
9.558745e+002, 8.212553e+002
9.563566e+002, 8.263767e+002
9.568387e+002, 8.325571e+002
9.573208e+002, 8.370051e+002
9.578029e+002, 8.385104e+002
9.582850e+002, 8.401740e+002
9.587672e+002, 8.449801e+002
9.592493e+002, 8.521585e+002
9.597314e+002, 8.587319e+002
9.602135e+002, 8.648098e+002
9.606956e+002, 8.697595e+002
9.611777e+002, 8.725749e+002
9.616599e+002, 8.762469e+002
9.621420e+002, 8.821915e+002
9.626241e+002, 8.893864e+002
9.631062e+002, 8.968233e+002
9.635883e+002, 9.044805e+002
9.640704e+002, 9.118063e+002
9.645526e+002, 9.180994e+002
9.650347e+002, 9.250959e+002
9.655168e+002, 9.340679e+002
9.659989e+002, 9.425843e+002
9.664810e+002, 9.494210e+002
9.669631e+002, 9.549152e+002
9.674453e+002, 9.594359e+002
9.679274e+002, 9.630257e+002
9.684095e+002, 9.669899e+002
9.688916e+002, 9.719197e+002
9.693737e+002, 9.770698e+002
9.698558e+002, 9.822455e+002
9.703380e+002, 9.874316e+002
9.708201e+002, 9.927618e+002
9.713022e+002, 9.980550e+002
9.717843e+002, 1.003133e+003
9.722664e+002, 1.007978e+003
9.727485e+002, 1.011652e+003
9.732307e+002, 1.012389e+003
9.737128e+002, 1.012688e+003
9.741949e+002, 1.015261e+003
9.746770e+002, 1.019032e+003
9.751591e+002, 1.022222e+003
9.756412e+002, 1.024544e+003
9.761234e+002, 1.026354e+003
9.766055e+002, 1.027767e+003
9.770876e+002, 1.029405e+003
9.775698e+002, 1.032539e+003
9.780519e+002, 1.036221e+003
9.785340e+002, 1.038390e+003
9.790161e+002, 1.039163e+003
9.794982e+002, 1.039108e+003
9.799803e+002, 1.038501e+003
9.804625e+002, 1.038571e+003
9.809446e+002, 1.040422e+003
9.814267e+002, 1.043160e+003
9.819088e+002, 1.045178e+003
9.823909e+002, 1.046401e+003
9.828730e+002, 1.045654e+003
9.833552e+002, 1.042810e+003
9.838373e+002, 1.040890e+003
9.843194e+002, 1.041104e+003
9.848015e+002, 1.041990e+003
9.852836e+002, 1.042010e+003
9.857657e+002, 1.041382e+003
9.862479e+002, 1.041407e+003
9.867300e+002, 1.042554e+003
9.872121e+002, 1.041706e+003
9.876942e+002, 1.037959e+003
9.881763e+002, 1.034064e+003
9.886584e+002, 1.030985e+003
9.891406e+002, 1.028914e+003
9.896227e+002, 1.028455e+003
9.901048e+002, 1.029579e+003
9.905869e+002, 1.029262e+003
9.910690e+002, 1.026529e+003
9.915511e+002, 1.024300e+003
9.920333e+002, 1.024078e+003
9.925154e+002, 1.022870e+003
9.929975e+002, 1.018329e+003
9.934796e+002, 1.012176e+003
9.939617e+002, 1.007007e+003
9.944438e+002, 1.002871e+003
9.949260e+002, 9.991246e+002
9.954081e+002, 9.964316e+002
9.958902e+002, 9.931351e+002
9.963723e+002, 9.887961e+002
9.968544e+002, 9.838312e+002
9.973365e+002, 9.780884e+002
9.978187e+002, 9.720605e+002
9.983008e+002, 9.666840e+002
9.987829e+002, 9.621279e+002
9.992650e+002, 9.577592e+002
9.997471e+002, 9.540762e+002
1.000229e+003, 9.496874e+002
1.000711e+003, 9.436607e+002
1.001193e+003, 9.368368e+002
1.001676e+003, 9.293603e+002
1.002158e+003, 9.218695e+002
1.002640e+003, 9.158322e+002
1.003122e+003, 9.118044e+002
1.003604e+003, 9.079256e+002
1.004086e+003, 9.034622e+002
1.004568e+003, 8.983762e+002
1.005050e+003, 8.920179e+002
1.005533e+003, 8.853806e+002
1.006015e+003, 8.798188e+002
1.006497e+003, 8.753330e+002
1.006979e+003, 8.714128e+002
1.007461e+003, 8.679581e+002
1.007943e+003, 8.636891e+002
1.008425e+003, 8.563583e+002
1.008907e+003, 8.484639e+002
1.009389e+003, 8.436406e+002
1.009872e+003, 8.407655e+002
1.010354e+003, 8.376067e+002
1.010836e+003, 8.336417e+002
1.011318e+003, 8.288499e+002
1.011800e+003, 8.231134e+002
1.012282e+003, 8.175818e+002
1.012764e+003, 8.138263e+002
1.013246e+003, 8.112370e+002
1.013729e+003, 8.089257e+002
1.014211e+003, 8.065536e+002
1.014693e+003, 8.029612e+002
1.015175e+003, 7.979781e+002
1.015657e+003, 7.925659e+002
1.016139e+003, 7.873368e+002
1.016621e+003, 7.823926e+002
1.017103e+003, 7.780795e+002
1.017585e+003, 7.742150e+002
1.018068e+003, 7.700128e+002
1.018550e+003, 7.654738e+002
1.019032e+003, 7.603544e+002
1.019514e+003, 7.546274e+002
1.019996e+003, 7.496967e+002
1.020478e+003, 7.468883e+002
1.020960e+003, 7.450807e+002
1.021442e+003, 7.412599e+002
1.021924e+003, 7.355804e+002
1.022407e+003, 7.321844e+002
1.022889e+003, 7.313760e+002
1.023371e+003, 7.299825e+002
1.023853e+003, 7.270452e+002
1.024335e+003, 7.228030e+002
1.024817e+003, 7.170999e+002
1.025299e+003, 7.108986e+002
1.025781e+003, 7.075132e+002
1.026264e+003, 7.073702e+002
1.026746e+003, 7.062811e+002
1.027228e+003, 7.038986e+002
1.027710e+003, 7.016649e+002
1.028192e+003, 7.000534e+002
1.028674e+003, 6.988589e+002
1.029156e+003, 6.981599e+002
1.029638e+003, 6.975273e+002
1.030120e+003, 6.948978e+002
1.030603e+003, 6.892257e+002
1.031085e+003, 6.856002e+002
1.031567e+003, 6.847529e+002
1.032049e+003, 6.844704e+002
1.032531e+003, 6.843655e+002
1.033013e+003, 6.839252e+002
1.033495e+003, 6.824413e+002
1.033977e+003, 6.802038e+002
1.034459e+003, 6.787394e+002
1.034942e+003, 6.786851e+002
1.035424e+003, 6.778676e+002
1.035906e+003, 6.759105e+002
1.036388e+003, 6.737926e+002
1.036870e+003, 6.714376e+002
1.037352e+003, 6.694889e+002
1.037834e+003, 6.686949e+002
1.038316e+003, 6.688890e+002
1.038799e+003, 6.690773e+002
1.039281e+003, 6.693472e+002
1.039763e+003, 6.694491e+002
1.040245e+003, 6.701185e+002
1.040727e+003, 6.696721e+002
1.041209e+003, 6.662841e+002
1.041691e+003, 6.625458e+002
1.042173e+003, 6.611625e+002
1.042656e+003, 6.616566e+002
1.043138e+003, 6.615560e+002
1.043620e+003, 6.604668e+002
1.044102e+003, 6.593865e+002
1.044584e+003, 6.585208e+002
1.045066e+003, 6.574871e+002
1.045548e+003, 6.552493e+002
1.046030e+003, 6.534755e+002
1.046512e+003, 6.549462e+002
1.046995e+003, 6.585341e+002
1.047477e+003, 6.588415e+002
1.047959e+003, 6.533637e+002
1.048441e+003, 6.490615e+002
1.048923e+003, 6.479508e+002
1.049405e+003, 6.470254e+002
1.049887e+003, 6.445135e+002
1.050369e+003, 6.420239e+002
1.050851e+003, 6.417444e+002
1.051334e+003, 6.430409e+002
1.051816e+003, 6.429070e+002
1.052298e+003, 6.399496e+002
1.052780e+003, 6.380296e+002
1.053262e+003, 6.388094e+002
1.053744e+003, 6.398430e+002
1.054226e+003, 6.401360e+002
1.054708e+003, 6.400223e+002
1.055191e+003, 6.400304e+002
1.055673e+003, 6.399780e+002
1.056155e+003, 6.389680e+002
1.056637e+003, 6.362514e+002
1.057119e+003, 6.345012e+002
1.057601e+003, 6.351833e+002
1.058083e+003, 6.362154e+002
1.058565e+003, 6.373649e+002
1.059047e+003, 6.377272e+002
1.059530e+003, 6.358996e+002
1.060012e+003, 6.325731e+002
1.060494e+003, 6.297920e+002
1.060976e+003, 6.279050e+002
1.061458e+003, 6.272986e+002
1.061940e+003, 6.297916e+002
1.062422e+003, 6.315687e+002
1.062904e+003, 6.299542e+002
1.063386e+003, 6.271840e+002
1.063869e+003, 6.250009e+002
1.064351e+003, 6.237364e+002
1.064833e+003, 6.238525e+002
1.065315e+003, 6.257496e+002
1.065797e+003, 6.268125e+002
1.066279e+003, 6.258409e+002
1.066761e+003, 6.239496e+002
1.067243e+003, 6.207761e+002
1.067726e+003, 6.177639e+002
1.068208e+003, 6.162743e+002
1.068690e+003, 6.161201e+002
1.069172e+003, 6.168069e+002
1.069654e+003, 6.183004e+002
1.070136e+003, 6.190428e+002
1.070618e+003, 6.180530e+002
1.071100e+003, 6.165228e+002
1.071583e+003, 6.144806e+002
1.072065e+003, 6.126968e+002
1.072547e+003, 6.119137e+002
1.073029e+003, 6.119270e+002
1.073511e+003, 6.123593e+002
1.073993e+003, 6.131038e+002
1.074475e+003, 6.134595e+002
1.074957e+003, 6.128245e+002
1.075439e+003, 6.120890e+002
1.075922e+003, 6.118291e+002
1.076404e+003, 6.115426e+002
1.076886e+003, 6.103604e+002
1.077368e+003, 6.089767e+002
1.077850e+003, 6.089740e+002
1.078332e+003, 6.105096e+002
1.078814e+003, 6.115310e+002
1.079296e+003, 6.106888e+002
1.079779e+003, 6.097961e+002
1.080261e+003, 6.098860e+002
1.080743e+003, 6.101207e+002
1.081225e+003, 6.097295e+002
1.081707e+003, 6.090595e+002
1.082189e+003, 6.088771e+002
1.082671e+003, 6.091797e+002
1.083153e+003, 6.089826e+002
1.083635e+003, 6.077629e+002
1.084118e+003, 6.062605e+002
1.084600e+003, 6.039257e+002
1.085082e+003, 6.023504e+002
1.085564e+003, 6.038822e+002
1.086046e+003, 6.062047e+002
1.086528e+003, 6.057094e+002
1.087010e+003, 6.026016e+002
1.087492e+003, 6.003337e+002
1.087974e+003, 6.002334e+002
1.088457e+003, 6.005197e+002
1.088939e+003, 6.004566e+002
1.089421e+003, 6.005410e+002
1.089903e+003, 6.017759e+002
1.090385e+003, 6.028405e+002
1.090867e+003, 6.017560e+002
1.091349e+003, 5.990477e+002
1.091831e+003, 5.970634e+002
1.092314e+003, 5.964612e+002
1.092796e+003, 5.964655e+002
1.093278e+003, 5.968314e+002
1.093760e+003, 5.976835e+002
1.094242e+003, 5.973035e+002
1.094724e+003, 5.989013e+002
1.095206e+003, 6.098741e+002
1.095688e+003, 6.245941e+002
1.096171e+003, 6.275560e+002
1.096653e+003, 6.140533e+002
1.097135e+003, 6.022509e+002
1.097617e+003, 5.977656e+002
1.098099e+003, 5.956300e+002
1.098581e+003, 5.952094e+002
1.099063e+003, 5.950925e+002
1.099545e+003, 5.939287e+002
1.100027e+003, 5.923961e+002
1.100510e+003, 5.921291e+002
1.100992e+003, 5.933856e+002
1.101474e+003, 5.939361e+002
1.101956e+003, 5.927513e+002
1.102438e+003, 5.915661e+002
1.102920e+003, 5.905377e+002
1.103402e+003, 5.899684e+002
1.103884e+003, 5.903416e+002
1.104366e+003, 5.911176e+002
1.104849e+003, 5.916522e+002
1.105331e+003, 5.918759e+002
1.105813e+003, 5.917117e+002
1.106295e+003, 5.908369e+002
1.106777e+003, 5.900573e+002
1.107259e+003, 5.897131e+002
1.107741e+003, 5.891953e+002
1.108223e+003, 5.882265e+002
1.108706e+003, 5.869418e+002
1.109188e+003, 5.850386e+002
1.109670e+003, 5.828421e+002
1.110152e+003, 5.821247e+002
1.110634e+003, 5.840716e+002
1.111116e+003, 5.850339e+002
1.111598e+003, 5.839805e+002
1.112080e+003, 5.830555e+002
1.112563e+003, 5.831402e+002
1.113045e+003, 5.833362e+002
1.113527e+003, 5.829119e+002
1.114009e+003, 5.820670e+002
1.114491e+003, 5.813105e+002
1.114973e+003, 5.806360e+002
1.115455e+003, 5.801085e+002
1.115937e+003, 5.797734e+002
1.116419e+003, 5.795192e+002
1.116901e+003, 5.793972e+002
1.117384e+003, 5.792578e+002
1.117866e+003, 5.790805e+002
1.118348e+003, 5.787570e+002
1.118830e+003, 5.780203e+002
1.119312e+003, 5.768409e+002
1.119794e+003, 5.761047e+002
1.120276e+003, 5.759726e+002
1.120758e+003, 5.758761e+002
1.121241e+003, 5.759338e+002
1.121723e+003, 5.755748e+002
1.122205e+003, 5.744069e+002
1.122687e+003, 5.729303e+002
1.123169e+003, 5.717339e+002
1.123651e+003, 5.707667e+002
1.124133e+003, 5.696071e+002
1.124615e+003, 5.679509e+002
1.125098e+003, 5.679420e+002
1.125580e+003, 5.703611e+002
1.126062e+003, 5.713196e+002
1.126544e+003, 5.691500e+002
1.127026e+003, 5.667629e+002
1.127508e+003, 5.667202e+002
1.127990e+003, 5.679777e+002
1.128472e+003, 5.677703e+002
1.128954e+003, 5.660355e+002
1.129437e+003, 5.657042e+002
1.129919e+003, 5.669404e+002
1.130401e+003, 5.666810e+002
1.130883e+003, 5.641335e+002
1.131365e+003, 5.618173e+002
1.131847e+003, 5.612070e+002
1.132329e+003, 5.618035e+002
1.132811e+003, 5.631105e+002
1.133293e+003, 5.648596e+002
1.133776e+003, 5.658112e+002
1.134258e+003, 5.659998e+002
1.134740e+003, 5.657482e+002
1.135222e+003, 5.651126e+002
1.135704e+003, 5.640587e+002
1.136186e+003, 5.625901e+002
1.136668e+003, 5.617820e+002
1.137150e+003, 5.629762e+002
1.137633e+003, 5.647934e+002
1.138115e+003, 5.637701e+002
1.138597e+003, 5.612064e+002
1.139079e+003, 5.618289e+002
1.139561e+003, 5.648289e+002
1.140043e+003, 5.654599e+002
1.140525e+003, 5.629168e+002
1.141007e+003, 5.607162e+002
1.141490e+003, 5.611332e+002
1.141972e+003, 5.625865e+002
1.142454e+003, 5.636200e+002
1.142936e+003, 5.641406e+002
1.143418e+003, 5.639846e+002
1.143900e+003, 5.631978e+002
1.144382e+003, 5.614655e+002
1.144864e+003, 5.591884e+002
1.145346e+003, 5.578030e+002
1.145828e+003, 5.578547e+002
1.146311e+003, 5.581285e+002
1.146793e+003, 5.574828e+002
1.147275e+003, 5.568837e+002
1.147757e+003, 5.569779e+002
1.148239e+003, 5.578156e+002
1.148721e+003, 5.601459e+002
1.149203e+003, 5.629915e+002
1.149685e+003, 5.646186e+002
1.150168e+003, 5.646940e+002
1.150650e+003, 5.639198e+002
1.151132e+003, 5.622330e+002
1.151614e+003, 5.606085e+002
1.152096e+003, 5.592435e+002
1.152578e+003, 5.584329e+002
1.153060e+003, 5.588979e+002
1.153542e+003, 5.596373e+002
1.154025e+003, 5.593607e+002
1.154507e+003, 5.583008e+002
1.154989e+003, 5.576159e+002
1.155471e+003, 5.576052e+002
1.155953e+003, 5.576292e+002
1.156435e+003, 5.580625e+002
1.156917e+003, 5.577933e+002
1.157399e+003, 5.554631e+002
1.157881e+003, 5.533488e+002
1.158364e+003, 5.533874e+002
1.158846e+003, 5.545021e+002
1.159328e+003, 5.549789e+002
1.159810e+003, 5.547529e+002
1.160292e+003, 5.539069e+002
1.160774e+003, 5.514117e+002
1.161256e+003, 5.502262e+002
1.161738e+003, 5.513611e+002
1.162220e+003, 5.523873e+002
1.162703e+003, 5.525027e+002
1.163185e+003, 5.519866e+002
1.163667e+003, 5.506007e+002
1.164149e+003, 5.490811e+002
1.164631e+003, 5.500690e+002
1.165113e+003, 5.540951e+002
1.165595e+003, 5.577302e+002
1.166077e+003, 5.616201e+002
1.166560e+003, 5.618547e+002
1.167042e+003, 5.568761e+002
1.167524e+003, 5.513799e+002
1.168006e+003, 5.478702e+002
1.168488e+003, 5.465579e+002
1.168970e+003, 5.483378e+002
1.169452e+003, 5.522806e+002
1.169934e+003, 5.533859e+002
1.170417e+003, 5.518626e+002
1.170899e+003, 5.505131e+002
1.171381e+003, 5.496459e+002
1.171863e+003, 5.497655e+002
1.172345e+003, 5.509992e+002
1.172827e+003, 5.521580e+002
1.173309e+003, 5.522279e+002
1.173791e+003, 5.519006e+002
1.174273e+003, 5.526251e+002
1.174755e+003, 5.537039e+002
1.175238e+003, 5.532811e+002
1.175720e+003, 5.518087e+002
1.176202e+003, 5.504442e+002
1.176684e+003, 5.495225e+002
1.177166e+003, 5.495198e+002
1.177648e+003, 5.506193e+002
1.178130e+003, 5.514337e+002
1.178612e+003, 5.505172e+002
1.179095e+003, 5.490814e+002
1.179577e+003, 5.482905e+002
1.180059e+003, 5.477193e+002
1.180541e+003, 5.464230e+002
1.181023e+003, 5.451085e+002
1.181505e+003, 5.456439e+002
1.181987e+003, 5.479007e+002
1.182469e+003, 5.490904e+002
1.182952e+003, 5.474911e+002
1.183434e+003, 5.464265e+002
1.183916e+003, 5.482533e+002
1.184398e+003, 5.499381e+002
1.184880e+003, 5.495476e+002
1.185362e+003, 5.484198e+002
1.185844e+003, 5.475766e+002
1.186326e+003, 5.471730e+002
1.186808e+003, 5.474357e+002
1.187291e+003, 5.485012e+002
1.187773e+003, 5.491677e+002
1.188255e+003, 5.492941e+002
1.188737e+003, 5.490480e+002
1.189219e+003, 5.478517e+002
1.189701e+003, 5.471732e+002
1.190183e+003, 5.481481e+002
1.190665e+003, 5.493226e+002
1.191147e+003, 5.489343e+002
1.191630e+003, 5.474856e+002
1.192112e+003, 5.471648e+002
1.192594e+003, 5.482614e+002
1.193076e+003, 5.491074e+002
1.193558e+003, 5.497620e+002
1.194040e+003, 5.498254e+002
1.194522e+003, 5.491607e+002
1.195004e+003, 5.480905e+002
1.195487e+003, 5.467309e+002
1.195969e+003, 5.454656e+002
1.196451e+003, 5.448660e+002
1.196933e+003, 5.447570e+002
1.197415e+003, 5.443163e+002
1.197897e+003, 5.437188e+002
1.198379e+003, 5.443181e+002
1.198861e+003, 5.459152e+002
1.199344e+003, 5.466949e+002
1.199826e+003, 5.461090e+002
1.200308e+003, 5.442778e+002
1.200790e+003, 5.410251e+002
1.201272e+003, 5.382070e+002
1.201754e+003, 5.382768e+002
1.202236e+003, 5.399731e+002
1.202718e+003, 5.423038e+002
1.203200e+003, 5.445057e+002
1.203682e+003, 5.451184e+002
1.204165e+003, 5.445153e+002
1.204647e+003, 5.441594e+002
1.205129e+003, 5.444453e+002
1.205611e+003, 5.445966e+002
1.206093e+003, 5.442175e+002
1.206575e+003, 5.435878e+002
1.207057e+003, 5.422780e+002
1.207539e+003, 5.414026e+002
1.208022e+003, 5.422567e+002
1.208504e+003, 5.435787e+002
1.208986e+003, 5.437565e+002
1.209468e+003, 5.430283e+002
1.209950e+003, 5.426642e+002
1.210432e+003, 5.428987e+002
1.210914e+003, 5.431014e+002
1.211396e+003, 5.435013e+002
1.211879e+003, 5.433923e+002
1.212361e+003, 5.418673e+002
1.212843e+003, 5.411491e+002
1.213325e+003, 5.429736e+002
1.213807e+003, 5.452608e+002
1.214289e+003, 5.453110e+002
1.214771e+003, 5.437284e+002
1.215253e+003, 5.435076e+002
1.215735e+003, 5.448207e+002
1.216218e+003, 5.462433e+002
1.216700e+003, 5.478858e+002
1.217182e+003, 5.471700e+002
1.217664e+003, 5.433641e+002
1.218146e+003, 5.405128e+002
1.218628e+003, 5.410273e+002
1.219110e+003, 5.432944e+002
1.219592e+003, 5.457084e+002
1.220074e+003, 5.477247e+002
1.220557e+003, 5.477486e+002
1.221039e+003, 5.464025e+002
1.221521e+003, 5.450126e+002
1.222003e+003, 5.438478e+002
1.222485e+003, 5.434416e+002
1.222967e+003, 5.437281e+002
1.223449e+003, 5.436102e+002
1.223931e+003, 5.424044e+002
1.224414e+003, 5.412730e+002
1.224896e+003, 5.409865e+002
1.225378e+003, 5.413044e+002
1.225860e+003, 5.425672e+002
1.226342e+003, 5.438742e+002
1.226824e+003, 5.444976e+002
1.227306e+003, 5.443497e+002
1.227788e+003, 5.432599e+002
1.228271e+003, 5.412923e+002
1.228753e+003, 5.394378e+002
1.229235e+003, 5.374780e+002
1.229717e+003, 5.364139e+002
1.230199e+003, 5.370406e+002
1.230681e+003, 5.377066e+002
1.231163e+003, 5.376902e+002
1.231645e+003, 5.378448e+002
1.232127e+003, 5.392166e+002
1.232609e+003, 5.407335e+002
1.233092e+003, 5.399193e+002
1.233574e+003, 5.368805e+002
1.234056e+003, 5.372870e+002
1.234538e+003, 5.418044e+002
1.235020e+003, 5.437990e+002
1.235502e+003, 5.424721e+002
1.235984e+003, 5.414200e+002
1.236466e+003, 5.418801e+002
1.236949e+003, 5.424390e+002
1.237431e+003, 5.419544e+002
1.237913e+003, 5.412120e+002
1.238395e+003, 5.417765e+002
1.238877e+003, 5.428972e+002
1.239359e+003, 5.425060e+002
1.239841e+003, 5.413121e+002
1.240323e+003, 5.410630e+002
1.240806e+003, 5.416902e+002
1.241288e+003, 5.422634e+002
1.241770e+003, 5.425032e+002
1.242252e+003, 5.426320e+002
1.242734e+003, 5.427808e+002
1.243216e+003, 5.428415e+002
1.243698e+003, 5.427198e+002
1.244180e+003, 5.425154e+002
1.244662e+003, 5.419550e+002
1.245145e+003, 5.416361e+002
1.245627e+003, 5.427156e+002
1.246109e+003, 5.443321e+002
1.246591e+003, 5.442083e+002
1.247073e+003, 5.419789e+002
1.247555e+003, 5.410774e+002
1.248037e+003, 5.430051e+002
1.248519e+003, 5.437151e+002
1.249001e+003, 5.423895e+002
1.249484e+003, 5.411343e+002
1.249966e+003, 5.405076e+002
1.250448e+003, 5.404340e+002
1.250930e+003, 5.408994e+002
1.251412e+003, 5.418045e+002
1.251894e+003, 5.431760e+002
1.252376e+003, 5.447922e+002
1.252858e+003, 5.445440e+002
1.253341e+003, 5.427378e+002
1.253823e+003, 5.423479e+002
1.254305e+003, 5.434147e+002
1.254787e+003, 5.438094e+002
1.255269e+003, 5.429483e+002
1.255751e+003, 5.419802e+002
1.256233e+003, 5.415927e+002
1.256715e+003, 5.418906e+002
1.257198e+003, 5.435896e+002
1.257680e+003, 5.454428e+002
1.258162e+003, 5.458587e+002
1.258644e+003, 5.457184e+002
1.259126e+003, 5.460788e+002
1.259608e+003, 5.468867e+002
1.260090e+003, 5.480008e+002
1.260572e+003, 5.492554e+002
1.261054e+003, 5.496408e+002
1.261536e+003, 5.481865e+002
1.262019e+003, 5.474082e+002
1.262501e+003, 5.487560e+002
1.262983e+003, 5.494576e+002
1.263465e+003, 5.477458e+002
1.263947e+003, 5.463362e+002
1.264429e+003, 5.472704e+002
1.264911e+003, 5.490621e+002
1.265393e+003, 5.495154e+002
1.265876e+003, 5.487733e+002
1.266358e+003, 5.477098e+002
1.266840e+003, 5.462860e+002
1.267322e+003, 5.452356e+002
1.267804e+003, 5.446024e+002
1.268286e+003, 5.453607e+002
1.268768e+003, 5.476400e+002
1.269250e+003, 5.494548e+002
1.269733e+003, 5.497116e+002
1.270215e+003, 5.491159e+002
1.270697e+003, 5.480413e+002
1.271179e+003, 5.471158e+002
1.271661e+003, 5.472645e+002
1.272143e+003, 5.481038e+002
1.272625e+003, 5.495437e+002
1.273107e+003, 5.510135e+002
1.273589e+003, 5.514063e+002
1.274072e+003, 5.508996e+002
1.274554e+003, 5.507317e+002
1.275036e+003, 5.512724e+002
1.275518e+003, 5.518627e+002
1.276000e+003, 5.523515e+002
1.276482e+003, 5.527346e+002
1.276964e+003, 5.535414e+002
1.277446e+003, 5.536434e+002
1.277929e+003, 5.515082e+002
1.278411e+003, 5.494220e+002
1.278893e+003, 5.498242e+002
1.279375e+003, 5.517516e+002
1.279857e+003, 5.525379e+002
1.280339e+003, 5.521702e+002
1.280821e+003, 5.519747e+002
1.281303e+003, 5.520287e+002
1.281786e+003, 5.519511e+002
1.282268e+003, 5.516653e+002
##END=



