##NAMES=Pyrrhotite
##RRUFFID=R061127
##IDEAL CHEMISTRY=Fe^2+^_5_Fe^3+^_2_S^2-^_8_
##LOCALITY=Morro Velho Gold mine, Nova Umha, Minas Gerais, Brazil
##OWNER=RRUFF
##SOURCE=Michael Scott
##DESCRIPTION=Brass colored, prismatic crystals associated with quartz and dolomite
##STATUS=The identification of this mineral has been confirmed by single-crystal X-ray diffraction.
##URL=rruff.info/R061127
170.1024, 75.54783
170.5845, 75.17265
171.0666, 74.21240
171.5487, 72.98169
172.0309, 71.51600
172.5130, 70.25227
172.9951, 69.54127
173.4772, 69.21632
173.9593, 69.02071
174.4414, 68.84025
174.9236, 68.74340
175.4057, 68.91930
175.8878, 69.37292
176.3699, 69.68553
176.8520, 69.08022
177.3341, 68.05648
177.8163, 67.71031
178.2984, 68.95195
178.7805, 70.97827
179.2626, 72.93336
179.7447, 74.84551
180.2268, 75.91409
180.7090, 74.32237
181.1911, 70.97868
181.6732, 68.71966
182.1553, 69.78700
182.6374, 72.70053
183.1195, 74.33942
183.6017, 74.57902
184.0838, 73.98820
184.5659, 72.73071
185.0480, 71.01846
185.5301, 69.88419
186.0123, 70.23933
186.4944, 71.59854
186.9765, 72.46399
187.4586, 72.77743
187.9407, 72.66196
188.4228, 71.87914
188.9050, 70.54105
189.3871, 69.86815
189.8692, 71.16164
190.3513, 73.87906
190.8334, 75.16167
191.3155, 74.65202
191.7977, 73.26397
192.2798, 72.27963
192.7619, 71.69640
193.2440, 71.38848
193.7261, 71.56557
194.2082, 72.13750
194.6904, 71.87993
195.1725, 70.49072
195.6546, 68.72266
196.1367, 68.07696
196.6188, 68.60993
197.1009, 69.38963
197.5831, 69.86697
198.0652, 70.04813
198.5473, 70.67895
199.0294, 72.03592
199.5115, 73.52874
199.9937, 73.72504
200.4758, 72.41598
200.9579, 71.14214
201.4400, 70.93493
201.9221, 71.90597
202.4042, 72.30850
202.8864, 71.90202
203.3685, 71.02010
203.8506, 70.47346
204.3327, 70.35535
204.8148, 70.21260
205.2969, 69.54957
205.7791, 68.14595
206.2612, 67.96996
206.7433, 69.60083
207.2254, 72.16602
207.7075, 73.35277
208.1896, 72.83105
208.6718, 71.90553
209.1539, 71.23648
209.6360, 70.87082
210.1181, 70.55970
210.6002, 70.31109
211.0823, 70.09891
211.5645, 69.79136
212.0466, 69.25790
212.5287, 68.93947
213.0108, 69.23982
213.4929, 70.49650
213.9750, 70.98099
214.4572, 70.23989
214.9393, 68.81436
215.4214, 68.41709
215.9035, 69.56051
216.3856, 70.68736
216.8678, 70.73673
217.3499, 69.05640
217.8320, 68.54357
218.3141, 69.89021
218.7962, 72.32576
219.2783, 73.28799
219.7605, 72.05324
220.2426, 70.64417
220.7247, 70.26003
221.2068, 71.50845
221.6889, 71.96619
222.1710, 71.08928
222.6532, 69.45934
223.1353, 69.04330
223.6174, 70.54053
224.0995, 72.07769
224.5816, 72.64946
225.0637, 71.78093
225.5459, 71.18667
226.0280, 71.04320
226.5101, 71.17997
226.9922, 71.05795
227.4743, 70.50139
227.9564, 69.96138
228.4386, 69.60965
228.9207, 69.35210
229.4028, 69.57403
229.8849, 70.61768
230.3670, 72.06033
230.8492, 72.76279
231.3313, 72.65739
231.8134, 71.91079
232.2955, 70.36050
232.7776, 67.07201
233.2597, 65.26092
233.7419, 65.39175
234.2240, 66.88358
234.7061, 68.32215
235.1882, 70.02724
235.6703, 71.19878
236.1524, 71.41305
236.6346, 70.12805
237.1167, 69.10695
237.5988, 68.33436
238.0809, 67.82280
238.5630, 67.65012
239.0451, 68.10746
239.5273, 68.46320
240.0094, 68.31242
240.4915, 67.15981
240.9736, 66.86815
241.4557, 67.99831
241.9378, 69.73618
242.4200, 70.34786
242.9021, 69.31727
243.3842, 67.96035
243.8663, 66.62229
244.3484, 64.99046
244.8306, 64.36588
245.3127, 65.14745
245.7948, 66.72628
246.2769, 68.13280
246.7590, 69.86687
247.2411, 70.54320
247.7233, 69.29963
248.2054, 65.18546
248.6875, 62.73887
249.1696, 62.45276
249.6517, 63.51609
250.1338, 64.75095
250.6160, 66.48462
251.0981, 67.80789
251.5802, 68.40715
252.0623, 68.20789
252.5444, 67.61351
253.0265, 66.21048
253.5087, 64.75618
253.9908, 64.53259
254.4729, 66.44666
254.9550, 67.71892
255.4371, 67.21416
255.9192, 64.54665
256.4014, 63.36704
256.8835, 64.27785
257.3656, 66.08101
257.8477, 67.40029
258.3298, 68.18182
258.8120, 68.59104
259.2941, 68.58526
259.7762, 68.13203
260.2583, 67.78432
260.7404, 67.50517
261.2225, 67.37100
261.7047, 67.51295
262.1868, 68.09211
262.6689, 68.53353
263.1510, 68.77026
263.6331, 68.79579
264.1152, 68.30913
264.5974, 66.98763
265.0795, 65.65733
265.5616, 65.21516
266.0437, 65.93945
266.5258, 66.61105
267.0079, 67.01027
267.4901, 67.16728
267.9722, 67.32561
268.4543, 67.53261
268.9364, 67.65359
269.4185, 67.49876
269.9006, 66.94129
270.3828, 66.69341
270.8649, 66.98743
271.3470, 67.66094
271.8291, 67.85790
272.3112, 67.37007
272.7933, 66.95358
273.2755, 67.28201
273.7576, 68.50578
274.2397, 69.42167
274.7218, 69.87594
275.2039, 69.93224
275.6860, 69.69277
276.1682, 69.06001
276.6503, 68.49032
277.1324, 68.38688
277.6145, 68.81274
278.0966, 68.76392
278.5787, 67.87870
279.0609, 66.81660
279.5430, 67.36360
280.0251, 69.82670
280.5072, 71.99924
280.9893, 72.53757
281.4715, 71.44874
281.9536, 70.39864
282.4357, 69.45098
282.9178, 68.57242
283.3999, 67.64956
283.8820, 66.66712
284.3642, 65.88803
284.8463, 65.57969
285.3284, 65.67801
285.8105, 65.37209
286.2926, 64.53719
286.7747, 63.67265
287.2569, 63.48548
287.7390, 63.95780
288.2211, 64.64748
288.7032, 65.66868
289.1853, 66.80618
289.6674, 66.97412
290.1496, 66.07220
290.6317, 64.88273
291.1138, 64.28277
291.5959, 64.19659
292.0780, 64.10623
292.5602, 63.79464
293.0423, 63.38003
293.5244, 63.14537
294.0065, 63.09401
294.4886, 63.19616
294.9707, 63.33092
295.4529, 63.57663
295.9350, 64.27473
296.4171, 65.82294
296.8992, 67.58500
297.3813, 68.40401
297.8634, 68.32485
298.3456, 67.85499
298.8277, 67.04279
299.3098, 66.13882
299.7919, 65.71164
300.2740, 65.92205
300.7561, 66.58683
301.2383, 67.87363
301.7204, 69.58141
302.2025, 70.69888
302.6846, 69.99319
303.1667, 68.47517
303.6488, 67.67467
304.1310, 67.91901
304.6131, 68.62481
305.0952, 69.61743
305.5773, 70.67030
306.0594, 71.16942
306.5415, 70.29171
307.0237, 68.94792
307.5058, 67.99125
307.9879, 67.48614
308.4700, 67.53060
308.9521, 68.85636
309.4343, 70.71807
309.9164, 71.83730
310.3985, 70.91386
310.8806, 69.55553
311.3627, 69.03228
311.8448, 69.40459
312.3270, 69.88113
312.8091, 70.13747
313.2912, 70.18404
313.7733, 70.03322
314.2554, 69.02642
314.7375, 68.39552
315.2197, 69.21699
315.7018, 71.28345
316.1839, 72.78066
316.6660, 72.50323
317.1481, 71.51286
317.6302, 70.65735
318.1124, 69.89800
318.5945, 69.59621
319.0766, 70.36974
319.5587, 71.81600
320.0408, 72.55407
320.5229, 71.41294
321.0051, 69.96239
321.4872, 69.03519
321.9693, 68.77254
322.4514, 69.03382
322.9335, 70.64770
323.4156, 72.70462
323.8978, 73.45116
324.3799, 70.78798
324.8620, 68.32972
325.3441, 67.49191
325.8262, 68.95992
326.3083, 70.21972
326.7905, 71.24925
327.2726, 71.91891
327.7547, 72.05943
328.2368, 71.06649
328.7189, 70.17334
329.2010, 69.65079
329.6832, 69.54418
330.1653, 69.35043
330.6474, 69.02315
331.1295, 68.64256
331.6116, 68.27603
332.0938, 68.00302
332.5759, 67.60803
333.0580, 66.99254
333.5401, 66.20061
334.0222, 65.63487
334.5043, 65.48339
334.9865, 65.29183
335.4686, 64.76116
335.9507, 63.74358
336.4328, 62.76396
336.9149, 61.78506
337.3970, 60.87962
337.8792, 60.26966
338.3613, 59.96914
338.8434, 59.89663
339.3255, 60.15369
339.8076, 60.85085
340.2898, 60.99650
340.7719, 60.49910
341.2540, 59.61475
341.7361, 58.54890
342.2182, 57.26133
342.7003, 56.35102
343.1825, 56.12322
343.6646, 56.48359
344.1467, 56.92620
344.6288, 57.51596
345.1109, 57.87942
345.5930, 57.45298
346.0752, 56.33034
346.5573, 55.43737
347.0394, 55.08518
347.5215, 55.01478
348.0036, 54.48026
348.4857, 53.50249
348.9679, 52.82368
349.4500, 53.54009
349.9321, 55.02328
350.4142, 55.25959
350.8963, 53.59297
351.3784, 51.50012
351.8606, 51.06086
352.3427, 51.91095
352.8248, 52.70140
353.3069, 52.21206
353.7890, 51.38649
354.2711, 51.74670
354.7533, 53.54138
355.2354, 55.28202
355.7175, 55.71805
356.1996, 55.21193
356.6817, 54.39522
357.1638, 53.11232
357.6460, 51.92543
358.1281, 51.21533
358.6102, 50.98072
359.0923, 51.11000
359.5744, 51.85789
360.0565, 52.80172
360.5387, 53.55546
361.0208, 54.27208
361.5029, 54.45486
361.9850, 53.43530
362.4671, 51.62076
362.9492, 50.27744
363.4314, 50.20077
363.9135, 50.45468
364.3956, 50.54632
364.8777, 50.38026
365.3598, 50.11343
365.8419, 49.51885
366.3241, 48.90001
366.8062, 48.71798
367.2883, 49.57067
367.7704, 50.35107
368.2526, 50.77515
368.7347, 50.80200
369.2168, 50.65113
369.6989, 50.02409
370.1810, 49.40955
370.6631, 49.22738
371.1453, 49.95623
371.6274, 50.39530
372.1095, 50.25793
372.5916, 49.66391
373.0737, 49.46336
373.5558, 49.98530
374.0380, 50.40969
374.5201, 50.19456
375.0022, 49.03257
375.4843, 48.27478
375.9664, 48.05670
376.4485, 48.18272
376.9307, 48.31555
377.4128, 48.48939
377.8949, 48.52045
378.3770, 48.32983
378.8591, 47.92393
379.3412, 47.25417
379.8234, 46.19225
380.3055, 45.33782
380.7876, 45.55836
381.2697, 46.79259
381.7518, 47.92260
382.2339, 48.66352
382.7161, 49.10656
383.1982, 49.52429
383.6803, 49.90531
384.1624, 50.00364
384.6445, 49.30466
385.1266, 48.18882
385.6088, 47.68288
386.0909, 48.06890
386.5730, 48.68743
387.0551, 48.73253
387.5372, 48.37428
388.0193, 48.10009
388.5015, 48.35567
388.9836, 48.72400
389.4657, 48.70017
389.9478, 48.24599
390.4299, 47.78542
390.9120, 47.49937
391.3942, 47.40720
391.8763, 47.54377
392.3584, 48.36399
392.8405, 48.99082
393.3226, 48.70399
393.8047, 47.73594
394.2869, 47.15012
394.7690, 47.98865
395.2511, 48.91016
395.7332, 48.94426
396.2154, 47.14188
396.6975, 46.12593
397.1796, 47.34311
397.6617, 49.54813
398.1438, 50.59848
398.6259, 48.86072
399.1081, 47.26753
399.5902, 46.78015
400.0723, 47.63357
400.5544, 47.98325
401.0365, 47.37814
401.5186, 46.60234
402.0008, 46.35518
402.4829, 47.17105
402.9650, 47.45214
403.4471, 46.68188
403.9292, 45.24543
404.4113, 44.85394
404.8935, 45.84843
405.3756, 47.09048
405.8577, 48.06988
406.3398, 48.78490
406.8219, 49.24199
407.3040, 49.52265
407.7862, 49.39202
408.2683, 48.16271
408.7504, 45.78425
409.2325, 44.02037
409.7146, 43.68741
410.1967, 44.37765
410.6789, 44.69970
411.1610, 44.64006
411.6431, 44.58178
412.1252, 45.06117
412.6073, 45.82026
413.0894, 46.04382
413.5716, 45.41276
414.0537, 44.54482
414.5358, 44.00458
415.0179, 43.82153
415.5000, 44.07647
415.9821, 45.39857
416.4643, 46.86208
416.9464, 47.32469
417.4285, 46.63286
417.9106, 45.99179
418.3927, 46.33195
418.8748, 47.11374
419.3570, 47.69049
419.8391, 47.94556
420.3212, 47.86235
420.8033, 47.06724
421.2854, 45.79603
421.7675, 45.13033
422.2497, 46.42601
422.7318, 47.64984
423.2139, 47.60163
423.6960, 45.38699
424.1781, 43.57865
424.6602, 42.30204
425.1424, 41.63545
425.6245, 41.73539
426.1066, 43.25135
426.5887, 44.70035
427.0709, 45.83207
427.5530, 46.64646
428.0351, 47.08556
428.5172, 46.97458
428.9993, 46.73240
429.4814, 46.70976
429.9636, 47.04576
430.4457, 46.99247
430.9278, 46.28079
431.4099, 45.35290
431.8920, 45.33516
432.3741, 46.36574
432.8563, 47.22948
433.3384, 47.28697
433.8205, 46.65956
434.3026, 46.15974
434.7847, 45.79137
435.2668, 45.49685
435.7490, 45.19121
436.2311, 44.90321
436.7132, 44.71550
437.1953, 44.54721
437.6774, 44.63446
438.1595, 45.60653
438.6417, 47.22558
439.1238, 48.50647
439.6059, 48.86840
440.0880, 48.58434
440.5701, 47.74348
441.0522, 46.24190
441.5344, 44.98743
442.0165, 44.73261
442.4986, 44.99161
442.9807, 45.17244
443.4628, 44.70269
443.9449, 44.48712
444.4271, 45.03631
444.9092, 46.21919
445.3913, 47.27904
445.8734, 48.72459
446.3555, 49.44728
446.8376, 48.66684
447.3198, 44.78669
447.8019, 42.49548
448.2840, 42.82629
448.7661, 44.40399
449.2482, 45.33921
449.7303, 45.25659
450.2125, 45.16807
450.6946, 45.39752
451.1767, 45.88747
451.6588, 45.66024
452.1409, 44.37242
452.6230, 43.16032
453.1052, 42.90380
453.5873, 43.66917
454.0694, 44.59951
454.5515, 45.80043
455.0337, 46.78386
455.5158, 46.39454
455.9979, 44.73713
456.4800, 43.41880
456.9621, 43.34085
457.4442, 44.00451
457.9264, 44.12260
458.4085, 43.72157
458.8906, 43.53773
459.3727, 44.80350
459.8548, 46.52837
460.3369, 46.92375
460.8191, 45.09758
461.3012, 43.09540
461.7833, 42.49040
462.2654, 42.92495
462.7475, 43.65309
463.2296, 44.83075
463.7118, 45.82649
464.1939, 46.24306
464.6760, 46.05577
465.1581, 45.70771
465.6402, 45.17787
466.1223, 44.63484
466.6045, 44.20360
467.0866, 43.69506
467.5687, 43.55713
468.0508, 44.26808
468.5329, 45.31884
469.0150, 45.55970
469.4972, 44.60299
469.9793, 43.39712
470.4614, 41.98240
470.9435, 40.28851
471.4256, 39.95191
471.9077, 41.39227
472.3899, 43.35268
472.8720, 44.84022
473.3541, 45.87113
473.8362, 46.34877
474.3183, 46.13002
474.8004, 45.57169
475.2826, 45.35595
475.7647, 45.46495
476.2468, 45.64812
476.7289, 45.93023
477.2110, 46.16637
477.6931, 45.91740
478.1753, 45.18251
478.6574, 44.47783
479.1395, 44.29213
479.6216, 44.39048
480.1037, 44.42984
480.5858, 44.30962
481.0680, 44.13502
481.5501, 43.78347
482.0322, 43.43526
482.5143, 43.47271
482.9964, 44.52998
483.4786, 45.58941
483.9607, 46.13997
484.4428, 46.11271
484.9249, 46.04827
485.4070, 46.16029
485.8892, 46.20192
486.3713, 45.98699
486.8534, 45.27366
487.3355, 44.65651
487.8176, 44.07069
488.2997, 43.61621
488.7819, 43.56487
489.2640, 44.17722
489.7461, 44.59258
490.2282, 44.45631
490.7103, 43.80957
491.1924, 43.36733
491.6746, 43.12480
492.1567, 43.09050
492.6388, 43.22175
493.1209, 43.54398
493.6030, 44.43018
494.0851, 46.19342
494.5673, 47.82866
495.0494, 47.51499
495.5315, 45.72551
496.0136, 44.18066
496.4957, 44.01471
496.9778, 44.30861
497.4600, 43.90107
497.9421, 42.87528
498.4242, 42.08610
498.9063, 42.02867
499.3884, 42.43581
499.8705, 43.20689
500.3527, 44.67169
500.8348, 45.60783
501.3169, 45.01461
501.7990, 43.77168
502.2811, 43.11514
502.7632, 44.17903
503.2454, 44.87149
503.7275, 44.42480
504.2096, 42.99564
504.6917, 42.33149
505.1738, 42.85508
505.6559, 43.57613
506.1381, 43.95412
506.6202, 43.85346
507.1023, 43.98926
507.5844, 44.43805
508.0665, 44.98563
508.5486, 45.29995
509.0308, 45.37469
509.5129, 45.61167
509.9950, 46.34153
510.4771, 47.07442
510.9592, 46.36443
511.4413, 44.38742
511.9235, 42.80812
512.4056, 43.32349
512.8877, 44.65895
513.3698, 44.52769
513.8519, 42.63043
514.3340, 41.32141
514.8162, 43.22030
515.2983, 46.36681
515.7804, 48.40641
516.2625, 48.17279
516.7446, 47.30604
517.2267, 46.17884
517.7089, 44.89875
518.1910, 43.74044
518.6731, 42.23635
519.1552, 41.35594
519.6373, 41.79702
520.1194, 43.75808
520.6016, 44.83068
521.0837, 44.63459
521.5658, 43.96411
522.0479, 43.30077
522.5300, 42.56171
523.0121, 42.19570
523.4943, 42.35675
523.9764, 42.73630
524.4585, 42.69244
524.9406, 42.21142
525.4227, 41.96954
525.9048, 42.30817
526.3870, 43.00461
526.8691, 43.60184
527.3513, 44.09279
527.8334, 44.34620
528.3155, 43.97758
528.7976, 43.42221
529.2797, 43.44589
529.7618, 44.26006
530.2440, 44.91009
530.7261, 44.41733
531.2082, 43.45179
531.6903, 42.87974
532.1724, 43.61500
532.6545, 44.11035
533.1367, 43.60258
533.6188, 42.40494
534.1009, 41.62539
534.5830, 41.67340
535.0651, 41.94158
535.5472, 42.29211
536.0294, 42.76370
536.5115, 43.03808
536.9936, 42.99366
537.4757, 42.92240
537.9578, 43.14211
538.4399, 43.75282
538.9221, 43.93003
539.4042, 43.38147
539.8863, 42.73138
540.3684, 43.45715
540.8505, 45.40018
541.3326, 46.65120
541.8148, 46.22028
542.2969, 44.75102
542.7790, 42.92619
543.2611, 40.87610
543.7432, 39.55696
544.2253, 40.39919
544.7075, 41.88496
545.1896, 42.26868
545.6717, 41.07522
546.1538, 40.14501
546.6359, 40.60110
547.1180, 41.69685
547.6002, 42.63477
548.0823, 43.21555
548.5644, 43.64174
549.0465, 43.87347
549.5286, 43.97472
550.0107, 44.16570
550.4929, 44.80651
550.9750, 44.96500
551.4571, 44.05502
551.9392, 42.06365
552.4213, 41.40805
552.9034, 42.44894
553.3856, 43.67962
553.8677, 43.68492
554.3498, 42.60287
554.8319, 42.18893
555.3140, 42.72252
555.7961, 43.56013
556.2783, 44.12456
556.7604, 44.33667
557.2425, 43.90281
557.7246, 42.09823
558.2067, 40.24436
558.6888, 39.62561
559.1710, 40.04711
559.6531, 40.87416
560.1352, 42.48846
560.6173, 43.86598
561.0994, 44.29332
561.5815, 43.62217
562.0637, 42.86671
562.5458, 41.86584
563.0279, 41.08895
563.5100, 40.86785
563.9921, 41.50434
564.4742, 42.21472
564.9564, 43.19599
565.4385, 44.07483
565.9206, 44.03849
566.4027, 42.83946
566.8848, 41.99704
567.3669, 42.09942
567.8491, 42.78878
568.3312, 42.82962
568.8133, 42.24903
569.2954, 41.75880
569.7775, 41.92493
570.2596, 42.46531
570.7418, 42.92993
571.2239, 43.30029
571.7060, 43.46711
572.1881, 43.13079
572.6702, 42.64408
573.1523, 42.41083
573.6345, 42.67300
574.1166, 42.94698
574.5987, 43.24404
575.0808, 43.39862
575.5629, 43.13462
576.0450, 41.58842
576.5272, 40.55685
577.0093, 40.54891
577.4914, 41.40149
577.9735, 42.10444
578.4556, 42.74905
578.9377, 43.04310
579.4199, 42.74947
579.9020, 41.86005
580.3841, 40.99398
580.8662, 40.11718
581.3483, 39.45542
581.8304, 39.19738
582.3126, 39.34441
582.7947, 40.03142
583.2768, 41.47739
583.7589, 42.87314
584.2410, 43.31133
584.7231, 43.06939
585.2053, 42.69654
585.6874, 42.49837
586.1696, 42.16090
586.6517, 41.38309
587.1338, 40.27774
587.6159, 39.35061
588.0980, 38.44172
588.5801, 37.99757
589.0623, 38.43203
589.5444, 39.96092
590.0265, 40.80459
590.5086, 40.50369
590.9907, 40.10498
591.4728, 40.63665
591.9550, 42.39277
592.4371, 42.98068
592.9192, 41.89741
593.4013, 40.37826
593.8834, 40.57098
594.3655, 42.13990
594.8477, 42.84811
595.3298, 41.35795
595.8119, 39.43723
596.2940, 40.00386
596.7761, 42.29604
597.2582, 43.77341
597.7404, 41.90841
598.2225, 39.65920
598.7046, 39.31869
599.1867, 40.99559
599.6688, 42.35852
600.1509, 42.60766
600.6331, 42.40801
601.1152, 42.15438
601.5973, 41.92928
602.0794, 41.46404
602.5615, 40.43741
603.0436, 39.48270
603.5258, 39.42370
604.0079, 40.44347
604.4900, 41.39177
604.9721, 42.12337
605.4542, 42.62561
605.9363, 42.80783
606.4185, 42.69314
606.9006, 42.49814
607.3827, 42.46412
607.8648, 42.32054
608.3469, 41.34038
608.8290, 39.72626
609.3112, 38.67201
609.7933, 39.42815
610.2754, 40.62184
610.7575, 41.18635
611.2396, 40.90963
611.7217, 40.67846
612.2039, 40.70406
612.6860, 40.88686
613.1681, 41.18435
613.6502, 42.05949
614.1323, 42.17165
614.6144, 41.02557
615.0966, 39.53492
615.5787, 39.15400
616.0608, 40.11482
616.5429, 40.69985
617.0250, 40.42810
617.5071, 39.64326
617.9893, 38.90526
618.4714, 38.26738
618.9535, 38.15120
619.4356, 39.33101
619.9177, 40.84899
620.3998, 41.40391
620.8820, 41.06799
621.3641, 40.63729
621.8462, 40.42973
622.3283, 40.38048
622.8104, 40.51731
623.2925, 40.95788
623.7747, 41.11309
624.2568, 40.60275
624.7389, 39.93419
625.2210, 39.50555
625.7031, 39.36269
626.1852, 39.34418
626.6674, 39.38861
627.1495, 39.61292
627.6316, 40.47521
628.1137, 42.03136
628.5958, 42.79049
629.0779, 42.06378
629.5601, 40.59300
630.0422, 39.60917
630.5243, 39.12482
631.0064, 39.15640
631.4885, 40.44541
631.9706, 41.76012
632.4528, 41.67969
632.9349, 40.30195
633.4170, 39.16986
633.8991, 38.85891
634.3812, 39.07891
634.8633, 39.81706
635.3455, 41.45103
635.8276, 42.31709
636.3097, 41.92661
636.7918, 41.17650
637.2739, 40.87328
637.7560, 41.23306
638.2382, 41.08126
638.7203, 40.11464
639.2024, 39.01387
639.6845, 38.78717
640.1666, 39.38103
640.6487, 40.45045
641.1309, 42.32729
641.6130, 44.02216
642.0951, 43.82503
642.5772, 42.25859
643.0594, 40.80024
643.5415, 39.91601
644.0236, 39.57001
644.5057, 40.07544
644.9879, 41.29486
645.4700, 41.99481
645.9521, 41.26158
646.4342, 40.52850
646.9163, 40.50530
647.3984, 41.36271
647.8806, 41.70921
648.3627, 41.25940
648.8448, 40.84140
649.3269, 41.42753
649.8090, 43.01324
650.2911, 43.36358
650.7733, 42.13805
651.2554, 40.47279
651.7375, 39.44281
652.2196, 39.02919
652.7017, 39.32321
653.1838, 40.90483
653.6660, 42.09913
654.1481, 40.87449
654.6302, 38.48238
655.1123, 37.11934
655.5944, 38.40002
656.0765, 39.89339
656.5587, 40.98777
657.0408, 41.69722
657.5229, 42.22356
658.0050, 42.66068
658.4871, 42.71769
658.9692, 42.15255
659.4514, 41.04799
659.9335, 40.24349
660.4156, 39.71598
660.8977, 39.68147
661.3798, 40.90760
661.8619, 42.69398
662.3441, 42.92689
662.8262, 41.44918
663.3083, 39.85711
663.7904, 39.20757
664.2725, 39.23311
664.7546, 39.76987
665.2368, 41.11277
665.7189, 42.05700
666.2010, 41.69798
666.6831, 40.96225
667.1652, 40.96686
667.6473, 42.83846
668.1295, 43.57158
668.6116, 42.37703
669.0937, 40.36843
669.5758, 39.98988
670.0579, 41.47390
670.5400, 42.23860
671.0222, 41.19849
671.5043, 39.33147
671.9864, 38.65859
672.4685, 39.01014
672.9506, 39.54829
673.4327, 39.95435
673.9149, 40.22693
674.3970, 40.28328
674.8791, 40.16402
675.3612, 40.15068
675.8433, 40.46478
676.3254, 40.82168
676.8076, 41.10134
677.2897, 41.30737
677.7718, 41.36150
678.2539, 41.31359
678.7360, 41.04722
679.2181, 40.28571
679.7003, 38.91139
680.1824, 38.44758
680.6645, 39.06047
681.1466, 40.08104
681.6287, 40.99461
682.1108, 41.73353
682.5930, 41.99340
683.0751, 41.57674
683.5572, 41.16468
684.0393, 41.65639
684.5214, 42.42146
685.0035, 42.56198
685.4857, 40.84669
685.9678, 39.56495
686.4499, 39.41678
686.9320, 40.09178
687.4141, 40.94319
687.8962, 42.45455
688.3784, 43.15609
688.8605, 42.42876
689.3426, 40.78640
689.8247, 40.02608
690.3068, 40.16856
690.7889, 40.49878
691.2711, 40.95171
691.7532, 41.22910
692.2353, 40.28801
692.7174, 38.38884
693.1995, 37.11698
693.6816, 37.86678
694.1638, 39.29728
694.6459, 40.70492
695.1280, 42.05137
695.6101, 42.48238
696.0922, 40.55989
696.5743, 38.69682
697.0565, 38.29337
697.5386, 39.83219
698.0207, 40.75390
698.5028, 40.86065
698.9849, 40.77151
699.4670, 41.18351
699.9492, 42.01336
700.4313, 42.29395
700.9135, 41.83427
701.3956, 41.26306
701.8777, 41.40733
702.3598, 41.87320
702.8419, 41.94834
703.3240, 41.21867
703.8062, 40.50948
704.2883, 40.16587
704.7704, 40.13286
705.2525, 40.33694
705.7346, 40.95111
706.2167, 41.59882
706.6989, 42.48762
707.1810, 43.28117
707.6631, 43.03308
708.1452, 41.51887
708.6273, 40.35262
709.1094, 40.12080
709.5916, 40.44110
710.0737, 40.49014
710.5558, 40.30506
711.0379, 40.07874
711.5200, 39.80799
712.0021, 39.62235
712.4843, 39.62420
712.9664, 39.80743
713.4485, 40.13297
713.9306, 41.06994
714.4127, 41.70192
714.8948, 41.38626
715.3770, 40.10720
715.8591, 39.32041
716.3412, 39.15033
716.8233, 39.22760
717.3054, 39.38128
717.7875, 39.61152
718.2697, 39.95306
718.7518, 40.42937
719.2339, 40.74133
719.7160, 40.30300
720.1981, 39.65196
720.6802, 39.87734
721.1624, 41.21582
721.6445, 42.15297
722.1266, 41.06974
722.6087, 39.61083
723.0908, 39.31313
723.5729, 41.54689
724.0551, 42.56413
724.5372, 41.38898
725.0193, 39.69905
725.5014, 39.31793
725.9835, 40.53884
726.4656, 41.26088
726.9478, 41.21502
727.4299, 40.77538
727.9120, 40.33165
728.3941, 39.92516
728.8762, 39.70049
729.3583, 39.67963
729.8405, 39.89099
730.3226, 40.57850
730.8047, 41.47063
731.2868, 42.09788
731.7689, 42.47392
732.2510, 42.39616
732.7332, 41.35822
733.2153, 39.93419
733.6974, 39.29165
734.1795, 39.67589
734.6616, 40.22364
735.1437, 40.82961
735.6259, 41.36443
736.1080, 41.29260
736.5901, 40.70637
737.0722, 40.42827
737.5543, 41.10812
738.0364, 42.10492
738.5186, 42.87637
739.0007, 43.35885
739.4828, 43.35431
739.9649, 41.97919
740.4470, 40.86105
740.9291, 40.99310
741.4113, 42.28314
741.8934, 42.90913
742.3755, 42.56929
742.8576, 42.10390
743.3397, 41.82670
743.8218, 41.71851
744.3040, 41.60923
744.7861, 41.49798
745.2682, 41.45994
745.7503, 41.60113
746.2324, 41.82676
746.7145, 42.02953
747.1967, 42.19671
747.6788, 42.20679
748.1609, 42.12880
748.6430, 41.76542
749.1251, 40.71891
749.6072, 38.61464
750.0894, 37.80810
750.5715, 39.19614
751.0536, 40.78603
751.5357, 41.19840
752.0178, 40.29338
752.4999, 40.09029
752.9821, 40.69283
753.4642, 41.32468
753.9463, 41.10914
754.4284, 40.42387
754.9105, 40.00202
755.3926, 39.93649
755.8748, 40.09937
756.3569, 40.80895
756.8390, 41.47060
757.3211, 41.46582
757.8032, 40.08854
758.2853, 39.46392
758.7675, 40.36421
759.2496, 41.38469
759.7318, 41.05369
760.2139, 39.09853
760.6960, 37.93019
761.1781, 37.81109
761.6602, 38.27387
762.1423, 38.93423
762.6245, 39.71819
763.1066, 40.52599
763.5887, 41.45996
764.0708, 41.98006
764.5529, 41.11587
765.0350, 39.86132
765.5172, 39.39525
765.9993, 41.08030
766.4814, 42.05429
766.9635, 41.79594
767.4456, 41.04351
767.9277, 40.79132
768.4099, 41.13666
768.8920, 41.29078
769.3741, 41.06995
769.8562, 40.76267
770.3383, 40.70266
770.8204, 40.89861
771.3026, 41.45135
771.7847, 42.74298
772.2668, 43.73591
772.7489, 43.52002
773.2310, 42.59837
773.7131, 41.76622
774.1953, 41.00302
774.6774, 40.61803
775.1595, 40.88313
775.6416, 41.39153
776.1237, 41.36083
776.6058, 40.72371
777.0880, 40.02987
777.5701, 39.34479
778.0522, 38.79561
778.5343, 38.57563
779.0164, 38.67185
779.4985, 39.08214
779.9807, 40.36187
780.4628, 41.26487
780.9449, 40.55555
781.4270, 38.96825
781.9091, 38.01875
782.3912, 38.28959
782.8734, 38.94523
783.3555, 40.22738
783.8376, 41.66308
784.3197, 41.82830
784.8018, 40.58040
785.2839, 39.82636
785.7661, 40.31285
786.2482, 41.38015
786.7303, 42.18391
787.2124, 42.66881
787.6945, 42.70012
788.1766, 41.61549
788.6588, 40.66159
789.1409, 40.68185
789.6230, 41.32489
790.1051, 41.56074
790.5872, 40.87120
791.0693, 40.43150
791.5515, 40.54389
792.0336, 41.02074
792.5157, 41.47019
792.9978, 41.89474
793.4799, 41.70958
793.9620, 40.21077
794.4442, 38.55721
794.9263, 38.81793
795.4084, 40.35337
795.8905, 41.38042
796.3726, 40.55169
796.8547, 39.62164
797.3369, 39.26669
797.8190, 39.40224
798.3011, 39.63676
798.7832, 39.98170
799.2653, 40.41193
799.7474, 41.02930
800.2296, 41.64899
800.7117, 41.68060
801.1938, 41.16787
801.6759, 40.56701
802.1580, 39.86457
802.6401, 39.39082
803.1223, 39.81255
803.6044, 40.78645
804.0865, 41.40949
804.5686, 41.15189
805.0507, 40.71613
805.5328, 40.05132
806.0150, 39.39265
806.4971, 39.37857
806.9792, 40.12267
807.4613, 41.26818
807.9434, 43.13438
808.4255, 44.88454
808.9077, 44.04911
809.3898, 41.21328
809.8719, 39.00426
810.3540, 38.65447
810.8361, 39.30186
811.3182, 41.13472
811.8004, 43.40718
812.2825, 44.39793
812.7646, 41.89696
813.2467, 40.27015
813.7288, 40.79699
814.2109, 42.52064
814.6931, 42.83830
815.1752, 41.55537
815.6573, 40.74062
816.1394, 41.19084
816.6215, 42.07941
817.1037, 41.99633
817.5858, 41.22272
818.0679, 40.49498
818.5500, 40.00403
819.0322, 39.76711
819.5143, 39.87956
819.9964, 40.24296
820.4785, 40.68796
820.9606, 41.42716
821.4427, 41.78774
821.9249, 41.53938
822.4070, 40.99180
822.8891, 40.73351
823.3712, 40.75653
823.8533, 41.03970
824.3354, 41.76291
824.8176, 42.35032
825.2997, 41.82097
825.7818, 40.76545
826.2639, 40.20603
826.7460, 40.74207
827.2281, 41.49206
827.7103, 42.70307
828.1924, 43.81890
828.6745, 44.01781
829.1566, 43.05675
829.6387, 42.08303
830.1208, 41.17358
830.6030, 40.52795
831.0851, 40.63765
831.5672, 41.27401
832.0493, 41.85514
832.5314, 42.30058
833.0135, 42.44386
833.4957, 41.84612
833.9778, 41.01945
834.4599, 40.55680
834.9420, 40.86864
835.4241, 41.17667
835.9063, 41.57685
836.3884, 41.85519
836.8705, 41.65521
837.3526, 40.99531
837.8347, 40.61651
838.3168, 40.67308
838.7990, 40.63963
839.2811, 39.41969
839.7632, 37.98343
840.2453, 37.87431
840.7274, 39.90623
841.2095, 41.47699
841.6917, 41.25990
842.1738, 40.54309
842.6559, 40.34917
843.1380, 40.86858
843.6201, 41.27489
844.1022, 41.60388
844.5844, 41.69639
845.0665, 41.12571
845.5486, 40.22591
846.0307, 40.03935
846.5128, 40.67210
846.9949, 41.29371
847.4771, 41.44911
847.9592, 41.29960
848.4413, 40.76851
848.9234, 39.62593
849.4055, 39.53308
849.8876, 41.19806
850.3698, 42.82304
850.8519, 43.25287
851.3340, 42.59914
851.8161, 42.20971
852.2982, 42.08356
852.7803, 42.12599
853.2625, 42.49702
853.7446, 42.84892
854.2267, 42.72634
854.7088, 42.15819
855.1909, 41.69410
855.6730, 41.26456
856.1552, 41.27956
856.6373, 42.22353
857.1194, 43.85625
857.6015, 44.03316
858.0836, 42.55058
858.5657, 41.15193
859.0479, 40.60944
859.5300, 40.70540
860.0121, 41.33546
860.4942, 42.30032
860.9763, 42.89116
861.4584, 42.49207
861.9406, 41.89264
862.4227, 41.25921
862.9048, 40.71127
863.3869, 40.60042
863.8690, 41.05992
864.3511, 41.69178
864.8333, 42.61919
865.3154, 43.40190
865.7975, 42.66999
866.2796, 40.86582
866.7617, 39.99831
867.2438, 41.41096
867.7260, 42.87684
868.2081, 42.44317
868.6902, 41.03254
869.1723, 40.08842
869.6544, 40.16699
870.1365, 40.38004
870.6187, 40.77952
871.1008, 41.18505
871.5829, 41.31609
872.0650, 41.18658
872.5471, 41.01846
873.0292, 40.79708
873.5114, 40.79673
873.9935, 41.72142
874.4756, 42.84414
874.9577, 43.16072
875.4399, 42.20472
875.9220, 41.32577
876.4041, 40.65652
876.8862, 40.35642
877.3683, 40.68602
877.8505, 41.82146
878.3326, 42.36005
878.8147, 42.26455
879.2968, 41.84331
879.7789, 40.99477
880.2610, 40.15255
880.7432, 40.16841
881.2253, 41.06051
881.7074, 41.87749
882.1895, 42.24686
882.6716, 42.34901
883.1537, 42.19042
883.6359, 41.79951
884.1180, 41.56721
884.6001, 41.51719
885.0822, 41.53748
885.5643, 41.74445
886.0464, 41.88804
886.5286, 41.08041
887.0107, 39.58656
887.4928, 38.49226
887.9749, 38.63171
888.4570, 39.07872
888.9391, 39.43963
889.4213, 39.74105
889.9034, 40.13010
890.3855, 40.75077
890.8676, 41.09393
891.3497, 40.97612
891.8318, 40.64586
892.3140, 40.53559
892.7961, 40.61792
893.2782, 40.82979
893.7603, 41.28207
894.2424, 41.54627
894.7245, 40.96673
895.2067, 40.15924
895.6888, 39.88159
896.1709, 40.72640
896.6530, 41.36335
897.1351, 41.76367
897.6172, 41.99284
898.0994, 42.19344
898.5815, 42.31545
899.0636, 41.77493
899.5457, 40.47396
900.0278, 39.42767
900.5099, 39.64865
900.9921, 40.38714
901.4742, 41.07543
901.9563, 41.68232
902.4384, 41.78104
902.9205, 40.72765
903.4026, 40.06115
903.8848, 40.72344
904.3669, 42.49025
904.8490, 43.54433
905.3311, 43.89092
905.8132, 43.85636
906.2953, 43.39031
906.7775, 42.83014
907.2596, 42.36120
907.7417, 42.06071
908.2238, 42.16994
908.7059, 43.47889
909.1880, 44.29127
909.6702, 44.13284
910.1523, 43.35411
910.6344, 42.78710
911.1165, 42.42490
911.5986, 41.88438
912.0807, 40.96854
912.5629, 40.06803
913.0450, 39.49440
913.5271, 39.27486
914.0092, 39.47240
914.4913, 40.35685
914.9734, 41.22242
915.4556, 42.25873
915.9377, 42.96017
916.4198, 42.51287
916.9019, 40.77265
917.3840, 40.82248
917.8661, 43.02332
918.3483, 45.09837
918.8304, 44.62393
919.3125, 43.05386
919.7946, 42.21910
920.2767, 42.32016
920.7589, 42.17097
921.2410, 40.66282
921.7231, 39.64808
922.2052, 39.97390
922.6873, 41.48085
923.1694, 42.99414
923.6516, 44.52228
924.1337, 45.31648
924.6158, 44.62130
925.0979, 43.31015
925.5800, 42.31855
926.0621, 41.64890
926.5443, 41.29650
927.0264, 41.43351
927.5085, 41.70043
927.9906, 42.24091
928.4727, 42.71787
928.9548, 42.33546
929.4370, 41.03822
929.9191, 40.64779
930.4012, 41.66273
930.8833, 42.86407
931.3654, 42.74811
931.8475, 42.02527
932.3297, 41.70698
932.8118, 42.15200
933.2939, 42.40572
933.7761, 41.96659
934.2582, 41.55006
934.7403, 41.56207
935.2224, 42.00852
935.7045, 42.79662
936.1866, 43.95749
936.6688, 44.74939
937.1509, 44.35894
937.6330, 43.52314
938.1151, 43.11979
938.5972, 43.06130
939.0793, 42.78890
939.5615, 41.61138
940.0436, 40.85773
940.5257, 40.99107
941.0078, 41.68382
941.4899, 42.07656
941.9720, 42.17982
942.4542, 42.30092
942.9363, 42.61756
943.4184, 42.76366
943.9005, 41.95033
944.3826, 40.86877
944.8647, 40.48147
945.3469, 41.34453
945.8290, 42.37552
946.3111, 43.87513
946.7932, 44.99877
947.2753, 44.80046
947.7574, 43.35675
948.2396, 42.31554
948.7217, 41.72990
949.2038, 41.52665
949.6859, 41.86528
950.1680, 42.39921
950.6501, 42.79590
951.1323, 43.05233
951.6144, 43.50603
952.0965, 44.43153
952.5786, 45.16730
953.0607, 45.59634
953.5428, 45.64079
954.0250, 44.75332
954.5071, 43.13830
954.9892, 42.03263
955.4713, 42.18310
955.9534, 42.55268
956.4355, 42.19822
956.9177, 41.63845
957.3998, 41.65435
957.8819, 42.87481
958.3640, 43.62680
958.8461, 43.77213
959.3282, 43.65933
959.8104, 43.69842
960.2925, 43.78733
960.7746, 43.44498
961.2567, 42.63639
961.7388, 42.03035
962.2209, 42.31530
962.7031, 42.72704
963.1852, 42.62132
963.6673, 42.02898
964.1494, 42.07936
964.6315, 43.07244
965.1136, 43.64103
965.5958, 43.10099
966.0779, 42.00283
966.5600, 41.30379
967.0421, 40.98929
967.5242, 41.05721
968.0063, 41.94216
968.4885, 42.60265
968.9706, 42.59508
969.4527, 42.17349
969.9348, 41.53238
970.4169, 40.48463
970.8990, 40.31577
971.3812, 41.23774
971.8633, 42.25114
972.3454, 42.14582
972.8275, 41.59364
973.3096, 41.73046
973.7917, 42.64317
974.2739, 43.17802
974.7560, 42.35960
975.2381, 41.71893
975.7202, 42.01250
976.2023, 42.95536
976.6844, 42.91962
977.1666, 41.92205
977.6487, 41.38598
978.1308, 42.09399
978.6129, 43.18753
979.0950, 44.23317
979.5771, 44.91784
980.0593, 44.73970
980.5414, 42.06989
981.0235, 40.82817
981.5056, 41.78067
981.9877, 43.27867
982.4698, 43.65598
982.9520, 43.07713
983.4341, 42.44680
983.9162, 41.82943
984.3983, 41.52825
984.8804, 42.09096
985.3625, 42.77729
985.8447, 42.96455
986.3268, 42.66428
986.8089, 42.76583
987.2910, 43.56837
987.7731, 43.87597
988.2552, 43.06147
988.7374, 41.85558
989.2195, 41.87717
989.7016, 42.73139
990.1837, 43.40948
990.6658, 43.55566
991.1479, 43.51208
991.6301, 43.40879
992.1122, 43.18041
992.5944, 42.69183
993.0765, 41.81448
993.5586, 41.47564
994.0407, 41.72853
994.5228, 42.16159
995.0049, 42.53182
995.4871, 42.82446
995.9692, 43.09258
996.4513, 43.30028
996.9334, 43.21328
997.4155, 42.58259
997.8976, 41.81885
998.3798, 40.80568
998.8619, 39.87566
999.3440, 39.90605
999.8261, 40.82172
1000.308, 41.95380
1000.790, 43.24017
1001.272, 44.31704
1001.755, 45.09119
1002.237, 45.38716
1002.719, 44.91769
1003.201, 43.32113
1003.683, 41.94370
1004.165, 40.64844
1004.647, 39.88777
1005.129, 40.15944
1005.612, 41.13390
1006.094, 42.00296
1006.576, 42.73187
1007.058, 43.19795
1007.540, 43.12661
1008.022, 43.00473
1008.504, 43.10228
1008.986, 43.25280
1009.468, 43.08221
1009.951, 42.50734
1010.433, 42.35205
1010.915, 42.80527
1011.397, 43.39571
1011.879, 43.81453
1012.361, 43.93496
1012.843, 43.34587
1013.325, 41.81533
1013.807, 41.22895
1014.290, 42.82659
1014.772, 43.99533
1015.254, 43.28855
1015.736, 41.34378
1016.218, 40.92855
1016.700, 41.79414
1017.182, 42.49705
1017.664, 42.16636
1018.147, 41.76657
1018.629, 42.02068
1019.111, 42.55246
1019.593, 42.74820
1020.075, 42.35258
1020.557, 42.45441
1021.039, 43.26996
1021.521, 43.90403
1022.003, 43.20128
1022.486, 41.85484
1022.968, 41.06551
1023.450, 40.87826
1023.932, 40.90914
1024.414, 41.06310
1024.896, 41.37529
1025.378, 41.97851
1025.860, 42.67989
1026.343, 42.90691
1026.825, 42.67926
1027.307, 42.22020
1027.789, 41.41903
1028.271, 40.95947
1028.753, 42.09070
1029.235, 43.54948
1029.717, 43.75389
1030.199, 41.86550
1030.682, 41.14314
1031.164, 42.00777
1031.646, 42.84214
1032.128, 42.29275
1032.610, 41.10433
1033.092, 41.40212
1033.574, 42.81603
1034.056, 43.97719
1034.539, 44.32070
1035.021, 44.23640
1035.503, 43.59237
1035.985, 42.74993
1036.467, 42.13762
1036.949, 41.76115
1037.431, 41.59168
1037.913, 41.64014
1038.396, 41.76780
1038.878, 41.89476
1039.360, 42.01085
1039.842, 42.13302
1040.324, 42.25745
1040.806, 42.24312
1041.288, 42.00336
1041.770, 41.83074
1042.252, 41.85970
1042.734, 41.95111
1043.217, 41.55853
1043.699, 41.00691
1044.181, 41.27520
1044.663, 43.27551
1045.145, 44.66348
1045.627, 43.68685
1046.109, 42.45538
1046.591, 42.80953
1047.074, 44.87211
1047.556, 45.06896
1048.038, 43.39620
1048.520, 41.50993
1049.002, 40.06949
1049.484, 39.30213
1049.966, 39.54647
1050.448, 40.62398
1050.931, 42.14555
1051.413, 44.84995
1051.895, 46.13261
1052.377, 45.44144
1052.859, 43.91917
1053.341, 42.60008
1053.823, 41.58973
1054.305, 41.14532
1054.787, 41.29706
1055.270, 41.76410
1055.752, 42.89191
1056.234, 43.79700
1056.716, 44.11650
1057.198, 43.93339
1057.680, 43.36174
1058.162, 42.45159
1058.644, 42.03121
1059.126, 42.50793
1059.609, 43.19796
1060.091, 43.56360
1060.573, 43.76064
1061.055, 43.99959
1061.537, 44.43400
1062.019, 44.34468
1062.501, 43.63898
1062.983, 42.74760
1063.466, 41.63828
1063.948, 40.70961
1064.430, 40.99486
1064.912, 42.11084
1065.394, 42.91008
1065.876, 42.65457
1066.358, 42.43759
1066.840, 42.49414
1067.323, 42.61640
1067.805, 42.45361
1068.287, 42.08477
1068.769, 42.25396
1069.251, 43.01348
1069.733, 43.43738
1070.215, 42.17684
1070.697, 40.99557
1071.179, 41.41656
1071.661, 42.98584
1072.144, 43.70779
1072.626, 43.48922
1073.108, 42.93937
1073.590, 42.08569
1074.072, 41.35725
1074.554, 41.44836
1075.036, 41.93104
1075.518, 42.31054
1076.001, 42.56765
1076.483, 42.28351
1076.965, 40.99330
1077.447, 40.10799
1077.929, 40.53873
1078.411, 41.79498
1078.893, 42.65996
1079.375, 43.13179
1079.858, 43.18750
1080.340, 42.37654
1080.822, 41.77722
1081.304, 41.81692
1081.786, 42.19967
1082.268, 42.78564
1082.750, 43.57922
1083.232, 44.06874
1083.714, 44.24534
1084.197, 44.12087
1084.679, 43.28485
1085.161, 42.53928
1085.643, 42.87803
1086.125, 43.80053
1086.607, 43.59292
1087.089, 41.80907
1087.571, 40.26563
1088.054, 39.10122
1088.536, 38.72132
1089.018, 40.32496
1089.500, 42.66305
1089.982, 43.81374
1090.464, 43.55595
1090.946, 43.40244
1091.428, 44.00505
1091.911, 44.14849
1092.393, 43.28669
1092.875, 41.90701
1093.357, 40.90670
1093.839, 40.37855
1094.321, 40.75165
1094.803, 42.54769
1095.285, 43.94345
1095.767, 43.81414
1096.250, 43.18699
1096.732, 42.68579
1097.214, 42.31333
1097.696, 42.08584
1098.178, 41.99446
1098.660, 41.86176
1099.142, 41.32856
1099.624, 41.03441
1100.106, 41.77391
1100.589, 42.95449
1101.071, 43.62957
1101.553, 43.64606
1102.035, 43.50074
1102.517, 43.14418
1102.999, 42.96971
1103.481, 43.79960
1103.963, 44.68524
1104.446, 43.90181
1104.928, 41.93739
1105.410, 40.97727
1105.892, 42.46903
1106.374, 43.33018
1106.856, 42.99833
1107.338, 42.21469
1107.820, 41.85234
1108.302, 41.85373
1108.785, 42.19030
1109.267, 42.85326
1109.749, 43.27996
1110.231, 43.23271
1110.713, 42.84803
1111.195, 41.93430
1111.677, 40.88857
1112.159, 41.08125
1112.641, 42.26107
1113.124, 42.78655
1113.606, 42.10897
1114.088, 41.33004
1114.570, 41.12529
1115.052, 41.17799
1115.534, 41.21349
1116.016, 41.23385
1116.498, 41.75105
1116.981, 42.80306
1117.463, 43.22825
1117.945, 42.02080
1118.427, 40.76665
1118.909, 41.66493
1119.391, 43.26055
1119.873, 43.29524
1120.355, 40.59320
1120.838, 39.35778
1121.320, 39.84346
1121.802, 40.69868
1122.284, 40.98801
1122.766, 41.06000
1123.248, 41.53471
1123.730, 42.24220
1124.212, 42.72254
1124.694, 42.84663
1125.177, 42.68032
1125.659, 42.15705
1126.141, 41.49156
1126.623, 40.68970
1127.105, 39.97319
1127.587, 40.19286
1128.069, 41.21872
1128.551, 41.80351
1129.033, 40.71084
1129.516, 39.96643
1129.998, 40.11590
1130.480, 40.89540
1130.962, 42.27917
1131.444, 43.98367
1131.926, 44.36713
1132.408, 43.14463
1132.890, 41.93544
1133.373, 41.85046
1133.855, 41.98328
1134.337, 41.84274
1134.819, 41.49431
1135.301, 41.20289
1135.783, 40.96447
1136.265, 40.53841
1136.747, 39.79743
1137.229, 39.11751
1137.712, 38.66749
1138.194, 38.53196
1138.676, 38.82995
1139.158, 39.54275
1139.640, 40.67471
1140.122, 42.33636
1140.604, 43.37518
1141.086, 43.07869
1141.569, 42.42255
1142.051, 42.64687
1142.533, 43.13374
1143.015, 42.97693
1143.497, 41.74704
1143.979, 40.90176
1144.461, 40.45467
1144.943, 40.36847
1145.426, 40.70763
1145.908, 41.32631
1146.390, 42.30218
1146.872, 43.31771
1147.354, 43.71774
1147.836, 42.80045
1148.318, 41.99609
1148.800, 41.33871
1149.282, 40.80377
1149.765, 40.13681
1150.247, 39.66442
1150.729, 40.48150
1151.211, 42.25120
1151.693, 43.52944
1152.175, 43.71834
1152.657, 43.32143
1153.139, 42.15155
1153.621, 40.90918
1154.104, 40.56403
1154.586, 40.82657
1155.068, 40.52026
1155.550, 39.67172
1156.032, 39.44178
1156.514, 41.34106
1156.996, 42.76621
1157.478, 42.82454
1157.961, 42.07058
1158.443, 41.29485
1158.925, 40.55545
1159.407, 40.20560
1159.889, 40.30168
1160.371, 40.60372
1160.853, 40.96609
1161.335, 41.52848
1161.818, 42.69020
1162.300, 43.97460
1162.782, 43.71238
1163.264, 42.05701
1163.746, 40.92896
1164.228, 40.80870
1164.710, 40.84938
1165.192, 40.14703
1165.674, 39.63509
1166.156, 40.12457
1166.639, 41.44183
1167.121, 42.71017
1167.603, 43.92042
1168.085, 44.56173
1168.567, 44.40900
1169.049, 43.84854
1169.531, 42.62636
1170.013, 41.56232
1170.496, 41.80034
1170.978, 43.37134
1171.460, 43.56305
1171.942, 42.29760
1172.424, 41.06201
1172.906, 40.41140
1173.388, 40.26155
1173.870, 40.95895
1174.353, 41.90036
1174.835, 42.25407
1175.317, 41.91109
1175.799, 41.35096
1176.281, 40.50216
1176.763, 39.98958
1177.245, 40.41050
1177.727, 41.07592
1178.209, 41.16882
1178.692, 40.96870
1179.174, 40.94645
1179.656, 41.14097
1180.138, 41.66584
1180.620, 42.65693
1181.102, 43.29917
1181.584, 42.50006
1182.066, 41.40352
1182.548, 41.89534
1183.031, 41.16799
1183.513, 40.59045
1183.995, 40.95712
1184.477, 39.71815
1184.959, 39.89495
1185.441, 40.37699
1185.923, 39.85963
1186.405, 39.27020
1186.888, 40.54321
1187.370, 39.89682
1187.852, 39.62276
1188.334, 40.57848
1188.816, 39.36549
1189.298, 41.01306
1189.780, 42.91514
1190.262, 41.53173
1190.745, 39.16012
1191.227, 39.90978
1191.709, 43.22637
1192.191, 44.97894
1192.673, 43.45555
1193.155, 41.96431
1193.637, 40.77970
1194.119, 40.19888
1194.601, 41.00212
1195.084, 42.41393
1195.566, 43.48467
1196.048, 44.05353
1196.530, 43.30455
1197.012, 39.60244
1197.494, 37.72693
1197.976, 38.96990
1198.458, 41.43095
1198.941, 42.79264
1199.423, 43.35593
1199.905, 43.47093
1200.387, 43.19662
1200.869, 42.97567
1201.351, 43.00853
1201.833, 42.85839
1202.315, 42.36373
1202.797, 41.75057
1203.280, 41.17611
1203.762, 40.82969
1204.244, 41.23661
1204.726, 42.52398
1205.208, 43.25657
1205.690, 42.81407
1206.172, 42.63731
1206.654, 43.31376
1207.136, 44.18810
1207.619, 44.07740
1208.101, 43.35812
1208.583, 42.64098
1209.065, 42.01939
1209.547, 41.48350
1210.029, 40.90638
1210.511, 40.64469
1210.993, 40.86527
1211.476, 41.40538
1211.958, 42.21910
1212.440, 43.05133
1212.922, 43.39963
1213.404, 43.09802
1213.886, 42.66496
1214.368, 42.15442
1214.850, 41.56237
1215.333, 40.81164
1215.815, 40.09419
1216.297, 39.63145
1216.779, 39.49544
1217.261, 39.89073
1217.743, 41.06366
1218.225, 42.02173
1218.707, 42.84277
1219.189, 42.97615
1219.672, 41.76815
1220.154, 40.23295
1220.636, 40.63997
1221.118, 41.94722
1221.600, 42.17559
1222.082, 40.23507
1222.564, 39.30056
1223.046, 39.75031
1223.528, 40.49459
1224.011, 41.08668
1224.493, 41.49788
1224.975, 41.48796
1225.457, 41.32405
1225.939, 41.50907
1226.421, 42.40507
1226.903, 43.01556
1227.385, 43.41005
1227.868, 43.20985
1228.350, 41.81189
1228.832, 40.13469
1229.314, 39.32815
1229.796, 39.34125
1230.278, 40.27496
1230.760, 42.99589
1231.242, 43.98299
1231.724, 42.91203
1232.207, 41.68027
1232.689, 41.43633
1233.171, 41.62320
1233.653, 41.37378
1234.135, 41.09438
1234.617, 41.66378
1235.099, 44.00580
1235.581, 44.07277
1236.063, 41.50203
1236.546, 39.17704
1237.028, 39.09849
1237.510, 39.95623
1237.992, 40.81271
1238.474, 41.48472
1238.956, 41.58577
1239.438, 40.94140
1239.920, 40.49458
1240.403, 40.25099
1240.885, 40.21375
1241.367, 40.50634
1241.849, 40.88392
1242.331, 41.20548
1242.813, 41.43369
1243.295, 41.49098
1243.777, 41.32499
1244.260, 41.28505
1244.742, 41.37005
1245.224, 41.58949
1245.706, 42.29693
1246.188, 42.76699
1246.670, 42.22164
1247.152, 41.30255
1247.634, 40.91434
1248.116, 41.09694
1248.599, 41.06737
1249.081, 40.85864
1249.563, 41.03119
1250.045, 42.42759
1250.527, 43.70351
1251.009, 44.23707
1251.491, 44.19653
1251.973, 43.71986
1252.455, 42.81626
1252.938, 41.24866
1253.420, 39.20122
1253.902, 38.05463
1254.384, 39.32750
1254.866, 40.68111
1255.348, 41.61314
1255.830, 41.91523
1256.313, 40.93920
1256.795, 39.03796
1257.277, 38.42556
1257.759, 38.99582
1258.241, 40.07751
1258.723, 42.01342
1259.205, 43.52291
1259.687, 44.55340
1260.169, 44.85807
1260.651, 43.81548
1261.134, 41.94640
1261.616, 40.64471
1262.098, 39.99722
1262.580, 40.18932
1263.062, 42.52374
1263.544, 43.76173
1264.026, 43.43053
1264.508, 42.48898
1264.991, 41.32682
1265.473, 40.33252
1265.955, 40.60375
1266.437, 41.63927
1266.919, 42.10038
1267.401, 41.03165
1267.883, 40.58326
1268.365, 40.96508
1268.848, 41.27118
1269.330, 40.16909
1269.812, 39.09032
1270.294, 40.61382
1270.776, 43.43079
1271.258, 44.46706
1271.740, 42.69857
1272.222, 41.91638
1272.704, 42.28410
1273.187, 42.60016
1273.669, 41.65141
1274.151, 40.66427
1274.633, 40.88586
1275.115, 41.71588
1275.597, 42.17402
1276.079, 42.18120
1276.561, 42.21885
1277.043, 42.28626
1277.526, 42.25593
1278.008, 41.85024
1278.490, 41.55579
1278.972, 41.75522
1279.454, 42.15167
1279.936, 42.43585
1280.418, 42.61062
1280.900, 42.97694
1281.383, 43.47621
1281.865, 43.74329
1282.347, 43.42231
1282.829, 43.08578
1283.311, 42.90721
1283.793, 42.79590
1284.275, 42.69484
1284.757, 42.60539
1285.240, 42.55838
1285.722, 42.53026
1286.204, 42.45173
1286.686, 42.41513
1287.168, 42.06327
1287.650, 41.23317
1288.132, 40.42393
1288.614, 39.89025
1289.096, 39.68609
1289.578, 40.19961
1290.061, 41.06414
1290.543, 41.46790
1291.025, 40.59754
1291.507, 41.05067
1291.989, 43.25904
1292.471, 44.71723
1292.953, 43.31992
1293.435, 41.29001
1293.918, 41.40660
1294.400, 42.56244
1294.882, 43.24157
1295.364, 43.40779
1295.846, 42.39592
1296.328, 40.17084
1296.810, 38.89320
1297.292, 40.02344
1297.775, 41.62810
1298.257, 42.53221
1298.739, 42.94688
1299.221, 43.07234
1299.703, 42.93308
1300.185, 42.63505
1300.667, 42.24791
1301.149, 42.22947
1301.631, 42.93762
1302.114, 43.52314
1302.596, 43.76518
##END=



