##NAMES=Quadridavyne
##RRUFFID=R141084
##IDEAL CHEMISTRY=Na_6_Ca_2_Si_6_Al_6_O_24_Cl_4_
##LOCALITY=Mt Vesuvius, Naples Province, Campania, Italy
##OWNER=RRUFF
##SOURCE=Ch. and H. Sch√§fer
##DESCRIPTION=Short hexagonal prismatic white crystals, associated with sodalite.
##STATUS=The identification of this mineral has been confirmed only by single crystal X-ray diffraction.
##URL=rruff.info/R141084
9.059570e+001, 4.497568e+002
9.107782e+001, 4.496334e+002
9.155994e+001, 4.496115e+002
9.204205e+001, 4.499938e+002
9.252417e+001, 4.502604e+002
9.300629e+001, 4.501631e+002
9.348840e+001, 4.473495e+002
9.397052e+001, 4.392921e+002
9.445264e+001, 4.255879e+002
9.493475e+001, 4.115637e+002
9.541687e+001, 3.992267e+002
9.589898e+001, 3.896394e+002
9.638110e+001, 3.812828e+002
9.686321e+001, 3.727529e+002
9.734533e+001, 3.631884e+002
9.782745e+001, 3.523531e+002
9.830956e+001, 3.427617e+002
9.879168e+001, 3.338550e+002
9.927380e+001, 3.263513e+002
9.975591e+001, 3.208215e+002
1.002380e+002, 3.167502e+002
1.007201e+002, 3.129605e+002
1.012023e+002, 3.087741e+002
1.016844e+002, 3.042950e+002
1.021665e+002, 3.000722e+002
1.026486e+002, 2.963461e+002
1.031307e+002, 2.926432e+002
1.036128e+002, 2.882956e+002
1.040950e+002, 2.830450e+002
1.045771e+002, 2.782794e+002
1.050592e+002, 2.750933e+002
1.055413e+002, 2.728730e+002
1.060234e+002, 2.708666e+002
1.065055e+002, 2.686778e+002
1.069877e+002, 2.664107e+002
1.074698e+002, 2.646214e+002
1.079519e+002, 2.642022e+002
1.084340e+002, 2.630725e+002
1.089161e+002, 2.601698e+002
1.093982e+002, 2.558704e+002
1.098804e+002, 2.511507e+002
1.103625e+002, 2.467202e+002
1.108446e+002, 2.425176e+002
1.113267e+002, 2.390396e+002
1.118088e+002, 2.365762e+002
1.122909e+002, 2.345077e+002
1.127731e+002, 2.326567e+002
1.132552e+002, 2.309534e+002
1.137373e+002, 2.293248e+002
1.142194e+002, 2.276789e+002
1.147015e+002, 2.258785e+002
1.151836e+002, 2.243096e+002
1.156658e+002, 2.232669e+002
1.161479e+002, 2.223069e+002
1.166300e+002, 2.210060e+002
1.171121e+002, 2.192076e+002
1.175942e+002, 2.170271e+002
1.180763e+002, 2.146682e+002
1.185584e+002, 2.119776e+002
1.190406e+002, 2.094455e+002
1.195227e+002, 2.071461e+002
1.200048e+002, 2.051040e+002
1.204869e+002, 2.033983e+002
1.209690e+002, 2.021598e+002
1.214511e+002, 2.012511e+002
1.219333e+002, 2.003123e+002
1.224154e+002, 1.993333e+002
1.228975e+002, 1.983379e+002
1.233796e+002, 1.973286e+002
1.238617e+002, 1.962906e+002
1.243438e+002, 1.953329e+002
1.248260e+002, 1.949426e+002
1.253081e+002, 1.945077e+002
1.257902e+002, 1.933140e+002
1.262723e+002, 1.908924e+002
1.267544e+002, 1.878655e+002
1.272365e+002, 1.857085e+002
1.277187e+002, 1.849471e+002
1.282008e+002, 1.842213e+002
1.286829e+002, 1.829524e+002
1.291650e+002, 1.814837e+002
1.296471e+002, 1.803310e+002
1.301292e+002, 1.798961e+002
1.306114e+002, 1.800984e+002
1.310935e+002, 1.797375e+002
1.315756e+002, 1.783121e+002
1.320577e+002, 1.767649e+002
1.325398e+002, 1.752671e+002
1.330219e+002, 1.738295e+002
1.335041e+002, 1.723887e+002
1.339862e+002, 1.708535e+002
1.344683e+002, 1.691489e+002
1.349504e+002, 1.678981e+002
1.354325e+002, 1.672791e+002
1.359146e+002, 1.668682e+002
1.363968e+002, 1.665075e+002
1.368789e+002, 1.661510e+002
1.373610e+002, 1.657273e+002
1.378431e+002, 1.651257e+002
1.383252e+002, 1.642803e+002
1.388073e+002, 1.636063e+002
1.392895e+002, 1.632513e+002
1.397716e+002, 1.630279e+002
1.402537e+002, 1.627922e+002
1.407358e+002, 1.625631e+002
1.412179e+002, 1.621248e+002
1.417000e+002, 1.610544e+002
1.421821e+002, 1.594173e+002
1.426643e+002, 1.578145e+002
1.431464e+002, 1.564646e+002
1.436285e+002, 1.553409e+002
1.441106e+002, 1.543630e+002
1.445927e+002, 1.536423e+002
1.450748e+002, 1.529181e+002
1.455570e+002, 1.518690e+002
1.460391e+002, 1.505004e+002
1.465212e+002, 1.492370e+002
1.470033e+002, 1.484908e+002
1.474854e+002, 1.483108e+002
1.479675e+002, 1.481596e+002
1.484497e+002, 1.480994e+002
1.489318e+002, 1.479299e+002
1.494139e+002, 1.474726e+002
1.498960e+002, 1.467052e+002
1.503781e+002, 1.458204e+002
1.508602e+002, 1.451204e+002
1.513424e+002, 1.447079e+002
1.518245e+002, 1.442497e+002
1.523066e+002, 1.436164e+002
1.527887e+002, 1.429843e+002
1.532708e+002, 1.425086e+002
1.537529e+002, 1.422463e+002
1.542351e+002, 1.421106e+002
1.547172e+002, 1.418838e+002
1.551993e+002, 1.413908e+002
1.556814e+002, 1.410190e+002
1.561635e+002, 1.410194e+002
1.566456e+002, 1.410825e+002
1.571278e+002, 1.408020e+002
1.576099e+002, 1.399606e+002
1.580920e+002, 1.387038e+002
1.585741e+002, 1.376463e+002
1.590562e+002, 1.368180e+002
1.595383e+002, 1.361146e+002
1.600205e+002, 1.355589e+002
1.605026e+002, 1.351168e+002
1.609847e+002, 1.347252e+002
1.614668e+002, 1.343714e+002
1.619489e+002, 1.340273e+002
1.624310e+002, 1.335911e+002
1.629131e+002, 1.329537e+002
1.633953e+002, 1.323367e+002
1.638774e+002, 1.319441e+002
1.643595e+002, 1.317452e+002
1.648416e+002, 1.314188e+002
1.653237e+002, 1.305826e+002
1.658058e+002, 1.295303e+002
1.662880e+002, 1.289431e+002
1.667701e+002, 1.292209e+002
1.672522e+002, 1.297305e+002
1.677343e+002, 1.297463e+002
1.682164e+002, 1.291944e+002
1.686985e+002, 1.284987e+002
1.691807e+002, 1.278288e+002
1.696628e+002, 1.271831e+002
1.701449e+002, 1.265527e+002
1.706270e+002, 1.259045e+002
1.711091e+002, 1.252901e+002
1.715912e+002, 1.248632e+002
1.720734e+002, 1.247745e+002
1.725555e+002, 1.245947e+002
1.730376e+002, 1.241032e+002
1.735197e+002, 1.234401e+002
1.740018e+002, 1.228042e+002
1.744839e+002, 1.223292e+002
1.749661e+002, 1.219771e+002
1.754482e+002, 1.215133e+002
1.759303e+002, 1.207763e+002
1.764124e+002, 1.201071e+002
1.768945e+002, 1.196529e+002
1.773766e+002, 1.193282e+002
1.778588e+002, 1.189836e+002
1.783409e+002, 1.185059e+002
1.788230e+002, 1.178928e+002
1.793051e+002, 1.172910e+002
1.797872e+002, 1.165912e+002
1.802693e+002, 1.160066e+002
1.807515e+002, 1.156896e+002
1.812336e+002, 1.155590e+002
1.817157e+002, 1.154185e+002
1.821978e+002, 1.151013e+002
1.826799e+002, 1.145911e+002
1.831620e+002, 1.140371e+002
1.836441e+002, 1.134261e+002
1.841263e+002, 1.127934e+002
1.846084e+002, 1.120909e+002
1.850905e+002, 1.113548e+002
1.855726e+002, 1.107258e+002
1.860547e+002, 1.103397e+002
1.865368e+002, 1.102343e+002
1.870190e+002, 1.102141e+002
1.875011e+002, 1.105261e+002
1.879832e+002, 1.107506e+002
1.884653e+002, 1.105136e+002
1.889474e+002, 1.097894e+002
1.894296e+002, 1.089196e+002
1.899117e+002, 1.081931e+002
1.903938e+002, 1.076165e+002
1.908759e+002, 1.071268e+002
1.913580e+002, 1.067305e+002
1.918401e+002, 1.064160e+002
1.923223e+002, 1.061906e+002
1.928044e+002, 1.060680e+002
1.932865e+002, 1.059652e+002
1.937686e+002, 1.058552e+002
1.942507e+002, 1.057186e+002
1.947328e+002, 1.054405e+002
1.952150e+002, 1.048412e+002
1.956971e+002, 1.040980e+002
1.961792e+002, 1.035725e+002
1.966613e+002, 1.033499e+002
1.971434e+002, 1.032272e+002
1.976255e+002, 1.030825e+002
1.981077e+002, 1.029150e+002
1.985898e+002, 1.027202e+002
1.990719e+002, 1.025425e+002
1.995540e+002, 1.023467e+002
2.000361e+002, 1.019462e+002
2.005182e+002, 1.011111e+002
2.010004e+002, 1.003927e+002
2.014825e+002, 1.001310e+002
2.019646e+002, 1.002085e+002
2.024467e+002, 1.003386e+002
2.029288e+002, 1.003798e+002
2.034109e+002, 1.003273e+002
2.038930e+002, 1.000704e+002
2.043752e+002, 9.935428e+001
2.048573e+002, 9.869226e+001
2.053394e+002, 9.834252e+001
2.058215e+002, 9.821516e+001
2.063036e+002, 9.806755e+001
2.067857e+002, 9.768047e+001
2.072679e+002, 9.703592e+001
2.077500e+002, 9.650706e+001
2.082321e+002, 9.605962e+001
2.087142e+002, 9.576969e+001
2.091963e+002, 9.577941e+001
2.096784e+002, 9.599429e+001
2.101606e+002, 9.618639e+001
2.106427e+002, 9.614804e+001
2.111248e+002, 9.585319e+001
2.116069e+002, 9.555630e+001
2.120890e+002, 9.539163e+001
2.125711e+002, 9.510495e+001
2.130533e+002, 9.440232e+001
2.135354e+002, 9.343347e+001
2.140175e+002, 9.266270e+001
2.144996e+002, 9.256359e+001
2.149817e+002, 9.328666e+001
2.154638e+002, 9.362211e+001
2.159460e+002, 9.339449e+001
2.164281e+002, 9.303313e+001
2.169102e+002, 9.267637e+001
2.173923e+002, 9.236548e+001
2.178744e+002, 9.214396e+001
2.183565e+002, 9.207492e+001
2.188387e+002, 9.218797e+001
2.193208e+002, 9.215756e+001
2.198029e+002, 9.184159e+001
2.202850e+002, 9.151501e+001
2.207671e+002, 9.137773e+001
2.212492e+002, 9.141908e+001
2.217314e+002, 9.146410e+001
2.222135e+002, 9.137988e+001
2.226956e+002, 9.114706e+001
2.231777e+002, 9.079494e+001
2.236598e+002, 9.017250e+001
2.241419e+002, 8.954150e+001
2.246240e+002, 8.909592e+001
2.251062e+002, 8.884399e+001
2.255883e+002, 8.869568e+001
2.260704e+002, 8.861490e+001
2.265525e+002, 8.858959e+001
2.270346e+002, 8.851701e+001
2.275167e+002, 8.840295e+001
2.279989e+002, 8.823193e+001
2.284810e+002, 8.791324e+001
2.289631e+002, 8.743460e+001
2.294452e+002, 8.709134e+001
2.299273e+002, 8.723939e+001
2.304094e+002, 8.769463e+001
2.308916e+002, 8.794105e+001
2.313737e+002, 8.788670e+001
2.318558e+002, 8.758997e+001
2.323379e+002, 8.700925e+001
2.328200e+002, 8.608919e+001
2.333021e+002, 8.527280e+001
2.337843e+002, 8.488279e+001
2.342664e+002, 8.477648e+001
2.347485e+002, 8.478216e+001
2.352306e+002, 8.496086e+001
2.357127e+002, 8.514587e+001
2.361948e+002, 8.503526e+001
2.366770e+002, 8.452483e+001
2.371591e+002, 8.415175e+001
2.376412e+002, 8.452500e+001
2.381233e+002, 8.508826e+001
2.386054e+002, 8.514816e+001
2.390875e+002, 8.429212e+001
2.395697e+002, 8.313224e+001
2.400518e+002, 8.271429e+001
2.405339e+002, 8.327284e+001
2.410160e+002, 8.382265e+001
2.414981e+002, 8.392161e+001
2.419802e+002, 8.385099e+001
2.424624e+002, 8.391005e+001
2.429445e+002, 8.424625e+001
2.434266e+002, 8.460508e+001
2.439087e+002, 8.448991e+001
2.443908e+002, 8.369473e+001
2.448729e+002, 8.298392e+001
2.453550e+002, 8.254858e+001
2.458372e+002, 8.228853e+001
2.463193e+002, 8.217424e+001
2.468014e+002, 8.220494e+001
2.472835e+002, 8.226517e+001
2.477656e+002, 8.211179e+001
2.482477e+002, 8.157217e+001
2.487299e+002, 8.124205e+001
2.492120e+002, 8.148940e+001
2.496941e+002, 8.180681e+001
2.501762e+002, 8.176823e+001
2.506583e+002, 8.125011e+001
2.511404e+002, 8.050517e+001
2.516226e+002, 7.994901e+001
2.521047e+002, 7.966744e+001
2.525868e+002, 7.939627e+001
2.530689e+002, 7.906942e+001
2.535510e+002, 7.876808e+001
2.540331e+002, 7.855593e+001
2.545153e+002, 7.844688e+001
2.549974e+002, 7.839851e+001
2.554795e+002, 7.834811e+001
2.559616e+002, 7.829115e+001
2.564437e+002, 7.824376e+001
2.569258e+002, 7.815697e+001
2.574080e+002, 7.811161e+001
2.578901e+002, 7.825325e+001
2.583722e+002, 7.856179e+001
2.588543e+002, 7.879259e+001
2.593364e+002, 7.853045e+001
2.598185e+002, 7.727947e+001
2.603007e+002, 7.683642e+001
2.607828e+002, 7.787964e+001
2.612649e+002, 7.903001e+001
2.617470e+002, 7.942281e+001
2.622291e+002, 7.898621e+001
2.627112e+002, 7.820393e+001
2.631934e+002, 7.760909e+001
2.636755e+002, 7.723588e+001
2.641576e+002, 7.694801e+001
2.646397e+002, 7.675106e+001
2.651218e+002, 7.661555e+001
2.656039e+002, 7.655832e+001
2.660861e+002, 7.655974e+001
2.665682e+002, 7.655216e+001
2.670503e+002, 7.645643e+001
2.675324e+002, 7.623777e+001
2.680145e+002, 7.617068e+001
2.684966e+002, 7.632494e+001
2.689788e+002, 7.653256e+001
2.694609e+002, 7.679571e+001
2.699430e+002, 7.705922e+001
2.704251e+002, 7.717390e+001
2.709072e+002, 7.699213e+001
2.713893e+002, 7.649997e+001
2.718715e+002, 7.615751e+001
2.723536e+002, 7.590891e+001
2.728357e+002, 7.582571e+001
2.733178e+002, 7.601852e+001
2.737999e+002, 7.641399e+001
2.742820e+002, 7.683138e+001
2.747642e+002, 7.715623e+001
2.752463e+002, 7.739242e+001
2.757284e+002, 7.757398e+001
2.762105e+002, 7.769260e+001
2.766926e+002, 7.778133e+001
2.771747e+002, 7.775809e+001
2.776568e+002, 7.771114e+001
2.781389e+002, 7.787422e+001
2.786211e+002, 7.841904e+001
2.791032e+002, 7.920529e+001
2.795853e+002, 7.961166e+001
2.800674e+002, 7.916521e+001
2.805495e+002, 7.897140e+001
2.810316e+002, 7.954428e+001
2.815138e+002, 8.052783e+001
2.819959e+002, 8.129015e+001
2.824780e+002, 8.155198e+001
2.829601e+002, 8.146828e+001
2.834422e+002, 8.141184e+001
2.839243e+002, 8.141489e+001
2.844065e+002, 8.138224e+001
2.848886e+002, 8.128441e+001
2.853707e+002, 8.114223e+001
2.858528e+002, 8.098142e+001
2.863349e+002, 8.080840e+001
2.868170e+002, 8.063012e+001
2.872992e+002, 8.046272e+001
2.877813e+002, 8.032494e+001
2.882634e+002, 8.013857e+001
2.887455e+002, 7.990866e+001
2.892276e+002, 7.961718e+001
2.897097e+002, 7.922210e+001
2.901919e+002, 7.871049e+001
2.906740e+002, 7.815949e+001
2.911561e+002, 7.762471e+001
2.916382e+002, 7.709118e+001
2.921203e+002, 7.673779e+001
2.926024e+002, 7.672459e+001
2.930846e+002, 7.681969e+001
2.935667e+002, 7.676115e+001
2.940488e+002, 7.651888e+001
2.945309e+002, 7.632143e+001
2.950130e+002, 7.642112e+001
2.954951e+002, 7.682174e+001
2.959773e+002, 7.706670e+001
2.964594e+002, 7.701331e+001
2.969415e+002, 7.689033e+001
2.974236e+002, 7.687922e+001
2.979057e+002, 7.698017e+001
2.983878e+002, 7.707884e+001
2.988700e+002, 7.707312e+001
2.993521e+002, 7.699651e+001
2.998342e+002, 7.704604e+001
3.003163e+002, 7.729290e+001
3.007984e+002, 7.759631e+001
3.012805e+002, 7.793883e+001
3.017627e+002, 7.829104e+001
3.022448e+002, 7.851601e+001
3.027269e+002, 7.850118e+001
3.032090e+002, 7.833862e+001
3.036911e+002, 7.831225e+001
3.041732e+002, 7.847769e+001
3.046554e+002, 7.867168e+001
3.051375e+002, 7.889048e+001
3.056196e+002, 7.908810e+001
3.061017e+002, 7.909016e+001
3.065838e+002, 7.875169e+001
3.070659e+002, 7.833666e+001
3.075481e+002, 7.840217e+001
3.080302e+002, 7.902303e+001
3.085123e+002, 7.967068e+001
3.089944e+002, 8.022292e+001
3.094765e+002, 8.068227e+001
3.099586e+002, 8.103391e+001
3.104408e+002, 8.126414e+001
3.109229e+002, 8.142271e+001
3.114050e+002, 8.155305e+001
3.118871e+002, 8.165337e+001
3.123692e+002, 8.177251e+001
3.128513e+002, 8.190337e+001
3.133335e+002, 8.206499e+001
3.138156e+002, 8.228589e+001
3.142977e+002, 8.257030e+001
3.147798e+002, 8.289671e+001
3.152619e+002, 8.329456e+001
3.157440e+002, 8.374582e+001
3.162262e+002, 8.402493e+001
3.167083e+002, 8.384025e+001
3.171904e+002, 8.366965e+001
3.176725e+002, 8.399632e+001
3.181546e+002, 8.479927e+001
3.186367e+002, 8.558839e+001
3.191188e+002, 8.604173e+001
3.196010e+002, 8.620426e+001
3.200831e+002, 8.639516e+001
3.205652e+002, 8.660787e+001
3.210473e+002, 8.685491e+001
3.215294e+002, 8.712352e+001
3.220115e+002, 8.742665e+001
3.224937e+002, 8.784997e+001
3.229758e+002, 8.849462e+001
3.234579e+002, 8.920609e+001
3.239400e+002, 8.955338e+001
3.244221e+002, 8.937585e+001
3.249042e+002, 8.925753e+001
3.253864e+002, 8.948474e+001
3.258685e+002, 8.990048e+001
3.263506e+002, 9.019654e+001
3.268327e+002, 9.026220e+001
3.273148e+002, 9.023716e+001
3.277969e+002, 9.033581e+001
3.282791e+002, 9.056656e+001
3.287612e+002, 9.082983e+001
3.292433e+002, 9.112273e+001
3.297254e+002, 9.143173e+001
3.302075e+002, 9.177094e+001
3.306896e+002, 9.214295e+001
3.311718e+002, 9.244946e+001
3.316539e+002, 9.256266e+001
3.321360e+002, 9.246351e+001
3.326181e+002, 9.245828e+001
3.331002e+002, 9.265587e+001
3.335823e+002, 9.287462e+001
3.340645e+002, 9.295168e+001
3.345466e+002, 9.290183e+001
3.350287e+002, 9.288371e+001
3.355108e+002, 9.300302e+001
3.359929e+002, 9.325307e+001
3.364750e+002, 9.354145e+001
3.369572e+002, 9.399683e+001
3.374393e+002, 9.435582e+001
3.379214e+002, 9.445784e+001
3.384035e+002, 9.437749e+001
3.388856e+002, 9.427328e+001
3.393677e+002, 9.420299e+001
3.398499e+002, 9.418861e+001
3.403320e+002, 9.431827e+001
3.408141e+002, 9.474952e+001
3.412962e+002, 9.502071e+001
3.417783e+002, 9.482934e+001
3.422604e+002, 9.450669e+001
3.427426e+002, 9.456039e+001
3.432247e+002, 9.513599e+001
3.437068e+002, 9.583320e+001
3.441889e+002, 9.607308e+001
3.446710e+002, 9.560874e+001
3.451531e+002, 9.538669e+001
3.456353e+002, 9.564901e+001
3.461174e+002, 9.599243e+001
3.465995e+002, 9.608759e+001
3.470816e+002, 9.592358e+001
3.475637e+002, 9.571059e+001
3.480458e+002, 9.563029e+001
3.485280e+002, 9.568966e+001
3.490101e+002, 9.577934e+001
3.494922e+002, 9.598731e+001
3.499743e+002, 9.613387e+001
3.504564e+002, 9.611649e+001
3.509385e+002, 9.597591e+001
3.514207e+002, 9.580617e+001
3.519028e+002, 9.565893e+001
3.523849e+002, 9.553272e+001
3.528670e+002, 9.542014e+001
3.533491e+002, 9.535754e+001
3.538312e+002, 9.526437e+001
3.543134e+002, 9.513066e+001
3.547955e+002, 9.496196e+001
3.552776e+002, 9.475016e+001
3.557597e+002, 9.449480e+001
3.562418e+002, 9.423071e+001
3.567239e+002, 9.401170e+001
3.572061e+002, 9.382856e+001
3.576882e+002, 9.372196e+001
3.581703e+002, 9.379746e+001
3.586524e+002, 9.386309e+001
3.591345e+002, 9.375290e+001
3.596166e+002, 9.347684e+001
3.600987e+002, 9.320023e+001
3.605808e+002, 9.310957e+001
3.610630e+002, 9.325108e+001
3.615451e+002, 9.311642e+001
3.620272e+002, 9.223715e+001
3.625093e+002, 9.158403e+001
3.629914e+002, 9.171766e+001
3.634735e+002, 9.229953e+001
3.639557e+002, 9.264552e+001
3.644378e+002, 9.232153e+001
3.649199e+002, 9.150425e+001
3.654020e+002, 9.094846e+001
3.658841e+002, 9.086633e+001
3.663662e+002, 9.077367e+001
3.668484e+002, 9.061501e+001
3.673305e+002, 9.041961e+001
3.678126e+002, 9.021497e+001
3.682947e+002, 9.001170e+001
3.687768e+002, 8.980676e+001
3.692589e+002, 8.958669e+001
3.697411e+002, 8.932644e+001
3.702232e+002, 8.912320e+001
3.707053e+002, 8.904076e+001
3.711874e+002, 8.896083e+001
3.716695e+002, 8.884218e+001
3.721516e+002, 8.867063e+001
3.726338e+002, 8.842587e+001
3.731159e+002, 8.805997e+001
3.735980e+002, 8.758006e+001
3.740801e+002, 8.721010e+001
3.745622e+002, 8.698723e+001
3.750443e+002, 8.684119e+001
3.755265e+002, 8.679240e+001
3.760086e+002, 8.678909e+001
3.764907e+002, 8.676235e+001
3.769728e+002, 8.668381e+001
3.774549e+002, 8.655019e+001
3.779370e+002, 8.632228e+001
3.784192e+002, 8.592505e+001
3.789013e+002, 8.564973e+001
3.793834e+002, 8.562057e+001
3.798655e+002, 8.571536e+001
3.803476e+002, 8.591621e+001
3.808297e+002, 8.621439e+001
3.813119e+002, 8.641279e+001
3.817940e+002, 8.618643e+001
3.822761e+002, 8.554906e+001
3.827582e+002, 8.524544e+001
3.832403e+002, 8.561046e+001
3.837224e+002, 8.605430e+001
3.842046e+002, 8.617629e+001
3.846867e+002, 8.603411e+001
3.851688e+002, 8.585262e+001
3.856509e+002, 8.577644e+001
3.861330e+002, 8.574052e+001
3.866151e+002, 8.557592e+001
3.870973e+002, 8.524651e+001
3.875794e+002, 8.491878e+001
3.880615e+002, 8.470405e+001
3.885436e+002, 8.454430e+001
3.890257e+002, 8.435545e+001
3.895078e+002, 8.410231e+001
3.899900e+002, 8.385154e+001
3.904721e+002, 8.370699e+001
3.909542e+002, 8.364346e+001
3.914363e+002, 8.344675e+001
3.919184e+002, 8.296622e+001
3.924005e+002, 8.242283e+001
3.928827e+002, 8.216006e+001
3.933648e+002, 8.220127e+001
3.938469e+002, 8.217098e+001
3.943290e+002, 8.184002e+001
3.948111e+002, 8.137428e+001
3.952932e+002, 8.103036e+001
3.957754e+002, 8.084401e+001
3.962575e+002, 8.076097e+001
3.967396e+002, 8.075932e+001
3.972217e+002, 8.083438e+001
3.977038e+002, 8.089684e+001
3.981859e+002, 8.105299e+001
3.986681e+002, 8.110014e+001
3.991501e+002, 8.079709e+001
3.996323e+002, 8.024545e+001
4.001144e+002, 7.982827e+001
4.005965e+002, 7.976354e+001
4.010786e+002, 7.991344e+001
4.015607e+002, 7.987132e+001
4.020428e+002, 7.948579e+001
4.025250e+002, 7.920368e+001
4.030071e+002, 7.916143e+001
4.034892e+002, 7.923473e+001
4.039713e+002, 7.927743e+001
4.044534e+002, 7.925760e+001
4.049355e+002, 7.924480e+001
4.054177e+002, 7.931614e+001
4.058998e+002, 7.947530e+001
4.063819e+002, 7.971947e+001
4.068640e+002, 8.030679e+001
4.073461e+002, 8.072513e+001
4.078282e+002, 8.053467e+001
4.083104e+002, 7.995796e+001
4.087925e+002, 7.956629e+001
4.092746e+002, 7.972331e+001
4.097567e+002, 8.032378e+001
4.102388e+002, 8.088750e+001
4.107209e+002, 8.156937e+001
4.112031e+002, 8.199014e+001
4.116852e+002, 8.175990e+001
4.121673e+002, 8.145528e+001
4.126494e+002, 8.176008e+001
4.131315e+002, 8.279146e+001
4.136136e+002, 8.394341e+001
4.140958e+002, 8.431756e+001
4.145779e+002, 8.360817e+001
4.150600e+002, 8.335809e+001
4.155421e+002, 8.413100e+001
4.160242e+002, 8.485011e+001
4.165063e+002, 8.502865e+001
4.169885e+002, 8.481020e+001
4.174706e+002, 8.460600e+001
4.179527e+002, 8.468535e+001
4.184348e+002, 8.496506e+001
4.189169e+002, 8.514600e+001
4.193990e+002, 8.514548e+001
4.198812e+002, 8.523060e+001
4.203633e+002, 8.559114e+001
4.208454e+002, 8.601054e+001
4.213275e+002, 8.628165e+001
4.218096e+002, 8.635275e+001
4.222917e+002, 8.634261e+001
4.227739e+002, 8.635551e+001
4.232560e+002, 8.639053e+001
4.237381e+002, 8.642603e+001
4.242202e+002, 8.641782e+001
4.247023e+002, 8.646951e+001
4.251844e+002, 8.672414e+001
4.256666e+002, 8.711480e+001
4.261487e+002, 8.739660e+001
4.266308e+002, 8.755939e+001
4.271129e+002, 8.751243e+001
4.275950e+002, 8.695856e+001
4.280771e+002, 8.585213e+001
4.285593e+002, 8.500607e+001
4.290414e+002, 8.506277e+001
4.295235e+002, 8.555669e+001
4.300056e+002, 8.540242e+001
4.304877e+002, 8.427773e+001
4.309698e+002, 8.323252e+001
4.314520e+002, 8.283532e+001
4.319341e+002, 8.287859e+001
4.324162e+002, 8.299950e+001
4.328983e+002, 8.312818e+001
4.333804e+002, 8.318419e+001
4.338625e+002, 8.307381e+001
4.343447e+002, 8.277972e+001
4.348268e+002, 8.237484e+001
4.353089e+002, 8.159090e+001
4.357910e+002, 8.092602e+001
4.362731e+002, 8.083846e+001
4.367552e+002, 8.118784e+001
4.372374e+002, 8.146481e+001
4.377195e+002, 8.137056e+001
4.382016e+002, 8.098865e+001
4.386837e+002, 8.063662e+001
4.391658e+002, 8.022767e+001
4.396479e+002, 7.996288e+001
4.401301e+002, 7.990774e+001
4.406122e+002, 7.997441e+001
4.410943e+002, 8.014934e+001
4.415764e+002, 8.039518e+001
4.420585e+002, 8.056101e+001
4.425406e+002, 8.043214e+001
4.430227e+002, 7.993018e+001
4.435049e+002, 7.970865e+001
4.439870e+002, 8.007109e+001
4.444691e+002, 8.040398e+001
4.449512e+002, 8.048416e+001
4.454333e+002, 8.041436e+001
4.459154e+002, 8.038140e+001
4.463976e+002, 8.048123e+001
4.468797e+002, 8.066512e+001
4.473618e+002, 8.082864e+001
4.478439e+002, 8.096601e+001
4.483260e+002, 8.109937e+001
4.488081e+002, 8.110416e+001
4.492903e+002, 8.120250e+001
4.497724e+002, 8.158819e+001
4.502545e+002, 8.224681e+001
4.507366e+002, 8.295518e+001
4.512187e+002, 8.358396e+001
4.517008e+002, 8.412920e+001
4.521830e+002, 8.450703e+001
4.526651e+002, 8.460180e+001
4.531472e+002, 8.481058e+001
4.536293e+002, 8.556670e+001
4.541114e+002, 8.653752e+001
4.545935e+002, 8.720604e+001
4.550757e+002, 8.728572e+001
4.555578e+002, 8.738518e+001
4.560399e+002, 8.815028e+001
4.565220e+002, 8.940837e+001
4.570041e+002, 9.037461e+001
4.574862e+002, 9.074002e+001
4.579684e+002, 9.092899e+001
4.584505e+002, 9.156396e+001
4.589326e+002, 9.264376e+001
4.594147e+002, 9.352283e+001
4.598968e+002, 9.393397e+001
4.603789e+002, 9.420577e+001
4.608611e+002, 9.460861e+001
4.613432e+002, 9.514427e+001
4.618253e+002, 9.570130e+001
4.623074e+002, 9.621327e+001
4.627895e+002, 9.669731e+001
4.632716e+002, 9.723792e+001
4.637538e+002, 9.788828e+001
4.642359e+002, 9.852206e+001
4.647180e+002, 9.912841e+001
4.652001e+002, 9.971537e+001
4.656822e+002, 1.003154e+002
4.661643e+002, 1.009240e+002
4.666465e+002, 1.014613e+002
4.671286e+002, 1.018313e+002
4.676107e+002, 1.020194e+002
4.680928e+002, 1.022017e+002
4.685749e+002, 1.024869e+002
4.690570e+002, 1.026458e+002
4.695392e+002, 1.026676e+002
4.700213e+002, 1.025064e+002
4.705034e+002, 1.020747e+002
4.709855e+002, 1.013282e+002
4.714676e+002, 1.003913e+002
4.719497e+002, 9.947034e+001
4.724319e+002, 9.857182e+001
4.729140e+002, 9.767184e+001
4.733961e+002, 9.692881e+001
4.738782e+002, 9.603906e+001
4.743603e+002, 9.469261e+001
4.748424e+002, 9.300851e+001
4.753246e+002, 9.144692e+001
4.758067e+002, 9.035757e+001
4.762888e+002, 8.955741e+001
4.767709e+002, 8.865963e+001
4.772530e+002, 8.766799e+001
4.777351e+002, 8.656803e+001
4.782173e+002, 8.522798e+001
4.786994e+002, 8.384378e+001
4.791815e+002, 8.273876e+001
4.796636e+002, 8.198729e+001
4.801457e+002, 8.129359e+001
4.806278e+002, 8.047869e+001
4.811100e+002, 7.962999e+001
4.815920e+002, 7.890308e+001
4.820742e+002, 7.832594e+001
4.825563e+002, 7.784904e+001
4.830384e+002, 7.744637e+001
4.835205e+002, 7.711768e+001
4.840026e+002, 7.675630e+001
4.844847e+002, 7.635234e+001
4.849669e+002, 7.592931e+001
4.854490e+002, 7.548656e+001
4.859311e+002, 7.503088e+001
4.864132e+002, 7.461687e+001
4.868953e+002, 7.426138e+001
4.873774e+002, 7.382236e+001
4.878596e+002, 7.301199e+001
4.883417e+002, 7.145320e+001
4.888238e+002, 7.056716e+001
4.893059e+002, 7.090137e+001
4.897880e+002, 7.126967e+001
4.902701e+002, 7.107646e+001
4.907523e+002, 7.045060e+001
4.912344e+002, 6.978524e+001
4.917165e+002, 6.930897e+001
4.921986e+002, 6.897632e+001
4.926807e+002, 6.869214e+001
4.931628e+002, 6.852489e+001
4.936450e+002, 6.821896e+001
4.941271e+002, 6.748619e+001
4.946092e+002, 6.676921e+001
4.950913e+002, 6.639779e+001
4.955734e+002, 6.637041e+001
4.960555e+002, 6.641023e+001
4.965377e+002, 6.640411e+001
4.970198e+002, 6.631509e+001
4.975019e+002, 6.599368e+001
4.979840e+002, 6.538338e+001
4.984661e+002, 6.479013e+001
4.989482e+002, 6.435519e+001
4.994304e+002, 6.405480e+001
4.999125e+002, 6.384667e+001
5.003946e+002, 6.377252e+001
5.008767e+002, 6.368104e+001
5.013588e+002, 6.346782e+001
5.018409e+002, 6.319374e+001
5.023231e+002, 6.297869e+001
5.028052e+002, 6.284866e+001
5.032873e+002, 6.270923e+001
5.037694e+002, 6.246486e+001
5.042515e+002, 6.210896e+001
5.047336e+002, 6.178805e+001
5.052158e+002, 6.151470e+001
5.056979e+002, 6.125813e+001
5.061800e+002, 6.093402e+001
5.066621e+002, 6.064105e+001
5.071442e+002, 6.057359e+001
5.076263e+002, 6.079128e+001
5.081085e+002, 6.110510e+001
5.085906e+002, 6.123172e+001
5.090727e+002, 6.114928e+001
5.095548e+002, 6.095691e+001
5.100369e+002, 6.048064e+001
5.105190e+002, 6.006852e+001
5.110012e+002, 5.986742e+001
5.114833e+002, 5.982534e+001
5.119654e+002, 5.984982e+001
5.124475e+002, 5.991685e+001
5.129296e+002, 5.995545e+001
5.134117e+002, 5.977684e+001
5.138939e+002, 5.932844e+001
5.143760e+002, 5.907337e+001
5.148581e+002, 5.923545e+001
5.153402e+002, 5.950386e+001
5.158223e+002, 5.962725e+001
5.163044e+002, 5.961863e+001
5.167866e+002, 5.958598e+001
5.172687e+002, 5.958976e+001
5.177508e+002, 5.958551e+001
5.182329e+002, 5.952220e+001
5.187150e+002, 5.939914e+001
5.191971e+002, 5.920084e+001
5.196793e+002, 5.887447e+001
5.201614e+002, 5.852195e+001
5.206435e+002, 5.841350e+001
5.211256e+002, 5.864563e+001
5.216077e+002, 5.878344e+001
5.220898e+002, 5.873645e+001
5.225720e+002, 5.857861e+001
5.230541e+002, 5.828955e+001
5.235362e+002, 5.792666e+001
5.240183e+002, 5.768824e+001
5.245004e+002, 5.773000e+001
5.249825e+002, 5.799868e+001
5.254647e+002, 5.822573e+001
5.259468e+002, 5.842487e+001
5.264289e+002, 5.855297e+001
5.269110e+002, 5.865619e+001
5.273931e+002, 5.865930e+001
5.278752e+002, 5.842832e+001
5.283574e+002, 5.799575e+001
5.288395e+002, 5.759618e+001
5.293216e+002, 5.746148e+001
5.298037e+002, 5.754339e+001
5.302858e+002, 5.754217e+001
5.307679e+002, 5.742870e+001
5.312501e+002, 5.729940e+001
5.317322e+002, 5.717421e+001
5.322143e+002, 5.706466e+001
5.326964e+002, 5.698546e+001
5.331785e+002, 5.694108e+001
5.336606e+002, 5.691208e+001
5.341428e+002, 5.688521e+001
5.346249e+002, 5.686444e+001
5.351070e+002, 5.688078e+001
5.355891e+002, 5.694497e+001
5.360712e+002, 5.694594e+001
5.365533e+002, 5.676448e+001
5.370355e+002, 5.644398e+001
5.375176e+002, 5.626091e+001
5.379997e+002, 5.628202e+001
5.384818e+002, 5.634426e+001
5.389639e+002, 5.648223e+001
5.394460e+002, 5.659929e+001
5.399282e+002, 5.655092e+001
5.404103e+002, 5.632003e+001
5.408924e+002, 5.602467e+001
5.413745e+002, 5.577477e+001
5.418566e+002, 5.556828e+001
5.423387e+002, 5.548033e+001
5.428209e+002, 5.566046e+001
5.433029e+002, 5.578411e+001
5.437850e+002, 5.575356e+001
5.442672e+002, 5.564922e+001
5.447493e+002, 5.555326e+001
5.452314e+002, 5.548994e+001
5.457135e+002, 5.545396e+001
5.461956e+002, 5.545107e+001
5.466777e+002, 5.547752e+001
5.471599e+002, 5.550149e+001
5.476420e+002, 5.555718e+001
5.481241e+002, 5.553472e+001
5.486062e+002, 5.527069e+001
5.490883e+002, 5.490282e+001
5.495704e+002, 5.465595e+001
5.500526e+002, 5.460222e+001
5.505347e+002, 5.460042e+001
5.510168e+002, 5.454173e+001
5.514989e+002, 5.447464e+001
5.519810e+002, 5.453151e+001
5.524631e+002, 5.474335e+001
5.529453e+002, 5.494468e+001
5.534274e+002, 5.495989e+001
5.539095e+002, 5.478794e+001
5.543916e+002, 5.475880e+001
5.548737e+002, 5.511529e+001
5.553558e+002, 5.530296e+001
5.558380e+002, 5.501714e+001
5.563201e+002, 5.454787e+001
5.568022e+002, 5.425492e+001
5.572843e+002, 5.422811e+001
5.577664e+002, 5.431991e+001
5.582485e+002, 5.439339e+001
5.587307e+002, 5.445374e+001
5.592128e+002, 5.433044e+001
5.596949e+002, 5.381602e+001
5.601770e+002, 5.342007e+001
5.606591e+002, 5.336875e+001
5.611412e+002, 5.349031e+001
5.616234e+002, 5.359888e+001
5.621055e+002, 5.365283e+001
5.625876e+002, 5.363723e+001
5.630697e+002, 5.348450e+001
5.635518e+002, 5.324819e+001
5.640339e+002, 5.311563e+001
5.645161e+002, 5.311922e+001
5.649982e+002, 5.317259e+001
5.654803e+002, 5.324426e+001
5.659624e+002, 5.331363e+001
5.664445e+002, 5.330281e+001
5.669266e+002, 5.313918e+001
5.674088e+002, 5.299925e+001
5.678909e+002, 5.300764e+001
5.683730e+002, 5.304244e+001
5.688551e+002, 5.293763e+001
5.693372e+002, 5.267286e+001
5.698193e+002, 5.233364e+001
5.703015e+002, 5.197295e+001
5.707836e+002, 5.160370e+001
5.712657e+002, 5.151043e+001
5.717478e+002, 5.204791e+001
5.722299e+002, 5.238573e+001
5.727120e+002, 5.220336e+001
5.731942e+002, 5.189458e+001
5.736763e+002, 5.186814e+001
5.741584e+002, 5.216327e+001
5.746405e+002, 5.245652e+001
5.751226e+002, 5.243339e+001
5.756047e+002, 5.217001e+001
5.760869e+002, 5.198901e+001
5.765690e+002, 5.191154e+001
5.770511e+002, 5.182977e+001
5.775332e+002, 5.171184e+001
5.780153e+002, 5.154751e+001
5.784974e+002, 5.128197e+001
5.789796e+002, 5.085080e+001
5.794617e+002, 5.060788e+001
5.799438e+002, 5.087502e+001
5.804259e+002, 5.128857e+001
5.809080e+002, 5.145022e+001
5.813901e+002, 5.133705e+001
5.818723e+002, 5.106599e+001
5.823544e+002, 5.067872e+001
5.828365e+002, 5.024960e+001
5.833186e+002, 5.003352e+001
5.838007e+002, 5.023036e+001
5.842828e+002, 5.034208e+001
5.847650e+002, 5.029137e+001
5.852471e+002, 5.021698e+001
5.857292e+002, 5.026041e+001
5.862113e+002, 5.036919e+001
5.866934e+002, 5.035706e+001
5.871755e+002, 5.008816e+001
5.876577e+002, 4.966302e+001
5.881398e+002, 4.927911e+001
5.886219e+002, 4.892061e+001
5.891040e+002, 4.871377e+001
5.895861e+002, 4.872788e+001
5.900682e+002, 4.886671e+001
5.905504e+002, 4.906264e+001
5.910325e+002, 4.930547e+001
5.915146e+002, 4.952724e+001
5.919967e+002, 4.975928e+001
5.924788e+002, 4.991755e+001
5.929609e+002, 4.990687e+001
5.934431e+002, 4.975982e+001
5.939252e+002, 4.954159e+001
5.944073e+002, 4.926603e+001
5.948894e+002, 4.903489e+001
5.953715e+002, 4.900665e+001
5.958536e+002, 4.924804e+001
5.963358e+002, 4.939117e+001
5.968179e+002, 4.941961e+001
5.973000e+002, 4.938420e+001
5.977821e+002, 4.925227e+001
5.982642e+002, 4.908592e+001
5.987463e+002, 4.899535e+001
5.992285e+002, 4.901275e+001
5.997106e+002, 4.900572e+001
6.001927e+002, 4.871880e+001
6.006748e+002, 4.817159e+001
6.011569e+002, 4.800761e+001
6.016390e+002, 4.846831e+001
6.021212e+002, 4.885553e+001
6.026033e+002, 4.858558e+001
6.030854e+002, 4.804327e+001
6.035675e+002, 4.783552e+001
6.040496e+002, 4.812946e+001
6.045317e+002, 4.846873e+001
6.050139e+002, 4.869857e+001
6.054960e+002, 4.879988e+001
6.059781e+002, 4.865982e+001
6.064602e+002, 4.830301e+001
6.069423e+002, 4.803438e+001
6.074244e+002, 4.809304e+001
6.079066e+002, 4.839576e+001
6.083887e+002, 4.856499e+001
6.088708e+002, 4.846100e+001
6.093529e+002, 4.841926e+001
6.098350e+002, 4.852674e+001
6.103171e+002, 4.863848e+001
6.107993e+002, 4.865252e+001
6.112814e+002, 4.857471e+001
6.117635e+002, 4.846087e+001
6.122456e+002, 4.833258e+001
6.127277e+002, 4.821217e+001
6.132098e+002, 4.815216e+001
6.136920e+002, 4.815685e+001
6.141741e+002, 4.816687e+001
6.146562e+002, 4.816782e+001
6.151383e+002, 4.816924e+001
6.156204e+002, 4.819869e+001
6.161025e+002, 4.824606e+001
6.165847e+002, 4.823923e+001
6.170668e+002, 4.807952e+001
6.175489e+002, 4.794434e+001
6.180310e+002, 4.798724e+001
6.185131e+002, 4.812999e+001
6.189952e+002, 4.820184e+001
6.194774e+002, 4.815412e+001
6.199595e+002, 4.808694e+001
6.204416e+002, 4.813330e+001
6.209237e+002, 4.831010e+001
6.214058e+002, 4.834206e+001
6.218879e+002, 4.799236e+001
6.223701e+002, 4.779119e+001
6.228522e+002, 4.801494e+001
6.233343e+002, 4.834353e+001
6.238164e+002, 4.842280e+001
6.242985e+002, 4.819624e+001
6.247806e+002, 4.791665e+001
6.252628e+002, 4.778569e+001
6.257448e+002, 4.775861e+001
6.262269e+002, 4.771280e+001
6.267090e+002, 4.764180e+001
6.271912e+002, 4.760950e+001
6.276733e+002, 4.768300e+001
6.281554e+002, 4.777573e+001
6.286375e+002, 4.768322e+001
6.291196e+002, 4.734388e+001
6.296017e+002, 4.714303e+001
6.300839e+002, 4.725557e+001
6.305660e+002, 4.741751e+001
6.310481e+002, 4.743078e+001
6.315302e+002, 4.734414e+001
6.320123e+002, 4.729118e+001
6.324944e+002, 4.733308e+001
6.329766e+002, 4.746383e+001
6.334587e+002, 4.768971e+001
6.339408e+002, 4.803451e+001
6.344229e+002, 4.836674e+001
6.349050e+002, 4.878382e+001
6.353871e+002, 4.904710e+001
6.358693e+002, 4.899549e+001
6.363514e+002, 4.876028e+001
6.368335e+002, 4.851809e+001
6.373156e+002, 4.829230e+001
6.377977e+002, 4.814979e+001
6.382798e+002, 4.814986e+001
6.387620e+002, 4.826323e+001
6.392441e+002, 4.850905e+001
6.397262e+002, 4.887508e+001
6.402083e+002, 4.906936e+001
6.406904e+002, 4.884988e+001
6.411725e+002, 4.837783e+001
6.416547e+002, 4.819359e+001
6.421368e+002, 4.857888e+001
6.426189e+002, 4.884732e+001
6.431010e+002, 4.890157e+001
6.435831e+002, 4.892551e+001
6.440652e+002, 4.908773e+001
6.445474e+002, 4.931678e+001
6.450295e+002, 4.938343e+001
6.455116e+002, 4.913717e+001
6.459937e+002, 4.881828e+001
6.464758e+002, 4.885015e+001
6.469579e+002, 4.922960e+001
6.474401e+002, 4.957245e+001
6.479222e+002, 4.983403e+001
6.484043e+002, 5.002385e+001
6.488864e+002, 5.011315e+001
6.493685e+002, 5.013442e+001
6.498506e+002, 5.018296e+001
6.503328e+002, 5.023909e+001
6.508149e+002, 5.036525e+001
6.512970e+002, 5.063744e+001
6.517791e+002, 5.096495e+001
6.522612e+002, 5.124464e+001
6.527433e+002, 5.146289e+001
6.532255e+002, 5.164962e+001
6.537076e+002, 5.182444e+001
6.541897e+002, 5.198983e+001
6.546718e+002, 5.215885e+001
6.551539e+002, 5.233941e+001
6.556360e+002, 5.250226e+001
6.561182e+002, 5.270802e+001
6.566003e+002, 5.283501e+001
6.570824e+002, 5.274810e+001
6.575645e+002, 5.251825e+001
6.580466e+002, 5.236441e+001
6.585287e+002, 5.238741e+001
6.590109e+002, 5.248502e+001
6.594930e+002, 5.265878e+001
6.599751e+002, 5.282713e+001
6.604572e+002, 5.268295e+001
6.609393e+002, 5.214970e+001
6.614214e+002, 5.165405e+001
6.619036e+002, 5.159658e+001
6.623857e+002, 5.192635e+001
6.628678e+002, 5.208977e+001
6.633499e+002, 5.209882e+001
6.638320e+002, 5.191826e+001
6.643141e+002, 5.126149e+001
6.647963e+002, 5.063018e+001
6.652784e+002, 5.051040e+001
6.657605e+002, 5.081591e+001
6.662426e+002, 5.106117e+001
6.667247e+002, 5.092665e+001
6.672068e+002, 5.059632e+001
6.676890e+002, 5.039623e+001
6.681711e+002, 5.032278e+001
6.686532e+002, 5.025329e+001
6.691353e+002, 5.017084e+001
6.696174e+002, 5.006265e+001
6.700995e+002, 4.991441e+001
6.705817e+002, 4.972641e+001
6.710638e+002, 4.952594e+001
6.715459e+002, 4.929017e+001
6.720280e+002, 4.907018e+001
6.725101e+002, 4.890102e+001
6.729922e+002, 4.874639e+001
6.734744e+002, 4.853518e+001
6.739565e+002, 4.828308e+001
6.744386e+002, 4.811198e+001
6.749207e+002, 4.813845e+001
6.754028e+002, 4.827340e+001
6.758849e+002, 4.820807e+001
6.763671e+002, 4.789371e+001
6.768492e+002, 4.759223e+001
6.773313e+002, 4.733203e+001
6.778134e+002, 4.712405e+001
6.782955e+002, 4.699963e+001
6.787776e+002, 4.693469e+001
6.792598e+002, 4.684257e+001
6.797419e+002, 4.667174e+001
6.802240e+002, 4.651011e+001
6.807061e+002, 4.638665e+001
6.811882e+002, 4.631472e+001
6.816703e+002, 4.634238e+001
6.821525e+002, 4.646331e+001
6.826346e+002, 4.657590e+001
6.831167e+002, 4.659345e+001
6.835988e+002, 4.653791e+001
6.840809e+002, 4.652600e+001
6.845630e+002, 4.661633e+001
6.850452e+002, 4.662220e+001
6.855273e+002, 4.647530e+001
6.860094e+002, 4.627452e+001
6.864915e+002, 4.603228e+001
6.869736e+002, 4.578074e+001
6.874557e+002, 4.559938e+001
6.879379e+002, 4.553380e+001
6.884200e+002, 4.552060e+001
6.889021e+002, 4.555856e+001
6.893842e+002, 4.559746e+001
6.898663e+002, 4.547187e+001
6.903484e+002, 4.515760e+001
6.908306e+002, 4.490811e+001
6.913127e+002, 4.495455e+001
6.917948e+002, 4.520522e+001
6.922769e+002, 4.518773e+001
6.927590e+002, 4.462170e+001
6.932411e+002, 4.423472e+001
6.937233e+002, 4.417046e+001
6.942054e+002, 4.418446e+001
6.946875e+002, 4.413826e+001
6.951696e+002, 4.404633e+001
6.956517e+002, 4.398500e+001
6.961339e+002, 4.399868e+001
6.966160e+002, 4.402040e+001
6.970981e+002, 4.393115e+001
6.975802e+002, 4.378435e+001
6.980623e+002, 4.381034e+001
6.985444e+002, 4.405775e+001
6.990266e+002, 4.426256e+001
6.995087e+002, 4.422960e+001
6.999908e+002, 4.401685e+001
7.004729e+002, 4.384407e+001
7.009550e+002, 4.365850e+001
7.014371e+002, 4.359986e+001
7.019193e+002, 4.383870e+001
7.024014e+002, 4.404830e+001
7.028835e+002, 4.394440e+001
7.033656e+002, 4.366648e+001
7.038477e+002, 4.356189e+001
7.043298e+002, 4.379622e+001
7.048120e+002, 4.409472e+001
7.052941e+002, 4.407039e+001
7.057762e+002, 4.380250e+001
7.062583e+002, 4.369059e+001
7.067404e+002, 4.378792e+001
7.072225e+002, 4.393882e+001
7.077046e+002, 4.409241e+001
7.081867e+002, 4.421016e+001
7.086688e+002, 4.416988e+001
7.091509e+002, 4.384987e+001
7.096331e+002, 4.369048e+001
7.101152e+002, 4.391609e+001
7.105973e+002, 4.411823e+001
7.110794e+002, 4.400677e+001
7.115615e+002, 4.371141e+001
7.120436e+002, 4.346673e+001
7.125258e+002, 4.335933e+001
7.130079e+002, 4.336792e+001
7.134900e+002, 4.351784e+001
7.139721e+002, 4.377398e+001
7.144542e+002, 4.395021e+001
7.149363e+002, 4.404020e+001
7.154185e+002, 4.404707e+001
7.159006e+002, 4.394057e+001
7.163827e+002, 4.378342e+001
7.168648e+002, 4.369085e+001
7.173469e+002, 4.368275e+001
7.178290e+002, 4.361634e+001
7.183112e+002, 4.326816e+001
7.187933e+002, 4.308562e+001
7.192754e+002, 4.350664e+001
7.197575e+002, 4.414355e+001
7.202396e+002, 4.437868e+001
7.207217e+002, 4.408707e+001
7.212039e+002, 4.373315e+001
7.216860e+002, 4.384493e+001
7.221681e+002, 4.424524e+001
7.226502e+002, 4.413093e+001
7.231323e+002, 4.340726e+001
7.236144e+002, 4.297923e+001
7.240966e+002, 4.325462e+001
7.245787e+002, 4.375889e+001
7.250608e+002, 4.395428e+001
7.255429e+002, 4.384758e+001
7.260250e+002, 4.371846e+001
7.265071e+002, 4.351297e+001
7.269893e+002, 4.336973e+001
7.274714e+002, 4.336982e+001
7.279535e+002, 4.344001e+001
7.284356e+002, 4.350584e+001
7.289177e+002, 4.355382e+001
7.293998e+002, 4.361200e+001
7.298820e+002, 4.372046e+001
7.303641e+002, 4.381649e+001
7.308462e+002, 4.371288e+001
7.313283e+002, 4.339948e+001
7.318104e+002, 4.317226e+001
7.322925e+002, 4.307012e+001
7.327747e+002, 4.311157e+001
7.332568e+002, 4.339164e+001
7.337389e+002, 4.384203e+001
7.342210e+002, 4.410545e+001
7.347031e+002, 4.414449e+001
7.351852e+002, 4.405465e+001
7.356674e+002, 4.364183e+001
7.361495e+002, 4.327764e+001
7.366316e+002, 4.334023e+001
7.371137e+002, 4.372320e+001
7.375958e+002, 4.407899e+001
7.380779e+002, 4.424302e+001
7.385601e+002, 4.425893e+001
7.390422e+002, 4.410876e+001
7.395243e+002, 4.382838e+001
7.400064e+002, 4.381781e+001
7.404885e+002, 4.418195e+001
7.409706e+002, 4.447221e+001
7.414528e+002, 4.439598e+001
7.419349e+002, 4.411802e+001
7.424170e+002, 4.400240e+001
7.428991e+002, 4.408509e+001
7.433812e+002, 4.418681e+001
7.438633e+002, 4.431565e+001
7.443455e+002, 4.443750e+001
7.448276e+002, 4.458518e+001
7.453097e+002, 4.469489e+001
7.457918e+002, 4.461808e+001
7.462739e+002, 4.433726e+001
7.467560e+002, 4.410054e+001
7.472382e+002, 4.421231e+001
7.477203e+002, 4.454457e+001
7.482024e+002, 4.466222e+001
7.486845e+002, 4.455781e+001
7.491666e+002, 4.457349e+001
7.496487e+002, 4.484026e+001
7.501309e+002, 4.523471e+001
7.506130e+002, 4.567718e+001
7.510951e+002, 4.618121e+001
7.515772e+002, 4.636322e+001
7.520593e+002, 4.581812e+001
7.525414e+002, 4.550255e+001
7.530236e+002, 4.583849e+001
7.535057e+002, 4.633771e+001
7.539878e+002, 4.655216e+001
7.544699e+002, 4.648325e+001
7.549520e+002, 4.638100e+001
7.554341e+002, 4.634475e+001
7.559163e+002, 4.643055e+001
7.563984e+002, 4.684399e+001
7.568805e+002, 4.747132e+001
7.573626e+002, 4.775243e+001
7.578447e+002, 4.757801e+001
7.583268e+002, 4.738176e+001
7.588090e+002, 4.749609e+001
7.592911e+002, 4.779411e+001
7.597732e+002, 4.783879e+001
7.602553e+002, 4.734692e+001
7.607374e+002, 4.712222e+001
7.612195e+002, 4.735615e+001
7.617017e+002, 4.763769e+001
7.621838e+002, 4.784271e+001
7.626659e+002, 4.794272e+001
7.631480e+002, 4.786309e+001
7.636301e+002, 4.757294e+001
7.641122e+002, 4.735957e+001
7.645944e+002, 4.761060e+001
7.650765e+002, 4.798138e+001
7.655586e+002, 4.783131e+001
7.660407e+002, 4.724194e+001
7.665228e+002, 4.681517e+001
7.670049e+002, 4.679127e+001
7.674871e+002, 4.687079e+001
7.679692e+002, 4.662972e+001
7.684513e+002, 4.604150e+001
7.689334e+002, 4.578655e+001
7.694155e+002, 4.622253e+001
7.698976e+002, 4.640256e+001
7.703798e+002, 4.591476e+001
7.708619e+002, 4.526653e+001
7.713440e+002, 4.477562e+001
7.718261e+002, 4.447322e+001
7.723082e+002, 4.436758e+001
7.727903e+002, 4.454747e+001
7.732725e+002, 4.480952e+001
7.737546e+002, 4.512346e+001
7.742367e+002, 4.537947e+001
7.747188e+002, 4.535513e+001
7.752009e+002, 4.506260e+001
7.756830e+002, 4.474024e+001
7.761652e+002, 4.454264e+001
7.766473e+002, 4.442154e+001
7.771294e+002, 4.425261e+001
7.776115e+002, 4.401723e+001
7.780936e+002, 4.386695e+001
7.785757e+002, 4.386541e+001
7.790579e+002, 4.384888e+001
7.795400e+002, 4.368243e+001
7.800221e+002, 4.346608e+001
7.805042e+002, 4.338762e+001
7.809863e+002, 4.349227e+001
7.814684e+002, 4.353046e+001
7.819506e+002, 4.328851e+001
7.824327e+002, 4.311495e+001
7.829148e+002, 4.333894e+001
7.833969e+002, 4.374853e+001
7.838790e+002, 4.398589e+001
7.843611e+002, 4.395903e+001
7.848433e+002, 4.380893e+001
7.853254e+002, 4.362849e+001
7.858075e+002, 4.344647e+001
7.862896e+002, 4.337057e+001
7.867717e+002, 4.340291e+001
7.872538e+002, 4.340419e+001
7.877360e+002, 4.332947e+001
7.882181e+002, 4.324695e+001
7.887002e+002, 4.321944e+001
7.891823e+002, 4.324102e+001
7.896644e+002, 4.326241e+001
7.901465e+002, 4.328086e+001
7.906286e+002, 4.330334e+001
7.911107e+002, 4.339267e+001
7.915928e+002, 4.342871e+001
7.920750e+002, 4.328047e+001
7.925571e+002, 4.302880e+001
7.930392e+002, 4.284025e+001
7.935213e+002, 4.277405e+001
7.940034e+002, 4.278842e+001
7.944855e+002, 4.292079e+001
7.949677e+002, 4.307840e+001
7.954498e+002, 4.306466e+001
7.959319e+002, 4.289106e+001
7.964140e+002, 4.269504e+001
7.968961e+002, 4.252727e+001
7.973782e+002, 4.241882e+001
7.978604e+002, 4.242079e+001
7.983425e+002, 4.253808e+001
7.988246e+002, 4.264646e+001
7.993067e+002, 4.274170e+001
7.997888e+002, 4.283566e+001
8.002709e+002, 4.306507e+001
8.007531e+002, 4.318567e+001
8.012352e+002, 4.288612e+001
8.017173e+002, 4.227383e+001
8.021994e+002, 4.188351e+001
8.026815e+002, 4.190553e+001
8.031636e+002, 4.210223e+001
8.036458e+002, 4.254240e+001
8.041279e+002, 4.297069e+001
8.046100e+002, 4.300691e+001
8.050921e+002, 4.272240e+001
8.055742e+002, 4.250233e+001
8.060563e+002, 4.255964e+001
8.065385e+002, 4.272408e+001
8.070206e+002, 4.273281e+001
8.075027e+002, 4.259466e+001
8.079848e+002, 4.240755e+001
8.084669e+002, 4.215547e+001
8.089490e+002, 4.195322e+001
8.094312e+002, 4.184956e+001
8.099133e+002, 4.182731e+001
8.103954e+002, 4.189433e+001
8.108775e+002, 4.208741e+001
8.113596e+002, 4.211076e+001
8.118417e+002, 4.172687e+001
8.123239e+002, 4.147791e+001
8.128060e+002, 4.162082e+001
8.132881e+002, 4.188579e+001
8.137702e+002, 4.205018e+001
8.142523e+002, 4.208711e+001
8.147344e+002, 4.203754e+001
8.152166e+002, 4.188890e+001
8.156987e+002, 4.173240e+001
8.161808e+002, 4.166751e+001
8.166629e+002, 4.166667e+001
8.171450e+002, 4.168711e+001
8.176271e+002, 4.171557e+001
8.181093e+002, 4.171030e+001
8.185914e+002, 4.164891e+001
8.190735e+002, 4.152820e+001
8.195556e+002, 4.129365e+001
8.200377e+002, 4.087435e+001
8.205198e+002, 4.082529e+001
8.210020e+002, 4.140592e+001
8.214841e+002, 4.186315e+001
8.219662e+002, 4.179161e+001
8.224483e+002, 4.154446e+001
8.229304e+002, 4.152358e+001
8.234125e+002, 4.172437e+001
8.238947e+002, 4.186466e+001
8.243768e+002, 4.185627e+001
8.248589e+002, 4.181630e+001
8.253410e+002, 4.181546e+001
8.258231e+002, 4.179760e+001
8.263052e+002, 4.169248e+001
8.267874e+002, 4.150567e+001
8.272695e+002, 4.126744e+001
8.277516e+002, 4.096988e+001
8.282337e+002, 4.074303e+001
8.287158e+002, 4.083236e+001
8.291979e+002, 4.115710e+001
8.296801e+002, 4.139838e+001
8.301622e+002, 4.152736e+001
8.306443e+002, 4.153228e+001
8.311264e+002, 4.137873e+001
8.316085e+002, 4.118075e+001
8.320906e+002, 4.113966e+001
8.325728e+002, 4.129308e+001
8.330549e+002, 4.132450e+001
8.335370e+002, 4.108265e+001
8.340191e+002, 4.093709e+001
8.345012e+002, 4.101506e+001
8.349833e+002, 4.117929e+001
8.354655e+002, 4.136363e+001
8.359476e+002, 4.154131e+001
8.364297e+002, 4.163308e+001
8.369118e+002, 4.161372e+001
8.373939e+002, 4.150688e+001
8.378760e+002, 4.130767e+001
8.383582e+002, 4.103954e+001
8.388403e+002, 4.063800e+001
8.393224e+002, 4.018996e+001
8.398045e+002, 3.995937e+001
8.402866e+002, 4.007182e+001
8.407687e+002, 4.033516e+001
8.412509e+002, 4.054818e+001
8.417330e+002, 4.069310e+001
8.422151e+002, 4.060691e+001
8.426972e+002, 4.026816e+001
8.431793e+002, 4.003096e+001
8.436614e+002, 4.004651e+001
8.441436e+002, 4.014362e+001
8.446257e+002, 4.011591e+001
8.451078e+002, 3.996806e+001
8.455899e+002, 3.992073e+001
8.460720e+002, 4.003355e+001
8.465541e+002, 4.016162e+001
8.470363e+002, 4.036889e+001
8.475184e+002, 4.051464e+001
8.480005e+002, 4.048911e+001
8.484826e+002, 4.033830e+001
8.489647e+002, 4.016339e+001
8.494468e+002, 3.997807e+001
8.499290e+002, 3.982419e+001
8.504111e+002, 3.971846e+001
8.508932e+002, 3.965951e+001
8.513753e+002, 3.969654e+001
8.518574e+002, 3.976943e+001
8.523395e+002, 3.972750e+001
8.528217e+002, 3.953552e+001
8.533038e+002, 3.931651e+001
8.537859e+002, 3.918895e+001
8.542680e+002, 3.913135e+001
8.547501e+002, 3.907259e+001
8.552322e+002, 3.901262e+001
8.557144e+002, 3.902781e+001
8.561965e+002, 3.916259e+001
8.566786e+002, 3.923631e+001
8.571607e+002, 3.907676e+001
8.576428e+002, 3.878143e+001
8.581249e+002, 3.867860e+001
8.586071e+002, 3.897265e+001
8.590892e+002, 3.901294e+001
8.595713e+002, 3.852639e+001
8.600534e+002, 3.811174e+001
8.605355e+002, 3.800392e+001
8.610176e+002, 3.806736e+001
8.614998e+002, 3.817006e+001
8.619819e+002, 3.828667e+001
8.624640e+002, 3.833836e+001
8.629461e+002, 3.821224e+001
8.634282e+002, 3.809875e+001
8.639103e+002, 3.823824e+001
8.643925e+002, 3.841294e+001
8.648746e+002, 3.826360e+001
8.653567e+002, 3.781279e+001
8.658388e+002, 3.736017e+001
8.663209e+002, 3.707215e+001
8.668030e+002, 3.692533e+001
8.672852e+002, 3.692480e+001
8.677673e+002, 3.704370e+001
8.682494e+002, 3.717029e+001
8.687315e+002, 3.730163e+001
8.692136e+002, 3.730043e+001
8.696957e+002, 3.709738e+001
8.701779e+002, 3.676999e+001
8.706600e+002, 3.638448e+001
8.711421e+002, 3.593718e+001
8.716242e+002, 3.578186e+001
8.721063e+002, 3.618694e+001
8.725884e+002, 3.641096e+001
8.730705e+002, 3.616951e+001
8.735526e+002, 3.586325e+001
8.740347e+002, 3.574231e+001
8.745168e+002, 3.573930e+001
8.749990e+002, 3.566434e+001
8.754811e+002, 3.545044e+001
8.759632e+002, 3.527971e+001
8.764453e+002, 3.523780e+001
8.769274e+002, 3.524117e+001
8.774095e+002, 3.532408e+001
8.778917e+002, 3.537157e+001
8.783738e+002, 3.512865e+001
8.788559e+002, 3.458662e+001
8.793380e+002, 3.411404e+001
8.798201e+002, 3.401225e+001
8.803022e+002, 3.412865e+001
8.807844e+002, 3.430400e+001
8.812665e+002, 3.448410e+001
8.817486e+002, 3.440685e+001
8.822307e+002, 3.404948e+001
8.827128e+002, 3.376950e+001
8.831949e+002, 3.381224e+001
8.836771e+002, 3.398794e+001
8.841592e+002, 3.385707e+001
8.846413e+002, 3.334209e+001
8.851234e+002, 3.313746e+001
8.856055e+002, 3.341656e+001
8.860876e+002, 3.356524e+001
8.865698e+002, 3.324112e+001
8.870519e+002, 3.282927e+001
8.875340e+002, 3.282109e+001
8.880161e+002, 3.318021e+001
8.884982e+002, 3.333138e+001
8.889803e+002, 3.311574e+001
8.894625e+002, 3.289357e+001
8.899446e+002, 3.267971e+001
8.904267e+002, 3.252194e+001
8.909088e+002, 3.250915e+001
8.913909e+002, 3.256170e+001
8.918730e+002, 3.250808e+001
8.923552e+002, 3.229567e+001
8.928373e+002, 3.210983e+001
8.933194e+002, 3.211269e+001
8.938015e+002, 3.216431e+001
8.942836e+002, 3.212100e+001
8.947657e+002, 3.200888e+001
8.952479e+002, 3.185576e+001
8.957300e+002, 3.169089e+001
8.962121e+002, 3.163109e+001
8.966942e+002, 3.178408e+001
8.971763e+002, 3.202355e+001
8.976584e+002, 3.209639e+001
8.981406e+002, 3.201434e+001
8.986227e+002, 3.189553e+001
8.991048e+002, 3.175004e+001
8.995869e+002, 3.156406e+001
9.000690e+002, 3.131681e+001
9.005511e+002, 3.105805e+001
9.010333e+002, 3.084064e+001
9.015154e+002, 3.065709e+001
9.019975e+002, 3.070628e+001
9.024796e+002, 3.121816e+001
9.029617e+002, 3.153566e+001
9.034438e+002, 3.144075e+001
9.039260e+002, 3.120690e+001
9.044081e+002, 3.097957e+001
9.048902e+002, 3.076317e+001
9.053723e+002, 3.056315e+001
9.058544e+002, 3.036441e+001
9.063365e+002, 3.022958e+001
9.068187e+002, 3.023160e+001
9.073008e+002, 3.024143e+001
9.077829e+002, 3.016503e+001
9.082650e+002, 3.005776e+001
9.087471e+002, 2.999553e+001
9.092292e+002, 2.999174e+001
9.097114e+002, 3.002377e+001
9.101935e+002, 3.010831e+001
9.106756e+002, 3.017508e+001
9.111577e+002, 3.014934e+001
9.116398e+002, 3.005590e+001
9.121219e+002, 2.990201e+001
9.126041e+002, 2.971910e+001
9.130862e+002, 2.962917e+001
9.135683e+002, 2.969040e+001
9.140504e+002, 2.979411e+001
9.145325e+002, 2.976377e+001
9.150146e+002, 2.964496e+001
9.154968e+002, 2.974690e+001
9.159789e+002, 3.008139e+001
9.164610e+002, 3.030435e+001
9.169431e+002, 3.033305e+001
9.174252e+002, 3.021040e+001
9.179073e+002, 2.993479e+001
9.183895e+002, 2.956755e+001
9.188716e+002, 2.932377e+001
9.193537e+002, 2.918404e+001
9.198358e+002, 2.922418e+001
9.203179e+002, 2.961757e+001
9.208000e+002, 2.994020e+001
9.212822e+002, 2.991265e+001
9.217643e+002, 2.980338e+001
9.222464e+002, 2.996112e+001
9.227285e+002, 3.037091e+001
9.232106e+002, 3.058360e+001
9.236927e+002, 3.036734e+001
9.241749e+002, 3.017694e+001
9.246570e+002, 3.021691e+001
9.251391e+002, 3.026039e+001
9.256212e+002, 3.011297e+001
9.261033e+002, 2.983167e+001
9.265854e+002, 2.952786e+001
9.270676e+002, 2.923005e+001
9.275497e+002, 2.906506e+001
9.280318e+002, 2.925421e+001
9.285139e+002, 2.949534e+001
9.289960e+002, 2.939753e+001
9.294781e+002, 2.915160e+001
9.299603e+002, 2.917954e+001
9.304424e+002, 2.950346e+001
9.309245e+002, 2.979927e+001
9.314066e+002, 2.986336e+001
9.318887e+002, 2.977950e+001
9.323708e+002, 2.962718e+001
9.328530e+002, 2.943762e+001
9.333351e+002, 2.936721e+001
9.338172e+002, 2.941485e+001
9.342993e+002, 2.938827e+001
9.347814e+002, 2.920307e+001
9.352635e+002, 2.907331e+001
9.357457e+002, 2.926738e+001
9.362278e+002, 2.970003e+001
9.367099e+002, 2.983628e+001
9.371920e+002, 2.958035e+001
9.376741e+002, 2.945213e+001
9.381563e+002, 2.955114e+001
9.386384e+002, 2.969180e+001
9.391205e+002, 2.977610e+001
9.396026e+002, 2.983943e+001
9.400847e+002, 2.997360e+001
9.405668e+002, 3.022685e+001
9.410490e+002, 3.026445e+001
9.415311e+002, 2.990624e+001
9.420132e+002, 2.958805e+001
9.424953e+002, 2.934711e+001
9.429774e+002, 2.921347e+001
9.434595e+002, 2.927401e+001
9.439417e+002, 2.944985e+001
9.444238e+002, 2.954426e+001
9.449059e+002, 2.950640e+001
9.453880e+002, 2.943694e+001
9.458701e+002, 2.934415e+001
9.463522e+002, 2.926027e+001
9.468344e+002, 2.919702e+001
9.473165e+002, 2.916209e+001
9.477986e+002, 2.917232e+001
9.482807e+002, 2.922252e+001
9.487628e+002, 2.927847e+001
9.492449e+002, 2.931506e+001
9.497271e+002, 2.936922e+001
9.502092e+002, 2.952228e+001
9.506913e+002, 2.968956e+001
9.511734e+002, 2.972872e+001
9.516555e+002, 2.965952e+001
9.521376e+002, 2.956786e+001
9.526198e+002, 2.948809e+001
9.531019e+002, 2.944138e+001
9.535840e+002, 2.945830e+001
9.540661e+002, 2.950944e+001
9.545482e+002, 2.951154e+001
9.550303e+002, 2.947696e+001
9.555124e+002, 2.949588e+001
9.559945e+002, 2.958092e+001
9.564766e+002, 2.965296e+001
9.569587e+002, 2.965917e+001
9.574409e+002, 2.969457e+001
9.579230e+002, 2.995632e+001
9.584051e+002, 3.043656e+001
9.588872e+002, 3.054542e+001
9.593693e+002, 3.016800e+001
9.598514e+002, 2.991432e+001
9.603336e+002, 2.993299e+001
9.608157e+002, 3.006877e+001
9.612978e+002, 3.024822e+001
9.617799e+002, 3.043351e+001
9.622620e+002, 3.050441e+001
9.627441e+002, 3.037941e+001
9.632263e+002, 3.039428e+001
9.637084e+002, 3.071925e+001
9.641905e+002, 3.095274e+001
9.646726e+002, 3.094964e+001
9.651547e+002, 3.084648e+001
9.656368e+002, 3.071910e+001
9.661190e+002, 3.058785e+001
9.666011e+002, 3.052617e+001
9.670832e+002, 3.056273e+001
9.675653e+002, 3.062827e+001
9.680474e+002, 3.075919e+001
9.685295e+002, 3.086007e+001
9.690117e+002, 3.081494e+001
9.694938e+002, 3.074103e+001
9.699759e+002, 3.083946e+001
9.704580e+002, 3.109965e+001
9.709401e+002, 3.124810e+001
9.714222e+002, 3.105200e+001
9.719044e+002, 3.089717e+001
9.723865e+002, 3.109274e+001
9.728686e+002, 3.140086e+001
9.733507e+002, 3.160063e+001
9.738328e+002, 3.168946e+001
9.743149e+002, 3.168158e+001
9.747971e+002, 3.159962e+001
9.752792e+002, 3.159743e+001
9.757613e+002, 3.187396e+001
9.762434e+002, 3.221098e+001
9.767255e+002, 3.226681e+001
9.772076e+002, 3.217606e+001
9.776898e+002, 3.225388e+001
9.781719e+002, 3.250051e+001
9.786540e+002, 3.269067e+001
9.791361e+002, 3.271843e+001
9.796182e+002, 3.270285e+001
9.801003e+002, 3.281969e+001
9.805825e+002, 3.300315e+001
9.810646e+002, 3.300826e+001
9.815467e+002, 3.285699e+001
9.820288e+002, 3.268104e+001
9.825109e+002, 3.250789e+001
9.829930e+002, 3.255354e+001
9.834752e+002, 3.299535e+001
9.839573e+002, 3.356726e+001
9.844394e+002, 3.373647e+001
9.849215e+002, 3.349974e+001
9.854036e+002, 3.334469e+001
9.858857e+002, 3.327964e+001
9.863679e+002, 3.324617e+001
9.868500e+002, 3.322183e+001
9.873321e+002, 3.325832e+001
9.878142e+002, 3.343412e+001
9.882963e+002, 3.366890e+001
9.887784e+002, 3.369221e+001
9.892606e+002, 3.341044e+001
9.897427e+002, 3.325883e+001
9.902248e+002, 3.334589e+001
9.907069e+002, 3.334904e+001
9.911890e+002, 3.310403e+001
9.916711e+002, 3.280385e+001
9.921533e+002, 3.260878e+001
9.926354e+002, 3.251600e+001
9.931175e+002, 3.251595e+001
9.935996e+002, 3.269641e+001
9.940817e+002, 3.281124e+001
9.945638e+002, 3.287804e+001
9.950460e+002, 3.285419e+001
9.955281e+002, 3.260815e+001
9.960102e+002, 3.234314e+001
9.964923e+002, 3.228490e+001
9.969744e+002, 3.242303e+001
9.974565e+002, 3.259615e+001
9.979387e+002, 3.285569e+001
9.984208e+002, 3.301161e+001
9.989029e+002, 3.294541e+001
9.993850e+002, 3.283454e+001
9.998671e+002, 3.278369e+001
1.000349e+003, 3.276186e+001
1.000831e+003, 3.268131e+001
1.001313e+003, 3.255088e+001
1.001796e+003, 3.254560e+001
1.002278e+003, 3.285955e+001
1.002760e+003, 3.312926e+001
1.003242e+003, 3.305713e+001
1.003724e+003, 3.293723e+001
1.004206e+003, 3.308918e+001
1.004688e+003, 3.339563e+001
1.005170e+003, 3.359979e+001
1.005653e+003, 3.363647e+001
1.006135e+003, 3.358292e+001
1.006617e+003, 3.340281e+001
1.007099e+003, 3.326698e+001
1.007581e+003, 3.330423e+001
1.008063e+003, 3.350560e+001
1.008545e+003, 3.397815e+001
1.009027e+003, 3.459276e+001
1.009509e+003, 3.500278e+001
1.009992e+003, 3.509195e+001
1.010474e+003, 3.505284e+001
1.010956e+003, 3.503155e+001
1.011438e+003, 3.500387e+001
1.011920e+003, 3.485883e+001
1.012402e+003, 3.470091e+001
1.012884e+003, 3.485963e+001
1.013366e+003, 3.528208e+001
1.013849e+003, 3.554766e+001
1.014331e+003, 3.547492e+001
1.014813e+003, 3.526601e+001
1.015295e+003, 3.512045e+001
1.015777e+003, 3.502852e+001
1.016259e+003, 3.494916e+001
1.016741e+003, 3.489851e+001
1.017223e+003, 3.498420e+001
1.017705e+003, 3.520764e+001
1.018188e+003, 3.542385e+001
1.018670e+003, 3.556117e+001
1.019152e+003, 3.560106e+001
1.019634e+003, 3.547380e+001
1.020116e+003, 3.523983e+001
1.020598e+003, 3.521704e+001
1.021080e+003, 3.539716e+001
1.021562e+003, 3.556662e+001
1.022044e+003, 3.569041e+001
1.022527e+003, 3.576871e+001
1.023009e+003, 3.580095e+001
1.023491e+003, 3.578892e+001
1.023973e+003, 3.571466e+001
1.024455e+003, 3.558912e+001
1.024937e+003, 3.563247e+001
1.025419e+003, 3.588087e+001
1.025901e+003, 3.596072e+001
1.026384e+003, 3.575393e+001
1.026866e+003, 3.560865e+001
1.027348e+003, 3.577206e+001
1.027830e+003, 3.606256e+001
1.028312e+003, 3.613703e+001
1.028794e+003, 3.598571e+001
1.029276e+003, 3.585740e+001
1.029758e+003, 3.571552e+001
1.030240e+003, 3.573864e+001
1.030723e+003, 3.601569e+001
1.031205e+003, 3.633923e+001
1.031687e+003, 3.660249e+001
1.032169e+003, 3.679063e+001
1.032651e+003, 3.684871e+001
1.033133e+003, 3.674004e+001
1.033615e+003, 3.681192e+001
1.034097e+003, 3.713071e+001
1.034579e+003, 3.749836e+001
1.035062e+003, 3.798591e+001
1.035544e+003, 3.834108e+001
1.036026e+003, 3.826964e+001
1.036508e+003, 3.802682e+001
1.036990e+003, 3.820255e+001
1.037472e+003, 3.893622e+001
1.037954e+003, 3.929686e+001
1.038436e+003, 3.898613e+001
1.038919e+003, 3.877514e+001
1.039401e+003, 3.875088e+001
1.039883e+003, 3.891252e+001
1.040365e+003, 3.939826e+001
1.040847e+003, 4.002877e+001
1.041329e+003, 4.040709e+001
1.041811e+003, 4.048034e+001
1.042293e+003, 4.059288e+001
1.042776e+003, 4.081826e+001
1.043258e+003, 4.099107e+001
1.043740e+003, 4.108936e+001
1.044222e+003, 4.111845e+001
1.044704e+003, 4.101386e+001
1.045186e+003, 4.086478e+001
1.045668e+003, 4.085514e+001
1.046150e+003, 4.101921e+001
1.046632e+003, 4.115849e+001
1.047115e+003, 4.124909e+001
1.047597e+003, 4.131628e+001
1.048079e+003, 4.129852e+001
1.048561e+003, 4.132477e+001
1.049043e+003, 4.155587e+001
1.049525e+003, 4.186724e+001
1.050007e+003, 4.207092e+001
1.050489e+003, 4.215976e+001
1.050971e+003, 4.194959e+001
1.051454e+003, 4.103399e+001
1.051936e+003, 4.032170e+001
1.052418e+003, 4.026219e+001
1.052900e+003, 4.032459e+001
1.053382e+003, 4.013956e+001
1.053864e+003, 3.978909e+001
1.054346e+003, 3.946746e+001
1.054828e+003, 3.920256e+001
1.055311e+003, 3.889946e+001
1.055793e+003, 3.847639e+001
1.056275e+003, 3.808812e+001
1.056757e+003, 3.777816e+001
1.057239e+003, 3.753130e+001
1.057721e+003, 3.738562e+001
1.058203e+003, 3.727539e+001
1.058685e+003, 3.706512e+001
1.059167e+003, 3.673891e+001
1.059650e+003, 3.650078e+001
1.060132e+003, 3.665543e+001
1.060614e+003, 3.658755e+001
1.061096e+003, 3.571562e+001
1.061578e+003, 3.487256e+001
1.062060e+003, 3.483842e+001
1.062542e+003, 3.520837e+001
1.063024e+003, 3.524183e+001
1.063506e+003, 3.484063e+001
1.063989e+003, 3.446730e+001
1.064471e+003, 3.428863e+001
1.064953e+003, 3.416709e+001
1.065435e+003, 3.403001e+001
1.065917e+003, 3.394414e+001
1.066399e+003, 3.399352e+001
1.066881e+003, 3.411201e+001
1.067363e+003, 3.425616e+001
1.067846e+003, 3.438520e+001
1.068328e+003, 3.428689e+001
1.068810e+003, 3.364367e+001
1.069292e+003, 3.317797e+001
1.069774e+003, 3.343972e+001
1.070256e+003, 3.376997e+001
1.070738e+003, 3.357911e+001
1.071220e+003, 3.319207e+001
1.071703e+003, 3.319223e+001
1.072185e+003, 3.356300e+001
1.072667e+003, 3.367754e+001
1.073149e+003, 3.315458e+001
1.073631e+003, 3.269549e+001
1.074113e+003, 3.263804e+001
1.074595e+003, 3.274992e+001
1.075077e+003, 3.298323e+001
1.075559e+003, 3.320678e+001
1.076042e+003, 3.321816e+001
1.076524e+003, 3.305579e+001
1.077006e+003, 3.299356e+001
1.077488e+003, 3.315395e+001
1.077970e+003, 3.332800e+001
1.078452e+003, 3.340784e+001
1.078934e+003, 3.348106e+001
1.079416e+003, 3.364326e+001
1.079898e+003, 3.380839e+001
1.080380e+003, 3.385553e+001
1.080863e+003, 3.380598e+001
1.081345e+003, 3.376577e+001
1.081827e+003, 3.375850e+001
1.082309e+003, 3.380792e+001
1.082791e+003, 3.401204e+001
1.083273e+003, 3.417469e+001
1.083755e+003, 3.409408e+001
1.084237e+003, 3.397202e+001
1.084720e+003, 3.408968e+001
1.085202e+003, 3.434897e+001
1.085684e+003, 3.439869e+001
1.086166e+003, 3.411499e+001
1.086648e+003, 3.395198e+001
1.087130e+003, 3.430191e+001
1.087612e+003, 3.457119e+001
1.088094e+003, 3.433269e+001
1.088577e+003, 3.397581e+001
1.089059e+003, 3.383403e+001
1.089541e+003, 3.388138e+001
1.090023e+003, 3.400423e+001
1.090505e+003, 3.417979e+001
1.090987e+003, 3.437608e+001
1.091469e+003, 3.467403e+001
1.091951e+003, 3.486898e+001
1.092433e+003, 3.478618e+001
1.092916e+003, 3.465220e+001
1.093398e+003, 3.466393e+001
1.093880e+003, 3.474267e+001
1.094362e+003, 3.467486e+001
1.094844e+003, 3.445870e+001
1.095326e+003, 3.447450e+001
1.095808e+003, 3.512477e+001
1.096290e+003, 3.560542e+001
1.096772e+003, 3.553665e+001
1.097255e+003, 3.534261e+001
1.097737e+003, 3.518984e+001
1.098219e+003, 3.514050e+001
1.098701e+003, 3.529909e+001
1.099183e+003, 3.563487e+001
1.099665e+003, 3.591725e+001
1.100147e+003, 3.608557e+001
1.100629e+003, 3.621310e+001
1.101112e+003, 3.634627e+001
1.101594e+003, 3.640849e+001
1.102076e+003, 3.629815e+001
1.102558e+003, 3.614661e+001
1.103040e+003, 3.607573e+001
1.103522e+003, 3.608817e+001
1.104004e+003, 3.616303e+001
1.104486e+003, 3.633466e+001
1.104969e+003, 3.644835e+001
1.105451e+003, 3.641097e+001
1.105933e+003, 3.639686e+001
1.106415e+003, 3.650920e+001
1.106897e+003, 3.662947e+001
1.107379e+003, 3.663956e+001
1.107861e+003, 3.658730e+001
1.108343e+003, 3.661066e+001
1.108825e+003, 3.674690e+001
1.109307e+003, 3.680058e+001
1.109790e+003, 3.661786e+001
1.110272e+003, 3.654631e+001
1.110754e+003, 3.667431e+001
1.111236e+003, 3.691229e+001
1.111718e+003, 3.735714e+001
1.112200e+003, 3.780778e+001
1.112682e+003, 3.786584e+001
1.113164e+003, 3.749883e+001
1.113647e+003, 3.736473e+001
1.114129e+003, 3.775548e+001
1.114611e+003, 3.788694e+001
1.115093e+003, 3.737126e+001
1.115575e+003, 3.705376e+001
1.116057e+003, 3.746334e+001
1.116539e+003, 3.809227e+001
1.117021e+003, 3.837623e+001
1.117504e+003, 3.834969e+001
1.117986e+003, 3.825029e+001
1.118468e+003, 3.792994e+001
1.118950e+003, 3.791685e+001
1.119432e+003, 3.847187e+001
1.119914e+003, 3.879634e+001
1.120396e+003, 3.847569e+001
1.120878e+003, 3.812162e+001
1.121360e+003, 3.831533e+001
1.121843e+003, 3.883523e+001
1.122325e+003, 3.900037e+001
1.122807e+003, 3.871455e+001
1.123289e+003, 3.868338e+001
1.123771e+003, 3.900800e+001
1.124253e+003, 3.922553e+001
1.124735e+003, 3.918528e+001
1.125217e+003, 3.920191e+001
1.125699e+003, 3.952740e+001
1.126182e+003, 3.990618e+001
1.126664e+003, 3.984028e+001
1.127146e+003, 3.937421e+001
1.127628e+003, 3.937816e+001
1.128110e+003, 3.991679e+001
1.128592e+003, 4.033588e+001
1.129074e+003, 4.053857e+001
1.129556e+003, 4.069503e+001
1.130039e+003, 4.087530e+001
1.130521e+003, 4.108016e+001
1.131003e+003, 4.133054e+001
1.131485e+003, 4.157484e+001
1.131967e+003, 4.157814e+001
1.132449e+003, 4.136211e+001
1.132931e+003, 4.132872e+001
1.133413e+003, 4.149744e+001
1.133896e+003, 4.168025e+001
1.134378e+003, 4.181977e+001
1.134860e+003, 4.202274e+001
1.135342e+003, 4.238343e+001
1.135824e+003, 4.279652e+001
1.136306e+003, 4.306248e+001
1.136788e+003, 4.321830e+001
1.137270e+003, 4.341037e+001
1.137752e+003, 4.362741e+001
1.138234e+003, 4.381890e+001
1.138717e+003, 4.396738e+001
1.139199e+003, 4.400250e+001
1.139681e+003, 4.388775e+001
1.140163e+003, 4.380055e+001
1.140645e+003, 4.396153e+001
1.141127e+003, 4.426202e+001
1.141609e+003, 4.455736e+001
1.142091e+003, 4.481491e+001
1.142574e+003, 4.490311e+001
1.143056e+003, 4.488301e+001
1.143538e+003, 4.500116e+001
1.144020e+003, 4.532038e+001
1.144502e+003, 4.566150e+001
1.144984e+003, 4.591809e+001
1.145466e+003, 4.609844e+001
1.145948e+003, 4.615401e+001
1.146431e+003, 4.618530e+001
1.146913e+003, 4.630955e+001
1.147395e+003, 4.651123e+001
1.147877e+003, 4.676343e+001
1.148359e+003, 4.704803e+001
1.148841e+003, 4.734325e+001
1.149323e+003, 4.765840e+001
1.149805e+003, 4.787293e+001
1.150287e+003, 4.779680e+001
1.150770e+003, 4.772251e+001
1.151252e+003, 4.791093e+001
1.151734e+003, 4.817284e+001
1.152216e+003, 4.819844e+001
1.152698e+003, 4.814949e+001
1.153180e+003, 4.852549e+001
1.153662e+003, 4.942649e+001
1.154144e+003, 5.005007e+001
1.154626e+003, 4.989305e+001
1.155109e+003, 4.975394e+001
1.155591e+003, 4.996102e+001
1.156073e+003, 5.019460e+001
1.156555e+003, 5.012154e+001
1.157037e+003, 5.004431e+001
1.157519e+003, 5.045989e+001
1.158001e+003, 5.129791e+001
1.158483e+003, 5.188939e+001
1.158966e+003, 5.207716e+001
1.159448e+003, 5.222961e+001
1.159930e+003, 5.230554e+001
1.160412e+003, 5.243716e+001
1.160894e+003, 5.266054e+001
1.161376e+003, 5.295558e+001
1.161858e+003, 5.340421e+001
1.162340e+003, 5.385450e+001
1.162822e+003, 5.390434e+001
1.163305e+003, 5.347158e+001
1.163787e+003, 5.355983e+001
1.164269e+003, 5.440326e+001
1.164751e+003, 5.507980e+001
1.165233e+003, 5.543162e+001
1.165715e+003, 5.571550e+001
1.166197e+003, 5.605852e+001
1.166679e+003, 5.636416e+001
1.167161e+003, 5.649085e+001
1.167644e+003, 5.651419e+001
1.168126e+003, 5.677803e+001
1.168608e+003, 5.729303e+001
1.169090e+003, 5.772278e+001
1.169572e+003, 5.805150e+001
1.170054e+003, 5.828367e+001
1.170536e+003, 5.841669e+001
1.171018e+003, 5.857458e+001
1.171500e+003, 5.884935e+001
1.171983e+003, 5.914817e+001
1.172465e+003, 5.926782e+001
1.172947e+003, 5.931010e+001
1.173429e+003, 5.967449e+001
1.173911e+003, 6.026552e+001
1.174393e+003, 6.070562e+001
1.174875e+003, 6.098224e+001
1.175357e+003, 6.132697e+001
1.175840e+003, 6.182152e+001
1.176322e+003, 6.228751e+001
1.176804e+003, 6.253842e+001
1.177286e+003, 6.278471e+001
1.177768e+003, 6.340882e+001
1.178250e+003, 6.410608e+001
1.178732e+003, 6.436909e+001
1.179214e+003, 6.437993e+001
1.179697e+003, 6.453410e+001
1.180179e+003, 6.487955e+001
1.180661e+003, 6.522912e+001
1.181143e+003, 6.548479e+001
1.181625e+003, 6.590337e+001
1.182107e+003, 6.683549e+001
1.182589e+003, 6.774406e+001
1.183071e+003, 6.819331e+001
1.183553e+003, 6.852300e+001
1.184036e+003, 6.909032e+001
1.184518e+003, 6.977856e+001
1.185000e+003, 7.033167e+001
1.185482e+003, 7.071458e+001
1.185964e+003, 7.103857e+001
1.186446e+003, 7.124720e+001
1.186928e+003, 7.153395e+001
1.187410e+003, 7.190427e+001
1.187892e+003, 7.239363e+001
1.188375e+003, 7.312576e+001
1.188857e+003, 7.388725e+001
1.189339e+003, 7.440525e+001
1.189821e+003, 7.481821e+001
1.190303e+003, 7.555766e+001
1.190785e+003, 7.674008e+001
1.191267e+003, 7.753324e+001
1.191749e+003, 7.776629e+001
1.192232e+003, 7.807391e+001
1.192714e+003, 7.853857e+001
1.193196e+003, 7.914379e+001
1.193678e+003, 7.990625e+001
1.194160e+003, 8.073806e+001
1.194642e+003, 8.155123e+001
1.195124e+003, 8.231255e+001
1.195606e+003, 8.285696e+001
1.196089e+003, 8.319325e+001
1.196571e+003, 8.350996e+001
1.197053e+003, 8.382742e+001
1.197535e+003, 8.445763e+001
1.198017e+003, 8.545811e+001
1.198499e+003, 8.645815e+001
1.198981e+003, 8.722990e+001
1.199463e+003, 8.785130e+001
1.199945e+003, 8.830748e+001
1.200427e+003, 8.877061e+001
1.200910e+003, 8.970105e+001
1.201392e+003, 9.087051e+001
1.201874e+003, 9.171517e+001
1.202356e+003, 9.233080e+001
1.202838e+003, 9.328798e+001
1.203320e+003, 9.465627e+001
1.203802e+003, 9.568098e+001
1.204284e+003, 9.575291e+001
1.204767e+003, 9.587812e+001
1.205249e+003, 9.704856e+001
1.205731e+003, 9.833635e+001
1.206213e+003, 9.880788e+001
1.206695e+003, 9.906101e+001
1.207177e+003, 9.992675e+001
1.207659e+003, 1.012266e+002
1.208141e+003, 1.022700e+002
1.208624e+003, 1.029002e+002
1.209106e+003, 1.036174e+002
1.209588e+003, 1.047792e+002
1.210070e+003, 1.056749e+002
1.210552e+003, 1.058738e+002
1.211034e+003, 1.061188e+002
1.211516e+003, 1.067939e+002
1.211998e+003, 1.076832e+002
1.212480e+003, 1.086353e+002
1.212963e+003, 1.096090e+002
1.213445e+003, 1.104080e+002
1.213927e+003, 1.109386e+002
1.214409e+003, 1.118050e+002
1.214891e+003, 1.131492e+002
1.215373e+003, 1.142361e+002
1.215855e+003, 1.148822e+002
1.216337e+003, 1.154823e+002
1.216819e+003, 1.162378e+002
1.217302e+003, 1.170731e+002
1.217784e+003, 1.179172e+002
1.218266e+003, 1.187319e+002
1.218748e+003, 1.193127e+002
1.219230e+003, 1.197449e+002
1.219712e+003, 1.205632e+002
1.220194e+003, 1.216831e+002
1.220676e+003, 1.224836e+002
1.221159e+003, 1.228676e+002
1.221641e+003, 1.231665e+002
1.222123e+003, 1.235492e+002
1.222605e+003, 1.242048e+002
1.223087e+003, 1.255318e+002
1.223569e+003, 1.270211e+002
1.224051e+003, 1.281028e+002
1.224533e+003, 1.289813e+002
1.225016e+003, 1.298242e+002
1.225498e+003, 1.307084e+002
1.225980e+003, 1.317834e+002
1.226462e+003, 1.330113e+002
1.226944e+003, 1.340907e+002
1.227426e+003, 1.348879e+002
1.227908e+003, 1.355855e+002
1.228390e+003, 1.361176e+002
1.228872e+003, 1.367224e+002
1.229354e+003, 1.375128e+002
1.229837e+003, 1.384021e+002
1.230319e+003, 1.393874e+002
1.230801e+003, 1.403904e+002
1.231283e+003, 1.412084e+002
1.231765e+003, 1.418614e+002
1.232247e+003, 1.429719e+002
1.232729e+003, 1.449168e+002
1.233211e+003, 1.460478e+002
1.233694e+003, 1.459133e+002
1.234176e+003, 1.464404e+002
1.234658e+003, 1.483776e+002
1.235140e+003, 1.503372e+002
1.235622e+003, 1.512948e+002
1.236104e+003, 1.517922e+002
1.236586e+003, 1.526990e+002
1.237068e+003, 1.539692e+002
1.237551e+003, 1.555490e+002
1.238033e+003, 1.573278e+002
1.238515e+003, 1.587928e+002
1.238997e+003, 1.599765e+002
1.239479e+003, 1.612849e+002
1.239961e+003, 1.628501e+002
1.240443e+003, 1.647191e+002
1.240925e+003, 1.670146e+002
1.241407e+003, 1.691366e+002
1.241890e+003, 1.701689e+002
1.242372e+003, 1.711072e+002
1.242854e+003, 1.729535e+002
1.243336e+003, 1.752901e+002
1.243818e+003, 1.778414e+002
1.244300e+003, 1.803368e+002
1.244782e+003, 1.821697e+002
1.245264e+003, 1.833446e+002
1.245746e+003, 1.850565e+002
1.246229e+003, 1.879906e+002
1.246711e+003, 1.907732e+002
1.247193e+003, 1.932032e+002
1.247675e+003, 1.954099e+002
1.248157e+003, 1.971591e+002
1.248639e+003, 1.990359e+002
1.249121e+003, 2.014453e+002
1.249603e+003, 2.042515e+002
1.250085e+003, 2.072533e+002
1.250568e+003, 2.104380e+002
1.251050e+003, 2.137295e+002
1.251532e+003, 2.171620e+002
1.252014e+003, 2.203004e+002
1.252496e+003, 2.231179e+002
1.252978e+003, 2.257082e+002
1.253460e+003, 2.281023e+002
1.253942e+003, 2.304589e+002
1.254425e+003, 2.328539e+002
1.254907e+003, 2.354635e+002
1.255389e+003, 2.386178e+002
1.255871e+003, 2.420457e+002
1.256353e+003, 2.451578e+002
1.256835e+003, 2.481806e+002
1.257317e+003, 2.514832e+002
1.257799e+003, 2.550245e+002
1.258281e+003, 2.587119e+002
1.258764e+003, 2.624478e+002
1.259246e+003, 2.660166e+002
1.259728e+003, 2.693578e+002
1.260210e+003, 2.723586e+002
1.260692e+003, 2.744202e+002
1.261174e+003, 2.768463e+002
1.261656e+003, 2.806677e+002
1.262138e+003, 2.846879e+002
1.262620e+003, 2.878930e+002
1.263103e+003, 2.907515e+002
1.263585e+003, 2.940762e+002
1.264067e+003, 2.978177e+002
1.264549e+003, 3.013239e+002
1.265031e+003, 3.045740e+002
1.265513e+003, 3.076407e+002
1.265995e+003, 3.104364e+002
1.266477e+003, 3.134487e+002
1.266960e+003, 3.168618e+002
1.267442e+003, 3.198706e+002
1.267924e+003, 3.219550e+002
1.268406e+003, 3.241553e+002
1.268888e+003, 3.279755e+002
1.269370e+003, 3.323771e+002
1.269852e+003, 3.346634e+002
1.270334e+003, 3.357660e+002
1.270817e+003, 3.380703e+002
1.271299e+003, 3.412921e+002
1.271781e+003, 3.443638e+002
1.272263e+003, 3.470928e+002
1.272745e+003, 3.496836e+002
1.273227e+003, 3.522107e+002
1.273709e+003, 3.546339e+002
1.274191e+003, 3.568931e+002
1.274673e+003, 3.591138e+002
1.275156e+003, 3.614769e+002
1.275638e+003, 3.637165e+002
1.276120e+003, 3.653122e+002
1.276602e+003, 3.669748e+002
1.277084e+003, 3.698941e+002
1.277566e+003, 3.735124e+002
1.278048e+003, 3.757748e+002
1.278530e+003, 3.764417e+002
1.279012e+003, 3.780711e+002
1.279495e+003, 3.811429e+002
1.279977e+003, 3.832394e+002
1.280459e+003, 3.838878e+002
1.280941e+003, 3.848168e+002
1.281423e+003, 3.866629e+002
1.281905e+003, 3.888750e+002
1.282387e+003, 3.910883e+002
1.282869e+003, 3.931172e+002
1.283352e+003, 3.944937e+002
1.283834e+003, 3.954848e+002
1.284316e+003, 3.966268e+002
1.284798e+003, 3.979398e+002
##END=



