##NAMES=Quartz
##RRUFFID=R150074
##IDEAL CHEMISTRY=SiO_2_
##LOCALITY=Selvino, Bergamo, Italy
##OWNER=RRUFF
##SOURCE=UAMM 9180
##DESCRIPTION=Colorless doubly terminated crystals
##STATUS=The identification of this mineral has been determined only by Raman spectroscopy
##URL=rruff.info/R150074
9.059570e+001, 5.438640e+002
9.107782e+001, 5.456610e+002
9.155994e+001, 5.463267e+002
9.204205e+001, 5.450880e+002
9.252417e+001, 5.432388e+002
9.300629e+001, 5.411510e+002
9.348840e+001, 5.362153e+002
9.397052e+001, 5.253978e+002
9.445264e+001, 5.082885e+002
9.493475e+001, 4.919630e+002
9.541687e+001, 4.769222e+002
9.589898e+001, 4.635300e+002
9.638110e+001, 4.514287e+002
9.686321e+001, 4.403111e+002
9.734533e+001, 4.297114e+002
9.782745e+001, 4.188356e+002
9.830956e+001, 4.091589e+002
9.879168e+001, 4.008618e+002
9.927380e+001, 3.931985e+002
9.975591e+001, 3.858908e+002
1.002380e+002, 3.789052e+002
1.007201e+002, 3.723975e+002
1.012023e+002, 3.664846e+002
1.016844e+002, 3.610941e+002
1.021665e+002, 3.557902e+002
1.026486e+002, 3.497362e+002
1.031307e+002, 3.441942e+002
1.036128e+002, 3.404588e+002
1.040950e+002, 3.386414e+002
1.045771e+002, 3.377124e+002
1.050592e+002, 3.371373e+002
1.055413e+002, 3.368351e+002
1.060234e+002, 3.367680e+002
1.065055e+002, 3.366038e+002
1.069877e+002, 3.365849e+002
1.074698e+002, 3.378841e+002
1.079519e+002, 3.416756e+002
1.084340e+002, 3.453765e+002
1.089161e+002, 3.483865e+002
1.093982e+002, 3.505206e+002
1.098804e+002, 3.514238e+002
1.103625e+002, 3.503454e+002
1.108446e+002, 3.466040e+002
1.113267e+002, 3.444871e+002
1.118088e+002, 3.446664e+002
1.122909e+002, 3.457278e+002
1.127731e+002, 3.471172e+002
1.132552e+002, 3.487159e+002
1.137373e+002, 3.506897e+002
1.142194e+002, 3.532049e+002
1.147015e+002, 3.559156e+002
1.151836e+002, 3.601543e+002
1.156658e+002, 3.664798e+002
1.161479e+002, 3.739896e+002
1.166300e+002, 3.818929e+002
1.171121e+002, 3.899399e+002
1.175942e+002, 3.981896e+002
1.180763e+002, 4.065929e+002
1.185584e+002, 4.142357e+002
1.190406e+002, 4.236398e+002
1.195227e+002, 4.353107e+002
1.200048e+002, 4.492350e+002
1.204869e+002, 4.654116e+002
1.209690e+002, 4.834322e+002
1.214511e+002, 5.044801e+002
1.219333e+002, 5.290000e+002
1.224154e+002, 5.563090e+002
1.228975e+002, 5.881540e+002
1.233796e+002, 6.251185e+002
1.238617e+002, 6.670674e+002
1.243438e+002, 7.158891e+002
1.248260e+002, 7.717473e+002
1.253081e+002, 8.352278e+002
1.257902e+002, 9.097080e+002
1.262723e+002, 9.975908e+002
1.267544e+002, 1.094709e+003
1.272365e+002, 1.193405e+003
1.277187e+002, 1.305505e+003
1.282008e+002, 1.397557e+003
1.286829e+002, 1.478110e+003
1.291650e+002, 1.533753e+003
1.296471e+002, 1.544964e+003
1.301292e+002, 1.496811e+003
1.306114e+002, 1.392291e+003
1.310935e+002, 1.274473e+003
1.315756e+002, 1.117955e+003
1.320577e+002, 9.710978e+002
1.325398e+002, 8.435109e+002
1.330219e+002, 7.355780e+002
1.335041e+002, 6.453682e+002
1.339862e+002, 5.712957e+002
1.344683e+002, 5.145994e+002
1.349504e+002, 4.687160e+002
1.354325e+002, 4.351794e+002
1.359146e+002, 4.086129e+002
1.363968e+002, 3.873167e+002
1.368789e+002, 3.706170e+002
1.373610e+002, 3.572390e+002
1.378431e+002, 3.462853e+002
1.383252e+002, 3.381221e+002
1.388073e+002, 3.311566e+002
1.392895e+002, 3.256124e+002
1.397716e+002, 3.210829e+002
1.402537e+002, 3.171451e+002
1.407358e+002, 3.137508e+002
1.412179e+002, 3.108612e+002
1.417000e+002, 3.086466e+002
1.421821e+002, 3.070429e+002
1.426643e+002, 3.054469e+002
1.431464e+002, 3.036381e+002
1.436285e+002, 3.016477e+002
1.441106e+002, 2.995315e+002
1.445927e+002, 2.970965e+002
1.450748e+002, 2.947999e+002
1.455570e+002, 2.930996e+002
1.460391e+002, 2.919970e+002
1.465212e+002, 2.909321e+002
1.470033e+002, 2.895065e+002
1.474854e+002, 2.877179e+002
1.479675e+002, 2.855557e+002
1.484497e+002, 2.824573e+002
1.489318e+002, 2.793010e+002
1.494139e+002, 2.766060e+002
1.498960e+002, 2.744802e+002
1.503781e+002, 2.725713e+002
1.508602e+002, 2.703936e+002
1.513424e+002, 2.678369e+002
1.518245e+002, 2.651830e+002
1.523066e+002, 2.624344e+002
1.527887e+002, 2.596317e+002
1.532708e+002, 2.566828e+002
1.537529e+002, 2.535866e+002
1.542351e+002, 2.505379e+002
1.547172e+002, 2.480511e+002
1.551993e+002, 2.470182e+002
1.556814e+002, 2.455113e+002
1.561635e+002, 2.431942e+002
1.566456e+002, 2.404315e+002
1.571278e+002, 2.375170e+002
1.576099e+002, 2.345515e+002
1.580920e+002, 2.317384e+002
1.585741e+002, 2.300382e+002
1.590562e+002, 2.301643e+002
1.595383e+002, 2.304107e+002
1.600205e+002, 2.301728e+002
1.605026e+002, 2.297357e+002
1.609847e+002, 2.298356e+002
1.614668e+002, 2.310094e+002
1.619489e+002, 2.329937e+002
1.624310e+002, 2.344844e+002
1.629131e+002, 2.349061e+002
1.633953e+002, 2.354134e+002
1.638774e+002, 2.368011e+002
1.643595e+002, 2.389890e+002
1.648416e+002, 2.411345e+002
1.653237e+002, 2.425140e+002
1.658058e+002, 2.435547e+002
1.662880e+002, 2.452409e+002
1.667701e+002, 2.480415e+002
1.672522e+002, 2.512514e+002
1.677343e+002, 2.540221e+002
1.682164e+002, 2.562393e+002
1.686985e+002, 2.585404e+002
1.691807e+002, 2.612951e+002
1.696628e+002, 2.643391e+002
1.701449e+002, 2.675457e+002
1.706270e+002, 2.709038e+002
1.711091e+002, 2.743603e+002
1.715912e+002, 2.778240e+002
1.720734e+002, 2.813997e+002
1.725555e+002, 2.847669e+002
1.730376e+002, 2.874572e+002
1.735197e+002, 2.899774e+002
1.740018e+002, 2.930521e+002
1.744839e+002, 2.970787e+002
1.749661e+002, 3.019984e+002
1.754482e+002, 3.074596e+002
1.759303e+002, 3.141790e+002
1.764124e+002, 3.206702e+002
1.768945e+002, 3.260800e+002
1.773766e+002, 3.309973e+002
1.778588e+002, 3.363851e+002
1.783409e+002, 3.429824e+002
1.788230e+002, 3.508120e+002
1.793051e+002, 3.589976e+002
1.797872e+002, 3.676990e+002
1.802693e+002, 3.766028e+002
1.807515e+002, 3.854528e+002
1.812336e+002, 3.944033e+002
1.817157e+002, 4.037790e+002
1.821978e+002, 4.139320e+002
1.826799e+002, 4.249772e+002
1.831620e+002, 4.356212e+002
1.836441e+002, 4.451869e+002
1.841263e+002, 4.550234e+002
1.846084e+002, 4.654261e+002
1.850905e+002, 4.765667e+002
1.855726e+002, 4.888315e+002
1.860547e+002, 5.025333e+002
1.865368e+002, 5.178817e+002
1.870190e+002, 5.341530e+002
1.875011e+002, 5.517396e+002
1.879832e+002, 5.697816e+002
1.884653e+002, 5.873588e+002
1.889474e+002, 6.043568e+002
1.894296e+002, 6.220406e+002
1.899117e+002, 6.418698e+002
1.903938e+002, 6.637721e+002
1.908759e+002, 6.858294e+002
1.913580e+002, 7.073531e+002
1.918401e+002, 7.290566e+002
1.923223e+002, 7.517697e+002
1.928044e+002, 7.756278e+002
1.932865e+002, 8.005128e+002
1.937686e+002, 8.265392e+002
1.942507e+002, 8.535548e+002
1.947328e+002, 8.814742e+002
1.952150e+002, 9.110765e+002
1.956971e+002, 9.415268e+002
1.961792e+002, 9.710162e+002
1.966613e+002, 9.987087e+002
1.971434e+002, 1.026994e+003
1.976255e+002, 1.057942e+003
1.981077e+002, 1.090967e+003
1.985898e+002, 1.124101e+003
1.990719e+002, 1.157079e+003
1.995540e+002, 1.189689e+003
2.000361e+002, 1.220539e+003
2.005182e+002, 1.248953e+003
2.010004e+002, 1.276499e+003
2.014825e+002, 1.304429e+003
2.019646e+002, 1.332260e+003
2.024467e+002, 1.358482e+003
2.029288e+002, 1.382166e+003
2.034109e+002, 1.403391e+003
2.038930e+002, 1.422598e+003
2.043752e+002, 1.440506e+003
2.048573e+002, 1.455078e+003
2.053394e+002, 1.465766e+003
2.058215e+002, 1.472587e+003
2.063036e+002, 1.475770e+003
2.067857e+002, 1.475375e+003
2.072679e+002, 1.471379e+003
2.077500e+002, 1.464261e+003
2.082321e+002, 1.453556e+003
2.087142e+002, 1.439867e+003
2.091963e+002, 1.422509e+003
2.096784e+002, 1.402096e+003
2.101606e+002, 1.380064e+003
2.106427e+002, 1.357764e+003
2.111248e+002, 1.335623e+003
2.116069e+002, 1.310437e+003
2.120890e+002, 1.281387e+003
2.125711e+002, 1.250499e+003
2.130533e+002, 1.217757e+003
2.135354e+002, 1.183688e+003
2.140175e+002, 1.148916e+003
2.144996e+002, 1.113958e+003
2.149817e+002, 1.078626e+003
2.154638e+002, 1.044229e+003
2.159460e+002, 1.011322e+003
2.164281e+002, 9.785572e+002
2.169102e+002, 9.445777e+002
2.173923e+002, 9.098307e+002
2.178744e+002, 8.757054e+002
2.183565e+002, 8.436580e+002
2.188387e+002, 8.139547e+002
2.193208e+002, 7.850950e+002
2.198029e+002, 7.564565e+002
2.202850e+002, 7.289002e+002
2.207671e+002, 7.029820e+002
2.212492e+002, 6.786808e+002
2.217314e+002, 6.555183e+002
2.222135e+002, 6.330281e+002
2.226956e+002, 6.113633e+002
2.231777e+002, 5.912518e+002
2.236598e+002, 5.733141e+002
2.241419e+002, 5.564092e+002
2.246240e+002, 5.396234e+002
2.251062e+002, 5.229115e+002
2.255883e+002, 5.072623e+002
2.260704e+002, 4.939082e+002
2.265525e+002, 4.826158e+002
2.270346e+002, 4.705870e+002
2.275167e+002, 4.568736e+002
2.279989e+002, 4.428696e+002
2.284810e+002, 4.299025e+002
2.289631e+002, 4.180612e+002
2.294452e+002, 4.069716e+002
2.299273e+002, 3.966601e+002
2.304094e+002, 3.869990e+002
2.308916e+002, 3.775512e+002
2.313737e+002, 3.681089e+002
2.318558e+002, 3.589652e+002
2.323379e+002, 3.505381e+002
2.328200e+002, 3.428947e+002
2.333021e+002, 3.355059e+002
2.337843e+002, 3.279423e+002
2.342664e+002, 3.204127e+002
2.347485e+002, 3.132744e+002
2.352306e+002, 3.067365e+002
2.357127e+002, 3.005292e+002
2.361948e+002, 2.941312e+002
2.366770e+002, 2.873417e+002
2.371591e+002, 2.810566e+002
2.376412e+002, 2.759203e+002
2.381233e+002, 2.714660e+002
2.386054e+002, 2.672822e+002
2.390875e+002, 2.633699e+002
2.395697e+002, 2.594874e+002
2.400518e+002, 2.551646e+002
2.405339e+002, 2.501490e+002
2.410160e+002, 2.454531e+002
2.414981e+002, 2.415698e+002
2.419802e+002, 2.381333e+002
2.424624e+002, 2.347962e+002
2.429445e+002, 2.314052e+002
2.434266e+002, 2.282160e+002
2.439087e+002, 2.257092e+002
2.443908e+002, 2.240518e+002
2.448729e+002, 2.226566e+002
2.453550e+002, 2.217409e+002
2.458372e+002, 2.208078e+002
2.463193e+002, 2.193262e+002
2.468014e+002, 2.170876e+002
2.472835e+002, 2.145674e+002
2.477656e+002, 2.126059e+002
2.482477e+002, 2.115216e+002
2.487299e+002, 2.102482e+002
2.492120e+002, 2.086076e+002
2.496941e+002, 2.067354e+002
2.501762e+002, 2.046103e+002
2.506583e+002, 2.022415e+002
2.511404e+002, 1.999108e+002
2.516226e+002, 1.981239e+002
2.521047e+002, 1.972079e+002
2.525868e+002, 1.961264e+002
2.530689e+002, 1.943556e+002
2.535510e+002, 1.926844e+002
2.540331e+002, 1.917375e+002
2.545153e+002, 1.916464e+002
2.549974e+002, 1.919982e+002
2.554795e+002, 1.921619e+002
2.559616e+002, 1.919707e+002
2.564437e+002, 1.919583e+002
2.569258e+002, 1.917714e+002
2.574080e+002, 1.919735e+002
2.578901e+002, 1.929892e+002
2.583722e+002, 1.948665e+002
2.588543e+002, 1.972975e+002
2.593364e+002, 1.998188e+002
2.598185e+002, 2.020993e+002
2.603007e+002, 2.054169e+002
2.607828e+002, 2.095772e+002
2.612649e+002, 2.146942e+002
2.617470e+002, 2.208291e+002
2.622291e+002, 2.280044e+002
2.627112e+002, 2.361572e+002
2.631934e+002, 2.453543e+002
2.636755e+002, 2.559380e+002
2.641576e+002, 2.663855e+002
2.646397e+002, 2.793242e+002
2.651218e+002, 2.900131e+002
2.656039e+002, 2.965482e+002
2.660861e+002, 2.984384e+002
2.665682e+002, 2.954303e+002
2.670503e+002, 2.869647e+002
2.675324e+002, 2.724103e+002
2.680145e+002, 2.558051e+002
2.684966e+002, 2.347882e+002
2.689788e+002, 2.142923e+002
2.694609e+002, 1.963443e+002
2.699430e+002, 1.811093e+002
2.704251e+002, 1.681528e+002
2.709072e+002, 1.572040e+002
2.713893e+002, 1.483691e+002
2.718715e+002, 1.407991e+002
2.723536e+002, 1.345629e+002
2.728357e+002, 1.292202e+002
2.733178e+002, 1.247876e+002
2.737999e+002, 1.211322e+002
2.742820e+002, 1.180160e+002
2.747642e+002, 1.153002e+002
2.752463e+002, 1.129751e+002
2.757284e+002, 1.110233e+002
2.762105e+002, 1.096236e+002
2.766926e+002, 1.082972e+002
2.771747e+002, 1.069388e+002
2.776568e+002, 1.055262e+002
2.781389e+002, 1.039846e+002
2.786211e+002, 1.022224e+002
2.791032e+002, 1.003723e+002
2.795853e+002, 9.903318e+001
2.800674e+002, 9.859654e+001
2.805495e+002, 9.809386e+001
2.810316e+002, 9.715154e+001
2.815138e+002, 9.599648e+001
2.819959e+002, 9.508047e+001
2.824780e+002, 9.463550e+001
2.829601e+002, 9.441811e+001
2.834422e+002, 9.378030e+001
2.839243e+002, 9.245374e+001
2.844065e+002, 9.127984e+001
2.848886e+002, 9.056581e+001
2.853707e+002, 9.007076e+001
2.858528e+002, 8.938746e+001
2.863349e+002, 8.835475e+001
2.868170e+002, 8.726890e+001
2.872992e+002, 8.670940e+001
2.877813e+002, 8.692536e+001
2.882634e+002, 8.678711e+001
2.887455e+002, 8.574741e+001
2.892276e+002, 8.441122e+001
2.897097e+002, 8.357982e+001
2.901919e+002, 8.344788e+001
2.906740e+002, 8.352013e+001
2.911561e+002, 8.315329e+001
2.916382e+002, 8.226603e+001
2.921203e+002, 8.159521e+001
2.926024e+002, 8.143221e+001
2.930846e+002, 8.139340e+001
2.935667e+002, 8.102097e+001
2.940488e+002, 8.026327e+001
2.945309e+002, 7.958684e+001
2.950130e+002, 7.953300e+001
2.954951e+002, 8.009978e+001
2.959773e+002, 8.019197e+001
2.964594e+002, 7.931391e+001
2.969415e+002, 7.827892e+001
2.974236e+002, 7.773424e+001
2.979057e+002, 7.768216e+001
2.983878e+002, 7.774219e+001
2.988700e+002, 7.769695e+001
2.993521e+002, 7.753320e+001
2.998342e+002, 7.726752e+001
3.003163e+002, 7.683506e+001
3.007984e+002, 7.636459e+001
3.012805e+002, 7.588232e+001
3.017627e+002, 7.540830e+001
3.022448e+002, 7.503255e+001
3.027269e+002, 7.483289e+001
3.032090e+002, 7.474152e+001
3.036911e+002, 7.455404e+001
3.041732e+002, 7.427209e+001
3.046554e+002, 7.390812e+001
3.051375e+002, 7.332201e+001
3.056196e+002, 7.264764e+001
3.061017e+002, 7.228471e+001
3.065838e+002, 7.246523e+001
3.070659e+002, 7.287657e+001
3.075481e+002, 7.285811e+001
3.080302e+002, 7.228698e+001
3.085123e+002, 7.186696e+001
3.089944e+002, 7.204996e+001
3.094765e+002, 7.248592e+001
3.099586e+002, 7.249650e+001
3.104408e+002, 7.184418e+001
3.109229e+002, 7.102743e+001
3.114050e+002, 7.074730e+001
3.118871e+002, 7.100661e+001
3.123692e+002, 7.125542e+001
3.128513e+002, 7.140600e+001
3.133335e+002, 7.148150e+001
3.138156e+002, 7.147262e+001
3.142977e+002, 7.137255e+001
3.147798e+002, 7.131591e+001
3.152619e+002, 7.151295e+001
3.157440e+002, 7.192486e+001
3.162262e+002, 7.202117e+001
3.167083e+002, 7.147215e+001
3.171904e+002, 7.079418e+001
3.176725e+002, 7.039443e+001
3.181546e+002, 7.027942e+001
3.186367e+002, 7.029176e+001
3.191188e+002, 7.035540e+001
3.196010e+002, 7.046489e+001
3.200831e+002, 7.057956e+001
3.205652e+002, 7.084362e+001
3.210473e+002, 7.097314e+001
3.215294e+002, 7.066528e+001
3.220115e+002, 7.005586e+001
3.224937e+002, 6.965475e+001
3.229758e+002, 6.976860e+001
3.234579e+002, 7.015554e+001
3.239400e+002, 7.016580e+001
3.244221e+002, 6.959233e+001
3.249042e+002, 6.915805e+001
3.253864e+002, 6.933118e+001
3.258685e+002, 6.978756e+001
3.263506e+002, 6.985310e+001
3.268327e+002, 6.925889e+001
3.273148e+002, 6.843173e+001
3.277969e+002, 6.805202e+001
3.282791e+002, 6.817184e+001
3.287612e+002, 6.830457e+001
3.292433e+002, 6.823193e+001
3.297254e+002, 6.818755e+001
3.302075e+002, 6.855783e+001
3.306896e+002, 6.940966e+001
3.311718e+002, 7.023331e+001
3.316539e+002, 7.045721e+001
3.321360e+002, 7.002213e+001
3.326181e+002, 6.985995e+001
3.331002e+002, 7.011452e+001
3.335823e+002, 7.056345e+001
3.340645e+002, 7.103638e+001
3.345466e+002, 7.153757e+001
3.350287e+002, 7.220896e+001
3.355108e+002, 7.318887e+001
3.359929e+002, 7.442783e+001
3.364750e+002, 7.550620e+001
3.369572e+002, 7.611440e+001
3.374393e+002, 7.691209e+001
3.379214e+002, 7.829031e+001
3.384035e+002, 8.007694e+001
3.388856e+002, 8.189624e+001
3.393677e+002, 8.361478e+001
3.398499e+002, 8.516414e+001
3.403320e+002, 8.628799e+001
3.408141e+002, 8.669486e+001
3.412962e+002, 8.726805e+001
3.417783e+002, 8.824745e+001
3.422604e+002, 8.945911e+001
3.427426e+002, 9.062163e+001
3.432247e+002, 9.164915e+001
3.437068e+002, 9.278771e+001
3.441889e+002, 9.437071e+001
3.446710e+002, 9.650792e+001
3.451531e+002, 9.890971e+001
3.456353e+002, 1.014822e+002
3.461174e+002, 1.043666e+002
3.465995e+002, 1.076936e+002
3.470816e+002, 1.114412e+002
3.475637e+002, 1.154871e+002
3.480458e+002, 1.195777e+002
3.485280e+002, 1.236992e+002
3.490101e+002, 1.291552e+002
3.494922e+002, 1.358244e+002
3.499743e+002, 1.436702e+002
3.504564e+002, 1.522671e+002
3.509385e+002, 1.619582e+002
3.514207e+002, 1.733978e+002
3.519028e+002, 1.868161e+002
3.523849e+002, 2.024420e+002
3.528670e+002, 2.216545e+002
3.533491e+002, 2.455571e+002
3.538312e+002, 2.715788e+002
3.543134e+002, 3.021069e+002
3.547955e+002, 3.335063e+002
3.552776e+002, 3.642361e+002
3.557597e+002, 3.933076e+002
3.562418e+002, 4.155070e+002
3.567239e+002, 4.221908e+002
3.572061e+002, 4.097485e+002
3.576882e+002, 3.864443e+002
3.581703e+002, 3.452466e+002
3.586524e+002, 2.995090e+002
3.591345e+002, 2.559155e+002
3.596166e+002, 2.163560e+002
3.600987e+002, 1.822798e+002
3.605808e+002, 1.550517e+002
3.610630e+002, 1.349952e+002
3.615451e+002, 1.190008e+002
3.620272e+002, 1.087316e+002
3.625093e+002, 1.005065e+002
3.629914e+002, 9.362894e+001
3.634735e+002, 8.785007e+001
3.639557e+002, 8.317623e+001
3.644378e+002, 7.963306e+001
3.649199e+002, 7.706620e+001
3.654020e+002, 7.481994e+001
3.658841e+002, 7.282518e+001
3.663662e+002, 7.131557e+001
3.668484e+002, 7.061716e+001
3.673305e+002, 7.023924e+001
3.678126e+002, 6.969836e+001
3.682947e+002, 6.884636e+001
3.687768e+002, 6.788876e+001
3.692589e+002, 6.712237e+001
3.697411e+002, 6.655052e+001
3.702232e+002, 6.618169e+001
3.707053e+002, 6.625381e+001
3.711874e+002, 6.631524e+001
3.716695e+002, 6.599597e+001
3.721516e+002, 6.538807e+001
3.726338e+002, 6.495064e+001
3.731159e+002, 6.519749e+001
3.735980e+002, 6.609588e+001
3.740801e+002, 6.652694e+001
3.745622e+002, 6.598647e+001
3.750443e+002, 6.558633e+001
3.755265e+002, 6.569180e+001
3.760086e+002, 6.616630e+001
3.764907e+002, 6.681999e+001
3.769728e+002, 6.760413e+001
3.774549e+002, 6.842008e+001
3.779370e+002, 6.903245e+001
3.784192e+002, 6.936846e+001
3.789013e+002, 6.970544e+001
3.793834e+002, 7.023792e+001
3.798655e+002, 7.073087e+001
3.803476e+002, 7.086741e+001
3.808297e+002, 7.059507e+001
3.813119e+002, 7.045774e+001
3.817940e+002, 7.110812e+001
3.822761e+002, 7.252971e+001
3.827582e+002, 7.384870e+001
3.832403e+002, 7.493456e+001
3.837224e+002, 7.591066e+001
3.842046e+002, 7.665765e+001
3.846867e+002, 7.732067e+001
3.851688e+002, 7.843708e+001
3.856509e+002, 8.058208e+001
3.861330e+002, 8.332076e+001
3.866151e+002, 8.557152e+001
3.870973e+002, 8.712048e+001
3.875794e+002, 8.892103e+001
3.880615e+002, 9.118192e+001
3.885436e+002, 9.416323e+001
3.890257e+002, 9.835546e+001
3.895078e+002, 1.039029e+002
3.899900e+002, 1.105888e+002
3.904721e+002, 1.179620e+002
3.909542e+002, 1.261730e+002
3.914363e+002, 1.362457e+002
3.919184e+002, 1.487880e+002
3.924005e+002, 1.631010e+002
3.928827e+002, 1.787298e+002
3.933648e+002, 1.958888e+002
3.938469e+002, 2.117417e+002
3.943290e+002, 2.285628e+002
3.948111e+002, 2.422842e+002
3.952932e+002, 2.457919e+002
3.957754e+002, 2.377960e+002
3.962575e+002, 2.226345e+002
3.967396e+002, 2.014930e+002
3.972217e+002, 1.751496e+002
3.977038e+002, 1.528766e+002
3.981859e+002, 1.350070e+002
3.986681e+002, 1.211358e+002
3.991501e+002, 1.116709e+002
3.996323e+002, 1.060940e+002
4.001144e+002, 1.028559e+002
4.005965e+002, 1.013970e+002
4.010786e+002, 1.014333e+002
4.015607e+002, 1.023164e+002
4.020428e+002, 1.043593e+002
4.025250e+002, 1.065395e+002
4.030071e+002, 1.092655e+002
4.034892e+002, 1.117737e+002
4.039713e+002, 1.134005e+002
4.044534e+002, 1.139322e+002
4.049355e+002, 1.130232e+002
4.054177e+002, 1.100895e+002
4.058998e+002, 1.046622e+002
4.063819e+002, 9.949717e+001
4.068640e+002, 9.426442e+001
4.073461e+002, 8.958251e+001
4.078282e+002, 8.575306e+001
4.083104e+002, 8.271335e+001
4.087925e+002, 8.022800e+001
4.092746e+002, 7.812086e+001
4.097567e+002, 7.645195e+001
4.102388e+002, 7.546349e+001
4.107209e+002, 7.581621e+001
4.112031e+002, 7.603665e+001
4.116852e+002, 7.589874e+001
4.121673e+002, 7.563398e+001
4.126494e+002, 7.546636e+001
4.131315e+002, 7.545397e+001
4.136136e+002, 7.550515e+001
4.140958e+002, 7.549216e+001
4.145779e+002, 7.538441e+001
4.150600e+002, 7.533585e+001
4.155421e+002, 7.520664e+001
4.160242e+002, 7.527336e+001
4.165063e+002, 7.570589e+001
4.169885e+002, 7.643182e+001
4.174706e+002, 7.729695e+001
4.179527e+002, 7.828857e+001
4.184348e+002, 7.927486e+001
4.189169e+002, 7.972758e+001
4.193990e+002, 7.928844e+001
4.198812e+002, 7.911065e+001
4.203633e+002, 7.972137e+001
4.208454e+002, 8.064212e+001
4.213275e+002, 8.148239e+001
4.218096e+002, 8.215071e+001
4.222917e+002, 8.268697e+001
4.227739e+002, 8.305064e+001
4.232560e+002, 8.325603e+001
4.237381e+002, 8.364193e+001
4.242202e+002, 8.437192e+001
4.247023e+002, 8.513644e+001
4.251844e+002, 8.568106e+001
4.256666e+002, 8.605692e+001
4.261487e+002, 8.645356e+001
4.266308e+002, 8.685261e+001
4.271129e+002, 8.736288e+001
4.275950e+002, 8.819082e+001
4.280771e+002, 8.935715e+001
4.285593e+002, 9.058228e+001
4.290414e+002, 9.176756e+001
4.295235e+002, 9.288596e+001
4.300056e+002, 9.383930e+001
4.304877e+002, 9.442469e+001
4.309698e+002, 9.530972e+001
4.314520e+002, 9.700999e+001
4.319341e+002, 9.920908e+001
4.324162e+002, 1.013184e+002
4.328983e+002, 1.031900e+002
4.333804e+002, 1.048935e+002
4.338625e+002, 1.064102e+002
4.343447e+002, 1.076787e+002
4.348268e+002, 1.094012e+002
4.353089e+002, 1.116583e+002
4.357910e+002, 1.143264e+002
4.362731e+002, 1.175113e+002
4.367552e+002, 1.210637e+002
4.372374e+002, 1.244986e+002
4.377195e+002, 1.274788e+002
4.382016e+002, 1.302341e+002
4.386837e+002, 1.335984e+002
4.391658e+002, 1.377964e+002
4.396479e+002, 1.423501e+002
4.401301e+002, 1.470052e+002
4.406122e+002, 1.521156e+002
4.410943e+002, 1.578926e+002
4.415764e+002, 1.644060e+002
4.420585e+002, 1.718042e+002
4.425406e+002, 1.801907e+002
4.430227e+002, 1.895808e+002
4.435049e+002, 2.000098e+002
4.439870e+002, 2.115062e+002
4.444691e+002, 2.240176e+002
4.449512e+002, 2.370491e+002
4.454333e+002, 2.511145e+002
4.459154e+002, 2.672496e+002
4.463976e+002, 2.859087e+002
4.468797e+002, 3.066833e+002
4.473618e+002, 3.287115e+002
4.478439e+002, 3.519812e+002
4.483260e+002, 3.765180e+002
4.488081e+002, 4.029217e+002
4.492903e+002, 4.303385e+002
4.497724e+002, 4.582734e+002
4.502545e+002, 4.867298e+002
4.507366e+002, 5.161778e+002
4.512187e+002, 5.464642e+002
4.517008e+002, 5.779437e+002
4.521830e+002, 6.112462e+002
4.526651e+002, 6.459091e+002
4.531472e+002, 6.831950e+002
4.536293e+002, 7.223206e+002
4.541114e+002, 7.649501e+002
4.545935e+002, 8.143807e+002
4.550757e+002, 8.713978e+002
4.555578e+002, 9.347747e+002
4.560399e+002, 1.002637e+003
4.565220e+002, 1.075697e+003
4.570041e+002, 1.157773e+003
4.574862e+002, 1.249208e+003
4.579684e+002, 1.351932e+003
4.584505e+002, 1.469080e+003
4.589326e+002, 1.599204e+003
4.594147e+002, 1.745287e+003
4.598968e+002, 1.906802e+003
4.603789e+002, 2.084837e+003
4.608611e+002, 2.281306e+003
4.613432e+002, 2.495625e+003
4.618253e+002, 2.725722e+003
4.623074e+002, 2.974178e+003
4.627895e+002, 3.235426e+003
4.632716e+002, 3.492586e+003
4.637538e+002, 3.774897e+003
4.642359e+002, 4.015737e+003
4.647180e+002, 4.225637e+003
4.652001e+002, 4.382898e+003
4.656822e+002, 4.467904e+003
4.661643e+002, 4.476052e+003
4.666465e+002, 4.407972e+003
4.671286e+002, 4.260599e+003
4.676107e+002, 4.027082e+003
4.680928e+002, 3.766554e+003
4.685749e+002, 3.450695e+003
4.690570e+002, 3.137298e+003
4.695392e+002, 2.832789e+003
4.700213e+002, 2.543532e+003
4.705034e+002, 2.278126e+003
4.709855e+002, 2.040018e+003
4.714676e+002, 1.828176e+003
4.719497e+002, 1.642274e+003
4.724319e+002, 1.484580e+003
4.729140e+002, 1.343901e+003
4.733961e+002, 1.223792e+003
4.738782e+002, 1.118191e+003
4.743603e+002, 1.025675e+003
4.748424e+002, 9.456435e+002
4.753246e+002, 8.743300e+002
4.758067e+002, 8.108886e+002
4.762888e+002, 7.547986e+002
4.767709e+002, 7.046240e+002
4.772530e+002, 6.607950e+002
4.777351e+002, 6.214758e+002
4.782173e+002, 5.866805e+002
4.786994e+002, 5.557833e+002
4.791815e+002, 5.276654e+002
4.796636e+002, 5.025502e+002
4.801457e+002, 4.794100e+002
4.806278e+002, 4.578598e+002
4.811100e+002, 4.379263e+002
4.815920e+002, 4.198091e+002
4.820742e+002, 4.035810e+002
4.825563e+002, 3.883408e+002
4.830384e+002, 3.731129e+002
4.835205e+002, 3.580238e+002
4.840026e+002, 3.444517e+002
4.844847e+002, 3.330398e+002
4.849669e+002, 3.223674e+002
4.854490e+002, 3.117963e+002
4.859311e+002, 3.015296e+002
4.864132e+002, 2.919684e+002
4.868953e+002, 2.832294e+002
4.873774e+002, 2.752368e+002
4.878596e+002, 2.679875e+002
4.883417e+002, 2.617216e+002
4.888238e+002, 2.554202e+002
4.893059e+002, 2.488133e+002
4.897880e+002, 2.424467e+002
4.902701e+002, 2.366874e+002
4.907523e+002, 2.314032e+002
4.912344e+002, 2.262381e+002
4.917165e+002, 2.209652e+002
4.921986e+002, 2.157716e+002
4.926807e+002, 2.112448e+002
4.931628e+002, 2.076655e+002
4.936450e+002, 2.040098e+002
4.941271e+002, 1.999193e+002
4.946092e+002, 1.958154e+002
4.950913e+002, 1.918921e+002
4.955734e+002, 1.882040e+002
4.960555e+002, 1.848311e+002
4.965377e+002, 1.820320e+002
4.970198e+002, 1.796003e+002
4.975019e+002, 1.769599e+002
4.979840e+002, 1.740419e+002
4.984661e+002, 1.711601e+002
4.989482e+002, 1.683169e+002
4.994304e+002, 1.656710e+002
4.999125e+002, 1.635454e+002
5.003946e+002, 1.621341e+002
5.008767e+002, 1.607886e+002
5.013588e+002, 1.590031e+002
5.018409e+002, 1.571045e+002
5.023231e+002, 1.556311e+002
5.028052e+002, 1.546971e+002
5.032873e+002, 1.541616e+002
5.037694e+002, 1.538603e+002
5.042515e+002, 1.538008e+002
5.047336e+002, 1.543964e+002
5.052158e+002, 1.553445e+002
5.056979e+002, 1.571927e+002
5.061800e+002, 1.599553e+002
5.066621e+002, 1.637985e+002
5.071442e+002, 1.691377e+002
5.076263e+002, 1.760803e+002
5.081085e+002, 1.839928e+002
5.085906e+002, 1.922826e+002
5.090727e+002, 2.020313e+002
5.095548e+002, 2.082471e+002
5.100369e+002, 2.110186e+002
5.105190e+002, 2.101128e+002
5.110012e+002, 2.042342e+002
5.114833e+002, 1.947145e+002
5.119654e+002, 1.835782e+002
5.124475e+002, 1.714696e+002
5.129296e+002, 1.593583e+002
5.134117e+002, 1.488683e+002
5.138939e+002, 1.399966e+002
5.143760e+002, 1.324916e+002
5.148581e+002, 1.264929e+002
5.153402e+002, 1.217249e+002
5.158223e+002, 1.181219e+002
5.163044e+002, 1.155515e+002
5.167866e+002, 1.131990e+002
5.172687e+002, 1.106238e+002
5.177508e+002, 1.081258e+002
5.182329e+002, 1.060944e+002
5.187150e+002, 1.045197e+002
5.191971e+002, 1.031960e+002
5.196793e+002, 1.020536e+002
5.201614e+002, 1.010709e+002
5.206435e+002, 1.002596e+002
5.211256e+002, 9.968925e+001
5.216077e+002, 9.903931e+001
5.220898e+002, 9.835829e+001
5.225720e+002, 9.750853e+001
5.230541e+002, 9.625766e+001
5.235362e+002, 9.468258e+001
5.240183e+002, 9.311514e+001
5.245004e+002, 9.177843e+001
5.249825e+002, 9.068604e+001
5.254647e+002, 8.989881e+001
5.259468e+002, 8.971629e+001
5.264289e+002, 8.943082e+001
5.269110e+002, 8.899483e+001
5.273931e+002, 8.842737e+001
5.278752e+002, 8.769498e+001
5.283574e+002, 8.682720e+001
5.288395e+002, 8.595153e+001
5.293216e+002, 8.513358e+001
5.298037e+002, 8.439853e+001
5.302858e+002, 8.396849e+001
5.307679e+002, 8.408032e+001
5.312501e+002, 8.394804e+001
5.317322e+002, 8.274963e+001
5.322143e+002, 8.136623e+001
5.326964e+002, 8.084787e+001
5.331785e+002, 8.148347e+001
5.336606e+002, 8.204418e+001
5.341428e+002, 8.148016e+001
5.346249e+002, 8.031576e+001
5.351070e+002, 7.982291e+001
5.355891e+002, 8.022339e+001
5.360712e+002, 8.045802e+001
5.365533e+002, 7.963313e+001
5.370355e+002, 7.793951e+001
5.375176e+002, 7.666686e+001
5.379997e+002, 7.584644e+001
5.384818e+002, 7.535854e+001
5.389639e+002, 7.542382e+001
5.394460e+002, 7.568371e+001
5.399282e+002, 7.568208e+001
5.404103e+002, 7.533260e+001
5.408924e+002, 7.485564e+001
5.413745e+002, 7.447715e+001
5.418566e+002, 7.420029e+001
5.423387e+002, 7.391499e+001
5.428209e+002, 7.377844e+001
5.433029e+002, 7.343543e+001
5.437850e+002, 7.255502e+001
5.442672e+002, 7.155860e+001
5.447493e+002, 7.098563e+001
5.452314e+002, 7.096128e+001
5.457135e+002, 7.104176e+001
5.461956e+002, 7.071502e+001
5.466777e+002, 7.001942e+001
5.471599e+002, 6.940622e+001
5.476420e+002, 6.886494e+001
5.481241e+002, 6.848077e+001
5.486062e+002, 6.849207e+001
5.490883e+002, 6.865857e+001
5.495704e+002, 6.856367e+001
5.500526e+002, 6.802566e+001
5.505347e+002, 6.746257e+001
5.510168e+002, 6.724622e+001
5.514989e+002, 6.717274e+001
5.519810e+002, 6.675826e+001
5.524631e+002, 6.589485e+001
5.529453e+002, 6.494808e+001
5.534274e+002, 6.422776e+001
5.539095e+002, 6.373420e+001
5.543916e+002, 6.346430e+001
5.548737e+002, 6.391689e+001
5.553558e+002, 6.396537e+001
5.558380e+002, 6.284157e+001
5.563201e+002, 6.134936e+001
5.568022e+002, 6.056409e+001
5.572843e+002, 6.071698e+001
5.577664e+002, 6.115057e+001
5.582485e+002, 6.112644e+001
5.587307e+002, 6.063234e+001
5.592128e+002, 6.003669e+001
5.596949e+002, 5.916219e+001
5.601770e+002, 5.845622e+001
5.606591e+002, 5.812537e+001
5.611412e+002, 5.799724e+001
5.616234e+002, 5.788918e+001
5.621055e+002, 5.776342e+001
5.625876e+002, 5.757598e+001
5.630697e+002, 5.726085e+001
5.635518e+002, 5.685138e+001
5.640339e+002, 5.645278e+001
5.645161e+002, 5.607217e+001
5.649982e+002, 5.571190e+001
5.654803e+002, 5.531641e+001
5.659624e+002, 5.495132e+001
5.664445e+002, 5.486164e+001
5.669266e+002, 5.538623e+001
5.674088e+002, 5.570323e+001
5.678909e+002, 5.532817e+001
5.683730e+002, 5.468777e+001
5.688551e+002, 5.432255e+001
5.693372e+002, 5.432018e+001
5.698193e+002, 5.443271e+001
5.703015e+002, 5.444164e+001
5.707836e+002, 5.435008e+001
5.712657e+002, 5.421628e+001
5.717478e+002, 5.392448e+001
5.722299e+002, 5.375012e+001
5.727120e+002, 5.393102e+001
5.731942e+002, 5.412071e+001
5.736763e+002, 5.390620e+001
5.741584e+002, 5.327208e+001
5.746405e+002, 5.267676e+001
5.751226e+002, 5.257929e+001
5.756047e+002, 5.285960e+001
5.760869e+002, 5.301855e+001
5.765690e+002, 5.303445e+001
5.770511e+002, 5.302107e+001
5.775332e+002, 5.305590e+001
5.780153e+002, 5.307457e+001
5.784974e+002, 5.295089e+001
5.789796e+002, 5.263222e+001
5.794617e+002, 5.240166e+001
5.799438e+002, 5.242954e+001
5.804259e+002, 5.256374e+001
5.809080e+002, 5.264806e+001
5.813901e+002, 5.266703e+001
5.818723e+002, 5.264034e+001
5.823544e+002, 5.257084e+001
5.828365e+002, 5.248355e+001
5.833186e+002, 5.246468e+001
5.838007e+002, 5.258870e+001
5.842828e+002, 5.266951e+001
5.847650e+002, 5.271303e+001
5.852471e+002, 5.270868e+001
5.857292e+002, 5.264671e+001
5.862113e+002, 5.253058e+001
5.866934e+002, 5.235238e+001
5.871755e+002, 5.207326e+001
5.876577e+002, 5.179319e+001
5.881398e+002, 5.175243e+001
5.886219e+002, 5.197233e+001
5.891040e+002, 5.231702e+001
5.895861e+002, 5.297691e+001
5.900682e+002, 5.349933e+001
5.905504e+002, 5.334133e+001
5.910325e+002, 5.261889e+001
5.915146e+002, 5.208738e+001
5.919967e+002, 5.206919e+001
5.924788e+002, 5.225386e+001
5.929609e+002, 5.247934e+001
5.934431e+002, 5.269696e+001
5.939252e+002, 5.277122e+001
5.944073e+002, 5.264904e+001
5.948894e+002, 5.239793e+001
5.953715e+002, 5.208305e+001
5.958536e+002, 5.164004e+001
5.963358e+002, 5.143541e+001
5.968179e+002, 5.170973e+001
5.973000e+002, 5.191918e+001
5.977821e+002, 5.181901e+001
5.982642e+002, 5.155373e+001
5.987463e+002, 5.135492e+001
5.992285e+002, 5.129848e+001
5.997106e+002, 5.125154e+001
6.001927e+002, 5.101421e+001
6.006748e+002, 5.059608e+001
6.011569e+002, 5.030958e+001
6.016390e+002, 5.022712e+001
6.021212e+002, 5.015086e+001
6.026033e+002, 4.988308e+001
6.030854e+002, 4.957683e+001
6.035675e+002, 4.952037e+001
6.040496e+002, 4.987070e+001
6.045317e+002, 5.010148e+001
6.050139e+002, 4.983934e+001
6.054960e+002, 4.934216e+001
6.059781e+002, 4.894257e+001
6.064602e+002, 4.869361e+001
6.069423e+002, 4.860302e+001
6.074244e+002, 4.870601e+001
6.079066e+002, 4.894250e+001
6.083887e+002, 4.904183e+001
6.088708e+002, 4.899179e+001
6.093529e+002, 4.880651e+001
6.098350e+002, 4.836358e+001
6.103171e+002, 4.789124e+001
6.107993e+002, 4.748859e+001
6.112814e+002, 4.719915e+001
6.117635e+002, 4.709943e+001
6.122456e+002, 4.728974e+001
6.127277e+002, 4.761297e+001
6.132098e+002, 4.776874e+001
6.136920e+002, 4.775810e+001
6.141741e+002, 4.753025e+001
6.146562e+002, 4.688525e+001
6.151383e+002, 4.626482e+001
6.156204e+002, 4.618113e+001
6.161025e+002, 4.654504e+001
6.165847e+002, 4.685324e+001
6.170668e+002, 4.708435e+001
6.175489e+002, 4.715044e+001
6.180310e+002, 4.680599e+001
6.185131e+002, 4.628928e+001
6.189952e+002, 4.613341e+001
6.194774e+002, 4.648585e+001
6.199595e+002, 4.696679e+001
6.204416e+002, 4.711890e+001
6.209237e+002, 4.691469e+001
6.214058e+002, 4.681100e+001
6.218879e+002, 4.689412e+001
6.223701e+002, 4.697646e+001
6.228522e+002, 4.709148e+001
6.233343e+002, 4.714677e+001
6.238164e+002, 4.703025e+001
6.242985e+002, 4.672868e+001
6.247806e+002, 4.635462e+001
6.252628e+002, 4.597122e+001
6.257448e+002, 4.558992e+001
6.262269e+002, 4.518330e+001
6.267090e+002, 4.472806e+001
6.271912e+002, 4.455727e+001
6.276733e+002, 4.494904e+001
6.281554e+002, 4.559163e+001
6.286375e+002, 4.586421e+001
6.291196e+002, 4.568841e+001
6.296017e+002, 4.560089e+001
6.300839e+002, 4.579535e+001
6.305660e+002, 4.599962e+001
6.310481e+002, 4.597451e+001
6.315302e+002, 4.580830e+001
6.320123e+002, 4.577818e+001
6.324944e+002, 4.601197e+001
6.329766e+002, 4.628059e+001
6.334587e+002, 4.610454e+001
6.339408e+002, 4.531070e+001
6.344229e+002, 4.497506e+001
6.349050e+002, 4.540221e+001
6.353871e+002, 4.592293e+001
6.358693e+002, 4.636541e+001
6.363514e+002, 4.666563e+001
6.368335e+002, 4.667938e+001
6.373156e+002, 4.631192e+001
6.377977e+002, 4.593563e+001
6.382798e+002, 4.581812e+001
6.387620e+002, 4.587468e+001
6.392441e+002, 4.600381e+001
6.397262e+002, 4.618339e+001
6.402083e+002, 4.621783e+001
6.406904e+002, 4.592791e+001
6.411725e+002, 4.545827e+001
6.416547e+002, 4.529710e+001
6.421368e+002, 4.590419e+001
6.426189e+002, 4.613824e+001
6.431010e+002, 4.562160e+001
6.435831e+002, 4.506932e+001
6.440652e+002, 4.496792e+001
6.445474e+002, 4.521417e+001
6.450295e+002, 4.545453e+001
6.455116e+002, 4.551056e+001
6.459937e+002, 4.544206e+001
6.464758e+002, 4.534057e+001
6.469579e+002, 4.520588e+001
6.474401e+002, 4.499070e+001
6.479222e+002, 4.464399e+001
6.484043e+002, 4.431130e+001
6.488864e+002, 4.412200e+001
6.493685e+002, 4.403710e+001
6.498506e+002, 4.393974e+001
6.503328e+002, 4.380152e+001
6.508149e+002, 4.368110e+001
6.512970e+002, 4.355874e+001
6.517791e+002, 4.349068e+001
6.522612e+002, 4.359166e+001
6.527433e+002, 4.384120e+001
6.532255e+002, 4.407739e+001
6.537076e+002, 4.418654e+001
6.541897e+002, 4.417599e+001
6.546718e+002, 4.406161e+001
6.551539e+002, 4.380035e+001
6.556360e+002, 4.353939e+001
6.561182e+002, 4.320033e+001
6.566003e+002, 4.295371e+001
6.570824e+002, 4.295041e+001
6.575645e+002, 4.312498e+001
6.580466e+002, 4.328532e+001
6.585287e+002, 4.342028e+001
6.590109e+002, 4.341668e+001
6.594930e+002, 4.304738e+001
6.599751e+002, 4.245722e+001
6.604572e+002, 4.205135e+001
6.609393e+002, 4.191950e+001
6.614214e+002, 4.192015e+001
6.619036e+002, 4.194152e+001
6.623857e+002, 4.198385e+001
6.628678e+002, 4.204759e+001
6.633499e+002, 4.234016e+001
6.638320e+002, 4.237448e+001
6.643141e+002, 4.185604e+001
6.647963e+002, 4.125784e+001
6.652784e+002, 4.092425e+001
6.657605e+002, 4.086933e+001
6.662426e+002, 4.095685e+001
6.667247e+002, 4.113493e+001
6.672068e+002, 4.135387e+001
6.676890e+002, 4.151934e+001
6.681711e+002, 4.163344e+001
6.686532e+002, 4.177828e+001
6.691353e+002, 4.199618e+001
6.696174e+002, 4.218947e+001
6.700995e+002, 4.226217e+001
6.705817e+002, 4.221879e+001
6.710638e+002, 4.214692e+001
6.715459e+002, 4.175743e+001
6.720280e+002, 4.169642e+001
6.725101e+002, 4.261332e+001
6.729922e+002, 4.369839e+001
6.734744e+002, 4.389144e+001
6.739565e+002, 4.322294e+001
6.744386e+002, 4.269357e+001
6.749207e+002, 4.313034e+001
6.754028e+002, 4.416168e+001
6.758849e+002, 4.449409e+001
6.763671e+002, 4.391475e+001
6.768492e+002, 4.359579e+001
6.773313e+002, 4.397267e+001
6.778134e+002, 4.444092e+001
6.782955e+002, 4.438722e+001
6.787776e+002, 4.400042e+001
6.792598e+002, 4.397527e+001
6.797419e+002, 4.473438e+001
6.802240e+002, 4.555218e+001
6.807061e+002, 4.599874e+001
6.811882e+002, 4.622927e+001
6.816703e+002, 4.645785e+001
6.821525e+002, 4.673506e+001
6.826346e+002, 4.709113e+001
6.831167e+002, 4.758055e+001
6.835988e+002, 4.813319e+001
6.840809e+002, 4.835997e+001
6.845630e+002, 4.795889e+001
6.850452e+002, 4.789252e+001
6.855273e+002, 4.850093e+001
6.860094e+002, 4.929401e+001
6.864915e+002, 5.008456e+001
6.869736e+002, 5.083017e+001
6.874557e+002, 5.145243e+001
6.879379e+002, 5.181857e+001
6.884200e+002, 5.223160e+001
6.889021e+002, 5.297567e+001
6.893842e+002, 5.396645e+001
6.898663e+002, 5.499577e+001
6.903484e+002, 5.603345e+001
6.908306e+002, 5.717413e+001
6.913127e+002, 5.849669e+001
6.917948e+002, 5.999017e+001
6.922769e+002, 6.163985e+001
6.927590e+002, 6.368725e+001
6.932411e+002, 6.550269e+001
6.937233e+002, 6.677713e+001
6.942054e+002, 6.807342e+001
6.946875e+002, 6.978951e+001
6.951696e+002, 7.181626e+001
6.956517e+002, 7.390520e+001
6.961339e+002, 7.611076e+001
6.966160e+002, 7.783378e+001
6.970981e+002, 7.838089e+001
6.975802e+002, 7.789031e+001
6.980623e+002, 7.674984e+001
6.985444e+002, 7.499538e+001
6.990266e+002, 7.297176e+001
6.995087e+002, 7.090986e+001
6.999908e+002, 6.877097e+001
7.004729e+002, 6.643120e+001
7.009550e+002, 6.348775e+001
7.014371e+002, 6.098202e+001
7.019193e+002, 5.919354e+001
7.024014e+002, 5.759874e+001
7.028835e+002, 5.581154e+001
7.033656e+002, 5.397794e+001
7.038477e+002, 5.244002e+001
7.043298e+002, 5.135859e+001
7.048120e+002, 5.057464e+001
7.052941e+002, 4.996210e+001
7.057762e+002, 4.950311e+001
7.062583e+002, 4.914362e+001
7.067404e+002, 4.890639e+001
7.072225e+002, 4.856495e+001
7.077046e+002, 4.790876e+001
7.081867e+002, 4.711561e+001
7.086688e+002, 4.665522e+001
7.091509e+002, 4.666945e+001
7.096331e+002, 4.663266e+001
7.101152e+002, 4.650210e+001
7.105973e+002, 4.631823e+001
7.110794e+002, 4.602966e+001
7.115615e+002, 4.572557e+001
7.120436e+002, 4.559149e+001
7.125258e+002, 4.568840e+001
7.130079e+002, 4.580128e+001
7.134900e+002, 4.568153e+001
7.139721e+002, 4.535822e+001
7.144542e+002, 4.492649e+001
7.149363e+002, 4.434103e+001
7.154185e+002, 4.398454e+001
7.159006e+002, 4.413732e+001
7.163827e+002, 4.451095e+001
7.168648e+002, 4.459998e+001
7.173469e+002, 4.434884e+001
7.178290e+002, 4.418339e+001
7.183112e+002, 4.430046e+001
7.187933e+002, 4.433839e+001
7.192754e+002, 4.402827e+001
7.197575e+002, 4.356307e+001
7.202396e+002, 4.321637e+001
7.207217e+002, 4.306201e+001
7.212039e+002, 4.300463e+001
7.216860e+002, 4.297443e+001
7.221681e+002, 4.296080e+001
7.226502e+002, 4.289940e+001
7.231323e+002, 4.277296e+001
7.236144e+002, 4.274819e+001
7.240966e+002, 4.291481e+001
7.245787e+002, 4.314949e+001
7.250608e+002, 4.331858e+001
7.255429e+002, 4.342419e+001
7.260250e+002, 4.350075e+001
7.265071e+002, 4.362090e+001
7.269893e+002, 4.362856e+001
7.274714e+002, 4.335476e+001
7.279535e+002, 4.300582e+001
7.284356e+002, 4.281723e+001
7.289177e+002, 4.281048e+001
7.293998e+002, 4.286930e+001
7.298820e+002, 4.292799e+001
7.303641e+002, 4.296143e+001
7.308462e+002, 4.287821e+001
7.313283e+002, 4.267126e+001
7.318104e+002, 4.256062e+001
7.322925e+002, 4.260784e+001
7.327747e+002, 4.271517e+001
7.332568e+002, 4.282188e+001
7.337389e+002, 4.292340e+001
7.342210e+002, 4.300265e+001
7.347031e+002, 4.308418e+001
7.351852e+002, 4.310478e+001
7.356674e+002, 4.296495e+001
7.361495e+002, 4.282841e+001
7.366316e+002, 4.287667e+001
7.371137e+002, 4.304777e+001
7.375958e+002, 4.315098e+001
7.380779e+002, 4.309376e+001
7.385601e+002, 4.291541e+001
7.390422e+002, 4.257082e+001
7.395243e+002, 4.210553e+001
7.400064e+002, 4.201739e+001
7.404885e+002, 4.242834e+001
7.409706e+002, 4.284495e+001
7.414528e+002, 4.302127e+001
7.419349e+002, 4.300902e+001
7.424170e+002, 4.289975e+001
7.428991e+002, 4.266235e+001
7.433812e+002, 4.244640e+001
7.438633e+002, 4.219518e+001
7.443455e+002, 4.203988e+001
7.448276e+002, 4.208099e+001
7.453097e+002, 4.225184e+001
7.457918e+002, 4.247388e+001
7.462739e+002, 4.271409e+001
7.467560e+002, 4.292615e+001
7.472382e+002, 4.314281e+001
7.477203e+002, 4.328279e+001
7.482024e+002, 4.294117e+001
7.486845e+002, 4.209779e+001
7.491666e+002, 4.166640e+001
7.496487e+002, 4.207020e+001
7.501309e+002, 4.270682e+001
7.506130e+002, 4.285457e+001
7.510951e+002, 4.247543e+001
7.515772e+002, 4.228971e+001
7.520593e+002, 4.241296e+001
7.525414e+002, 4.256158e+001
7.530236e+002, 4.270644e+001
7.535057e+002, 4.282615e+001
7.539878e+002, 4.294444e+001
7.544699e+002, 4.302757e+001
7.549520e+002, 4.293383e+001
7.554341e+002, 4.247808e+001
7.559163e+002, 4.202938e+001
7.563984e+002, 4.224809e+001
7.568805e+002, 4.295238e+001
7.573626e+002, 4.333203e+001
7.578447e+002, 4.324786e+001
7.583268e+002, 4.297095e+001
7.588090e+002, 4.264979e+001
7.592911e+002, 4.232053e+001
7.597732e+002, 4.209623e+001
7.602553e+002, 4.191457e+001
7.607374e+002, 4.196283e+001
7.612195e+002, 4.251125e+001
7.617017e+002, 4.298946e+001
7.621838e+002, 4.301164e+001
7.626659e+002, 4.282795e+001
7.631480e+002, 4.290048e+001
7.636301e+002, 4.336857e+001
7.641122e+002, 4.377207e+001
7.645944e+002, 4.363010e+001
7.650765e+002, 4.328163e+001
7.655586e+002, 4.331783e+001
7.660407e+002, 4.368313e+001
7.665228e+002, 4.391520e+001
7.670049e+002, 4.382586e+001
7.674871e+002, 4.368708e+001
7.679692e+002, 4.389695e+001
7.684513e+002, 4.448399e+001
7.689334e+002, 4.467939e+001
7.694155e+002, 4.407364e+001
7.698976e+002, 4.374679e+001
7.703798e+002, 4.424692e+001
7.708619e+002, 4.485492e+001
7.713440e+002, 4.494754e+001
7.718261e+002, 4.460243e+001
7.723082e+002, 4.437757e+001
7.727903e+002, 4.447399e+001
7.732725e+002, 4.473768e+001
7.737546e+002, 4.525163e+001
7.742367e+002, 4.578102e+001
7.747188e+002, 4.587471e+001
7.752009e+002, 4.554462e+001
7.756830e+002, 4.521887e+001
7.761652e+002, 4.517382e+001
7.766473e+002, 4.533752e+001
7.771294e+002, 4.556237e+001
7.776115e+002, 4.586462e+001
7.780936e+002, 4.613601e+001
7.785757e+002, 4.642609e+001
7.790579e+002, 4.657691e+001
7.795400e+002, 4.634068e+001
7.800221e+002, 4.597980e+001
7.805042e+002, 4.597713e+001
7.809863e+002, 4.644318e+001
7.814684e+002, 4.677956e+001
7.819506e+002, 4.668502e+001
7.824327e+002, 4.657366e+001
7.829148e+002, 4.671783e+001
7.833969e+002, 4.702763e+001
7.838790e+002, 4.732151e+001
7.843611e+002, 4.755793e+001
7.848433e+002, 4.784371e+001
7.853254e+002, 4.829586e+001
7.858075e+002, 4.886098e+001
7.862896e+002, 4.940527e+001
7.867717e+002, 4.992824e+001
7.872538e+002, 5.028013e+001
7.877360e+002, 5.034148e+001
7.882181e+002, 5.048096e+001
7.887002e+002, 5.111049e+001
7.891823e+002, 5.214543e+001
7.896644e+002, 5.284284e+001
7.901465e+002, 5.299522e+001
7.906286e+002, 5.312898e+001
7.911107e+002, 5.310605e+001
7.915928e+002, 5.323916e+001
7.920750e+002, 5.374258e+001
7.925571e+002, 5.455812e+001
7.930392e+002, 5.557616e+001
7.935213e+002, 5.677611e+001
7.940034e+002, 5.798626e+001
7.944855e+002, 5.910444e+001
7.949677e+002, 6.011168e+001
7.954498e+002, 6.094147e+001
7.959319e+002, 6.160887e+001
7.964140e+002, 6.215581e+001
7.968961e+002, 6.258599e+001
7.973782e+002, 6.307876e+001
7.978604e+002, 6.391228e+001
7.983425e+002, 6.511227e+001
7.988246e+002, 6.612169e+001
7.993067e+002, 6.682396e+001
7.997888e+002, 6.755185e+001
8.002709e+002, 6.819754e+001
8.007531e+002, 6.904945e+001
8.012352e+002, 7.036499e+001
8.017173e+002, 7.209660e+001
8.021994e+002, 7.395292e+001
8.026815e+002, 7.570199e+001
8.031636e+002, 7.778422e+001
8.036458e+002, 8.027267e+001
8.041279e+002, 8.329885e+001
8.046100e+002, 8.716824e+001
8.050921e+002, 9.173174e+001
8.055742e+002, 9.649894e+001
8.060563e+002, 1.011662e+002
8.065385e+002, 1.060018e+002
8.070206e+002, 1.115771e+002
8.075027e+002, 1.178202e+002
8.079848e+002, 1.237563e+002
8.084669e+002, 1.295472e+002
8.089490e+002, 1.341639e+002
8.094312e+002, 1.372900e+002
8.099133e+002, 1.388111e+002
8.103954e+002, 1.385312e+002
8.108775e+002, 1.363650e+002
8.113596e+002, 1.325767e+002
8.118417e+002, 1.262435e+002
8.123239e+002, 1.195185e+002
8.128060e+002, 1.125954e+002
8.132881e+002, 1.058353e+002
8.137702e+002, 9.958797e+001
8.142523e+002, 9.387638e+001
8.147344e+002, 8.855656e+001
8.152166e+002, 8.349058e+001
8.156987e+002, 7.894625e+001
8.161808e+002, 7.540123e+001
8.166629e+002, 7.259883e+001
8.171450e+002, 6.998075e+001
8.176271e+002, 6.748787e+001
8.181093e+002, 6.530948e+001
8.185914e+002, 6.355757e+001
8.190735e+002, 6.215836e+001
8.195556e+002, 6.100431e+001
8.200377e+002, 6.013287e+001
8.205198e+002, 5.925554e+001
8.210020e+002, 5.832308e+001
8.214841e+002, 5.746487e+001
8.219662e+002, 5.680051e+001
8.224483e+002, 5.618657e+001
8.229304e+002, 5.537550e+001
8.234125e+002, 5.438375e+001
8.238947e+002, 5.375310e+001
8.243768e+002, 5.393675e+001
8.248589e+002, 5.409095e+001
8.253410e+002, 5.381078e+001
8.258231e+002, 5.333390e+001
8.263052e+002, 5.289109e+001
8.267874e+002, 5.252252e+001
8.272695e+002, 5.220572e+001
8.277516e+002, 5.193377e+001
8.282337e+002, 5.167367e+001
8.287158e+002, 5.133993e+001
8.291979e+002, 5.097294e+001
8.296801e+002, 5.074521e+001
8.301622e+002, 5.067284e+001
8.306443e+002, 5.070473e+001
8.311264e+002, 5.084057e+001
8.316085e+002, 5.099734e+001
8.320906e+002, 5.104560e+001
8.325728e+002, 5.098436e+001
8.330549e+002, 5.081462e+001
8.335370e+002, 5.040597e+001
8.340191e+002, 5.007861e+001
8.345012e+002, 4.995219e+001
8.349833e+002, 4.989273e+001
8.354655e+002, 4.977292e+001
8.359476e+002, 4.961283e+001
8.364297e+002, 4.953956e+001
8.369118e+002, 4.962993e+001
8.373939e+002, 4.975335e+001
8.378760e+002, 4.983975e+001
8.383582e+002, 4.992113e+001
8.388403e+002, 5.009492e+001
8.393224e+002, 5.030227e+001
8.398045e+002, 5.032284e+001
8.402866e+002, 5.005157e+001
8.407687e+002, 4.970358e+001
8.412509e+002, 4.962268e+001
8.417330e+002, 4.974050e+001
8.422151e+002, 4.960198e+001
8.426972e+002, 4.917636e+001
8.431793e+002, 4.893896e+001
8.436614e+002, 4.913928e+001
8.441436e+002, 4.935472e+001
8.446257e+002, 4.900703e+001
8.451078e+002, 4.812041e+001
8.455899e+002, 4.781408e+001
8.460720e+002, 4.879496e+001
8.465541e+002, 4.931978e+001
8.470363e+002, 4.883570e+001
8.475184e+002, 4.824482e+001
8.480005e+002, 4.807476e+001
8.484826e+002, 4.824184e+001
8.489647e+002, 4.850838e+001
8.494468e+002, 4.885061e+001
8.499290e+002, 4.912487e+001
8.504111e+002, 4.926952e+001
8.508932e+002, 4.929712e+001
8.513753e+002, 4.916545e+001
8.518574e+002, 4.893939e+001
8.523395e+002, 4.878558e+001
8.528217e+002, 4.874198e+001
8.533038e+002, 4.863298e+001
8.537859e+002, 4.821819e+001
8.542680e+002, 4.766824e+001
8.547501e+002, 4.760880e+001
8.552322e+002, 4.803913e+001
8.557144e+002, 4.827375e+001
8.561965e+002, 4.815839e+001
8.566786e+002, 4.789980e+001
8.571607e+002, 4.761768e+001
8.576428e+002, 4.733408e+001
8.581249e+002, 4.711563e+001
8.586071e+002, 4.694471e+001
8.590892e+002, 4.688039e+001
8.595713e+002, 4.704930e+001
8.600534e+002, 4.717332e+001
8.605355e+002, 4.723376e+001
8.610176e+002, 4.715071e+001
8.614998e+002, 4.671527e+001
8.619819e+002, 4.594170e+001
8.624640e+002, 4.540962e+001
8.629461e+002, 4.556047e+001
8.634282e+002, 4.579858e+001
8.639103e+002, 4.568530e+001
8.643925e+002, 4.542301e+001
8.648746e+002, 4.533041e+001
8.653567e+002, 4.540154e+001
8.658388e+002, 4.537114e+001
8.663209e+002, 4.506622e+001
8.668030e+002, 4.473362e+001
8.672852e+002, 4.487548e+001
8.677673e+002, 4.535541e+001
8.682494e+002, 4.536711e+001
8.687315e+002, 4.484851e+001
8.692136e+002, 4.443230e+001
8.696957e+002, 4.441097e+001
8.701779e+002, 4.448703e+001
8.706600e+002, 4.423478e+001
8.711421e+002, 4.364882e+001
8.716242e+002, 4.333595e+001
8.721063e+002, 4.346942e+001
8.725884e+002, 4.357081e+001
8.730705e+002, 4.359273e+001
8.735526e+002, 4.353169e+001
8.740347e+002, 4.330518e+001
8.745168e+002, 4.300311e+001
8.749990e+002, 4.284837e+001
8.754811e+002, 4.292455e+001
8.759632e+002, 4.300423e+001
8.764453e+002, 4.307447e+001
8.769274e+002, 4.305651e+001
8.774095e+002, 4.275415e+001
8.778917e+002, 4.237477e+001
8.783738e+002, 4.231555e+001
8.788559e+002, 4.262980e+001
8.793380e+002, 4.295333e+001
8.798201e+002, 4.301532e+001
8.803022e+002, 4.290866e+001
8.807844e+002, 4.266661e+001
8.812665e+002, 4.238272e+001
8.817486e+002, 4.250668e+001
8.822307e+002, 4.307817e+001
8.827128e+002, 4.349117e+001
8.831949e+002, 4.333138e+001
8.836771e+002, 4.291101e+001
8.841592e+002, 4.291241e+001
8.846413e+002, 4.341393e+001
8.851234e+002, 4.373064e+001
8.856055e+002, 4.377203e+001
8.860876e+002, 4.386644e+001
8.865698e+002, 4.427505e+001
8.870519e+002, 4.462934e+001
8.875340e+002, 4.420090e+001
8.880161e+002, 4.310789e+001
8.884982e+002, 4.316241e+001
8.889803e+002, 4.619318e+001
8.894625e+002, 4.786203e+001
8.899446e+002, 4.629250e+001
8.904267e+002, 4.420284e+001
8.909088e+002, 4.338858e+001
8.913909e+002, 4.350079e+001
8.918730e+002, 4.362976e+001
8.923552e+002, 4.353333e+001
8.928373e+002, 4.326323e+001
8.933194e+002, 4.263705e+001
8.938015e+002, 4.203430e+001
8.942836e+002, 4.197402e+001
8.947657e+002, 4.222301e+001
8.952479e+002, 4.223035e+001
8.957300e+002, 4.192192e+001
8.962121e+002, 4.171334e+001
8.966942e+002, 4.195325e+001
8.971763e+002, 4.234393e+001
8.976584e+002, 4.221467e+001
8.981406e+002, 4.162963e+001
8.986227e+002, 4.121863e+001
8.991048e+002, 4.103996e+001
8.995869e+002, 4.103899e+001
9.000690e+002, 4.122179e+001
9.005511e+002, 4.148542e+001
9.010333e+002, 4.170050e+001
9.015154e+002, 4.187343e+001
9.019975e+002, 4.183692e+001
9.024796e+002, 4.144617e+001
9.029617e+002, 4.111555e+001
9.034438e+002, 4.101604e+001
9.039260e+002, 4.090623e+001
9.044081e+002, 4.055312e+001
9.048902e+002, 4.007219e+001
9.053723e+002, 3.977179e+001
9.058544e+002, 3.973045e+001
9.063365e+002, 3.974065e+001
9.068187e+002, 3.980743e+001
9.073008e+002, 3.985384e+001
9.077829e+002, 3.985182e+001
9.082650e+002, 3.979067e+001
9.087471e+002, 3.958031e+001
9.092292e+002, 3.926307e+001
9.097114e+002, 3.915054e+001
9.101935e+002, 3.960511e+001
9.106756e+002, 4.005619e+001
9.111577e+002, 3.974010e+001
9.116398e+002, 3.908038e+001
9.121219e+002, 3.891312e+001
9.126041e+002, 3.922729e+001
9.130862e+002, 3.947851e+001
9.135683e+002, 3.940929e+001
9.140504e+002, 3.925570e+001
9.145325e+002, 3.938173e+001
9.150146e+002, 3.970744e+001
9.154968e+002, 3.972865e+001
9.159789e+002, 3.943308e+001
9.164610e+002, 3.918749e+001
9.169431e+002, 3.907034e+001
9.174252e+002, 3.909273e+001
9.179073e+002, 3.930558e+001
9.183895e+002, 3.962856e+001
9.188716e+002, 3.975547e+001
9.193537e+002, 3.956688e+001
9.198358e+002, 3.949766e+001
9.203179e+002, 3.972578e+001
9.208000e+002, 3.981738e+001
9.212822e+002, 3.943069e+001
9.217643e+002, 3.893147e+001
9.222464e+002, 3.872112e+001
9.227285e+002, 3.879669e+001
9.232106e+002, 3.891122e+001
9.236927e+002, 3.909618e+001
9.241749e+002, 3.922736e+001
9.246570e+002, 3.932249e+001
9.251391e+002, 3.930338e+001
9.256212e+002, 3.902434e+001
9.261033e+002, 3.860561e+001
9.265854e+002, 3.828524e+001
9.270676e+002, 3.813346e+001
9.275497e+002, 3.806161e+001
9.280318e+002, 3.809994e+001
9.285139e+002, 3.811318e+001
9.289960e+002, 3.794466e+001
9.294781e+002, 3.765405e+001
9.299603e+002, 3.733966e+001
9.304424e+002, 3.703014e+001
9.309245e+002, 3.672942e+001
9.314066e+002, 3.642815e+001
9.318887e+002, 3.620468e+001
9.323708e+002, 3.625222e+001
9.328530e+002, 3.648924e+001
9.333351e+002, 3.658626e+001
9.338172e+002, 3.652749e+001
9.342993e+002, 3.636096e+001
9.347814e+002, 3.609895e+001
9.352635e+002, 3.579432e+001
9.357457e+002, 3.549846e+001
9.362278e+002, 3.521457e+001
9.367099e+002, 3.493754e+001
9.371920e+002, 3.461874e+001
9.376741e+002, 3.456129e+001
9.381563e+002, 3.497773e+001
9.386384e+002, 3.523930e+001
9.391205e+002, 3.481224e+001
9.396026e+002, 3.417683e+001
9.400847e+002, 3.429015e+001
9.405668e+002, 3.538205e+001
9.410490e+002, 3.586060e+001
9.415311e+002, 3.525592e+001
9.420132e+002, 3.470795e+001
9.424953e+002, 3.443311e+001
9.429774e+002, 3.428365e+001
9.434595e+002, 3.419405e+001
9.439417e+002, 3.413369e+001
9.444238e+002, 3.402949e+001
9.449059e+002, 3.382723e+001
9.453880e+002, 3.373595e+001
9.458701e+002, 3.391933e+001
9.463522e+002, 3.414197e+001
9.468344e+002, 3.429190e+001
9.473165e+002, 3.435939e+001
9.477986e+002, 3.429049e+001
9.482807e+002, 3.412384e+001
9.487628e+002, 3.405064e+001
9.492449e+002, 3.421696e+001
9.497271e+002, 3.439724e+001
9.502092e+002, 3.432650e+001
9.506913e+002, 3.415923e+001
9.511734e+002, 3.416061e+001
9.516555e+002, 3.429010e+001
9.521376e+002, 3.437328e+001
9.526198e+002, 3.434350e+001
9.531019e+002, 3.417485e+001
9.535840e+002, 3.376695e+001
9.540661e+002, 3.329608e+001
9.545482e+002, 3.326280e+001
9.550303e+002, 3.359029e+001
9.555124e+002, 3.376493e+001
9.559945e+002, 3.371489e+001
9.564766e+002, 3.359561e+001
9.569587e+002, 3.347505e+001
9.574409e+002, 3.342290e+001
9.579230e+002, 3.360379e+001
9.584051e+002, 3.400849e+001
9.588872e+002, 3.400214e+001
9.593693e+002, 3.346404e+001
9.598514e+002, 3.303283e+001
9.603336e+002, 3.286457e+001
9.608157e+002, 3.279508e+001
9.612978e+002, 3.274168e+001
9.617799e+002, 3.267391e+001
9.622620e+002, 3.247971e+001
9.627441e+002, 3.201803e+001
9.632263e+002, 3.186968e+001
9.637084e+002, 3.229276e+001
9.641905e+002, 3.268143e+001
9.646726e+002, 3.297079e+001
9.651547e+002, 3.308419e+001
9.656368e+002, 3.285831e+001
9.661190e+002, 3.237936e+001
9.666011e+002, 3.204623e+001
9.670832e+002, 3.203281e+001
9.675653e+002, 3.191048e+001
9.680474e+002, 3.142068e+001
9.685295e+002, 3.097862e+001
9.690117e+002, 3.082891e+001
9.694938e+002, 3.086811e+001
9.699759e+002, 3.097895e+001
9.704580e+002, 3.112829e+001
9.709401e+002, 3.127482e+001
9.714222e+002, 3.149119e+001
9.719044e+002, 3.155173e+001
9.723865e+002, 3.110246e+001
9.728686e+002, 3.059120e+001
9.733507e+002, 3.056729e+001
9.738328e+002, 3.087155e+001
9.743149e+002, 3.107440e+001
9.747971e+002, 3.104345e+001
9.752792e+002, 3.090299e+001
9.757613e+002, 3.066547e+001
9.762434e+002, 3.046679e+001
9.767255e+002, 3.056426e+001
9.772076e+002, 3.081471e+001
9.776898e+002, 3.089613e+001
9.781719e+002, 3.080040e+001
9.786540e+002, 3.071853e+001
9.791361e+002, 3.074095e+001
9.796182e+002, 3.078328e+001
9.801003e+002, 3.071450e+001
9.805825e+002, 3.059017e+001
9.810646e+002, 3.066410e+001
9.815467e+002, 3.089188e+001
9.820288e+002, 3.085846e+001
9.825109e+002, 3.048315e+001
9.829930e+002, 3.014148e+001
9.834752e+002, 3.008332e+001
9.839573e+002, 3.018159e+001
9.844394e+002, 3.018559e+001
9.849215e+002, 3.009394e+001
9.854036e+002, 3.013743e+001
9.858857e+002, 3.035230e+001
9.863679e+002, 3.050012e+001
9.868500e+002, 3.054185e+001
9.873321e+002, 3.040903e+001
9.878142e+002, 2.997110e+001
9.882963e+002, 2.938473e+001
9.887784e+002, 2.916237e+001
9.892606e+002, 2.942723e+001
9.897427e+002, 2.962125e+001
9.902248e+002, 2.970371e+001
9.907069e+002, 2.980131e+001
9.911890e+002, 3.005541e+001
9.916711e+002, 3.022502e+001
9.921533e+002, 2.997828e+001
9.926354e+002, 2.941687e+001
9.931175e+002, 2.915454e+001
9.935996e+002, 2.939474e+001
9.940817e+002, 2.956715e+001
9.945638e+002, 2.962355e+001
9.950460e+002, 2.966022e+001
9.955281e+002, 2.962900e+001
9.960102e+002, 2.965502e+001
9.964923e+002, 3.001600e+001
9.969744e+002, 3.062368e+001
9.974565e+002, 3.080097e+001
9.979387e+002, 3.012208e+001
9.984208e+002, 2.950295e+001
9.989029e+002, 2.905510e+001
9.993850e+002, 2.886055e+001
9.998671e+002, 2.922984e+001
1.000349e+003, 2.975311e+001
1.000831e+003, 2.978606e+001
1.001313e+003, 2.930198e+001
1.001796e+003, 2.893431e+001
1.002278e+003, 2.895727e+001
1.002760e+003, 2.913666e+001
1.003242e+003, 2.950180e+001
1.003724e+003, 2.982898e+001
1.004206e+003, 2.981901e+001
1.004688e+003, 2.963819e+001
1.005170e+003, 2.970278e+001
1.005653e+003, 3.007447e+001
1.006135e+003, 3.028483e+001
1.006617e+003, 2.992523e+001
1.007099e+003, 2.943404e+001
1.007581e+003, 2.917900e+001
1.008063e+003, 2.907873e+001
1.008545e+003, 2.903262e+001
1.009027e+003, 2.903341e+001
1.009509e+003, 2.914912e+001
1.009992e+003, 2.938519e+001
1.010474e+003, 2.952082e+001
1.010956e+003, 2.923124e+001
1.011438e+003, 2.887282e+001
1.011920e+003, 2.912073e+001
1.012402e+003, 2.968126e+001
1.012884e+003, 2.985718e+001
1.013366e+003, 2.962210e+001
1.013849e+003, 2.927950e+001
1.014331e+003, 2.896668e+001
1.014813e+003, 2.873993e+001
1.015295e+003, 2.864807e+001
1.015777e+003, 2.869896e+001
1.016259e+003, 2.906103e+001
1.016741e+003, 2.960662e+001
1.017223e+003, 2.959519e+001
1.017705e+003, 2.898446e+001
1.018188e+003, 2.862381e+001
1.018670e+003, 2.896394e+001
1.019152e+003, 2.949774e+001
1.019634e+003, 2.949078e+001
1.020116e+003, 2.908337e+001
1.020598e+003, 2.901071e+001
1.021080e+003, 2.925528e+001
1.021562e+003, 2.928211e+001
1.022044e+003, 2.898090e+001
1.022527e+003, 2.882267e+001
1.023009e+003, 2.909832e+001
1.023491e+003, 2.957332e+001
1.023973e+003, 2.990279e+001
1.024455e+003, 3.008363e+001
1.024937e+003, 3.002098e+001
1.025419e+003, 2.968004e+001
1.025901e+003, 2.937506e+001
1.026384e+003, 2.914054e+001
1.026866e+003, 2.907201e+001
1.027348e+003, 2.928397e+001
1.027830e+003, 2.957322e+001
1.028312e+003, 2.952347e+001
1.028794e+003, 2.910872e+001
1.029276e+003, 2.902264e+001
1.029758e+003, 2.935599e+001
1.030240e+003, 2.970703e+001
1.030723e+003, 3.002365e+001
1.031205e+003, 3.029920e+001
1.031687e+003, 3.055601e+001
1.032169e+003, 3.073593e+001
1.032651e+003, 3.068591e+001
1.033133e+003, 3.035062e+001
1.033615e+003, 3.028089e+001
1.034097e+003, 3.074838e+001
1.034579e+003, 3.085260e+001
1.035062e+003, 3.008235e+001
1.035544e+003, 2.944171e+001
1.036026e+003, 2.976443e+001
1.036508e+003, 3.056647e+001
1.036990e+003, 3.080598e+001
1.037472e+003, 3.035466e+001
1.037954e+003, 3.005555e+001
1.038436e+003, 2.989564e+001
1.038919e+003, 2.991862e+001
1.039401e+003, 3.040005e+001
1.039883e+003, 3.077322e+001
1.040365e+003, 3.049687e+001
1.040847e+003, 2.991155e+001
1.041329e+003, 2.975223e+001
1.041811e+003, 3.010089e+001
1.042293e+003, 3.043489e+001
1.042776e+003, 3.098065e+001
1.043258e+003, 3.118112e+001
1.043740e+003, 3.054795e+001
1.044222e+003, 2.992462e+001
1.044704e+003, 2.994252e+001
1.045186e+003, 3.032677e+001
1.045668e+003, 3.053512e+001
1.046150e+003, 3.051392e+001
1.046632e+003, 3.045374e+001
1.047115e+003, 3.035969e+001
1.047597e+003, 3.024957e+001
1.048079e+003, 3.008042e+001
1.048561e+003, 2.994304e+001
1.049043e+003, 2.993730e+001
1.049525e+003, 2.999335e+001
1.050007e+003, 2.993417e+001
1.050489e+003, 2.971435e+001
1.050971e+003, 2.970625e+001
1.051454e+003, 3.021560e+001
1.051936e+003, 3.062607e+001
1.052418e+003, 3.064702e+001
1.052900e+003, 3.061057e+001
1.053382e+003, 3.083087e+001
1.053864e+003, 3.114141e+001
1.054346e+003, 3.116598e+001
1.054828e+003, 3.084259e+001
1.055311e+003, 3.066586e+001
1.055793e+003, 3.090415e+001
1.056275e+003, 3.112238e+001
1.056757e+003, 3.105981e+001
1.057239e+003, 3.103202e+001
1.057721e+003, 3.140239e+001
1.058203e+003, 3.192335e+001
1.058685e+003, 3.209687e+001
1.059167e+003, 3.185685e+001
1.059650e+003, 3.174693e+001
1.060132e+003, 3.212363e+001
1.060614e+003, 3.241798e+001
1.061096e+003, 3.221085e+001
1.061578e+003, 3.203947e+001
1.062060e+003, 3.239800e+001
1.062542e+003, 3.304152e+001
1.063024e+003, 3.349146e+001
1.063506e+003, 3.369419e+001
1.063989e+003, 3.404907e+001
1.064471e+003, 3.493653e+001
1.064953e+003, 3.567006e+001
1.065435e+003, 3.583635e+001
1.065917e+003, 3.587208e+001
1.066399e+003, 3.614254e+001
1.066881e+003, 3.649336e+001
1.067363e+003, 3.661028e+001
1.067846e+003, 3.648034e+001
1.068328e+003, 3.643739e+001
1.068810e+003, 3.675602e+001
1.069292e+003, 3.691999e+001
1.069774e+003, 3.659882e+001
1.070256e+003, 3.613826e+001
1.070738e+003, 3.565473e+001
1.071220e+003, 3.528000e+001
1.071703e+003, 3.515773e+001
1.072185e+003, 3.530220e+001
1.072667e+003, 3.565162e+001
1.073149e+003, 3.626439e+001
1.073631e+003, 3.688965e+001
1.074113e+003, 3.738942e+001
1.074595e+003, 3.788246e+001
1.075077e+003, 3.830864e+001
1.075559e+003, 3.887136e+001
1.076042e+003, 3.992491e+001
1.076524e+003, 4.139491e+001
1.077006e+003, 4.277662e+001
1.077488e+003, 4.385569e+001
1.077970e+003, 4.497905e+001
1.078452e+003, 4.626423e+001
1.078934e+003, 4.770513e+001
1.079416e+003, 4.916140e+001
1.079898e+003, 5.087387e+001
1.080380e+003, 5.328939e+001
1.080863e+003, 5.623882e+001
1.081345e+003, 5.915911e+001
1.081827e+003, 6.198435e+001
1.082309e+003, 6.418710e+001
1.082791e+003, 6.559782e+001
1.083273e+003, 6.625011e+001
1.083755e+003, 6.620921e+001
1.084237e+003, 6.537763e+001
1.084720e+003, 6.340270e+001
1.085202e+003, 6.058868e+001
1.085684e+003, 5.765773e+001
1.086166e+003, 5.479783e+001
1.086648e+003, 5.188676e+001
1.087130e+003, 4.859748e+001
1.087612e+003, 4.559021e+001
1.088094e+003, 4.318645e+001
1.088577e+003, 4.120371e+001
1.089059e+003, 3.950085e+001
1.089541e+003, 3.806601e+001
1.090023e+003, 3.700243e+001
1.090505e+003, 3.632279e+001
1.090987e+003, 3.562666e+001
1.091469e+003, 3.458345e+001
1.091951e+003, 3.372711e+001
1.092433e+003, 3.352361e+001
1.092916e+003, 3.336448e+001
1.093398e+003, 3.267175e+001
1.093880e+003, 3.173416e+001
1.094362e+003, 3.103747e+001
1.094844e+003, 3.066004e+001
1.095326e+003, 3.051068e+001
1.095808e+003, 3.077751e+001
1.096290e+003, 3.095011e+001
1.096772e+003, 3.084541e+001
1.097255e+003, 3.061244e+001
1.097737e+003, 3.022118e+001
1.098219e+003, 2.983504e+001
1.098701e+003, 2.974664e+001
1.099183e+003, 2.990346e+001
1.099665e+003, 2.979848e+001
1.100147e+003, 2.910043e+001
1.100629e+003, 2.858458e+001
1.101112e+003, 2.858638e+001
1.101594e+003, 2.865568e+001
1.102076e+003, 2.862806e+001
1.102558e+003, 2.851197e+001
1.103040e+003, 2.822720e+001
1.103522e+003, 2.786866e+001
1.104004e+003, 2.779209e+001
1.104486e+003, 2.817092e+001
1.104969e+003, 2.843868e+001
1.105451e+003, 2.837897e+001
1.105933e+003, 2.834466e+001
1.106415e+003, 2.861184e+001
1.106897e+003, 2.881237e+001
1.107379e+003, 2.850528e+001
1.107861e+003, 2.793052e+001
1.108343e+003, 2.772567e+001
1.108825e+003, 2.802643e+001
1.109307e+003, 2.817394e+001
1.109790e+003, 2.803264e+001
1.110272e+003, 2.784506e+001
1.110754e+003, 2.754022e+001
1.111236e+003, 2.732847e+001
1.111718e+003, 2.735739e+001
1.112200e+003, 2.754893e+001
1.112682e+003, 2.783315e+001
1.113164e+003, 2.822280e+001
1.113647e+003, 2.838712e+001
1.114129e+003, 2.820606e+001
1.114611e+003, 2.799250e+001
1.115093e+003, 2.756780e+001
1.115575e+003, 2.739489e+001
1.116057e+003, 2.791138e+001
1.116539e+003, 2.855593e+001
1.117021e+003, 2.867777e+001
1.117504e+003, 2.833455e+001
1.117986e+003, 2.793290e+001
1.118468e+003, 2.732003e+001
1.118950e+003, 2.700735e+001
1.119432e+003, 2.695998e+001
1.119914e+003, 2.736192e+001
1.120396e+003, 2.872776e+001
1.120878e+003, 2.979037e+001
1.121360e+003, 2.927308e+001
1.121843e+003, 2.775907e+001
1.122325e+003, 2.699314e+001
1.122807e+003, 2.712868e+001
1.123289e+003, 2.704998e+001
1.123771e+003, 2.661835e+001
1.124253e+003, 2.648935e+001
1.124735e+003, 2.692785e+001
1.125217e+003, 2.729995e+001
1.125699e+003, 2.717214e+001
1.126182e+003, 2.680365e+001
1.126664e+003, 2.662099e+001
1.127146e+003, 2.662073e+001
1.127628e+003, 2.680235e+001
1.128110e+003, 2.721750e+001
1.128592e+003, 2.727313e+001
1.129074e+003, 2.682605e+001
1.129556e+003, 2.652548e+001
1.130039e+003, 2.667162e+001
1.130521e+003, 2.707063e+001
1.131003e+003, 2.756184e+001
1.131485e+003, 2.803626e+001
1.131967e+003, 2.802259e+001
1.132449e+003, 2.755823e+001
1.132931e+003, 2.734118e+001
1.133413e+003, 2.740340e+001
1.133896e+003, 2.735754e+001
1.134378e+003, 2.708574e+001
1.134860e+003, 2.702232e+001
1.135342e+003, 2.753801e+001
1.135824e+003, 2.828442e+001
1.136306e+003, 2.864070e+001
1.136788e+003, 2.868552e+001
1.137270e+003, 2.866020e+001
1.137752e+003, 2.860129e+001
1.138234e+003, 2.869291e+001
1.138717e+003, 2.894011e+001
1.139199e+003, 2.910438e+001
1.139681e+003, 2.906362e+001
1.140163e+003, 2.900765e+001
1.140645e+003, 2.916315e+001
1.141127e+003, 2.943302e+001
1.141609e+003, 2.963782e+001
1.142091e+003, 2.981855e+001
1.142574e+003, 3.010838e+001
1.143056e+003, 3.046088e+001
1.143538e+003, 3.061987e+001
1.144020e+003, 3.054860e+001
1.144502e+003, 3.065082e+001
1.144984e+003, 3.128212e+001
1.145466e+003, 3.203835e+001
1.145948e+003, 3.259308e+001
1.146431e+003, 3.295073e+001
1.146913e+003, 3.290577e+001
1.147395e+003, 3.276478e+001
1.147877e+003, 3.307307e+001
1.148359e+003, 3.386815e+001
1.148841e+003, 3.487599e+001
1.149323e+003, 3.603249e+001
1.149805e+003, 3.708062e+001
1.150287e+003, 3.769164e+001
1.150770e+003, 3.832758e+001
1.151252e+003, 3.937862e+001
1.151734e+003, 4.058538e+001
1.152216e+003, 4.161200e+001
1.152698e+003, 4.256273e+001
1.153180e+003, 4.376599e+001
1.153662e+003, 4.528937e+001
1.154144e+003, 4.681466e+001
1.154626e+003, 4.786948e+001
1.155109e+003, 4.944126e+001
1.155591e+003, 5.242134e+001
1.156073e+003, 5.539248e+001
1.156555e+003, 5.713885e+001
1.157037e+003, 5.858540e+001
1.157519e+003, 6.100392e+001
1.158001e+003, 6.436425e+001
1.158483e+003, 6.785055e+001
1.158966e+003, 7.177943e+001
1.159448e+003, 7.504360e+001
1.159930e+003, 7.739857e+001
1.160412e+003, 7.933479e+001
1.160894e+003, 8.101289e+001
1.161376e+003, 8.231756e+001
1.161858e+003, 8.339564e+001
1.162340e+003, 8.390407e+001
1.162822e+003, 8.304176e+001
1.163305e+003, 8.072322e+001
1.163787e+003, 7.791783e+001
1.164269e+003, 7.454743e+001
1.164751e+003, 7.088177e+001
1.165233e+003, 6.682581e+001
1.165715e+003, 6.289943e+001
1.166197e+003, 5.932414e+001
1.166679e+003, 5.600706e+001
1.167161e+003, 5.282243e+001
1.167644e+003, 4.980645e+001
1.168126e+003, 4.705114e+001
1.168608e+003, 4.455568e+001
1.169090e+003, 4.234826e+001
1.169572e+003, 4.043830e+001
1.170054e+003, 3.879635e+001
1.170536e+003, 3.742304e+001
1.171018e+003, 3.626789e+001
1.171500e+003, 3.530506e+001
1.171983e+003, 3.448206e+001
1.172465e+003, 3.371671e+001
1.172947e+003, 3.301908e+001
1.173429e+003, 3.242596e+001
1.173911e+003, 3.192596e+001
1.174393e+003, 3.147338e+001
1.174875e+003, 3.106333e+001
1.175357e+003, 3.069748e+001
1.175840e+003, 3.037880e+001
1.176322e+003, 3.018149e+001
1.176804e+003, 3.027205e+001
1.177286e+003, 3.026920e+001
1.177768e+003, 2.942512e+001
1.178250e+003, 2.838716e+001
1.178732e+003, 2.821243e+001
1.179214e+003, 2.854369e+001
1.179697e+003, 2.855297e+001
1.180179e+003, 2.818256e+001
1.180661e+003, 2.790615e+001
1.181143e+003, 2.792808e+001
1.181625e+003, 2.798752e+001
1.182107e+003, 2.787585e+001
1.182589e+003, 2.781053e+001
1.183071e+003, 2.802820e+001
1.183553e+003, 2.827541e+001
1.184036e+003, 2.829550e+001
1.184518e+003, 2.816495e+001
1.185000e+003, 2.807616e+001
1.185482e+003, 2.804924e+001
1.185964e+003, 2.791443e+001
1.186446e+003, 2.746275e+001
1.186928e+003, 2.717659e+001
1.187410e+003, 2.727702e+001
1.187892e+003, 2.738249e+001
1.188375e+003, 2.736066e+001
1.188857e+003, 2.724603e+001
1.189339e+003, 2.696257e+001
1.189821e+003, 2.664524e+001
1.190303e+003, 2.674125e+001
1.190785e+003, 2.738207e+001
1.191267e+003, 2.763153e+001
1.191749e+003, 2.729579e+001
1.192232e+003, 2.712666e+001
1.192714e+003, 2.730660e+001
1.193196e+003, 2.746974e+001
1.193678e+003, 2.742197e+001
1.194160e+003, 2.730065e+001
1.194642e+003, 2.726342e+001
1.195124e+003, 2.730473e+001
1.195606e+003, 2.743421e+001
1.196089e+003, 2.764459e+001
1.196571e+003, 2.774544e+001
1.197053e+003, 2.772739e+001
1.197535e+003, 2.755560e+001
1.198017e+003, 2.723549e+001
1.198499e+003, 2.703436e+001
1.198981e+003, 2.712893e+001
1.199463e+003, 2.726588e+001
1.199945e+003, 2.709926e+001
1.200427e+003, 2.674767e+001
1.200910e+003, 2.632979e+001
1.201392e+003, 2.596043e+001
1.201874e+003, 2.589792e+001
1.202356e+003, 2.612059e+001
1.202838e+003, 2.661201e+001
1.203320e+003, 2.727685e+001
1.203802e+003, 2.755462e+001
1.204284e+003, 2.697305e+001
1.204767e+003, 2.635830e+001
1.205249e+003, 2.634905e+001
1.205731e+003, 2.655228e+001
1.206213e+003, 2.674180e+001
1.206695e+003, 2.687916e+001
1.207177e+003, 2.691068e+001
1.207659e+003, 2.687728e+001
1.208141e+003, 2.690058e+001
1.208624e+003, 2.701159e+001
1.209106e+003, 2.704579e+001
1.209588e+003, 2.685917e+001
1.210070e+003, 2.674925e+001
1.210552e+003, 2.687774e+001
1.211034e+003, 2.697736e+001
1.211516e+003, 2.683768e+001
1.211998e+003, 2.667354e+001
1.212480e+003, 2.673915e+001
1.212963e+003, 2.695175e+001
1.213445e+003, 2.697621e+001
1.213927e+003, 2.673595e+001
1.214409e+003, 2.670428e+001
1.214891e+003, 2.693134e+001
1.215373e+003, 2.718632e+001
1.215855e+003, 2.745335e+001
1.216337e+003, 2.759833e+001
1.216819e+003, 2.753185e+001
1.217302e+003, 2.739784e+001
1.217784e+003, 2.734912e+001
1.218266e+003, 2.741172e+001
1.218748e+003, 2.778308e+001
1.219230e+003, 2.834604e+001
1.219712e+003, 2.842326e+001
1.220194e+003, 2.808996e+001
1.220676e+003, 2.790645e+001
1.221159e+003, 2.799444e+001
1.221641e+003, 2.820065e+001
1.222123e+003, 2.844721e+001
1.222605e+003, 2.867944e+001
1.223087e+003, 2.881370e+001
1.223569e+003, 2.893369e+001
1.224051e+003, 2.909023e+001
1.224533e+003, 2.932547e+001
1.225016e+003, 2.976844e+001
1.225498e+003, 3.029924e+001
1.225980e+003, 3.070543e+001
1.226462e+003, 3.094449e+001
1.226944e+003, 3.104197e+001
1.227426e+003, 3.089938e+001
1.227908e+003, 3.092863e+001
1.228390e+003, 3.157472e+001
1.228872e+003, 3.202024e+001
1.229354e+003, 3.163561e+001
1.229837e+003, 3.119846e+001
1.230319e+003, 3.139371e+001
1.230801e+003, 3.192318e+001
1.231283e+003, 3.229523e+001
1.231765e+003, 3.250570e+001
1.232247e+003, 3.234493e+001
1.232729e+003, 3.165052e+001
1.233211e+003, 3.106777e+001
1.233694e+003, 3.059498e+001
1.234176e+003, 3.035541e+001
1.234658e+003, 3.042662e+001
1.235140e+003, 3.057502e+001
1.235622e+003, 3.065386e+001
1.236104e+003, 3.061787e+001
1.236586e+003, 3.036445e+001
1.237068e+003, 2.994250e+001
1.237551e+003, 2.949478e+001
1.238033e+003, 2.906236e+001
1.238515e+003, 2.884951e+001
1.238997e+003, 2.883726e+001
1.239479e+003, 2.888312e+001
1.239961e+003, 2.891364e+001
1.240443e+003, 2.872661e+001
1.240925e+003, 2.812336e+001
1.241407e+003, 2.763503e+001
1.241890e+003, 2.797465e+001
1.242372e+003, 2.846333e+001
1.242854e+003, 2.846007e+001
1.243336e+003, 2.819036e+001
1.243818e+003, 2.782679e+001
1.244300e+003, 2.749454e+001
1.244782e+003, 2.743420e+001
1.245264e+003, 2.765129e+001
1.245746e+003, 2.770513e+001
1.246229e+003, 2.731506e+001
1.246711e+003, 2.706382e+001
1.247193e+003, 2.712722e+001
1.247675e+003, 2.723873e+001
1.248157e+003, 2.730125e+001
1.248639e+003, 2.739583e+001
1.249121e+003, 2.764279e+001
1.249603e+003, 2.789705e+001
1.250085e+003, 2.788574e+001
1.250568e+003, 2.762240e+001
1.251050e+003, 2.733820e+001
1.251532e+003, 2.702855e+001
1.252014e+003, 2.672149e+001
1.252496e+003, 2.641285e+001
1.252978e+003, 2.628684e+001
1.253460e+003, 2.639773e+001
1.253942e+003, 2.654272e+001
1.254425e+003, 2.657731e+001
1.254907e+003, 2.662409e+001
1.255389e+003, 2.696217e+001
1.255871e+003, 2.734544e+001
1.256353e+003, 2.725255e+001
1.256835e+003, 2.689057e+001
1.257317e+003, 2.657545e+001
1.257799e+003, 2.635823e+001
1.258281e+003, 2.627285e+001
1.258764e+003, 2.630267e+001
1.259246e+003, 2.632582e+001
1.259728e+003, 2.627873e+001
1.260210e+003, 2.626669e+001
1.260692e+003, 2.641516e+001
1.261174e+003, 2.650954e+001
1.261656e+003, 2.637406e+001
1.262138e+003, 2.622101e+001
1.262620e+003, 2.625441e+001
1.263103e+003, 2.635336e+001
1.263585e+003, 2.625580e+001
1.264067e+003, 2.601220e+001
1.264549e+003, 2.609245e+001
1.265031e+003, 2.668302e+001
1.265513e+003, 2.691788e+001
1.265995e+003, 2.666655e+001
1.266477e+003, 2.667034e+001
1.266960e+003, 2.714854e+001
1.267442e+003, 2.751555e+001
1.267924e+003, 2.744240e+001
1.268406e+003, 2.712570e+001
1.268888e+003, 2.674703e+001
1.269370e+003, 2.639095e+001
1.269852e+003, 2.628251e+001
1.270334e+003, 2.633644e+001
1.270817e+003, 2.636981e+001
1.271299e+003, 2.636505e+001
1.271781e+003, 2.632191e+001
1.272263e+003, 2.623474e+001
1.272745e+003, 2.602535e+001
1.273227e+003, 2.566365e+001
1.273709e+003, 2.552554e+001
1.274191e+003, 2.609023e+001
1.274673e+003, 2.657835e+001
1.275156e+003, 2.656542e+001
1.275638e+003, 2.638745e+001
1.276120e+003, 2.612335e+001
1.276602e+003, 2.593130e+001
1.277084e+003, 2.604968e+001
1.277566e+003, 2.636681e+001
1.278048e+003, 2.647016e+001
1.278530e+003, 2.630568e+001
1.279012e+003, 2.646266e+001
1.279495e+003, 2.711450e+001
1.279977e+003, 2.744736e+001
1.280459e+003, 2.735232e+001
1.280941e+003, 2.701206e+001
1.281423e+003, 2.645358e+001
1.281905e+003, 2.602361e+001
1.282387e+003, 2.600775e+001
1.282869e+003, 2.620033e+001
1.283352e+003, 2.625744e+001
1.283834e+003, 2.625353e+001
1.284316e+003, 2.634575e+001
1.284798e+003, 2.653552e+001
##END=



