##NAMES=Quartz
##RRUFFID=R150091
##IDEAL CHEMISTRY=SiO_2_
##LOCALITY=unknown
##OWNER=RRUFF
##SOURCE=Michael Scott
##DESCRIPTION=Polished and fragments
##STATUS=The identification of this mineral has been determined only by Raman spectroscopy
##URL=rruff.info/R150091
9.059570e+001, 2.933968e+002
9.107782e+001, 2.927892e+002
9.155994e+001, 2.925875e+002
9.204205e+001, 2.933813e+002
9.252417e+001, 2.941660e+002
9.300629e+001, 2.943021e+002
9.348840e+001, 2.922422e+002
9.397052e+001, 2.868093e+002
9.445264e+001, 2.785881e+002
9.493475e+001, 2.721105e+002
9.541687e+001, 2.657390e+002
9.589898e+001, 2.593160e+002
9.638110e+001, 2.532885e+002
9.686321e+001, 2.481958e+002
9.734533e+001, 2.440927e+002
9.782745e+001, 2.401246e+002
9.830956e+001, 2.357227e+002
9.879168e+001, 2.295950e+002
9.927380e+001, 2.246402e+002
9.975591e+001, 2.221894e+002
1.002380e+002, 2.214812e+002
1.007201e+002, 2.205055e+002
1.012023e+002, 2.178928e+002
1.016844e+002, 2.141114e+002
1.021665e+002, 2.112672e+002
1.026486e+002, 2.095903e+002
1.031307e+002, 2.086046e+002
1.036128e+002, 2.079817e+002
1.040950e+002, 2.077429e+002
1.045771e+002, 2.076540e+002
1.050592e+002, 2.072303e+002
1.055413e+002, 2.067977e+002
1.060234e+002, 2.069468e+002
1.065055e+002, 2.078136e+002
1.069877e+002, 2.094253e+002
1.074698e+002, 2.120806e+002
1.079519e+002, 2.169713e+002
1.084340e+002, 2.214357e+002
1.089161e+002, 2.241575e+002
1.093982e+002, 2.255512e+002
1.098804e+002, 2.266660e+002
1.103625e+002, 2.284351e+002
1.108446e+002, 2.309847e+002
1.113267e+002, 2.334821e+002
1.118088e+002, 2.360946e+002
1.122909e+002, 2.385353e+002
1.127731e+002, 2.404012e+002
1.132552e+002, 2.417653e+002
1.137373e+002, 2.432241e+002
1.142194e+002, 2.456006e+002
1.147015e+002, 2.492456e+002
1.151836e+002, 2.534434e+002
1.156658e+002, 2.579580e+002
1.161479e+002, 2.630950e+002
1.166300e+002, 2.691410e+002
1.171121e+002, 2.762142e+002
1.175942e+002, 2.842451e+002
1.180763e+002, 2.932673e+002
1.185584e+002, 3.037080e+002
1.190406e+002, 3.140130e+002
1.195227e+002, 3.223980e+002
1.200048e+002, 3.300526e+002
1.204869e+002, 3.405296e+002
1.209690e+002, 3.560015e+002
1.214511e+002, 3.750484e+002
1.219333e+002, 3.934333e+002
1.224154e+002, 4.095565e+002
1.228975e+002, 4.277030e+002
1.233796e+002, 4.509536e+002
1.238617e+002, 4.793893e+002
1.243438e+002, 5.125946e+002
1.248260e+002, 5.510367e+002
1.253081e+002, 5.939228e+002
1.257902e+002, 6.420394e+002
1.262723e+002, 6.960648e+002
1.267544e+002, 7.543925e+002
1.272365e+002, 8.147889e+002
1.277187e+002, 8.865402e+002
1.282008e+002, 9.434331e+002
1.286829e+002, 9.886974e+002
1.291650e+002, 1.015645e+003
1.296471e+002, 1.014196e+003
1.301292e+002, 9.762192e+002
1.306114e+002, 9.035871e+002
1.310935e+002, 8.232347e+002
1.315756e+002, 7.183985e+002
1.320577e+002, 6.210729e+002
1.325398e+002, 5.381830e+002
1.330219e+002, 4.695385e+002
1.335041e+002, 4.130090e+002
1.339862e+002, 3.669596e+002
1.344683e+002, 3.324149e+002
1.349504e+002, 3.030727e+002
1.354325e+002, 2.780906e+002
1.359146e+002, 2.576391e+002
1.363968e+002, 2.431283e+002
1.368789e+002, 2.341878e+002
1.373610e+002, 2.278692e+002
1.378431e+002, 2.210487e+002
1.383252e+002, 2.133791e+002
1.388073e+002, 2.073195e+002
1.392895e+002, 2.037986e+002
1.397716e+002, 2.016273e+002
1.402537e+002, 1.995289e+002
1.407358e+002, 1.972742e+002
1.412179e+002, 1.949452e+002
1.417000e+002, 1.925376e+002
1.421821e+002, 1.900489e+002
1.426643e+002, 1.878914e+002
1.431464e+002, 1.866326e+002
1.436285e+002, 1.859389e+002
1.441106e+002, 1.844898e+002
1.445927e+002, 1.814326e+002
1.450748e+002, 1.781782e+002
1.455570e+002, 1.760599e+002
1.460391e+002, 1.750903e+002
1.465212e+002, 1.742997e+002
1.470033e+002, 1.726046e+002
1.474854e+002, 1.698214e+002
1.479675e+002, 1.679202e+002
1.484497e+002, 1.685955e+002
1.489318e+002, 1.694391e+002
1.494139e+002, 1.689789e+002
1.498960e+002, 1.669486e+002
1.503781e+002, 1.643451e+002
1.508602e+002, 1.627418e+002
1.513424e+002, 1.628096e+002
1.518245e+002, 1.623942e+002
1.523066e+002, 1.612306e+002
1.527887e+002, 1.596449e+002
1.532708e+002, 1.576911e+002
1.537529e+002, 1.554311e+002
1.542351e+002, 1.531649e+002
1.547172e+002, 1.516694e+002
1.551993e+002, 1.520341e+002
1.556814e+002, 1.519170e+002
1.561635e+002, 1.508578e+002
1.566456e+002, 1.493643e+002
1.571278e+002, 1.480212e+002
1.576099e+002, 1.471145e+002
1.580920e+002, 1.465820e+002
1.585741e+002, 1.461890e+002
1.590562e+002, 1.460947e+002
1.595383e+002, 1.459396e+002
1.600205e+002, 1.452892e+002
1.605026e+002, 1.444815e+002
1.609847e+002, 1.444182e+002
1.614668e+002, 1.458403e+002
1.619489e+002, 1.482781e+002
1.624310e+002, 1.495801e+002
1.629131e+002, 1.489790e+002
1.633953e+002, 1.480854e+002
1.638774e+002, 1.476152e+002
1.643595e+002, 1.475719e+002
1.648416e+002, 1.480528e+002
1.653237e+002, 1.494393e+002
1.658058e+002, 1.513465e+002
1.662880e+002, 1.528624e+002
1.667701e+002, 1.537777e+002
1.672522e+002, 1.543625e+002
1.677343e+002, 1.548422e+002
1.682164e+002, 1.551785e+002
1.686985e+002, 1.555890e+002
1.691807e+002, 1.561528e+002
1.696628e+002, 1.568718e+002
1.701449e+002, 1.577800e+002
1.706270e+002, 1.588571e+002
1.711091e+002, 1.601472e+002
1.715912e+002, 1.618603e+002
1.720734e+002, 1.644176e+002
1.725555e+002, 1.665993e+002
1.730376e+002, 1.676363e+002
1.735197e+002, 1.681320e+002
1.740018e+002, 1.689343e+002
1.744839e+002, 1.705283e+002
1.749661e+002, 1.728320e+002
1.754482e+002, 1.753606e+002
1.759303e+002, 1.784590e+002
1.764124e+002, 1.814040e+002
1.768945e+002, 1.838900e+002
1.773766e+002, 1.860928e+002
1.778588e+002, 1.882811e+002
1.783409e+002, 1.906378e+002
1.788230e+002, 1.931677e+002
1.793051e+002, 1.959777e+002
1.797872e+002, 1.988877e+002
1.802693e+002, 2.022476e+002
1.807515e+002, 2.063566e+002
1.812336e+002, 2.110475e+002
1.817157e+002, 2.158460e+002
1.821978e+002, 2.203215e+002
1.826799e+002, 2.243851e+002
1.831620e+002, 2.290432e+002
1.836441e+002, 2.345147e+002
1.841263e+002, 2.402287e+002
1.846084e+002, 2.458720e+002
1.850905e+002, 2.514532e+002
1.855726e+002, 2.571653e+002
1.860547e+002, 2.631030e+002
1.865368e+002, 2.692813e+002
1.870190e+002, 2.760836e+002
1.875011e+002, 2.838879e+002
1.879832e+002, 2.919581e+002
1.884653e+002, 2.995777e+002
1.889474e+002, 3.066738e+002
1.894296e+002, 3.140784e+002
1.899117e+002, 3.226937e+002
1.903938e+002, 3.324926e+002
1.908759e+002, 3.424706e+002
1.913580e+002, 3.523790e+002
1.918401e+002, 3.624372e+002
1.923223e+002, 3.730524e+002
1.928044e+002, 3.843763e+002
1.932865e+002, 3.958013e+002
1.937686e+002, 4.065294e+002
1.942507e+002, 4.168275e+002
1.947328e+002, 4.275613e+002
1.952150e+002, 4.392399e+002
1.956971e+002, 4.515262e+002
1.961792e+002, 4.638251e+002
1.966613e+002, 4.760956e+002
1.971434e+002, 4.883608e+002
1.976255e+002, 5.007326e+002
1.981077e+002, 5.131885e+002
1.985898e+002, 5.253967e+002
1.990719e+002, 5.367106e+002
1.995540e+002, 5.475732e+002
2.000361e+002, 5.600210e+002
2.005182e+002, 5.757503e+002
2.010004e+002, 5.907891e+002
2.014825e+002, 6.028989e+002
2.019646e+002, 6.126995e+002
2.024467e+002, 6.216295e+002
2.029288e+002, 6.308290e+002
2.034109e+002, 6.402263e+002
2.038930e+002, 6.482169e+002
2.043752e+002, 6.543488e+002
2.048573e+002, 6.592872e+002
2.053394e+002, 6.637683e+002
2.058215e+002, 6.673513e+002
2.063036e+002, 6.690121e+002
2.067857e+002, 6.677250e+002
2.072679e+002, 6.633843e+002
2.077500e+002, 6.581610e+002
2.082321e+002, 6.521426e+002
2.087142e+002, 6.450704e+002
2.091963e+002, 6.366229e+002
2.096784e+002, 6.269841e+002
2.101606e+002, 6.165944e+002
2.106427e+002, 6.057745e+002
2.111248e+002, 5.945648e+002
2.116069e+002, 5.831065e+002
2.120890e+002, 5.721651e+002
2.125711e+002, 5.603488e+002
2.130533e+002, 5.467336e+002
2.135354e+002, 5.316246e+002
2.140175e+002, 5.158653e+002
2.144996e+002, 5.001653e+002
2.149817e+002, 4.844376e+002
2.154638e+002, 4.693371e+002
2.159460e+002, 4.548736e+002
2.164281e+002, 4.408295e+002
2.169102e+002, 4.270403e+002
2.173923e+002, 4.135470e+002
2.178744e+002, 4.002851e+002
2.183565e+002, 3.872060e+002
2.188387e+002, 3.742867e+002
2.193208e+002, 3.623923e+002
2.198029e+002, 3.520701e+002
2.202850e+002, 3.421386e+002
2.207671e+002, 3.316577e+002
2.212492e+002, 3.206991e+002
2.217314e+002, 3.102432e+002
2.222135e+002, 3.012277e+002
2.226956e+002, 2.937959e+002
2.231777e+002, 2.861761e+002
2.236598e+002, 2.778660e+002
2.241419e+002, 2.697211e+002
2.246240e+002, 2.625184e+002
2.251062e+002, 2.562548e+002
2.255883e+002, 2.502586e+002
2.260704e+002, 2.438436e+002
2.265525e+002, 2.372040e+002
2.270346e+002, 2.314289e+002
2.275167e+002, 2.272292e+002
2.279989e+002, 2.235347e+002
2.284810e+002, 2.195711e+002
2.289631e+002, 2.153155e+002
2.294452e+002, 2.106527e+002
2.299273e+002, 2.052453e+002
2.304094e+002, 1.993782e+002
2.308916e+002, 1.938119e+002
2.313737e+002, 1.883230e+002
2.318558e+002, 1.834019e+002
2.323379e+002, 1.798766e+002
2.328200e+002, 1.779301e+002
2.333021e+002, 1.760954e+002
2.337843e+002, 1.732397e+002
2.342664e+002, 1.699194e+002
2.347485e+002, 1.669800e+002
2.352306e+002, 1.647256e+002
2.357127e+002, 1.628647e+002
2.361948e+002, 1.610131e+002
2.366770e+002, 1.591488e+002
2.371591e+002, 1.573409e+002
2.376412e+002, 1.558786e+002
2.381233e+002, 1.544065e+002
2.386054e+002, 1.524133e+002
2.390875e+002, 1.495346e+002
2.395697e+002, 1.463674e+002
2.400518e+002, 1.439308e+002
2.405339e+002, 1.424204e+002
2.410160e+002, 1.409894e+002
2.414981e+002, 1.391741e+002
2.419802e+002, 1.373269e+002
2.424624e+002, 1.358084e+002
2.429445e+002, 1.347718e+002
2.434266e+002, 1.340313e+002
2.439087e+002, 1.332362e+002
2.443908e+002, 1.322626e+002
2.448729e+002, 1.315916e+002
2.453550e+002, 1.316396e+002
2.458372e+002, 1.318759e+002
2.463193e+002, 1.318970e+002
2.468014e+002, 1.315717e+002
2.472835e+002, 1.309278e+002
2.477656e+002, 1.299143e+002
2.482477e+002, 1.282573e+002
2.487299e+002, 1.269026e+002
2.492120e+002, 1.261409e+002
2.496941e+002, 1.256311e+002
2.501762e+002, 1.251443e+002
2.506583e+002, 1.246062e+002
2.511404e+002, 1.240586e+002
2.516226e+002, 1.235416e+002
2.521047e+002, 1.229795e+002
2.525868e+002, 1.226471e+002
2.530689e+002, 1.226069e+002
2.535510e+002, 1.227358e+002
2.540331e+002, 1.230680e+002
2.545153e+002, 1.235671e+002
2.549974e+002, 1.239887e+002
2.554795e+002, 1.238604e+002
2.559616e+002, 1.226162e+002
2.564437e+002, 1.220800e+002
2.569258e+002, 1.225085e+002
2.574080e+002, 1.233418e+002
2.578901e+002, 1.241693e+002
2.583722e+002, 1.249417e+002
2.588543e+002, 1.259523e+002
2.593364e+002, 1.276485e+002
2.598185e+002, 1.303862e+002
2.603007e+002, 1.329372e+002
2.607828e+002, 1.349616e+002
2.612649e+002, 1.371174e+002
2.617470e+002, 1.396991e+002
2.622291e+002, 1.428018e+002
2.627112e+002, 1.464939e+002
2.631934e+002, 1.510912e+002
2.636755e+002, 1.574089e+002
2.641576e+002, 1.614685e+002
2.646397e+002, 1.631898e+002
2.651218e+002, 1.632316e+002
2.656039e+002, 1.619867e+002
2.660861e+002, 1.594423e+002
2.665682e+002, 1.551992e+002
2.670503e+002, 1.486639e+002
2.675324e+002, 1.393969e+002
2.680145e+002, 1.306478e+002
2.684966e+002, 1.218557e+002
2.689788e+002, 1.139472e+002
2.694609e+002, 1.073719e+002
2.699430e+002, 1.021251e+002
2.704251e+002, 9.807355e+001
2.709072e+002, 9.520782e+001
2.713893e+002, 9.358869e+001
2.718715e+002, 9.199290e+001
2.723536e+002, 9.047330e+001
2.728357e+002, 8.892397e+001
2.733178e+002, 8.729048e+001
2.737999e+002, 8.559132e+001
2.742820e+002, 8.381392e+001
2.747642e+002, 8.186342e+001
2.752463e+002, 7.982032e+001
2.757284e+002, 7.879992e+001
2.762105e+002, 7.954214e+001
2.766926e+002, 8.023840e+001
2.771747e+002, 8.040797e+001
2.776568e+002, 8.007553e+001
2.781389e+002, 7.925237e+001
2.786211e+002, 7.784621e+001
2.791032e+002, 7.609640e+001
2.795853e+002, 7.506874e+001
2.800674e+002, 7.535831e+001
2.805495e+002, 7.551039e+001
2.810316e+002, 7.495567e+001
2.815138e+002, 7.404417e+001
2.819959e+002, 7.346036e+001
2.824780e+002, 7.354688e+001
2.829601e+002, 7.396891e+001
2.834422e+002, 7.381503e+001
2.839243e+002, 7.265777e+001
2.844065e+002, 7.181905e+001
2.848886e+002, 7.189268e+001
2.853707e+002, 7.236095e+001
2.858528e+002, 7.241975e+001
2.863349e+002, 7.177805e+001
2.868170e+002, 7.082465e+001
2.872992e+002, 7.018092e+001
2.877813e+002, 6.985532e+001
2.882634e+002, 6.976601e+001
2.887455e+002, 7.020881e+001
2.892276e+002, 7.076247e+001
2.897097e+002, 7.088998e+001
2.901919e+002, 7.046307e+001
2.906740e+002, 6.975116e+001
2.911561e+002, 6.895769e+001
2.916382e+002, 6.802567e+001
2.921203e+002, 6.755541e+001
2.926024e+002, 6.823492e+001
2.930846e+002, 6.904893e+001
2.935667e+002, 6.881031e+001
2.940488e+002, 6.738606e+001
2.945309e+002, 6.587356e+001
2.950130e+002, 6.527790e+001
2.954951e+002, 6.564507e+001
2.959773e+002, 6.605419e+001
2.964594e+002, 6.671318e+001
2.969415e+002, 6.723137e+001
2.974236e+002, 6.713092e+001
2.979057e+002, 6.646285e+001
2.983878e+002, 6.593941e+001
2.988700e+002, 6.616370e+001
2.993521e+002, 6.698040e+001
2.998342e+002, 6.731575e+001
3.003163e+002, 6.675279e+001
3.007984e+002, 6.609730e+001
3.012805e+002, 6.588599e+001
3.017627e+002, 6.601871e+001
3.022448e+002, 6.599967e+001
3.027269e+002, 6.551987e+001
3.032090e+002, 6.474355e+001
3.036911e+002, 6.418007e+001
3.041732e+002, 6.391378e+001
3.046554e+002, 6.369212e+001
3.051375e+002, 6.342871e+001
3.056196e+002, 6.312632e+001
3.061017e+002, 6.274902e+001
3.065838e+002, 6.222355e+001
3.070659e+002, 6.173100e+001
3.075481e+002, 6.167236e+001
3.080302e+002, 6.211110e+001
3.085123e+002, 6.258648e+001
3.089944e+002, 6.308132e+001
3.094765e+002, 6.349095e+001
3.099586e+002, 6.354848e+001
3.104408e+002, 6.312592e+001
3.109229e+002, 6.260494e+001
3.114050e+002, 6.259739e+001
3.118871e+002, 6.313228e+001
3.123692e+002, 6.336855e+001
3.128513e+002, 6.277522e+001
3.133335e+002, 6.196623e+001
3.138156e+002, 6.179469e+001
3.142977e+002, 6.240718e+001
3.147798e+002, 6.303017e+001
3.152619e+002, 6.287151e+001
3.157440e+002, 6.198188e+001
3.162262e+002, 6.133016e+001
3.167083e+002, 6.095295e+001
3.171904e+002, 6.087051e+001
3.176725e+002, 6.128293e+001
3.181546e+002, 6.214117e+001
3.186367e+002, 6.284795e+001
3.191188e+002, 6.296116e+001
3.196010e+002, 6.258482e+001
3.200831e+002, 6.235331e+001
3.205652e+002, 6.247343e+001
3.210473e+002, 6.252866e+001
3.215294e+002, 6.213981e+001
3.220115e+002, 6.145752e+001
3.224937e+002, 6.102863e+001
3.229758e+002, 6.115081e+001
3.234579e+002, 6.163734e+001
3.239400e+002, 6.202925e+001
3.244221e+002, 6.238055e+001
3.249042e+002, 6.256155e+001
3.253864e+002, 6.248135e+001
3.258685e+002, 6.220750e+001
3.263506e+002, 6.181440e+001
3.268327e+002, 6.128645e+001
3.273148e+002, 6.078900e+001
3.277969e+002, 6.062987e+001
3.282791e+002, 6.086163e+001
3.287612e+002, 6.103972e+001
3.292433e+002, 6.102889e+001
3.297254e+002, 6.094772e+001
3.302075e+002, 6.097488e+001
3.306896e+002, 6.114132e+001
3.311718e+002, 6.123958e+001
3.316539e+002, 6.098455e+001
3.321360e+002, 6.034349e+001
3.326181e+002, 6.005326e+001
3.331002e+002, 6.036271e+001
3.335823e+002, 6.085970e+001
3.340645e+002, 6.125541e+001
3.345466e+002, 6.154630e+001
3.350287e+002, 6.187095e+001
3.355108e+002, 6.231470e+001
3.359929e+002, 6.287913e+001
3.364750e+002, 6.351678e+001
3.369572e+002, 6.447985e+001
3.374393e+002, 6.525427e+001
3.379214e+002, 6.541933e+001
3.384035e+002, 6.522429e+001
3.388856e+002, 6.529082e+001
3.393677e+002, 6.593990e+001
3.398499e+002, 6.694501e+001
3.403320e+002, 6.769929e+001
3.408141e+002, 6.815213e+001
3.412962e+002, 6.849430e+001
3.417783e+002, 6.854295e+001
3.422604e+002, 6.857832e+001
3.427426e+002, 6.906863e+001
3.432247e+002, 7.014671e+001
3.437068e+002, 7.135078e+001
3.441889e+002, 7.199612e+001
3.446710e+002, 7.174176e+001
3.451531e+002, 7.193284e+001
3.456353e+002, 7.282996e+001
3.461174e+002, 7.399749e+001
3.465995e+002, 7.502129e+001
3.470816e+002, 7.590921e+001
3.475637e+002, 7.706150e+001
3.480458e+002, 7.883066e+001
3.485280e+002, 8.125484e+001
3.490101e+002, 8.387676e+001
3.494922e+002, 8.658379e+001
3.499743e+002, 8.955701e+001
3.504564e+002, 9.265649e+001
3.509385e+002, 9.605355e+001
3.514207e+002, 1.001633e+002
3.519028e+002, 1.052339e+002
3.523849e+002, 1.111294e+002
3.528670e+002, 1.173657e+002
3.533491e+002, 1.235440e+002
3.538312e+002, 1.305325e+002
3.543134e+002, 1.394662e+002
3.547955e+002, 1.488503e+002
3.552776e+002, 1.577117e+002
3.557597e+002, 1.655819e+002
3.562418e+002, 1.711646e+002
3.567239e+002, 1.723696e+002
3.572061e+002, 1.687368e+002
3.576882e+002, 1.607531e+002
3.581703e+002, 1.450722e+002
3.586524e+002, 1.279611e+002
3.591345e+002, 1.130008e+002
3.596166e+002, 1.008414e+002
3.600987e+002, 9.107606e+001
3.605808e+002, 8.336095e+001
3.610630e+002, 7.781813e+001
3.615451e+002, 7.323226e+001
3.620272e+002, 6.982254e+001
3.625093e+002, 6.707240e+001
3.629914e+002, 6.502052e+001
3.634735e+002, 6.348521e+001
3.639557e+002, 6.223798e+001
3.644378e+002, 6.114263e+001
3.649199e+002, 6.020285e+001
3.654020e+002, 5.942889e+001
3.658841e+002, 5.875103e+001
3.663662e+002, 5.837511e+001
3.668484e+002, 5.841998e+001
3.673305e+002, 5.871030e+001
3.678126e+002, 5.918710e+001
3.682947e+002, 5.979903e+001
3.687768e+002, 6.031842e+001
3.692589e+002, 6.030983e+001
3.697411e+002, 5.945417e+001
3.702232e+002, 5.894468e+001
3.707053e+002, 5.915361e+001
3.711874e+002, 5.941519e+001
3.716695e+002, 5.928299e+001
3.721516e+002, 5.882676e+001
3.726338e+002, 5.848623e+001
3.731159e+002, 5.869989e+001
3.735980e+002, 5.944656e+001
3.740801e+002, 6.002001e+001
3.745622e+002, 6.008336e+001
3.750443e+002, 6.040419e+001
3.755265e+002, 6.144151e+001
3.760086e+002, 6.283866e+001
3.764907e+002, 6.397421e+001
3.769728e+002, 6.446658e+001
3.774549e+002, 6.473666e+001
3.779370e+002, 6.578882e+001
3.784192e+002, 6.789642e+001
3.789013e+002, 7.001789e+001
3.793834e+002, 7.215701e+001
3.798655e+002, 7.402703e+001
3.803476e+002, 7.530154e+001
3.808297e+002, 7.592252e+001
3.813119e+002, 7.629588e+001
3.817940e+002, 7.694216e+001
3.822761e+002, 7.784746e+001
3.827582e+002, 7.813750e+001
3.832403e+002, 7.723589e+001
3.837224e+002, 7.623116e+001
3.842046e+002, 7.568997e+001
3.846867e+002, 7.562718e+001
3.851688e+002, 7.605427e+001
3.856509e+002, 7.732869e+001
3.861330e+002, 7.903679e+001
3.866151e+002, 8.009581e+001
3.870973e+002, 8.024339e+001
3.875794e+002, 8.066885e+001
3.880615e+002, 8.172713e+001
3.885436e+002, 8.360986e+001
3.890257e+002, 8.679694e+001
3.895078e+002, 9.169234e+001
3.899900e+002, 9.734013e+001
3.904721e+002, 1.028381e+002
3.909542e+002, 1.082942e+002
3.914363e+002, 1.143922e+002
3.919184e+002, 1.213991e+002
3.924005e+002, 1.291315e+002
3.928827e+002, 1.375111e+002
3.933648e+002, 1.466095e+002
3.938469e+002, 1.553615e+002
3.943290e+002, 1.653012e+002
3.948111e+002, 1.739997e+002
3.952932e+002, 1.772013e+002
3.957754e+002, 1.741434e+002
3.962575e+002, 1.674214e+002
3.967396e+002, 1.577713e+002
3.972217e+002, 1.457101e+002
3.977038e+002, 1.367301e+002
3.981859e+002, 1.332737e+002
3.986681e+002, 1.309366e+002
3.991501e+002, 1.274020e+002
3.996323e+002, 1.226301e+002
4.001144e+002, 1.166316e+002
4.005965e+002, 1.091903e+002
4.010786e+002, 1.008853e+002
4.015607e+002, 9.346037e+001
4.020428e+002, 8.667952e+001
4.025250e+002, 8.097526e+001
4.030071e+002, 7.664071e+001
4.034892e+002, 7.331853e+001
4.039713e+002, 7.082256e+001
4.044534e+002, 6.906656e+001
4.049355e+002, 6.762425e+001
4.054177e+002, 6.597581e+001
4.058998e+002, 6.400638e+001
4.063819e+002, 6.251283e+001
4.068640e+002, 6.148534e+001
4.073461e+002, 6.087537e+001
4.078282e+002, 6.086840e+001
4.083104e+002, 6.126514e+001
4.087925e+002, 6.165652e+001
4.092746e+002, 6.180595e+001
4.097567e+002, 6.171002e+001
4.102388e+002, 6.134455e+001
4.107209e+002, 6.010074e+001
4.112031e+002, 5.939775e+001
4.116852e+002, 5.969608e+001
4.121673e+002, 6.038581e+001
4.126494e+002, 6.096411e+001
4.131315e+002, 6.126951e+001
4.136136e+002, 6.133514e+001
4.140958e+002, 6.109379e+001
4.145779e+002, 6.032922e+001
4.150600e+002, 6.013053e+001
4.155421e+002, 6.141685e+001
4.160242e+002, 6.242217e+001
4.165063e+002, 6.207401e+001
4.169885e+002, 6.086611e+001
4.174706e+002, 6.006178e+001
4.179527e+002, 6.052808e+001
4.184348e+002, 6.192558e+001
4.189169e+002, 6.314718e+001
4.193990e+002, 6.422490e+001
4.198812e+002, 6.502816e+001
4.203633e+002, 6.542116e+001
4.208454e+002, 6.558907e+001
4.213275e+002, 6.568784e+001
4.218096e+002, 6.575562e+001
4.222917e+002, 6.572469e+001
4.227739e+002, 6.545614e+001
4.232560e+002, 6.496674e+001
4.237381e+002, 6.457520e+001
4.242202e+002, 6.421127e+001
4.247023e+002, 6.413828e+001
4.251844e+002, 6.473492e+001
4.256666e+002, 6.580500e+001
4.261487e+002, 6.663409e+001
4.266308e+002, 6.665117e+001
4.271129e+002, 6.637914e+001
4.275950e+002, 6.673233e+001
4.280771e+002, 6.776712e+001
4.285593e+002, 6.849977e+001
4.290414e+002, 6.809171e+001
4.295235e+002, 6.721127e+001
4.300056e+002, 6.735750e+001
4.304877e+002, 6.895427e+001
4.309698e+002, 7.062405e+001
4.314520e+002, 7.162406e+001
4.319341e+002, 7.222208e+001
4.324162e+002, 7.292599e+001
4.328983e+002, 7.384818e+001
4.333804e+002, 7.496136e+001
4.338625e+002, 7.628679e+001
4.343447e+002, 7.786333e+001
4.348268e+002, 7.931316e+001
4.353089e+002, 8.034898e+001
4.357910e+002, 8.148842e+001
4.362731e+002, 8.326888e+001
4.367552e+002, 8.548892e+001
4.372374e+002, 8.737328e+001
4.377195e+002, 8.839967e+001
4.382016e+002, 8.889393e+001
4.386837e+002, 9.008617e+001
4.391658e+002, 9.231990e+001
4.396479e+002, 9.483954e+001
4.401301e+002, 9.757198e+001
4.406122e+002, 1.005762e+002
4.410943e+002, 1.039035e+002
4.415764e+002, 1.075478e+002
4.420585e+002, 1.114715e+002
4.425406e+002, 1.155469e+002
4.430227e+002, 1.196945e+002
4.435049e+002, 1.246545e+002
4.439870e+002, 1.301729e+002
4.444691e+002, 1.367840e+002
4.449512e+002, 1.448392e+002
4.454333e+002, 1.540359e+002
4.459154e+002, 1.638918e+002
4.463976e+002, 1.740362e+002
4.468797e+002, 1.849676e+002
4.473618e+002, 1.978353e+002
4.478439e+002, 2.128950e+002
4.483260e+002, 2.291255e+002
4.488081e+002, 2.473459e+002
4.492903e+002, 2.660610e+002
4.497724e+002, 2.846335e+002
4.502545e+002, 3.029118e+002
4.507366e+002, 3.207081e+002
4.512187e+002, 3.376523e+002
4.517008e+002, 3.539534e+002
4.521830e+002, 3.698128e+002
4.526651e+002, 3.846015e+002
4.531472e+002, 4.003490e+002
4.536293e+002, 4.170051e+002
4.541114e+002, 4.356977e+002
4.545935e+002, 4.587726e+002
4.550757e+002, 4.874565e+002
4.555578e+002, 5.190004e+002
4.560399e+002, 5.496666e+002
4.565220e+002, 5.807983e+002
4.570041e+002, 6.191118e+002
4.574862e+002, 6.671578e+002
4.579684e+002, 7.218008e+002
4.584505e+002, 7.794640e+002
4.589326e+002, 8.396935e+002
4.594147e+002, 9.052681e+002
4.598968e+002, 9.748137e+002
4.603789e+002, 1.051043e+003
4.608611e+002, 1.137315e+003
4.613432e+002, 1.232984e+003
4.618253e+002, 1.334626e+003
4.623074e+002, 1.442013e+003
4.627895e+002, 1.552690e+003
4.632716e+002, 1.658990e+003
4.637538e+002, 1.773964e+003
4.642359e+002, 1.868103e+003
4.647180e+002, 1.944658e+003
4.652001e+002, 1.996069e+003
4.656822e+002, 2.014796e+003
4.661643e+002, 1.999434e+003
4.666465e+002, 1.951971e+003
4.671286e+002, 1.872620e+003
4.676107e+002, 1.758045e+003
4.680928e+002, 1.636845e+003
4.685749e+002, 1.500989e+003
4.690570e+002, 1.366859e+003
4.695392e+002, 1.234568e+003
4.700213e+002, 1.108219e+003
4.705034e+002, 9.939593e+002
4.709855e+002, 8.943962e+002
4.714676e+002, 8.075566e+002
4.719497e+002, 7.305448e+002
4.724319e+002, 6.639539e+002
4.729140e+002, 6.050342e+002
4.733961e+002, 5.564146e+002
4.738782e+002, 5.137408e+002
4.743603e+002, 4.754056e+002
4.748424e+002, 4.412322e+002
4.753246e+002, 4.102108e+002
4.758067e+002, 3.818932e+002
4.762888e+002, 3.565342e+002
4.767709e+002, 3.346641e+002
4.772530e+002, 3.166030e+002
4.777351e+002, 3.005903e+002
4.782173e+002, 2.862620e+002
4.786994e+002, 2.734064e+002
4.791815e+002, 2.616707e+002
4.796636e+002, 2.511893e+002
4.801457e+002, 2.413565e+002
4.806278e+002, 2.319422e+002
4.811100e+002, 2.229611e+002
4.815920e+002, 2.144353e+002
4.820742e+002, 2.063732e+002
4.825563e+002, 1.986390e+002
4.830384e+002, 1.909196e+002
4.835205e+002, 1.833104e+002
4.840026e+002, 1.769789e+002
4.844847e+002, 1.728665e+002
4.849669e+002, 1.689373e+002
4.854490e+002, 1.641015e+002
4.859311e+002, 1.589180e+002
4.864132e+002, 1.544530e+002
4.868953e+002, 1.510860e+002
4.873774e+002, 1.483542e+002
4.878596e+002, 1.455572e+002
4.883417e+002, 1.427091e+002
4.888238e+002, 1.396855e+002
4.893059e+002, 1.364289e+002
4.897880e+002, 1.330918e+002
4.902701e+002, 1.295405e+002
4.907523e+002, 1.259869e+002
4.912344e+002, 1.228760e+002
4.917165e+002, 1.205128e+002
4.921986e+002, 1.186981e+002
4.926807e+002, 1.168644e+002
4.931628e+002, 1.148990e+002
4.936450e+002, 1.132419e+002
4.941271e+002, 1.125634e+002
4.946092e+002, 1.118175e+002
4.950913e+002, 1.101254e+002
4.955734e+002, 1.075362e+002
4.960555e+002, 1.049918e+002
4.965377e+002, 1.033053e+002
4.970198e+002, 1.021597e+002
4.975019e+002, 1.005996e+002
4.979840e+002, 9.846368e+001
4.984661e+002, 9.658514e+001
4.989482e+002, 9.549346e+001
4.994304e+002, 9.492778e+001
4.999125e+002, 9.438170e+001
5.003946e+002, 9.385856e+001
5.008767e+002, 9.327946e+001
5.013588e+002, 9.273651e+001
5.018409e+002, 9.207404e+001
5.023231e+002, 9.092037e+001
5.028052e+002, 8.919698e+001
5.032873e+002, 8.731572e+001
5.037694e+002, 8.561456e+001
5.042515e+002, 8.408877e+001
5.047336e+002, 8.291634e+001
5.052158e+002, 8.233323e+001
5.056979e+002, 8.179689e+001
5.061800e+002, 8.093459e+001
5.066621e+002, 8.004755e+001
5.071442e+002, 7.975189e+001
5.076263e+002, 8.023608e+001
5.081085e+002, 8.087731e+001
5.085906e+002, 8.063966e+001
5.090727e+002, 7.914927e+001
5.095548e+002, 7.813106e+001
5.100369e+002, 7.791698e+001
5.105190e+002, 7.784777e+001
5.110012e+002, 7.774001e+001
5.114833e+002, 7.758514e+001
5.119654e+002, 7.744621e+001
5.124475e+002, 7.739011e+001
5.129296e+002, 7.724461e+001
5.134117e+002, 7.660879e+001
5.138939e+002, 7.539497e+001
5.143760e+002, 7.434476e+001
5.148581e+002, 7.361562e+001
5.153402e+002, 7.311312e+001
5.158223e+002, 7.288388e+001
5.163044e+002, 7.285766e+001
5.167866e+002, 7.259311e+001
5.172687e+002, 7.180840e+001
5.177508e+002, 7.073910e+001
5.182329e+002, 6.953480e+001
5.187150e+002, 6.823447e+001
5.191971e+002, 6.727464e+001
5.196793e+002, 6.691772e+001
5.201614e+002, 6.695660e+001
5.206435e+002, 6.696033e+001
5.211256e+002, 6.693167e+001
5.216077e+002, 6.687073e+001
5.220898e+002, 6.690399e+001
5.225720e+002, 6.681737e+001
5.230541e+002, 6.630064e+001
5.235362e+002, 6.543189e+001
5.240183e+002, 6.464609e+001
5.245004e+002, 6.427889e+001
5.249825e+002, 6.423069e+001
5.254647e+002, 6.397478e+001
5.259468e+002, 6.338689e+001
5.264289e+002, 6.275674e+001
5.269110e+002, 6.193131e+001
5.273931e+002, 6.119583e+001
5.278752e+002, 6.078132e+001
5.283574e+002, 6.071147e+001
5.288395e+002, 6.088314e+001
5.293216e+002, 6.135883e+001
5.298037e+002, 6.202235e+001
5.302858e+002, 6.209139e+001
5.307679e+002, 6.130519e+001
5.312501e+002, 6.052804e+001
5.317322e+002, 5.999105e+001
5.322143e+002, 5.972311e+001
5.326964e+002, 5.990539e+001
5.331785e+002, 6.065443e+001
5.336606e+002, 6.122305e+001
5.341428e+002, 6.092197e+001
5.346249e+002, 6.013213e+001
5.351070e+002, 5.972029e+001
5.355891e+002, 5.982267e+001
5.360712e+002, 5.994208e+001
5.365533e+002, 5.969400e+001
5.370355e+002, 5.913763e+001
5.375176e+002, 5.868378e+001
5.379997e+002, 5.832595e+001
5.384818e+002, 5.806565e+001
5.389639e+002, 5.794181e+001
5.394460e+002, 5.789673e+001
5.399282e+002, 5.788398e+001
5.404103e+002, 5.788249e+001
5.408924e+002, 5.784863e+001
5.413745e+002, 5.773743e+001
5.418566e+002, 5.754806e+001
5.423387e+002, 5.731036e+001
5.428209e+002, 5.705838e+001
5.433029e+002, 5.671103e+001
5.437850e+002, 5.606772e+001
5.442672e+002, 5.541072e+001
5.447493e+002, 5.507130e+001
5.452314e+002, 5.513140e+001
5.457135e+002, 5.539159e+001
5.461956e+002, 5.580246e+001
5.466777e+002, 5.631480e+001
5.471599e+002, 5.624245e+001
5.476420e+002, 5.528448e+001
5.481241e+002, 5.430718e+001
5.486062e+002, 5.389053e+001
5.490883e+002, 5.380414e+001
5.495704e+002, 5.371968e+001
5.500526e+002, 5.363792e+001
5.505347e+002, 5.343717e+001
5.510168e+002, 5.280509e+001
5.514989e+002, 5.203971e+001
5.519810e+002, 5.195241e+001
5.524631e+002, 5.273318e+001
5.529453e+002, 5.336601e+001
5.534274e+002, 5.275634e+001
5.539095e+002, 5.089532e+001
5.543916e+002, 4.996909e+001
5.548737e+002, 5.077416e+001
5.553558e+002, 5.141201e+001
5.558380e+002, 5.115788e+001
5.563201e+002, 5.054173e+001
5.568022e+002, 5.017704e+001
5.572843e+002, 5.024334e+001
5.577664e+002, 5.064391e+001
5.582485e+002, 5.143277e+001
5.587307e+002, 5.265046e+001
5.592128e+002, 5.297259e+001
5.596949e+002, 5.170127e+001
5.601770e+002, 5.051172e+001
5.606591e+002, 5.006498e+001
5.611412e+002, 4.996043e+001
5.616234e+002, 4.972158e+001
5.621055e+002, 4.922685e+001
5.625876e+002, 4.863247e+001
5.630697e+002, 4.777414e+001
5.635518e+002, 4.690635e+001
5.640339e+002, 4.716993e+001
5.645161e+002, 4.897169e+001
5.649982e+002, 5.047636e+001
5.654803e+002, 5.021512e+001
5.659624e+002, 4.854144e+001
5.664445e+002, 4.725128e+001
5.669266e+002, 4.628617e+001
5.674088e+002, 4.577897e+001
5.678909e+002, 4.604889e+001
5.683730e+002, 4.667290e+001
5.688551e+002, 4.716782e+001
5.693372e+002, 4.742818e+001
5.698193e+002, 4.753698e+001
5.703015e+002, 4.754574e+001
5.707836e+002, 4.746468e+001
5.712657e+002, 4.749425e+001
5.717478e+002, 4.775875e+001
5.722299e+002, 4.796908e+001
5.727120e+002, 4.810340e+001
5.731942e+002, 4.815321e+001
5.736763e+002, 4.808013e+001
5.741584e+002, 4.789439e+001
5.746405e+002, 4.770054e+001
5.751226e+002, 4.766674e+001
5.756047e+002, 4.771032e+001
5.760869e+002, 4.740393e+001
5.765690e+002, 4.662547e+001
5.770511e+002, 4.601217e+001
5.775332e+002, 4.591441e+001
5.780153e+002, 4.614695e+001
5.784974e+002, 4.638569e+001
5.789796e+002, 4.660917e+001
5.794617e+002, 4.691291e+001
5.799438e+002, 4.755437e+001
5.804259e+002, 4.816372e+001
5.809080e+002, 4.817442e+001
5.813901e+002, 4.765145e+001
5.818723e+002, 4.730323e+001
5.823544e+002, 4.764550e+001
5.828365e+002, 4.835786e+001
5.833186e+002, 4.832269e+001
5.838007e+002, 4.646104e+001
5.842828e+002, 4.550847e+001
5.847650e+002, 4.608199e+001
5.852471e+002, 4.703596e+001
5.857292e+002, 4.784640e+001
5.862113e+002, 4.836609e+001
5.866934e+002, 4.846240e+001
5.871755e+002, 4.797995e+001
5.876577e+002, 4.716066e+001
5.881398e+002, 4.651238e+001
5.886219e+002, 4.602595e+001
5.891040e+002, 4.578934e+001
5.895861e+002, 4.597585e+001
5.900682e+002, 4.625578e+001
5.905504e+002, 4.632561e+001
5.910325e+002, 4.621038e+001
5.915146e+002, 4.606410e+001
5.919967e+002, 4.576802e+001
5.924788e+002, 4.559861e+001
5.929609e+002, 4.605983e+001
5.934431e+002, 4.686262e+001
5.939252e+002, 4.704398e+001
5.944073e+002, 4.621564e+001
5.948894e+002, 4.505853e+001
5.953715e+002, 4.452651e+001
5.958536e+002, 4.476908e+001
5.963358e+002, 4.497591e+001
5.968179e+002, 4.531406e+001
5.973000e+002, 4.543908e+001
5.977821e+002, 4.499483e+001
5.982642e+002, 4.434681e+001
5.987463e+002, 4.407887e+001
5.992285e+002, 4.437588e+001
5.997106e+002, 4.477100e+001
6.001927e+002, 4.454009e+001
6.006748e+002, 4.372375e+001
6.011569e+002, 4.357840e+001
6.016390e+002, 4.448935e+001
6.021212e+002, 4.536303e+001
6.026033e+002, 4.541516e+001
6.030854e+002, 4.507900e+001
6.035675e+002, 4.502901e+001
6.040496e+002, 4.546695e+001
6.045317e+002, 4.582511e+001
6.050139e+002, 4.579852e+001
6.054960e+002, 4.552527e+001
6.059781e+002, 4.515225e+001
6.064602e+002, 4.471844e+001
6.069423e+002, 4.431633e+001
6.074244e+002, 4.401034e+001
6.079066e+002, 4.379534e+001
6.083887e+002, 4.364706e+001
6.088708e+002, 4.361362e+001
6.093529e+002, 4.358327e+001
6.098350e+002, 4.361656e+001
6.103171e+002, 4.359958e+001
6.107993e+002, 4.338574e+001
6.112814e+002, 4.303736e+001
6.117635e+002, 4.276231e+001
6.122456e+002, 4.267782e+001
6.127277e+002, 4.276984e+001
6.132098e+002, 4.311936e+001
6.136920e+002, 4.377718e+001
6.141741e+002, 4.406344e+001
6.146562e+002, 4.358345e+001
6.151383e+002, 4.298094e+001
6.156204e+002, 4.302033e+001
6.161025e+002, 4.357226e+001
6.165847e+002, 4.383966e+001
6.170668e+002, 4.339622e+001
6.175489e+002, 4.288334e+001
6.180310e+002, 4.272029e+001
6.185131e+002, 4.278394e+001
6.189952e+002, 4.282528e+001
6.194774e+002, 4.276803e+001
6.199595e+002, 4.265549e+001
6.204416e+002, 4.252539e+001
6.209237e+002, 4.236970e+001
6.214058e+002, 4.231671e+001
6.218879e+002, 4.256536e+001
6.223701e+002, 4.266908e+001
6.228522e+002, 4.239178e+001
6.233343e+002, 4.200932e+001
6.238164e+002, 4.181840e+001
6.242985e+002, 4.186985e+001
6.247806e+002, 4.197592e+001
6.252628e+002, 4.182860e+001
6.257448e+002, 4.164112e+001
6.262269e+002, 4.222939e+001
6.267090e+002, 4.371594e+001
6.271912e+002, 4.463913e+001
6.276733e+002, 4.414231e+001
6.281554e+002, 4.288320e+001
6.286375e+002, 4.204116e+001
6.291196e+002, 4.161580e+001
6.296017e+002, 4.146120e+001
6.300839e+002, 4.163766e+001
6.305660e+002, 4.200354e+001
6.310481e+002, 4.264240e+001
6.315302e+002, 4.337638e+001
6.320123e+002, 4.381401e+001
6.324944e+002, 4.377355e+001
6.329766e+002, 4.347964e+001
6.334587e+002, 4.327861e+001
6.339408e+002, 4.316056e+001
6.344229e+002, 4.320826e+001
6.349050e+002, 4.372650e+001
6.353871e+002, 4.400128e+001
6.358693e+002, 4.351279e+001
6.363514e+002, 4.267838e+001
6.368335e+002, 4.214126e+001
6.373156e+002, 4.208889e+001
6.377977e+002, 4.218470e+001
6.382798e+002, 4.227670e+001
6.387620e+002, 4.232661e+001
6.392441e+002, 4.218793e+001
6.397262e+002, 4.185889e+001
6.402083e+002, 4.167879e+001
6.406904e+002, 4.191090e+001
6.411725e+002, 4.240574e+001
6.416547e+002, 4.266110e+001
6.421368e+002, 4.231216e+001
6.426189e+002, 4.226395e+001
6.431010e+002, 4.291027e+001
6.435831e+002, 4.350582e+001
6.440652e+002, 4.349949e+001
6.445474e+002, 4.304456e+001
6.450295e+002, 4.261761e+001
6.455116e+002, 4.246783e+001
6.459937e+002, 4.246741e+001
6.464758e+002, 4.243346e+001
6.469579e+002, 4.236600e+001
6.474401e+002, 4.226313e+001
6.479222e+002, 4.212048e+001
6.484043e+002, 4.195260e+001
6.488864e+002, 4.177913e+001
6.493685e+002, 4.158858e+001
6.498506e+002, 4.133929e+001
6.503328e+002, 4.089523e+001
6.508149e+002, 4.059858e+001
6.512970e+002, 4.072588e+001
6.517791e+002, 4.099646e+001
6.522612e+002, 4.103704e+001
6.527433e+002, 4.083897e+001
6.532255e+002, 4.066866e+001
6.537076e+002, 4.072030e+001
6.541897e+002, 4.095829e+001
6.546718e+002, 4.130959e+001
6.551539e+002, 4.199357e+001
6.556360e+002, 4.225328e+001
6.561182e+002, 4.168798e+001
6.566003e+002, 4.091151e+001
6.570824e+002, 3.996872e+001
6.575645e+002, 3.906864e+001
6.580466e+002, 3.880667e+001
6.585287e+002, 3.972016e+001
6.590109e+002, 4.084545e+001
6.594930e+002, 4.127722e+001
6.599751e+002, 4.119183e+001
6.604572e+002, 4.109189e+001
6.609393e+002, 4.108654e+001
6.614214e+002, 4.099105e+001
6.619036e+002, 4.060939e+001
6.623857e+002, 3.998021e+001
6.628678e+002, 3.952883e+001
6.633499e+002, 3.914014e+001
6.638320e+002, 3.909513e+001
6.643141e+002, 3.980455e+001
6.647963e+002, 4.057205e+001
6.652784e+002, 4.075542e+001
6.657605e+002, 4.044710e+001
6.662426e+002, 4.025623e+001
6.667247e+002, 4.064742e+001
6.672068e+002, 4.121947e+001
6.676890e+002, 4.111135e+001
6.681711e+002, 4.035159e+001
6.686532e+002, 3.996888e+001
6.691353e+002, 4.027562e+001
6.696174e+002, 4.081758e+001
6.700995e+002, 4.126739e+001
6.705817e+002, 4.160115e+001
6.710638e+002, 4.167572e+001
6.715459e+002, 4.125082e+001
6.720280e+002, 4.085966e+001
6.725101e+002, 4.066036e+001
6.729922e+002, 4.058736e+001
6.734744e+002, 4.064410e+001
6.739565e+002, 4.077494e+001
6.744386e+002, 4.074503e+001
6.749207e+002, 4.029295e+001
6.754028e+002, 3.968582e+001
6.758849e+002, 3.993905e+001
6.763671e+002, 4.134318e+001
6.768492e+002, 4.228696e+001
6.773313e+002, 4.207584e+001
6.778134e+002, 4.174822e+001
6.782955e+002, 4.240905e+001
6.787776e+002, 4.368864e+001
6.792598e+002, 4.420387e+001
6.797419e+002, 4.275859e+001
6.802240e+002, 4.160739e+001
6.807061e+002, 4.255546e+001
6.811882e+002, 4.447072e+001
6.816703e+002, 4.555947e+001
6.821525e+002, 4.553913e+001
6.826346e+002, 4.518163e+001
6.831167e+002, 4.506871e+001
6.835988e+002, 4.520112e+001
6.840809e+002, 4.561224e+001
6.845630e+002, 4.648064e+001
6.850452e+002, 4.723489e+001
6.855273e+002, 4.768627e+001
6.860094e+002, 4.809787e+001
6.864915e+002, 4.864339e+001
6.869736e+002, 4.927536e+001
6.874557e+002, 4.981938e+001
6.879379e+002, 5.011781e+001
6.884200e+002, 5.046905e+001
6.889021e+002, 5.120173e+001
6.893842e+002, 5.217669e+001
6.898663e+002, 5.300236e+001
6.903484e+002, 5.362168e+001
6.908306e+002, 5.441714e+001
6.913127e+002, 5.572692e+001
6.917948e+002, 5.744078e+001
6.922769e+002, 5.902966e+001
6.927590e+002, 6.039733e+001
6.932411e+002, 6.179342e+001
6.937233e+002, 6.327485e+001
6.942054e+002, 6.473785e+001
6.946875e+002, 6.620935e+001
6.951696e+002, 6.761268e+001
6.956517e+002, 6.882941e+001
6.961339e+002, 6.989146e+001
6.966160e+002, 7.049267e+001
6.970981e+002, 7.009795e+001
6.975802e+002, 6.894554e+001
6.980623e+002, 6.794453e+001
6.985444e+002, 6.726570e+001
6.990266e+002, 6.627119e+001
6.995087e+002, 6.445039e+001
6.999908e+002, 6.200739e+001
7.004729e+002, 5.974604e+001
7.009550e+002, 5.792100e+001
7.014371e+002, 5.589848e+001
7.019193e+002, 5.316069e+001
7.024014e+002, 5.069514e+001
7.028835e+002, 4.921219e+001
7.033656e+002, 4.846548e+001
7.038477e+002, 4.784225e+001
7.043298e+002, 4.709010e+001
7.048120e+002, 4.634792e+001
7.052941e+002, 4.582887e+001
7.057762e+002, 4.548610e+001
7.062583e+002, 4.504733e+001
7.067404e+002, 4.445858e+001
7.072225e+002, 4.400280e+001
7.077046e+002, 4.390863e+001
7.081867e+002, 4.400816e+001
7.086688e+002, 4.384228e+001
7.091509e+002, 4.320131e+001
7.096331e+002, 4.284367e+001
7.101152e+002, 4.323096e+001
7.105973e+002, 4.351094e+001
7.110794e+002, 4.286292e+001
7.115615e+002, 4.183223e+001
7.120436e+002, 4.160112e+001
7.125258e+002, 4.257114e+001
7.130079e+002, 4.359375e+001
7.134900e+002, 4.304810e+001
7.139721e+002, 4.130701e+001
7.144542e+002, 4.056108e+001
7.149363e+002, 4.103861e+001
7.154185e+002, 4.144374e+001
7.159006e+002, 4.107085e+001
7.163827e+002, 4.042540e+001
7.168648e+002, 4.044110e+001
7.173469e+002, 4.126354e+001
7.178290e+002, 4.179356e+001
7.183112e+002, 4.176236e+001
7.187933e+002, 4.160789e+001
7.192754e+002, 4.162435e+001
7.197575e+002, 4.162379e+001
7.202396e+002, 4.118557e+001
7.207217e+002, 4.027340e+001
7.212039e+002, 3.947799e+001
7.216860e+002, 3.941024e+001
7.221681e+002, 3.991909e+001
7.226502e+002, 4.055696e+001
7.231323e+002, 4.141084e+001
7.236144e+002, 4.160104e+001
7.240966e+002, 4.043461e+001
7.245787e+002, 3.911592e+001
7.250608e+002, 3.924424e+001
7.255429e+002, 4.078417e+001
7.260250e+002, 4.178946e+001
7.265071e+002, 4.192075e+001
7.269893e+002, 4.179180e+001
7.274714e+002, 4.153360e+001
7.279535e+002, 4.118603e+001
7.284356e+002, 4.068538e+001
7.289177e+002, 4.010141e+001
7.293998e+002, 3.973635e+001
7.298820e+002, 3.986491e+001
7.303641e+002, 4.025786e+001
7.308462e+002, 4.034498e+001
7.313283e+002, 4.010994e+001
7.318104e+002, 4.008390e+001
7.322925e+002, 4.050406e+001
7.327747e+002, 4.082864e+001
7.332568e+002, 4.049643e+001
7.337389e+002, 3.966793e+001
7.342210e+002, 3.921672e+001
7.347031e+002, 3.932888e+001
7.351852e+002, 3.952864e+001
7.356674e+002, 3.981414e+001
7.361495e+002, 4.007569e+001
7.366316e+002, 4.030451e+001
7.371137e+002, 4.042736e+001
7.375958e+002, 4.021368e+001
7.380779e+002, 3.951201e+001
7.385601e+002, 3.877377e+001
7.390422e+002, 3.871493e+001
7.395243e+002, 3.926994e+001
7.400064e+002, 3.986827e+001
7.404885e+002, 4.051991e+001
7.409706e+002, 4.094616e+001
7.414528e+002, 4.091743e+001
7.419349e+002, 4.061525e+001
7.424170e+002, 4.044629e+001
7.428991e+002, 4.047412e+001
7.433812e+002, 4.040492e+001
7.438633e+002, 4.010959e+001
7.443455e+002, 3.982211e+001
7.448276e+002, 3.969412e+001
7.453097e+002, 3.964473e+001
7.457918e+002, 3.949297e+001
7.462739e+002, 3.920878e+001
7.467560e+002, 3.902458e+001
7.472382e+002, 3.929931e+001
7.477203e+002, 3.982703e+001
7.482024e+002, 3.985946e+001
7.486845e+002, 3.937873e+001
7.491666e+002, 3.924128e+001
7.496487e+002, 3.989029e+001
7.501309e+002, 4.058755e+001
7.506130e+002, 4.033174e+001
7.510951e+002, 3.903538e+001
7.515772e+002, 3.851563e+001
7.520593e+002, 3.940855e+001
7.525414e+002, 4.018399e+001
7.530236e+002, 4.033844e+001
7.535057e+002, 4.035677e+001
7.539878e+002, 4.076211e+001
7.544699e+002, 4.149127e+001
7.549520e+002, 4.209046e+001
7.554341e+002, 4.234123e+001
7.559163e+002, 4.226168e+001
7.563984e+002, 4.169225e+001
7.568805e+002, 4.078120e+001
7.573626e+002, 4.022719e+001
7.578447e+002, 4.015792e+001
7.583268e+002, 4.018193e+001
7.588090e+002, 4.000886e+001
7.592911e+002, 3.973564e+001
7.597732e+002, 3.969382e+001
7.602553e+002, 4.009638e+001
7.607374e+002, 4.034492e+001
7.612195e+002, 4.025106e+001
7.617017e+002, 4.021331e+001
7.621838e+002, 4.051026e+001
7.626659e+002, 4.095564e+001
7.631480e+002, 4.126756e+001
7.636301e+002, 4.136965e+001
7.641122e+002, 4.130308e+001
7.645944e+002, 4.099225e+001
7.650765e+002, 4.058712e+001
7.655586e+002, 4.027883e+001
7.660407e+002, 4.008841e+001
7.665228e+002, 4.015150e+001
7.670049e+002, 4.054470e+001
7.674871e+002, 4.087274e+001
7.679692e+002, 4.053444e+001
7.684513e+002, 3.947727e+001
7.689334e+002, 3.906676e+001
7.694155e+002, 3.979160e+001
7.698976e+002, 4.036634e+001
7.703798e+002, 4.023582e+001
7.708619e+002, 4.007257e+001
7.713440e+002, 4.060418e+001
7.718261e+002, 4.165412e+001
7.723082e+002, 4.220293e+001
7.727903e+002, 4.156313e+001
7.732725e+002, 4.076680e+001
7.737546e+002, 4.045411e+001
7.742367e+002, 4.048386e+001
7.747188e+002, 4.067498e+001
7.752009e+002, 4.098334e+001
7.756830e+002, 4.145451e+001
7.761652e+002, 4.216808e+001
7.766473e+002, 4.283428e+001
7.771294e+002, 4.260194e+001
7.776115e+002, 4.124363e+001
7.780936e+002, 4.053914e+001
7.785757e+002, 4.084098e+001
7.790579e+002, 4.136361e+001
7.795400e+002, 4.178178e+001
7.800221e+002, 4.211588e+001
7.805042e+002, 4.235599e+001
7.809863e+002, 4.244951e+001
7.814684e+002, 4.272208e+001
7.819506e+002, 4.341739e+001
7.824327e+002, 4.414970e+001
7.829148e+002, 4.468629e+001
7.833969e+002, 4.508553e+001
7.838790e+002, 4.539476e+001
7.843611e+002, 4.566351e+001
7.848433e+002, 4.611609e+001
7.853254e+002, 4.717610e+001
7.858075e+002, 4.844365e+001
7.862896e+002, 4.842333e+001
7.867717e+002, 4.708758e+001
7.872538e+002, 4.643625e+001
7.877360e+002, 4.707504e+001
7.882181e+002, 4.819891e+001
7.887002e+002, 4.914254e+001
7.891823e+002, 4.992432e+001
7.896644e+002, 5.066782e+001
7.901465e+002, 5.156404e+001
7.906286e+002, 5.215383e+001
7.911107e+002, 5.192070e+001
7.915928e+002, 5.181766e+001
7.920750e+002, 5.268093e+001
7.925571e+002, 5.411576e+001
7.930392e+002, 5.517312e+001
7.935213e+002, 5.546751e+001
7.940034e+002, 5.571900e+001
7.944855e+002, 5.662469e+001
7.949677e+002, 5.789106e+001
7.954498e+002, 5.901195e+001
7.959319e+002, 5.996215e+001
7.964140e+002, 6.080796e+001
7.968961e+002, 6.159091e+001
7.973782e+002, 6.217192e+001
7.978604e+002, 6.232751e+001
7.983425e+002, 6.203802e+001
7.988246e+002, 6.176760e+001
7.993067e+002, 6.131290e+001
7.997888e+002, 6.124291e+001
8.002709e+002, 6.241109e+001
8.007531e+002, 6.345042e+001
8.012352e+002, 6.311752e+001
8.017173e+002, 6.166304e+001
8.021994e+002, 6.045287e+001
8.026815e+002, 6.002095e+001
8.031636e+002, 5.964635e+001
8.036458e+002, 5.907841e+001
8.041279e+002, 5.829423e+001
8.046100e+002, 5.713577e+001
8.050921e+002, 5.572333e+001
8.055742e+002, 5.436142e+001
8.060563e+002, 5.320710e+001
8.065385e+002, 5.242995e+001
8.070206e+002, 5.256215e+001
8.075027e+002, 5.349781e+001
8.079848e+002, 5.362219e+001
8.084669e+002, 5.267996e+001
8.089490e+002, 5.196481e+001
8.094312e+002, 5.227964e+001
8.099133e+002, 5.279783e+001
8.103954e+002, 5.216359e+001
8.108775e+002, 5.010633e+001
8.113596e+002, 4.867222e+001
8.118417e+002, 4.814944e+001
8.123239e+002, 4.787591e+001
8.128060e+002, 4.788056e+001
8.132881e+002, 4.790826e+001
8.137702e+002, 4.774378e+001
8.142523e+002, 4.737749e+001
8.147344e+002, 4.688196e+001
8.152166e+002, 4.621230e+001
8.156987e+002, 4.560190e+001
8.161808e+002, 4.532365e+001
8.166629e+002, 4.528776e+001
8.171450e+002, 4.539161e+001
8.176271e+002, 4.557792e+001
8.181093e+002, 4.551046e+001
8.185914e+002, 4.496376e+001
8.190735e+002, 4.425325e+001
8.195556e+002, 4.403936e+001
8.200377e+002, 4.444169e+001
8.205198e+002, 4.456833e+001
8.210020e+002, 4.428023e+001
8.214841e+002, 4.398384e+001
8.219662e+002, 4.401154e+001
8.224483e+002, 4.397248e+001
8.229304e+002, 4.317735e+001
8.234125e+002, 4.167518e+001
8.238947e+002, 4.098011e+001
8.243768e+002, 4.218692e+001
8.248589e+002, 4.330607e+001
8.253410e+002, 4.344257e+001
8.258231e+002, 4.306090e+001
8.263052e+002, 4.250078e+001
8.267874e+002, 4.193766e+001
8.272695e+002, 4.163977e+001
8.277516e+002, 4.176865e+001
8.282337e+002, 4.216802e+001
8.287158e+002, 4.277497e+001
8.291979e+002, 4.347709e+001
8.296801e+002, 4.373982e+001
8.301622e+002, 4.351369e+001
8.306443e+002, 4.325043e+001
8.311264e+002, 4.317801e+001
8.316085e+002, 4.316612e+001
8.320906e+002, 4.297085e+001
8.325728e+002, 4.253123e+001
8.330549e+002, 4.236448e+001
8.335370e+002, 4.276631e+001
8.340191e+002, 4.301490e+001
8.345012e+002, 4.261934e+001
8.349833e+002, 4.227720e+001
8.354655e+002, 4.285880e+001
8.359476e+002, 4.410286e+001
8.364297e+002, 4.460494e+001
8.369118e+002, 4.336523e+001
8.373939e+002, 4.222437e+001
8.378760e+002, 4.237215e+001
8.383582e+002, 4.303084e+001
8.388403e+002, 4.329811e+001
8.393224e+002, 4.320646e+001
8.398045e+002, 4.323922e+001
8.402866e+002, 4.362469e+001
8.407687e+002, 4.413540e+001
8.412509e+002, 4.449938e+001
8.417330e+002, 4.471942e+001
8.422151e+002, 4.478628e+001
8.426972e+002, 4.469366e+001
8.431793e+002, 4.457523e+001
8.436614e+002, 4.452829e+001
8.441436e+002, 4.431496e+001
8.446257e+002, 4.355835e+001
8.451078e+002, 4.228097e+001
8.455899e+002, 4.155028e+001
8.460720e+002, 4.161223e+001
8.465541e+002, 4.188272e+001
8.470363e+002, 4.265034e+001
8.475184e+002, 4.328358e+001
8.480005e+002, 4.317617e+001
8.484826e+002, 4.266863e+001
8.489647e+002, 4.263071e+001
8.494468e+002, 4.343295e+001
8.499290e+002, 4.403454e+001
8.504111e+002, 4.360458e+001
8.508932e+002, 4.291753e+001
8.513753e+002, 4.277283e+001
8.518574e+002, 4.302387e+001
8.523395e+002, 4.325294e+001
8.528217e+002, 4.331705e+001
8.533038e+002, 4.324060e+001
8.537859e+002, 4.297477e+001
8.542680e+002, 4.264918e+001
8.547501e+002, 4.287456e+001
8.552322e+002, 4.365091e+001
8.557144e+002, 4.352815e+001
8.561965e+002, 4.196714e+001
8.566786e+002, 4.061603e+001
8.571607e+002, 4.086803e+001
8.576428e+002, 4.214650e+001
8.581249e+002, 4.255934e+001
8.586071e+002, 4.142243e+001
8.590892e+002, 4.090375e+001
8.595713e+002, 4.163650e+001
8.600534e+002, 4.222967e+001
8.605355e+002, 4.218432e+001
8.610176e+002, 4.173914e+001
8.614998e+002, 4.095853e+001
8.619819e+002, 3.992196e+001
8.624640e+002, 3.953115e+001
8.629461e+002, 4.085201e+001
8.634282e+002, 4.217612e+001
8.639103e+002, 4.219860e+001
8.643925e+002, 4.156991e+001
8.648746e+002, 4.110454e+001
8.653567e+002, 4.094064e+001
8.658388e+002, 4.101672e+001
8.663209e+002, 4.133051e+001
8.668030e+002, 4.159840e+001
8.672852e+002, 4.116879e+001
8.677673e+002, 4.025755e+001
8.682494e+002, 4.018208e+001
8.687315e+002, 4.104959e+001
8.692136e+002, 4.165720e+001
8.696957e+002, 4.149657e+001
8.701779e+002, 4.087774e+001
8.706600e+002, 4.010723e+001
8.711421e+002, 3.917618e+001
8.716242e+002, 3.897268e+001
8.721063e+002, 4.013412e+001
8.725884e+002, 4.090025e+001
8.730705e+002, 4.051874e+001
8.735526e+002, 4.009037e+001
8.740347e+002, 4.031623e+001
8.745168e+002, 4.099642e+001
8.749990e+002, 4.167336e+001
8.754811e+002, 4.241650e+001
8.759632e+002, 4.270078e+001
8.764453e+002, 4.211723e+001
8.769274e+002, 4.122473e+001
8.774095e+002, 4.018888e+001
8.778917e+002, 3.923206e+001
8.783738e+002, 3.870764e+001
8.788559e+002, 3.866085e+001
8.793380e+002, 3.874717e+001
8.798201e+002, 3.867358e+001
8.803022e+002, 3.861069e+001
8.807844e+002, 3.902661e+001
8.812665e+002, 3.970541e+001
8.817486e+002, 3.969414e+001
8.822307e+002, 3.889074e+001
8.827128e+002, 3.828321e+001
8.831949e+002, 3.853011e+001
8.836771e+002, 3.920896e+001
8.841592e+002, 3.937916e+001
8.846413e+002, 3.891577e+001
8.851234e+002, 3.895495e+001
8.856055e+002, 3.981826e+001
8.860876e+002, 4.037482e+001
8.865698e+002, 4.006236e+001
8.870519e+002, 3.944986e+001
8.875340e+002, 3.905241e+001
8.880161e+002, 3.888417e+001
8.884982e+002, 3.912362e+001
8.889803e+002, 4.047473e+001
8.894625e+002, 4.124665e+001
8.899446e+002, 4.086575e+001
8.904267e+002, 4.008638e+001
8.909088e+002, 3.917743e+001
8.913909e+002, 3.833616e+001
8.918730e+002, 3.783411e+001
8.923552e+002, 3.774430e+001
8.928373e+002, 3.791981e+001
8.933194e+002, 3.865123e+001
8.938015e+002, 3.927911e+001
8.942836e+002, 3.879179e+001
8.947657e+002, 3.773582e+001
8.952479e+002, 3.737237e+001
8.957300e+002, 3.788219e+001
8.962121e+002, 3.842532e+001
8.966942e+002, 3.836467e+001
8.971763e+002, 3.799973e+001
8.976584e+002, 3.792562e+001
8.981406e+002, 3.811547e+001
8.986227e+002, 3.839051e+001
8.991048e+002, 3.877103e+001
8.995869e+002, 3.869152e+001
9.000690e+002, 3.774461e+001
9.005511e+002, 3.659555e+001
9.010333e+002, 3.624976e+001
9.015154e+002, 3.674414e+001
9.019975e+002, 3.723721e+001
9.024796e+002, 3.791124e+001
9.029617e+002, 3.824278e+001
9.034438e+002, 3.780365e+001
9.039260e+002, 3.731587e+001
9.044081e+002, 3.745125e+001
9.048902e+002, 3.789660e+001
9.053723e+002, 3.775684e+001
9.058544e+002, 3.657703e+001
9.063365e+002, 3.585031e+001
9.068187e+002, 3.632813e+001
9.073008e+002, 3.694978e+001
9.077829e+002, 3.700428e+001
9.082650e+002, 3.684808e+001
9.087471e+002, 3.716605e+001
9.092292e+002, 3.794817e+001
9.097114e+002, 3.834913e+001
9.101935e+002, 3.760891e+001
9.106756e+002, 3.669535e+001
9.111577e+002, 3.680404e+001
9.116398e+002, 3.735631e+001
9.121219e+002, 3.716005e+001
9.126041e+002, 3.627051e+001
9.130862e+002, 3.562335e+001
9.135683e+002, 3.566215e+001
9.140504e+002, 3.589602e+001
9.145325e+002, 3.556347e+001
9.150146e+002, 3.483580e+001
9.154968e+002, 3.480580e+001
9.159789e+002, 3.550420e+001
9.164610e+002, 3.598037e+001
9.169431e+002, 3.595803e+001
9.174252e+002, 3.586784e+001
9.179073e+002, 3.610769e+001
9.183895e+002, 3.652655e+001
9.188716e+002, 3.653843e+001
9.193537e+002, 3.585501e+001
9.198358e+002, 3.550285e+001
9.203179e+002, 3.562853e+001
9.208000e+002, 3.587934e+001
9.212822e+002, 3.627122e+001
9.217643e+002, 3.661909e+001
9.222464e+002, 3.668932e+001
9.227285e+002, 3.648918e+001
9.232106e+002, 3.627546e+001
9.236927e+002, 3.600148e+001
9.241749e+002, 3.582838e+001
9.246570e+002, 3.583038e+001
9.251391e+002, 3.592516e+001
9.256212e+002, 3.615956e+001
9.261033e+002, 3.640614e+001
9.265854e+002, 3.640751e+001
9.270676e+002, 3.608386e+001
9.275497e+002, 3.569345e+001
9.280318e+002, 3.536028e+001
9.285139e+002, 3.508560e+001
9.289960e+002, 3.489865e+001
9.294781e+002, 3.475875e+001
9.299603e+002, 3.456610e+001
9.304424e+002, 3.432334e+001
9.309245e+002, 3.413306e+001
9.314066e+002, 3.405412e+001
9.318887e+002, 3.409612e+001
9.323708e+002, 3.440092e+001
9.328530e+002, 3.484628e+001
9.333351e+002, 3.487452e+001
9.338172e+002, 3.447733e+001
9.342993e+002, 3.396832e+001
9.347814e+002, 3.343519e+001
9.352635e+002, 3.318446e+001
9.357457e+002, 3.365768e+001
9.362278e+002, 3.464190e+001
9.367099e+002, 3.481385e+001
9.371920e+002, 3.396171e+001
9.376741e+002, 3.317326e+001
9.381563e+002, 3.241931e+001
9.386384e+002, 3.209403e+001
9.391205e+002, 3.260494e+001
9.396026e+002, 3.352424e+001
9.400847e+002, 3.412300e+001
9.405668e+002, 3.438429e+001
9.410490e+002, 3.442005e+001
9.415311e+002, 3.395084e+001
9.420132e+002, 3.364748e+001
9.424953e+002, 3.371542e+001
9.429774e+002, 3.391930e+001
9.434595e+002, 3.412495e+001
9.439417e+002, 3.432140e+001
9.444238e+002, 3.453787e+001
9.449059e+002, 3.484143e+001
9.453880e+002, 3.492907e+001
9.458701e+002, 3.454448e+001
9.463522e+002, 3.406837e+001
9.468344e+002, 3.371111e+001
9.473165e+002, 3.344393e+001
9.477986e+002, 3.321317e+001
9.482807e+002, 3.301083e+001
9.487628e+002, 3.286385e+001
9.492449e+002, 3.282377e+001
9.497271e+002, 3.274718e+001
9.502092e+002, 3.231926e+001
9.506913e+002, 3.186756e+001
9.511734e+002, 3.213211e+001
9.516555e+002, 3.284699e+001
9.521376e+002, 3.290199e+001
9.526198e+002, 3.198408e+001
9.531019e+002, 3.109504e+001
9.535840e+002, 3.125356e+001
9.540661e+002, 3.204710e+001
9.545482e+002, 3.259624e+001
9.550303e+002, 3.288485e+001
9.555124e+002, 3.263961e+001
9.559945e+002, 3.182575e+001
9.564766e+002, 3.135381e+001
9.569587e+002, 3.174515e+001
9.574409e+002, 3.256240e+001
9.579230e+002, 3.317371e+001
9.584051e+002, 3.357814e+001
9.588872e+002, 3.340094e+001
9.593693e+002, 3.239837e+001
9.598514e+002, 3.190503e+001
9.603336e+002, 3.239473e+001
9.608157e+002, 3.303156e+001
9.612978e+002, 3.322622e+001
9.617799e+002, 3.308440e+001
9.622620e+002, 3.290525e+001
9.627441e+002, 3.273389e+001
9.632263e+002, 3.237734e+001
9.637084e+002, 3.130679e+001
9.641905e+002, 3.077778e+001
9.646726e+002, 3.164185e+001
9.651547e+002, 3.274359e+001
9.656368e+002, 3.306879e+001
9.661190e+002, 3.274714e+001
9.666011e+002, 3.249989e+001
9.670832e+002, 3.254119e+001
9.675653e+002, 3.240457e+001
9.680474e+002, 3.175057e+001
9.685295e+002, 3.115180e+001
9.690117e+002, 3.095478e+001
9.694938e+002, 3.100240e+001
9.699759e+002, 3.116208e+001
9.704580e+002, 3.136116e+001
9.709401e+002, 3.134594e+001
9.714222e+002, 3.083961e+001
9.719044e+002, 3.035987e+001
9.723865e+002, 3.019336e+001
9.728686e+002, 3.024907e+001
9.733507e+002, 3.061991e+001
9.738328e+002, 3.108762e+001
9.743149e+002, 3.111759e+001
9.747971e+002, 3.060098e+001
9.752792e+002, 3.017154e+001
9.757613e+002, 3.044281e+001
9.762434e+002, 3.095159e+001
9.767255e+002, 3.114077e+001
9.772076e+002, 3.107299e+001
9.776898e+002, 3.079273e+001
9.781719e+002, 3.037374e+001
9.786540e+002, 3.005605e+001
9.791361e+002, 2.995240e+001
9.796182e+002, 3.006774e+001
9.801003e+002, 3.048035e+001
9.805825e+002, 3.109106e+001
9.810646e+002, 3.167214e+001
9.815467e+002, 3.217533e+001
9.820288e+002, 3.205245e+001
9.825109e+002, 3.119861e+001
9.829930e+002, 3.055690e+001
9.834752e+002, 3.078196e+001
9.839573e+002, 3.139599e+001
9.844394e+002, 3.143137e+001
9.849215e+002, 3.088166e+001
9.854036e+002, 3.077060e+001
9.858857e+002, 3.119034e+001
9.863679e+002, 3.151306e+001
9.868500e+002, 3.158220e+001
9.873321e+002, 3.147679e+001
9.878142e+002, 3.119164e+001
9.882963e+002, 3.084594e+001
9.887784e+002, 3.087061e+001
9.892606e+002, 3.151670e+001
9.897427e+002, 3.160340e+001
9.902248e+002, 3.075487e+001
9.907069e+002, 3.006871e+001
9.911890e+002, 2.989578e+001
9.916711e+002, 3.001257e+001
9.921533e+002, 3.035420e+001
9.926354e+002, 3.083312e+001
9.931175e+002, 3.090915e+001
9.935996e+002, 3.021093e+001
9.940817e+002, 2.978050e+001
9.945638e+002, 2.972414e+001
9.950460e+002, 2.982605e+001
9.955281e+002, 3.012667e+001
9.960102e+002, 3.045913e+001
9.964923e+002, 3.062574e+001
9.969744e+002, 3.064440e+001
9.974565e+002, 3.071708e+001
9.979387e+002, 3.104113e+001
9.984208e+002, 3.115431e+001
9.989029e+002, 3.075930e+001
9.993850e+002, 3.030797e+001
9.998671e+002, 3.001411e+001
1.000349e+003, 2.988235e+001
1.000831e+003, 2.995333e+001
1.001313e+003, 3.019666e+001
1.001796e+003, 3.036250e+001
1.002278e+003, 3.023588e+001
1.002760e+003, 3.017866e+001
1.003242e+003, 3.051776e+001
1.003724e+003, 3.090246e+001
1.004206e+003, 3.099052e+001
1.004688e+003, 3.087165e+001
1.005170e+003, 3.077745e+001
1.005653e+003, 3.076198e+001
1.006135e+003, 3.072453e+001
1.006617e+003, 3.071870e+001
1.007099e+003, 3.050502e+001
1.007581e+003, 2.939418e+001
1.008063e+003, 2.822573e+001
1.008545e+003, 2.848673e+001
1.009027e+003, 2.977824e+001
1.009509e+003, 3.057873e+001
1.009992e+003, 3.038351e+001
1.010474e+003, 3.006800e+001
1.010956e+003, 3.050274e+001
1.011438e+003, 3.114723e+001
1.011920e+003, 3.124579e+001
1.012402e+003, 3.089688e+001
1.012884e+003, 3.011422e+001
1.013366e+003, 2.907528e+001
1.013849e+003, 2.846459e+001
1.014331e+003, 2.857597e+001
1.014813e+003, 2.906520e+001
1.015295e+003, 2.968642e+001
1.015777e+003, 3.028802e+001
1.016259e+003, 3.040131e+001
1.016741e+003, 3.013553e+001
1.017223e+003, 3.001054e+001
1.017705e+003, 3.009220e+001
1.018188e+003, 3.017906e+001
1.018670e+003, 3.017166e+001
1.019152e+003, 3.004333e+001
1.019634e+003, 2.967794e+001
1.020116e+003, 2.918298e+001
1.020598e+003, 2.918238e+001
1.021080e+003, 2.964911e+001
1.021562e+003, 2.978117e+001
1.022044e+003, 2.941606e+001
1.022527e+003, 2.917901e+001
1.023009e+003, 2.943847e+001
1.023491e+003, 2.998655e+001
1.023973e+003, 3.053490e+001
1.024455e+003, 3.107247e+001
1.024937e+003, 3.145089e+001
1.025419e+003, 3.170414e+001
1.025901e+003, 3.139229e+001
1.026384e+003, 3.026792e+001
1.026866e+003, 2.930898e+001
1.027348e+003, 2.912519e+001
1.027830e+003, 2.948775e+001
1.028312e+003, 3.006644e+001
1.028794e+003, 3.089742e+001
1.029276e+003, 3.101508e+001
1.029758e+003, 3.006017e+001
1.030240e+003, 2.974385e+001
1.030723e+003, 3.073523e+001
1.031205e+003, 3.157423e+001
1.031687e+003, 3.118030e+001
1.032169e+003, 3.014413e+001
1.032651e+003, 2.961664e+001
1.033133e+003, 2.960125e+001
1.033615e+003, 3.014769e+001
1.034097e+003, 3.190188e+001
1.034579e+003, 3.275433e+001
1.035062e+003, 3.176115e+001
1.035544e+003, 3.060789e+001
1.036026e+003, 3.041492e+001
1.036508e+003, 3.081587e+001
1.036990e+003, 3.110148e+001
1.037472e+003, 3.131281e+001
1.037954e+003, 3.116081e+001
1.038436e+003, 3.015528e+001
1.038919e+003, 2.958174e+001
1.039401e+003, 2.999575e+001
1.039883e+003, 3.053814e+001
1.040365e+003, 3.068023e+001
1.040847e+003, 3.055832e+001
1.041329e+003, 3.042798e+001
1.041811e+003, 3.026098e+001
1.042293e+003, 3.023364e+001
1.042776e+003, 3.052134e+001
1.043258e+003, 3.070723e+001
1.043740e+003, 3.073734e+001
1.044222e+003, 3.062133e+001
1.044704e+003, 3.018340e+001
1.045186e+003, 2.966410e+001
1.045668e+003, 2.956565e+001
1.046150e+003, 2.998536e+001
1.046632e+003, 3.035238e+001
1.047115e+003, 3.047400e+001
1.047597e+003, 3.071873e+001
1.048079e+003, 3.140383e+001
1.048561e+003, 3.201702e+001
1.049043e+003, 3.219823e+001
1.049525e+003, 3.206005e+001
1.050007e+003, 3.176074e+001
1.050489e+003, 3.128256e+001
1.050971e+003, 3.109212e+001
1.051454e+003, 3.145045e+001
1.051936e+003, 3.187521e+001
1.052418e+003, 3.241685e+001
1.052900e+003, 3.278910e+001
1.053382e+003, 3.264457e+001
1.053864e+003, 3.224082e+001
1.054346e+003, 3.204965e+001
1.054828e+003, 3.214071e+001
1.055311e+003, 3.228121e+001
1.055793e+003, 3.246909e+001
1.056275e+003, 3.261653e+001
1.056757e+003, 3.249836e+001
1.057239e+003, 3.251793e+001
1.057721e+003, 3.326869e+001
1.058203e+003, 3.424825e+001
1.058685e+003, 3.437121e+001
1.059167e+003, 3.350880e+001
1.059650e+003, 3.328192e+001
1.060132e+003, 3.484150e+001
1.060614e+003, 3.628505e+001
1.061096e+003, 3.681425e+001
1.061578e+003, 3.703681e+001
1.062060e+003, 3.726572e+001
1.062542e+003, 3.759157e+001
1.063024e+003, 3.801335e+001
1.063506e+003, 3.856054e+001
1.063989e+003, 3.954094e+001
1.064471e+003, 4.166190e+001
1.064953e+003, 4.339634e+001
1.065435e+003, 4.389273e+001
1.065917e+003, 4.398796e+001
1.066399e+003, 4.431673e+001
1.066881e+003, 4.468163e+001
1.067363e+003, 4.468930e+001
1.067846e+003, 4.430305e+001
1.068328e+003, 4.381173e+001
1.068810e+003, 4.352280e+001
1.069292e+003, 4.279743e+001
1.069774e+003, 4.085409e+001
1.070256e+003, 3.887107e+001
1.070738e+003, 3.770726e+001
1.071220e+003, 3.708204e+001
1.071703e+003, 3.653146e+001
1.072185e+003, 3.599849e+001
1.072667e+003, 3.564910e+001
1.073149e+003, 3.563251e+001
1.073631e+003, 3.560392e+001
1.074113e+003, 3.550365e+001
1.074595e+003, 3.522765e+001
1.075077e+003, 3.450855e+001
1.075559e+003, 3.368838e+001
1.076042e+003, 3.312602e+001
1.076524e+003, 3.290052e+001
1.077006e+003, 3.310185e+001
1.077488e+003, 3.396516e+001
1.077970e+003, 3.459214e+001
1.078452e+003, 3.420768e+001
1.078934e+003, 3.384046e+001
1.079416e+003, 3.448389e+001
1.079898e+003, 3.533527e+001
1.080380e+003, 3.518307e+001
1.080863e+003, 3.429423e+001
1.081345e+003, 3.404702e+001
1.081827e+003, 3.503337e+001
1.082309e+003, 3.581950e+001
1.082791e+003, 3.562712e+001
1.083273e+003, 3.519835e+001
1.083755e+003, 3.500025e+001
1.084237e+003, 3.478999e+001
1.084720e+003, 3.412907e+001
1.085202e+003, 3.323615e+001
1.085684e+003, 3.277779e+001
1.086166e+003, 3.297085e+001
1.086648e+003, 3.316938e+001
1.087130e+003, 3.323613e+001
1.087612e+003, 3.307147e+001
1.088094e+003, 3.256548e+001
1.088577e+003, 3.185320e+001
1.089059e+003, 3.067878e+001
1.089541e+003, 2.952091e+001
1.090023e+003, 2.952639e+001
1.090505e+003, 3.093313e+001
1.090987e+003, 3.193506e+001
1.091469e+003, 3.170811e+001
1.091951e+003, 3.114349e+001
1.092433e+003, 3.037532e+001
1.092916e+003, 2.965746e+001
1.093398e+003, 2.905993e+001
1.093880e+003, 2.871684e+001
1.094362e+003, 2.901153e+001
1.094844e+003, 2.991181e+001
1.095326e+003, 3.037297e+001
1.095808e+003, 2.975190e+001
1.096290e+003, 2.910801e+001
1.096772e+003, 2.863228e+001
1.097255e+003, 2.840787e+001
1.097737e+003, 2.857166e+001
1.098219e+003, 2.896349e+001
1.098701e+003, 2.948788e+001
1.099183e+003, 3.006339e+001
1.099665e+003, 3.034319e+001
1.100147e+003, 3.011304e+001
1.100629e+003, 2.986386e+001
1.101112e+003, 2.970845e+001
1.101594e+003, 2.957830e+001
1.102076e+003, 2.949311e+001
1.102558e+003, 2.937434e+001
1.103040e+003, 2.902103e+001
1.103522e+003, 2.855761e+001
1.104004e+003, 2.845712e+001
1.104486e+003, 2.886447e+001
1.104969e+003, 2.938821e+001
1.105451e+003, 3.049040e+001
1.105933e+003, 3.100490e+001
1.106415e+003, 2.989523e+001
1.106897e+003, 2.862151e+001
1.107379e+003, 2.844279e+001
1.107861e+003, 2.900141e+001
1.108343e+003, 2.943020e+001
1.108825e+003, 2.976159e+001
1.109307e+003, 2.940310e+001
1.109790e+003, 2.710868e+001
1.110272e+003, 2.582282e+001
1.110754e+003, 2.716058e+001
1.111236e+003, 2.858667e+001
1.111718e+003, 2.832628e+001
1.112200e+003, 2.729671e+001
1.112682e+003, 2.707751e+001
1.113164e+003, 2.773781e+001
1.113647e+003, 2.810065e+001
1.114129e+003, 2.787165e+001
1.114611e+003, 2.783851e+001
1.115093e+003, 2.830091e+001
1.115575e+003, 2.862492e+001
1.116057e+003, 2.844297e+001
1.116539e+003, 2.808148e+001
1.117021e+003, 2.791519e+001
1.117504e+003, 2.791321e+001
1.117986e+003, 2.784069e+001
1.118468e+003, 2.762385e+001
1.118950e+003, 2.750471e+001
1.119432e+003, 2.743504e+001
1.119914e+003, 2.759372e+001
1.120396e+003, 2.823461e+001
1.120878e+003, 2.878881e+001
1.121360e+003, 2.869212e+001
1.121843e+003, 2.819333e+001
1.122325e+003, 2.805752e+001
1.122807e+003, 2.839478e+001
1.123289e+003, 2.839007e+001
1.123771e+003, 2.790102e+001
1.124253e+003, 2.754919e+001
1.124735e+003, 2.745949e+001
1.125217e+003, 2.755350e+001
1.125699e+003, 2.779243e+001
1.126182e+003, 2.817433e+001
1.126664e+003, 2.876106e+001
1.127146e+003, 2.951653e+001
1.127628e+003, 2.970376e+001
1.128110e+003, 2.924256e+001
1.128592e+003, 2.895468e+001
1.129074e+003, 2.897777e+001
1.129556e+003, 2.890609e+001
1.130039e+003, 2.852465e+001
1.130521e+003, 2.816445e+001
1.131003e+003, 2.821319e+001
1.131485e+003, 2.857313e+001
1.131967e+003, 2.895777e+001
1.132449e+003, 2.935512e+001
1.132931e+003, 2.949513e+001
1.133413e+003, 2.937346e+001
1.133896e+003, 2.943267e+001
1.134378e+003, 2.980716e+001
1.134860e+003, 2.994886e+001
1.135342e+003, 2.939260e+001
1.135824e+003, 2.856149e+001
1.136306e+003, 2.813659e+001
1.136788e+003, 2.810360e+001
1.137270e+003, 2.856806e+001
1.137752e+003, 2.939456e+001
1.138234e+003, 2.991735e+001
1.138717e+003, 3.005169e+001
1.139199e+003, 3.017997e+001
1.139681e+003, 3.049955e+001
1.140163e+003, 3.083496e+001
1.140645e+003, 3.106220e+001
1.141127e+003, 3.110946e+001
1.141609e+003, 3.060775e+001
1.142091e+003, 2.992150e+001
1.142574e+003, 2.994250e+001
1.143056e+003, 3.056675e+001
1.143538e+003, 3.110129e+001
1.144020e+003, 3.134803e+001
1.144502e+003, 3.169015e+001
1.144984e+003, 3.246173e+001
1.145466e+003, 3.329395e+001
1.145948e+003, 3.382255e+001
1.146431e+003, 3.417216e+001
1.146913e+003, 3.445977e+001
1.147395e+003, 3.470771e+001
1.147877e+003, 3.481626e+001
1.148359e+003, 3.488492e+001
1.148841e+003, 3.536041e+001
1.149323e+003, 3.649361e+001
1.149805e+003, 3.766422e+001
1.150287e+003, 3.851196e+001
1.150770e+003, 3.922379e+001
1.151252e+003, 3.956527e+001
1.151734e+003, 4.014123e+001
1.152216e+003, 4.189215e+001
1.152698e+003, 4.433000e+001
1.153180e+003, 4.625236e+001
1.153662e+003, 4.740809e+001
1.154144e+003, 4.845879e+001
1.154626e+003, 4.958111e+001
1.155109e+003, 5.070724e+001
1.155591e+003, 5.141060e+001
1.156073e+003, 5.255318e+001
1.156555e+003, 5.486631e+001
1.157037e+003, 5.781362e+001
1.157519e+003, 6.058743e+001
1.158001e+003, 6.327182e+001
1.158483e+003, 6.678296e+001
1.158966e+003, 7.204451e+001
1.159448e+003, 7.639121e+001
1.159930e+003, 7.946939e+001
1.160412e+003, 8.188438e+001
1.160894e+003, 8.362886e+001
1.161376e+003, 8.500238e+001
1.161858e+003, 8.660747e+001
1.162340e+003, 8.776828e+001
1.162822e+003, 8.685063e+001
1.163305e+003, 8.363511e+001
1.163787e+003, 8.077328e+001
1.164269e+003, 7.878549e+001
1.164751e+003, 7.551930e+001
1.165233e+003, 7.027528e+001
1.165715e+003, 6.495854e+001
1.166197e+003, 6.032587e+001
1.166679e+003, 5.634107e+001
1.167161e+003, 5.299175e+001
1.167644e+003, 5.020431e+001
1.168126e+003, 4.762149e+001
1.168608e+003, 4.523846e+001
1.169090e+003, 4.325488e+001
1.169572e+003, 4.169437e+001
1.170054e+003, 4.016016e+001
1.170536e+003, 3.854448e+001
1.171018e+003, 3.727270e+001
1.171500e+003, 3.666912e+001
1.171983e+003, 3.635415e+001
1.172465e+003, 3.574633e+001
1.172947e+003, 3.491739e+001
1.173429e+003, 3.399765e+001
1.173911e+003, 3.307017e+001
1.174393e+003, 3.251294e+001
1.174875e+003, 3.229503e+001
1.175357e+003, 3.198411e+001
1.175840e+003, 3.143110e+001
1.176322e+003, 3.098131e+001
1.176804e+003, 3.099263e+001
1.177286e+003, 3.107460e+001
1.177768e+003, 3.063484e+001
1.178250e+003, 3.003512e+001
1.178732e+003, 2.985479e+001
1.179214e+003, 2.991027e+001
1.179697e+003, 2.974791e+001
1.180179e+003, 2.935552e+001
1.180661e+003, 2.905009e+001
1.181143e+003, 2.896172e+001
1.181625e+003, 2.897540e+001
1.182107e+003, 2.902384e+001
1.182589e+003, 2.914914e+001
1.183071e+003, 2.955246e+001
1.183553e+003, 2.988997e+001
1.184036e+003, 2.987477e+001
1.184518e+003, 2.952942e+001
1.185000e+003, 2.871121e+001
1.185482e+003, 2.747841e+001
1.185964e+003, 2.702811e+001
1.186446e+003, 2.843601e+001
1.186928e+003, 2.933573e+001
1.187410e+003, 2.898418e+001
1.187892e+003, 2.848800e+001
1.188375e+003, 2.817693e+001
1.188857e+003, 2.804698e+001
1.189339e+003, 2.815804e+001
1.189821e+003, 2.841751e+001
1.190303e+003, 2.854161e+001
1.190785e+003, 2.848452e+001
1.191267e+003, 2.859553e+001
1.191749e+003, 2.905919e+001
1.192232e+003, 2.910408e+001
1.192714e+003, 2.837980e+001
1.193196e+003, 2.796659e+001
1.193678e+003, 2.856178e+001
1.194160e+003, 2.922740e+001
1.194642e+003, 2.870075e+001
1.195124e+003, 2.742667e+001
1.195606e+003, 2.728714e+001
1.196089e+003, 2.822615e+001
1.196571e+003, 2.881882e+001
1.197053e+003, 2.899297e+001
1.197535e+003, 2.858049e+001
1.198017e+003, 2.759348e+001
1.198499e+003, 2.705261e+001
1.198981e+003, 2.762179e+001
1.199463e+003, 2.850071e+001
1.199945e+003, 2.869653e+001
1.200427e+003, 2.840218e+001
1.200910e+003, 2.783652e+001
1.201392e+003, 2.715266e+001
1.201874e+003, 2.654022e+001
1.202356e+003, 2.614678e+001
1.202838e+003, 2.644378e+001
1.203320e+003, 2.743123e+001
1.203802e+003, 2.818957e+001
1.204284e+003, 2.808149e+001
1.204767e+003, 2.790291e+001
1.205249e+003, 2.832310e+001
1.205731e+003, 2.884901e+001
1.206213e+003, 2.932449e+001
1.206695e+003, 2.947234e+001
1.207177e+003, 2.863442e+001
1.207659e+003, 2.728655e+001
1.208141e+003, 2.678713e+001
1.208624e+003, 2.746487e+001
1.209106e+003, 2.786114e+001
1.209588e+003, 2.732557e+001
1.210070e+003, 2.692952e+001
1.210552e+003, 2.691979e+001
1.211034e+003, 2.706994e+001
1.211516e+003, 2.741291e+001
1.211998e+003, 2.773459e+001
1.212480e+003, 2.779051e+001
1.212963e+003, 2.765379e+001
1.213445e+003, 2.760734e+001
1.213927e+003, 2.768261e+001
1.214409e+003, 2.768198e+001
1.214891e+003, 2.758186e+001
1.215373e+003, 2.749883e+001
1.215855e+003, 2.745622e+001
1.216337e+003, 2.740186e+001
1.216819e+003, 2.728350e+001
1.217302e+003, 2.729273e+001
1.217784e+003, 2.772914e+001
1.218266e+003, 2.837096e+001
1.218748e+003, 2.848615e+001
1.219230e+003, 2.817710e+001
1.219712e+003, 2.785570e+001
1.220194e+003, 2.760189e+001
1.220676e+003, 2.775999e+001
1.221159e+003, 2.832488e+001
1.221641e+003, 2.869686e+001
1.222123e+003, 2.854037e+001
1.222605e+003, 2.844070e+001
1.223087e+003, 2.926722e+001
1.223569e+003, 3.017853e+001
1.224051e+003, 3.022871e+001
1.224533e+003, 2.976184e+001
1.225016e+003, 2.891691e+001
1.225498e+003, 2.805487e+001
1.225980e+003, 2.787070e+001
1.226462e+003, 2.835244e+001
1.226944e+003, 2.864096e+001
1.227426e+003, 2.826000e+001
1.227908e+003, 2.819828e+001
1.228390e+003, 2.904663e+001
1.228872e+003, 2.994873e+001
1.229354e+003, 3.091985e+001
1.229837e+003, 3.143771e+001
1.230319e+003, 3.072237e+001
1.230801e+003, 2.946953e+001
1.231283e+003, 2.891860e+001
1.231765e+003, 2.904938e+001
1.232247e+003, 2.920678e+001
1.232729e+003, 2.936084e+001
1.233211e+003, 2.966738e+001
1.233694e+003, 3.023332e+001
1.234176e+003, 3.057837e+001
1.234658e+003, 3.052165e+001
1.235140e+003, 3.037677e+001
1.235622e+003, 3.036913e+001
1.236104e+003, 3.040911e+001
1.236586e+003, 3.030243e+001
1.237068e+003, 3.013243e+001
1.237551e+003, 3.038079e+001
1.238033e+003, 3.088723e+001
1.238515e+003, 3.089456e+001
1.238997e+003, 3.041606e+001
1.239479e+003, 2.985871e+001
1.239961e+003, 2.937784e+001
1.240443e+003, 2.906199e+001
1.240925e+003, 2.896688e+001
1.241407e+003, 2.906116e+001
1.241890e+003, 2.953766e+001
1.242372e+003, 2.995520e+001
1.242854e+003, 2.976342e+001
1.243336e+003, 2.935109e+001
1.243818e+003, 2.914045e+001
1.244300e+003, 2.913709e+001
1.244782e+003, 2.937246e+001
1.245264e+003, 2.979164e+001
1.245746e+003, 2.971681e+001
1.246229e+003, 2.837552e+001
1.246711e+003, 2.763674e+001
1.247193e+003, 2.839477e+001
1.247675e+003, 2.901452e+001
1.248157e+003, 2.886204e+001
1.248639e+003, 2.848578e+001
1.249121e+003, 2.820529e+001
1.249603e+003, 2.800956e+001
1.250085e+003, 2.787485e+001
1.250568e+003, 2.780365e+001
1.251050e+003, 2.788074e+001
1.251532e+003, 2.814260e+001
1.252014e+003, 2.812264e+001
1.252496e+003, 2.777650e+001
1.252978e+003, 2.736172e+001
1.253460e+003, 2.695691e+001
1.253942e+003, 2.669990e+001
1.254425e+003, 2.667979e+001
1.254907e+003, 2.692438e+001
1.255389e+003, 2.779628e+001
1.255871e+003, 2.871398e+001
1.256353e+003, 2.825956e+001
1.256835e+003, 2.721143e+001
1.257317e+003, 2.712319e+001
1.257799e+003, 2.771270e+001
1.258281e+003, 2.785401e+001
1.258764e+003, 2.741666e+001
1.259246e+003, 2.731009e+001
1.259728e+003, 2.811033e+001
1.260210e+003, 2.854438e+001
1.260692e+003, 2.755322e+001
1.261174e+003, 2.667293e+001
1.261656e+003, 2.664061e+001
1.262138e+003, 2.698677e+001
1.262620e+003, 2.765815e+001
1.263103e+003, 2.827406e+001
1.263585e+003, 2.813851e+001
1.264067e+003, 2.737293e+001
1.264549e+003, 2.701042e+001
1.265031e+003, 2.714670e+001
1.265513e+003, 2.737405e+001
1.265995e+003, 2.771294e+001
1.266477e+003, 2.804753e+001
1.266960e+003, 2.836127e+001
1.267442e+003, 2.863667e+001
1.267924e+003, 2.888398e+001
1.268406e+003, 2.888001e+001
1.268888e+003, 2.823266e+001
1.269370e+003, 2.738146e+001
1.269852e+003, 2.759838e+001
1.270334e+003, 2.831125e+001
1.270817e+003, 2.778348e+001
1.271299e+003, 2.654659e+001
1.271781e+003, 2.636241e+001
1.272263e+003, 2.724493e+001
1.272745e+003, 2.797310e+001
1.273227e+003, 2.808060e+001
1.273709e+003, 2.787176e+001
1.274191e+003, 2.711544e+001
1.274673e+003, 2.666465e+001
1.275156e+003, 2.732718e+001
1.275638e+003, 2.800168e+001
1.276120e+003, 2.782046e+001
1.276602e+003, 2.735884e+001
1.277084e+003, 2.729470e+001
1.277566e+003, 2.753843e+001
1.278048e+003, 2.774577e+001
1.278530e+003, 2.795528e+001
1.279012e+003, 2.769667e+001
1.279495e+003, 2.671118e+001
1.279977e+003, 2.620961e+001
1.280459e+003, 2.636986e+001
1.280941e+003, 2.680798e+001
1.281423e+003, 2.742216e+001
1.281905e+003, 2.796990e+001
1.282387e+003, 2.827943e+001
1.282869e+003, 2.832087e+001
1.283352e+003, 2.794883e+001
1.283834e+003, 2.732131e+001
1.284316e+003, 2.677526e+001
1.284798e+003, 2.631163e+001
##END=



