##NAMES=Quintinite
##RRUFFID=R070709
##IDEAL CHEMISTRY=Mg_4_Al_2_(OH)_12_CO_3_&#183;3H_2_O
##LOCALITY=Jacupiranga mine, Cajati, SÃ£o Paulo, Southeast Region, Brazil
##OWNER=RRUFF
##SOURCE=Michael Scott
##DESCRIPTION=Deep orange to light orange, prismatic cluster of crystals, polytype 2H, associated with calcite, magnetite, pyrite and quintinite-3T, R070715
##STATUS=The identification of this mineral has been confirmed by single-crystal X-ray diffraction.
##URL=rruff.info/R070709
127.7194, 3096.942
128.2015, 3143.203
128.6837, 3201.608
129.1658, 3246.351
129.6479, 3263.345
130.1300, 3294.953
130.6121, 3350.274
131.0942, 3415.716
131.5764, 3480.251
132.0585, 3538.649
132.5406, 3593.754
133.0227, 3654.659
133.5048, 3718.172
133.9869, 3791.823
134.4691, 3877.532
134.9512, 3974.153
135.4333, 4078.440
135.9154, 4187.861
136.3975, 4303.284
136.8796, 4436.158
137.3618, 4590.913
137.8439, 4754.705
138.3260, 4925.183
138.8081, 5101.291
139.2902, 5276.033
139.7723, 5441.689
140.2545, 5599.257
140.7366, 5769.970
141.2187, 5950.648
141.7008, 6146.821
142.1829, 6371.749
142.6650, 6631.266
143.1472, 6898.429
143.6293, 7137.450
144.1114, 7355.460
144.5935, 7602.444
145.0756, 7910.381
145.5577, 8264.700
146.0399, 8619.597
146.5220, 8964.521
147.0041, 9314.187
147.4862, 9682.879
147.9683, 10069.58
148.4504, 10457.18
148.9326, 10829.35
149.4147, 11187.64
149.8968, 11538.82
150.3789, 11895.79
150.8610, 12237.99
151.3431, 12555.24
151.8252, 12844.92
152.3074, 13106.76
152.7895, 13343.71
153.2716, 13575.58
153.7537, 13732.47
154.2358, 13793.15
154.7179, 13800.02
155.2001, 13789.85
155.6822, 13778.45
156.1643, 13755.50
156.6464, 13689.59
157.1285, 13557.51
157.6106, 13400.32
158.0928, 13220.14
158.5749, 13018.37
159.0570, 12796.15
159.5391, 12554.68
160.0212, 12293.00
160.5033, 12009.28
160.9855, 11696.27
161.4676, 11372.30
161.9497, 11034.95
162.4318, 10689.55
162.9139, 10349.38
163.3960, 10026.16
163.8782, 9720.048
164.3603, 9402.772
164.8424, 9063.216
165.3245, 8720.608
165.8066, 8384.644
166.2887, 8055.780
166.7709, 7745.146
167.2530, 7472.165
167.7351, 7235.354
168.2172, 6981.106
168.6993, 6673.919
169.1814, 6357.893
169.6636, 6087.791
170.1457, 5874.999
170.6278, 5694.066
171.1099, 5526.764
171.5920, 5370.376
172.0741, 5216.199
172.5563, 5054.230
173.0384, 4890.871
173.5205, 4746.124
174.0026, 4623.270
174.4847, 4520.209
174.9668, 4435.898
175.4490, 4368.840
175.9311, 4302.990
176.4132, 4224.329
176.8953, 4132.917
177.3774, 4049.029
177.8595, 3979.832
178.3417, 3916.380
178.8238, 3854.840
179.3059, 3794.428
179.7880, 3733.607
180.2701, 3668.018
180.7522, 3593.125
181.2344, 3531.835
181.7165, 3505.538
182.1986, 3482.082
182.6807, 3441.142
183.1628, 3377.393
183.6449, 3300.494
184.1271, 3226.178
184.6092, 3156.468
185.0913, 3085.566
185.5734, 3008.693
186.0555, 2932.844
186.5376, 2865.497
187.0198, 2809.500
187.5019, 2760.091
187.9840, 2703.366
188.4661, 2629.685
188.9482, 2560.732
189.4303, 2499.250
189.9125, 2442.662
190.3946, 2388.777
190.8767, 2335.965
191.3588, 2284.269
191.8409, 2232.249
192.3230, 2173.775
192.8052, 2121.919
193.2873, 2082.345
193.7694, 2051.096
194.2515, 2021.580
194.7336, 1989.837
195.2157, 1956.260
195.6979, 1923.392
196.1800, 1885.337
196.6621, 1853.580
197.1442, 1836.238
197.6263, 1829.624
198.1084, 1822.448
198.5906, 1806.665
199.0727, 1782.966
199.5548, 1762.692
200.0369, 1744.299
200.5190, 1730.255
201.0011, 1725.616
201.4833, 1729.121
201.9654, 1729.026
202.4475, 1712.691
202.9296, 1683.332
203.4117, 1669.490
203.8938, 1685.475
204.3760, 1708.940
204.8581, 1719.384
205.3402, 1715.226
205.8223, 1708.617
206.3044, 1710.713
206.7865, 1718.537
207.2687, 1721.106
207.7508, 1712.381
208.2329, 1698.781
208.7150, 1688.402
209.1971, 1681.775
209.6792, 1678.000
210.1614, 1678.965
210.6435, 1682.562
211.1256, 1683.646
211.6077, 1680.164
212.0898, 1672.909
212.5719, 1663.764
213.0541, 1653.305
213.5362, 1639.600
214.0183, 1618.457
214.5004, 1592.979
214.9825, 1571.019
215.4646, 1559.620
215.9468, 1555.925
216.4289, 1548.044
216.9110, 1533.611
217.3931, 1517.521
217.8752, 1503.926
218.3573, 1491.442
218.8395, 1476.175
219.3216, 1452.968
219.8037, 1422.833
220.2858, 1398.295
220.7679, 1383.606
221.2500, 1370.522
221.7322, 1355.314
222.2143, 1338.331
222.6964, 1321.299
223.1785, 1305.384
223.6606, 1290.582
224.1427, 1276.943
224.6249, 1266.719
225.1070, 1255.669
225.5891, 1242.188
226.0712, 1226.371
226.5533, 1209.069
227.0354, 1190.220
227.5176, 1169.219
227.9997, 1151.425
228.4818, 1140.332
228.9639, 1129.624
229.4460, 1115.425
229.9281, 1098.755
230.4103, 1084.226
230.8924, 1078.019
231.3745, 1083.472
231.8566, 1081.862
232.3387, 1067.423
232.8208, 1051.339
233.3030, 1038.739
233.7851, 1029.721
234.2672, 1021.374
234.7493, 1010.287
235.2314, 995.2402
235.7135, 981.9357
236.1957, 969.0387
236.6778, 958.5267
237.1599, 951.6927
237.6420, 948.5311
238.1241, 948.5556
238.6062, 952.3218
239.0884, 964.1266
239.5705, 964.5906
240.0526, 944.1917
240.5347, 922.0829
241.0168, 910.4174
241.4989, 909.8917
241.9811, 913.0796
242.4632, 911.9679
242.9453, 907.0162
243.4274, 894.5396
243.9095, 862.6484
244.3916, 833.1268
244.8738, 823.8672
245.3559, 835.1420
245.8380, 849.5516
246.3201, 845.9572
246.8022, 815.0721
247.2843, 795.7124
247.7665, 794.7246
248.2486, 799.1264
248.7307, 801.0319
249.2128, 798.9389
249.6949, 794.1544
250.1770, 787.6147
250.6592, 777.8449
251.1413, 772.2542
251.6234, 774.3686
252.1055, 778.0203
252.5876, 779.3392
253.0697, 777.5916
253.5519, 772.9592
254.0340, 764.7496
254.5161, 750.8491
254.9982, 743.3657
255.4803, 746.3491
255.9624, 752.9143
256.4445, 758.3652
256.9267, 761.9174
257.4088, 764.6199
257.8909, 767.9023
258.3730, 772.2798
258.8551, 773.0176
259.3372, 768.4119
259.8194, 761.2771
260.3015, 752.4018
260.7836, 742.2281
261.2657, 733.9630
261.7478, 731.3989
262.2299, 735.7086
262.7121, 737.6038
263.1942, 736.0044
263.6763, 732.5974
264.1584, 726.9362
264.6405, 719.3629
265.1227, 714.8546
265.6048, 719.6773
266.0869, 734.6464
266.5690, 742.5762
267.0511, 737.2160
267.5332, 728.6819
268.0154, 724.4283
268.4975, 725.1068
268.9796, 729.4156
269.4617, 738.6768
269.9438, 752.2731
270.4259, 756.3920
270.9081, 741.3726
271.3902, 723.2787
271.8723, 715.0390
272.3544, 716.9998
272.8365, 721.7910
273.3186, 724.9989
273.8008, 726.2546
274.2829, 725.0570
274.7650, 717.6728
275.2471, 710.6026
275.7292, 709.6725
276.2113, 714.5770
276.6935, 719.6230
277.1756, 720.7126
277.6577, 718.4685
278.1398, 717.9924
278.6219, 722.0768
279.1040, 725.6922
279.5862, 725.7172
280.0683, 722.2297
280.5504, 715.4515
281.0325, 702.6071
281.5146, 687.3289
281.9967, 682.6238
282.4789, 700.0804
282.9610, 717.3107
283.4431, 717.8333
283.9252, 704.3685
284.4073, 692.4392
284.8894, 690.2604
285.3716, 695.5837
285.8537, 699.9075
286.3358, 702.1634
286.8179, 704.7798
287.3000, 711.4664
287.7821, 720.4502
288.2643, 723.5370
288.7464, 714.4863
289.2285, 699.2824
289.7106, 692.6730
290.1927, 696.1631
290.6748, 704.2833
291.1570, 717.2709
291.6391, 733.3693
292.1212, 746.9194
292.6033, 755.3004
293.0854, 760.5062
293.5675, 766.3511
294.0497, 772.4663
294.5318, 780.0021
295.0139, 790.7216
295.4960, 803.2006
295.9781, 814.5186
296.4602, 824.0952
296.9424, 831.3606
297.4245, 833.2197
297.9066, 827.3664
298.3887, 827.1560
298.8708, 841.0145
299.3529, 862.4556
299.8351, 880.2480
300.3172, 891.2944
300.7993, 898.7864
301.2814, 906.6564
301.7635, 914.7956
302.2456, 923.4564
302.7278, 932.9664
303.2099, 942.8857
303.6920, 952.7651
304.1741, 962.5812
304.6562, 971.8868
305.1383, 981.5026
305.6205, 991.8100
306.1026, 995.2332
306.5847, 984.8129
307.0668, 970.2148
307.5489, 961.8033
308.0310, 960.8568
308.5132, 961.6140
308.9953, 959.4511
309.4774, 954.0724
309.9595, 946.0585
310.4416, 932.7510
310.9237, 918.6987
311.4059, 907.8806
311.8880, 900.2954
312.3701, 892.4668
312.8522, 880.5778
313.3343, 865.5356
313.8164, 857.5661
314.2986, 866.3459
314.7807, 873.3420
315.2628, 866.4297
315.7449, 847.7102
316.2270, 827.2849
316.7091, 811.5860
317.1913, 799.2592
317.6734, 782.3893
318.1555, 748.0502
318.6376, 723.3528
319.1197, 726.9568
319.6018, 748.2228
320.0840, 761.8275
320.5661, 754.7072
321.0482, 733.0402
321.5303, 716.8644
322.0124, 704.2465
322.4945, 698.3381
322.9767, 705.0117
323.4588, 717.5987
323.9409, 725.7999
324.4230, 725.5721
324.9051, 720.8877
325.3872, 719.7779
325.8694, 725.6443
326.3515, 729.0569
326.8336, 726.3049
327.3157, 722.2249
327.7978, 722.9219
328.2799, 729.7208
328.7621, 737.4022
329.2442, 738.4193
329.7263, 728.2012
330.2084, 722.6210
330.6905, 726.2321
331.1726, 731.0059
331.6548, 730.1117
332.1369, 723.4221
332.6190, 716.5856
333.1011, 715.5849
333.5832, 721.7142
334.0653, 726.6499
334.5475, 729.9006
335.0296, 732.6584
335.5117, 735.4196
335.9938, 738.1871
336.4759, 740.8428
336.9580, 743.3454
337.4402, 745.6863
337.9223, 747.1908
338.4044, 746.8467
338.8865, 746.7875
339.3686, 748.5311
339.8507, 750.8223
340.3329, 751.0096
340.8150, 747.3083
341.2971, 741.2415
341.7792, 739.3586
342.2613, 744.5891
342.7434, 750.7474
343.2256, 760.1451
343.7077, 768.8575
344.1898, 771.5981
344.6719, 766.3948
345.1540, 757.6727
345.6361, 754.5281
346.1183, 760.2458
346.6004, 765.4658
347.0825, 772.7845
347.5646, 777.3192
348.0467, 774.1089
348.5288, 762.8069
349.0110, 748.7513
349.4931, 737.1446
349.9752, 726.2914
350.4573, 724.6402
350.9394, 743.0544
351.4215, 761.9355
351.9037, 772.9240
352.3858, 776.0107
352.8679, 775.1083
353.3500, 772.1777
353.8321, 767.3628
354.3142, 765.7900
354.7964, 770.8706
355.2785, 775.1429
355.7606, 773.7894
356.2427, 769.6115
356.7248, 768.3643
357.2069, 774.2297
357.6891, 784.6545
358.1712, 792.5963
358.6533, 797.9553
359.1354, 800.9754
359.6175, 796.7943
360.0996, 792.2546
360.5818, 796.0457
361.0639, 812.2866
361.5460, 834.3558
362.0281, 855.7360
362.5102, 877.2549
362.9923, 891.0292
363.4745, 888.4156
363.9566, 880.6105
364.4387, 879.0292
364.9208, 885.5331
365.4029, 892.4851
365.8850, 895.3008
366.3672, 894.0245
366.8493, 888.3110
367.3314, 876.1829
367.8135, 862.3378
368.2956, 853.0510
368.7777, 847.8871
369.2599, 838.8734
369.7420, 818.6157
370.2241, 793.6694
370.7062, 775.6729
371.1883, 766.5479
371.6704, 760.4635
372.1526, 752.7178
372.6347, 743.7584
373.1168, 736.2601
373.5989, 730.6653
374.0810, 726.5388
374.5631, 725.1525
375.0453, 725.8331
375.5274, 722.9609
376.0095, 711.0759
376.4916, 693.8153
376.9737, 686.5266
377.4558, 696.7077
377.9380, 706.9483
378.4201, 711.6199
378.9022, 711.8946
379.3843, 709.3867
379.8664, 704.4816
380.3485, 698.3600
380.8307, 693.2224
381.3128, 686.1324
381.7949, 685.6911
382.2770, 696.5349
382.7591, 712.0477
383.2412, 728.2344
383.7234, 743.4747
384.2055, 753.9204
384.6876, 753.9537
385.1697, 739.4286
385.6518, 732.3984
386.1339, 734.9329
386.6161, 741.5624
387.0982, 752.3651
387.5803, 765.2633
388.0624, 775.5399
388.5445, 779.2570
389.0266, 777.3608
389.5088, 780.1027
389.9909, 794.4996
390.4730, 805.6147
390.9551, 806.4946
391.4372, 804.1444
391.9193, 808.6520
392.4015, 824.6098
392.8836, 845.2836
393.3657, 856.0797
393.8478, 851.3630
394.3299, 850.3806
394.8120, 853.9657
395.2942, 863.0756
395.7763, 881.7004
396.2584, 909.2531
396.7405, 936.1985
397.2226, 952.3857
397.7047, 957.6810
398.1869, 963.2469
398.6690, 970.8536
399.1511, 977.4082
399.6332, 981.8289
400.1153, 983.9891
400.5974, 983.6285
401.0796, 980.1622
401.5617, 974.2064
402.0438, 967.8248
402.5259, 961.9584
403.0080, 951.9974
403.4901, 934.5491
403.9723, 911.4238
404.4544, 884.2169
404.9365, 849.6174
405.4186, 816.8098
405.9007, 794.7851
406.3828, 781.9524
406.8650, 769.8476
407.3471, 755.8069
407.8292, 740.8287
408.3113, 725.9360
408.7934, 710.6951
409.2755, 697.5435
409.7577, 687.5091
410.2398, 679.9829
410.7219, 675.5637
411.2040, 674.3500
411.6861, 671.8850
412.1682, 662.9581
412.6504, 646.4078
413.1325, 633.7973
413.6146, 625.5018
414.0967, 620.5327
414.5788, 619.8241
415.0609, 622.1515
415.5431, 624.4536
416.0252, 624.9172
416.5073, 623.7915
416.9894, 622.2234
417.4715, 620.9163
417.9536, 618.2570
418.4358, 610.4357
418.9179, 602.8841
419.4000, 603.5247
419.8821, 614.0821
420.3642, 626.3432
420.8463, 626.7476
421.3285, 609.1965
421.8106, 596.5320
422.2927, 590.2505
422.7748, 587.2592
423.2569, 587.3279
423.7390, 589.6448
424.2212, 592.4233
424.7033, 594.2255
425.1854, 595.2997
425.6675, 597.7318
426.1496, 604.0275
426.6317, 607.1802
427.1139, 601.6093
427.5960, 592.7620
428.0781, 588.2787
428.5602, 592.1168
429.0423, 597.3578
429.5244, 593.8027
430.0066, 581.1873
430.4887, 571.8816
430.9708, 569.9874
431.4529, 572.5272
431.9350, 576.7296
432.4171, 582.8049
432.8993, 586.6886
433.3814, 585.1329
433.8635, 580.4257
434.3456, 576.1980
434.8277, 572.7780
435.3098, 571.2599
435.7920, 574.3835
436.2741, 581.2618
436.7562, 581.8259
437.2383, 567.5040
437.7204, 554.3616
438.2025, 552.0782
438.6847, 558.7720
439.1668, 569.3677
439.6489, 582.2711
440.1310, 595.0363
440.6131, 600.8671
441.0952, 594.3364
441.5774, 588.3766
442.0595, 581.2814
442.5416, 576.3508
443.0237, 578.6387
443.5058, 587.9289
443.9879, 597.3666
444.4701, 598.6038
444.9522, 589.7958
445.4343, 585.9249
445.9164, 591.4601
446.3985, 597.5122
446.8806, 601.6749
447.3628, 604.2781
447.8449, 606.5489
448.3270, 609.3514
448.8091, 611.7565
449.2912, 610.6835
449.7733, 603.9024
450.2555, 599.9041
450.7376, 601.4306
451.2197, 606.2650
451.7018, 614.4053
452.1839, 625.7239
452.6660, 635.6773
453.1482, 640.7417
453.6303, 641.3602
454.1124, 638.4437
454.5945, 629.6983
455.0766, 622.6826
455.5587, 627.5781
456.0409, 640.0269
456.5230, 646.7199
457.0051, 637.2328
457.4872, 626.5116
457.9693, 630.3538
458.4514, 646.2269
458.9336, 659.0496
459.4157, 661.2634
459.8978, 656.3422
460.3799, 653.1727
460.8620, 651.9189
461.3441, 651.7175
461.8262, 652.8544
462.3083, 654.7413
462.7905, 656.0360
463.2726, 656.8119
463.7547, 659.7399
464.2368, 668.6049
464.7189, 684.9779
465.2010, 693.2308
465.6832, 683.7490
466.1653, 676.8471
466.6474, 680.2578
467.1295, 690.4046
467.6116, 700.8596
468.0938, 708.2979
468.5759, 714.5129
469.0580, 724.2935
469.5401, 740.5532
470.0222, 752.1241
470.5043, 753.2754
470.9865, 751.8342
471.4686, 751.2391
471.9507, 752.2991
472.4328, 756.5234
472.9149, 767.4615
473.3970, 782.7344
473.8792, 794.3459
474.3613, 802.5496
474.8434, 805.2073
475.3255, 795.5211
475.8076, 779.7920
476.2897, 771.1890
476.7719, 774.1135
477.2540, 781.4667
477.7361, 791.1813
478.2182, 801.7018
478.7003, 807.7595
479.1824, 807.0063
479.6646, 802.9700
480.1467, 800.7869
480.6288, 800.5017
481.1109, 802.2015
481.5930, 810.8441
482.0751, 817.6258
482.5573, 813.4886
483.0394, 800.6637
483.5215, 789.9219
484.0036, 789.5079
484.4857, 797.4122
484.9678, 800.1848
485.4500, 792.0587
485.9321, 786.2999
486.4142, 786.2880
486.8963, 788.4256
487.3784, 788.7418
487.8605, 786.4023
488.3427, 784.4425
488.8248, 786.8391
489.3069, 793.8070
489.7890, 800.4202
490.2711, 808.0983
490.7532, 812.9940
491.2354, 812.1089
491.7175, 807.2466
492.1996, 802.6846
492.6817, 800.8961
493.1638, 799.2888
493.6459, 794.0312
494.1281, 785.4292
494.6102, 778.0723
495.0923, 774.2106
495.5744, 771.8545
496.0565, 767.5149
496.5386, 760.9978
497.0208, 753.9697
497.5029, 746.3306
497.9850, 738.6458
498.4671, 731.2194
498.9492, 724.2164
499.4313, 718.2322
499.9135, 714.0017
500.3956, 711.3193
500.8777, 707.1855
501.3598, 700.6837
501.8419, 693.8470
502.3240, 683.8458
502.8062, 675.1636
503.2883, 674.8668
503.7704, 684.3436
504.2525, 694.8597
504.7346, 694.0756
505.2167, 680.1100
505.6989, 668.1838
506.1810, 657.4312
506.6631, 650.5592
507.1452, 651.3871
507.6273, 656.6802
508.1094, 659.1632
508.5916, 654.5293
509.0737, 647.1760
509.5558, 642.6777
510.0379, 640.9977
510.5200, 640.8350
511.0021, 642.2529
511.4843, 644.3998
511.9664, 646.4303
512.4485, 648.6905
512.9306, 648.9210
513.4127, 644.2369
513.8948, 638.7405
514.3770, 635.7003
514.8591, 635.6327
515.3412, 639.5616
515.8233, 649.2665
516.3054, 662.9456
516.7875, 668.7375
517.2697, 657.0562
517.7518, 649.1869
518.2339, 649.4147
518.7160, 653.0554
519.1981, 655.2525
519.6802, 655.1729
520.1624, 655.7480
520.6445, 661.2722
521.1266, 671.9672
521.6087, 678.2419
522.0908, 676.7990
522.5729, 675.7072
523.0551, 678.6561
523.5372, 684.1606
524.0193, 689.6329
524.5014, 693.5884
524.9835, 698.9901
525.4656, 711.3698
525.9478, 728.6990
526.4299, 739.9211
526.9120, 740.9358
527.3941, 738.1565
527.8762, 737.3701
528.3583, 738.3488
528.8405, 745.9665
529.3226, 768.2158
529.8047, 790.5978
530.2868, 801.7563
530.7689, 805.0425
531.2510, 810.6240
531.7332, 823.6572
532.2153, 842.0671
532.6974, 860.9645
533.1795, 881.0096
533.6616, 900.3132
534.1437, 917.3150
534.6259, 934.9557
535.1080, 954.9304
535.5901, 977.2494
536.0722, 1000.854
536.5543, 1025.064
537.0364, 1049.916
537.5186, 1073.537
538.0007, 1093.517
538.4828, 1122.009
538.9649, 1171.534
539.4470, 1227.159
539.9291, 1269.776
540.4113, 1295.989
540.8934, 1324.505
541.3755, 1365.011
541.8576, 1413.294
542.3397, 1463.135
542.8218, 1513.753
543.3040, 1565.868
543.7861, 1620.382
544.2682, 1676.897
544.7503, 1731.976
545.2324, 1772.847
545.7145, 1828.432
546.1967, 1909.860
546.6788, 2005.497
547.1609, 2105.227
547.6430, 2205.313
548.1251, 2304.789
548.6072, 2401.174
549.0894, 2494.342
549.5715, 2594.275
550.0536, 2701.474
550.5357, 2815.971
551.0178, 2934.874
551.4999, 3061.143
551.9821, 3201.767
552.4642, 3360.757
552.9463, 3524.460
553.4284, 3681.087
553.9105, 3832.293
554.3926, 3982.918
554.8748, 4134.921
555.3569, 4282.727
555.8390, 4421.741
556.3211, 4552.059
556.8032, 4672.422
557.2853, 4809.247
557.7675, 4909.049
558.2496, 4944.432
558.7317, 4926.191
559.2138, 4872.659
559.6959, 4790.758
560.1780, 4674.609
560.6602, 4510.926
561.1423, 4286.946
561.6244, 4069.003
562.1065, 3866.374
562.5886, 3662.668
563.0707, 3451.092
563.5529, 3234.345
564.0350, 3012.594
564.5171, 2782.194
564.9992, 2560.655
565.4813, 2373.004
565.9634, 2217.964
566.4456, 2075.672
566.9277, 1941.863
567.4098, 1818.041
567.8919, 1707.437
568.3740, 1609.173
568.8561, 1517.316
569.3383, 1426.206
569.8204, 1345.190
570.3025, 1283.276
570.7846, 1235.614
571.2667, 1191.303
571.7488, 1145.959
572.2310, 1101.061
572.7131, 1060.351
573.1952, 1025.659
573.6773, 989.8071
574.1594, 946.5026
574.6415, 908.3143
575.1237, 882.9361
575.6058, 866.7220
576.0879, 851.7400
576.5700, 834.5325
577.0521, 815.7800
577.5342, 795.3734
578.0164, 773.3280
578.4985, 754.2473
578.9806, 739.9035
579.4627, 727.9810
579.9448, 716.6467
580.4269, 705.8098
580.9091, 694.5208
581.3912, 679.5551
581.8733, 666.7962
582.3554, 663.9069
582.8375, 666.3793
583.3196, 660.9942
583.8018, 641.9563
584.2839, 618.7510
584.7660, 608.4096
585.2481, 616.3269
585.7302, 621.9689
586.2123, 626.9307
586.6945, 628.1974
587.1766, 622.0978
587.6587, 611.6625
588.1408, 602.7708
588.6229, 598.2999
589.1050, 595.8681
589.5872, 591.1174
590.0693, 584.2562
590.5514, 582.2708
591.0335, 588.6805
591.5156, 596.5522
591.9977, 600.0062
592.4799, 599.2549
592.9620, 593.8961
593.4441, 577.1400
593.9262, 562.3979
594.4083, 561.3500
594.8904, 567.4178
595.3726, 565.6315
595.8547, 550.8930
596.3368, 533.7589
596.8189, 531.0627
597.3010, 547.8793
597.7831, 554.7492
598.2653, 541.5632
598.7474, 528.5861
599.2295, 521.9953
599.7116, 519.7615
600.1937, 518.1929
600.6758, 515.8828
601.1580, 514.6857
601.6401, 518.5881
602.1222, 525.9116
602.6043, 527.6606
603.0864, 521.3878
603.5685, 513.2565
604.0507, 507.4654
604.5328, 504.2617
605.0149, 503.7515
605.4970, 511.3420
605.9791, 515.2810
606.4612, 507.7056
606.9434, 495.8771
607.4255, 488.7196
607.9076, 488.3621
608.3897, 491.9566
608.8718, 497.5007
609.3539, 504.8607
609.8361, 507.0869
610.3182, 499.5199
610.8003, 494.5948
611.2824, 501.3163
611.7645, 509.9448
612.2466, 508.8094
612.7288, 495.3116
613.2109, 481.0453
613.6930, 472.6647
614.1751, 468.9888
614.6572, 468.2105
615.1393, 470.1297
615.6215, 474.3029
616.1036, 481.3687
616.5857, 489.8067
617.0678, 494.1805
617.5499, 491.4239
618.0320, 488.8259
618.5142, 486.1386
618.9963, 484.1230
619.4784, 483.9284
619.9605, 485.0652
620.4426, 485.8813
620.9247, 485.4717
621.4069, 483.6223
621.8890, 478.8816
622.3711, 470.3419
622.8532, 464.2857
623.3353, 462.7675
623.8174, 464.0089
624.2996, 466.9364
624.7817, 471.3721
625.2638, 474.2793
625.7459, 473.8344
626.2280, 472.4496
626.7101, 471.8757
627.1923, 471.9030
627.6744, 472.0109
628.1565, 472.0148
628.6386, 471.3583
629.1207, 469.0800
629.6028, 464.8512
630.0850, 460.3642
630.5671, 453.2401
631.0492, 448.4297
631.5313, 448.4279
632.0134, 451.5231
632.4955, 455.5345
632.9777, 460.0695
633.4598, 463.4916
633.9419, 463.2466
634.4240, 460.5192
634.9061, 460.0022
635.3882, 462.7741
635.8704, 464.0004
636.3525, 459.4656
636.8346, 450.2407
637.3167, 443.2186
637.7988, 435.9016
638.2809, 433.7376
638.7631, 444.0215
639.2452, 455.6348
639.7273, 455.8422
640.2094, 445.5750
640.6915, 437.4107
641.1736, 442.5475
641.6558, 455.9798
642.1379, 459.0181
642.6200, 448.9608
643.1021, 440.2451
643.5842, 436.6488
644.0663, 436.4105
644.5485, 438.1696
645.0306, 441.8501
645.5127, 444.7473
645.9948, 444.7047
646.4769, 444.8108
646.9590, 448.3531
647.4412, 453.9927
647.9233, 458.4510
648.4054, 460.4350
648.8875, 460.2770
649.3696, 458.2458
649.8517, 454.0017
650.3339, 449.5993
650.8160, 443.3840
651.2981, 439.1035
651.7802, 437.6166
652.2623, 438.8456
652.7444, 443.9818
653.2266, 454.2811
653.7087, 461.8745
654.1908, 458.2813
654.6729, 448.1205
655.1550, 441.4793
655.6371, 439.4174
656.1193, 437.9272
656.6014, 433.9576
657.0835, 428.9213
657.5656, 428.2120
658.0477, 434.8334
658.5298, 441.9033
659.0120, 454.2665
659.4941, 463.0124
659.9762, 458.5237
660.4583, 444.7007
660.9404, 434.5394
661.4225, 436.2054
661.9047, 443.6171
662.3868, 446.3274
662.8689, 444.5055
663.3510, 443.5243
663.8331, 445.4461
664.3152, 446.2899
664.7974, 439.9896
665.2795, 427.3396
665.7616, 423.0375
666.2437, 433.4042
666.7258, 445.1739
667.2079, 456.3588
667.6901, 464.8223
668.1722, 466.3545
668.6543, 461.1909
669.1364, 456.0438
669.6185, 458.0609
670.1006, 465.5088
670.5828, 466.8241
671.0649, 459.1642
671.5470, 454.8904
672.0291, 460.7481
672.5112, 469.8217
672.9933, 473.9667
673.4755, 472.9386
673.9576, 472.3135
674.4397, 473.1466
674.9218, 475.4394
675.4039, 479.4085
675.8860, 484.8055
676.3682, 491.7041
676.8503, 500.0613
677.3324, 508.0199
677.8145, 512.4930
678.2966, 512.9385
678.7787, 514.1489
679.2609, 515.2067
679.7430, 518.4673
680.2251, 527.6816
680.7072, 538.1747
681.1893, 543.4413
681.6714, 541.8447
682.1536, 539.4485
682.6357, 537.4379
683.1178, 537.7717
683.5999, 545.9722
684.0820, 560.3775
684.5641, 569.6657
685.0463, 567.0955
685.5284, 558.3909
686.0105, 557.0558
686.4926, 566.4149
686.9747, 575.2366
687.4568, 582.8991
687.9390, 590.6849
688.4211, 599.5983
688.9032, 608.8962
689.3853, 617.2602
689.8674, 624.4905
690.3495, 630.1658
690.8317, 632.8337
691.3138, 633.9238
691.7959, 636.2893
692.2780, 640.3246
692.7601, 646.5295
693.2422, 655.7662
693.7244, 666.7972
694.2065, 674.6880
694.6886, 677.0562
695.1707, 680.0119
695.6528, 685.1312
696.1349, 689.6092
696.6171, 693.2355
697.0992, 694.7939
697.5813, 690.6780
698.0634, 676.5620
698.5455, 662.3580
699.0276, 663.2037
699.5098, 674.0021
699.9919, 674.8926
700.4740, 661.5432
700.9561, 645.7128
701.4382, 637.2039
701.9203, 634.8420
702.4025, 629.2867
702.8846, 615.2592
703.3667, 605.0741
703.8488, 601.5898
704.3309, 600.6585
704.8130, 601.0176
705.2952, 601.2254
705.7773, 597.9813
706.2594, 588.7255
706.7415, 576.2184
707.2236, 562.1965
707.7057, 547.6265
708.1879, 539.9951
708.6700, 542.1699
709.1521, 544.6618
709.6342, 537.7199
710.1163, 521.9377
710.5984, 511.9752
711.0806, 512.5433
711.5627, 512.3834
712.0448, 508.3701
712.5269, 504.0571
713.0090, 503.2787
713.4911, 505.5460
713.9733, 506.9603
714.4554, 505.2924
714.9375, 501.1086
715.4196, 493.2629
715.9017, 482.7067
716.3839, 478.0669
716.8660, 482.5724
717.3481, 489.0096
717.8302, 490.6081
718.3123, 487.3647
718.7944, 482.4293
719.2766, 471.3910
719.7587, 464.4801
720.2408, 465.3651
720.7229, 469.7898
721.2050, 474.8749
721.6871, 479.7849
722.1693, 483.7697
722.6514, 485.9893
723.1335, 487.4091
723.6156, 491.0750
724.0977, 496.1221
724.5798, 494.7819
725.0620, 483.6944
725.5441, 472.4707
726.0262, 471.8489
726.5083, 481.8179
726.9904, 486.3128
727.4725, 481.7457
727.9547, 476.5499
728.4368, 470.5273
728.9189, 465.4923
729.4010, 462.6707
729.8831, 462.3275
730.3652, 464.8003
730.8474, 472.6811
731.3295, 480.9722
731.8116, 481.2398
732.2937, 475.0220
732.7758, 469.3828
733.2579, 465.8143
733.7401, 465.7141
734.2222, 471.4005
734.7043, 482.4817
735.1864, 489.6484
735.6685, 492.4530
736.1506, 491.5941
736.6328, 483.3874
737.1149, 474.4650
737.5970, 469.7320
738.0791, 469.3183
738.5612, 470.9871
739.0433, 473.8647
739.5255, 477.9415
740.0076, 485.6664
740.4897, 494.6943
740.9718, 496.2640
741.4539, 488.3459
741.9360, 478.5505
742.4182, 473.2756
742.9003, 472.3650
743.3824, 474.7971
743.8645, 482.5653
744.3466, 490.2977
744.8287, 498.0166
745.3109, 504.9266
745.7930, 511.8580
746.2751, 517.6879
746.7572, 518.3079
747.2393, 508.4366
747.7214, 498.4452
748.2036, 499.3065
748.6857, 505.5086
749.1678, 505.2504
749.6499, 497.1733
750.1320, 489.3595
750.6141, 487.8110
751.0963, 491.7402
751.5784, 499.0601
752.0605, 513.1359
752.5426, 520.9271
753.0247, 515.9343
753.5068, 509.4242
753.9890, 509.1722
754.4711, 512.8452
754.9532, 513.7165
755.4353, 508.3377
755.9174, 503.7469
756.3995, 504.9667
756.8817, 508.0990
757.3638, 507.9687
757.8459, 504.7474
758.3280, 501.8871
758.8101, 501.4387
759.2922, 503.0796
759.7744, 506.9773
760.2565, 513.6221
760.7386, 517.2648
761.2207, 516.2175
761.7028, 514.3307
762.1849, 512.9041
762.6671, 512.6620
763.1492, 515.6386
763.6313, 524.2072
764.1134, 530.5722
764.5955, 530.2972
765.0776, 529.4910
765.5598, 534.1638
766.0419, 541.9512
766.5240, 546.4983
767.0061, 545.0133
767.4882, 541.0477
767.9703, 539.3488
768.4525, 539.2589
768.9346, 536.2978
769.4167, 529.6280
769.8988, 525.5905
770.3809, 528.3422
770.8630, 534.3410
771.3452, 536.5549
771.8273, 533.1461
772.3094, 531.2502
772.7915, 532.5643
773.2736, 520.4833
773.7557, 538.4344
774.2379, 548.9637
774.7200, 552.4691
775.2021, 527.9149
775.6842, 539.5940
776.1663, 536.7524
776.6484, 533.3153
777.1306, 550.0942
777.6127, 529.6212
778.0948, 546.0793
778.5769, 547.7952
779.0590, 556.2583
779.5411, 550.1109
780.0233, 548.4766
780.5054, 561.4568
780.9875, 566.3448
781.4696, 558.5157
781.9517, 567.4077
782.4338, 546.4243
782.9160, 551.6572
783.3981, 568.2007
783.8802, 561.1061
784.3623, 570.2653
784.8444, 573.2340
785.3265, 548.0706
785.8087, 571.8322
786.2908, 574.4350
786.7729, 555.3130
787.2550, 566.0767
787.7371, 572.0252
788.2192, 577.6564
788.7014, 576.9683
789.1835, 568.9053
789.6656, 565.4282
790.1477, 570.0534
790.6298, 576.4029
791.1119, 580.0410
791.5941, 581.3339
792.0762, 582.2275
792.5583, 581.7945
793.0404, 582.4293
793.5225, 587.8213
794.0046, 591.4392
794.4868, 585.7745
794.9689, 574.9387
795.4510, 569.1481
795.9331, 573.1108
796.4152, 579.7918
796.8973, 582.7034
797.3795, 582.4968
797.8616, 579.3997
798.3437, 573.8160
798.8258, 571.6934
799.3079, 576.6142
799.7900, 584.1989
800.2722, 586.1053
800.7543, 580.4958
801.2364, 577.8647
801.7185, 580.3334
802.2006, 582.9429
802.6827, 585.0497
803.1649, 585.9418
803.6470, 584.2087
804.1291, 579.7373
804.6112, 575.9672
805.0933, 575.0742
805.5754, 574.4763
806.0576, 571.3630
806.5397, 567.5003
807.0218, 566.5281
807.5039, 568.9517
807.9860, 571.7343
808.4681, 572.2585
808.9503, 570.9841
809.4324, 568.2027
809.9145, 563.5624
810.3966, 564.7786
810.8787, 576.4046
811.3608, 586.5706
811.8430, 583.3661
812.3251, 569.1808
812.8072, 561.6866
813.2893, 566.9986
813.7714, 569.9377
814.2535, 570.6807
814.7357, 567.4553
815.2178, 554.6152
815.6999, 537.4991
816.1820, 528.2366
816.6641, 532.1100
817.1462, 540.2922
817.6284, 549.0056
818.1105, 555.8073
818.5926, 554.7654
819.0747, 547.2190
819.5568, 541.6516
820.0389, 542.1080
820.5211, 544.9244
821.0032, 543.8640
821.4853, 538.5140
821.9674, 536.0227
822.4495, 535.7258
822.9316, 540.3472
823.4138, 555.9280
823.8959, 572.7890
824.3780, 576.7677
824.8601, 567.6316
825.3422, 562.1238
825.8243, 564.6436
826.3065, 568.0236
826.7886, 572.4930
827.2707, 574.4895
827.7528, 566.9990
828.2349, 552.1527
828.7170, 542.7949
829.1992, 549.2219
829.6813, 560.6004
830.1633, 561.8824
830.6454, 555.9714
831.1276, 551.7016
831.6097, 550.5333
832.0918, 552.6232
832.5739, 559.0471
833.0560, 566.4205
833.5381, 563.7106
834.0203, 544.9694
834.5024, 537.0613
834.9845, 547.9223
835.4666, 559.4194
835.9487, 562.5891
836.4308, 560.8942
836.9130, 558.9194
837.3951, 556.9235
837.8772, 554.6918
838.3593, 551.3719
838.8414, 548.6459
839.3235, 548.5054
839.8057, 549.2020
840.2878, 547.8845
840.7699, 544.0810
841.2520, 539.8207
841.7341, 535.6167
842.2162, 532.9036
842.6984, 536.2343
843.1805, 544.0148
843.6626, 547.1514
844.1447, 543.3875
844.6268, 539.1073
845.1089, 539.8833
845.5911, 544.4274
846.0732, 546.9271
846.5553, 547.1463
847.0374, 545.7699
847.5195, 540.2972
848.0016, 536.3597
848.4838, 540.1729
848.9659, 546.9833
849.4480, 546.8097
849.9301, 535.9188
850.4122, 527.3187
850.8943, 525.1374
851.3765, 525.8041
851.8586, 528.7260
852.3407, 532.1112
852.8228, 532.9017
853.3049, 530.4537
853.7870, 527.8898
854.2692, 528.7983
854.7513, 530.9885
855.2334, 530.6222
855.7155, 527.8609
856.1976, 522.5843
856.6797, 514.7095
857.1619, 508.3264
857.6440, 507.8038
858.1261, 511.4611
858.6082, 509.0418
859.0903, 496.1604
859.5724, 492.0280
860.0546, 506.4769
860.5367, 519.8532
861.0188, 515.0883
861.5009, 500.3023
861.9830, 495.7114
862.4651, 507.1110
862.9473, 515.7645
863.4294, 517.6404
863.9115, 516.3992
864.3936, 513.1515
864.8757, 508.6806
865.3578, 503.1465
865.8400, 496.7950
866.3221, 492.4671
866.8042, 493.1778
867.2863, 496.4516
867.7684, 498.9934
868.2505, 501.2077
868.7327, 506.0261
869.2148, 513.6544
869.6969, 516.8242
870.1790, 508.1436
870.6611, 491.8305
871.1432, 482.7690
871.6254, 481.7027
872.1075, 482.4449
872.5896, 485.4919
873.0717, 486.8498
873.5538, 482.8140
874.0359, 475.7357
874.5181, 472.1043
875.0002, 473.4425
875.4823, 474.8995
875.9644, 476.4029
876.4465, 478.0820
876.9286, 480.0612
877.4108, 482.2128
877.8929, 484.3827
878.3750, 486.5535
878.8571, 488.7258
879.3392, 493.7885
879.8214, 496.0297
880.3035, 487.2177
880.7856, 474.0487
881.2677, 467.0129
881.7498, 467.6351
882.2319, 472.8127
882.7141, 481.5623
883.1962, 489.8522
883.6783, 488.3996
884.1604, 479.1243
884.6425, 475.4324
885.1246, 479.1276
885.6068, 481.4731
886.0889, 477.1793
886.5710, 470.4651
887.0531, 469.8549
887.5352, 477.2993
888.0173, 479.2857
888.4995, 470.8054
888.9816, 465.4636
889.4637, 470.0853
889.9458, 477.7542
890.4279, 482.0730
890.9100, 483.1460
891.3922, 483.3929
891.8743, 483.1279
892.3564, 482.1249
892.8385, 479.9835
893.3206, 477.3423
893.8027, 474.8395
894.2849, 472.3210
894.7670, 468.5872
895.2491, 462.4942
895.7312, 458.8390
896.2133, 465.1581
896.6954, 474.4763
897.1776, 474.1131
897.6597, 466.6150
898.1418, 463.9822
898.6239, 470.3009
899.1060, 478.2233
899.5881, 479.6099
900.0703, 475.7317
900.5524, 470.7702
901.0345, 464.3510
901.5166, 466.3799
901.9987, 481.2100
902.4808, 497.2197
902.9630, 505.9715
903.4451, 507.7735
903.9272, 502.9997
904.4093, 483.1886
904.8914, 474.5623
905.3735, 489.0119
905.8557, 490.0796
906.3378, 507.6398
906.8199, 517.7775
907.3020, 520.8918
907.7841, 495.9466
908.2662, 507.2344
908.7484, 504.0019
909.2305, 500.1738
909.7126, 516.5612
910.1947, 495.6972
910.6768, 511.7642
911.1589, 513.0889
911.6411, 521.1609
912.1232, 514.6226
912.6053, 512.5968
913.0874, 525.1861
913.5695, 529.6829
914.0516, 521.4626
914.5338, 529.9636
915.0159, 508.5891
915.4980, 524.7010
915.9801, 537.0717
916.4622, 540.5184
916.9443, 536.0157
917.4265, 527.7595
917.9086, 515.3445
918.3907, 511.4957
918.8728, 521.8765
919.3549, 533.7754
919.8370, 534.1993
920.3192, 525.3867
920.8013, 522.6488
921.2834, 529.6503
921.7655, 533.8378
922.2476, 532.4546
922.7297, 530.2595
923.2119, 527.6159
923.6940, 526.6787
924.1761, 532.8158
924.6582, 549.2098
925.1403, 559.2404
925.6224, 554.1435
926.1046, 549.8765
926.5867, 555.6738
927.0688, 564.2283
927.5509, 565.6890
928.0330, 560.7564
928.5151, 559.9150
928.9973, 571.2642
929.4794, 582.4545
929.9615, 582.7783
930.4436, 578.8257
930.9257, 577.9457
931.4078, 580.8379
931.8900, 587.1871
932.3721, 596.8373
932.8542, 605.9084
933.3363, 610.8396
933.8184, 611.6624
934.3005, 605.7716
934.7827, 594.8555
935.2648, 590.5049
935.7469, 595.9170
936.2290, 602.8605
936.7111, 604.0016
937.1932, 600.8482
937.6754, 597.5788
938.1575, 593.4365
938.6396, 596.3090
939.1217, 608.8019
939.6038, 623.0501
940.0859, 636.7976
940.5681, 647.3146
941.0502, 648.3342
941.5323, 636.7690
942.0144, 631.9185
942.4965, 641.2097
942.9786, 646.6002
943.4608, 638.1337
943.9429, 629.4275
944.4250, 634.4779
944.9071, 649.6428
945.3892, 657.0715
945.8713, 645.5842
946.3535, 641.2529
946.8356, 660.3131
947.3177, 679.4070
947.7998, 681.1638
948.2819, 672.2217
948.7640, 664.7736
949.2462, 661.8068
949.7283, 660.4777
950.2104, 658.0186
950.6925, 657.5046
951.1746, 663.3007
951.6567, 672.1823
952.1389, 680.9199
952.6210, 687.6455
953.1031, 687.0390
953.5852, 674.7231
954.0673, 660.8414
954.5494, 658.1911
955.0316, 664.7178
955.5137, 678.9930
955.9958, 698.5953
956.4779, 709.6706
956.9600, 707.0855
957.4421, 698.2268
957.9243, 689.8757
958.4064, 683.1771
958.8885, 685.6397
959.3706, 698.0706
959.8527, 703.3528
960.3348, 697.1969
960.8170, 690.6208
961.2991, 691.2488
961.7812, 695.6366
962.2633, 695.3320
962.7454, 688.3839
963.2275, 685.7298
963.7097, 689.2870
964.1918, 693.4389
964.6739, 695.8069
965.1560, 698.6954
965.6381, 706.3952
966.1202, 718.0109
966.6024, 722.4951
967.0845, 712.7070
967.5666, 706.3521
968.0487, 709.3853
968.5308, 711.8190
969.0129, 705.6587
969.4951, 696.2208
969.9772, 693.3499
970.4593, 699.1541
970.9414, 702.5639
971.4235, 697.0471
971.9056, 691.6630
972.3878, 692.0546
972.8699, 694.4327
973.3520, 694.6697
973.8341, 692.6702
974.3162, 690.4658
974.7983, 689.0872
975.2805, 687.0045
975.7626, 680.8250
976.2447, 674.9811
976.7268, 676.8325
977.2089, 682.9363
977.6910, 683.8262
978.1732, 677.5912
978.6553, 672.1249
979.1374, 674.3417
979.6195, 680.2458
980.1016, 685.1644
980.5837, 688.2115
981.0659, 685.8186
981.5480, 678.2676
982.0301, 669.9830
982.5122, 663.1029
982.9943, 658.3589
983.4764, 658.2075
983.9586, 661.3580
984.4407, 658.4866
984.9228, 649.7479
985.4049, 647.7102
985.8870, 656.2520
986.3691, 665.1589
986.8513, 665.8965
987.3334, 661.1837
987.8155, 659.8615
988.2976, 663.0189
988.7797, 661.3219
989.2618, 651.9638
989.7440, 646.1559
990.2261, 650.1811
990.7082, 656.7717
991.1903, 656.4206
991.6724, 649.3566
992.1545, 645.7167
992.6367, 646.8359
993.1188, 648.7565
993.6009, 652.2367
994.0830, 654.8754
994.5651, 654.1870
995.0472, 652.0580
995.5294, 653.0978
996.0115, 659.1209
996.4936, 660.3841
996.9757, 652.9333
997.4578, 645.3416
997.9399, 636.2560
998.4221, 630.9694
998.9042, 638.0883
999.3863, 653.0922
999.8684, 658.6313
1000.351, 644.6279
1000.833, 637.7198
1001.315, 653.0858
1001.797, 669.2295
1002.279, 673.6222
1002.761, 670.7368
1003.243, 665.5614
1003.725, 659.8055
1004.207, 657.8553
1004.690, 664.0927
1005.172, 671.0128
1005.654, 674.4941
1006.136, 676.3423
1006.618, 678.7232
1007.100, 680.9066
1007.582, 680.3234
1008.064, 676.2989
1008.547, 672.6434
1009.029, 670.0447
1009.511, 671.1194
1009.993, 682.0059
1010.475, 696.8113
1010.957, 706.7780
1011.439, 710.6692
1011.921, 709.1536
1012.403, 701.9580
1012.886, 696.5375
1013.368, 703.4995
1013.850, 716.5570
1014.332, 725.2176
1014.814, 729.7774
1015.296, 730.9846
1015.778, 729.9144
1016.260, 732.3537
1016.742, 743.2178
1017.225, 757.9215
1017.707, 768.6680
1018.189, 776.3797
1018.671, 785.6770
1019.153, 796.0551
1019.635, 799.8678
1020.117, 794.2967
1020.599, 789.3793
1021.082, 796.3586
1021.564, 811.2057
1022.046, 818.8185
1022.528, 820.1380
1023.010, 832.3340
1023.492, 858.0613
1023.974, 878.0346
1024.456, 881.9593
1024.938, 878.2086
1025.421, 878.4617
1025.903, 882.6300
1026.385, 890.1077
1026.867, 901.3164
1027.349, 912.0322
1027.831, 921.6234
1028.313, 929.7224
1028.795, 935.6562
1029.278, 940.7772
1029.760, 947.9894
1030.242, 957.4402
1030.724, 968.4393
1031.206, 981.8198
1031.688, 993.6109
1032.170, 1002.177
1032.652, 1009.766
1033.135, 1017.508
1033.617, 1026.121
1034.099, 1039.538
1034.581, 1063.355
1035.063, 1074.662
1035.545, 1066.219
1036.027, 1059.485
1036.509, 1061.939
1036.991, 1069.749
1037.474, 1080.122
1037.956, 1092.558
1038.438, 1102.142
1038.920, 1110.003
1039.402, 1112.593
1039.884, 1104.479
1040.366, 1098.149
1040.848, 1097.243
1041.330, 1102.482
1041.813, 1118.094
1042.295, 1145.050
1042.777, 1161.160
1043.259, 1155.951
1043.741, 1155.327
1044.223, 1160.026
1044.705, 1171.676
1045.187, 1199.262
1045.670, 1231.149
1046.152, 1243.813
1046.634, 1231.954
1047.116, 1235.055
1047.598, 1264.193
1048.080, 1297.620
1048.562, 1333.976
1049.044, 1369.605
1049.526, 1400.944
1050.009, 1429.969
1050.491, 1459.870
1050.973, 1487.951
1051.455, 1530.781
1051.937, 1602.926
1052.419, 1675.498
1052.901, 1732.344
1053.383, 1790.675
1053.865, 1862.191
1054.348, 1948.627
1054.830, 2052.805
1055.312, 2179.816
1055.794, 2309.162
1056.276, 2437.260
1056.758, 2564.863
1057.240, 2684.729
1057.722, 2809.211
1058.205, 2956.168
1058.687, 3120.944
1059.169, 3278.637
1059.651, 3426.135
1060.133, 3557.286
1060.615, 3667.049
1061.097, 3763.257
1061.579, 3860.462
1062.062, 3940.423
1062.544, 3985.086
1063.026, 3991.048
1063.508, 3957.271
1063.990, 3878.699
1064.472, 3768.839
1064.954, 3625.518
1065.436, 3460.472
1065.918, 3278.215
1066.401, 3081.216
1066.883, 2865.911
1067.365, 2635.107
1067.847, 2411.522
1068.329, 2198.210
1068.811, 1999.672
1069.293, 1817.639
1069.775, 1652.306
1070.257, 1506.199
1070.740, 1376.146
1071.222, 1257.093
1071.704, 1148.089
1072.186, 1052.528
1072.668, 975.8239
1073.150, 906.8411
1073.632, 839.0494
1074.114, 778.2884
1074.597, 730.8317
1075.079, 694.1129
1075.561, 663.7571
1076.043, 638.7125
1076.525, 615.8574
1077.007, 593.7070
1077.489, 573.6092
1077.971, 555.7977
1078.453, 540.6140
1078.936, 530.6782
1079.418, 522.8240
1079.900, 509.5593
1080.382, 489.2193
1080.864, 473.0861
1081.346, 469.1470
1081.828, 467.1293
1082.310, 462.3019
1082.792, 456.3437
1083.275, 450.2236
1083.757, 444.5649
1084.239, 440.3454
1084.721, 437.8222
1085.203, 436.1081
1085.685, 436.5035
1086.167, 435.5466
1086.649, 431.2478
1087.131, 424.8563
1087.614, 415.0564
1088.096, 404.7415
1088.578, 400.9330
1089.060, 405.8339
1089.542, 409.4475
1090.024, 406.2420
1090.506, 402.5389
1090.988, 401.6529
1091.471, 401.7464
1091.953, 401.2086
1092.435, 400.0666
1092.917, 399.0703
1093.399, 398.5467
1093.881, 396.6983
1094.363, 389.9923
1094.845, 385.3597
1095.328, 387.5180
1095.810, 392.0880
1096.292, 396.0906
1096.774, 398.8489
1097.256, 399.5892
1097.738, 397.9336
1098.220, 395.8648
1098.702, 394.8947
1099.184, 392.5395
1099.667, 384.3181
1100.149, 377.1876
1100.631, 379.4806
1101.113, 387.4980
1101.595, 391.3334
1102.077, 388.6946
1102.559, 385.1730
1103.041, 380.2676
1103.523, 377.1651
1104.006, 378.6229
1104.488, 380.9323
1104.970, 382.0621
1105.452, 381.3359
1105.934, 376.8640
1106.416, 367.0044
1106.898, 360.7642
1107.380, 362.2137
1107.863, 364.1259
1108.345, 365.1111
1108.827, 365.0238
1109.309, 362.6028
1109.791, 359.3279
1110.273, 358.3167
1110.755, 359.6420
1111.237, 364.0220
1111.719, 378.7086
1112.202, 386.5523
1112.684, 379.3907
1113.166, 368.3153
1113.648, 358.0215
1114.130, 350.1881
1114.612, 349.4723
1115.094, 358.4130
1115.576, 362.8571
1116.058, 358.6736
1116.541, 356.4041
1117.023, 360.9623
1117.505, 364.0348
1117.987, 358.7686
1118.469, 349.3422
1118.951, 343.4559
1119.433, 340.8498
1119.915, 344.3462
1120.398, 360.0490
1120.880, 368.7380
1121.362, 363.1769
1121.844, 357.0371
1122.326, 359.0048
1122.808, 364.9295
1123.290, 367.6957
1123.772, 367.2115
1124.255, 365.2891
1124.737, 361.8716
1125.219, 356.5043
1125.701, 346.8275
1126.183, 342.0410
1126.665, 349.3284
1127.147, 360.0549
1127.629, 360.2720
1128.111, 350.7439
1128.594, 345.5671
1129.076, 344.8503
1129.558, 348.6241
1130.040, 357.8910
1130.522, 366.4269
1131.004, 371.3972
1131.486, 373.0900
1131.968, 371.6773
1132.450, 367.3998
1132.933, 359.7541
1133.415, 348.8227
1133.897, 348.4924
1134.379, 360.5082
1134.861, 368.6052
1135.343, 365.6358
1135.825, 358.4933
1136.307, 340.6559
1136.790, 357.8537
1137.272, 367.6287
1137.754, 370.3802
1138.236, 345.0721
1138.718, 355.9971
1139.200, 352.4016
1139.682, 348.2106
1140.164, 364.2353
1140.646, 343.0084
1141.129, 358.7130
1141.611, 359.6749
1142.093, 367.3840
1142.575, 360.4828
1143.057, 358.0942
1143.539, 370.3206
1144.021, 374.4546
1144.503, 365.8715
1144.985, 374.0094
1145.468, 352.2727
1145.950, 356.7513
1146.432, 372.5410
1146.914, 364.6924
1147.396, 373.0975
1147.878, 375.3124
1148.360, 349.3951
1148.842, 372.4023
1149.325, 374.2518
1149.807, 354.3759
1150.289, 375.7068
1150.771, 358.8259
1151.253, 355.5843
1151.735, 362.6071
1152.217, 358.9296
1152.699, 372.1223
1153.182, 369.0633
1153.664, 364.5516
1154.146, 351.6622
1154.628, 347.0472
1155.110, 347.3306
1155.592, 355.3962
1156.074, 364.6238
1156.556, 368.1202
1157.038, 367.4728
1157.521, 367.9392
1158.003, 370.5512
1158.485, 373.3253
1158.967, 377.0956
1159.449, 379.2386
1159.931, 378.2790
1160.413, 376.1748
1160.895, 374.5951
1161.377, 372.6312
1161.860, 366.9695
1162.342, 356.5831
1162.824, 354.4671
1163.306, 367.7196
1163.788, 376.3848
1164.270, 377.2516
1164.752, 375.2641
1165.234, 371.7808
1165.717, 367.7826
1166.199, 364.2679
1166.681, 361.3653
1167.163, 360.4672
1167.645, 362.1703
1168.127, 363.2040
1168.609, 363.2523
1169.091, 363.0735
1169.573, 362.9100
1170.056, 362.6387
1170.538, 361.8788
1171.020, 361.4117
1171.502, 364.9224
1171.984, 371.8604
1172.466, 371.1743
1172.948, 362.9574
1173.430, 358.8315
1173.912, 361.7315
1174.395, 365.2662
1174.877, 364.6481
1175.359, 364.1459
1175.841, 373.2624
1176.323, 386.7103
1176.805, 388.4647
1177.287, 382.6948
1177.769, 384.8885
1178.252, 395.0544
1178.734, 398.8831
1179.216, 389.4945
1179.698, 378.3718
1180.180, 375.6160
1180.662, 377.3918
1181.144, 382.5792
1181.626, 387.3179
1182.109, 383.4497
1182.591, 374.9057
1183.073, 373.8078
1183.555, 382.8774
1184.037, 390.0294
1184.519, 386.5770
1185.001, 382.7932
1185.483, 383.6117
1185.965, 386.4408
1186.448, 391.2827
1186.930, 395.6870
1187.412, 395.6434
1187.894, 391.3859
1188.376, 388.3878
1188.858, 388.7087
1189.340, 388.3781
1189.822, 385.0132
1190.304, 383.2571
1190.787, 387.3256
1191.269, 391.4715
1191.751, 389.3238
1192.233, 383.5898
1192.715, 383.3912
1193.197, 390.3965
1193.679, 395.4298
1194.161, 398.0266
1194.644, 399.9076
1195.126, 401.0770
1195.608, 403.4365
1196.090, 409.6891
1196.572, 413.5556
1197.054, 402.1640
1197.536, 378.9048
1198.018, 371.6328
1198.500, 379.6775
1198.983, 387.3718
1199.465, 392.5784
1199.947, 393.3297
1200.429, 388.8563
1200.911, 385.4328
1201.393, 390.0051
1201.875, 397.9026
1202.357, 401.0727
1202.839, 400.8476
1203.322, 399.7180
1203.804, 397.8986
1204.286, 394.2346
1204.768, 389.3235
1205.250, 387.6891
1205.732, 392.3811
1206.214, 398.6339
1206.696, 403.4621
1207.179, 407.3697
1207.661, 410.2298
1208.143, 412.8133
1208.625, 416.6214
1209.107, 420.9107
1209.589, 423.1056
1210.071, 422.3383
1210.553, 421.7731
1211.036, 421.6290
1211.518, 422.7767
1212.000, 425.9131
1212.482, 429.9639
1212.964, 435.9091
1213.446, 441.3742
1213.928, 442.0350
1214.410, 438.2190
1214.892, 437.8174
1215.375, 444.6364
1215.857, 443.4312
1216.339, 428.7714
1216.821, 421.0080
1217.303, 429.9378
1217.785, 438.8182
1218.267, 431.2432
1218.749, 415.9019
1219.231, 415.6853
1219.714, 429.4103
1220.196, 440.1010
1220.678, 447.6870
1221.160, 453.2890
1221.642, 456.9514
1222.124, 455.7479
1222.606, 448.0148
1223.088, 439.4466
1223.571, 436.6481
1224.053, 436.7703
1224.535, 434.9033
1225.017, 432.9347
1225.499, 435.3823
1225.981, 440.3499
1226.463, 441.8480
1226.945, 438.8727
1227.427, 436.3523
1227.910, 436.4827
1228.392, 438.2548
1228.874, 443.9977
1229.356, 447.9892
1229.838, 442.4902
1230.320, 436.1436
1230.802, 441.7680
1231.284, 455.4969
1231.766, 460.8867
1232.249, 454.1276
1232.731, 446.6603
1233.213, 434.8514
1233.695, 429.7107
1234.177, 435.5725
1234.659, 444.2692
1235.141, 453.0990
1235.623, 459.2055
1236.106, 457.4578
1236.588, 449.5796
1237.070, 447.8961
1237.552, 452.6003
1238.034, 454.6517
1238.516, 453.4189
1238.998, 451.0416
1239.480, 448.2201
1239.963, 445.6290
1240.445, 443.8261
1240.927, 442.3087
1241.409, 439.5186
1241.891, 437.0430
1242.373, 437.8824
1242.855, 441.3650
1243.337, 447.3662
1243.819, 454.3965
1244.302, 458.3705
1244.784, 457.9073
1245.266, 456.8344
1245.748, 456.9342
1246.230, 457.5689
1246.712, 459.2185
1247.194, 460.4400
1247.676, 458.5453
1248.158, 456.5575
1248.641, 461.6619
1249.123, 472.0495
1249.605, 470.4772
1250.087, 445.6935
1250.569, 435.0033
1251.051, 445.0788
1251.533, 455.3568
1252.015, 462.2222
1252.498, 464.8696
1252.980, 462.0741
1253.462, 456.2113
1253.944, 449.9681
1254.426, 444.6127
1254.908, 451.0606
1255.390, 467.3093
1255.872, 474.0670
1256.354, 470.3050
1256.837, 462.6314
1257.319, 453.9338
1257.801, 449.6754
1258.283, 455.1071
1258.765, 462.4275
1259.247, 463.5770
1259.729, 460.7809
1260.211, 454.5685
1260.693, 447.6490
1261.176, 443.2723
1261.658, 441.8938
1262.140, 443.3089
1262.622, 447.5503
1263.104, 453.2774
1263.586, 463.0135
1264.068, 469.8793
1264.550, 470.0440
1265.033, 469.1569
1265.515, 471.3180
1265.997, 472.7408
1266.479, 467.5689
1266.961, 458.4497
1267.443, 457.8940
1267.925, 467.8062
1268.407, 475.3133
1268.890, 480.3260
1269.372, 483.3019
1269.854, 484.3628
1270.336, 481.6581
1270.818, 473.8088
1271.300, 466.9297
1271.782, 470.5904
1272.264, 477.8481
1272.746, 472.8878
1273.229, 462.5605
1273.711, 460.4387
1274.193, 464.7405
1274.675, 468.9166
1275.157, 471.2245
1275.639, 471.9321
1276.121, 470.5186
1276.603, 469.8164
1277.085, 471.0721
1277.568, 473.5222
1278.050, 477.0757
1278.532, 481.3734
1279.014, 486.8921
1279.496, 492.6660
1279.978, 498.5065
1280.460, 504.2955
1280.942, 497.7104
1281.425, 471.9067
1281.907, 459.8795
1282.389, 465.9505
1282.871, 474.4881
1283.353, 480.9934
1283.835, 484.3904
1284.317, 483.3855
1284.799, 481.0590
1285.281, 483.8040
1285.764, 488.6047
##END=



