##NAMES=Ramdohrite
##RRUFFID=R110001
##IDEAL CHEMISTRY=Pb_5.9_Fe_0.1_Mn_0.1_In_0.1_Cd_0.2_Ag_2.8_Sb_10.8_S_24_
##LOCALITY=Chocaya, Potosi, Bolivia
##OWNER=RRUFF
##SOURCE=Mark N. Feinglos
##DESCRIPTION=Massive, silver metallic associated with quartz and wurtzite
##STATUS=The identification of this mineral has been confirmed by single-crystal X-ray diffraction.
##URL=rruff.info/R110001
107.4795, 98.02142
107.9617, 98.76904
108.4438, 100.5381
108.9259, 101.4090
109.4080, 100.3702
109.8901, 98.57767
110.3722, 97.74403
110.8544, 98.24977
111.3365, 98.87002
111.8186, 98.73535
112.3007, 98.11121
112.7828, 97.49775
113.2649, 97.21928
113.7471, 97.24580
114.2292, 97.19576
114.7113, 96.92275
115.1934, 96.70976
115.6755, 96.69677
116.1576, 96.85645
116.6397, 97.06374
117.1219, 97.16774
117.6040, 97.07743
118.0861, 97.17403
118.5682, 97.81286
119.0503, 98.35146
119.5324, 98.24372
120.0146, 97.44344
120.4967, 96.46085
120.9788, 96.15893
121.4609, 97.23399
121.9430, 98.00982
122.4251, 98.30787
122.9073, 98.36630
123.3894, 98.45554
123.8715, 98.68502
124.3536, 98.98377
124.8357, 99.17493
125.3178, 99.29155
125.8000, 99.29259
126.2821, 99.07005
126.7642, 98.68863
127.2463, 98.41467
127.7284, 98.46648
128.2105, 98.62617
128.6927, 98.45342
129.1748, 97.70035
129.6569, 97.00359
130.1390, 97.06490
130.6211, 98.00326
131.1032, 98.98931
131.5854, 99.97902
132.0675, 100.7140
132.5496, 100.7996
133.0317, 99.92543
133.5138, 98.54659
133.9959, 97.77280
134.4781, 98.00370
134.9602, 98.23689
135.4423, 98.22134
135.9244, 98.02843
136.4065, 97.75190
136.8886, 97.44337
137.3708, 97.10197
137.8529, 96.74633
138.3350, 96.34054
138.8171, 95.95307
139.2992, 95.59837
139.7813, 95.27412
140.2635, 94.98183
140.7456, 94.73828
141.2277, 94.56297
141.7098, 94.21220
142.1919, 93.54613
142.6740, 92.86069
143.1561, 92.15997
143.6383, 91.50870
144.1204, 91.23199
144.6025, 91.86073
145.0846, 93.62267
145.5667, 94.43169
146.0488, 93.37032
146.5310, 91.69652
147.0131, 90.88862
147.4952, 91.33114
147.9773, 91.96904
148.4594, 91.28727
148.9415, 89.54056
149.4237, 88.19125
149.9058, 88.14233
150.3879, 88.92494
150.8700, 89.20212
151.3521, 88.52975
151.8342, 87.59675
152.3164, 86.85188
152.7985, 86.31556
153.2806, 86.13151
153.7627, 86.75851
154.2448, 88.23013
154.7269, 88.87160
155.2091, 87.48127
155.6912, 85.89719
156.1733, 84.99364
156.6554, 84.85342
157.1375, 85.10313
157.6196, 85.43439
158.1018, 86.09465
158.5839, 86.05840
159.0660, 84.42762
159.5481, 82.74546
160.0302, 82.07351
160.5123, 82.63521
160.9945, 83.81365
161.4766, 84.51868
161.9587, 84.32189
162.4408, 84.26315
162.9229, 84.33027
163.4050, 84.53507
163.8871, 85.05301
164.3693, 85.93820
164.8514, 86.82837
165.3335, 86.79189
165.8156, 84.68812
166.2977, 83.25587
166.7798, 83.27489
167.2620, 84.04869
167.7441, 84.46311
168.2262, 83.96598
168.7083, 82.98701
169.1904, 82.80659
169.6725, 83.88465
170.1547, 84.75334
170.6368, 84.70936
171.1189, 83.95405
171.6010, 83.12004
172.0831, 82.31680
172.5652, 81.77793
173.0474, 81.87858
173.5295, 82.91186
174.0116, 84.02052
174.4937, 84.48824
174.9758, 84.31821
175.4579, 84.18563
175.9401, 84.55598
176.4222, 85.02098
176.9043, 85.07984
177.3864, 84.52451
177.8685, 83.82891
178.3506, 83.70009
178.8328, 84.37345
179.3149, 84.76083
179.7970, 84.12378
180.2791, 83.21149
180.7612, 82.67219
181.2433, 82.75706
181.7255, 83.24534
182.2076, 83.64236
182.6897, 83.74911
183.1718, 84.15723
183.6539, 85.18138
184.1360, 86.43296
184.6181, 87.56905
185.1003, 88.43728
185.5824, 89.00912
186.0645, 89.14655
186.5466, 88.05590
187.0287, 87.51245
187.5108, 87.93172
187.9930, 88.96483
188.4751, 90.25021
188.9572, 91.60196
189.4393, 92.95594
189.9214, 93.91962
190.4035, 94.02097
190.8857, 94.25546
191.3678, 94.94286
191.8499, 95.87640
192.3320, 96.66172
192.8141, 97.03569
193.2962, 97.08056
193.7784, 97.45351
194.2605, 98.37971
194.7426, 99.30652
195.2247, 99.99775
195.7068, 100.5288
196.1889, 101.1709
196.6711, 102.1640
197.1532, 103.3631
197.6353, 104.0820
198.1174, 103.6162
198.5995, 103.3600
199.0816, 104.3330
199.5638, 106.3602
200.0459, 108.2056
200.5280, 108.9441
201.0101, 109.0483
201.4922, 109.9220
201.9743, 112.2240
202.4565, 114.6981
202.9386, 116.1424
203.4207, 116.5295
203.9028, 117.0357
204.3849, 118.6994
204.8670, 120.7221
205.3492, 121.8789
205.8313, 121.5993
206.3134, 120.8336
206.7955, 120.7701
207.2776, 121.5447
207.7597, 122.3930
208.2419, 122.7824
208.7240, 123.1371
209.2061, 123.9562
209.6882, 125.5245
210.1703, 127.3650
210.6524, 128.6102
211.1346, 129.0108
211.6167, 129.4275
212.0988, 130.1269
212.5809, 130.9701
213.0630, 131.9067
213.5451, 132.9503
214.0273, 133.9198
214.5094, 134.2976
214.9915, 133.4634
215.4736, 133.1842
215.9557, 134.1726
216.4378, 135.6226
216.9200, 136.7428
217.4021, 137.1725
217.8842, 137.1397
218.3663, 137.2850
218.8484, 137.9080
219.3305, 138.2641
219.8127, 137.9479
220.2948, 137.4724
220.7769, 137.4460
221.2590, 138.1466
221.7411, 139.2792
222.2232, 139.9825
222.7054, 140.3599
223.1875, 140.0750
223.6696, 138.4356
224.1517, 136.3640
224.6338, 135.0150
225.1159, 134.9029
225.5980, 135.5414
226.0802, 135.5195
226.5623, 133.7264
227.0444, 132.5893
227.5265, 132.9798
228.0086, 133.9268
228.4907, 134.0432
228.9729, 132.7060
229.4550, 130.6058
229.9371, 129.5881
230.4192, 130.5454
230.9013, 131.1177
231.3834, 130.6238
231.8656, 129.6013
232.3477, 128.8402
232.8298, 128.6507
233.3119, 128.8166
233.7940, 128.9088
234.2761, 128.9592
234.7583, 128.8920
235.2404, 128.6400
235.7225, 128.2645
236.2046, 127.9151
236.6867, 127.6860
237.1688, 127.3744
237.6510, 126.3924
238.1331, 124.5220
238.6152, 123.2687
239.0973, 123.4046
239.5794, 124.4988
240.0615, 125.7812
240.5437, 127.2675
241.0258, 128.4217
241.5079, 128.2821
241.9900, 126.8680
242.4721, 125.6964
242.9542, 125.4549
243.4364, 125.9336
243.9185, 126.6521
244.4006, 127.6237
244.8827, 128.6275
245.3648, 129.4207
245.8469, 130.0305
246.3290, 130.6333
246.8112, 131.5668
247.2933, 132.5822
247.7754, 132.7178
248.2575, 131.1464
248.7396, 129.9068
249.2217, 130.9394
249.7039, 133.6613
250.1860, 136.1229
250.6681, 136.9155
251.1502, 136.5454
251.6323, 137.0176
252.1144, 138.9648
252.5966, 140.8546
253.0787, 141.6564
253.5608, 141.7228
254.0429, 141.8516
254.5250, 142.5430
255.0071, 143.6475
255.4893, 144.5595
255.9714, 145.0580
256.4535, 145.7276
256.9356, 147.0820
257.4177, 148.7197
257.8998, 149.9719
258.3820, 150.3750
258.8641, 150.1687
259.3462, 150.1913
259.8283, 150.5293
260.3104, 150.9757
260.7925, 151.6757
261.2747, 152.3697
261.7568, 152.6404
262.2389, 152.1870
262.7210, 151.3587
263.2031, 151.2630
263.6852, 152.6199
264.1674, 153.4662
264.6495, 152.9451
265.1316, 151.9233
265.6137, 151.3383
266.0958, 151.6052
266.5779, 152.3992
267.0601, 152.9010
267.5422, 152.6385
268.0243, 152.9751
268.5064, 154.7303
268.9885, 156.7448
269.4706, 157.9261
269.9528, 157.9024
270.4349, 157.1990
270.9170, 156.8180
271.3991, 157.0211
271.8812, 157.0380
272.3633, 156.8227
272.8455, 156.4335
273.3276, 155.7839
273.8097, 154.9054
274.2918, 154.0879
274.7739, 153.8278
275.2560, 154.5407
275.7382, 154.9306
276.2202, 154.8792
276.7024, 154.6670
277.1845, 154.6018
277.6666, 154.6501
278.1487, 154.3931
278.6308, 153.1802
279.1129, 150.4111
279.5951, 148.8193
280.0772, 149.6129
280.5593, 150.3259
281.0414, 149.5046
281.5235, 147.2576
282.0056, 144.6915
282.4878, 142.8926
282.9699, 142.0100
283.4520, 140.7408
283.9341, 138.8219
284.4162, 136.8301
284.8983, 135.1689
285.3805, 133.6582
285.8626, 131.7122
286.3447, 128.7687
286.8268, 124.8710
287.3089, 122.0324
287.7910, 121.2267
288.2732, 120.3473
288.7553, 118.7600
289.2374, 116.6712
289.7195, 114.5587
290.2016, 112.7092
290.6837, 111.0734
291.1659, 109.3261
291.6480, 107.7089
292.1301, 105.7109
292.6122, 102.9450
293.0943, 99.82020
293.5764, 96.79067
294.0586, 94.03487
294.5407, 91.69288
295.0228, 90.13948
295.5049, 90.59402
295.9870, 90.36221
296.4691, 88.86134
296.9513, 86.83946
297.4334, 85.05656
297.9155, 83.76994
298.3976, 82.77510
298.8797, 81.72935
299.3618, 80.46263
299.8440, 79.50113
300.3261, 79.04079
300.8082, 78.76155
301.2903, 78.38951
301.7724, 77.88161
302.2545, 77.39219
302.7367, 77.12204
303.2188, 77.17815
303.7009, 77.02604
304.1830, 76.63939
304.6651, 76.08949
305.1472, 75.25808
305.6294, 74.23933
306.1115, 73.40690
306.5936, 73.10664
307.0757, 73.37317
307.5578, 73.56334
308.0399, 73.70152
308.5221, 73.75715
309.0042, 73.67715
309.4863, 73.49924
309.9684, 73.29262
310.4505, 73.08083
310.9326, 72.89384
311.4148, 72.96367
311.8969, 73.39512
312.3790, 73.91692
312.8611, 74.68121
313.3432, 75.45585
313.8253, 75.80916
314.3075, 75.51656
314.7896, 74.86685
315.2717, 74.59725
315.7538, 74.82237
316.2359, 75.27104
316.7180, 76.22075
317.2001, 77.25527
317.6823, 77.81425
318.1644, 77.75412
318.6465, 77.53647
319.1286, 77.87084
319.6107, 79.09464
320.0928, 80.09153
320.5750, 80.72375
321.0571, 81.23489
321.5392, 81.87685
322.0213, 82.64146
322.5034, 83.25574
322.9855, 83.40530
323.4677, 82.99368
323.9498, 82.81801
324.4319, 82.97959
324.9140, 83.24094
325.3961, 83.45063
325.8782, 83.64929
326.3604, 84.01990
326.8425, 84.73025
327.3246, 85.72536
327.8067, 86.38029
328.2888, 86.45445
328.7709, 86.51719
329.2531, 86.82845
329.7352, 87.20249
330.2173, 87.30464
330.6994, 86.96802
331.1815, 86.33984
331.6636, 85.81189
332.1458, 85.42280
332.6279, 85.09797
333.1100, 84.81845
333.5921, 84.61220
334.0742, 84.72569
334.5563, 85.16255
335.0385, 85.32118
335.5206, 84.24784
336.0027, 81.18165
336.4848, 78.79613
336.9669, 77.38200
337.4490, 76.31552
337.9312, 75.25838
338.4133, 74.15145
338.8954, 73.06668
339.3775, 72.07618
339.8596, 71.18802
340.3417, 70.26375
340.8239, 69.79444
341.3060, 68.80264
341.7881, 66.47255
342.2702, 63.36550
342.7523, 60.66694
343.2344, 59.14975
343.7166, 58.53698
344.1987, 57.49707
344.6808, 55.56707
345.1629, 53.70194
345.6450, 52.16399
346.1271, 50.67124
346.6093, 48.86695
347.0914, 46.64115
347.5735, 44.18464
348.0556, 41.88008
348.5377, 39.65758
349.0198, 37.73185
349.5020, 36.12938
349.9841, 34.75215
350.4662, 33.59850
350.9483, 32.63993
351.4304, 31.79700
351.9125, 31.01604
352.3947, 30.32916
352.8768, 29.49618
353.3589, 28.07194
353.8410, 26.94445
354.3231, 26.76197
354.8052, 27.12096
355.2874, 27.12078
355.7695, 26.08537
356.2516, 24.25882
356.7337, 23.02518
357.2158, 22.82277
357.6979, 22.66250
358.1800, 22.36341
358.6621, 22.00900
359.1443, 21.73496
359.6264, 21.59079
360.1085, 21.44180
360.5906, 20.98045
361.0727, 19.96742
361.5548, 19.27614
362.0370, 19.11288
362.5191, 19.18330
363.0012, 19.44786
363.4833, 19.83183
363.9654, 20.09376
364.4475, 19.99001
364.9297, 19.50851
365.4118, 18.83643
365.8939, 17.52704
366.3760, 16.53582
366.8581, 16.44900
367.3402, 16.94651
367.8224, 17.37335
368.3045, 17.35966
368.7866, 17.00227
369.2687, 16.52794
369.7508, 15.79636
370.2329, 15.27173
370.7151, 15.17572
371.1972, 15.31178
371.6793, 15.48121
372.1614, 15.61621
372.6435, 15.86134
373.1256, 16.57599
373.6078, 17.82909
374.0899, 18.52149
374.5720, 17.94024
375.0541, 17.13606
375.5362, 16.90998
376.0183, 17.23850
376.5005, 17.61605
376.9826, 17.81411
377.4647, 17.80961
377.9468, 17.44785
378.4289, 16.53959
378.9110, 15.67286
379.3932, 15.17537
379.8753, 14.99695
380.3574, 15.12929
380.8395, 15.87704
381.3216, 16.65134
381.8037, 16.62502
382.2859, 15.78227
382.7680, 14.91724
383.2501, 14.24091
383.7322, 13.85049
384.2143, 13.89579
384.6964, 14.51515
385.1786, 15.08932
385.6607, 15.18555
386.1428, 14.96188
386.6249, 14.83932
387.1070, 14.92539
387.5891, 15.10506
388.0713, 15.40444
388.5534, 15.80399
389.0355, 15.70018
389.5176, 14.19837
389.9997, 12.61807
390.4818, 12.49209
390.9640, 13.82204
391.4461, 15.27800
391.9282, 16.04106
392.4103, 16.15487
392.8924, 16.04363
393.3745, 15.65085
393.8567, 15.11789
394.3388, 14.32248
394.8209, 13.44474
395.3030, 12.83412
395.7851, 12.61504
396.2672, 12.72151
396.7494, 13.08145
397.2315, 13.90804
397.7136, 14.46530
398.1957, 14.53829
398.6778, 14.45764
399.1599, 14.53424
399.6420, 14.77277
400.1241, 14.92545
400.6063, 14.74693
401.0884, 14.22144
401.5705, 13.88611
402.0526, 13.87822
402.5347, 13.87890
403.0168, 13.76432
403.4990, 13.59941
403.9811, 13.50641
404.4632, 13.54515
404.9453, 13.66101
405.4274, 13.73398
405.9095, 13.85401
406.3917, 13.75898
406.8738, 13.06826
407.3559, 12.45193
407.8380, 12.52514
408.3201, 13.26544
408.8022, 14.06762
409.2844, 14.29358
409.7665, 13.89338
410.2486, 13.69597
410.7307, 13.85863
411.2128, 14.06828
411.6949, 14.38888
412.1771, 14.66322
412.6592, 14.58214
413.1413, 13.92325
413.6234, 13.06600
414.1055, 12.93408
414.5876, 13.86760
415.0698, 14.48613
415.5519, 13.99934
416.0340, 13.39456
416.5161, 13.51797
416.9982, 14.41211
417.4803, 15.14785
417.9625, 14.66295
418.4446, 13.19640
418.9267, 12.46200
419.4088, 12.92121
419.8909, 13.50342
420.3730, 13.52601
420.8552, 13.16641
421.3373, 12.75503
421.8194, 12.38101
422.3015, 12.02566
422.7836, 11.53250
423.2657, 10.91016
423.7479, 10.76948
424.2300, 11.60443
424.7121, 12.83879
425.1942, 13.56460
425.6763, 13.71644
426.1584, 13.72432
426.6406, 13.82403
427.1227, 13.88433
427.6048, 13.54418
428.0869, 12.70086
428.5690, 12.02924
429.0511, 12.34569
429.5333, 13.62204
430.0154, 14.00465
430.4975, 12.58269
430.9796, 11.11704
431.4617, 10.66265
431.9438, 10.96215
432.4260, 11.28959
432.9081, 11.30864
433.3902, 11.13851
433.8723, 11.05702
434.3544, 11.11352
434.8365, 11.18282
435.3187, 11.20566
435.8008, 11.27641
436.2829, 11.51375
436.7650, 11.90422
437.2471, 12.32200
437.7292, 12.67951
438.2114, 12.98490
438.6935, 12.94507
439.1756, 11.73281
439.6577, 11.09902
440.1398, 12.02997
440.6219, 13.59064
441.1040, 14.43229
441.5862, 13.98811
442.0683, 12.95467
442.5504, 12.66548
443.0325, 13.47871
443.5146, 13.93209
443.9967, 13.35426
444.4789, 12.84586
444.9610, 13.35718
445.4431, 14.56519
445.9252, 15.15905
446.4073, 13.79896
446.8894, 11.13391
447.3716, 9.753911
447.8537, 10.08751
448.3358, 10.64494
448.8179, 10.87655
449.3000, 10.94108
449.7821, 10.94727
450.2643, 10.87642
450.7464, 10.94440
451.2285, 11.54675
451.7106, 12.52179
452.1927, 12.95500
452.6748, 12.46367
453.1570, 11.80761
453.6391, 11.87909
454.1212, 12.50547
454.6033, 12.89586
455.0854, 12.76213
455.5675, 12.39393
456.0497, 11.88833
456.5318, 11.31973
457.0139, 11.04813
457.4960, 11.26855
457.9781, 11.89261
458.4602, 12.77765
458.9424, 14.33310
459.4245, 15.27761
459.9066, 15.14641
460.3887, 14.42771
460.8708, 13.34416
461.3529, 12.05805
461.8351, 11.18156
462.3172, 11.41828
462.7993, 12.83116
463.2814, 13.31564
463.7635, 11.75512
464.2456, 10.61395
464.7278, 10.92748
465.2099, 11.88874
465.6920, 12.22722
466.1741, 11.47335
466.6562, 10.41625
467.1383, 10.51867
467.6205, 12.36756
468.1026, 13.54889
468.5847, 13.49288
469.0668, 13.18895
469.5489, 13.08297
470.0310, 13.09704
470.5132, 12.89773
470.9953, 12.18510
471.4774, 11.21377
471.9595, 10.59269
472.4416, 10.30738
472.9237, 10.43678
473.4059, 11.57519
473.8880, 12.80307
474.3701, 13.16673
474.8522, 12.53267
475.3343, 11.85935
475.8164, 11.84222
476.2986, 12.23828
476.7807, 12.50527
477.2628, 12.61198
477.7449, 12.41536
478.2270, 11.59364
478.7091, 10.35180
479.1913, 9.564157
479.6734, 9.452868
480.1555, 9.605390
480.6376, 9.951306
481.1197, 10.39397
481.6018, 10.72930
482.0839, 10.88936
482.5660, 10.94989
483.0482, 11.03275
483.5303, 11.19996
484.0124, 11.11858
484.4945, 10.27083
484.9766, 9.673896
485.4587, 10.11869
485.9409, 11.26037
486.4230, 12.23937
486.9051, 12.58055
487.3872, 12.41741
487.8693, 12.08749
488.3514, 11.29010
488.8336, 10.90505
489.3157, 11.51509
489.7978, 12.08429
490.2799, 11.65965
490.7620, 10.41138
491.2441, 9.435046
491.7263, 9.801347
492.2084, 11.15722
492.6905, 11.70827
493.1726, 11.07851
493.6547, 10.54685
494.1368, 10.70761
494.6190, 11.19919
495.1011, 11.80884
495.5832, 12.56163
496.0653, 12.93781
496.5474, 12.17715
497.0295, 10.71167
497.5117, 9.951976
497.9938, 10.23610
498.4759, 10.65932
498.9580, 10.32826
499.4401, 9.461910
499.9222, 9.230210
500.4044, 10.40626
500.8865, 11.50587
501.3686, 11.58104
501.8507, 11.05230
502.3328, 10.85934
502.8149, 11.33437
503.2971, 11.94836
503.7792, 11.87992
504.2613, 10.72434
504.7434, 10.39027
505.2255, 11.81844
505.7076, 13.04883
506.1898, 12.79819
506.6719, 11.66853
507.1540, 11.04757
507.6361, 11.68638
508.1182, 12.98268
508.6003, 13.50897
509.0825, 12.95499
509.5646, 12.46292
510.0467, 12.18741
510.5288, 11.96284
511.0109, 11.59745
511.4930, 11.17999
511.9752, 11.06456
512.4573, 11.75812
512.9394, 12.71956
513.4215, 12.49557
513.9036, 10.84888
514.3857, 9.507368
514.8679, 9.140715
515.3500, 9.428948
515.8321, 10.04669
516.3142, 11.05369
516.7963, 11.77538
517.2784, 11.74681
517.7606, 11.34613
518.2427, 11.10344
518.7248, 11.06018
519.2069, 10.96594
519.6890, 10.61034
520.1711, 10.08381
520.6533, 9.858420
521.1354, 10.13410
521.6175, 10.39074
522.0996, 10.60245
522.5817, 10.72194
523.0638, 10.59467
523.5460, 10.25893
524.0281, 10.04717
524.5102, 10.33178
524.9923, 11.08899
525.4744, 11.48091
525.9565, 11.19501
526.4387, 10.93129
526.9208, 10.89634
527.4029, 10.91898
527.8850, 10.72533
528.3671, 10.26961
528.8492, 9.952682
529.3314, 10.52030
529.8135, 11.80075
530.2956, 11.91742
530.7777, 10.17319
531.2598, 8.496208
531.7419, 8.344431
532.2241, 9.000159
532.7062, 9.287969
533.1883, 8.717836
533.6704, 8.321172
534.1525, 9.227448
534.6346, 10.79307
535.1168, 11.28655
535.5989, 10.22768
536.0810, 9.057169
536.5631, 9.337582
537.0452, 11.15718
537.5273, 12.23149
538.0095, 12.30311
538.4916, 11.99564
538.9737, 11.16669
539.4558, 10.22745
539.9379, 9.854415
540.4200, 10.23459
540.9022, 10.82252
541.3843, 10.78257
541.8664, 9.902497
542.3485, 9.602875
542.8306, 10.52427
543.3127, 11.35244
543.7948, 11.89474
544.2769, 12.01464
544.7590, 11.37105
545.2411, 9.740333
545.7233, 8.026631
546.2054, 7.468718
546.6875, 7.986419
547.1696, 8.411852
547.6517, 8.512794
548.1339, 8.597360
548.6160, 9.022803
549.0981, 9.650377
549.5802, 10.08107
550.0623, 10.16716
550.5444, 10.11356
551.0266, 9.939017
551.5087, 9.733265
551.9908, 9.751800
552.4729, 10.08099
552.9550, 10.46804
553.4371, 10.60581
553.9193, 10.46618
554.4014, 10.22649
554.8835, 9.851675
555.3656, 9.431948
555.8477, 8.764123
556.3298, 8.146761
556.8120, 8.114036
557.2941, 8.836684
557.7762, 9.796011
558.2583, 10.23020
558.7404, 10.06286
559.2225, 9.990579
559.7047, 10.04592
560.1868, 10.18506
560.6689, 10.65613
561.1510, 11.12496
561.6331, 10.88812
562.1152, 9.437403
562.5974, 8.081151
563.0795, 8.282285
563.5616, 9.621348
564.0437, 10.55456
564.5258, 10.73904
565.0079, 10.69353
565.4901, 11.00210
565.9722, 11.58945
566.4543, 11.41029
566.9364, 9.443364
567.4185, 7.882110
567.9006, 7.846753
568.3828, 8.616135
568.8649, 9.247919
569.3470, 9.461127
569.8291, 9.368079
570.3112, 9.029028
570.7933, 8.408829
571.2755, 8.162772
571.7576, 8.559141
572.2397, 9.011334
572.7218, 9.546513
573.2039, 9.979496
573.6860, 10.07935
574.1682, 9.794407
574.6503, 9.345148
575.1324, 8.838948
575.6145, 8.325702
576.0966, 8.069703
576.5787, 8.149077
577.0609, 8.240931
577.5430, 8.135461
578.0251, 7.910447
578.5072, 7.745039
578.9893, 7.607585
579.4714, 7.609211
579.9536, 7.786886
580.4357, 8.129551
580.9178, 8.784640
581.3999, 9.680555
581.8820, 10.33623
582.3641, 10.37457
582.8463, 9.867496
583.3284, 9.237629
583.8105, 8.501036
584.2926, 7.598793
584.7747, 5.880205
585.2568, 4.483889
585.7390, 4.511299
586.2211, 5.805030
586.7032, 7.248688
587.1853, 8.155432
587.6674, 8.565750
588.1495, 8.367192
588.6317, 7.377815
589.1138, 6.940763
589.5959, 7.755959
590.0780, 9.073671
590.5601, 10.15350
591.0422, 11.00023
591.5244, 11.30085
592.0065, 10.42559
592.4886, 9.379409
592.9707, 9.291254
593.4528, 9.867732
593.9349, 9.906165
594.4171, 8.828581
594.8992, 7.337932
595.3813, 6.680989
595.8634, 7.186943
596.3455, 7.573606
596.8276, 7.746852
597.3098, 7.916955
597.7919, 8.078613
598.2740, 8.322826
598.7561, 8.933915
599.2382, 10.05852
599.7203, 11.01381
600.2025, 10.63753
600.6846, 8.977024
601.1667, 7.860243
601.6488, 7.544135
602.1309, 7.640954
602.6130, 8.179324
603.0952, 8.908488
603.5773, 9.298903
604.0594, 9.223165
604.5415, 8.920358
605.0236, 8.251439
605.5057, 7.533063
605.9879, 7.334476
606.4700, 7.710296
606.9521, 8.196186
607.4342, 8.409409
607.9163, 8.391732
608.3984, 8.472098
608.8806, 9.049119
609.3627, 9.151925
609.8448, 8.049974
610.3269, 6.943879
610.8090, 7.009375
611.2911, 8.086965
611.7733, 8.960061
612.2554, 8.700027
612.7375, 7.744559
613.2196, 7.014745
613.7017, 6.494118
614.1838, 6.378253
614.6660, 6.888392
615.1481, 7.634262
615.6302, 8.340030
616.1123, 8.996752
616.5944, 9.052811
617.0765, 7.616178
617.5587, 6.282174
618.0408, 6.319247
618.5229, 7.261218
619.0050, 8.050111
619.4871, 8.313460
619.9692, 8.323085
620.4514, 8.418832
620.9335, 8.594386
621.4156, 8.913331
621.8977, 9.670727
622.3798, 10.21690
622.8619, 10.55612
623.3441, 10.51612
623.8262, 9.673444
624.3083, 7.966623
624.7904, 6.403644
625.2725, 5.954379
625.7546, 6.296774
626.2367, 6.598054
626.7188, 6.821233
627.2009, 6.967072
627.6830, 7.023560
628.1652, 7.013831
628.6473, 6.995104
629.1294, 6.993700
629.6115, 6.908284
630.0936, 6.537466
630.5757, 6.236567
631.0579, 6.398783
631.5400, 6.849047
632.0221, 7.034908
632.5042, 6.663598
632.9863, 6.143463
633.4684, 6.370863
633.9506, 7.618965
634.4327, 8.231515
634.9148, 7.613081
635.3969, 6.990424
635.8790, 7.149065
636.3611, 7.667442
636.8433, 7.789962
637.3254, 7.248309
637.8075, 6.548261
638.2896, 5.792917
638.7717, 5.208986
639.2538, 5.476979
639.7360, 6.646632
640.2181, 7.569425
640.7002, 7.368718
641.1823, 6.344186
641.6644, 5.711049
642.1465, 5.439714
642.6287, 5.652804
643.1108, 7.181826
643.5929, 8.482206
644.0750, 8.210500
644.5571, 6.792008
645.0392, 5.646420
645.5214, 5.604805
646.0035, 6.090397
646.4856, 6.147714
646.9677, 5.778476
647.4498, 5.357144
647.9319, 4.807089
648.4141, 4.513506
648.8962, 4.968538
649.3783, 5.971904
649.8604, 6.750689
650.3425, 7.122337
650.8246, 7.429153
651.3068, 8.034644
651.7889, 8.526875
652.2710, 8.180389
652.7531, 7.051432
653.2352, 6.051716
653.7173, 5.939918
654.1995, 6.449412
654.6816, 6.388971
655.1637, 5.339937
655.6458, 4.725157
656.1279, 5.076714
656.6100, 5.678279
657.0922, 6.445819
657.5743, 7.158573
658.0564, 7.111137
658.5385, 5.375549
659.0206, 3.700449
659.5027, 4.102631
659.9849, 5.902460
660.4670, 7.225081
660.9491, 7.639535
661.4312, 7.512023
661.9133, 7.095166
662.3954, 6.418701
662.8776, 5.918874
663.3597, 5.690104
663.8418, 5.519663
664.3239, 5.238185
664.8060, 5.118641
665.2881, 5.551191
665.7703, 6.399467
666.2524, 7.039291
666.7345, 6.962960
667.2166, 6.629325
667.6987, 7.067611
668.1808, 8.244230
668.6630, 8.867941
669.1451, 8.556528
669.6272, 7.789093
670.1093, 6.798825
670.5914, 5.661183
671.0735, 5.168283
671.5557, 5.907115
672.0378, 6.587263
672.5199, 6.680305
673.0020, 6.568323
673.4841, 6.837190
673.9662, 7.432528
674.4484, 7.651435
674.9305, 6.888403
675.4126, 5.439570
675.8947, 4.149671
676.3768, 2.871948
676.8589, 2.448315
677.3411, 3.551150
677.8232, 5.010391
678.3053, 6.071068
678.7874, 6.725428
679.2695, 6.893182
679.7516, 6.151938
680.2338, 5.431451
680.7159, 5.390902
681.1980, 5.682126
681.6801, 5.673914
682.1622, 5.306334
682.6443, 5.116633
683.1265, 5.599052
683.6086, 6.555789
684.0907, 7.009953
684.5728, 6.745649
685.0549, 6.449089
685.5370, 6.105052
686.0192, 5.847536
686.5013, 5.883399
686.9834, 6.076136
687.4655, 5.998780
687.9476, 5.285363
688.4297, 4.630624
688.9119, 4.804079
689.3940, 5.480653
689.8761, 5.890535
690.3582, 5.903143
690.8403, 5.868845
691.3224, 6.089359
691.8046, 5.947978
692.2867, 5.778575
692.7688, 5.809159
693.2509, 5.366984
693.7330, 5.296093
694.2151, 5.372171
694.6973, 5.469769
695.1794, 5.603601
695.6615, 5.903152
696.1436, 6.521871
696.6257, 6.981986
697.1078, 6.479362
697.5900, 5.362898
698.0721, 4.991181
698.5542, 5.609595
699.0363, 6.134514
699.5184, 5.762052
700.0005, 4.790853
700.4827, 4.263999
700.9648, 4.223017
701.4469, 4.594552
701.9290, 6.091827
702.4111, 7.330302
702.8932, 7.193240
703.3754, 6.210596
703.8575, 5.553299
704.3396, 5.714875
704.8217, 6.204999
705.3038, 6.445978
705.7859, 6.504105
706.2681, 6.790080
706.7502, 7.404106
707.2323, 7.739499
707.7144, 7.389631
708.1965, 6.602387
708.6786, 5.880338
709.1607, 5.057126
709.6428, 4.773974
710.1249, 5.475869
710.6071, 6.326324
711.0892, 7.158912
711.5713, 7.713788
712.0534, 7.421294
712.5355, 6.141385
713.0176, 4.856773
713.4998, 4.877553
713.9819, 5.906600
714.4640, 6.260364
714.9461, 5.811567
715.4282, 5.380696
715.9103, 5.324947
716.3925, 5.449799
716.8746, 5.375731
717.3567, 5.021785
717.8388, 5.161544
718.3209, 6.650088
718.8030, 7.781769
719.2852, 7.478185
719.7673, 6.452147
720.2494, 5.635821
720.7315, 5.275505
721.2136, 5.132483
721.6957, 4.928972
722.1779, 4.797476
722.6600, 5.456157
723.1421, 7.087013
723.6242, 7.869833
724.1063, 6.934343
724.5884, 5.525005
725.0706, 5.037035
725.5527, 5.378778
726.0348, 5.348807
726.5169, 4.338862
726.9990, 3.618527
727.4811, 3.779935
727.9633, 4.337214
728.4454, 4.956598
728.9275, 5.469367
729.4096, 5.560048
729.8917, 4.926692
730.3738, 3.968143
730.8560, 3.533863
731.3381, 3.636743
731.8202, 3.874082
732.3023, 4.227610
732.7844, 4.601637
733.2665, 4.972754
733.7487, 5.302505
734.2308, 5.451451
734.7129, 5.236823
735.1950, 5.186353
735.6771, 5.459444
736.1592, 5.891226
736.6414, 6.579583
737.1235, 7.295694
737.6056, 7.503055
738.0877, 6.950986
738.5698, 6.110555
739.0519, 5.632446
739.5341, 5.473260
740.0162, 5.232611
740.4983, 4.882988
740.9804, 4.443091
741.4625, 3.654846
741.9446, 3.015840
742.4268, 3.716948
742.9089, 6.185225
743.3910, 7.675814
743.8731, 7.188970
744.3552, 6.520169
744.8373, 6.702875
745.3195, 7.167446
745.8016, 6.908178
746.2837, 5.786481
746.7658, 4.737504
747.2479, 4.724428
747.7300, 5.334212
748.2122, 5.342754
748.6943, 4.737051
749.1764, 4.480095
749.6585, 4.968050
750.1406, 5.554187
750.6227, 5.537806
751.1049, 4.939674
751.5870, 4.576624
752.0691, 4.535738
752.5512, 4.591047
753.0333, 4.697934
753.5154, 4.889280
753.9976, 5.233435
754.4797, 5.689596
754.9618, 6.171509
755.4439, 6.681530
755.9260, 7.037776
756.4081, 6.914953
756.8903, 6.420522
757.3724, 5.957160
757.8545, 5.565084
758.3366, 5.352866
758.8187, 5.412282
759.3008, 5.667209
759.7830, 5.958250
760.2651, 6.501411
760.7472, 6.552838
761.2293, 5.456626
761.7114, 4.634408
762.1935, 4.887228
762.6757, 5.654787
763.1578, 6.194853
763.6399, 6.333909
764.1220, 6.314066
764.6041, 6.260843
765.0862, 6.181032
765.5684, 6.006978
766.0505, 5.794525
766.5326, 5.941160
767.0147, 6.605920
767.4968, 7.056528
767.9789, 6.329152
768.4611, 4.514235
768.9432, 3.927826
769.4253, 5.625528
769.9074, 6.743009
770.3895, 6.310819
770.8716, 5.655657
771.3538, 5.629325
771.8359, 6.128942
772.3180, 6.711299
772.8001, 7.453467
773.2822, 7.798692
773.7643, 6.897441
774.2465, 5.597626
774.7286, 5.343078
775.2107, 6.048478
775.6928, 6.439713
776.1749, 5.780117
776.6570, 4.666571
777.1392, 4.301339
777.6213, 4.815012
778.1034, 5.120038
778.5855, 5.138689
779.0676, 5.074767
779.5497, 4.783126
780.0319, 4.600626
780.5140, 5.147382
780.9961, 6.516898
781.4782, 7.332157
781.9603, 6.749657
782.4424, 6.069604
782.9246, 6.273600
783.4067, 6.756102
783.8888, 6.261630
784.3709, 4.802504
784.8530, 4.052716
785.3351, 5.727615
785.8173, 8.428097
786.2994, 8.156422
786.7815, 4.905491
787.2636, 3.104374
787.7457, 3.847866
788.2278, 5.193642
788.7100, 5.774260
789.1921, 5.769493
789.6742, 5.887087
790.1563, 6.391023
790.6384, 6.528520
791.1205, 5.937223
791.6026, 5.294658
792.0847, 4.877465
792.5668, 4.705939
793.0490, 4.847345
793.5311, 5.311278
794.0132, 5.688872
794.4953, 5.614656
794.9774, 5.247856
795.4595, 4.709675
795.9417, 4.089018
796.4238, 3.915303
796.9059, 4.378583
797.3880, 5.071063
797.8701, 5.582024
798.3522, 5.909686
798.8344, 5.969236
799.3165, 5.528165
799.7986, 5.266968
800.2807, 5.354700
800.7628, 5.601180
801.2449, 6.009130
801.7271, 6.485094
802.2092, 6.801992
802.6913, 6.920629
803.1734, 6.842362
803.6555, 6.170970
804.1376, 5.585523
804.6198, 6.174302
805.1019, 7.510674
805.5840, 8.231606
806.0661, 7.746687
806.5482, 6.650908
807.0303, 5.598086
807.5125, 4.611970
807.9946, 3.856600
808.4767, 3.239491
808.9588, 3.463842
809.4409, 5.170233
809.9230, 7.153974
810.4052, 8.072703
810.8873, 7.910909
811.3694, 7.597528
811.8515, 6.969790
812.3336, 6.415807
812.8157, 5.970302
813.2979, 5.662527
813.7800, 5.494938
814.2621, 5.489828
814.7442, 5.785151
815.2263, 6.530815
815.7084, 7.103797
816.1906, 6.731384
816.6727, 5.799756
817.1548, 4.903691
817.6369, 4.168390
818.1190, 4.188432
818.6011, 5.297674
819.0833, 6.561324
819.5654, 6.546937
820.0475, 5.192103
820.5296, 4.325463
821.0117, 4.050532
821.4938, 4.048493
821.9760, 4.534853
822.4581, 5.005942
822.9402, 4.904940
823.4223, 4.388394
823.9044, 4.214501
824.3865, 4.855008
824.8687, 5.359056
825.3508, 5.261688
825.8329, 4.934693
826.3150, 4.523816
826.7971, 4.223206
827.2792, 4.559319
827.7614, 5.778455
828.2435, 6.955970
828.7256, 6.650752
829.2077, 5.353636
829.6898, 5.149379
830.1719, 6.087683
830.6541, 6.530745
831.1362, 5.782427
831.6183, 4.637110
832.1004, 3.990292
832.5825, 3.839808
833.0646, 3.894587
833.5468, 4.311324
834.0289, 4.691296
834.5110, 5.126733
834.9931, 5.382201
835.4752, 5.096070
835.9573, 4.536535
836.4395, 4.408105
836.9216, 5.018372
837.4037, 5.633738
837.8858, 5.961943
838.3679, 6.032409
838.8500, 5.699812
839.3322, 5.158775
839.8143, 4.840132
840.2964, 4.896676
840.7785, 5.239935
841.2606, 5.966845
841.7427, 6.825904
842.2249, 6.571311
842.7070, 5.135625
843.1891, 4.328201
843.6712, 4.755589
844.1533, 5.347970
844.6354, 5.097855
845.1176, 4.263893
845.5997, 4.132369
846.0818, 5.592216
846.5639, 6.340012
847.0460, 5.697584
847.5281, 5.101863
848.0103, 5.358797
848.4924, 6.035628
848.9745, 6.492230
849.4566, 6.602551
849.9387, 6.495589
850.4208, 5.869957
850.9030, 5.391741
851.3851, 5.903303
851.8672, 6.934889
852.3493, 7.673792
852.8314, 7.912719
853.3135, 7.649606
853.7957, 6.785467
854.2778, 5.720644
854.7599, 5.572975
855.2420, 6.310432
855.7241, 6.175697
856.2062, 4.775597
856.6884, 3.528384
857.1705, 3.165116
857.6526, 3.470520
858.1347, 4.148101
858.6168, 5.390422
859.0989, 6.119393
859.5811, 6.097683
860.0632, 5.885497
860.5453, 5.451808
861.0274, 4.999377
861.5095, 4.699774
861.9916, 4.546602
862.4738, 4.432707
862.9559, 4.264261
863.4380, 4.232913
863.9201, 4.622437
864.4022, 5.111359
864.8843, 5.338795
865.3665, 5.296793
865.8486, 5.035480
866.3307, 4.586345
866.8128, 4.158380
867.2949, 4.006009
867.7770, 4.094973
868.2592, 4.365656
868.7413, 4.823489
869.2234, 4.953394
869.7055, 4.527252
870.1876, 4.130219
870.6697, 4.415332
871.1519, 5.170137
871.6340, 5.138299
872.1161, 3.484399
872.5981, 2.649622
873.0803, 3.328521
873.5624, 4.218588
874.0445, 5.148329
874.5266, 5.794789
875.0087, 5.519920
875.4908, 4.177165
875.9730, 3.237334
876.4551, 3.494362
876.9372, 3.989818
877.4193, 4.253967
877.9014, 4.331591
878.3835, 4.154087
878.8657, 3.849995
879.3478, 3.935127
879.8299, 4.821670
880.3120, 5.811880
880.7941, 5.812932
881.2762, 5.133548
881.7584, 4.682543
882.2405, 4.543861
882.7226, 4.875082
883.2047, 5.816785
883.6868, 6.721324
884.1689, 6.714891
884.6511, 5.813782
885.1332, 4.309166
885.6153, 1.483849
886.0974, 9.7237907E-02
886.5795, 1.378185
887.0616, 3.351611
887.5438, 4.813531
888.0259, 5.782441
888.5080, 6.347425
888.9901, 6.561335
889.4722, 6.247899
889.9543, 4.793411
890.4365, 3.443900
890.9186, 2.750696
891.4007, 2.620607
891.8828, 3.083355
892.3649, 4.018411
892.8470, 4.719750
893.3292, 4.582078
893.8113, 4.305032
894.2934, 4.576994
894.7755, 5.168618
895.2576, 5.899325
895.7397, 6.585101
896.2219, 6.559402
896.7040, 5.451190
897.1861, 4.072977
897.6682, 3.675266
898.1503, 4.137491
898.6324, 4.527505
899.1146, 4.845531
899.5967, 4.979056
900.0788, 4.830922
900.5609, 4.736037
901.0430, 5.098823
901.5251, 5.788032
902.0073, 5.965180
902.4894, 5.346007
902.9715, 4.791868
903.4536, 4.110850
903.9357, 3.780109
904.4178, 4.544370
904.9000, 5.510027
905.3821, 5.168944
905.8642, 3.310487
906.3463, 2.253061
906.8284, 3.213743
907.3105, 4.298729
907.7927, 4.751328
908.2748, 4.811782
908.7569, 4.590261
909.2390, 4.242074
909.7211, 4.048113
910.2032, 4.112809
910.6854, 4.490964
911.1675, 5.736984
911.6496, 7.049218
912.1317, 6.826619
912.6138, 5.452467
913.0959, 4.427802
913.5781, 4.212373
914.0602, 4.394506
914.5423, 4.667775
915.0244, 4.917551
915.5065, 4.753489
915.9886, 4.171657
916.4708, 3.537792
916.9529, 2.825227
917.4350, 2.433336
917.9171, 2.597004
918.3992, 3.182084
918.8813, 4.006080
919.3635, 5.142120
919.8456, 6.001308
920.3277, 6.521432
920.8098, 6.868383
921.2919, 7.288511
921.7740, 7.350219
922.2562, 6.297609
922.7383, 4.650868
923.2204, 4.051560
923.7025, 5.260089
924.1846, 6.036169
924.6667, 5.260063
925.1489, 4.496694
925.6310, 5.034173
926.1131, 5.987811
926.5952, 5.894654
927.0773, 4.711838
927.5594, 3.894444
928.0416, 4.478470
928.5237, 5.355250
929.0058, 5.457234
929.4879, 5.221311
929.9700, 5.548097
930.4521, 6.241461
930.9343, 6.136933
931.4164, 4.777640
931.8985, 3.339725
932.3806, 3.334292
932.8627, 4.296181
933.3448, 4.684741
933.8270, 4.557460
934.3091, 4.651439
934.7912, 5.150289
935.2733, 5.328019
935.7554, 4.564888
936.2375, 3.399843
936.7197, 3.209263
937.2018, 4.221882
937.6839, 4.932436
938.1660, 5.389188
938.6481, 5.380497
939.1302, 4.451445
939.6124, 3.502750
940.0945, 3.486955
940.5766, 4.318698
941.0587, 5.208946
941.5408, 6.964314
942.0229, 7.549708
942.5051, 5.794614
942.9872, 4.032209
943.4693, 3.316542
943.9514, 3.324067
944.4335, 3.697070
944.9156, 4.360496
945.3978, 4.882931
945.8799, 5.681175
946.3620, 5.617620
946.8441, 2.698477
947.3262, -0.2917706
947.8083, 8.3021417E-02
948.2905, 2.851005
948.7726, 4.792197
949.2547, 4.719091
949.7368, 4.182195
950.2189, 4.422943
950.7010, 4.990427
951.1832, 5.409729
951.6653, 5.630612
952.1474, 5.469625
952.6295, 4.965060
953.1116, 4.539932
953.5938, 4.480697
954.0759, 4.531023
954.5580, 4.125753
955.0400, 3.423496
955.5222, 3.310230
956.0043, 3.808383
956.4864, 4.569265
956.9685, 5.527184
957.4506, 6.259027
957.9327, 6.295596
958.4149, 5.830845
958.8970, 5.737753
959.3791, 6.158140
959.8612, 6.215691
960.3433, 5.768283
960.8254, 5.143283
961.3076, 4.288434
961.7897, 3.593418
962.2718, 3.690882
962.7539, 4.601597
963.2360, 5.171247
963.7181, 5.336263
964.2003, 5.249090
964.6824, 4.408953
965.1645, 3.870171
965.6466, 4.640051
966.1287, 5.905179
966.6108, 6.104003
967.0930, 4.949733
967.5751, 4.358850
968.0572, 5.399778
968.5393, 6.235950
969.0214, 5.785758
969.5035, 5.102307
969.9857, 5.400436
970.4678, 6.280530
970.9499, 6.371845
971.4320, 5.118944
971.9141, 4.081094
972.3962, 4.515598
972.8784, 5.221472
973.3605, 5.181684
973.8426, 4.673471
974.3247, 4.081681
974.8068, 3.540993
975.2889, 3.147913
975.7711, 2.940296
976.2532, 2.995295
976.7353, 3.566704
977.2174, 4.374074
977.6995, 4.908947
978.1816, 5.210496
978.6638, 5.613029
979.1459, 6.154924
979.6280, 6.225634
980.1101, 5.225531
980.5922, 3.804954
981.0743, 3.312132
981.5565, 3.639969
982.0386, 4.305702
982.5207, 5.249124
983.0028, 5.785588
983.4849, 5.636882
983.9670, 5.038372
984.4492, 4.090140
984.9313, 3.063680
985.4134, 3.560455
985.8955, 5.949923
986.3776, 6.938263
986.8597, 5.883128
987.3419, 4.588167
987.8240, 3.835482
988.3061, 3.442789
988.7882, 3.125186
989.2703, 2.885692
989.7524, 3.182638
990.2346, 4.402304
990.7167, 5.316386
991.1988, 5.891632
991.6809, 5.961764
992.1630, 5.072897
992.6451, 3.805228
993.1273, 3.229356
993.6094, 3.446350
994.0915, 3.611286
994.5736, 3.568955
995.0557, 3.674760
995.5378, 4.117080
996.0200, 4.608574
996.5021, 5.045168
996.9842, 5.365036
997.4663, 5.481660
997.9484, 5.393021
998.4305, 5.024877
998.9127, 3.749583
999.3948, 2.952232
999.8769, 3.904501
1000.359, 5.057488
1000.841, 4.689644
1001.323, 3.305807
1001.805, 2.577221
1002.287, 3.058228
1002.770, 3.620133
1003.252, 3.819531
1003.734, 3.748452
1004.216, 3.196280
1004.698, 2.586139
1005.180, 2.459985
1005.662, 2.816672
1006.144, 3.405994
1006.627, 4.164377
1007.109, 4.814776
1007.591, 5.169592
1008.073, 5.257670
1008.555, 5.108979
1009.037, 4.719244
1009.519, 3.867600
1010.001, 2.701225
1010.483, 1.919838
1010.966, 1.925332
1011.448, 2.477509
1011.930, 3.686828
1012.412, 5.047615
1012.894, 5.474236
1013.376, 5.161468
1013.858, 4.857462
1014.340, 4.732781
1014.823, 4.475737
1015.305, 3.805672
1015.787, 3.231886
1016.269, 3.959208
1016.751, 5.481794
1017.233, 5.683261
1017.715, 4.670197
1018.197, 3.918423
1018.679, 3.844364
1019.162, 3.914918
1019.644, 3.663901
1020.126, 3.382478
1020.608, 3.975775
1021.090, 5.318252
1021.572, 5.572589
1022.054, 4.636310
1022.536, 3.553414
1023.018, 2.571602
1023.501, 2.368387
1023.983, 3.763528
1024.465, 5.995554
1024.947, 6.489230
1025.429, 5.046191
1025.911, 4.269170
1026.393, 4.380960
1026.875, 4.420458
1027.358, 4.034156
1027.840, 3.522553
1028.322, 3.103244
1028.804, 2.861328
1029.286, 3.215606
1029.768, 4.350769
1030.250, 5.404320
1030.732, 6.619673
1031.214, 6.979588
1031.697, 5.857114
1032.179, 4.172757
1032.661, 2.648319
1033.143, 1.394671
1033.625, 1.014126
1034.107, 1.879734
1034.589, 2.700917
1035.071, 3.567280
1035.553, 4.221944
1036.036, 4.698966
1036.518, 4.764638
1037.000, 3.903457
1037.482, 2.371958
1037.964, 1.674323
1038.446, 2.154536
1038.928, 2.816059
1039.410, 4.155749
1039.893, 4.996343
1040.375, 4.468225
1040.857, 3.645226
1041.339, 3.606103
1041.821, 4.208960
1042.303, 4.703346
1042.785, 5.254943
1043.267, 5.351696
1043.750, 4.563323
1044.232, 3.827428
1044.714, 3.602469
1045.196, 3.480044
1045.678, 2.820239
1046.160, 1.862941
1046.642, 1.784056
1047.124, 3.177126
1047.606, 4.349153
1048.089, 5.417268
1048.571, 5.812076
1049.053, 4.752691
1049.535, 3.350282
1050.017, 2.448299
1050.499, 2.162717
1050.981, 2.730496
1051.463, 4.807911
1051.945, 6.054781
1052.428, 5.323385
1052.910, 4.454695
1053.392, 4.316466
1053.874, 4.410829
1054.356, 4.077565
1054.838, 3.499289
1055.320, 3.546104
1055.802, 4.757355
1056.285, 5.319450
1056.767, 3.912291
1057.249, 2.711355
1057.731, 2.854272
1058.213, 3.656756
1058.695, 4.916877
1059.177, 6.146574
1059.659, 5.990065
1060.141, 3.695513
1060.624, 2.128601
1061.106, 2.751082
1061.588, 3.773197
1062.070, 4.698720
1062.552, 5.246580
1063.034, 4.841527
1063.516, 3.905741
1063.998, 3.645500
1064.480, 4.467966
1064.963, 5.002712
1065.445, 4.689302
1065.927, 3.973717
1066.409, 2.507459
1066.891, 1.231881
1067.373, 1.034148
1067.855, 1.787567
1068.337, 3.350737
1068.820, 5.786973
1069.302, 6.990113
1069.784, 4.814237
1070.266, 2.735663
1070.748, 2.787666
1071.230, 3.580431
1071.712, 4.086573
1072.194, 4.183443
1072.677, 3.755580
1073.159, 2.804499
1073.641, 2.259106
1074.123, 2.989191
1074.605, 3.629085
1075.087, 3.102468
1075.569, 2.533622
1076.051, 3.239428
1076.533, 4.511221
1077.016, 4.754152
1077.498, 3.782935
1077.980, 3.259814
1078.462, 4.324945
1078.944, 5.348304
1079.426, 5.751137
1079.908, 5.595959
1080.390, 4.472278
1080.872, 3.062788
1081.354, 2.404643
1081.837, 2.600539
1082.319, 3.009218
1082.801, 3.624569
1083.283, 3.947609
1083.765, 3.292697
1084.247, 2.729814
1084.729, 3.195116
1085.211, 4.146745
1085.694, 4.925391
1086.176, 5.406851
1086.658, 5.599873
1087.140, 5.451316
1087.622, 5.173705
1088.104, 4.810826
1088.586, 4.396083
1089.068, 3.591405
1089.551, 3.004785
1090.033, 3.777524
1090.515, 5.416780
1090.997, 6.014623
1091.479, 4.877107
1091.961, 3.547979
1092.443, 2.011117
1092.925, 1.155735
1093.407, 1.831409
1093.890, 3.105781
1094.372, 4.319044
1094.854, 5.305219
1095.336, 5.966482
1095.818, 6.301179
1096.300, 6.092532
1096.782, 4.500735
1097.264, 3.371805
1097.746, 3.796892
1098.229, 4.613235
1098.711, 5.098456
1099.193, 5.205112
1099.675, 4.916411
1100.157, 4.232371
1100.639, 3.583560
1101.121, 2.841860
1101.603, 2.486872
1102.086, 2.923720
1102.568, 3.488394
1103.050, 3.797124
1103.532, 3.961835
1104.014, 4.100351
1104.496, 4.248711
1104.978, 4.622571
1105.460, 5.837202
1105.943, 6.300124
1106.425, 5.013424
1106.907, 3.834234
1107.389, 3.746161
1107.871, 4.057758
1108.353, 4.097569
1108.835, 3.865109
1109.317, 3.496149
1109.799, 2.848235
1110.281, 2.442385
1110.764, 2.220037
1111.246, 2.373258
1111.728, 3.347285
1112.210, 4.359677
1112.692, 4.751925
1113.174, 4.718916
1113.656, 4.818830
1114.138, 5.181520
1114.621, 5.072870
1115.103, 3.934412
1115.585, 3.245259
1116.067, 3.449707
1116.549, 3.881223
1117.031, 4.230791
1117.513, 4.517908
1117.995, 4.782594
1118.478, 5.024764
1118.960, 5.184757
1119.442, 5.441847
1119.924, 5.105438
1120.406, 3.556413
1120.888, 2.611392
1121.370, 3.376031
1121.852, 4.582918
1122.334, 4.761592
1122.817, 4.109625
1123.299, 3.715302
1123.781, 3.664452
1124.263, 3.495962
1124.745, 3.151191
1125.227, 2.854945
1125.709, 2.662560
1126.191, 2.571729
1126.673, 2.563591
1127.156, 2.695168
1127.638, 3.244733
1128.120, 4.253635
1128.602, 4.121804
1129.084, 2.663169
1129.566, 2.077332
1130.048, 2.881024
1130.530, 3.935046
1131.013, 4.635327
1131.495, 4.931452
1131.977, 4.664176
1132.459, 3.973176
1132.941, 3.511588
1133.423, 3.273276
1133.905, 3.217625
1134.387, 3.339527
1134.870, 3.750481
1135.352, 4.494402
1135.834, 4.918729
1136.316, 4.244596
1136.798, 3.256554
1137.280, 4.110732
1137.762, 3.388427
1138.244, 3.088581
1138.726, 3.554788
1139.208, 2.634789
1139.691, 3.483912
1140.173, 4.170198
1140.655, 3.447121
1141.137, 2.392276
1141.619, 2.489175
1142.101, 3.104355
1142.583, 2.906716
1143.065, 2.401402
1143.548, 3.069484
1144.030, 4.652369
1144.512, 5.420782
1144.994, 4.737142
1145.476, 3.777798
1145.958, 3.409240
1146.440, 3.298626
1146.922, 3.074715
1147.405, 2.937706
1147.887, 3.377304
1148.369, 4.022450
1148.851, 3.996118
1149.333, 3.243577
1149.815, 2.581971
1150.297, 2.285584
1150.779, 2.451480
1151.261, 3.614167
1151.744, 4.734509
1152.226, 5.239734
1152.708, 5.127518
1153.190, 3.890215
1153.672, 2.143585
1154.154, 1.792727
1154.636, 3.530289
1155.118, 4.727050
1155.600, 4.121741
1156.083, 3.522813
1156.565, 3.744008
1157.047, 3.991616
1157.529, 3.387433
1158.011, 2.592743
1158.493, 2.910614
1158.975, 4.369954
1159.457, 5.100639
1159.940, 4.369795
1160.422, 3.922778
1160.904, 3.861105
1161.386, 4.040250
1161.868, 4.780518
1162.350, 5.279814
1162.832, 4.529398
1163.314, 3.095405
1163.796, 2.809756
1164.279, 3.928444
1164.761, 4.856624
1165.243, 5.775702
1165.725, 5.692840
1166.207, 4.017570
1166.689, 2.742481
1167.171, 3.119839
1167.653, 4.182898
1168.135, 4.554492
1168.618, 4.378866
1169.100, 4.593381
1169.582, 5.183021
1170.064, 4.815138
1170.546, 3.409118
1171.028, 2.650920
1171.510, 3.101925
1171.992, 4.054141
1172.474, 5.014940
1172.957, 5.745698
1173.439, 5.646134
1173.921, 5.041405
1174.403, 4.914432
1174.885, 5.140907
1175.367, 5.225699
1175.849, 5.127000
1176.331, 5.173240
1176.814, 5.492760
1177.296, 5.598287
1177.778, 4.822179
1178.260, 3.929733
1178.742, 3.866412
1179.224, 4.193822
1179.706, 4.405237
1180.188, 4.486076
1180.671, 4.581311
1181.153, 4.662250
1181.635, 4.399081
1182.117, 3.489723
1182.599, 2.796941
1183.081, 2.974438
1183.563, 3.290131
1184.045, 3.412925
1184.527, 3.343457
1185.010, 2.780611
1185.492, 2.137512
1185.974, 2.560882
1186.456, 4.307545
1186.938, 5.092721
1187.420, 3.700519
1187.902, 2.611842
1188.384, 2.224424
1188.866, 2.214037
1189.349, 2.663234
1189.831, 3.201748
1190.313, 3.473948
1190.795, 3.505516
1191.277, 3.348866
1191.759, 2.849419
1192.241, 2.902290
1192.723, 3.706585
1193.206, 4.393914
1193.688, 4.839831
1194.170, 4.869937
1194.652, 4.278132
1195.134, 3.601166
1195.616, 3.631053
1196.098, 4.188104
1196.580, 4.527800
1197.063, 4.668112
1197.545, 4.907104
1198.027, 5.209859
1198.509, 4.873038
1198.991, 3.775257
1199.473, 3.043702
1199.955, 3.492351
1200.437, 4.366864
1200.919, 4.911777
1201.401, 5.057795
1201.884, 4.384080
1202.366, 3.373968
1202.848, 3.063029
1203.330, 3.301648
1203.812, 3.224151
1204.294, 2.612683
1204.776, 2.105415
1205.258, 1.922949
1205.741, 2.242940
1206.223, 3.820845
1206.705, 5.259347
1207.187, 5.391676
1207.669, 4.826179
1208.151, 4.047334
1208.633, 3.334916
1209.115, 3.288656
1209.598, 4.127815
1210.080, 4.934915
1210.562, 5.853396
1211.044, 6.319496
1211.526, 5.965489
1212.008, 5.441605
1212.490, 4.914253
1212.972, 4.509526
1213.454, 4.453038
1213.937, 4.634044
1214.419, 4.491000
1214.901, 3.937806
1215.383, 3.479282
1215.865, 3.107792
1216.347, 2.879825
1216.829, 2.803513
1217.311, 2.954496
1217.793, 3.404688
1218.276, 3.906133
1218.758, 4.177653
1219.240, 4.176457
1219.722, 3.348666
1220.204, 2.200999
1220.686, 3.201351
1221.168, 5.675735
1221.650, 6.055821
1222.133, 3.864163
1222.615, 2.093132
1223.097, 2.475734
1223.579, 3.215083
1224.061, 2.475760
1224.543, 1.535076
1225.025, 1.583984
1225.507, 2.193621
1225.990, 3.296221
1226.472, 4.334307
1226.954, 4.006105
1227.436, 2.360312
1227.918, 1.841513
1228.400, 4.061077
1228.882, 5.524600
1229.364, 5.113053
1229.846, 4.210397
1230.328, 2.775745
1230.811, 1.640867
1231.293, 1.722829
1231.775, 2.297446
1232.257, 1.842298
1232.739, 0.3730921
1233.221, 0.3162976
1233.703, 2.117778
1234.185, 3.381284
1234.668, 3.912943
1235.150, 3.868783
1235.632, 3.215255
1236.114, 2.774151
1236.596, 3.245288
1237.078, 4.001336
1237.560, 4.048829
1238.042, 3.452030
1238.525, 1.920916
1239.007, 1.8680889E-02
1239.489, -0.3347660
1239.971, 0.7368382
1240.453, 2.077391
1240.935, 3.251454
1241.417, 4.049266
1241.899, 4.249294
1242.381, 4.366059
1242.864, 5.109803
1243.346, 5.616795
1243.828, 5.031124
1244.310, 3.920477
1244.792, 2.494935
1245.274, 1.248744
1245.756, 1.344601
1246.238, 2.929685
1246.720, 3.792517
1247.203, 2.856798
1247.685, 2.380157
1248.167, 2.987357
1248.649, 3.319111
1249.131, 2.541325
1249.613, 2.099542
1250.095, 3.343579
1250.577, 5.298292
1251.059, 6.105652
1251.542, 5.809441
1252.024, 4.539795
1252.506, 2.310294
1252.988, 2.115197
1253.470, 4.081551
1253.952, 5.229538
1254.434, 4.666214
1254.916, 3.773414
1255.399, 3.488864
1255.881, 3.525199
1256.363, 3.608447
1256.845, 3.720886
1257.327, 3.887937
1257.809, 4.030472
1258.291, 4.143219
1258.773, 4.089233
1259.255, 3.378234
1259.738, 2.104161
1260.220, 1.471583
1260.702, 2.130446
1261.184, 2.838539
1261.666, 3.027495
1262.148, 3.422904
1262.630, 4.817153
1263.112, 5.977358
1263.594, 5.682491
1264.077, 6.451586
1264.559, 5.280076
1265.041, 6.535421
1265.523, 5.934680
1266.005, 5.655033
1266.487, 5.446204
1266.969, 3.556007
1267.451, 3.990681
1267.934, 2.277294
1268.416, 1.166501
1268.898, 2.236012
1269.380, 3.905717
1269.862, 4.308806
1270.344, 4.100026
1270.826, 4.644035
1271.308, 5.347588
1271.791, 5.027039
1272.273, 3.975383
1272.755, 2.587424
1273.237, 1.268872
1273.719, 1.087323
1274.201, 2.473271
1274.683, 3.775851
1275.165, 4.776803
1275.647, 4.815623
1276.130, 2.409116
1276.612, 0.4186350
1277.094, 0.9458799
1277.576, 2.369205
1278.058, 2.935265
1278.540, 2.982529
1279.022, 3.521033
1279.504, 4.629752
1279.986, 5.038155
1280.469, 4.630342
1280.951, 4.322957
1281.433, 4.230199
1281.915, 4.159633
1282.397, 4.042490
1282.879, 3.678044
1283.361, 2.838824
1283.843, 2.144022
1284.326, 2.329643
1284.808, 3.399629
##END=



