##NAMES=Rankinite
##RRUFFID=R140775
##IDEAL CHEMISTRY=Ca_3_Si_2_O_7_
##LOCALITY=Caspar quarry, Bellerberg volcano, Ettringen, Mayen, Eifel, Rhineland-Palatinate, Germany
##OWNER=RRUFF
##SOURCE=Ch. and H. Sch√§fer
##DESCRIPTION=Colorless to gray, associated with andradite, melilite and cuspidine (R140776).
##STATUS=The identification of this mineral has been confirmed by single-crystal X-ray diffraction.
##URL=rruff.info/R140775
9.059570e+001, 6.721920e+002
9.107782e+001, 6.677670e+002
9.155994e+001, 6.662265e+002
9.204205e+001, 6.691697e+002
9.252417e+001, 6.739392e+002
9.300629e+001, 6.800511e+002
9.348840e+001, 6.835781e+002
9.397052e+001, 6.796653e+002
9.445264e+001, 6.660785e+002
9.493475e+001, 6.511674e+002
9.541687e+001, 6.373333e+002
9.589898e+001, 6.252057e+002
9.638110e+001, 6.142997e+002
9.686321e+001, 6.042266e+002
9.734533e+001, 5.943883e+002
9.782745e+001, 5.836584e+002
9.830956e+001, 5.738414e+002
9.879168e+001, 5.646273e+002
9.927380e+001, 5.564783e+002
9.975591e+001, 5.496475e+002
1.002380e+002, 5.437978e+002
1.007201e+002, 5.382930e+002
1.012023e+002, 5.327499e+002
1.016844e+002, 5.272227e+002
1.021665e+002, 5.219520e+002
1.026486e+002, 5.171230e+002
1.031307e+002, 5.123143e+002
1.036128e+002, 5.069996e+002
1.040950e+002, 5.009784e+002
1.045771e+002, 4.951984e+002
1.050592e+002, 4.902123e+002
1.055413e+002, 4.857240e+002
1.060234e+002, 4.814198e+002
1.065055e+002, 4.769019e+002
1.069877e+002, 4.723739e+002
1.074698e+002, 4.688358e+002
1.079519e+002, 4.674206e+002
1.084340e+002, 4.655451e+002
1.089161e+002, 4.620614e+002
1.093982e+002, 4.572479e+002
1.098804e+002, 4.518987e+002
1.103625e+002, 4.465190e+002
1.108446e+002, 4.409662e+002
1.113267e+002, 4.362464e+002
1.118088e+002, 4.323638e+002
1.122909e+002, 4.291831e+002
1.127731e+002, 4.269137e+002
1.132552e+002, 4.254612e+002
1.137373e+002, 4.243232e+002
1.142194e+002, 4.227528e+002
1.147015e+002, 4.199112e+002
1.151836e+002, 4.182320e+002
1.156658e+002, 4.187849e+002
1.161479e+002, 4.199493e+002
1.166300e+002, 4.201256e+002
1.171121e+002, 4.187253e+002
1.175942e+002, 4.163017e+002
1.180763e+002, 4.140669e+002
1.185584e+002, 4.120208e+002
1.190406e+002, 4.100839e+002
1.195227e+002, 4.082311e+002
1.200048e+002, 4.064712e+002
1.204869e+002, 4.047821e+002
1.209690e+002, 4.030575e+002
1.214511e+002, 4.015264e+002
1.219333e+002, 4.005666e+002
1.224154e+002, 4.004606e+002
1.228975e+002, 4.004323e+002
1.233796e+002, 3.997326e+002
1.238617e+002, 3.982744e+002
1.243438e+002, 3.968538e+002
1.248260e+002, 3.960819e+002
1.253081e+002, 3.954633e+002
1.257902e+002, 3.945114e+002
1.262723e+002, 3.929874e+002
1.267544e+002, 3.911380e+002
1.272365e+002, 3.895231e+002
1.277187e+002, 3.881917e+002
1.282008e+002, 3.870419e+002
1.286829e+002, 3.860277e+002
1.291650e+002, 3.851379e+002
1.296471e+002, 3.843911e+002
1.301292e+002, 3.838337e+002
1.306114e+002, 3.834404e+002
1.310935e+002, 3.828163e+002
1.315756e+002, 3.819021e+002
1.320577e+002, 3.807954e+002
1.325398e+002, 3.794319e+002
1.330219e+002, 3.778780e+002
1.335041e+002, 3.762547e+002
1.339862e+002, 3.746304e+002
1.344683e+002, 3.729503e+002
1.349504e+002, 3.716881e+002
1.354325e+002, 3.710318e+002
1.359146e+002, 3.705485e+002
1.363968e+002, 3.701068e+002
1.368789e+002, 3.696508e+002
1.373610e+002, 3.690287e+002
1.378431e+002, 3.680029e+002
1.383252e+002, 3.664345e+002
1.388073e+002, 3.651801e+002
1.392895e+002, 3.645363e+002
1.397716e+002, 3.641277e+002
1.402537e+002, 3.635843e+002
1.407358e+002, 3.628654e+002
1.412179e+002, 3.618589e+002
1.417000e+002, 3.602482e+002
1.421821e+002, 3.580938e+002
1.426643e+002, 3.560382e+002
1.431464e+002, 3.544778e+002
1.436285e+002, 3.532609e+002
1.441106e+002, 3.517935e+002
1.445927e+002, 3.497604e+002
1.450748e+002, 3.476544e+002
1.455570e+002, 3.458901e+002
1.460391e+002, 3.444770e+002
1.465212e+002, 3.432256e+002
1.470033e+002, 3.419186e+002
1.474854e+002, 3.405163e+002
1.479675e+002, 3.394363e+002
1.484497e+002, 3.393852e+002
1.489318e+002, 3.392775e+002
1.494139e+002, 3.383168e+002
1.498960e+002, 3.363852e+002
1.503781e+002, 3.342271e+002
1.508602e+002, 3.330883e+002
1.513424e+002, 3.337354e+002
1.518245e+002, 3.336992e+002
1.523066e+002, 3.322942e+002
1.527887e+002, 3.305089e+002
1.532708e+002, 3.290640e+002
1.537529e+002, 3.282441e+002
1.542351e+002, 3.278871e+002
1.547172e+002, 3.276030e+002
1.551993e+002, 3.275431e+002
1.556814e+002, 3.273752e+002
1.561635e+002, 3.271351e+002
1.566456e+002, 3.267664e+002
1.571278e+002, 3.261482e+002
1.576099e+002, 3.252024e+002
1.580920e+002, 3.240466e+002
1.585741e+002, 3.231962e+002
1.590562e+002, 3.226255e+002
1.595383e+002, 3.223236e+002
1.600205e+002, 3.225449e+002
1.605026e+002, 3.230598e+002
1.609847e+002, 3.233398e+002
1.614668e+002, 3.230589e+002
1.619489e+002, 3.223056e+002
1.624310e+002, 3.215882e+002
1.629131e+002, 3.207529e+002
1.633953e+002, 3.200884e+002
1.638774e+002, 3.199092e+002
1.643595e+002, 3.201611e+002
1.648416e+002, 3.203042e+002
1.653237e+002, 3.199547e+002
1.658058e+002, 3.192614e+002
1.662880e+002, 3.185940e+002
1.667701e+002, 3.179128e+002
1.672522e+002, 3.173310e+002
1.677343e+002, 3.170704e+002
1.682164e+002, 3.172225e+002
1.686985e+002, 3.172626e+002
1.691807e+002, 3.166996e+002
1.696628e+002, 3.158835e+002
1.701449e+002, 3.152306e+002
1.706270e+002, 3.149181e+002
1.711091e+002, 3.148533e+002
1.715912e+002, 3.148825e+002
1.720734e+002, 3.151926e+002
1.725555e+002, 3.152268e+002
1.730376e+002, 3.145889e+002
1.735197e+002, 3.136234e+002
1.740018e+002, 3.128005e+002
1.744839e+002, 3.123798e+002
1.749661e+002, 3.123314e+002
1.754482e+002, 3.125076e+002
1.759303e+002, 3.133512e+002
1.764124e+002, 3.139140e+002
1.768945e+002, 3.137354e+002
1.773766e+002, 3.131147e+002
1.778588e+002, 3.125998e+002
1.783409e+002, 3.126228e+002
1.788230e+002, 3.131902e+002
1.793051e+002, 3.134461e+002
1.797872e+002, 3.131486e+002
1.802693e+002, 3.127798e+002
1.807515e+002, 3.123941e+002
1.812336e+002, 3.120425e+002
1.817157e+002, 3.118211e+002
1.821978e+002, 3.118427e+002
1.826799e+002, 3.121605e+002
1.831620e+002, 3.121532e+002
1.836441e+002, 3.115666e+002
1.841263e+002, 3.109555e+002
1.846084e+002, 3.105570e+002
1.850905e+002, 3.103882e+002
1.855726e+002, 3.104003e+002
1.860547e+002, 3.106275e+002
1.865368e+002, 3.111285e+002
1.870190e+002, 3.110592e+002
1.875011e+002, 3.098442e+002
1.879832e+002, 3.084930e+002
1.884653e+002, 3.078149e+002
1.889474e+002, 3.078841e+002
1.894296e+002, 3.081232e+002
1.899117e+002, 3.080176e+002
1.903938e+002, 3.075644e+002
1.908759e+002, 3.069887e+002
1.913580e+002, 3.061168e+002
1.918401e+002, 3.052263e+002
1.923223e+002, 3.046318e+002
1.928044e+002, 3.043858e+002
1.932865e+002, 3.043449e+002
1.937686e+002, 3.044848e+002
1.942507e+002, 3.047474e+002
1.947328e+002, 3.049550e+002
1.952150e+002, 3.050002e+002
1.956971e+002, 3.049617e+002
1.961792e+002, 3.050353e+002
1.966613e+002, 3.053313e+002
1.971434e+002, 3.055182e+002
1.976255e+002, 3.051517e+002
1.981077e+002, 3.044566e+002
1.985898e+002, 3.040390e+002
1.990719e+002, 3.045597e+002
1.995540e+002, 3.057032e+002
2.000361e+002, 3.060048e+002
2.005182e+002, 3.047217e+002
2.010004e+002, 3.035797e+002
2.014825e+002, 3.036568e+002
2.019646e+002, 3.046037e+002
2.024467e+002, 3.055383e+002
2.029288e+002, 3.057690e+002
2.034109e+002, 3.053528e+002
2.038930e+002, 3.052478e+002
2.043752e+002, 3.057371e+002
2.048573e+002, 3.062742e+002
2.053394e+002, 3.067431e+002
2.058215e+002, 3.071000e+002
2.063036e+002, 3.072818e+002
2.067857e+002, 3.071907e+002
2.072679e+002, 3.068069e+002
2.077500e+002, 3.065415e+002
2.082321e+002, 3.064568e+002
2.087142e+002, 3.064417e+002
2.091963e+002, 3.065103e+002
2.096784e+002, 3.066281e+002
2.101606e+002, 3.067324e+002
2.106427e+002, 3.067745e+002
2.111248e+002, 3.067580e+002
2.116069e+002, 3.066318e+002
2.120890e+002, 3.061768e+002
2.125711e+002, 3.058227e+002
2.130533e+002, 3.058833e+002
2.135354e+002, 3.062402e+002
2.140175e+002, 3.064708e+002
2.144996e+002, 3.061316e+002
2.149817e+002, 3.050609e+002
2.154638e+002, 3.045972e+002
2.159460e+002, 3.053254e+002
2.164281e+002, 3.060020e+002
2.169102e+002, 3.058496e+002
2.173923e+002, 3.049807e+002
2.178744e+002, 3.041310e+002
2.183565e+002, 3.039916e+002
2.188387e+002, 3.046715e+002
2.193208e+002, 3.052089e+002
2.198029e+002, 3.056551e+002
2.202850e+002, 3.059419e+002
2.207671e+002, 3.060112e+002
2.212492e+002, 3.058693e+002
2.217314e+002, 3.055656e+002
2.222135e+002, 3.050857e+002
2.226956e+002, 3.044224e+002
2.231777e+002, 3.039991e+002
2.236598e+002, 3.039821e+002
2.241419e+002, 3.040779e+002
2.246240e+002, 3.041142e+002
2.251062e+002, 3.040741e+002
2.255883e+002, 3.039272e+002
2.260704e+002, 3.035791e+002
2.265525e+002, 3.030759e+002
2.270346e+002, 3.027582e+002
2.275167e+002, 3.028704e+002
2.279989e+002, 3.030388e+002
2.284810e+002, 3.028520e+002
2.289631e+002, 3.022802e+002
2.294452e+002, 3.017349e+002
2.299273e+002, 3.014204e+002
2.304094e+002, 3.013802e+002
2.308916e+002, 3.017320e+002
2.313737e+002, 3.031898e+002
2.318558e+002, 3.046663e+002
2.323379e+002, 3.046600e+002
2.328200e+002, 3.029477e+002
2.333021e+002, 3.013178e+002
2.337843e+002, 3.010666e+002
2.342664e+002, 3.016129e+002
2.347485e+002, 3.021352e+002
2.352306e+002, 3.024155e+002
2.357127e+002, 3.025954e+002
2.361948e+002, 3.028090e+002
2.366770e+002, 3.030113e+002
2.371591e+002, 3.034461e+002
2.376412e+002, 3.046527e+002
2.381233e+002, 3.060391e+002
2.386054e+002, 3.069079e+002
2.390875e+002, 3.069271e+002
2.395697e+002, 3.065088e+002
2.400518e+002, 3.062697e+002
2.405339e+002, 3.062261e+002
2.410160e+002, 3.063143e+002
2.414981e+002, 3.066977e+002
2.419802e+002, 3.071162e+002
2.424624e+002, 3.072457e+002
2.429445e+002, 3.069011e+002
2.434266e+002, 3.064564e+002
2.439087e+002, 3.066430e+002
2.443908e+002, 3.077657e+002
2.448729e+002, 3.086826e+002
2.453550e+002, 3.091312e+002
2.458372e+002, 3.092341e+002
2.463193e+002, 3.089608e+002
2.468014e+002, 3.082752e+002
2.472835e+002, 3.075047e+002
2.477656e+002, 3.072396e+002
2.482477e+002, 3.076893e+002
2.487299e+002, 3.081646e+002
2.492120e+002, 3.086219e+002
2.496941e+002, 3.090080e+002
2.501762e+002, 3.093316e+002
2.506583e+002, 3.095870e+002
2.511404e+002, 3.096539e+002
2.516226e+002, 3.092570e+002
2.521047e+002, 3.080699e+002
2.525868e+002, 3.071708e+002
2.530689e+002, 3.067067e+002
2.535510e+002, 3.064807e+002
2.540331e+002, 3.063627e+002
2.545153e+002, 3.063187e+002
2.549974e+002, 3.063878e+002
2.554795e+002, 3.066916e+002
2.559616e+002, 3.075307e+002
2.564437e+002, 3.079279e+002
2.569258e+002, 3.074134e+002
2.574080e+002, 3.068624e+002
2.578901e+002, 3.069639e+002
2.583722e+002, 3.077816e+002
2.588543e+002, 3.087654e+002
2.593364e+002, 3.091193e+002
2.598185e+002, 3.083960e+002
2.603007e+002, 3.081834e+002
2.607828e+002, 3.088700e+002
2.612649e+002, 3.096541e+002
2.617470e+002, 3.099583e+002
2.622291e+002, 3.097756e+002
2.627112e+002, 3.095694e+002
2.631934e+002, 3.099178e+002
2.636755e+002, 3.110965e+002
2.641576e+002, 3.118086e+002
2.646397e+002, 3.118672e+002
2.651218e+002, 3.117145e+002
2.656039e+002, 3.115025e+002
2.660861e+002, 3.112890e+002
2.665682e+002, 3.111351e+002
2.670503e+002, 3.111146e+002
2.675324e+002, 3.112622e+002
2.680145e+002, 3.113152e+002
2.684966e+002, 3.112899e+002
2.689788e+002, 3.111787e+002
2.694609e+002, 3.109126e+002
2.699430e+002, 3.105391e+002
2.704251e+002, 3.101923e+002
2.709072e+002, 3.099663e+002
2.713893e+002, 3.098608e+002
2.718715e+002, 3.099810e+002
2.723536e+002, 3.105237e+002
2.728357e+002, 3.110471e+002
2.733178e+002, 3.114146e+002
2.737999e+002, 3.116129e+002
2.742820e+002, 3.115922e+002
2.747642e+002, 3.112516e+002
2.752463e+002, 3.106571e+002
2.757284e+002, 3.106712e+002
2.762105e+002, 3.120467e+002
2.766926e+002, 3.130712e+002
2.771747e+002, 3.128383e+002
2.776568e+002, 3.118115e+002
2.781389e+002, 3.110683e+002
2.786211e+002, 3.112259e+002
2.791032e+002, 3.120608e+002
2.795853e+002, 3.126262e+002
2.800674e+002, 3.128430e+002
2.805495e+002, 3.129515e+002
2.810316e+002, 3.129531e+002
2.815138e+002, 3.128940e+002
2.819959e+002, 3.128188e+002
2.824780e+002, 3.127248e+002
2.829601e+002, 3.127001e+002
2.834422e+002, 3.130372e+002
2.839243e+002, 3.141173e+002
2.844065e+002, 3.148050e+002
2.848886e+002, 3.145572e+002
2.853707e+002, 3.138607e+002
2.858528e+002, 3.134040e+002
2.863349e+002, 3.134100e+002
2.868170e+002, 3.137337e+002
2.872992e+002, 3.141896e+002
2.877813e+002, 3.148421e+002
2.882634e+002, 3.153925e+002
2.887455e+002, 3.157707e+002
2.892276e+002, 3.160284e+002
2.897097e+002, 3.161781e+002
2.901919e+002, 3.162160e+002
2.906740e+002, 3.162769e+002
2.911561e+002, 3.165682e+002
2.916382e+002, 3.171340e+002
2.921203e+002, 3.175640e+002
2.926024e+002, 3.176755e+002
2.930846e+002, 3.177130e+002
2.935667e+002, 3.179218e+002
2.940488e+002, 3.183327e+002
2.945309e+002, 3.188130e+002
2.950130e+002, 3.192606e+002
2.954951e+002, 3.196709e+002
2.959773e+002, 3.200328e+002
2.964594e+002, 3.201648e+002
2.969415e+002, 3.203775e+002
2.974236e+002, 3.210197e+002
2.979057e+002, 3.220576e+002
2.983878e+002, 3.230306e+002
2.988700e+002, 3.235742e+002
2.993521e+002, 3.237602e+002
2.998342e+002, 3.241460e+002
3.003163e+002, 3.250898e+002
3.007984e+002, 3.259010e+002
3.012805e+002, 3.259665e+002
3.017627e+002, 3.254666e+002
3.022448e+002, 3.252735e+002
3.027269e+002, 3.259485e+002
3.032090e+002, 3.271715e+002
3.036911e+002, 3.279560e+002
3.041732e+002, 3.281533e+002
3.046554e+002, 3.282228e+002
3.051375e+002, 3.282762e+002
3.056196e+002, 3.283533e+002
3.061017e+002, 3.285791e+002
3.065838e+002, 3.290341e+002
3.070659e+002, 3.296010e+002
3.075481e+002, 3.300234e+002
3.080302e+002, 3.302449e+002
3.085123e+002, 3.305699e+002
3.089944e+002, 3.312202e+002
3.094765e+002, 3.320126e+002
3.099586e+002, 3.325780e+002
3.104408e+002, 3.327805e+002
3.109229e+002, 3.329173e+002
3.114050e+002, 3.334258e+002
3.118871e+002, 3.343149e+002
3.123692e+002, 3.351307e+002
3.128513e+002, 3.357186e+002
3.133335e+002, 3.362151e+002
3.138156e+002, 3.367648e+002
3.142977e+002, 3.373841e+002
3.147798e+002, 3.380943e+002
3.152619e+002, 3.390158e+002
3.157440e+002, 3.401107e+002
3.162262e+002, 3.408715e+002
3.167083e+002, 3.410254e+002
3.171904e+002, 3.409921e+002
3.176725e+002, 3.411251e+002
3.181546e+002, 3.414248e+002
3.186367e+002, 3.416785e+002
3.191188e+002, 3.417253e+002
3.196010e+002, 3.416080e+002
3.200831e+002, 3.415661e+002
3.205652e+002, 3.414608e+002
3.210473e+002, 3.415623e+002
3.215294e+002, 3.422242e+002
3.220115e+002, 3.432690e+002
3.224937e+002, 3.440392e+002
3.229758e+002, 3.441475e+002
3.234579e+002, 3.438864e+002
3.239400e+002, 3.440357e+002
3.244221e+002, 3.448386e+002
3.249042e+002, 3.454593e+002
3.253864e+002, 3.454081e+002
3.258685e+002, 3.450034e+002
3.263506e+002, 3.448505e+002
3.268327e+002, 3.451519e+002
3.273148e+002, 3.457106e+002
3.277969e+002, 3.462531e+002
3.282791e+002, 3.467764e+002
3.287612e+002, 3.473065e+002
3.292433e+002, 3.478531e+002
3.297254e+002, 3.484057e+002
3.302075e+002, 3.489095e+002
3.306896e+002, 3.493550e+002
3.311718e+002, 3.499024e+002
3.316539e+002, 3.508006e+002
3.321360e+002, 3.520811e+002
3.326181e+002, 3.529967e+002
3.331002e+002, 3.529566e+002
3.335823e+002, 3.529683e+002
3.340645e+002, 3.538820e+002
3.345466e+002, 3.556357e+002
3.350287e+002, 3.575446e+002
3.355108e+002, 3.591948e+002
3.359929e+002, 3.605768e+002
3.364750e+002, 3.617011e+002
3.369572e+002, 3.625344e+002
3.374393e+002, 3.631911e+002
3.379214e+002, 3.636357e+002
3.384035e+002, 3.639382e+002
3.388856e+002, 3.642375e+002
3.393677e+002, 3.645821e+002
3.398499e+002, 3.649952e+002
3.403320e+002, 3.655659e+002
3.408141e+002, 3.664120e+002
3.412962e+002, 3.671736e+002
3.417783e+002, 3.676144e+002
3.422604e+002, 3.679935e+002
3.427426e+002, 3.686948e+002
3.432247e+002, 3.698259e+002
3.437068e+002, 3.711160e+002
3.441889e+002, 3.722016e+002
3.446710e+002, 3.730280e+002
3.451531e+002, 3.737546e+002
3.456353e+002, 3.744063e+002
3.461174e+002, 3.749379e+002
3.465995e+002, 3.752603e+002
3.470816e+002, 3.753939e+002
3.475637e+002, 3.755025e+002
3.480458e+002, 3.757334e+002
3.485280e+002, 3.760967e+002
3.490101e+002, 3.763985e+002
3.494922e+002, 3.766399e+002
3.499743e+002, 3.768330e+002
3.504564e+002, 3.769800e+002
3.509385e+002, 3.770822e+002
3.514207e+002, 3.771220e+002
3.519028e+002, 3.770759e+002
3.523849e+002, 3.769880e+002
3.528670e+002, 3.770517e+002
3.533491e+002, 3.776079e+002
3.538312e+002, 3.778950e+002
3.543134e+002, 3.774570e+002
3.547955e+002, 3.768460e+002
3.552776e+002, 3.768697e+002
3.557597e+002, 3.777827e+002
3.562418e+002, 3.789049e+002
3.567239e+002, 3.790346e+002
3.572061e+002, 3.773169e+002
3.576882e+002, 3.763397e+002
3.581703e+002, 3.763981e+002
3.586524e+002, 3.768943e+002
3.591345e+002, 3.775778e+002
3.596166e+002, 3.783352e+002
3.600987e+002, 3.790299e+002
3.605808e+002, 3.795724e+002
3.610630e+002, 3.800015e+002
3.615451e+002, 3.798526e+002
3.620272e+002, 3.784709e+002
3.625093e+002, 3.772290e+002
3.629914e+002, 3.766050e+002
3.634735e+002, 3.764555e+002
3.639557e+002, 3.764882e+002
3.644378e+002, 3.765409e+002
3.649199e+002, 3.765894e+002
3.654020e+002, 3.765325e+002
3.658841e+002, 3.763905e+002
3.663662e+002, 3.760970e+002
3.668484e+002, 3.754403e+002
3.673305e+002, 3.747431e+002
3.678126e+002, 3.744105e+002
3.682947e+002, 3.745464e+002
3.687768e+002, 3.747789e+002
3.692589e+002, 3.744608e+002
3.697411e+002, 3.732682e+002
3.702232e+002, 3.724125e+002
3.707053e+002, 3.722267e+002
3.711874e+002, 3.721165e+002
3.716695e+002, 3.718634e+002
3.721516e+002, 3.714057e+002
3.726338e+002, 3.706747e+002
3.731159e+002, 3.694321e+002
3.735980e+002, 3.677160e+002
3.740801e+002, 3.668514e+002
3.745622e+002, 3.678020e+002
3.750443e+002, 3.684318e+002
3.755265e+002, 3.678578e+002
3.760086e+002, 3.665638e+002
3.764907e+002, 3.653185e+002
3.769728e+002, 3.645008e+002
3.774549e+002, 3.639109e+002
3.779370e+002, 3.630452e+002
3.784192e+002, 3.617170e+002
3.789013e+002, 3.606489e+002
3.793834e+002, 3.602780e+002
3.798655e+002, 3.600961e+002
3.803476e+002, 3.596693e+002
3.808297e+002, 3.589161e+002
3.813119e+002, 3.581966e+002
3.817940e+002, 3.579283e+002
3.822761e+002, 3.581013e+002
3.827582e+002, 3.581994e+002
3.832403e+002, 3.579950e+002
3.837224e+002, 3.579121e+002
3.842046e+002, 3.584251e+002
3.846867e+002, 3.593349e+002
3.851688e+002, 3.599322e+002
3.856509e+002, 3.596259e+002
3.861330e+002, 3.587747e+002
3.866151e+002, 3.582196e+002
3.870973e+002, 3.580521e+002
3.875794e+002, 3.578503e+002
3.880615e+002, 3.572566e+002
3.885436e+002, 3.565038e+002
3.890257e+002, 3.558944e+002
3.895078e+002, 3.554196e+002
3.899900e+002, 3.552150e+002
3.904721e+002, 3.555739e+002
3.909542e+002, 3.564102e+002
3.914363e+002, 3.570077e+002
3.919184e+002, 3.569972e+002
3.924005e+002, 3.568165e+002
3.928827e+002, 3.571928e+002
3.933648e+002, 3.581934e+002
3.938469e+002, 3.588681e+002
3.943290e+002, 3.585829e+002
3.948111e+002, 3.578280e+002
3.952932e+002, 3.573975e+002
3.957754e+002, 3.574217e+002
3.962575e+002, 3.575505e+002
3.967396e+002, 3.574364e+002
3.972217e+002, 3.571250e+002
3.977038e+002, 3.570814e+002
3.981859e+002, 3.574796e+002
3.986681e+002, 3.580181e+002
3.991501e+002, 3.585541e+002
3.996323e+002, 3.590733e+002
4.001144e+002, 3.595528e+002
4.005965e+002, 3.599830e+002
4.010786e+002, 3.603600e+002
4.015607e+002, 3.606450e+002
4.020428e+002, 3.606527e+002
4.025250e+002, 3.608963e+002
4.030071e+002, 3.618075e+002
4.034892e+002, 3.628421e+002
4.039713e+002, 3.631960e+002
4.044534e+002, 3.627344e+002
4.049355e+002, 3.622403e+002
4.054177e+002, 3.626738e+002
4.058998e+002, 3.642793e+002
4.063819e+002, 3.656208e+002
4.068640e+002, 3.667342e+002
4.073461e+002, 3.675869e+002
4.078282e+002, 3.679744e+002
4.083104e+002, 3.680840e+002
4.087925e+002, 3.683642e+002
4.092746e+002, 3.691179e+002
4.097567e+002, 3.702198e+002
4.102388e+002, 3.710930e+002
4.107209e+002, 3.712870e+002
4.112031e+002, 3.718451e+002
4.116852e+002, 3.732861e+002
4.121673e+002, 3.748860e+002
4.126494e+002, 3.759128e+002
4.131315e+002, 3.761991e+002
4.136136e+002, 3.761584e+002
4.140958e+002, 3.762594e+002
4.145779e+002, 3.764261e+002
4.150600e+002, 3.770543e+002
4.155421e+002, 3.788492e+002
4.160242e+002, 3.804554e+002
4.165063e+002, 3.811366e+002
4.169885e+002, 3.811924e+002
4.174706e+002, 3.814074e+002
4.179527e+002, 3.823389e+002
4.184348e+002, 3.837495e+002
4.189169e+002, 3.847971e+002
4.193990e+002, 3.852472e+002
4.198812e+002, 3.858471e+002
4.203633e+002, 3.870433e+002
4.208454e+002, 3.883635e+002
4.213275e+002, 3.893341e+002
4.218096e+002, 3.898335e+002
4.222917e+002, 3.901977e+002
4.227739e+002, 3.907294e+002
4.232560e+002, 3.914230e+002
4.237381e+002, 3.922646e+002
4.242202e+002, 3.935229e+002
4.247023e+002, 3.945299e+002
4.251844e+002, 3.944326e+002
4.256666e+002, 3.935952e+002
4.261487e+002, 3.933692e+002
4.266308e+002, 3.948197e+002
4.271129e+002, 3.969813e+002
4.275950e+002, 3.984279e+002
4.280771e+002, 3.991336e+002
4.285593e+002, 3.995943e+002
4.290414e+002, 3.999683e+002
4.295235e+002, 4.003074e+002
4.300056e+002, 4.007850e+002
4.304877e+002, 4.016321e+002
4.309698e+002, 4.021008e+002
4.314520e+002, 4.015031e+002
4.319341e+002, 4.003161e+002
4.324162e+002, 3.994957e+002
4.328983e+002, 3.992968e+002
4.333804e+002, 3.993833e+002
4.338625e+002, 3.993620e+002
4.343447e+002, 3.991990e+002
4.348268e+002, 3.992895e+002
4.353089e+002, 4.000715e+002
4.357910e+002, 4.007472e+002
4.362731e+002, 4.006364e+002
4.367552e+002, 3.999205e+002
4.372374e+002, 3.993128e+002
4.377195e+002, 3.992534e+002
4.382016e+002, 3.995589e+002
4.386837e+002, 3.995324e+002
4.391658e+002, 3.988538e+002
4.396479e+002, 3.982468e+002
4.401301e+002, 3.977676e+002
4.406122e+002, 3.973786e+002
4.410943e+002, 3.971717e+002
4.415764e+002, 3.971034e+002
4.420585e+002, 3.968462e+002
4.425406e+002, 3.959704e+002
4.430227e+002, 3.943524e+002
4.435049e+002, 3.930173e+002
4.439870e+002, 3.919236e+002
4.444691e+002, 3.911718e+002
4.449512e+002, 3.910250e+002
4.454333e+002, 3.912075e+002
4.459154e+002, 3.913438e+002
4.463976e+002, 3.912691e+002
4.468797e+002, 3.909035e+002
4.473618e+002, 3.899242e+002
4.478439e+002, 3.879535e+002
4.483260e+002, 3.864987e+002
4.488081e+002, 3.861426e+002
4.492903e+002, 3.861640e+002
4.497724e+002, 3.863275e+002
4.502545e+002, 3.865247e+002
4.507366e+002, 3.864258e+002
4.512187e+002, 3.855635e+002
4.517008e+002, 3.841515e+002
4.521830e+002, 3.831891e+002
4.526651e+002, 3.828899e+002
4.531472e+002, 3.825576e+002
4.536293e+002, 3.815408e+002
4.541114e+002, 3.802882e+002
4.545935e+002, 3.795164e+002
4.550757e+002, 3.796436e+002
4.555578e+002, 3.797601e+002
4.560399e+002, 3.790231e+002
4.565220e+002, 3.776031e+002
4.570041e+002, 3.761866e+002
4.574862e+002, 3.748971e+002
4.579684e+002, 3.738251e+002
4.584505e+002, 3.732658e+002
4.589326e+002, 3.732280e+002
4.594147e+002, 3.728233e+002
4.598968e+002, 3.715529e+002
4.603789e+002, 3.701024e+002
4.608611e+002, 3.690228e+002
4.613432e+002, 3.683259e+002
4.618253e+002, 3.678887e+002
4.623074e+002, 3.677233e+002
4.627895e+002, 3.676695e+002
4.632716e+002, 3.670314e+002
4.637538e+002, 3.652339e+002
4.642359e+002, 3.636497e+002
4.647180e+002, 3.624942e+002
4.652001e+002, 3.615771e+002
4.656822e+002, 3.606652e+002
4.661643e+002, 3.597297e+002
4.666465e+002, 3.589859e+002
4.671286e+002, 3.587091e+002
4.676107e+002, 3.589629e+002
4.680928e+002, 3.590320e+002
4.685749e+002, 3.591808e+002
4.690570e+002, 3.588414e+002
4.695392e+002, 3.573286e+002
4.700213e+002, 3.553667e+002
4.705034e+002, 3.540796e+002
4.709855e+002, 3.539785e+002
4.714676e+002, 3.544529e+002
4.719497e+002, 3.544506e+002
4.724319e+002, 3.538905e+002
4.729140e+002, 3.532179e+002
4.733961e+002, 3.525152e+002
4.738782e+002, 3.516904e+002
4.743603e+002, 3.506827e+002
4.748424e+002, 3.495087e+002
4.753246e+002, 3.482076e+002
4.758067e+002, 3.466131e+002
4.762888e+002, 3.449839e+002
4.767709e+002, 3.439011e+002
4.772530e+002, 3.434210e+002
4.777351e+002, 3.431723e+002
4.782173e+002, 3.430928e+002
4.786994e+002, 3.430943e+002
4.791815e+002, 3.430834e+002
4.796636e+002, 3.431203e+002
4.801457e+002, 3.429089e+002
4.806278e+002, 3.420496e+002
4.811100e+002, 3.409025e+002
4.815920e+002, 3.402061e+002
4.820742e+002, 3.401076e+002
4.825563e+002, 3.400236e+002
4.830384e+002, 3.393966e+002
4.835205e+002, 3.382321e+002
4.840026e+002, 3.372755e+002
4.844847e+002, 3.366800e+002
4.849669e+002, 3.361117e+002
4.854490e+002, 3.354227e+002
4.859311e+002, 3.346669e+002
4.864132e+002, 3.339441e+002
4.868953e+002, 3.332892e+002
4.873774e+002, 3.326796e+002
4.878596e+002, 3.320741e+002
4.883417e+002, 3.314113e+002
4.888238e+002, 3.309196e+002
4.893059e+002, 3.307348e+002
4.897880e+002, 3.305638e+002
4.902701e+002, 3.302274e+002
4.907523e+002, 3.297923e+002
4.912344e+002, 3.294652e+002
4.917165e+002, 3.294028e+002
4.921986e+002, 3.294418e+002
4.926807e+002, 3.290638e+002
4.931628e+002, 3.280315e+002
4.936450e+002, 3.272451e+002
4.941271e+002, 3.271751e+002
4.946092e+002, 3.272167e+002
4.950913e+002, 3.268508e+002
4.955734e+002, 3.261131e+002
4.960555e+002, 3.256103e+002
4.965377e+002, 3.261550e+002
4.970198e+002, 3.272239e+002
4.975019e+002, 3.271875e+002
4.979840e+002, 3.257489e+002
4.984661e+002, 3.244681e+002
4.989482e+002, 3.243797e+002
4.994304e+002, 3.249280e+002
4.999125e+002, 3.249953e+002
5.003946e+002, 3.243101e+002
5.008767e+002, 3.236740e+002
5.013588e+002, 3.236085e+002
5.018409e+002, 3.238256e+002
5.023231e+002, 3.237646e+002
5.028052e+002, 3.233089e+002
5.032873e+002, 3.228171e+002
5.037694e+002, 3.226335e+002
5.042515e+002, 3.227715e+002
5.047336e+002, 3.228854e+002
5.052158e+002, 3.230268e+002
5.056979e+002, 3.230914e+002
5.061800e+002, 3.230539e+002
5.066621e+002, 3.229125e+002
5.071442e+002, 3.226200e+002
5.076263e+002, 3.221691e+002
5.081085e+002, 3.216935e+002
5.085906e+002, 3.213334e+002
5.090727e+002, 3.209252e+002
5.095548e+002, 3.212238e+002
5.100369e+002, 3.235677e+002
5.105190e+002, 3.252742e+002
5.110012e+002, 3.249203e+002
5.114833e+002, 3.232287e+002
5.119654e+002, 3.215705e+002
5.124475e+002, 3.205536e+002
5.129296e+002, 3.201356e+002
5.134117e+002, 3.205101e+002
5.138939e+002, 3.218712e+002
5.143760e+002, 3.225087e+002
5.148581e+002, 3.216189e+002
5.153402e+002, 3.203006e+002
5.158223e+002, 3.194215e+002
5.163044e+002, 3.189516e+002
5.167866e+002, 3.186065e+002
5.172687e+002, 3.183070e+002
5.177508e+002, 3.180435e+002
5.182329e+002, 3.177956e+002
5.187150e+002, 3.175658e+002
5.191971e+002, 3.173985e+002
5.196793e+002, 3.173424e+002
5.201614e+002, 3.173283e+002
5.206435e+002, 3.172022e+002
5.211256e+002, 3.169677e+002
5.216077e+002, 3.166424e+002
5.220898e+002, 3.163163e+002
5.225720e+002, 3.158404e+002
5.230541e+002, 3.149283e+002
5.235362e+002, 3.136828e+002
5.240183e+002, 3.126039e+002
5.245004e+002, 3.120814e+002
5.249825e+002, 3.119938e+002
5.254647e+002, 3.116828e+002
5.259468e+002, 3.106638e+002
5.264289e+002, 3.101410e+002
5.269110e+002, 3.106699e+002
5.273931e+002, 3.113940e+002
5.278752e+002, 3.115856e+002
5.283574e+002, 3.111923e+002
5.288395e+002, 3.106898e+002
5.293216e+002, 3.106399e+002
5.298037e+002, 3.108701e+002
5.302858e+002, 3.101362e+002
5.307679e+002, 3.078495e+002
5.312501e+002, 3.059737e+002
5.317322e+002, 3.058259e+002
5.322143e+002, 3.063007e+002
5.326964e+002, 3.062530e+002
5.331785e+002, 3.054513e+002
5.336606e+002, 3.045746e+002
5.341428e+002, 3.041514e+002
5.346249e+002, 3.039516e+002
5.351070e+002, 3.033424e+002
5.355891e+002, 3.021964e+002
5.360712e+002, 3.012977e+002
5.365533e+002, 3.013590e+002
5.370355e+002, 3.021954e+002
5.375176e+002, 3.025913e+002
5.379997e+002, 3.023401e+002
5.384818e+002, 3.019479e+002
5.389639e+002, 3.014862e+002
5.394460e+002, 3.009941e+002
5.399282e+002, 3.005409e+002
5.404103e+002, 3.001315e+002
5.408924e+002, 2.996776e+002
5.413745e+002, 2.990810e+002
5.418566e+002, 2.983373e+002
5.423387e+002, 2.976070e+002
5.428209e+002, 2.967113e+002
5.433029e+002, 2.960616e+002
5.437850e+002, 2.958962e+002
5.442672e+002, 2.959445e+002
5.447493e+002, 2.959316e+002
5.452314e+002, 2.957783e+002
5.457135e+002, 2.955269e+002
5.461956e+002, 2.951865e+002
5.466777e+002, 2.947680e+002
5.471599e+002, 2.944200e+002
5.476420e+002, 2.941733e+002
5.481241e+002, 2.939501e+002
5.486062e+002, 2.936774e+002
5.490883e+002, 2.934031e+002
5.495704e+002, 2.932220e+002
5.500526e+002, 2.932110e+002
5.505347e+002, 2.931660e+002
5.510168e+002, 2.928427e+002
5.514989e+002, 2.924129e+002
5.519810e+002, 2.923792e+002
5.524631e+002, 2.928619e+002
5.529453e+002, 2.931334e+002
5.534274e+002, 2.924128e+002
5.539095e+002, 2.906907e+002
5.543916e+002, 2.895049e+002
5.548737e+002, 2.892503e+002
5.553558e+002, 2.889718e+002
5.558380e+002, 2.883384e+002
5.563201e+002, 2.875633e+002
5.568022e+002, 2.869430e+002
5.572843e+002, 2.865416e+002
5.577664e+002, 2.861909e+002
5.582485e+002, 2.856831e+002
5.587307e+002, 2.850135e+002
5.592128e+002, 2.844130e+002
5.596949e+002, 2.839894e+002
5.601770e+002, 2.834839e+002
5.606591e+002, 2.828862e+002
5.611412e+002, 2.821368e+002
5.616234e+002, 2.810466e+002
5.621055e+002, 2.795276e+002
5.625876e+002, 2.781566e+002
5.630697e+002, 2.775477e+002
5.635518e+002, 2.775001e+002
5.640339e+002, 2.773723e+002
5.645161e+002, 2.771007e+002
5.649982e+002, 2.766881e+002
5.654803e+002, 2.760966e+002
5.659624e+002, 2.753587e+002
5.664445e+002, 2.746415e+002
5.669266e+002, 2.738689e+002
5.674088e+002, 2.732239e+002
5.678909e+002, 2.729467e+002
5.683730e+002, 2.727481e+002
5.688551e+002, 2.721504e+002
5.693372e+002, 2.711335e+002
5.698193e+002, 2.701897e+002
5.703015e+002, 2.698060e+002
5.707836e+002, 2.699493e+002
5.712657e+002, 2.700222e+002
5.717478e+002, 2.701828e+002
5.722299e+002, 2.700369e+002
5.727120e+002, 2.691887e+002
5.731942e+002, 2.682291e+002
5.736763e+002, 2.677596e+002
5.741584e+002, 2.678388e+002
5.746405e+002, 2.680055e+002
5.751226e+002, 2.678903e+002
5.756047e+002, 2.675320e+002
5.760869e+002, 2.670394e+002
5.765690e+002, 2.663511e+002
5.770511e+002, 2.657929e+002
5.775332e+002, 2.656139e+002
5.780153e+002, 2.656090e+002
5.784974e+002, 2.654022e+002
5.789796e+002, 2.649063e+002
5.794617e+002, 2.645780e+002
5.799438e+002, 2.648617e+002
5.804259e+002, 2.652426e+002
5.809080e+002, 2.650590e+002
5.813901e+002, 2.643324e+002
5.818723e+002, 2.635597e+002
5.823544e+002, 2.630493e+002
5.828365e+002, 2.627336e+002
5.833186e+002, 2.623763e+002
5.838007e+002, 2.619256e+002
5.842828e+002, 2.615142e+002
5.847650e+002, 2.612362e+002
5.852471e+002, 2.609198e+002
5.857292e+002, 2.603726e+002
5.862113e+002, 2.596761e+002
5.866934e+002, 2.591008e+002
5.871755e+002, 2.588361e+002
5.876577e+002, 2.587597e+002
5.881398e+002, 2.585995e+002
5.886219e+002, 2.583426e+002
5.891040e+002, 2.580757e+002
5.895861e+002, 2.577425e+002
5.900682e+002, 2.574930e+002
5.905504e+002, 2.574971e+002
5.910325e+002, 2.577185e+002
5.915146e+002, 2.579281e+002
5.919967e+002, 2.582059e+002
5.924788e+002, 2.583177e+002
5.929609e+002, 2.579400e+002
5.934431e+002, 2.572212e+002
5.939252e+002, 2.565763e+002
5.944073e+002, 2.561515e+002
5.948894e+002, 2.559091e+002
5.953715e+002, 2.558004e+002
5.958536e+002, 2.558335e+002
5.963358e+002, 2.559770e+002
5.968179e+002, 2.564768e+002
5.973000e+002, 2.567998e+002
5.977821e+002, 2.565326e+002
5.982642e+002, 2.560535e+002
5.987463e+002, 2.560816e+002
5.992285e+002, 2.568282e+002
5.997106e+002, 2.574268e+002
6.001927e+002, 2.564851e+002
6.006748e+002, 2.540853e+002
6.011569e+002, 2.527262e+002
6.016390e+002, 2.528651e+002
6.021212e+002, 2.533014e+002
6.026033e+002, 2.534619e+002
6.030854e+002, 2.534541e+002
6.035675e+002, 2.534415e+002
6.040496e+002, 2.534863e+002
6.045317e+002, 2.533981e+002
6.050139e+002, 2.529646e+002
6.054960e+002, 2.523898e+002
6.059781e+002, 2.519740e+002
6.064602e+002, 2.517485e+002
6.069423e+002, 2.515762e+002
6.074244e+002, 2.513516e+002
6.079066e+002, 2.511139e+002
6.083887e+002, 2.510418e+002
6.088708e+002, 2.513657e+002
6.093529e+002, 2.515293e+002
6.098350e+002, 2.514822e+002
6.103171e+002, 2.513006e+002
6.107993e+002, 2.510423e+002
6.112814e+002, 2.507011e+002
6.117635e+002, 2.502166e+002
6.122456e+002, 2.495082e+002
6.127277e+002, 2.487022e+002
6.132098e+002, 2.479954e+002
6.136920e+002, 2.473652e+002
6.141741e+002, 2.471025e+002
6.146562e+002, 2.474956e+002
6.151383e+002, 2.479902e+002
6.156204e+002, 2.480177e+002
6.161025e+002, 2.476447e+002
6.165847e+002, 2.472218e+002
6.170668e+002, 2.467654e+002
6.175489e+002, 2.463340e+002
6.180310e+002, 2.460078e+002
6.185131e+002, 2.457265e+002
6.189952e+002, 2.453158e+002
6.194774e+002, 2.447333e+002
6.199595e+002, 2.442099e+002
6.204416e+002, 2.440475e+002
6.209237e+002, 2.442813e+002
6.214058e+002, 2.443422e+002
6.218879e+002, 2.442009e+002
6.223701e+002, 2.439092e+002
6.228522e+002, 2.433591e+002
6.233343e+002, 2.427358e+002
6.238164e+002, 2.422669e+002
6.242985e+002, 2.419822e+002
6.247806e+002, 2.416529e+002
6.252628e+002, 2.409657e+002
6.257448e+002, 2.401122e+002
6.262269e+002, 2.396889e+002
6.267090e+002, 2.397486e+002
6.271912e+002, 2.397406e+002
6.276733e+002, 2.394295e+002
6.281554e+002, 2.388902e+002
6.286375e+002, 2.381321e+002
6.291196e+002, 2.369910e+002
6.296017e+002, 2.363962e+002
6.300839e+002, 2.369453e+002
6.305660e+002, 2.376679e+002
6.310481e+002, 2.379051e+002
6.315302e+002, 2.377618e+002
6.320123e+002, 2.375874e+002
6.324944e+002, 2.375423e+002
6.329766e+002, 2.375930e+002
6.334587e+002, 2.377669e+002
6.339408e+002, 2.381793e+002
6.344229e+002, 2.380836e+002
6.349050e+002, 2.369447e+002
6.353871e+002, 2.359878e+002
6.358693e+002, 2.359163e+002
6.363514e+002, 2.362925e+002
6.368335e+002, 2.364587e+002
6.373156e+002, 2.362450e+002
6.377977e+002, 2.358813e+002
6.382798e+002, 2.354536e+002
6.387620e+002, 2.350145e+002
6.392441e+002, 2.346491e+002
6.397262e+002, 2.343706e+002
6.402083e+002, 2.341692e+002
6.406904e+002, 2.340305e+002
6.411725e+002, 2.339738e+002
6.416547e+002, 2.340693e+002
6.421368e+002, 2.347008e+002
6.426189e+002, 2.348994e+002
6.431010e+002, 2.342543e+002
6.435831e+002, 2.335431e+002
6.440652e+002, 2.332368e+002
6.445474e+002, 2.332830e+002
6.450295e+002, 2.334626e+002
6.455116e+002, 2.336960e+002
6.459937e+002, 2.338422e+002
6.464758e+002, 2.335793e+002
6.469579e+002, 2.329123e+002
6.474401e+002, 2.324294e+002
6.479222e+002, 2.321986e+002
6.484043e+002, 2.322101e+002
6.488864e+002, 2.325279e+002
6.493685e+002, 2.330919e+002
6.498506e+002, 2.337295e+002
6.503328e+002, 2.347341e+002
6.508149e+002, 2.353398e+002
6.512970e+002, 2.348165e+002
6.517791e+002, 2.339668e+002
6.522612e+002, 2.337647e+002
6.527433e+002, 2.342891e+002
6.532255e+002, 2.350843e+002
6.537076e+002, 2.358510e+002
6.541897e+002, 2.365417e+002
6.546718e+002, 2.369619e+002
6.551539e+002, 2.369973e+002
6.556360e+002, 2.370329e+002
6.561182e+002, 2.369908e+002
6.566003e+002, 2.370742e+002
6.570824e+002, 2.374126e+002
6.575645e+002, 2.379744e+002
6.580466e+002, 2.386796e+002
6.585287e+002, 2.396743e+002
6.590109e+002, 2.405188e+002
6.594930e+002, 2.406233e+002
6.599751e+002, 2.402480e+002
6.604572e+002, 2.401127e+002
6.609393e+002, 2.403726e+002
6.614214e+002, 2.408733e+002
6.619036e+002, 2.415554e+002
6.623857e+002, 2.423729e+002
6.628678e+002, 2.428107e+002
6.633499e+002, 2.424693e+002
6.638320e+002, 2.422773e+002
6.643141e+002, 2.423139e+002
6.647963e+002, 2.425318e+002
6.652784e+002, 2.430144e+002
6.657605e+002, 2.436619e+002
6.662426e+002, 2.441555e+002
6.667247e+002, 2.442479e+002
6.672068e+002, 2.441655e+002
6.676890e+002, 2.444337e+002
6.681711e+002, 2.450317e+002
6.686532e+002, 2.451427e+002
6.691353e+002, 2.444032e+002
6.696174e+002, 2.435784e+002
6.700995e+002, 2.434908e+002
6.705817e+002, 2.440388e+002
6.710638e+002, 2.441559e+002
6.715459e+002, 2.437150e+002
6.720280e+002, 2.429756e+002
6.725101e+002, 2.417935e+002
6.729922e+002, 2.404896e+002
6.734744e+002, 2.394832e+002
6.739565e+002, 2.387589e+002
6.744386e+002, 2.378672e+002
6.749207e+002, 2.363757e+002
6.754028e+002, 2.346030e+002
6.758849e+002, 2.337226e+002
6.763671e+002, 2.340297e+002
6.768492e+002, 2.338986e+002
6.773313e+002, 2.327056e+002
6.778134e+002, 2.313227e+002
6.782955e+002, 2.305173e+002
6.787776e+002, 2.301185e+002
6.792598e+002, 2.295094e+002
6.797419e+002, 2.283340e+002
6.802240e+002, 2.271933e+002
6.807061e+002, 2.265241e+002
6.811882e+002, 2.260872e+002
6.816703e+002, 2.254751e+002
6.821525e+002, 2.246371e+002
6.826346e+002, 2.238242e+002
6.831167e+002, 2.232605e+002
6.835988e+002, 2.228699e+002
6.840809e+002, 2.222380e+002
6.845630e+002, 2.211474e+002
6.850452e+002, 2.202960e+002
6.855273e+002, 2.200680e+002
6.860094e+002, 2.198521e+002
6.864915e+002, 2.191649e+002
6.869736e+002, 2.181883e+002
6.874557e+002, 2.175246e+002
6.879379e+002, 2.175799e+002
6.884200e+002, 2.176980e+002
6.889021e+002, 2.171573e+002
6.893842e+002, 2.162568e+002
6.898663e+002, 2.158336e+002
6.903484e+002, 2.160171e+002
6.908306e+002, 2.159606e+002
6.913127e+002, 2.148966e+002
6.917948e+002, 2.131159e+002
6.922769e+002, 2.120852e+002
6.927590e+002, 2.125011e+002
6.932411e+002, 2.125672e+002
6.937233e+002, 2.119751e+002
6.942054e+002, 2.112435e+002
6.946875e+002, 2.106341e+002
6.951696e+002, 2.101497e+002
6.956517e+002, 2.097299e+002
6.961339e+002, 2.093642e+002
6.966160e+002, 2.090061e+002
6.970981e+002, 2.085334e+002
6.975802e+002, 2.080191e+002
6.980623e+002, 2.077764e+002
6.985444e+002, 2.078752e+002
6.990266e+002, 2.079156e+002
6.995087e+002, 2.075805e+002
6.999908e+002, 2.069919e+002
7.004729e+002, 2.066260e+002
7.009550e+002, 2.067711e+002
7.014371e+002, 2.066943e+002
7.019193e+002, 2.061279e+002
7.024014e+002, 2.055752e+002
7.028835e+002, 2.054795e+002
7.033656e+002, 2.056202e+002
7.038477e+002, 2.054706e+002
7.043298e+002, 2.047917e+002
7.048120e+002, 2.039038e+002
7.052941e+002, 2.031435e+002
7.057762e+002, 2.025124e+002
7.062583e+002, 2.020046e+002
7.067404e+002, 2.016193e+002
7.072225e+002, 2.013916e+002
7.077046e+002, 2.013960e+002
7.081867e+002, 2.015313e+002
7.086688e+002, 2.015327e+002
7.091509e+002, 2.013333e+002
7.096331e+002, 2.011765e+002
7.101152e+002, 2.012431e+002
7.105973e+002, 2.011921e+002
7.110794e+002, 2.007249e+002
7.115615e+002, 2.000210e+002
7.120436e+002, 1.994362e+002
7.125258e+002, 1.990925e+002
7.130079e+002, 1.987698e+002
7.134900e+002, 1.980993e+002
7.139721e+002, 1.971935e+002
7.144542e+002, 1.967325e+002
7.149363e+002, 1.968109e+002
7.154185e+002, 1.968623e+002
7.159006e+002, 1.966036e+002
7.163827e+002, 1.962082e+002
7.168648e+002, 1.960146e+002
7.173469e+002, 1.961016e+002
7.178290e+002, 1.959122e+002
7.183112e+002, 1.951665e+002
7.187933e+002, 1.943850e+002
7.192754e+002, 1.936850e+002
7.197575e+002, 1.931722e+002
7.202396e+002, 1.930500e+002
7.207217e+002, 1.933285e+002
7.212039e+002, 1.936695e+002
7.216860e+002, 1.937337e+002
7.221681e+002, 1.935954e+002
7.226502e+002, 1.935594e+002
7.231323e+002, 1.936435e+002
7.236144e+002, 1.936959e+002
7.240966e+002, 1.937142e+002
7.245787e+002, 1.936143e+002
7.250608e+002, 1.932376e+002
7.255429e+002, 1.925892e+002
7.260250e+002, 1.920600e+002
7.265071e+002, 1.915527e+002
7.269893e+002, 1.913088e+002
7.274714e+002, 1.917237e+002
7.279535e+002, 1.922665e+002
7.284356e+002, 1.922449e+002
7.289177e+002, 1.916633e+002
7.293998e+002, 1.911190e+002
7.298820e+002, 1.910712e+002
7.303641e+002, 1.913028e+002
7.308462e+002, 1.912889e+002
7.313283e+002, 1.910162e+002
7.318104e+002, 1.908816e+002
7.322925e+002, 1.910340e+002
7.327747e+002, 1.911599e+002
7.332568e+002, 1.909226e+002
7.337389e+002, 1.904259e+002
7.342210e+002, 1.902304e+002
7.347031e+002, 1.906897e+002
7.351852e+002, 1.908997e+002
7.356674e+002, 1.904162e+002
7.361495e+002, 1.898219e+002
7.366316e+002, 1.895693e+002
7.371137e+002, 1.896372e+002
7.375958e+002, 1.898626e+002
7.380779e+002, 1.901884e+002
7.385601e+002, 1.904246e+002
7.390422e+002, 1.902434e+002
7.395243e+002, 1.896863e+002
7.400064e+002, 1.890687e+002
7.404885e+002, 1.883389e+002
7.409706e+002, 1.879360e+002
7.414528e+002, 1.882542e+002
7.419349e+002, 1.889525e+002
7.424170e+002, 1.892518e+002
7.428991e+002, 1.890185e+002
7.433812e+002, 1.888958e+002
7.438633e+002, 1.890455e+002
7.443455e+002, 1.892049e+002
7.448276e+002, 1.892935e+002
7.453097e+002, 1.892794e+002
7.457918e+002, 1.890465e+002
7.462739e+002, 1.885982e+002
7.467560e+002, 1.882590e+002
7.472382e+002, 1.885298e+002
7.477203e+002, 1.891238e+002
7.482024e+002, 1.890496e+002
7.486845e+002, 1.882878e+002
7.491666e+002, 1.876341e+002
7.496487e+002, 1.873043e+002
7.501309e+002, 1.873090e+002
7.506130e+002, 1.877539e+002
7.510951e+002, 1.886735e+002
7.515772e+002, 1.893203e+002
7.520593e+002, 1.897446e+002
7.525414e+002, 1.898513e+002
7.530236e+002, 1.891734e+002
7.535057e+002, 1.884878e+002
7.539878e+002, 1.887135e+002
7.544699e+002, 1.896658e+002
7.549520e+002, 1.902923e+002
7.554341e+002, 1.899262e+002
7.559163e+002, 1.891053e+002
7.563984e+002, 1.884090e+002
7.568805e+002, 1.878855e+002
7.573626e+002, 1.879038e+002
7.578447e+002, 1.885664e+002
7.583268e+002, 1.890528e+002
7.588090e+002, 1.886954e+002
7.592911e+002, 1.878138e+002
7.597732e+002, 1.874867e+002
7.602553e+002, 1.881419e+002
7.607374e+002, 1.885868e+002
7.612195e+002, 1.887803e+002
7.617017e+002, 1.888292e+002
7.621838e+002, 1.888608e+002
7.626659e+002, 1.887574e+002
7.631480e+002, 1.882085e+002
7.636301e+002, 1.871055e+002
7.641122e+002, 1.861695e+002
7.645944e+002, 1.860543e+002
7.650765e+002, 1.863797e+002
7.655586e+002, 1.865686e+002
7.660407e+002, 1.866259e+002
7.665228e+002, 1.868177e+002
7.670049e+002, 1.872718e+002
7.674871e+002, 1.875390e+002
7.679692e+002, 1.869056e+002
7.684513e+002, 1.852951e+002
7.689334e+002, 1.846363e+002
7.694155e+002, 1.856196e+002
7.698976e+002, 1.864263e+002
7.703798e+002, 1.866623e+002
7.708619e+002, 1.865782e+002
7.713440e+002, 1.861793e+002
7.718261e+002, 1.855817e+002
7.723082e+002, 1.852634e+002
7.727903e+002, 1.855435e+002
7.732725e+002, 1.859461e+002
7.737546e+002, 1.862561e+002
7.742367e+002, 1.864247e+002
7.747188e+002, 1.863512e+002
7.752009e+002, 1.860428e+002
7.756830e+002, 1.855658e+002
7.761652e+002, 1.849290e+002
7.766473e+002, 1.843109e+002
7.771294e+002, 1.842223e+002
7.776115e+002, 1.847896e+002
7.780936e+002, 1.850124e+002
7.785757e+002, 1.846235e+002
7.790579e+002, 1.842696e+002
7.795400e+002, 1.844782e+002
7.800221e+002, 1.848629e+002
7.805042e+002, 1.847039e+002
7.809863e+002, 1.838219e+002
7.814684e+002, 1.831899e+002
7.819506e+002, 1.832503e+002
7.824327e+002, 1.834238e+002
7.829148e+002, 1.833614e+002
7.833969e+002, 1.831449e+002
7.838790e+002, 1.829458e+002
7.843611e+002, 1.828078e+002
7.848433e+002, 1.826506e+002
7.853254e+002, 1.823426e+002
7.858075e+002, 1.819940e+002
7.862896e+002, 1.820993e+002
7.867717e+002, 1.826719e+002
7.872538e+002, 1.826265e+002
7.877360e+002, 1.814881e+002
7.882181e+002, 1.802979e+002
7.887002e+002, 1.800853e+002
7.891823e+002, 1.807098e+002
7.896644e+002, 1.809818e+002
7.901465e+002, 1.806789e+002
7.906286e+002, 1.803630e+002
7.911107e+002, 1.799464e+002
7.915928e+002, 1.796482e+002
7.920750e+002, 1.797864e+002
7.925571e+002, 1.801179e+002
7.930392e+002, 1.800789e+002
7.935213e+002, 1.794279e+002
7.940034e+002, 1.787351e+002
7.944855e+002, 1.785568e+002
7.949677e+002, 1.786537e+002
7.954498e+002, 1.786058e+002
7.959319e+002, 1.783965e+002
7.964140e+002, 1.781136e+002
7.968961e+002, 1.777902e+002
7.973782e+002, 1.774268e+002
7.978604e+002, 1.770144e+002
7.983425e+002, 1.765450e+002
7.988246e+002, 1.761402e+002
7.993067e+002, 1.757853e+002
7.997888e+002, 1.755167e+002
8.002709e+002, 1.754796e+002
8.007531e+002, 1.754244e+002
8.012352e+002, 1.751127e+002
8.017173e+002, 1.745995e+002
8.021994e+002, 1.741780e+002
8.026815e+002, 1.738941e+002
8.031636e+002, 1.737617e+002
8.036458e+002, 1.739849e+002
8.041279e+002, 1.742439e+002
8.046100e+002, 1.741096e+002
8.050921e+002, 1.736311e+002
8.055742e+002, 1.731355e+002
8.060563e+002, 1.728006e+002
8.065385e+002, 1.725570e+002
8.070206e+002, 1.723421e+002
8.075027e+002, 1.721441e+002
8.079848e+002, 1.717207e+002
8.084669e+002, 1.709723e+002
8.089490e+002, 1.704761e+002
8.094312e+002, 1.705759e+002
8.099133e+002, 1.709427e+002
8.103954e+002, 1.711206e+002
8.108775e+002, 1.711008e+002
8.113596e+002, 1.709089e+002
8.118417e+002, 1.704984e+002
8.123239e+002, 1.699805e+002
8.128060e+002, 1.691315e+002
8.132881e+002, 1.683716e+002
8.137702e+002, 1.682673e+002
8.142523e+002, 1.686794e+002
8.147344e+002, 1.688435e+002
8.152166e+002, 1.682670e+002
8.156987e+002, 1.675393e+002
8.161808e+002, 1.673119e+002
8.166629e+002, 1.673907e+002
8.171450e+002, 1.673902e+002
8.176271e+002, 1.672506e+002
8.181093e+002, 1.669209e+002
8.185914e+002, 1.663409e+002
8.190735e+002, 1.657340e+002
8.195556e+002, 1.655852e+002
8.200377e+002, 1.660034e+002
8.205198e+002, 1.661623e+002
8.210020e+002, 1.658816e+002
8.214841e+002, 1.656831e+002
8.219662e+002, 1.659070e+002
8.224483e+002, 1.662039e+002
8.229304e+002, 1.661729e+002
8.234125e+002, 1.658203e+002
8.238947e+002, 1.654552e+002
8.243768e+002, 1.651148e+002
8.248589e+002, 1.648061e+002
8.253410e+002, 1.645153e+002
8.258231e+002, 1.642696e+002
8.263052e+002, 1.640995e+002
8.267874e+002, 1.640067e+002
8.272695e+002, 1.640219e+002
8.277516e+002, 1.642061e+002
8.282337e+002, 1.642983e+002
8.287158e+002, 1.638198e+002
8.291979e+002, 1.629192e+002
8.296801e+002, 1.621958e+002
8.301622e+002, 1.617054e+002
8.306443e+002, 1.613683e+002
8.311264e+002, 1.611528e+002
8.316085e+002, 1.610577e+002
8.320906e+002, 1.610955e+002
8.325728e+002, 1.612885e+002
8.330549e+002, 1.614472e+002
8.335370e+002, 1.616808e+002
8.340191e+002, 1.617114e+002
8.345012e+002, 1.613136e+002
8.349833e+002, 1.608321e+002
8.354655e+002, 1.606085e+002
8.359476e+002, 1.605789e+002
8.364297e+002, 1.603341e+002
8.369118e+002, 1.594746e+002
8.373939e+002, 1.588191e+002
8.378760e+002, 1.589505e+002
8.383582e+002, 1.594337e+002
8.388403e+002, 1.599223e+002
8.393224e+002, 1.602832e+002
8.398045e+002, 1.602544e+002
8.402866e+002, 1.597095e+002
8.407687e+002, 1.590833e+002
8.412509e+002, 1.590538e+002
8.417330e+002, 1.594954e+002
8.422151e+002, 1.597054e+002
8.426972e+002, 1.596711e+002
8.431793e+002, 1.593726e+002
8.436614e+002, 1.587129e+002
8.441436e+002, 1.580390e+002
8.446257e+002, 1.577691e+002
8.451078e+002, 1.578919e+002
8.455899e+002, 1.579923e+002
8.460720e+002, 1.581051e+002
8.465541e+002, 1.581370e+002
8.470363e+002, 1.581269e+002
8.475184e+002, 1.579903e+002
8.480005e+002, 1.575882e+002
8.484826e+002, 1.570332e+002
8.489647e+002, 1.565708e+002
8.494468e+002, 1.562702e+002
8.499290e+002, 1.560344e+002
8.504111e+002, 1.558537e+002
8.508932e+002, 1.556783e+002
8.513753e+002, 1.554660e+002
8.518574e+002, 1.552151e+002
8.523395e+002, 1.549509e+002
8.528217e+002, 1.546738e+002
8.533038e+002, 1.542895e+002
8.537859e+002, 1.536423e+002
8.542680e+002, 1.528786e+002
8.547501e+002, 1.525155e+002
8.552322e+002, 1.525521e+002
8.557144e+002, 1.525205e+002
8.561965e+002, 1.523151e+002
8.566786e+002, 1.520908e+002
8.571607e+002, 1.519690e+002
8.576428e+002, 1.519117e+002
8.581249e+002, 1.517871e+002
8.586071e+002, 1.514836e+002
8.590892e+002, 1.513565e+002
8.595713e+002, 1.516653e+002
8.600534e+002, 1.518408e+002
8.605355e+002, 1.516122e+002
8.610176e+002, 1.511794e+002
8.614998e+002, 1.507378e+002
8.619819e+002, 1.503218e+002
8.624640e+002, 1.500228e+002
8.629461e+002, 1.499685e+002
8.634282e+002, 1.499407e+002
8.639103e+002, 1.498051e+002
8.643925e+002, 1.495959e+002
8.648746e+002, 1.493321e+002
8.653567e+002, 1.490407e+002
8.658388e+002, 1.488061e+002
8.663209e+002, 1.486813e+002
8.668030e+002, 1.486013e+002
8.672852e+002, 1.484324e+002
8.677673e+002, 1.482128e+002
8.682494e+002, 1.482024e+002
8.687315e+002, 1.484261e+002
8.692136e+002, 1.484878e+002
8.696957e+002, 1.481815e+002
8.701779e+002, 1.477856e+002
8.706600e+002, 1.476616e+002
8.711421e+002, 1.478104e+002
8.716242e+002, 1.480976e+002
8.721063e+002, 1.487234e+002
8.725884e+002, 1.491339e+002
8.730705e+002, 1.488564e+002
8.735526e+002, 1.486916e+002
8.740347e+002, 1.493404e+002
8.745168e+002, 1.504435e+002
8.749990e+002, 1.510809e+002
8.754811e+002, 1.509370e+002
8.759632e+002, 1.508322e+002
8.764453e+002, 1.509397e+002
8.769274e+002, 1.512947e+002
8.774095e+002, 1.520470e+002
8.778917e+002, 1.530195e+002
8.783738e+002, 1.539082e+002
8.788559e+002, 1.546553e+002
8.793380e+002, 1.554690e+002
8.798201e+002, 1.565738e+002
8.803022e+002, 1.577644e+002
8.807844e+002, 1.586134e+002
8.812665e+002, 1.592557e+002
8.817486e+002, 1.601674e+002
8.822307e+002, 1.614235e+002
8.827128e+002, 1.629433e+002
8.831949e+002, 1.647096e+002
8.836771e+002, 1.665409e+002
8.841592e+002, 1.679877e+002
8.846413e+002, 1.689572e+002
8.851234e+002, 1.702817e+002
8.856055e+002, 1.720984e+002
8.860876e+002, 1.739214e+002
8.865698e+002, 1.754685e+002
8.870519e+002, 1.770708e+002
8.875340e+002, 1.791955e+002
8.880161e+002, 1.817993e+002
8.884982e+002, 1.842927e+002
8.889803e+002, 1.869094e+002
8.894625e+002, 1.890581e+002
8.899446e+002, 1.906687e+002
8.904267e+002, 1.917636e+002
8.909088e+002, 1.922178e+002
8.913909e+002, 1.922041e+002
8.918730e+002, 1.921246e+002
8.923552e+002, 1.921128e+002
8.928373e+002, 1.915155e+002
8.933194e+002, 1.899675e+002
8.938015e+002, 1.875820e+002
8.942836e+002, 1.841406e+002
8.947657e+002, 1.800572e+002
8.952479e+002, 1.761667e+002
8.957300e+002, 1.726572e+002
8.962121e+002, 1.692012e+002
8.966942e+002, 1.655384e+002
8.971763e+002, 1.619255e+002
8.976584e+002, 1.589008e+002
8.981406e+002, 1.564413e+002
8.986227e+002, 1.542742e+002
8.991048e+002, 1.524043e+002
8.995869e+002, 1.504807e+002
9.000690e+002, 1.482553e+002
9.005511e+002, 1.460956e+002
9.010333e+002, 1.445532e+002
9.015154e+002, 1.436490e+002
9.019975e+002, 1.429216e+002
9.024796e+002, 1.425803e+002
9.029617e+002, 1.420158e+002
9.034438e+002, 1.407473e+002
9.039260e+002, 1.395850e+002
9.044081e+002, 1.392637e+002
9.048902e+002, 1.394506e+002
9.053723e+002, 1.392619e+002
9.058544e+002, 1.384290e+002
9.063365e+002, 1.377287e+002
9.068187e+002, 1.374343e+002
9.073008e+002, 1.372370e+002
9.077829e+002, 1.369585e+002
9.082650e+002, 1.366631e+002
9.087471e+002, 1.364598e+002
9.092292e+002, 1.363587e+002
9.097114e+002, 1.362876e+002
9.101935e+002, 1.362587e+002
9.106756e+002, 1.361548e+002
9.111577e+002, 1.358005e+002
9.116398e+002, 1.353074e+002
9.121219e+002, 1.348548e+002
9.126041e+002, 1.344735e+002
9.130862e+002, 1.341932e+002
9.135683e+002, 1.340288e+002
9.140504e+002, 1.338427e+002
9.145325e+002, 1.333866e+002
9.150146e+002, 1.327413e+002
9.154968e+002, 1.323749e+002
9.159789e+002, 1.322955e+002
9.164610e+002, 1.322624e+002
9.169431e+002, 1.322012e+002
9.174252e+002, 1.322778e+002
9.179073e+002, 1.327379e+002
9.183895e+002, 1.333516e+002
9.188716e+002, 1.332220e+002
9.193537e+002, 1.318678e+002
9.198358e+002, 1.309972e+002
9.203179e+002, 1.308502e+002
9.208000e+002, 1.308470e+002
9.212822e+002, 1.308141e+002
9.217643e+002, 1.307756e+002
9.222464e+002, 1.307866e+002
9.227285e+002, 1.308396e+002
9.232106e+002, 1.307812e+002
9.236927e+002, 1.303466e+002
9.241749e+002, 1.301266e+002
9.246570e+002, 1.305871e+002
9.251391e+002, 1.310562e+002
9.256212e+002, 1.309196e+002
9.261033e+002, 1.303960e+002
9.265854e+002, 1.300278e+002
9.270676e+002, 1.299784e+002
9.275497e+002, 1.299325e+002
9.280318e+002, 1.295384e+002
9.285139e+002, 1.291786e+002
9.289960e+002, 1.293587e+002
9.294781e+002, 1.298229e+002
9.299603e+002, 1.300594e+002
9.304424e+002, 1.300067e+002
9.309245e+002, 1.299179e+002
9.314066e+002, 1.299499e+002
9.318887e+002, 1.300531e+002
9.323708e+002, 1.301773e+002
9.328530e+002, 1.303060e+002
9.333351e+002, 1.303646e+002
9.338172e+002, 1.303515e+002
9.342993e+002, 1.303085e+002
9.347814e+002, 1.302456e+002
9.352635e+002, 1.302142e+002
9.357457e+002, 1.302852e+002
9.362278e+002, 1.304268e+002
9.367099e+002, 1.304316e+002
9.371920e+002, 1.302427e+002
9.376741e+002, 1.301726e+002
9.381563e+002, 1.303071e+002
9.386384e+002, 1.304627e+002
9.391205e+002, 1.306339e+002
9.396026e+002, 1.306838e+002
9.400847e+002, 1.302690e+002
9.405668e+002, 1.292161e+002
9.410490e+002, 1.287320e+002
9.415311e+002, 1.291316e+002
9.420132e+002, 1.296450e+002
9.424953e+002, 1.304271e+002
9.429774e+002, 1.310082e+002
9.434595e+002, 1.308716e+002
9.439417e+002, 1.302836e+002
9.444238e+002, 1.299332e+002
9.449059e+002, 1.299642e+002
9.453880e+002, 1.301951e+002
9.458701e+002, 1.308816e+002
9.463522e+002, 1.314099e+002
9.468344e+002, 1.312449e+002
9.473165e+002, 1.307384e+002
9.477986e+002, 1.303163e+002
9.482807e+002, 1.300719e+002
9.487628e+002, 1.299740e+002
9.492449e+002, 1.300507e+002
9.497271e+002, 1.301533e+002
9.502092e+002, 1.301600e+002
9.506913e+002, 1.300889e+002
9.511734e+002, 1.299692e+002
9.516555e+002, 1.297979e+002
9.521376e+002, 1.294898e+002
9.526198e+002, 1.290427e+002
9.531019e+002, 1.287385e+002
9.535840e+002, 1.288489e+002
9.540661e+002, 1.292918e+002
9.545482e+002, 1.300219e+002
9.550303e+002, 1.309501e+002
9.555124e+002, 1.314140e+002
9.559945e+002, 1.313237e+002
9.564766e+002, 1.312096e+002
9.569587e+002, 1.313530e+002
9.574409e+002, 1.316539e+002
9.579230e+002, 1.319907e+002
9.584051e+002, 1.323604e+002
9.588872e+002, 1.324761e+002
9.593693e+002, 1.323310e+002
9.598514e+002, 1.319039e+002
9.603336e+002, 1.310034e+002
9.608157e+002, 1.302688e+002
9.612978e+002, 1.303211e+002
9.617799e+002, 1.308124e+002
9.622620e+002, 1.307303e+002
9.627441e+002, 1.297887e+002
9.632263e+002, 1.291636e+002
9.637084e+002, 1.291877e+002
9.641905e+002, 1.290804e+002
9.646726e+002, 1.284532e+002
9.651547e+002, 1.277631e+002
9.656368e+002, 1.273707e+002
9.661190e+002, 1.272567e+002
9.666011e+002, 1.272983e+002
9.670832e+002, 1.276506e+002
9.675653e+002, 1.278096e+002
9.680474e+002, 1.275661e+002
9.685295e+002, 1.272111e+002
9.690117e+002, 1.268527e+002
9.694938e+002, 1.265174e+002
9.699759e+002, 1.262224e+002
9.704580e+002, 1.259709e+002
9.709401e+002, 1.257719e+002
9.714222e+002, 1.257055e+002
9.719044e+002, 1.255712e+002
9.723865e+002, 1.252576e+002
9.728686e+002, 1.248007e+002
9.733507e+002, 1.241022e+002
9.738328e+002, 1.233267e+002
9.743149e+002, 1.228725e+002
9.747971e+002, 1.228264e+002
9.752792e+002, 1.227607e+002
9.757613e+002, 1.222897e+002
9.762434e+002, 1.216688e+002
9.767255e+002, 1.212442e+002
9.772076e+002, 1.209291e+002
9.776898e+002, 1.205074e+002
9.781719e+002, 1.199841e+002
9.786540e+002, 1.195177e+002
9.791361e+002, 1.191811e+002
9.796182e+002, 1.190078e+002
9.801003e+002, 1.191129e+002
9.805825e+002, 1.193872e+002
9.810646e+002, 1.194348e+002
9.815467e+002, 1.192871e+002
9.820288e+002, 1.192008e+002
9.825109e+002, 1.192271e+002
9.829930e+002, 1.192731e+002
9.834752e+002, 1.192750e+002
9.839573e+002, 1.192802e+002
9.844394e+002, 1.194179e+002
9.849215e+002, 1.196906e+002
9.854036e+002, 1.196950e+002
9.858857e+002, 1.193678e+002
9.863679e+002, 1.191520e+002
9.868500e+002, 1.191783e+002
9.873321e+002, 1.193092e+002
9.878142e+002, 1.194923e+002
9.882963e+002, 1.196392e+002
9.887784e+002, 1.194354e+002
9.892606e+002, 1.187126e+002
9.897427e+002, 1.182444e+002
9.902248e+002, 1.181431e+002
9.907069e+002, 1.180734e+002
9.911890e+002, 1.178546e+002
9.916711e+002, 1.177122e+002
9.921533e+002, 1.179328e+002
9.926354e+002, 1.184393e+002
9.931175e+002, 1.187765e+002
9.935996e+002, 1.190681e+002
9.940817e+002, 1.189689e+002
9.945638e+002, 1.179206e+002
9.950460e+002, 1.171432e+002
9.955281e+002, 1.172776e+002
9.960102e+002, 1.177986e+002
9.964923e+002, 1.181935e+002
9.969744e+002, 1.184409e+002
9.974565e+002, 1.186438e+002
9.979387e+002, 1.188483e+002
9.984208e+002, 1.189628e+002
9.989029e+002, 1.188162e+002
9.993850e+002, 1.187266e+002
9.998671e+002, 1.190233e+002
1.000349e+003, 1.194353e+002
1.000831e+003, 1.194830e+002
1.001313e+003, 1.191621e+002
1.001796e+003, 1.190573e+002
1.002278e+003, 1.196469e+002
1.002760e+003, 1.201453e+002
1.003242e+003, 1.200777e+002
1.003724e+003, 1.197662e+002
1.004206e+003, 1.193392e+002
1.004688e+003, 1.189638e+002
1.005170e+003, 1.189812e+002
1.005653e+003, 1.194191e+002
1.006135e+003, 1.197200e+002
1.006617e+003, 1.194445e+002
1.007099e+003, 1.190044e+002
1.007581e+003, 1.187432e+002
1.008063e+003, 1.185875e+002
1.008545e+003, 1.184527e+002
1.009027e+003, 1.183250e+002
1.009509e+003, 1.182164e+002
1.009992e+003, 1.181269e+002
1.010474e+003, 1.180061e+002
1.010956e+003, 1.178295e+002
1.011438e+003, 1.175759e+002
1.011920e+003, 1.170684e+002
1.012402e+003, 1.165016e+002
1.012884e+003, 1.163918e+002
1.013366e+003, 1.167135e+002
1.013849e+003, 1.170890e+002
1.014331e+003, 1.173478e+002
1.014813e+003, 1.174271e+002
1.015295e+003, 1.171885e+002
1.015777e+003, 1.167732e+002
1.016259e+003, 1.165848e+002
1.016741e+003, 1.165491e+002
1.017223e+003, 1.162595e+002
1.017705e+003, 1.156886e+002
1.018188e+003, 1.152170e+002
1.018670e+003, 1.150385e+002
1.019152e+003, 1.150942e+002
1.019634e+003, 1.153858e+002
1.020116e+003, 1.158178e+002
1.020598e+003, 1.158664e+002
1.021080e+003, 1.155494e+002
1.021562e+003, 1.153574e+002
1.022044e+003, 1.153799e+002
1.022527e+003, 1.154547e+002
1.023009e+003, 1.155034e+002
1.023491e+003, 1.154765e+002
1.023973e+003, 1.152659e+002
1.024455e+003, 1.148890e+002
1.024937e+003, 1.146137e+002
1.025419e+003, 1.144285e+002
1.025901e+003, 1.145315e+002
1.026384e+003, 1.150772e+002
1.026866e+003, 1.153366e+002
1.027348e+003, 1.147394e+002
1.027830e+003, 1.138368e+002
1.028312e+003, 1.136946e+002
1.028794e+003, 1.143544e+002
1.029276e+003, 1.147035e+002
1.029758e+003, 1.146403e+002
1.030240e+003, 1.146481e+002
1.030723e+003, 1.148933e+002
1.031205e+003, 1.150388e+002
1.031687e+003, 1.148188e+002
1.032169e+003, 1.144002e+002
1.032651e+003, 1.140897e+002
1.033133e+003, 1.138631e+002
1.033615e+003, 1.139609e+002
1.034097e+003, 1.145491e+002
1.034579e+003, 1.151102e+002
1.035062e+003, 1.156404e+002
1.035544e+003, 1.159735e+002
1.036026e+003, 1.159021e+002
1.036508e+003, 1.156128e+002
1.036990e+003, 1.155125e+002
1.037472e+003, 1.156582e+002
1.037954e+003, 1.156663e+002
1.038436e+003, 1.153893e+002
1.038919e+003, 1.152114e+002
1.039401e+003, 1.152381e+002
1.039883e+003, 1.153402e+002
1.040365e+003, 1.154705e+002
1.040847e+003, 1.156086e+002
1.041329e+003, 1.157176e+002
1.041811e+003, 1.158068e+002
1.042293e+003, 1.158251e+002
1.042776e+003, 1.156559e+002
1.043258e+003, 1.155804e+002
1.043740e+003, 1.158077e+002
1.044222e+003, 1.159887e+002
1.044704e+003, 1.157074e+002
1.045186e+003, 1.152836e+002
1.045668e+003, 1.154530e+002
1.046150e+003, 1.164050e+002
1.046632e+003, 1.169079e+002
1.047115e+003, 1.163823e+002
1.047597e+003, 1.160130e+002
1.048079e+003, 1.162113e+002
1.048561e+003, 1.165378e+002
1.049043e+003, 1.166819e+002
1.049525e+003, 1.167356e+002
1.050007e+003, 1.169742e+002
1.050489e+003, 1.174696e+002
1.050971e+003, 1.176084e+002
1.051454e+003, 1.171449e+002
1.051936e+003, 1.164831e+002
1.052418e+003, 1.152873e+002
1.052900e+003, 1.143737e+002
1.053382e+003, 1.145882e+002
1.053864e+003, 1.154044e+002
1.054346e+003, 1.158578e+002
1.054828e+003, 1.158086e+002
1.055311e+003, 1.156095e+002
1.055793e+003, 1.152626e+002
1.056275e+003, 1.149041e+002
1.056757e+003, 1.144256e+002
1.057239e+003, 1.141025e+002
1.057721e+003, 1.142595e+002
1.058203e+003, 1.146699e+002
1.058685e+003, 1.148911e+002
1.059167e+003, 1.148625e+002
1.059650e+003, 1.150099e+002
1.060132e+003, 1.157841e+002
1.060614e+003, 1.163369e+002
1.061096e+003, 1.161663e+002
1.061578e+003, 1.158320e+002
1.062060e+003, 1.157202e+002
1.062542e+003, 1.157637e+002
1.063024e+003, 1.158498e+002
1.063506e+003, 1.159404e+002
1.063989e+003, 1.158719e+002
1.064471e+003, 1.152425e+002
1.064953e+003, 1.149278e+002
1.065435e+003, 1.157087e+002
1.065917e+003, 1.165227e+002
1.066399e+003, 1.164199e+002
1.066881e+003, 1.158686e+002
1.067363e+003, 1.157228e+002
1.067846e+003, 1.160492e+002
1.068328e+003, 1.161478e+002
1.068810e+003, 1.154832e+002
1.069292e+003, 1.150289e+002
1.069774e+003, 1.154094e+002
1.070256e+003, 1.159720e+002
1.070738e+003, 1.163621e+002
1.071220e+003, 1.165428e+002
1.071703e+003, 1.163962e+002
1.072185e+003, 1.160055e+002
1.072667e+003, 1.158796e+002
1.073149e+003, 1.164308e+002
1.073631e+003, 1.167500e+002
1.074113e+003, 1.160810e+002
1.074595e+003, 1.153756e+002
1.075077e+003, 1.153881e+002
1.075559e+003, 1.157453e+002
1.076042e+003, 1.159578e+002
1.076524e+003, 1.159706e+002
1.077006e+003, 1.159205e+002
1.077488e+003, 1.158303e+002
1.077970e+003, 1.157595e+002
1.078452e+003, 1.156462e+002
1.078934e+003, 1.156599e+002
1.079416e+003, 1.160922e+002
1.079898e+003, 1.165932e+002
1.080380e+003, 1.167789e+002
1.080863e+003, 1.166354e+002
1.081345e+003, 1.162594e+002
1.081827e+003, 1.156078e+002
1.082309e+003, 1.150988e+002
1.082791e+003, 1.149639e+002
1.083273e+003, 1.149741e+002
1.083755e+003, 1.149671e+002
1.084237e+003, 1.150495e+002
1.084720e+003, 1.155365e+002
1.085202e+003, 1.161856e+002
1.085684e+003, 1.162969e+002
1.086166e+003, 1.156288e+002
1.086648e+003, 1.150166e+002
1.087130e+003, 1.147340e+002
1.087612e+003, 1.146936e+002
1.088094e+003, 1.150858e+002
1.088577e+003, 1.154923e+002
1.089059e+003, 1.154639e+002
1.089541e+003, 1.151607e+002
1.090023e+003, 1.150079e+002
1.090505e+003, 1.150938e+002
1.090987e+003, 1.150488e+002
1.091469e+003, 1.145517e+002
1.091951e+003, 1.141412e+002
1.092433e+003, 1.142210e+002
1.092916e+003, 1.143108e+002
1.093398e+003, 1.138889e+002
1.093880e+003, 1.132761e+002
1.094362e+003, 1.131217e+002
1.094844e+003, 1.134734e+002
1.095326e+003, 1.136184e+002
1.095808e+003, 1.130631e+002
1.096290e+003, 1.126691e+002
1.096772e+003, 1.129449e+002
1.097255e+003, 1.132254e+002
1.097737e+003, 1.130597e+002
1.098219e+003, 1.126568e+002
1.098701e+003, 1.122109e+002
1.099183e+003, 1.118044e+002
1.099665e+003, 1.117294e+002
1.100147e+003, 1.122690e+002
1.100629e+003, 1.126881e+002
1.101112e+003, 1.127789e+002
1.101594e+003, 1.127260e+002
1.102076e+003, 1.124726e+002
1.102558e+003, 1.122330e+002
1.103040e+003, 1.122961e+002
1.103522e+003, 1.125726e+002
1.104004e+003, 1.126728e+002
1.104486e+003, 1.124757e+002
1.104969e+003, 1.123080e+002
1.105451e+003, 1.122169e+002
1.105933e+003, 1.121772e+002
1.106415e+003, 1.122217e+002
1.106897e+003, 1.122754e+002
1.107379e+003, 1.121776e+002
1.107861e+003, 1.120651e+002
1.108343e+003, 1.123420e+002
1.108825e+003, 1.131635e+002
1.109307e+003, 1.136403e+002
1.109790e+003, 1.135353e+002
1.110272e+003, 1.133072e+002
1.110754e+003, 1.129022e+002
1.111236e+003, 1.125518e+002
1.111718e+003, 1.124628e+002
1.112200e+003, 1.124835e+002
1.112682e+003, 1.122852e+002
1.113164e+003, 1.118365e+002
1.113647e+003, 1.118088e+002
1.114129e+003, 1.126947e+002
1.114611e+003, 1.131784e+002
1.115093e+003, 1.128695e+002
1.115575e+003, 1.125582e+002
1.116057e+003, 1.125499e+002
1.116539e+003, 1.127374e+002
1.117021e+003, 1.131165e+002
1.117504e+003, 1.136109e+002
1.117986e+003, 1.136279e+002
1.118468e+003, 1.128771e+002
1.118950e+003, 1.123311e+002
1.119432e+003, 1.119764e+002
1.119914e+003, 1.118856e+002
1.120396e+003, 1.121884e+002
1.120878e+003, 1.125928e+002
1.121360e+003, 1.128829e+002
1.121843e+003, 1.130603e+002
1.122325e+003, 1.131185e+002
1.122807e+003, 1.130361e+002
1.123289e+003, 1.129777e+002
1.123771e+003, 1.129837e+002
1.124253e+003, 1.128588e+002
1.124735e+003, 1.125125e+002
1.125217e+003, 1.121525e+002
1.125699e+003, 1.118477e+002
1.126182e+003, 1.117519e+002
1.126664e+003, 1.121902e+002
1.127146e+003, 1.131224e+002
1.127628e+003, 1.138450e+002
1.128110e+003, 1.143656e+002
1.128592e+003, 1.145019e+002
1.129074e+003, 1.141604e+002
1.129556e+003, 1.139784e+002
1.130039e+003, 1.142753e+002
1.130521e+003, 1.146670e+002
1.131003e+003, 1.147179e+002
1.131485e+003, 1.145077e+002
1.131967e+003, 1.142420e+002
1.132449e+003, 1.139400e+002
1.132931e+003, 1.140235e+002
1.133413e+003, 1.145025e+002
1.133896e+003, 1.148217e+002
1.134378e+003, 1.148116e+002
1.134860e+003, 1.147315e+002
1.135342e+003, 1.147771e+002
1.135824e+003, 1.149013e+002
1.136306e+003, 1.150818e+002
1.136788e+003, 1.152604e+002
1.137270e+003, 1.151187e+002
1.137752e+003, 1.147509e+002
1.138234e+003, 1.146694e+002
1.138717e+003, 1.149252e+002
1.139199e+003, 1.151257e+002
1.139681e+003, 1.150701e+002
1.140163e+003, 1.149631e+002
1.140645e+003, 1.150359e+002
1.141127e+003, 1.152090e+002
1.141609e+003, 1.153139e+002
1.142091e+003, 1.154132e+002
1.142574e+003, 1.156982e+002
1.143056e+003, 1.161114e+002
1.143538e+003, 1.164267e+002
1.144020e+003, 1.165679e+002
1.144502e+003, 1.165616e+002
1.144984e+003, 1.163671e+002
1.145466e+003, 1.161762e+002
1.145948e+003, 1.162746e+002
1.146431e+003, 1.164238e+002
1.146913e+003, 1.161415e+002
1.147395e+003, 1.157618e+002
1.147877e+003, 1.160882e+002
1.148359e+003, 1.170250e+002
1.148841e+003, 1.175759e+002
1.149323e+003, 1.172616e+002
1.149805e+003, 1.169005e+002
1.150287e+003, 1.170172e+002
1.150770e+003, 1.172616e+002
1.151252e+003, 1.173994e+002
1.151734e+003, 1.175149e+002
1.152216e+003, 1.177191e+002
1.152698e+003, 1.179817e+002
1.153180e+003, 1.182486e+002
1.153662e+003, 1.185071e+002
1.154144e+003, 1.185980e+002
1.154626e+003, 1.181910e+002
1.155109e+003, 1.180042e+002
1.155591e+003, 1.184993e+002
1.156073e+003, 1.190394e+002
1.156555e+003, 1.192259e+002
1.157037e+003, 1.192269e+002
1.157519e+003, 1.193107e+002
1.158001e+003, 1.194583e+002
1.158483e+003, 1.193972e+002
1.158966e+003, 1.187885e+002
1.159448e+003, 1.186431e+002
1.159930e+003, 1.196159e+002
1.160412e+003, 1.202362e+002
1.160894e+003, 1.196954e+002
1.161376e+003, 1.191534e+002
1.161858e+003, 1.196117e+002
1.162340e+003, 1.205882e+002
1.162822e+003, 1.210345e+002
1.163305e+003, 1.209106e+002
1.163787e+003, 1.206582e+002
1.164269e+003, 1.201138e+002
1.164751e+003, 1.199478e+002
1.165233e+003, 1.203474e+002
1.165715e+003, 1.208633e+002
1.166197e+003, 1.213452e+002
1.166679e+003, 1.216858e+002
1.167161e+003, 1.217237e+002
1.167644e+003, 1.215519e+002
1.168126e+003, 1.215006e+002
1.168608e+003, 1.215614e+002
1.169090e+003, 1.222052e+002
1.169572e+003, 1.234841e+002
1.170054e+003, 1.238771e+002
1.170536e+003, 1.229462e+002
1.171018e+003, 1.221059e+002
1.171500e+003, 1.223445e+002
1.171983e+003, 1.231147e+002
1.172465e+003, 1.236212e+002
1.172947e+003, 1.239093e+002
1.173429e+003, 1.241504e+002
1.173911e+003, 1.243103e+002
1.174393e+003, 1.241361e+002
1.174875e+003, 1.237142e+002
1.175357e+003, 1.236028e+002
1.175840e+003, 1.240031e+002
1.176322e+003, 1.246413e+002
1.176804e+003, 1.253868e+002
1.177286e+003, 1.260434e+002
1.177768e+003, 1.262610e+002
1.178250e+003, 1.263123e+002
1.178732e+003, 1.266842e+002
1.179214e+003, 1.271667e+002
1.179697e+003, 1.272291e+002
1.180179e+003, 1.268998e+002
1.180661e+003, 1.267054e+002
1.181143e+003, 1.268870e+002
1.181625e+003, 1.270233e+002
1.182107e+003, 1.266969e+002
1.182589e+003, 1.264353e+002
1.183071e+003, 1.265990e+002
1.183553e+003, 1.269783e+002
1.184036e+003, 1.274799e+002
1.184518e+003, 1.279888e+002
1.185000e+003, 1.283604e+002
1.185482e+003, 1.285704e+002
1.185964e+003, 1.286187e+002
1.186446e+003, 1.281751e+002
1.186928e+003, 1.281064e+002
1.187410e+003, 1.289058e+002
1.187892e+003, 1.296741e+002
1.188375e+003, 1.299885e+002
1.188857e+003, 1.301443e+002
1.189339e+003, 1.304332e+002
1.189821e+003, 1.307812e+002
1.190303e+003, 1.309681e+002
1.190785e+003, 1.309820e+002
1.191267e+003, 1.308738e+002
1.191749e+003, 1.304715e+002
1.192232e+003, 1.304576e+002
1.192714e+003, 1.310375e+002
1.193196e+003, 1.317464e+002
1.193678e+003, 1.323952e+002
1.194160e+003, 1.329275e+002
1.194642e+003, 1.332424e+002
1.195124e+003, 1.334155e+002
1.195606e+003, 1.337619e+002
1.196089e+003, 1.342724e+002
1.196571e+003, 1.347724e+002
1.197053e+003, 1.352390e+002
1.197535e+003, 1.353535e+002
1.198017e+003, 1.350649e+002
1.198499e+003, 1.350160e+002
1.198981e+003, 1.356281e+002
1.199463e+003, 1.363368e+002
1.199945e+003, 1.362316e+002
1.200427e+003, 1.358193e+002
1.200910e+003, 1.362135e+002
1.201392e+003, 1.370591e+002
1.201874e+003, 1.376290e+002
1.202356e+003, 1.378948e+002
1.202838e+003, 1.379776e+002
1.203320e+003, 1.379682e+002
1.203802e+003, 1.381959e+002
1.204284e+003, 1.390091e+002
1.204767e+003, 1.396357e+002
1.205249e+003, 1.390803e+002
1.205731e+003, 1.385341e+002
1.206213e+003, 1.391991e+002
1.206695e+003, 1.402943e+002
1.207177e+003, 1.409287e+002
1.207659e+003, 1.411091e+002
1.208141e+003, 1.410412e+002
1.208624e+003, 1.407267e+002
1.209106e+003, 1.408495e+002
1.209588e+003, 1.419700e+002
1.210070e+003, 1.429457e+002
1.210552e+003, 1.435412e+002
1.211034e+003, 1.439444e+002
1.211516e+003, 1.442984e+002
1.211998e+003, 1.444535e+002
1.212480e+003, 1.441082e+002
1.212963e+003, 1.434599e+002
1.213445e+003, 1.432889e+002
1.213927e+003, 1.437042e+002
1.214409e+003, 1.440255e+002
1.214891e+003, 1.441884e+002
1.215373e+003, 1.445317e+002
1.215855e+003, 1.451589e+002
1.216337e+003, 1.457972e+002
1.216819e+003, 1.463214e+002
1.217302e+003, 1.466747e+002
1.217784e+003, 1.467509e+002
1.218266e+003, 1.466626e+002
1.218748e+003, 1.466904e+002
1.219230e+003, 1.468644e+002
1.219712e+003, 1.475034e+002
1.220194e+003, 1.484692e+002
1.220676e+003, 1.488514e+002
1.221159e+003, 1.485719e+002
1.221641e+003, 1.486194e+002
1.222123e+003, 1.495429e+002
1.222605e+003, 1.505690e+002
1.223087e+003, 1.509012e+002
1.223569e+003, 1.509422e+002
1.224051e+003, 1.510562e+002
1.224533e+003, 1.512312e+002
1.225016e+003, 1.514936e+002
1.225498e+003, 1.517798e+002
1.225980e+003, 1.518765e+002
1.226462e+003, 1.518333e+002
1.226944e+003, 1.521628e+002
1.227426e+003, 1.532253e+002
1.227908e+003, 1.541153e+002
1.228390e+003, 1.543756e+002
1.228872e+003, 1.545873e+002
1.229354e+003, 1.549187e+002
1.229837e+003, 1.553698e+002
1.230319e+003, 1.561667e+002
1.230801e+003, 1.569588e+002
1.231283e+003, 1.569937e+002
1.231765e+003, 1.563124e+002
1.232247e+003, 1.563205e+002
1.232729e+003, 1.572731e+002
1.233211e+003, 1.581636e+002
1.233694e+003, 1.589951e+002
1.234176e+003, 1.595662e+002
1.234658e+003, 1.597327e+002
1.235140e+003, 1.600658e+002
1.235622e+003, 1.610585e+002
1.236104e+003, 1.621221e+002
1.236586e+003, 1.620494e+002
1.237068e+003, 1.612837e+002
1.237551e+003, 1.619563e+002
1.238033e+003, 1.636415e+002
1.238515e+003, 1.643462e+002
1.238997e+003, 1.640960e+002
1.239479e+003, 1.640890e+002
1.239961e+003, 1.646621e+002
1.240443e+003, 1.653640e+002
1.240925e+003, 1.658948e+002
1.241407e+003, 1.665440e+002
1.241890e+003, 1.678606e+002
1.242372e+003, 1.691485e+002
1.242854e+003, 1.695581e+002
1.243336e+003, 1.696787e+002
1.243818e+003, 1.702619e+002
1.244300e+003, 1.711679e+002
1.244782e+003, 1.719450e+002
1.245264e+003, 1.725255e+002
1.245746e+003, 1.730903e+002
1.246229e+003, 1.736467e+002
1.246711e+003, 1.742595e+002
1.247193e+003, 1.749682e+002
1.247675e+003, 1.756978e+002
1.248157e+003, 1.763898e+002
1.248639e+003, 1.771347e+002
1.249121e+003, 1.780110e+002
1.249603e+003, 1.789674e+002
1.250085e+003, 1.799272e+002
1.250568e+003, 1.808853e+002
1.251050e+003, 1.818138e+002
1.251532e+003, 1.827290e+002
1.252014e+003, 1.832969e+002
1.252496e+003, 1.834651e+002
1.252978e+003, 1.843060e+002
1.253460e+003, 1.861357e+002
1.253942e+003, 1.875522e+002
1.254425e+003, 1.875162e+002
1.254907e+003, 1.873257e+002
1.255389e+003, 1.890861e+002
1.255871e+003, 1.916939e+002
1.256353e+003, 1.929508e+002
1.256835e+003, 1.935672e+002
1.257317e+003, 1.950229e+002
1.257799e+003, 1.969467e+002
1.258281e+003, 1.980084e+002
1.258764e+003, 1.980820e+002
1.259246e+003, 1.982764e+002
1.259728e+003, 1.990258e+002
1.260210e+003, 2.000786e+002
1.260692e+003, 2.015228e+002
1.261174e+003, 2.029717e+002
1.261656e+003, 2.042729e+002
1.262138e+003, 2.054853e+002
1.262620e+003, 2.067023e+002
1.263103e+003, 2.078383e+002
1.263585e+003, 2.086902e+002
1.264067e+003, 2.093115e+002
1.264549e+003, 2.100911e+002
1.265031e+003, 2.110276e+002
1.265513e+003, 2.121321e+002
1.265995e+003, 2.134131e+002
1.266477e+003, 2.148252e+002
1.266960e+003, 2.163875e+002
1.267442e+003, 2.178890e+002
1.267924e+003, 2.192169e+002
1.268406e+003, 2.203900e+002
1.268888e+003, 2.214112e+002
1.269370e+003, 2.223652e+002
1.269852e+003, 2.234149e+002
1.270334e+003, 2.245759e+002
1.270817e+003, 2.259581e+002
1.271299e+003, 2.274779e+002
1.271781e+003, 2.288382e+002
1.272263e+003, 2.300825e+002
1.272745e+003, 2.315779e+002
1.273227e+003, 2.334644e+002
1.273709e+003, 2.354862e+002
1.274191e+003, 2.377313e+002
1.274673e+003, 2.397528e+002
1.275156e+003, 2.411581e+002
1.275638e+003, 2.424813e+002
1.276120e+003, 2.442095e+002
1.276602e+003, 2.459583e+002
1.277084e+003, 2.470121e+002
1.277566e+003, 2.477510e+002
1.278048e+003, 2.494908e+002
1.278530e+003, 2.524091e+002
1.279012e+003, 2.546707e+002
1.279495e+003, 2.560008e+002
1.279977e+003, 2.576521e+002
1.280459e+003, 2.598404e+002
1.280941e+003, 2.619394e+002
1.281423e+003, 2.637221e+002
1.281905e+003, 2.653398e+002
1.282387e+003, 2.669044e+002
1.282869e+003, 2.685280e+002
1.283352e+003, 2.704312e+002
1.283834e+003, 2.724847e+002
1.284316e+003, 2.743852e+002
1.284798e+003, 2.761474e+002
##END=



