##NAMES=Raslakite
##RRUFFID=R070071
##IDEAL CHEMISTRY=Na_15_Ca_3_Fe^2+^_3_(Na,Zr^4+^)_3_Zr^4+^_3_(Si,Nb^3+^)Si_25_O_73_(OH,H_2_O)_3_(Cl,OH)
##LOCALITY=Raslak Cirques, near Kedybverpahkh Mountain, Lovozero Massif, Kola Peninsula, Russia
##OWNER=RRUFF
##SOURCE=Michael Scott
##DESCRIPTION=Massive, orange anhedral grains exhibiting conchoidal fracture, co-type material
##STATUS=The identification of this mineral has been confirmed only by single crystal X-ray diffraction.
##URL=rruff.info/R070071
135.7187, 1846.429
136.2008, 1865.311
136.6830, 1870.473
137.1651, 1864.409
137.6472, 1862.196
138.1293, 1863.852
138.6114, 1869.359
139.0935, 1880.258
139.5757, 1898.866
140.0578, 1914.773
140.5399, 1923.452
141.0220, 1923.265
141.5041, 1929.143
141.9862, 1943.508
142.4684, 1962.218
142.9505, 1977.102
143.4326, 1984.754
143.9147, 1994.205
144.3968, 2010.032
144.8789, 2037.921
145.3610, 2059.856
145.8432, 2075.545
146.3253, 2085.211
146.8074, 2088.798
147.2895, 2080.083
147.7716, 2070.740
148.2537, 2067.139
148.7359, 2080.135
149.2180, 2085.516
149.7001, 2076.897
150.1822, 2054.365
150.6643, 2040.407
151.1464, 2043.914
151.6286, 2051.385
152.1107, 2052.386
152.5928, 2037.978
153.0749, 2025.228
153.5570, 2019.282
154.0391, 2022.251
154.5213, 2020.245
155.0034, 2007.194
155.4855, 1989.263
155.9676, 1974.279
156.4497, 1964.032
156.9318, 1956.620
157.4140, 1951.441
157.8961, 1948.934
158.3782, 1947.377
158.8603, 1944.864
159.3424, 1942.958
159.8245, 1944.903
160.3067, 1958.967
160.7888, 1972.755
161.2709, 1978.236
161.7530, 1967.268
162.2351, 1956.911
162.7172, 1955.237
163.1993, 1960.477
163.6815, 1965.214
164.1636, 1967.393
164.6457, 1966.911
165.1278, 1963.674
165.6099, 1952.724
166.0920, 1942.908
166.5742, 1939.917
167.0563, 1943.500
167.5384, 1948.768
168.0205, 1956.131
168.5026, 1962.771
168.9847, 1964.564
169.4669, 1954.698
169.9490, 1942.547
170.4311, 1935.928
170.9132, 1935.488
171.3953, 1937.714
171.8774, 1943.747
172.3596, 1950.617
172.8417, 1951.934
173.3238, 1935.141
173.8059, 1914.462
174.2880, 1909.736
174.7701, 1926.522
175.2523, 1947.501
175.7344, 1953.357
176.2165, 1947.588
176.6986, 1943.710
177.1807, 1957.717
177.6628, 1978.052
178.1449, 1981.799
178.6271, 1957.001
179.1092, 1927.115
179.5913, 1927.991
180.0734, 1956.599
180.5555, 1985.314
181.0376, 1989.832
181.5198, 1977.582
182.0019, 1969.566
182.4840, 1972.726
182.9661, 1981.948
183.4482, 1987.386
183.9303, 1988.993
184.4125, 1990.552
184.8946, 1996.807
185.3767, 2006.649
185.8588, 2014.270
186.3409, 2013.592
186.8230, 2009.765
187.3052, 2022.168
187.7873, 2053.147
188.2694, 2085.573
188.7515, 2096.466
189.2336, 2087.288
189.7157, 2077.952
190.1979, 2077.314
190.6800, 2083.919
191.1621, 2087.397
191.6442, 2086.056
192.1263, 2086.169
192.6084, 2101.101
193.0906, 2131.453
193.5727, 2157.504
194.0548, 2166.632
194.5369, 2159.897
195.0190, 2156.997
195.5011, 2159.282
195.9832, 2165.294
196.4654, 2172.581
196.9475, 2181.303
197.4296, 2190.200
197.9117, 2198.489
198.3938, 2206.169
198.8759, 2212.924
199.3581, 2217.163
199.8402, 2221.447
200.3223, 2235.222
200.8044, 2260.911
201.2865, 2286.816
201.7686, 2304.408
202.2508, 2312.832
202.7329, 2317.992
203.2150, 2317.816
203.6971, 2315.178
204.1792, 2326.982
204.6613, 2358.132
205.1435, 2391.348
205.6256, 2410.979
206.1077, 2414.634
206.5898, 2415.268
207.0719, 2413.912
207.5540, 2411.016
208.0362, 2413.351
208.5183, 2423.206
209.0004, 2434.328
209.4825, 2439.439
209.9646, 2436.640
210.4467, 2434.170
210.9288, 2434.434
211.4110, 2437.582
211.8931, 2439.436
212.3752, 2440.196
212.8573, 2439.392
213.3394, 2435.815
213.8215, 2427.973
214.3037, 2421.184
214.7858, 2418.055
215.2679, 2419.805
215.7500, 2416.569
216.2321, 2406.826
216.7142, 2393.483
217.1964, 2381.262
217.6785, 2370.805
218.1606, 2360.340
218.6427, 2349.434
219.1248, 2338.693
219.6069, 2325.418
220.0891, 2308.429
220.5712, 2289.571
221.0533, 2272.171
221.5354, 2256.496
222.0175, 2242.018
222.4996, 2229.731
222.9818, 2222.446
223.4639, 2208.732
223.9460, 2184.304
224.4281, 2154.533
224.9102, 2134.452
225.3923, 2129.107
225.8745, 2125.861
226.3566, 2118.127
226.8387, 2102.222
227.3208, 2090.540
227.8029, 2085.680
228.2850, 2085.345
228.7672, 2080.725
229.2493, 2070.382
229.7314, 2057.617
230.2135, 2044.749
230.6956, 2034.287
231.1777, 2017.521
231.6599, 1988.791
232.1420, 1951.769
232.6241, 1931.137
233.1062, 1936.557
233.5883, 1946.361
234.0704, 1945.820
234.5526, 1928.749
235.0347, 1913.853
235.5168, 1903.354
235.9989, 1896.939
236.4810, 1890.980
236.9631, 1884.487
237.4453, 1879.633
237.9274, 1879.049
238.4095, 1887.964
238.8916, 1890.396
239.3737, 1880.809
239.8558, 1859.915
240.3380, 1849.380
240.8201, 1856.775
241.3022, 1866.586
241.7843, 1864.423
242.2664, 1840.596
242.7485, 1823.253
243.2307, 1819.118
243.7128, 1828.297
244.1949, 1832.087
244.6770, 1826.789
245.1591, 1819.786
245.6412, 1818.567
246.1233, 1826.757
246.6055, 1833.980
247.0876, 1838.469
247.5697, 1840.161
248.0518, 1839.988
248.5339, 1836.640
249.0160, 1832.720
249.4982, 1831.209
249.9803, 1833.635
250.4624, 1835.457
250.9445, 1835.059
251.4266, 1832.102
251.9087, 1831.714
252.3909, 1833.780
252.8730, 1838.556
253.3551, 1846.866
253.8372, 1861.097
254.3193, 1874.143
254.8014, 1884.423
255.2836, 1891.906
255.7657, 1895.991
256.2478, 1893.598
256.7299, 1890.834
257.2120, 1896.306
257.6941, 1914.615
258.1762, 1931.193
258.6584, 1941.432
259.1405, 1944.227
259.6226, 1950.082
260.1047, 1960.033
260.5868, 1971.999
261.0689, 1984.364
261.5511, 1999.153
262.0332, 2008.903
262.5153, 2009.418
262.9974, 1999.071
263.4795, 1994.830
263.9616, 1998.484
264.4438, 2006.238
264.9259, 2012.889
265.4080, 2017.567
265.8901, 2023.491
266.3722, 2032.098
266.8543, 2043.752
267.3365, 2054.151
267.8186, 2062.963
268.3007, 2070.946
268.7828, 2079.359
269.2649, 2088.917
269.7470, 2096.732
270.2292, 2101.314
270.7113, 2102.390
271.1934, 2104.611
271.6755, 2108.559
272.1576, 2112.752
272.6397, 2114.759
273.1219, 2113.986
273.6040, 2113.585
274.0861, 2114.928
274.5682, 2118.125
275.0503, 2119.561
275.5324, 2117.511
276.0146, 2116.918
276.4967, 2128.133
276.9788, 2154.033
277.4609, 2173.577
277.9430, 2174.653
278.4251, 2157.819
278.9073, 2155.323
279.3894, 2171.260
279.8715, 2191.993
280.3536, 2196.395
280.8357, 2183.088
281.3178, 2172.432
281.8000, 2174.022
282.2821, 2186.608
282.7642, 2195.770
283.2463, 2201.212
283.7284, 2203.874
284.2105, 2203.309
284.6927, 2199.542
285.1747, 2198.329
285.6569, 2203.254
286.1390, 2213.144
286.6211, 2221.419
287.1032, 2228.271
287.5853, 2232.798
288.0674, 2232.945
288.5496, 2229.043
289.0317, 2225.194
289.5138, 2223.896
289.9959, 2224.053
290.4780, 2220.031
290.9601, 2210.755
291.4423, 2203.260
291.9244, 2208.434
292.4065, 2223.910
292.8886, 2236.897
293.3707, 2243.535
293.8528, 2243.832
294.3350, 2235.050
294.8171, 2216.028
295.2992, 2197.813
295.7813, 2192.416
296.2634, 2197.227
296.7455, 2203.140
297.2277, 2207.401
297.7098, 2210.312
298.1919, 2213.011
298.6740, 2215.608
299.1561, 2215.698
299.6382, 2209.561
300.1204, 2199.105
300.6025, 2188.988
301.0846, 2178.673
301.5667, 2170.795
302.0488, 2169.990
302.5309, 2176.175
303.0131, 2183.665
303.4952, 2190.166
303.9773, 2194.602
304.4594, 2194.810
304.9415, 2184.979
305.4236, 2174.242
305.9058, 2173.593
306.3879, 2182.226
306.8700, 2189.642
307.3521, 2186.162
307.8342, 2177.703
308.3163, 2172.076
308.7985, 2173.887
309.2806, 2177.462
309.7627, 2179.386
310.2448, 2179.677
310.7269, 2178.313
311.2090, 2170.770
311.6912, 2163.443
312.1733, 2163.169
312.6554, 2178.985
313.1375, 2194.431
313.6196, 2199.933
314.1017, 2197.066
314.5839, 2194.296
315.0660, 2195.792
315.5481, 2198.802
316.0302, 2201.021
316.5123, 2199.707
316.9944, 2200.440
317.4766, 2206.961
317.9586, 2217.648
318.4408, 2226.695
318.9229, 2227.551
319.4050, 2229.245
319.8871, 2237.558
320.3692, 2258.832
320.8513, 2278.724
321.3335, 2295.128
321.8156, 2307.973
322.2977, 2317.061
322.7798, 2317.823
323.2619, 2318.284
323.7440, 2321.816
324.2262, 2327.965
324.7083, 2338.541
325.1904, 2359.541
325.6725, 2385.015
326.1546, 2401.803
326.6367, 2400.833
327.1189, 2398.297
327.6010, 2398.680
328.0831, 2399.575
328.5652, 2409.006
329.0473, 2433.495
329.5294, 2464.717
330.0116, 2488.635
330.4937, 2501.762
330.9758, 2511.719
331.4579, 2520.218
331.9400, 2527.106
332.4221, 2533.510
332.9043, 2540.086
333.3864, 2545.633
333.8685, 2547.661
334.3506, 2542.701
334.8327, 2541.426
335.3148, 2547.712
335.7970, 2561.929
336.2791, 2574.603
336.7612, 2585.699
337.2433, 2595.315
337.7254, 2604.306
338.2076, 2613.387
338.6897, 2618.271
339.1718, 2616.554
339.6539, 2609.299
340.1360, 2605.204
340.6181, 2605.199
341.1003, 2605.480
341.5824, 2601.713
342.0645, 2593.663
342.5466, 2587.692
343.0287, 2585.913
343.5108, 2586.627
343.9930, 2582.779
344.4751, 2573.738
344.9572, 2567.802
345.4393, 2575.257
345.9214, 2593.135
346.4035, 2604.000
346.8857, 2602.759
347.3678, 2595.838
347.8499, 2594.956
348.3320, 2599.564
348.8141, 2603.901
349.2962, 2600.637
349.7784, 2594.497
350.2605, 2599.083
350.7426, 2620.612
351.2247, 2641.385
351.7068, 2637.436
352.1889, 2614.271
352.6710, 2590.618
353.1531, 2574.975
353.6353, 2565.235
354.1174, 2558.666
354.5995, 2554.888
355.0816, 2554.834
355.5637, 2566.066
356.0458, 2581.204
356.5280, 2586.323
357.0101, 2562.929
357.4922, 2535.539
357.9743, 2524.689
358.4564, 2532.813
358.9385, 2538.640
359.4207, 2527.816
359.9028, 2509.375
360.3849, 2493.879
360.8670, 2489.640
361.3491, 2484.655
361.8312, 2471.368
362.3134, 2450.181
362.7955, 2434.615
363.2776, 2435.074
363.7597, 2439.422
364.2418, 2438.227
364.7239, 2426.111
365.2061, 2412.215
365.6882, 2396.722
366.1703, 2380.197
366.6524, 2366.349
367.1345, 2356.126
367.6166, 2348.258
368.0988, 2342.114
368.5809, 2341.879
369.0630, 2337.528
369.5451, 2326.578
370.0272, 2311.567
370.5093, 2299.367
370.9915, 2289.895
371.4736, 2283.492
371.9557, 2280.452
372.4378, 2281.067
372.9199, 2284.404
373.4020, 2291.904
373.8842, 2300.992
374.3663, 2305.926
374.8484, 2303.485
375.3305, 2306.969
375.8126, 2324.779
376.2947, 2357.028
376.7769, 2370.925
377.2590, 2361.495
377.7411, 2346.440
378.2232, 2346.312
378.7053, 2361.765
379.1874, 2378.613
379.6696, 2393.947
380.1517, 2407.529
380.6338, 2417.204
381.1159, 2422.479
381.5980, 2429.794
382.0801, 2448.293
382.5623, 2474.281
383.0444, 2492.744
383.5265, 2497.310
384.0086, 2497.432
384.4907, 2508.941
384.9728, 2530.167
385.4549, 2550.458
385.9370, 2561.320
386.4192, 2567.367
386.9013, 2575.759
387.3834, 2588.053
387.8655, 2600.600
388.3476, 2610.198
388.8297, 2617.500
389.3119, 2623.917
389.7940, 2632.371
390.2761, 2638.794
390.7582, 2638.446
391.2403, 2630.157
391.7224, 2623.522
392.2046, 2624.212
392.6867, 2629.007
393.1688, 2634.126
393.6509, 2640.703
394.1330, 2645.203
394.6151, 2645.400
395.0973, 2641.407
395.5794, 2638.117
396.0615, 2635.772
396.5436, 2635.022
397.0257, 2636.307
397.5078, 2645.649
397.9900, 2650.056
398.4721, 2647.574
398.9542, 2639.104
399.4363, 2627.726
399.9184, 2609.776
400.4005, 2592.962
400.8827, 2580.466
401.3648, 2573.137
401.8469, 2567.941
402.3290, 2564.081
402.8111, 2562.864
403.2932, 2569.833
403.7754, 2592.885
404.2575, 2602.278
404.7396, 2581.175
405.2217, 2529.329
405.7038, 2501.504
406.1859, 2502.550
406.6681, 2515.223
407.1502, 2523.133
407.6323, 2526.173
408.1144, 2522.241
408.5965, 2507.981
409.0786, 2487.935
409.5608, 2474.791
410.0429, 2468.485
410.5250, 2465.820
411.0071, 2468.251
411.4892, 2472.605
411.9713, 2468.885
412.4535, 2453.272
412.9356, 2434.045
413.4177, 2419.262
413.8998, 2408.718
414.3819, 2401.933
414.8640, 2400.657
415.3462, 2401.865
415.8283, 2403.817
416.3104, 2407.040
416.7925, 2405.622
417.2746, 2391.882
417.7567, 2372.040
418.2388, 2354.594
418.7209, 2342.776
419.2031, 2334.207
419.6852, 2327.477
420.1673, 2322.597
420.6494, 2322.265
421.1315, 2336.321
421.6136, 2349.897
422.0958, 2352.437
422.5779, 2330.177
423.0600, 2310.938
423.5421, 2297.958
424.0242, 2290.446
424.5063, 2285.412
424.9885, 2284.649
425.4706, 2284.421
425.9527, 2283.314
426.4348, 2280.820
426.9169, 2278.309
427.3990, 2272.550
427.8812, 2269.468
428.3633, 2279.769
428.8454, 2309.505
429.3275, 2334.233
429.8096, 2347.359
430.2917, 2349.526
430.7739, 2344.523
431.2560, 2330.277
431.7381, 2316.464
432.2202, 2310.108
432.7023, 2311.246
433.1844, 2322.444
433.6666, 2349.328
434.1487, 2379.456
434.6308, 2385.006
435.1129, 2368.511
435.5950, 2353.688
436.0771, 2357.601
436.5593, 2372.263
437.0414, 2382.863
437.5235, 2387.192
438.0056, 2392.183
438.4877, 2406.827
438.9698, 2426.480
439.4520, 2442.181
439.9341, 2446.707
440.4162, 2448.834
440.8983, 2454.190
441.3804, 2462.792
441.8625, 2472.399
442.3447, 2484.338
442.8268, 2495.591
443.3089, 2503.553
443.7910, 2503.048
444.2731, 2505.286
444.7552, 2514.703
445.2374, 2528.955
445.7195, 2540.824
446.2016, 2550.113
446.6837, 2556.419
447.1658, 2559.068
447.6479, 2556.484
448.1301, 2555.173
448.6122, 2554.862
449.0943, 2556.041
449.5764, 2559.673
450.0585, 2567.071
450.5406, 2573.466
451.0227, 2576.806
451.5049, 2578.023
451.9870, 2585.186
452.4691, 2600.426
452.9512, 2613.169
453.4333, 2613.370
453.9154, 2601.872
454.3976, 2592.126
454.8797, 2585.718
455.3618, 2581.839
455.8439, 2578.867
456.3260, 2577.083
456.8081, 2578.487
457.2903, 2591.207
457.7724, 2605.372
458.2545, 2600.926
458.7366, 2576.476
459.2187, 2553.197
459.7008, 2549.862
460.1830, 2557.814
460.6651, 2565.140
461.1472, 2569.983
461.6293, 2570.910
462.1114, 2565.647
462.5935, 2555.294
463.0757, 2544.177
463.5578, 2532.796
464.0399, 2522.021
464.5220, 2511.709
465.0041, 2500.259
465.4862, 2493.413
465.9684, 2497.552
466.4505, 2505.224
466.9326, 2505.295
467.4147, 2491.082
467.8968, 2477.837
468.3789, 2470.058
468.8611, 2467.569
469.3432, 2458.784
469.8253, 2440.490
470.3074, 2421.085
470.7895, 2406.002
471.2716, 2395.573
471.7538, 2389.819
472.2359, 2390.885
472.7180, 2393.858
473.2001, 2388.065
473.6822, 2373.401
474.1643, 2356.823
474.6465, 2338.886
475.1286, 2321.541
475.6107, 2313.309
476.0928, 2314.687
476.5749, 2317.144
477.0570, 2309.533
477.5392, 2297.463
478.0213, 2293.142
478.5034, 2308.175
478.9855, 2322.200
479.4676, 2311.560
479.9497, 2283.650
480.4319, 2263.861
480.9140, 2270.046
481.3961, 2285.179
481.8782, 2299.385
482.3603, 2312.296
482.8424, 2320.696
483.3245, 2318.489
483.8066, 2313.030
484.2888, 2313.016
484.7709, 2326.377
485.2530, 2337.680
485.7351, 2343.357
486.2172, 2344.038
486.6993, 2346.964
487.1815, 2353.659
487.6636, 2360.532
488.1457, 2366.464
488.6278, 2373.066
489.1099, 2371.446
489.5920, 2358.175
490.0742, 2340.986
490.5563, 2333.297
491.0384, 2335.410
491.5205, 2340.285
492.0026, 2345.808
492.4847, 2352.102
492.9669, 2362.052
493.4490, 2375.789
493.9311, 2383.460
494.4132, 2370.032
494.8953, 2345.839
495.3774, 2331.828
495.8596, 2334.614
496.3417, 2342.222
496.8238, 2346.638
497.3059, 2347.955
497.7880, 2346.266
498.2701, 2339.267
498.7523, 2331.163
499.2344, 2323.088
499.7165, 2314.960
500.1986, 2311.013
500.6807, 2316.695
501.1628, 2324.564
501.6450, 2328.912
502.1271, 2324.766
502.6092, 2322.453
503.0913, 2322.643
503.5734, 2324.963
504.0555, 2328.512
504.5377, 2333.036
505.0198, 2339.164
505.5019, 2346.476
505.9840, 2354.842
506.4661, 2370.630
506.9482, 2397.193
507.4304, 2421.480
507.9125, 2426.223
508.3946, 2412.804
508.8767, 2405.958
509.3588, 2410.583
509.8409, 2424.166
510.3231, 2446.526
510.8052, 2475.626
511.2873, 2501.476
511.7694, 2512.725
512.2515, 2520.057
512.7336, 2538.615
513.2158, 2569.902
513.6979, 2601.074
514.1800, 2622.347
514.6621, 2639.322
515.1442, 2658.450
515.6263, 2679.439
516.1085, 2705.269
516.5906, 2741.599
517.0727, 2784.342
517.5548, 2820.173
518.0369, 2839.625
518.5190, 2858.376
519.0012, 2882.085
519.4833, 2911.061
519.9654, 2942.710
520.4475, 2978.683
520.9296, 3015.564
521.4117, 3049.322
521.8939, 3078.590
522.3760, 3111.213
522.8581, 3149.620
523.3402, 3191.034
523.8223, 3229.305
524.3044, 3264.181
524.7866, 3293.159
525.2687, 3305.665
525.7508, 3311.459
526.2329, 3345.685
526.7150, 3411.799
527.1971, 3471.995
527.6793, 3479.438
528.1614, 3461.398
528.6435, 3463.169
529.1256, 3510.158
529.6077, 3564.602
530.0898, 3603.518
530.5720, 3630.345
531.0541, 3654.470
531.5362, 3685.080
532.0182, 3709.021
532.5004, 3716.761
532.9825, 3702.573
533.4646, 3698.851
533.9467, 3717.472
534.4288, 3741.418
534.9109, 3757.725
535.3931, 3764.586
535.8752, 3767.487
536.3573, 3765.482
536.8394, 3760.613
537.3215, 3757.409
537.8036, 3755.342
538.2858, 3757.937
538.7679, 3774.490
539.2500, 3799.052
539.7321, 3790.176
540.2142, 3745.595
540.6964, 3700.427
541.1785, 3691.838
541.6606, 3707.176
542.1427, 3718.698
542.6248, 3720.481
543.1069, 3716.866
543.5891, 3706.779
544.0712, 3694.278
544.5533, 3688.281
545.0354, 3699.565
545.5175, 3712.396
545.9996, 3717.489
546.4818, 3714.424
546.9639, 3713.496
547.4460, 3707.055
547.9281, 3710.303
548.4102, 3734.149
548.8923, 3802.615
549.3745, 3849.954
549.8566, 3864.084
550.3387, 3864.748
550.8208, 3885.265
551.3029, 3928.358
551.7850, 3981.537
552.2672, 4043.357
552.7493, 4112.098
553.2314, 4179.786
553.7135, 4246.536
554.1956, 4315.045
554.6777, 4390.466
555.1599, 4469.005
555.6420, 4540.737
556.1241, 4604.217
556.6062, 4662.726
557.0883, 4715.632
557.5704, 4766.469
558.0526, 4820.550
558.5347, 4888.012
559.0168, 4951.331
559.4989, 5000.417
559.9810, 5037.642
560.4631, 5073.175
560.9453, 5113.320
561.4274, 5148.982
561.9095, 5174.623
562.3916, 5187.598
562.8737, 5201.551
563.3558, 5220.454
563.8380, 5236.463
564.3201, 5239.754
564.8022, 5225.810
565.2843, 5219.417
565.7664, 5229.287
566.2485, 5243.155
566.7307, 5228.922
567.2128, 5187.356
567.6949, 5146.374
568.1770, 5126.829
568.6591, 5116.364
569.1412, 5090.251
569.6234, 5048.410
570.1055, 4994.102
570.5876, 4926.073
571.0697, 4848.281
571.5518, 4763.426
572.0339, 4671.520
572.5161, 4575.916
572.9982, 4474.529
573.4803, 4372.711
573.9624, 4275.579
574.4445, 4207.018
574.9266, 4119.646
575.4088, 3992.042
575.8909, 3831.687
576.3730, 3690.912
576.8551, 3577.735
577.3372, 3473.061
577.8193, 3366.573
578.3015, 3256.836
578.7836, 3156.281
579.2657, 3065.006
579.7478, 2983.306
580.2299, 2915.352
580.7120, 2859.514
581.1942, 2806.510
581.6763, 2754.130
582.1584, 2703.391
582.6405, 2656.369
583.1226, 2612.258
583.6047, 2568.558
584.0869, 2516.581
584.5690, 2470.003
585.0511, 2441.507
585.5332, 2431.920
586.0153, 2424.707
586.4974, 2411.149
586.9796, 2400.136
587.4617, 2398.041
587.9438, 2415.627
588.4259, 2425.816
588.9080, 2426.370
589.3901, 2420.892
589.8723, 2412.395
590.3544, 2396.915
590.8365, 2392.548
591.3186, 2406.575
591.8007, 2433.374
592.2828, 2454.042
592.7650, 2468.502
593.2471, 2481.594
593.7292, 2493.558
594.2113, 2506.688
594.6934, 2527.730
595.1755, 2557.411
595.6577, 2585.287
596.1398, 2598.880
596.6219, 2607.615
597.1040, 2622.838
597.5861, 2648.666
598.0682, 2679.570
598.5503, 2717.597
599.0324, 2758.593
599.5145, 2794.430
599.9966, 2830.610
600.4788, 2853.342
600.9609, 2853.375
601.4430, 2833.795
601.9251, 2830.694
602.4072, 2849.004
602.8893, 2872.453
603.3715, 2894.952
603.8536, 2916.637
604.3357, 2922.496
604.8178, 2910.236
605.2999, 2891.913
605.7820, 2882.005
606.2642, 2876.859
606.7463, 2866.049
607.2284, 2844.563
607.7105, 2820.504
608.1926, 2802.703
608.6747, 2788.107
609.1569, 2768.747
609.6390, 2741.787
610.1211, 2709.031
610.6032, 2666.337
611.0853, 2614.517
611.5674, 2574.808
612.0496, 2562.641
612.5317, 2552.115
613.0138, 2531.396
613.4959, 2498.087
613.9780, 2462.212
614.4601, 2421.633
614.9423, 2382.671
615.4244, 2352.825
615.9065, 2332.201
616.3886, 2315.039
616.8707, 2302.668
617.3528, 2289.175
617.8350, 2259.563
618.3171, 2219.222
618.7992, 2188.134
619.2813, 2177.774
619.7634, 2180.138
620.2455, 2196.691
620.7277, 2224.533
621.2098, 2238.580
621.6919, 2210.863
622.1740, 2178.921
622.6561, 2166.154
623.1382, 2183.190
623.6204, 2198.764
624.1025, 2216.557
624.5846, 2228.737
625.0667, 2223.635
625.5488, 2191.412
626.0309, 2178.472
626.5131, 2194.557
626.9952, 2228.276
627.4773, 2261.652
627.9594, 2294.126
628.4415, 2314.260
628.9236, 2309.200
629.4058, 2293.468
629.8879, 2289.557
630.3700, 2296.334
630.8521, 2306.442
631.3342, 2320.593
631.8163, 2332.783
632.2985, 2338.051
632.7806, 2335.422
633.2627, 2328.149
633.7448, 2313.880
634.2269, 2297.137
634.7090, 2281.799
635.1912, 2269.240
635.6733, 2256.266
636.1554, 2243.824
636.6375, 2230.125
637.1196, 2210.865
637.6017, 2184.967
638.0839, 2162.042
638.5660, 2146.719
639.0481, 2135.300
639.5302, 2119.416
640.0123, 2099.480
640.4944, 2076.576
640.9766, 2048.061
641.4587, 2018.921
641.9408, 1993.163
642.4229, 1971.296
642.9050, 1955.121
643.3871, 1952.242
643.8693, 1951.522
644.3514, 1944.214
644.8335, 1925.023
645.3156, 1906.248
645.7977, 1885.784
646.2798, 1867.706
646.7620, 1857.429
647.2441, 1857.351
647.7262, 1858.152
648.2083, 1859.518
648.6904, 1859.491
649.1725, 1850.647
649.6547, 1833.733
650.1368, 1820.506
650.6189, 1820.392
651.1010, 1826.219
651.5831, 1825.496
652.0652, 1819.183
652.5474, 1814.868
653.0295, 1819.250
653.5116, 1826.012
653.9937, 1829.676
654.4758, 1828.215
654.9579, 1829.865
655.4401, 1842.955
655.9222, 1855.745
656.4043, 1857.167
656.8864, 1835.172
657.3685, 1829.580
657.8506, 1848.049
658.3328, 1877.510
658.8149, 1896.010
659.2970, 1903.367
659.7791, 1907.962
660.2612, 1909.992
660.7433, 1913.393
661.2255, 1927.490
661.7076, 1950.084
662.1897, 1971.653
662.6718, 1987.539
663.1539, 1999.658
663.6360, 2007.014
664.1181, 2010.055
664.6002, 2018.714
665.0823, 2042.493
665.5645, 2068.185
666.0466, 2088.388
666.5287, 2103.149
667.0108, 2110.729
667.4929, 2103.686
667.9750, 2098.942
668.4572, 2117.433
668.9393, 2161.234
669.4214, 2197.424
669.9035, 2221.271
670.3856, 2236.378
670.8677, 2241.317
671.3499, 2240.959
671.8320, 2252.286
672.3141, 2293.253
672.7962, 2336.936
673.2783, 2356.115
673.7604, 2358.234
674.2426, 2365.545
674.7247, 2391.427
675.2068, 2419.498
675.6889, 2444.350
676.1710, 2465.502
676.6531, 2482.133
677.1353, 2488.282
677.6174, 2498.646
678.0995, 2524.345
678.5816, 2568.166
679.0637, 2599.907
679.5458, 2618.255
680.0280, 2632.902
680.5101, 2654.997
680.9922, 2681.451
681.4743, 2703.625
681.9564, 2718.219
682.4385, 2733.122
682.9207, 2755.080
683.4028, 2781.455
683.8849, 2807.827
684.3670, 2830.371
684.8491, 2855.808
685.3312, 2890.497
685.8134, 2929.717
686.2955, 2958.544
686.7776, 2969.880
687.2597, 2983.083
687.7418, 3002.934
688.2239, 3028.850
688.7061, 3060.865
689.1882, 3099.651
689.6703, 3134.649
690.1524, 3155.144
690.6345, 3168.198
691.1166, 3192.100
691.5988, 3227.045
692.0809, 3260.824
692.5630, 3279.365
693.0451, 3295.334
693.5272, 3322.698
694.0093, 3370.466
694.4915, 3408.472
694.9736, 3415.800
695.4557, 3418.880
695.9378, 3445.400
696.4199, 3516.724
696.9020, 3560.246
697.3842, 3561.992
697.8663, 3544.170
698.3484, 3548.119
698.8305, 3572.413
699.3126, 3585.821
699.7947, 3573.242
700.2769, 3552.537
700.7590, 3556.284
701.2411, 3575.424
701.7232, 3581.582
702.2053, 3551.627
702.6874, 3512.144
703.1696, 3477.092
703.6517, 3446.512
704.1338, 3415.339
704.6159, 3391.278
705.0980, 3357.500
705.5801, 3306.011
706.0623, 3235.791
706.5444, 3165.717
707.0265, 3095.178
707.5086, 3026.403
707.9907, 2961.258
708.4728, 2899.682
708.9550, 2846.013
709.4371, 2801.779
709.9192, 2752.498
710.4013, 2675.512
710.8834, 2587.203
711.3655, 2509.087
711.8477, 2446.567
712.3298, 2396.564
712.8119, 2363.904
713.2940, 2341.301
713.7761, 2318.106
714.2582, 2293.162
714.7404, 2268.687
715.2225, 2246.945
715.7046, 2224.602
716.1867, 2188.749
716.6688, 2137.774
717.1509, 2099.005
717.6331, 2086.212
718.1152, 2088.874
718.5973, 2090.090
719.0794, 2089.739
719.5615, 2087.236
720.0436, 2077.082
720.5258, 2068.740
721.0079, 2072.645
721.4900, 2088.064
721.9721, 2095.928
722.4542, 2081.560
722.9363, 2067.807
723.4185, 2064.925
723.9006, 2074.207
724.3827, 2085.693
724.8648, 2100.955
725.3469, 2114.780
725.8290, 2119.271
726.3112, 2117.374
726.7933, 2128.408
727.2754, 2154.958
727.7575, 2185.925
728.2396, 2212.302
728.7217, 2236.013
729.2039, 2259.075
729.6859, 2282.562
730.1680, 2304.577
730.6501, 2321.971
731.1323, 2338.395
731.6144, 2358.407
732.0965, 2380.845
732.5786, 2409.494
733.0607, 2446.440
733.5428, 2487.990
734.0250, 2527.946
734.5071, 2566.402
734.9892, 2599.271
735.4713, 2623.983
735.9534, 2643.976
736.4355, 2662.150
736.9177, 2679.894
737.3998, 2702.363
737.8819, 2736.379
738.3640, 2772.079
738.8461, 2803.659
739.3282, 2831.497
739.8104, 2859.302
740.2925, 2889.090
740.7746, 2917.497
741.2567, 2943.605
741.7388, 2967.262
742.2209, 2991.169
742.7031, 3016.242
743.1852, 3037.268
743.6673, 3049.730
744.1494, 3055.377
744.6315, 3057.342
745.1136, 3055.869
745.5958, 3058.284
746.0779, 3075.737
746.5600, 3096.479
747.0421, 3107.538
747.5242, 3102.865
748.0063, 3104.900
748.4885, 3127.596
748.9706, 3153.345
749.4527, 3168.502
749.9348, 3169.961
750.4169, 3169.527
750.8990, 3166.164
751.3812, 3163.896
751.8633, 3169.950
752.3454, 3182.424
752.8275, 3191.683
753.3096, 3195.698
753.7917, 3195.629
754.2739, 3189.089
754.7560, 3180.013
755.2381, 3174.893
755.7202, 3178.094
756.2023, 3183.001
756.6844, 3190.375
757.1666, 3197.755
757.6487, 3199.479
758.1308, 3190.858
758.6129, 3187.505
759.0950, 3194.183
759.5771, 3207.026
760.0593, 3216.163
760.5414, 3221.857
761.0235, 3225.677
761.5056, 3226.804
761.9877, 3227.681
762.4698, 3230.701
762.9520, 3235.957
763.4341, 3243.794
763.9162, 3265.871
764.3983, 3279.640
764.8804, 3266.810
765.3625, 3229.670
765.8447, 3214.254
766.3268, 3230.732
766.8089, 3250.814
767.2910, 3263.896
767.7731, 3270.080
768.2552, 3268.271
768.7374, 3258.335
769.2195, 3251.321
769.7016, 3258.952
770.1837, 3272.475
770.6658, 3278.860
771.1479, 3277.243
771.6301, 3276.279
772.1122, 3285.108
772.5943, 3292.360
773.0764, 3289.196
773.5585, 3271.299
774.0406, 3257.160
774.5228, 3246.295
775.0049, 3239.941
775.4870, 3241.399
775.9691, 3250.303
776.4512, 3252.746
776.9333, 3247.177
777.4155, 3241.621
777.8976, 3245.060
778.3797, 3253.485
778.8618, 3259.201
779.3439, 3257.969
779.8260, 3264.164
780.3082, 3294.928
780.7903, 3330.791
781.2724, 3350.852
781.7545, 3341.985
782.2366, 3340.705
782.7188, 3349.759
783.2009, 3364.083
783.6830, 3376.831
784.1651, 3388.321
784.6472, 3403.980
785.1293, 3426.418
785.6115, 3447.694
786.0936, 3458.748
786.5757, 3461.866
787.0578, 3461.278
787.5399, 3455.965
788.0220, 3450.467
788.5042, 3439.813
788.9863, 3431.950
789.4684, 3441.748
789.9505, 3482.439
790.4326, 3512.363
790.9147, 3523.745
791.3969, 3522.494
791.8790, 3515.645
792.3611, 3504.462
792.8432, 3502.388
793.3253, 3519.344
793.8074, 3539.797
794.2896, 3545.642
794.7717, 3541.176
795.2537, 3535.659
795.7358, 3532.729
796.2180, 3529.087
796.7001, 3517.227
797.1822, 3504.024
797.6643, 3511.854
798.1464, 3550.645
798.6285, 3581.228
799.1107, 3590.269
799.5928, 3585.697
800.0749, 3590.452
800.5570, 3602.532
801.0391, 3609.806
801.5212, 3601.191
802.0034, 3588.706
802.4855, 3582.549
802.9676, 3581.570
803.4497, 3581.307
803.9318, 3583.945
804.4139, 3583.064
804.8961, 3575.212
805.3782, 3561.909
805.8603, 3551.624
806.3424, 3543.961
806.8245, 3541.119
807.3066, 3547.105
807.7888, 3557.207
808.2709, 3560.920
808.7530, 3558.099
809.2351, 3547.868
809.7172, 3524.276
810.1993, 3497.792
810.6815, 3474.755
811.1636, 3455.365
811.6457, 3438.203
812.1278, 3422.935
812.6099, 3410.533
813.0920, 3406.542
813.5742, 3407.920
814.0563, 3376.363
814.5384, 3308.981
815.0205, 3249.358
815.5026, 3233.746
815.9847, 3239.387
816.4669, 3226.765
816.9490, 3197.002
817.4311, 3164.433
817.9132, 3129.463
818.3953, 3099.630
818.8774, 3081.100
819.3596, 3074.668
819.8417, 3068.107
820.3238, 3063.699
820.8059, 3054.668
821.2880, 3034.968
821.7701, 3006.771
822.2523, 2989.879
822.7344, 2983.845
823.2165, 2976.519
823.6986, 2957.560
824.1807, 2933.722
824.6628, 2910.893
825.1450, 2889.464
825.6271, 2874.208
826.1092, 2872.850
826.5913, 2872.095
827.0734, 2863.523
827.5555, 2846.851
828.0377, 2844.362
828.5198, 2861.051
829.0019, 2872.850
829.4840, 2857.292
829.9661, 2826.076
830.4482, 2814.320
830.9304, 2821.415
831.4125, 2831.759
831.8946, 2839.065
832.3767, 2842.558
832.8588, 2837.516
833.3409, 2822.615
833.8231, 2823.563
834.3052, 2855.799
834.7873, 2884.525
835.2694, 2889.680
835.7515, 2873.377
836.2336, 2879.274
836.7158, 2908.438
837.1979, 2934.285
837.6800, 2931.089
838.1621, 2917.112
838.6442, 2918.196
839.1263, 2934.331
839.6085, 2949.158
840.0906, 2954.792
840.5727, 2957.554
841.0548, 2959.734
841.5369, 2961.409
842.0190, 2965.098
842.5012, 2970.397
842.9833, 2979.101
843.4654, 2995.278
843.9475, 3015.735
844.4296, 3026.560
844.9117, 3028.666
845.3939, 3030.325
845.8760, 3033.070
846.3581, 3040.571
846.8402, 3058.830
847.3223, 3087.646
847.8044, 3109.623
848.2866, 3119.852
848.7687, 3127.123
849.2508, 3133.833
849.7329, 3140.207
850.2150, 3147.966
850.6971, 3157.137
851.1793, 3168.128
851.6614, 3182.789
852.1435, 3198.456
852.6256, 3209.722
853.1077, 3217.927
853.5898, 3230.447
854.0720, 3254.775
854.5541, 3279.967
855.0362, 3300.571
855.5183, 3317.385
856.0004, 3338.157
856.4825, 3366.064
856.9647, 3386.098
857.4468, 3388.641
857.9289, 3380.790
858.4110, 3376.753
858.8931, 3377.811
859.3752, 3389.859
859.8574, 3433.697
860.3395, 3473.262
860.8216, 3481.878
861.3036, 3465.416
861.7858, 3456.160
862.2679, 3457.012
862.7500, 3464.278
863.2321, 3477.183
863.7142, 3495.631
864.1964, 3525.498
864.6785, 3564.857
865.1606, 3590.646
865.6427, 3584.841
866.1248, 3569.520
866.6069, 3564.051
867.0891, 3567.609
867.5712, 3578.105
868.0533, 3600.736
868.5354, 3623.644
869.0175, 3646.258
869.4996, 3666.649
869.9818, 3680.823
870.4639, 3689.193
870.9460, 3684.967
871.4281, 3659.129
871.9102, 3633.430
872.3923, 3647.351
872.8745, 3686.654
873.3566, 3720.356
873.8387, 3734.118
874.3208, 3742.924
874.8029, 3748.810
875.2850, 3754.564
875.7672, 3765.109
876.2493, 3783.505
876.7314, 3798.255
877.2135, 3807.514
877.6956, 3813.505
878.1777, 3819.660
878.6599, 3825.338
879.1420, 3827.569
879.6241, 3823.710
880.1062, 3821.999
880.5883, 3830.594
881.0704, 3843.309
881.5526, 3852.714
882.0347, 3845.894
882.5168, 3857.267
882.9989, 3894.243
883.4810, 3938.186
883.9631, 3971.055
884.4453, 3993.309
884.9274, 4005.740
885.4095, 4007.379
885.8916, 4009.374
886.3737, 4019.285
886.8558, 4035.910
887.3380, 4059.109
887.8201, 4090.480
888.3022, 4121.308
888.7843, 4152.475
889.2664, 4180.690
889.7485, 4201.789
890.2307, 4215.437
890.7128, 4235.356
891.1949, 4262.251
891.6770, 4287.096
892.1591, 4302.077
892.6412, 4311.426
893.1234, 4320.865
893.6055, 4330.789
894.0876, 4335.996
894.5697, 4320.006
895.0518, 4314.308
895.5339, 4338.990
896.0161, 4391.537
896.4982, 4414.345
896.9803, 4403.052
897.4624, 4395.583
897.9445, 4421.235
898.4266, 4460.270
898.9088, 4475.710
899.3909, 4472.625
899.8730, 4472.889
900.3551, 4491.192
900.8372, 4510.466
901.3193, 4524.735
901.8015, 4534.231
902.2836, 4538.705
902.7657, 4536.472
903.2478, 4535.570
903.7299, 4537.481
904.2120, 4543.364
904.6942, 4560.647
905.1763, 4584.058
905.6584, 4598.104
906.1405, 4581.656
906.6226, 4572.985
907.1047, 4604.155
907.5869, 4650.248
908.0690, 4665.816
908.5511, 4633.047
909.0332, 4616.447
909.5153, 4627.443
909.9974, 4647.518
910.4796, 4647.403
910.9617, 4634.510
911.4438, 4632.911
911.9259, 4651.188
912.4080, 4667.556
912.8901, 4660.093
913.3723, 4648.284
913.8544, 4653.167
914.3365, 4687.925
914.8186, 4708.490
915.3007, 4712.120
915.7828, 4707.372
916.2650, 4695.539
916.7471, 4681.033
917.2292, 4683.237
917.7113, 4703.134
918.1934, 4730.699
918.6755, 4771.833
919.1577, 4808.060
919.6398, 4820.111
920.1219, 4804.367
920.6040, 4802.797
921.0861, 4820.666
921.5682, 4844.596
922.0504, 4873.598
922.5325, 4902.958
923.0146, 4904.521
923.4967, 4883.275
923.9788, 4874.587
924.4609, 4912.851
924.9431, 4958.082
925.4252, 4978.526
925.9073, 4981.623
926.3894, 4996.149
926.8715, 5035.921
927.3536, 5065.571
927.8357, 5073.234
928.3178, 5073.114
928.7999, 5097.452
929.2820, 5142.393
929.7642, 5186.862
930.2463, 5228.301
930.7284, 5259.765
931.2105, 5261.209
931.6926, 5255.282
932.1747, 5271.731
932.6569, 5332.175
933.1390, 5391.791
933.6211, 5455.945
934.1032, 5511.138
934.5853, 5535.396
935.0674, 5535.802
935.5496, 5558.952
936.0317, 5610.684
936.5138, 5659.909
936.9959, 5680.581
937.4780, 5690.079
937.9601, 5700.891
938.4423, 5713.417
938.9244, 5736.781
939.4065, 5775.232
939.8886, 5817.241
940.3707, 5859.210
940.8528, 5899.972
941.3350, 5935.878
941.8171, 5965.629
942.2992, 5977.621
942.7813, 5942.508
943.2634, 5908.243
943.7455, 5912.257
944.2277, 5946.719
944.7098, 5975.975
945.1919, 6000.809
945.6740, 6013.168
946.1561, 6007.190
946.6382, 5993.100
947.1204, 5993.789
947.6025, 6005.195
948.0846, 6011.515
948.5667, 6008.818
949.0488, 5997.845
949.5309, 5970.714
950.0131, 5939.316
950.4952, 5918.910
950.9773, 5913.220
951.4594, 5914.717
951.9415, 5928.258
952.4236, 5937.885
952.9058, 5927.074
953.3879, 5899.497
953.8700, 5861.262
954.3521, 5812.842
954.8342, 5778.375
955.3163, 5791.069
955.7985, 5808.380
956.2806, 5799.699
956.7627, 5762.815
957.2448, 5729.512
957.7269, 5700.078
958.2090, 5671.874
958.6912, 5642.446
959.1733, 5614.087
959.6554, 5595.378
960.1375, 5583.421
960.6196, 5568.252
961.1017, 5534.512
961.5839, 5508.388
962.0660, 5513.608
962.5481, 5530.128
963.0302, 5514.877
963.5123, 5456.381
963.9944, 5415.873
964.4766, 5405.220
964.9587, 5409.873
965.4408, 5423.129
965.9229, 5434.318
966.4050, 5418.519
966.8871, 5360.743
967.3693, 5314.501
967.8514, 5307.368
968.3335, 5314.570
968.8156, 5319.947
969.2977, 5323.541
969.7798, 5323.587
970.2620, 5319.187
970.7441, 5320.417
971.2262, 5345.347
971.7083, 5373.818
972.1904, 5372.327
972.6725, 5346.130
973.1547, 5328.756
973.6368, 5337.978
974.1189, 5350.055
974.6010, 5358.463
975.0831, 5365.142
975.5652, 5376.776
976.0474, 5393.124
976.5295, 5405.058
977.0116, 5405.588
977.4937, 5410.797
977.9758, 5448.963
978.4579, 5497.729
978.9401, 5524.988
979.4222, 5503.657
979.9043, 5494.730
980.3864, 5500.610
980.8685, 5518.847
981.3506, 5554.485
981.8328, 5602.703
982.3149, 5631.262
982.7970, 5638.823
983.2791, 5642.961
983.7612, 5650.583
984.2433, 5664.439
984.7255, 5692.873
985.2076, 5734.701
985.6897, 5754.832
986.1718, 5744.302
986.6539, 5734.577
987.1360, 5734.497
987.6182, 5744.634
988.1003, 5773.542
988.5824, 5814.266
989.0645, 5846.105
989.5466, 5861.517
990.0287, 5864.818
990.5109, 5848.126
990.9930, 5824.974
991.4751, 5814.056
991.9572, 5820.202
992.4393, 5815.435
992.9214, 5797.234
993.4035, 5771.893
993.8856, 5741.276
994.3677, 5709.499
994.8499, 5684.774
995.3320, 5667.721
995.8141, 5649.050
996.2962, 5628.672
996.7783, 5602.096
997.2604, 5563.328
997.7426, 5516.458
998.2247, 5493.142
998.7068, 5491.563
999.1889, 5474.010
999.6710, 5412.055
1000.153, 5340.463
1000.635, 5293.941
1001.117, 5261.256
1001.599, 5222.118
1002.082, 5169.151
1002.564, 5113.927
1003.046, 5053.476
1003.528, 4997.383
1004.010, 4960.327
1004.492, 4938.084
1004.974, 4919.604
1005.456, 4903.922
1005.939, 4878.815
1006.421, 4827.588
1006.903, 4771.289
1007.385, 4724.209
1007.867, 4685.972
1008.349, 4653.139
1008.831, 4627.514
1009.313, 4598.354
1009.795, 4559.604
1010.278, 4516.962
1010.760, 4475.560
1011.242, 4437.961
1011.724, 4409.825
1012.206, 4411.916
1012.688, 4398.724
1013.170, 4349.160
1013.652, 4290.892
1014.135, 4257.894
1014.617, 4249.663
1015.099, 4232.144
1015.581, 4202.065
1016.063, 4166.520
1016.545, 4120.880
1017.027, 4080.380
1017.509, 4063.190
1017.991, 4071.759
1018.474, 4069.778
1018.956, 4053.878
1019.438, 4030.561
1019.920, 3999.189
1020.402, 3964.303
1020.884, 3936.890
1021.366, 3916.315
1021.848, 3899.930
1022.331, 3893.655
1022.813, 3881.663
1023.295, 3849.062
1023.777, 3811.450
1024.259, 3788.200
1024.741, 3782.058
1025.223, 3777.206
1025.705, 3773.511
1026.187, 3766.778
1026.670, 3746.854
1027.152, 3725.302
1027.634, 3719.416
1028.116, 3729.475
1028.598, 3734.221
1029.080, 3730.065
1029.562, 3717.072
1030.044, 3691.495
1030.526, 3659.363
1031.009, 3640.334
1031.491, 3631.751
1031.973, 3619.648
1032.455, 3596.302
1032.937, 3574.607
1033.419, 3569.614
1033.901, 3567.445
1034.383, 3549.294
1034.865, 3502.660
1035.348, 3482.530
1035.830, 3494.929
1036.312, 3506.632
1036.794, 3485.115
1037.276, 3448.305
1037.758, 3425.742
1038.240, 3416.407
1038.722, 3405.311
1039.205, 3380.747
1039.687, 3361.823
1040.169, 3355.179
1040.651, 3355.712
1041.133, 3354.662
1041.615, 3351.354
1042.097, 3337.831
1042.579, 3309.428
1043.062, 3281.206
1043.544, 3263.377
1044.026, 3253.153
1044.508, 3248.866
1044.990, 3251.714
1045.472, 3254.123
1045.954, 3257.676
1046.436, 3255.155
1046.918, 3234.812
1047.401, 3209.055
1047.883, 3207.205
1048.365, 3221.737
1048.847, 3227.236
1049.329, 3201.300
1049.811, 3180.531
1050.293, 3172.138
1050.775, 3173.618
1051.257, 3184.884
1051.740, 3204.875
1052.222, 3216.735
1052.704, 3217.479
1053.186, 3218.613
1053.668, 3233.804
1054.150, 3250.356
1054.632, 3252.558
1055.114, 3239.175
1055.597, 3250.753
1056.079, 3297.099
1056.561, 3332.107
1057.043, 3329.348
1057.525, 3314.366
1058.007, 3339.847
1058.489, 3388.707
1058.971, 3423.302
1059.453, 3411.211
1059.936, 3417.253
1060.418, 3465.064
1060.900, 3522.340
1061.382, 3561.713
1061.864, 3584.336
1062.346, 3609.379
1062.828, 3637.503
1063.310, 3666.645
1063.792, 3698.032
1064.275, 3727.906
1064.757, 3752.655
1065.239, 3773.391
1065.721, 3795.756
1066.203, 3819.710
1066.685, 3847.921
1067.167, 3884.069
1067.649, 3916.176
1068.132, 3924.988
1068.614, 3919.840
1069.096, 3916.645
1069.578, 3922.058
1070.060, 3910.330
1070.542, 3857.037
1071.024, 3816.850
1071.506, 3828.894
1071.989, 3875.345
1072.471, 3868.241
1072.953, 3816.981
1073.435, 3769.870
1073.917, 3749.225
1074.399, 3740.006
1074.881, 3747.001
1075.363, 3755.098
1075.845, 3741.818
1076.328, 3703.021
1076.810, 3666.733
1077.292, 3634.061
1077.774, 3604.862
1078.256, 3581.222
1078.738, 3558.919
1079.220, 3531.579
1079.702, 3499.798
1080.184, 3473.475
1080.667, 3452.020
1081.149, 3441.003
1081.631, 3446.471
1082.113, 3455.662
1082.595, 3439.143
1083.077, 3407.791
1083.559, 3390.018
1084.041, 3397.233
1084.524, 3402.590
1085.006, 3394.829
1085.488, 3382.369
1085.970, 3369.360
1086.452, 3355.906
1086.934, 3343.200
1087.416, 3331.262
1087.898, 3321.108
1088.380, 3312.990
1088.863, 3306.858
1089.345, 3305.859
1089.827, 3305.800
1090.309, 3299.454
1090.791, 3287.454
1091.273, 3264.271
1091.755, 3227.360
1092.237, 3192.080
1092.719, 3182.852
1093.202, 3179.108
1093.684, 3148.163
1094.166, 3090.897
1094.648, 3041.757
1095.130, 3015.951
1095.612, 2987.976
1096.094, 2952.294
1096.576, 2911.210
1097.058, 2868.747
1097.541, 2824.951
1098.023, 2778.399
1098.505, 2726.855
1098.987, 2682.101
1099.469, 2655.729
1099.951, 2632.146
1100.433, 2601.956
1100.915, 2565.395
1101.398, 2524.014
1101.880, 2478.299
1102.362, 2434.998
1102.844, 2393.143
1103.326, 2360.450
1103.808, 2355.677
1104.290, 2359.286
1104.772, 2336.671
1105.255, 2272.756
1105.737, 2231.765
1106.219, 2219.707
1106.701, 2211.853
1107.183, 2182.233
1107.665, 2146.616
1108.147, 2128.171
1108.629, 2124.857
1109.111, 2119.382
1109.594, 2104.793
1110.076, 2093.281
1110.558, 2088.942
1111.040, 2084.892
1111.522, 2066.265
1112.004, 2039.424
1112.486, 2023.046
1112.968, 2021.666
1113.450, 2017.153
1113.933, 1994.600
1114.415, 1974.687
1114.897, 1967.679
1115.379, 1970.833
1115.861, 1972.083
1116.343, 1971.347
1116.825, 1967.660
1117.307, 1958.878
1117.790, 1950.641
1118.272, 1951.944
1118.754, 1952.131
1119.236, 1937.852
1119.718, 1904.163
1120.200, 1888.302
1120.682, 1891.628
1121.164, 1895.759
1121.646, 1884.681
1122.129, 1871.499
1122.611, 1874.361
1123.093, 1885.396
1123.575, 1881.866
1124.057, 1850.756
1124.539, 1833.132
1125.021, 1834.929
1125.503, 1843.214
1125.985, 1846.566
1126.468, 1846.018
1126.950, 1843.072
1127.432, 1837.865
1127.914, 1830.208
1128.396, 1816.319
1128.878, 1806.331
1129.360, 1805.274
1129.842, 1805.851
1130.325, 1790.918
1130.807, 1765.758
1131.289, 1746.281
1131.771, 1735.944
1132.253, 1729.605
1132.735, 1728.233
1133.217, 1726.786
1133.699, 1722.159
1134.182, 1715.225
1134.664, 1712.242
1135.146, 1712.351
1135.628, 1708.434
1136.110, 1693.638
1136.592, 1681.322
1137.074, 1684.760
1137.556, 1691.390
1138.038, 1686.701
1138.521, 1667.968
1139.003, 1658.216
1139.485, 1657.665
1139.967, 1658.943
1140.449, 1657.788
1140.931, 1655.827
1141.413, 1655.591
1141.895, 1655.383
1142.377, 1650.928
1142.860, 1640.889
1143.342, 1630.825
1143.824, 1621.206
1144.306, 1611.612
1144.788, 1604.411
1145.270, 1595.393
1145.752, 1573.407
1146.234, 1541.038
1146.717, 1527.416
1147.199, 1544.288
1147.681, 1559.471
1148.163, 1566.896
1148.645, 1568.687
1149.127, 1566.711
1149.609, 1561.736
1150.091, 1554.237
1150.573, 1543.851
1151.056, 1536.196
1151.538, 1534.577
1152.020, 1532.805
1152.502, 1527.905
1152.984, 1522.042
1153.466, 1523.123
1153.948, 1528.186
1154.430, 1527.646
1154.912, 1515.338
1155.395, 1506.096
1155.877, 1510.889
1156.359, 1514.844
1156.841, 1508.420
1157.323, 1493.494
1157.805, 1481.443
1158.287, 1472.649
1158.769, 1468.793
1159.251, 1475.228
1159.734, 1481.114
1160.216, 1481.352
1160.698, 1478.701
1161.180, 1474.517
1161.662, 1468.647
1162.144, 1472.593
1162.626, 1486.126
1163.108, 1494.620
1163.591, 1482.370
1164.073, 1467.706
1164.555, 1463.243
1165.037, 1464.419
1165.519, 1460.157
1166.001, 1449.396
1166.483, 1444.591
1166.965, 1447.351
1167.448, 1452.673
1167.930, 1461.396
1168.412, 1466.365
1168.894, 1457.099
1169.376, 1437.023
1169.858, 1429.013
1170.340, 1435.834
1170.822, 1438.962
1171.304, 1433.251
1171.786, 1428.168
1172.269, 1440.554
1172.751, 1455.487
1173.233, 1453.544
1173.715, 1431.077
1174.197, 1421.205
1174.679, 1426.826
1175.161, 1435.652
1175.643, 1445.635
1176.126, 1452.554
1176.608, 1447.464
1177.090, 1437.078
1177.572, 1431.019
1178.054, 1432.325
1178.536, 1434.471
1179.018, 1438.012
1179.500, 1440.146
1179.983, 1439.436
1180.465, 1436.425
1180.947, 1429.051
1181.429, 1420.742
1181.911, 1418.755
1182.393, 1431.117
1182.875, 1438.575
1183.357, 1439.307
1183.839, 1437.527
1184.322, 1437.159
1184.804, 1436.219
1185.286, 1428.330
1185.768, 1415.823
1186.250, 1406.008
1186.732, 1401.630
1187.214, 1400.245
1187.696, 1401.614
1188.178, 1405.460
1188.661, 1414.931
1189.143, 1425.750
1189.625, 1422.399
1190.107, 1407.695
1190.589, 1402.066
1191.071, 1426.399
1191.553, 1442.416
1192.035, 1440.033
1192.518, 1431.143
1193.000, 1431.914
1193.482, 1439.560
1193.964, 1448.419
1194.446, 1457.410
1194.928, 1459.181
1195.410, 1442.649
1195.892, 1428.238
1196.375, 1421.592
1196.857, 1420.150
1197.339, 1419.203
1197.821, 1419.408
1198.303, 1424.509
1198.785, 1435.632
1199.267, 1442.202
1199.749, 1435.175
1200.231, 1427.534
1200.714, 1423.590
1201.196, 1422.859
1201.678, 1426.276
1202.160, 1431.863
1202.642, 1431.572
1203.124, 1421.885
1203.606, 1414.196
1204.088, 1415.614
1204.570, 1418.317
1205.053, 1418.774
1205.535, 1417.596
1206.017, 1415.740
1206.499, 1414.147
1206.981, 1417.005
1207.463, 1427.986
1207.945, 1437.491
1208.427, 1443.372
1208.910, 1443.952
1209.392, 1434.890
1209.874, 1419.701
1210.356, 1420.581
1210.838, 1433.708
1211.320, 1442.070
1211.802, 1435.751
1212.284, 1428.558
1212.766, 1425.051
1213.249, 1423.255
1213.731, 1422.574
1214.213, 1422.669
1214.695, 1419.998
1215.177, 1415.299
1215.659, 1412.463
1216.141, 1413.179
1216.623, 1416.694
1217.105, 1428.785
1217.588, 1437.471
1218.070, 1423.997
1218.552, 1394.540
1219.034, 1399.037
1219.516, 1433.146
1219.998, 1459.616
1220.480, 1451.196
1220.962, 1441.799
1221.445, 1444.195
1221.927, 1448.597
1222.409, 1439.482
1222.891, 1421.331
1223.373, 1420.733
1223.855, 1437.278
1224.337, 1453.402
1224.819, 1463.901
1225.301, 1466.743
1225.784, 1458.661
1226.266, 1447.007
1226.748, 1442.865
1227.230, 1444.302
1227.712, 1443.007
1228.194, 1438.458
1228.676, 1434.895
1229.158, 1438.301
1229.641, 1437.283
1230.123, 1424.824
1230.605, 1410.660
1231.087, 1414.730
1231.569, 1431.175
1232.051, 1442.483
1232.533, 1446.424
1233.015, 1445.049
1233.497, 1431.785
1233.979, 1423.138
1234.462, 1425.340
1234.944, 1432.851
1235.426, 1436.934
1235.908, 1437.482
1236.390, 1432.731
1236.872, 1422.048
1237.354, 1413.744
1237.836, 1411.118
1238.319, 1411.156
1238.801, 1413.569
1239.283, 1417.440
1239.765, 1420.553
1240.247, 1423.725
1240.729, 1430.516
1241.211, 1443.211
1241.693, 1446.108
1242.176, 1427.851
1242.658, 1414.999
1243.140, 1418.808
1243.622, 1430.471
1244.104, 1433.800
1244.586, 1431.948
1245.068, 1430.339
1245.550, 1429.457
1246.032, 1433.591
1246.515, 1448.059
1246.997, 1454.644
1247.479, 1442.120
1247.961, 1423.133
1248.443, 1419.251
1248.925, 1425.525
1249.407, 1434.862
1249.889, 1447.864
1250.371, 1455.092
1250.854, 1455.745
1251.336, 1452.240
1251.818, 1443.500
1252.300, 1434.532
1252.782, 1432.203
1253.264, 1435.100
1253.746, 1442.288
1254.228, 1456.266
1254.711, 1463.179
1255.193, 1461.929
1255.675, 1459.232
1256.157, 1457.805
1256.639, 1457.634
1257.121, 1459.358
1257.603, 1462.046
1258.085, 1465.108
1258.568, 1469.775
1259.050, 1466.022
1259.532, 1452.913
1260.014, 1441.963
1260.496, 1440.374
1260.978, 1442.597
1261.460, 1444.243
1261.942, 1446.425
1262.424, 1451.367
1262.906, 1460.000
1263.389, 1462.127
1263.871, 1457.818
1264.353, 1453.068
1264.835, 1451.087
1265.317, 1449.979
1265.799, 1446.981
1266.281, 1445.425
1266.763, 1450.555
1267.246, 1462.620
1267.728, 1462.580
1268.210, 1452.075
1268.692, 1446.688
1269.174, 1461.640
1269.656, 1475.602
1270.138, 1479.887
1270.620, 1477.988
1271.103, 1468.832
1271.585, 1454.429
1272.067, 1460.302
1272.549, 1481.419
1273.031, 1490.111
1273.513, 1453.954
1273.995, 1430.835
1274.477, 1442.670
1274.959, 1460.924
1275.442, 1457.140
1275.924, 1440.172
1276.406, 1443.779
1276.888, 1463.122
1277.370, 1478.502
1277.852, 1478.120
1278.334, 1479.587
1278.816, 1485.885
1279.298, 1491.599
1279.781, 1492.856
1280.263, 1489.675
1280.745, 1477.265
1281.227, 1460.333
1281.709, 1453.748
1282.191, 1469.525
1282.673, 1477.314
1283.155, 1474.135
1283.638, 1470.633
1284.120, 1479.299
1284.602, 1489.811
1285.084, 1485.993
1285.566, 1474.415
1286.048, 1472.863
1286.530, 1486.753
1287.012, 1493.037
1287.495, 1490.458
1287.977, 1484.043
1288.459, 1473.504
1288.941, 1464.698
1289.423, 1464.681
1289.905, 1468.838
1290.387, 1468.042
1290.869, 1461.797
1291.351, 1457.817
1291.833, 1456.322
1292.316, 1454.898
1292.798, 1447.272
1293.280, 1444.691
1293.762, 1459.728
1294.244, 1478.184
1294.726, 1481.798
1295.208, 1473.609
1295.690, 1483.353
1296.172, 1508.355
1296.655, 1524.388
1297.137, 1512.928
1297.619, 1498.997
1298.101, 1485.700
1298.583, 1476.703
1299.065, 1478.158
1299.547, 1486.257
1300.029, 1491.828
1300.512, 1494.619
1300.994, 1494.885
1301.476, 1493.262
1301.958, 1486.451
1302.440, 1471.140
1302.922, 1459.884
1303.404, 1470.410
1303.886, 1487.437
1304.369, 1488.102
1304.851, 1476.823
1305.333, 1466.692
1305.815, 1455.241
1306.297, 1460.320
1306.779, 1484.822
1307.261, 1506.395
1307.743, 1505.432
1308.225, 1496.787
1308.708, 1488.259
1309.190, 1482.678
1309.672, 1485.477
1310.154, 1497.744
1310.636, 1500.164
1311.118, 1492.826
1311.600, 1488.825
1312.082, 1499.461
1312.564, 1511.530
1313.047, 1524.008
1313.529, 1530.304
1314.011, 1516.520
1314.493, 1489.434
1314.975, 1490.264
1315.457, 1513.643
1315.939, 1529.307
1316.421, 1516.412
1316.904, 1505.780
1317.386, 1502.940
1317.868, 1501.309
##END=



