##NAMES=Raspite
##RRUFFID=R130514
##IDEAL CHEMISTRY=Pb^2+^W^6+^O_4_
##LOCALITY=Grand Central mine, Tombstone, Arizona, USA
##OWNER=RRUFF
##SOURCE=Bruce Murphy
##DESCRIPTION=Elongated, prismatic-to-tabular, pale yellow-to-colorless crystals, associated with chlorargyrite, emmonsite, ottoite, quartz, and jarosite.
##STATUS=The identification of this mineral is confirmed by single-crystal X-ray diffraction and chemical analysis.
##URL=rruff.info/R130514
##MEASURED CHEMISTRY=Pb_0.96_(W_0.57_Te_0.44_Al_0.01_)O_4_
8.975323e+001, 0.000000e+000
9.023535e+001, 1.050795e+001
9.071747e+001, 1.041818e+001
9.119958e+001, 1.034603e+001
9.168170e+001, 1.047898e+001
9.216382e+001, 1.058934e+001
9.264594e+001, 1.065131e+001
9.312805e+001, 1.069572e+001
9.361017e+001, 1.074282e+001
9.409229e+001, 1.076556e+001
9.457440e+001, 1.076123e+001
9.505651e+001, 1.073515e+001
9.553863e+001, 1.068756e+001
9.602074e+001, 1.063283e+001
9.650286e+001, 1.058893e+001
9.698498e+001, 1.055744e+001
9.746709e+001, 1.050709e+001
9.794921e+001, 1.041991e+001
9.843133e+001, 1.024828e+001
9.891344e+001, 1.010624e+001
9.939556e+001, 1.004471e+001
9.987768e+001, 1.003635e+001
1.003598e+002, 1.000122e+001
1.008419e+002, 9.866589e+000
1.013240e+002, 9.675452e+000
1.018061e+002, 9.592254e+000
1.022883e+002, 9.739598e+000
1.027704e+002, 9.912607e+000
1.032525e+002, 9.878621e+000
1.037346e+002, 9.590280e+000
1.042167e+002, 9.339507e+000
1.046988e+002, 9.378287e+000
1.051810e+002, 9.575646e+000
1.056631e+002, 9.747144e+000
1.061452e+002, 9.795893e+000
1.066273e+002, 9.752901e+000
1.071094e+002, 9.748133e+000
1.075915e+002, 9.806827e+000
1.080737e+002, 9.875741e+000
1.085558e+002, 9.917438e+000
1.090379e+002, 9.947120e+000
1.095200e+002, 1.000439e+001
1.100021e+002, 1.014577e+001
1.104842e+002, 1.040663e+001
1.109664e+002, 1.055961e+001
1.114485e+002, 1.052816e+001
1.119306e+002, 1.046222e+001
1.124127e+002, 1.043273e+001
1.128948e+002, 1.044819e+001
1.133769e+002, 1.046746e+001
1.138591e+002, 1.042586e+001
1.143412e+002, 1.022841e+001
1.148233e+002, 1.014943e+001
1.153054e+002, 1.027044e+001
1.157875e+002, 1.046596e+001
1.162696e+002, 1.062024e+001
1.167517e+002, 1.069262e+001
1.172339e+002, 1.070580e+001
1.177160e+002, 1.070545e+001
1.181981e+002, 1.069192e+001
1.186802e+002, 1.066877e+001
1.191623e+002, 1.063613e+001
1.196444e+002, 1.059439e+001
1.201266e+002, 1.054181e+001
1.206087e+002, 1.046943e+001
1.210908e+002, 1.039274e+001
1.215729e+002, 1.033875e+001
1.220550e+002, 1.030930e+001
1.225371e+002, 1.029893e+001
1.230193e+002, 1.031527e+001
1.235014e+002, 1.036365e+001
1.239835e+002, 1.039350e+001
1.244656e+002, 1.036904e+001
1.249477e+002, 1.031706e+001
1.254298e+002, 1.024782e+001
1.259120e+002, 1.014726e+001
1.263941e+002, 1.005400e+001
1.268762e+002, 1.007816e+001
1.273583e+002, 1.034682e+001
1.278404e+002, 1.051472e+001
1.283225e+002, 1.043019e+001
1.288047e+002, 1.021049e+001
1.292868e+002, 1.000534e+001
1.297689e+002, 9.904969e+000
1.302510e+002, 9.905255e+000
1.307331e+002, 9.948451e+000
1.312152e+002, 1.009306e+001
1.316974e+002, 1.022721e+001
1.321795e+002, 1.033005e+001
1.326616e+002, 1.039999e+001
1.331437e+002, 1.043637e+001
1.336258e+002, 1.043111e+001
1.341079e+002, 1.036733e+001
1.345901e+002, 1.038665e+001
1.350722e+002, 1.051912e+001
1.355543e+002, 1.069193e+001
1.360364e+002, 1.089297e+001
1.365185e+002, 1.110967e+001
1.370006e+002, 1.129331e+001
1.374828e+002, 1.137932e+001
1.379649e+002, 1.134583e+001
1.384470e+002, 1.130873e+001
1.389291e+002, 1.126014e+001
1.394112e+002, 1.121635e+001
1.398933e+002, 1.118827e+001
1.403755e+002, 1.117286e+001
1.408576e+002, 1.119558e+001
1.413397e+002, 1.131430e+001
1.418218e+002, 1.151946e+001
1.423039e+002, 1.171408e+001
1.427860e+002, 1.187155e+001
1.432681e+002, 1.198964e+001
1.437503e+002, 1.204968e+001
1.442324e+002, 1.198927e+001
1.447145e+002, 1.193797e+001
1.451966e+002, 1.203361e+001
1.456787e+002, 1.227553e+001
1.461608e+002, 1.251000e+001
1.466430e+002, 1.256355e+001
1.471251e+002, 1.240679e+001
1.476072e+002, 1.235812e+001
1.480893e+002, 1.262274e+001
1.485714e+002, 1.292564e+001
1.490535e+002, 1.311383e+001
1.495357e+002, 1.315612e+001
1.500178e+002, 1.313516e+001
1.504999e+002, 1.317696e+001
1.509820e+002, 1.332984e+001
1.514641e+002, 1.344045e+001
1.519462e+002, 1.344680e+001
1.524284e+002, 1.343997e+001
1.529105e+002, 1.350389e+001
1.533926e+002, 1.366760e+001
1.538747e+002, 1.388346e+001
1.543568e+002, 1.403197e+001
1.548389e+002, 1.404493e+001
1.553211e+002, 1.406372e+001
1.558032e+002, 1.409722e+001
1.562853e+002, 1.413965e+001
1.567674e+002, 1.418840e+001
1.572495e+002, 1.424363e+001
1.577316e+002, 1.429733e+001
1.582138e+002, 1.431246e+001
1.586959e+002, 1.425756e+001
1.591780e+002, 1.420554e+001
1.596601e+002, 1.414628e+001
1.601422e+002, 1.410040e+001
1.606243e+002, 1.412375e+001
1.611065e+002, 1.426511e+001
1.615886e+002, 1.449201e+001
1.620707e+002, 1.464950e+001
1.625528e+002, 1.470428e+001
1.630349e+002, 1.472880e+001
1.635170e+002, 1.474986e+001
1.639991e+002, 1.476924e+001
1.644813e+002, 1.480382e+001
1.649634e+002, 1.486001e+001
1.654455e+002, 1.494286e+001
1.659276e+002, 1.506061e+001
1.664097e+002, 1.525003e+001
1.668918e+002, 1.544720e+001
1.673740e+002, 1.558729e+001
1.678561e+002, 1.567056e+001
1.683382e+002, 1.569414e+001
1.688203e+002, 1.554849e+001
1.693024e+002, 1.536524e+001
1.697845e+002, 1.532045e+001
1.702667e+002, 1.551624e+001
1.707488e+002, 1.586969e+001
1.712309e+002, 1.620219e+001
1.717130e+002, 1.652938e+001
1.721951e+002, 1.679957e+001
1.726772e+002, 1.697379e+001
1.731594e+002, 1.709508e+001
1.736415e+002, 1.722069e+001
1.741236e+002, 1.737530e+001
1.746057e+002, 1.756211e+001
1.750878e+002, 1.780482e+001
1.755699e+002, 1.819937e+001
1.760521e+002, 1.854175e+001
1.765342e+002, 1.876053e+001
1.770163e+002, 1.889075e+001
1.774984e+002, 1.899378e+001
1.779805e+002, 1.911362e+001
1.784626e+002, 1.925072e+001
1.789448e+002, 1.937719e+001
1.794269e+002, 1.942518e+001
1.799090e+002, 1.952847e+001
1.803911e+002, 1.973978e+001
1.808732e+002, 2.004404e+001
1.813553e+002, 2.039829e+001
1.818375e+002, 2.077383e+001
1.823196e+002, 2.117783e+001
1.828017e+002, 2.152285e+001
1.832838e+002, 2.175181e+001
1.837659e+002, 2.198567e+001
1.842480e+002, 2.230547e+001
1.847301e+002, 2.269836e+001
1.852123e+002, 2.307472e+001
1.856944e+002, 2.334139e+001
1.861765e+002, 2.347725e+001
1.866586e+002, 2.367734e+001
1.871407e+002, 2.401566e+001
1.876228e+002, 2.436170e+001
1.881050e+002, 2.461430e+001
1.885871e+002, 2.476305e+001
1.890692e+002, 2.487204e+001
1.895513e+002, 2.498679e+001
1.900334e+002, 2.510923e+001
1.905155e+002, 2.527202e+001
1.909977e+002, 2.552853e+001
1.914798e+002, 2.580372e+001
1.919619e+002, 2.598598e+001
1.924440e+002, 2.604170e+001
1.929261e+002, 2.611862e+001
1.934082e+002, 2.642072e+001
1.938904e+002, 2.687778e+001
1.943725e+002, 2.727656e+001
1.948546e+002, 2.754788e+001
1.953367e+002, 2.771936e+001
1.958188e+002, 2.783560e+001
1.963009e+002, 2.788077e+001
1.967831e+002, 2.791104e+001
1.972652e+002, 2.796410e+001
1.977473e+002, 2.803545e+001
1.982294e+002, 2.811476e+001
1.987115e+002, 2.822536e+001
1.991936e+002, 2.834738e+001
1.996758e+002, 2.837309e+001
2.001579e+002, 2.817768e+001
2.006400e+002, 2.806416e+001
2.011221e+002, 2.824039e+001
2.016042e+002, 2.862030e+001
2.020863e+002, 2.898989e+001
2.025685e+002, 2.921458e+001
2.030506e+002, 2.929904e+001
2.035327e+002, 2.930243e+001
2.040148e+002, 2.908522e+001
2.044969e+002, 2.893297e+001
2.049790e+002, 2.900419e+001
2.054612e+002, 2.923329e+001
2.059433e+002, 2.945255e+001
2.064254e+002, 2.950667e+001
2.069075e+002, 2.938223e+001
2.073896e+002, 2.935479e+001
2.078717e+002, 2.950238e+001
2.083539e+002, 2.968237e+001
2.088360e+002, 2.989695e+001
2.093181e+002, 3.011369e+001
2.098002e+002, 3.027049e+001
2.102823e+002, 3.030432e+001
2.107644e+002, 3.019960e+001
2.112466e+002, 3.010894e+001
2.117287e+002, 2.995569e+001
2.122108e+002, 2.988397e+001
2.126929e+002, 3.003032e+001
2.131750e+002, 3.033235e+001
2.136571e+002, 3.059393e+001
2.141393e+002, 3.062470e+001
2.146214e+002, 3.037953e+001
2.151035e+002, 3.021403e+001
2.155856e+002, 3.011061e+001
2.160677e+002, 3.007999e+001
2.165498e+002, 3.016434e+001
2.170320e+002, 3.034077e+001
2.175141e+002, 3.052267e+001
2.179962e+002, 3.062567e+001
2.184783e+002, 3.063550e+001
2.189604e+002, 3.069959e+001
2.194425e+002, 3.088446e+001
2.199247e+002, 3.106340e+001
2.204068e+002, 3.114545e+001
2.208889e+002, 3.113497e+001
2.213710e+002, 3.111212e+001
2.218531e+002, 3.114573e+001
2.223352e+002, 3.124094e+001
2.228174e+002, 3.132286e+001
2.232995e+002, 3.135430e+001
2.237816e+002, 3.139932e+001
2.242637e+002, 3.150306e+001
2.247458e+002, 3.166805e+001
2.252279e+002, 3.187770e+001
2.257100e+002, 3.213838e+001
2.261922e+002, 3.243998e+001
2.266743e+002, 3.270709e+001
2.271564e+002, 3.289302e+001
2.276385e+002, 3.306835e+001
2.281206e+002, 3.333061e+001
2.286027e+002, 3.368858e+001
2.290849e+002, 3.398345e+001
2.295670e+002, 3.406980e+001
2.300491e+002, 3.399760e+001
2.305312e+002, 3.390795e+001
2.310133e+002, 3.368450e+001
2.314954e+002, 3.353030e+001
2.319776e+002, 3.375832e+001
2.324597e+002, 3.442810e+001
2.329418e+002, 3.506072e+001
2.334239e+002, 3.526412e+001
2.339060e+002, 3.524792e+001
2.343881e+002, 3.532394e+001
2.348703e+002, 3.560076e+001
2.353524e+002, 3.597698e+001
2.358345e+002, 3.635739e+001
2.363166e+002, 3.677555e+001
2.367987e+002, 3.706310e+001
2.372808e+002, 3.696263e+001
2.377630e+002, 3.673582e+001
2.382451e+002, 3.669213e+001
2.387272e+002, 3.699397e+001
2.392093e+002, 3.742128e+001
2.396914e+002, 3.758119e+001
2.401735e+002, 3.736188e+001
2.406557e+002, 3.723817e+001
2.411378e+002, 3.748954e+001
2.416199e+002, 3.788150e+001
2.421020e+002, 3.821373e+001
2.425841e+002, 3.842420e+001
2.430662e+002, 3.852722e+001
2.435484e+002, 3.850532e+001
2.440305e+002, 3.826673e+001
2.445126e+002, 3.816005e+001
2.449947e+002, 3.837704e+001
2.454768e+002, 3.870563e+001
2.459589e+002, 3.897618e+001
2.464410e+002, 3.913173e+001
2.469232e+002, 3.921453e+001
2.474053e+002, 3.930427e+001
2.478874e+002, 3.942906e+001
2.483695e+002, 3.948746e+001
2.488516e+002, 3.936979e+001
2.493337e+002, 3.924052e+001
2.498159e+002, 3.925792e+001
2.502980e+002, 3.946494e+001
2.507801e+002, 3.972811e+001
2.512622e+002, 3.981804e+001
2.517443e+002, 3.965608e+001
2.522264e+002, 3.948968e+001
2.527086e+002, 3.928504e+001
2.531907e+002, 3.912034e+001
2.536728e+002, 3.905795e+001
2.541549e+002, 3.911102e+001
2.546370e+002, 3.923772e+001
2.551191e+002, 3.939479e+001
2.556013e+002, 3.965860e+001
2.560834e+002, 3.977514e+001
2.565655e+002, 3.959748e+001
2.570476e+002, 3.940235e+001
2.575297e+002, 3.943743e+001
2.580118e+002, 3.971333e+001
2.584940e+002, 3.998556e+001
2.589761e+002, 3.988148e+001
2.594582e+002, 3.910957e+001
2.599403e+002, 3.871094e+001
2.604224e+002, 3.897131e+001
2.609045e+002, 3.929995e+001
2.613867e+002, 3.926872e+001
2.618688e+002, 3.887361e+001
2.623509e+002, 3.846489e+001
2.628330e+002, 3.847239e+001
2.633151e+002, 3.908531e+001
2.637972e+002, 3.942340e+001
2.642794e+002, 3.941607e+001
2.647615e+002, 3.925408e+001
2.652436e+002, 3.896618e+001
2.657257e+002, 3.860019e+001
2.662078e+002, 3.825758e+001
2.666899e+002, 3.803495e+001
2.671721e+002, 3.794142e+001
2.676542e+002, 3.793658e+001
2.681363e+002, 3.814873e+001
2.686184e+002, 3.831572e+001
2.691005e+002, 3.827523e+001
2.695826e+002, 3.806015e+001
2.700648e+002, 3.781799e+001
2.705469e+002, 3.766427e+001
2.710290e+002, 3.760215e+001
2.715111e+002, 3.757434e+001
2.719932e+002, 3.760399e+001
2.724753e+002, 3.763717e+001
2.729575e+002, 3.766639e+001
2.734396e+002, 3.768234e+001
2.739217e+002, 3.766236e+001
2.744038e+002, 3.758575e+001
2.748859e+002, 3.745887e+001
2.753680e+002, 3.736232e+001
2.758501e+002, 3.725446e+001
2.763322e+002, 3.721104e+001
2.768144e+002, 3.731651e+001
2.772965e+002, 3.750714e+001
2.777786e+002, 3.763176e+001
2.782607e+002, 3.759595e+001
2.787428e+002, 3.745000e+001
2.792249e+002, 3.741426e+001
2.797071e+002, 3.757051e+001
2.801892e+002, 3.771636e+001
2.806713e+002, 3.776811e+001
2.811534e+002, 3.777957e+001
2.816355e+002, 3.786518e+001
2.821176e+002, 3.808728e+001
2.825998e+002, 3.836856e+001
2.830819e+002, 3.849358e+001
2.835640e+002, 3.837626e+001
2.840461e+002, 3.829409e+001
2.845282e+002, 3.834032e+001
2.850103e+002, 3.844566e+001
2.854925e+002, 3.850412e+001
2.859746e+002, 3.847815e+001
2.864567e+002, 3.841475e+001
2.869388e+002, 3.839457e+001
2.874209e+002, 3.843181e+001
2.879030e+002, 3.845977e+001
2.883852e+002, 3.843826e+001
2.888673e+002, 3.841409e+001
2.893494e+002, 3.843879e+001
2.898315e+002, 3.852351e+001
2.903136e+002, 3.866817e+001
2.907957e+002, 3.892631e+001
2.912779e+002, 3.933614e+001
2.917600e+002, 3.951910e+001
2.922421e+002, 3.918666e+001
2.927242e+002, 3.875197e+001
2.932063e+002, 3.864556e+001
2.936884e+002, 3.891898e+001
2.941706e+002, 3.930279e+001
2.946527e+002, 3.959510e+001
2.951348e+002, 3.978133e+001
2.956169e+002, 3.980983e+001
2.960990e+002, 3.945474e+001
2.965811e+002, 3.910305e+001
2.970633e+002, 3.916735e+001
2.975454e+002, 3.961557e+001
2.980275e+002, 3.992918e+001
2.985096e+002, 3.966686e+001
2.989917e+002, 3.894050e+001
2.994738e+002, 3.854670e+001
2.999560e+002, 3.871649e+001
3.004381e+002, 3.900207e+001
3.009202e+002, 3.918513e+001
3.014023e+002, 3.927172e+001
3.018844e+002, 3.929900e+001
3.023665e+002, 3.926741e+001
3.028487e+002, 3.920225e+001
3.033308e+002, 3.919157e+001
3.038129e+002, 3.933413e+001
3.042950e+002, 3.937174e+001
3.047771e+002, 3.908064e+001
3.052592e+002, 3.858882e+001
3.057414e+002, 3.823410e+001
3.062235e+002, 3.815789e+001
3.067056e+002, 3.825199e+001
3.071877e+002, 3.832020e+001
3.076698e+002, 3.835890e+001
3.081519e+002, 3.839524e+001
3.086341e+002, 3.848498e+001
3.091162e+002, 3.856876e+001
3.095983e+002, 3.852470e+001
3.100804e+002, 3.830710e+001
3.105625e+002, 3.802217e+001
3.110446e+002, 3.779769e+001
3.115268e+002, 3.762910e+001
3.120089e+002, 3.750844e+001
3.124910e+002, 3.749932e+001
3.129731e+002, 3.750759e+001
3.134552e+002, 3.738414e+001
3.139373e+002, 3.710168e+001
3.144195e+002, 3.684251e+001
3.149016e+002, 3.679247e+001
3.153837e+002, 3.694135e+001
3.158658e+002, 3.706649e+001
3.163479e+002, 3.715885e+001
3.168300e+002, 3.721496e+001
3.173121e+002, 3.718840e+001
3.177943e+002, 3.709104e+001
3.182764e+002, 3.706841e+001
3.187585e+002, 3.724683e+001
3.192406e+002, 3.758101e+001
3.197227e+002, 3.782766e+001
3.202048e+002, 3.795586e+001
3.206870e+002, 3.803280e+001
3.211691e+002, 3.808153e+001
3.216512e+002, 3.810629e+001
3.221333e+002, 3.811116e+001
3.226154e+002, 3.807716e+001
3.230975e+002, 3.805056e+001
3.235797e+002, 3.815770e+001
3.240618e+002, 3.845618e+001
3.245439e+002, 3.873758e+001
3.250260e+002, 3.890826e+001
3.255081e+002, 3.901511e+001
3.259902e+002, 3.911523e+001
3.264724e+002, 3.920291e+001
3.269545e+002, 3.937983e+001
3.274366e+002, 3.987981e+001
3.279187e+002, 4.077526e+001
3.284008e+002, 4.151093e+001
3.288829e+002, 4.185468e+001
3.293651e+002, 4.204366e+001
3.298472e+002, 4.234481e+001
3.303293e+002, 4.280406e+001
3.308114e+002, 4.333541e+001
3.312935e+002, 4.387184e+001
3.317756e+002, 4.441272e+001
3.322578e+002, 4.492569e+001
3.327399e+002, 4.536508e+001
3.332220e+002, 4.580627e+001
3.337041e+002, 4.632914e+001
3.341862e+002, 4.692003e+001
3.346683e+002, 4.748147e+001
3.351505e+002, 4.792520e+001
3.356326e+002, 4.827958e+001
3.361147e+002, 4.873723e+001
3.365968e+002, 4.939643e+001
3.370789e+002, 5.004789e+001
3.375610e+002, 5.059735e+001
3.380432e+002, 5.107376e+001
3.385253e+002, 5.152637e+001
3.390074e+002, 5.196430e+001
3.394895e+002, 5.242334e+001
3.399716e+002, 5.301963e+001
3.404537e+002, 5.387202e+001
3.409359e+002, 5.462491e+001
3.414180e+002, 5.515245e+001
3.419001e+002, 5.556578e+001
3.423822e+002, 5.599555e+001
3.428643e+002, 5.647725e+001
3.433464e+002, 5.699334e+001
3.438286e+002, 5.753279e+001
3.443107e+002, 5.814117e+001
3.447928e+002, 5.861113e+001
3.452749e+002, 5.883267e+001
3.457570e+002, 5.898692e+001
3.462391e+002, 5.918913e+001
3.467213e+002, 5.945709e+001
3.472034e+002, 5.979033e+001
3.476855e+002, 6.020243e+001
3.481676e+002, 6.070238e+001
3.486497e+002, 6.108650e+001
3.491318e+002, 6.131943e+001
3.496140e+002, 6.149512e+001
3.500961e+002, 6.166815e+001
3.505782e+002, 6.181429e+001
3.510603e+002, 6.185536e+001
3.515424e+002, 6.173229e+001
3.520245e+002, 6.149829e+001
3.525067e+002, 6.138306e+001
3.529888e+002, 6.135531e+001
3.534709e+002, 6.148351e+001
3.539530e+002, 6.196346e+001
3.544351e+002, 6.253039e+001
3.549172e+002, 6.287444e+001
3.553994e+002, 6.288771e+001
3.558815e+002, 6.268839e+001
3.563636e+002, 6.246339e+001
3.568457e+002, 6.214252e+001
3.573278e+002, 6.195058e+001
3.578099e+002, 6.201580e+001
3.582920e+002, 6.210115e+001
3.587741e+002, 6.204375e+001
3.592563e+002, 6.183327e+001
3.597384e+002, 6.155546e+001
3.602205e+002, 6.128385e+001
3.607026e+002, 6.101333e+001
3.611847e+002, 6.080141e+001
3.616668e+002, 6.077699e+001
3.621490e+002, 6.067516e+001
3.626311e+002, 6.036193e+001
3.631132e+002, 5.990799e+001
3.635953e+002, 5.943179e+001
3.640774e+002, 5.899068e+001
3.645595e+002, 5.862226e+001
3.650417e+002, 5.850949e+001
3.655238e+002, 5.907892e+001
3.660059e+002, 5.930616e+001
3.664880e+002, 5.885446e+001
3.669701e+002, 5.813468e+001
3.674522e+002, 5.754008e+001
3.679344e+002, 5.719981e+001
3.684165e+002, 5.697871e+001
3.688986e+002, 5.665299e+001
3.693807e+002, 5.614127e+001
3.698628e+002, 5.575264e+001
3.703449e+002, 5.562206e+001
3.708271e+002, 5.550364e+001
3.713092e+002, 5.527728e+001
3.717913e+002, 5.493805e+001
3.722734e+002, 5.453284e+001
3.727555e+002, 5.408092e+001
3.732376e+002, 5.358682e+001
3.737198e+002, 5.318040e+001
3.742019e+002, 5.298524e+001
3.746840e+002, 5.272365e+001
3.751661e+002, 5.224622e+001
3.756482e+002, 5.165955e+001
3.761303e+002, 5.113555e+001
3.766125e+002, 5.076148e+001
3.770946e+002, 5.047932e+001
3.775767e+002, 5.013854e+001
3.780588e+002, 4.967710e+001
3.785409e+002, 4.933576e+001
3.790230e+002, 4.937001e+001
3.795052e+002, 4.943371e+001
3.799873e+002, 4.923197e+001
3.804694e+002, 4.870827e+001
3.809515e+002, 4.808087e+001
3.814336e+002, 4.754104e+001
3.819157e+002, 4.708712e+001
3.823979e+002, 4.671064e+001
3.828800e+002, 4.646061e+001
3.833621e+002, 4.623179e+001
3.838442e+002, 4.593851e+001
3.843263e+002, 4.560105e+001
3.848084e+002, 4.528698e+001
3.852906e+002, 4.508295e+001
3.857727e+002, 4.492168e+001
3.862548e+002, 4.461316e+001
3.867369e+002, 4.410209e+001
3.872190e+002, 4.364842e+001
3.877011e+002, 4.352794e+001
3.881833e+002, 4.352202e+001
3.886654e+002, 4.329271e+001
3.891475e+002, 4.267149e+001
3.896296e+002, 4.200768e+001
3.901117e+002, 4.165918e+001
3.905938e+002, 4.157875e+001
3.910760e+002, 4.138794e+001
3.915581e+002, 4.089473e+001
3.920402e+002, 4.032525e+001
3.925223e+002, 4.002285e+001
3.930044e+002, 4.000752e+001
3.934865e+002, 3.994256e+001
3.939687e+002, 3.964685e+001
3.944508e+002, 3.923661e+001
3.949329e+002, 3.888650e+001
3.954150e+002, 3.861762e+001
3.958971e+002, 3.841771e+001
3.963792e+002, 3.829897e+001
3.968614e+002, 3.825309e+001
3.973435e+002, 3.816855e+001
3.978256e+002, 3.804523e+001
3.983077e+002, 3.787645e+001
3.987898e+002, 3.758494e+001
3.992719e+002, 3.722653e+001
3.997540e+002, 3.701259e+001
4.002361e+002, 3.707343e+001
4.007183e+002, 3.730707e+001
4.012004e+002, 3.741938e+001
4.016825e+002, 3.737500e+001
4.021646e+002, 3.729483e+001
4.026467e+002, 3.717833e+001
4.031288e+002, 3.704641e+001
4.036110e+002, 3.691206e+001
4.040931e+002, 3.678181e+001
4.045752e+002, 3.668362e+001
4.050573e+002, 3.666479e+001
4.055394e+002, 3.676383e+001
4.060215e+002, 3.673856e+001
4.065037e+002, 3.645876e+001
4.069858e+002, 3.619541e+001
4.074679e+002, 3.609661e+001
4.079500e+002, 3.612579e+001
4.084321e+002, 3.616302e+001
4.089142e+002, 3.613114e+001
4.093964e+002, 3.605409e+001
4.098785e+002, 3.604189e+001
4.103606e+002, 3.612876e+001
4.108427e+002, 3.624276e+001
4.113248e+002, 3.644061e+001
4.118069e+002, 3.662826e+001
4.122891e+002, 3.670145e+001
4.127712e+002, 3.664032e+001
4.132533e+002, 3.652642e+001
4.137354e+002, 3.647577e+001
4.142175e+002, 3.651949e+001
4.146996e+002, 3.649965e+001
4.151818e+002, 3.639967e+001
4.156639e+002, 3.624901e+001
4.161460e+002, 3.595486e+001
4.166281e+002, 3.561416e+001
4.171102e+002, 3.545868e+001
4.175923e+002, 3.568304e+001
4.180745e+002, 3.615508e+001
4.185566e+002, 3.642383e+001
4.190387e+002, 3.643517e+001
4.195208e+002, 3.635434e+001
4.200029e+002, 3.616886e+001
4.204850e+002, 3.595508e+001
4.209672e+002, 3.576204e+001
4.214493e+002, 3.559907e+001
4.219314e+002, 3.551753e+001
4.224135e+002, 3.565038e+001
4.228956e+002, 3.597890e+001
4.233777e+002, 3.609874e+001
4.238599e+002, 3.582088e+001
4.243420e+002, 3.549786e+001
4.248241e+002, 3.544759e+001
4.253062e+002, 3.559243e+001
4.257883e+002, 3.564775e+001
4.262704e+002, 3.539765e+001
4.267526e+002, 3.503355e+001
4.272347e+002, 3.487370e+001
4.277168e+002, 3.493272e+001
4.281989e+002, 3.494244e+001
4.286810e+002, 3.471279e+001
4.291631e+002, 3.436716e+001
4.296453e+002, 3.419672e+001
4.301274e+002, 3.429468e+001
4.306095e+002, 3.435738e+001
4.310916e+002, 3.421472e+001
4.315737e+002, 3.393415e+001
4.320558e+002, 3.362278e+001
4.325380e+002, 3.329763e+001
4.330201e+002, 3.302224e+001
4.335022e+002, 3.288650e+001
4.339843e+002, 3.291311e+001
4.344664e+002, 3.291649e+001
4.349485e+002, 3.289496e+001
4.354307e+002, 3.284447e+001
4.359128e+002, 3.274983e+001
4.363949e+002, 3.262144e+001
4.368770e+002, 3.249414e+001
4.373591e+002, 3.239077e+001
4.378412e+002, 3.229885e+001
4.383234e+002, 3.217206e+001
4.388055e+002, 3.199138e+001
4.392876e+002, 3.179895e+001
4.397697e+002, 3.153772e+001
4.402518e+002, 3.130056e+001
4.407339e+002, 3.121260e+001
4.412160e+002, 3.128001e+001
4.416982e+002, 3.136421e+001
4.421803e+002, 3.129628e+001
4.426624e+002, 3.104470e+001
4.431445e+002, 3.087148e+001
4.436266e+002, 3.090655e+001
4.441087e+002, 3.088612e+001
4.445909e+002, 3.067078e+001
4.450730e+002, 3.035696e+001
4.455551e+002, 3.010410e+001
4.460372e+002, 2.999717e+001
4.465193e+002, 2.998741e+001
4.470014e+002, 2.998519e+001
4.474836e+002, 3.002050e+001
4.479657e+002, 2.997275e+001
4.484478e+002, 2.970032e+001
4.489299e+002, 2.942451e+001
4.494120e+002, 2.931191e+001
4.498941e+002, 2.935686e+001
4.503763e+002, 2.939883e+001
4.508584e+002, 2.928322e+001
4.513405e+002, 2.905650e+001
4.518226e+002, 2.894255e+001
4.523047e+002, 2.900744e+001
4.527868e+002, 2.903027e+001
4.532690e+002, 2.884277e+001
4.537511e+002, 2.853918e+001
4.542332e+002, 2.822983e+001
4.547153e+002, 2.790036e+001
4.551974e+002, 2.764488e+001
4.556795e+002, 2.760006e+001
4.561617e+002, 2.771278e+001
4.566438e+002, 2.773283e+001
4.571259e+002, 2.755611e+001
4.576080e+002, 2.733506e+001
4.580901e+002, 2.730131e+001
4.585722e+002, 2.745455e+001
4.590544e+002, 2.752541e+001
4.595365e+002, 2.741451e+001
4.600186e+002, 2.723923e+001
4.605007e+002, 2.711535e+001
4.609828e+002, 2.703223e+001
4.614649e+002, 2.687945e+001
4.619471e+002, 2.656356e+001
4.624292e+002, 2.615096e+001
4.629113e+002, 2.591475e+001
4.633934e+002, 2.594916e+001
4.638755e+002, 2.602241e+001
4.643576e+002, 2.619513e+001
4.648398e+002, 2.634809e+001
4.653219e+002, 2.632384e+001
4.658040e+002, 2.611046e+001
4.662861e+002, 2.586304e+001
4.667682e+002, 2.575880e+001
4.672503e+002, 2.581846e+001
4.677325e+002, 2.581192e+001
4.682146e+002, 2.571290e+001
4.686967e+002, 2.557311e+001
4.691788e+002, 2.533316e+001
4.696609e+002, 2.508044e+001
4.701430e+002, 2.495216e+001
4.706252e+002, 2.501172e+001
4.711073e+002, 2.516819e+001
4.715894e+002, 2.527396e+001
4.720715e+002, 2.533010e+001
4.725536e+002, 2.533101e+001
4.730357e+002, 2.525126e+001
4.735179e+002, 2.513283e+001
4.740000e+002, 2.494523e+001
4.744821e+002, 2.472574e+001
4.749642e+002, 2.460466e+001
4.754463e+002, 2.473446e+001
4.759284e+002, 2.498930e+001
4.764106e+002, 2.509702e+001
4.768927e+002, 2.504526e+001
4.773748e+002, 2.491529e+001
4.778569e+002, 2.467463e+001
4.783390e+002, 2.441531e+001
4.788211e+002, 2.428795e+001
4.793033e+002, 2.432871e+001
4.797854e+002, 2.439028e+001
4.802675e+002, 2.439898e+001
4.807496e+002, 2.437880e+001
4.812317e+002, 2.436085e+001
4.817138e+002, 2.434868e+001
4.821959e+002, 2.438138e+001
4.826780e+002, 2.451757e+001
4.831602e+002, 2.475218e+001
4.836423e+002, 2.488545e+001
4.841244e+002, 2.488776e+001
4.846065e+002, 2.482838e+001
4.850886e+002, 2.467072e+001
4.855707e+002, 2.448389e+001
4.860529e+002, 2.439531e+001
4.865350e+002, 2.445138e+001
4.870171e+002, 2.457632e+001
4.874992e+002, 2.464208e+001
4.879813e+002, 2.460679e+001
4.884634e+002, 2.462978e+001
4.889456e+002, 2.476990e+001
4.894277e+002, 2.490205e+001
4.899098e+002, 2.494382e+001
4.903919e+002, 2.492872e+001
4.908740e+002, 2.494327e+001
4.913561e+002, 2.504291e+001
4.918383e+002, 2.519633e+001
4.923204e+002, 2.533016e+001
4.928025e+002, 2.546863e+001
4.932846e+002, 2.551954e+001
4.937667e+002, 2.537302e+001
4.942488e+002, 2.519683e+001
4.947310e+002, 2.511120e+001
4.952131e+002, 2.511662e+001
4.956952e+002, 2.511761e+001
4.961773e+002, 2.499956e+001
4.966594e+002, 2.483119e+001
4.971415e+002, 2.482931e+001
4.976237e+002, 2.503534e+001
4.981058e+002, 2.523165e+001
4.985879e+002, 2.529296e+001
4.990700e+002, 2.526992e+001
4.995521e+002, 2.527079e+001
5.000342e+002, 2.532911e+001
5.005164e+002, 2.534245e+001
5.009985e+002, 2.518908e+001
5.014806e+002, 2.497507e+001
5.019627e+002, 2.491656e+001
5.024448e+002, 2.505973e+001
5.029269e+002, 2.522690e+001
5.034091e+002, 2.524887e+001
5.038912e+002, 2.511917e+001
5.043733e+002, 2.499966e+001
5.048554e+002, 2.490534e+001
5.053375e+002, 2.480348e+001
5.058196e+002, 2.464094e+001
5.063018e+002, 2.447563e+001
5.067839e+002, 2.440779e+001
5.072660e+002, 2.447042e+001
5.077481e+002, 2.459358e+001
5.082302e+002, 2.467178e+001
5.087123e+002, 2.469526e+001
5.091945e+002, 2.470912e+001
5.096766e+002, 2.471459e+001
5.101587e+002, 2.470898e+001
5.106408e+002, 2.466003e+001
5.111229e+002, 2.460342e+001
5.116050e+002, 2.461953e+001
5.120872e+002, 2.476682e+001
5.125693e+002, 2.494476e+001
5.130514e+002, 2.495827e+001
5.135335e+002, 2.478584e+001
5.140156e+002, 2.460970e+001
5.144977e+002, 2.442503e+001
5.149799e+002, 2.429613e+001
5.154620e+002, 2.429387e+001
5.159441e+002, 2.440110e+001
5.164262e+002, 2.450298e+001
5.169083e+002, 2.459321e+001
5.173904e+002, 2.462826e+001
5.178726e+002, 2.450701e+001
5.183547e+002, 2.424366e+001
5.188368e+002, 2.402942e+001
5.193189e+002, 2.395226e+001
5.198010e+002, 2.398053e+001
5.202831e+002, 2.406993e+001
5.207653e+002, 2.427389e+001
5.212474e+002, 2.437604e+001
5.217295e+002, 2.423749e+001
5.222116e+002, 2.405383e+001
5.226937e+002, 2.401935e+001
5.231758e+002, 2.412231e+001
5.236580e+002, 2.420373e+001
5.241401e+002, 2.414014e+001
5.246222e+002, 2.397265e+001
5.251043e+002, 2.391793e+001
5.255864e+002, 2.411363e+001
5.260685e+002, 2.422677e+001
5.265507e+002, 2.418933e+001
5.270328e+002, 2.409055e+001
5.275149e+002, 2.397605e+001
5.279970e+002, 2.386759e+001
5.284791e+002, 2.380376e+001
5.289612e+002, 2.384735e+001
5.294434e+002, 2.396977e+001
5.299255e+002, 2.398611e+001
5.304076e+002, 2.385489e+001
5.308897e+002, 2.371373e+001
5.313718e+002, 2.360442e+001
5.318539e+002, 2.352399e+001
5.323361e+002, 2.348489e+001
5.328182e+002, 2.349850e+001
5.333003e+002, 2.348724e+001
5.337824e+002, 2.338078e+001
5.342645e+002, 2.321716e+001
5.347466e+002, 2.305560e+001
5.352288e+002, 2.289828e+001
5.357109e+002, 2.282390e+001
5.361930e+002, 2.293913e+001
5.366751e+002, 2.319287e+001
5.371572e+002, 2.326871e+001
5.376393e+002, 2.295175e+001
5.381215e+002, 2.273606e+001
5.386036e+002, 2.286152e+001
5.390857e+002, 2.311846e+001
5.395678e+002, 2.324592e+001
5.400499e+002, 2.319131e+001
5.405320e+002, 2.306377e+001
5.410142e+002, 2.296912e+001
5.414963e+002, 2.290707e+001
5.419784e+002, 2.288724e+001
5.424604e+002, 2.298659e+001
5.429426e+002, 2.303563e+001
5.434247e+002, 2.297912e+001
5.439068e+002, 2.286518e+001
5.443889e+002, 2.272870e+001
5.448710e+002, 2.258373e+001
5.453531e+002, 2.247585e+001
5.458353e+002, 2.247867e+001
5.463174e+002, 2.258076e+001
5.467995e+002, 2.264003e+001
5.472816e+002, 2.262484e+001
5.477637e+002, 2.261776e+001
5.482458e+002, 2.275787e+001
5.487280e+002, 2.292114e+001
5.492101e+002, 2.286140e+001
5.496922e+002, 2.239704e+001
5.501743e+002, 2.200816e+001
5.506564e+002, 2.212107e+001
5.511385e+002, 2.250346e+001
5.516207e+002, 2.263987e+001
5.521028e+002, 2.241846e+001
5.525849e+002, 2.212868e+001
5.530670e+002, 2.203712e+001
5.535491e+002, 2.214513e+001
5.540313e+002, 2.224458e+001
5.545134e+002, 2.236365e+001
5.549955e+002, 2.244259e+001
5.554776e+002, 2.247106e+001
5.559597e+002, 2.244827e+001
5.564418e+002, 2.235650e+001
5.569240e+002, 2.219897e+001
5.574061e+002, 2.202718e+001
5.578882e+002, 2.189524e+001
5.583703e+002, 2.180393e+001
5.588524e+002, 2.174628e+001
5.593345e+002, 2.174462e+001
5.598167e+002, 2.174610e+001
5.602988e+002, 2.170180e+001
5.607809e+002, 2.166331e+001
5.612630e+002, 2.170567e+001
5.617451e+002, 2.185362e+001
5.622272e+002, 2.201599e+001
5.627094e+002, 2.214041e+001
5.631915e+002, 2.221679e+001
5.636736e+002, 2.219443e+001
5.641557e+002, 2.205142e+001
5.646378e+002, 2.188988e+001
5.651199e+002, 2.177252e+001
5.656021e+002, 2.169819e+001
5.660842e+002, 2.164771e+001
5.665663e+002, 2.163732e+001
5.670484e+002, 2.162766e+001
5.675305e+002, 2.159375e+001
5.680126e+002, 2.155895e+001
5.684948e+002, 2.155488e+001
5.689769e+002, 2.158554e+001
5.694590e+002, 2.163811e+001
5.699411e+002, 2.171271e+001
5.704232e+002, 2.180274e+001
5.709053e+002, 2.177027e+001
5.713875e+002, 2.144643e+001
5.718696e+002, 2.122745e+001
5.723517e+002, 2.119795e+001
5.728338e+002, 2.127928e+001
5.733159e+002, 2.145505e+001
5.737980e+002, 2.169445e+001
5.742802e+002, 2.185499e+001
5.747623e+002, 2.176317e+001
5.752444e+002, 2.148330e+001
5.757265e+002, 2.127973e+001
5.762086e+002, 2.116020e+001
5.766907e+002, 2.108633e+001
5.771729e+002, 2.105705e+001
5.776550e+002, 2.105645e+001
5.781371e+002, 2.106182e+001
5.786192e+002, 2.107809e+001
5.791013e+002, 2.107617e+001
5.795834e+002, 2.103123e+001
5.800656e+002, 2.097054e+001
5.805477e+002, 2.091601e+001
5.810298e+002, 2.087363e+001
5.815119e+002, 2.086127e+001
5.819940e+002, 2.089614e+001
5.824761e+002, 2.095792e+001
5.829583e+002, 2.097696e+001
5.834404e+002, 2.091791e+001
5.839225e+002, 2.086783e+001
5.844046e+002, 2.089950e+001
5.848867e+002, 2.088030e+001
5.853688e+002, 2.065250e+001
5.858510e+002, 2.028669e+001
5.863331e+002, 2.000861e+001
5.868152e+002, 1.996727e+001
5.872973e+002, 2.008695e+001
5.877794e+002, 2.022039e+001
5.882615e+002, 2.037853e+001
5.887437e+002, 2.047734e+001
5.892258e+002, 2.050615e+001
5.897079e+002, 2.045434e+001
5.901900e+002, 2.028564e+001
5.906721e+002, 2.002032e+001
5.911542e+002, 1.979088e+001
5.916364e+002, 1.962542e+001
5.921185e+002, 1.952258e+001
5.926006e+002, 1.953232e+001
5.930827e+002, 1.960883e+001
5.935648e+002, 1.959939e+001
5.940469e+002, 1.944219e+001
5.945291e+002, 1.925496e+001
5.950112e+002, 1.921461e+001
5.954933e+002, 1.938030e+001
5.959754e+002, 1.942179e+001
5.964575e+002, 1.923844e+001
5.969396e+002, 1.906257e+001
5.974218e+002, 1.896316e+001
5.979039e+002, 1.892654e+001
5.983860e+002, 1.894913e+001
5.988681e+002, 1.902533e+001
5.993502e+002, 1.907825e+001
5.998323e+002, 1.898635e+001
6.003145e+002, 1.875652e+001
6.007966e+002, 1.859577e+001
6.012787e+002, 1.852745e+001
6.017608e+002, 1.849808e+001
6.022429e+002, 1.853332e+001
6.027250e+002, 1.857109e+001
6.032072e+002, 1.849533e+001
6.036893e+002, 1.824350e+001
6.041714e+002, 1.802303e+001
6.046535e+002, 1.797569e+001
6.051356e+002, 1.800684e+001
6.056177e+002, 1.796579e+001
6.060999e+002, 1.784273e+001
6.065820e+002, 1.774527e+001
6.070641e+002, 1.776010e+001
6.075462e+002, 1.785325e+001
6.080283e+002, 1.786977e+001
6.085104e+002, 1.774010e+001
6.089926e+002, 1.763013e+001
6.094747e+002, 1.753763e+001
6.099568e+002, 1.747313e+001
6.104389e+002, 1.744995e+001
6.109210e+002, 1.746244e+001
6.114031e+002, 1.749936e+001
6.118853e+002, 1.757224e+001
6.123674e+002, 1.763430e+001
6.128495e+002, 1.755736e+001
6.133316e+002, 1.732368e+001
6.138137e+002, 1.715968e+001
6.142958e+002, 1.714234e+001
6.147780e+002, 1.718325e+001
6.152601e+002, 1.721698e+001
6.157422e+002, 1.723951e+001
6.162243e+002, 1.721307e+001
6.167064e+002, 1.708570e+001
6.171885e+002, 1.695105e+001
6.176707e+002, 1.687082e+001
6.181528e+002, 1.682644e+001
6.186349e+002, 1.677408e+001
6.191170e+002, 1.670141e+001
6.195991e+002, 1.663553e+001
6.200812e+002, 1.660534e+001
6.205634e+002, 1.660999e+001
6.210455e+002, 1.666368e+001
6.215276e+002, 1.686911e+001
6.220097e+002, 1.699520e+001
6.224918e+002, 1.693699e+001
6.229739e+002, 1.680999e+001
6.234561e+002, 1.672499e+001
6.239382e+002, 1.670572e+001
6.244203e+002, 1.672048e+001
6.249023e+002, 1.673190e+001
6.253845e+002, 1.675948e+001
6.258666e+002, 1.689784e+001
6.263487e+002, 1.716645e+001
6.268308e+002, 1.732233e+001
6.273129e+002, 1.721406e+001
6.277950e+002, 1.696875e+001
6.282772e+002, 1.680954e+001
6.287593e+002, 1.672660e+001
6.292414e+002, 1.673931e+001
6.297235e+002, 1.696618e+001
6.302056e+002, 1.718643e+001
6.306877e+002, 1.722341e+001
6.311699e+002, 1.713043e+001
6.316520e+002, 1.706784e+001
6.321341e+002, 1.710954e+001
6.326162e+002, 1.716849e+001
6.330983e+002, 1.706325e+001
6.335804e+002, 1.672873e+001
6.340626e+002, 1.657358e+001
6.345447e+002, 1.676603e+001
6.350268e+002, 1.692697e+001
6.355089e+002, 1.683440e+001
6.359910e+002, 1.662690e+001
6.364731e+002, 1.652938e+001
6.369553e+002, 1.661905e+001
6.374374e+002, 1.671130e+001
6.379195e+002, 1.662518e+001
6.384016e+002, 1.646626e+001
6.388837e+002, 1.646949e+001
6.393658e+002, 1.665388e+001
6.398480e+002, 1.679807e+001
6.403301e+002, 1.674949e+001
6.408122e+002, 1.656436e+001
6.412943e+002, 1.642999e+001
6.417764e+002, 1.638965e+001
6.422585e+002, 1.633922e+001
6.427407e+002, 1.628826e+001
6.432228e+002, 1.621894e+001
6.437049e+002, 1.609011e+001
6.441870e+002, 1.593432e+001
6.446691e+002, 1.583349e+001
6.451512e+002, 1.583674e+001
6.456334e+002, 1.588696e+001
6.461155e+002, 1.590239e+001
6.465976e+002, 1.588308e+001
6.470797e+002, 1.581437e+001
6.475618e+002, 1.565781e+001
6.480439e+002, 1.553019e+001
6.485261e+002, 1.556752e+001
6.490082e+002, 1.570641e+001
6.494903e+002, 1.574355e+001
6.499724e+002, 1.559014e+001
6.504545e+002, 1.544748e+001
6.509366e+002, 1.541447e+001
6.514188e+002, 1.542388e+001
6.519009e+002, 1.540252e+001
6.523830e+002, 1.533927e+001
6.528651e+002, 1.524200e+001
6.533472e+002, 1.510607e+001
6.538293e+002, 1.496320e+001
6.543115e+002, 1.495161e+001
6.547936e+002, 1.516787e+001
6.552757e+002, 1.528042e+001
6.557578e+002, 1.513695e+001
6.562399e+002, 1.496862e+001
6.567220e+002, 1.494203e+001
6.572042e+002, 1.499876e+001
6.576863e+002, 1.493524e+001
6.581684e+002, 1.458919e+001
6.586505e+002, 1.423231e+001
6.591326e+002, 1.414986e+001
6.596147e+002, 1.426112e+001
6.600969e+002, 1.434154e+001
6.605790e+002, 1.434265e+001
6.610611e+002, 1.432972e+001
6.615432e+002, 1.436620e+001
6.620253e+002, 1.444275e+001
6.625074e+002, 1.445765e+001
6.629896e+002, 1.434092e+001
6.634717e+002, 1.425475e+001
6.639538e+002, 1.425256e+001
6.644359e+002, 1.425541e+001
6.649180e+002, 1.416195e+001
6.654001e+002, 1.400577e+001
6.658823e+002, 1.393534e+001
6.663644e+002, 1.406745e+001
6.668465e+002, 1.429473e+001
6.673286e+002, 1.443541e+001
6.678107e+002, 1.449055e+001
6.682928e+002, 1.448573e+001
6.687750e+002, 1.440270e+001
6.692571e+002, 1.431842e+001
6.697392e+002, 1.431416e+001
6.702213e+002, 1.438116e+001
6.707034e+002, 1.441945e+001
6.711855e+002, 1.438528e+001
6.716677e+002, 1.437400e+001
6.721498e+002, 1.444783e+001
6.726319e+002, 1.454044e+001
6.731140e+002, 1.455199e+001
6.735961e+002, 1.449297e+001
6.740782e+002, 1.448899e+001
6.745604e+002, 1.465320e+001
6.750425e+002, 1.491446e+001
6.755246e+002, 1.502922e+001
6.760067e+002, 1.496189e+001
6.764888e+002, 1.490720e+001
6.769709e+002, 1.492075e+001
6.774531e+002, 1.493689e+001
6.779352e+002, 1.486277e+001
6.784173e+002, 1.474111e+001
6.788994e+002, 1.473143e+001
6.793815e+002, 1.493906e+001
6.798636e+002, 1.517843e+001
6.803458e+002, 1.537660e+001
6.808279e+002, 1.552215e+001
6.813100e+002, 1.558871e+001
6.817921e+002, 1.557679e+001
6.822742e+002, 1.552023e+001
6.827563e+002, 1.543905e+001
6.832385e+002, 1.534521e+001
6.837206e+002, 1.529867e+001
6.842027e+002, 1.531641e+001
6.846848e+002, 1.534429e+001
6.851669e+002, 1.539909e+001
6.856490e+002, 1.544071e+001
6.861312e+002, 1.542174e+001
6.866133e+002, 1.536870e+001
6.870954e+002, 1.536713e+001
6.875775e+002, 1.548630e+001
6.880596e+002, 1.560047e+001
6.885417e+002, 1.557109e+001
6.890239e+002, 1.545578e+001
6.895060e+002, 1.539501e+001
6.899881e+002, 1.541291e+001
6.904702e+002, 1.543810e+001
6.909523e+002, 1.541742e+001
6.914344e+002, 1.535540e+001
6.919166e+002, 1.526920e+001
6.923987e+002, 1.506888e+001
6.928808e+002, 1.499300e+001
6.933629e+002, 1.517074e+001
6.938450e+002, 1.535962e+001
6.943271e+002, 1.540918e+001
6.948093e+002, 1.534798e+001
6.952914e+002, 1.527491e+001
6.957735e+002, 1.522865e+001
6.962556e+002, 1.519966e+001
6.967377e+002, 1.516573e+001
6.972198e+002, 1.513916e+001
6.977020e+002, 1.516607e+001
6.981841e+002, 1.525443e+001
6.986662e+002, 1.538399e+001
6.991483e+002, 1.555646e+001
6.996304e+002, 1.574961e+001
7.001125e+002, 1.587597e+001
7.005947e+002, 1.589963e+001
7.010768e+002, 1.590832e+001
7.015589e+002, 1.588126e+001
7.020410e+002, 1.585997e+001
7.025231e+002, 1.586230e+001
7.030052e+002, 1.589182e+001
7.034874e+002, 1.595336e+001
7.039695e+002, 1.605020e+001
7.044516e+002, 1.616499e+001
7.049337e+002, 1.627658e+001
7.054158e+002, 1.638656e+001
7.058979e+002, 1.650056e+001
7.063801e+002, 1.661654e+001
7.068622e+002, 1.675705e+001
7.073442e+002, 1.695524e+001
7.078264e+002, 1.717251e+001
7.083085e+002, 1.729853e+001
7.087906e+002, 1.726022e+001
7.092727e+002, 1.732163e+001
7.097548e+002, 1.756014e+001
7.102369e+002, 1.784506e+001
7.107191e+002, 1.812917e+001
7.112012e+002, 1.839520e+001
7.116833e+002, 1.863190e+001
7.121654e+002, 1.883570e+001
7.126475e+002, 1.898917e+001
7.131296e+002, 1.903737e+001
7.136118e+002, 1.900929e+001
7.140939e+002, 1.907931e+001
7.145760e+002, 1.926639e+001
7.150581e+002, 1.946516e+001
7.155402e+002, 1.965012e+001
7.160223e+002, 1.979624e+001
7.165045e+002, 1.984878e+001
7.169866e+002, 1.979411e+001
7.174687e+002, 1.974142e+001
7.179508e+002, 1.965466e+001
7.184329e+002, 1.961991e+001
7.189150e+002, 1.969444e+001
7.193972e+002, 1.984167e+001
7.198793e+002, 2.004333e+001
7.203614e+002, 2.027671e+001
7.208435e+002, 2.044468e+001
7.213256e+002, 2.043072e+001
7.218077e+002, 2.027888e+001
7.222899e+002, 2.015735e+001
7.227720e+002, 2.006634e+001
7.232541e+002, 2.000884e+001
7.237362e+002, 2.003118e+001
7.242183e+002, 2.001896e+001
7.247004e+002, 1.978602e+001
7.251826e+002, 1.933765e+001
7.256647e+002, 1.904920e+001
7.261468e+002, 1.910316e+001
7.266289e+002, 1.912364e+001
7.271110e+002, 1.894016e+001
7.275931e+002, 1.867254e+001
7.280753e+002, 1.846807e+001
7.285574e+002, 1.833544e+001
7.290395e+002, 1.817551e+001
7.295216e+002, 1.790467e+001
7.300037e+002, 1.758012e+001
7.304858e+002, 1.734423e+001
7.309680e+002, 1.720174e+001
7.314501e+002, 1.701850e+001
7.319322e+002, 1.675573e+001
7.324143e+002, 1.647701e+001
7.328964e+002, 1.622749e+001
7.333785e+002, 1.600593e+001
7.338607e+002, 1.579871e+001
7.343428e+002, 1.561512e+001
7.348249e+002, 1.543322e+001
7.353070e+002, 1.526991e+001
7.357891e+002, 1.508859e+001
7.362712e+002, 1.483354e+001
7.367534e+002, 1.453295e+001
7.372355e+002, 1.426680e+001
7.377176e+002, 1.407335e+001
7.381997e+002, 1.392126e+001
7.386818e+002, 1.378045e+001
7.391639e+002, 1.364589e+001
7.396461e+002, 1.345342e+001
7.401282e+002, 1.318364e+001
7.406103e+002, 1.291910e+001
7.410924e+002, 1.267649e+001
7.415745e+002, 1.249038e+001
7.420566e+002, 1.246838e+001
7.425388e+002, 1.268868e+001
7.430209e+002, 1.278977e+001
7.435030e+002, 1.265268e+001
7.439851e+002, 1.248327e+001
7.444672e+002, 1.235466e+001
7.449493e+002, 1.227897e+001
7.454315e+002, 1.229717e+001
7.459136e+002, 1.240591e+001
7.463957e+002, 1.247104e+001
7.468778e+002, 1.230955e+001
7.473599e+002, 1.201241e+001
7.478420e+002, 1.186360e+001
7.483242e+002, 1.186560e+001
7.488063e+002, 1.192480e+001
7.492884e+002, 1.203355e+001
7.497705e+002, 1.212945e+001
7.502526e+002, 1.213007e+001
7.507347e+002, 1.202829e+001
7.512169e+002, 1.196129e+001
7.516990e+002, 1.198020e+001
7.521811e+002, 1.196472e+001
7.526632e+002, 1.183712e+001
7.531453e+002, 1.170103e+001
7.536274e+002, 1.164943e+001
7.541096e+002, 1.168291e+001
7.545917e+002, 1.175481e+001
7.550738e+002, 1.185561e+001
7.555559e+002, 1.194741e+001
7.560380e+002, 1.196228e+001
7.565201e+002, 1.191906e+001
7.570023e+002, 1.190312e+001
7.574844e+002, 1.192983e+001
7.579665e+002, 1.195836e+001
7.584486e+002, 1.195901e+001
7.589307e+002, 1.194077e+001
7.594128e+002, 1.193718e+001
7.598950e+002, 1.200901e+001
7.603771e+002, 1.198168e+001
7.608592e+002, 1.167984e+001
7.613413e+002, 1.146995e+001
7.618234e+002, 1.162593e+001
7.623055e+002, 1.195247e+001
7.627877e+002, 1.211763e+001
7.632698e+002, 1.202444e+001
7.637519e+002, 1.190883e+001
7.642340e+002, 1.196320e+001
7.647161e+002, 1.209623e+001
7.651982e+002, 1.216298e+001
7.656804e+002, 1.216913e+001
7.661625e+002, 1.218051e+001
7.666446e+002, 1.222275e+001
7.671267e+002, 1.227763e+001
7.676088e+002, 1.232306e+001
7.680909e+002, 1.235961e+001
7.685731e+002, 1.237724e+001
7.690552e+002, 1.234574e+001
7.695373e+002, 1.234534e+001
7.700194e+002, 1.243125e+001
7.705015e+002, 1.252363e+001
7.709836e+002, 1.255891e+001
7.714658e+002, 1.254150e+001
7.719479e+002, 1.251441e+001
7.724300e+002, 1.249998e+001
7.729121e+002, 1.247034e+001
7.733942e+002, 1.236984e+001
7.738763e+002, 1.225766e+001
7.743585e+002, 1.225377e+001
7.748406e+002, 1.235161e+001
7.753227e+002, 1.241401e+001
7.758048e+002, 1.234576e+001
7.762869e+002, 1.220858e+001
7.767690e+002, 1.216224e+001
7.772512e+002, 1.223096e+001
7.777333e+002, 1.221623e+001
7.782154e+002, 1.203757e+001
7.786975e+002, 1.190056e+001
7.791796e+002, 1.194330e+001
7.796617e+002, 1.208739e+001
7.801439e+002, 1.221661e+001
7.806260e+002, 1.234106e+001
7.811081e+002, 1.238806e+001
7.815902e+002, 1.231540e+001
7.820723e+002, 1.218476e+001
7.825544e+002, 1.196917e+001
7.830366e+002, 1.174636e+001
7.835187e+002, 1.166205e+001
7.840008e+002, 1.173887e+001
7.844829e+002, 1.183054e+001
7.849650e+002, 1.178279e+001
7.854471e+002, 1.165921e+001
7.859293e+002, 1.167922e+001
7.864114e+002, 1.184587e+001
7.868935e+002, 1.193365e+001
7.873756e+002, 1.187262e+001
7.878577e+002, 1.175848e+001
7.883398e+002, 1.166089e+001
7.888220e+002, 1.158437e+001
7.893040e+002, 1.157086e+001
7.897861e+002, 1.174158e+001
7.902682e+002, 1.179812e+001
7.907504e+002, 1.160029e+001
7.912325e+002, 1.139138e+001
7.917146e+002, 1.133873e+001
7.921967e+002, 1.139668e+001
7.926788e+002, 1.145053e+001
7.931609e+002, 1.146222e+001
7.936431e+002, 1.143727e+001
7.941252e+002, 1.136219e+001
7.946073e+002, 1.126122e+001
7.950894e+002, 1.116115e+001
7.955715e+002, 1.107249e+001
7.960536e+002, 1.105502e+001
7.965358e+002, 1.113649e+001
7.970179e+002, 1.126677e+001
7.975000e+002, 1.138735e+001
7.979821e+002, 1.150148e+001
7.984642e+002, 1.152761e+001
7.989464e+002, 1.140084e+001
7.994285e+002, 1.130383e+001
7.999106e+002, 1.134679e+001
8.003927e+002, 1.138379e+001
8.008748e+002, 1.127138e+001
8.013569e+002, 1.104490e+001
8.018391e+002, 1.089059e+001
8.023212e+002, 1.088347e+001
8.028033e+002, 1.091928e+001
8.032854e+002, 1.099958e+001
8.037675e+002, 1.105906e+001
8.042496e+002, 1.098693e+001
8.047318e+002, 1.081369e+001
8.052139e+002, 1.067342e+001
8.056960e+002, 1.064001e+001
8.061781e+002, 1.066541e+001
8.066602e+002, 1.068031e+001
8.071423e+002, 1.068538e+001
8.076245e+002, 1.069346e+001
8.081066e+002, 1.071031e+001
8.085887e+002, 1.069810e+001
8.090708e+002, 1.062109e+001
8.095529e+002, 1.053238e+001
8.100350e+002, 1.051626e+001
8.105172e+002, 1.058681e+001
8.109993e+002, 1.064096e+001
8.114814e+002, 1.067430e+001
8.119635e+002, 1.069701e+001
8.124456e+002, 1.071474e+001
8.129277e+002, 1.072089e+001
8.134099e+002, 1.071305e+001
8.138920e+002, 1.068798e+001
8.143741e+002, 1.063136e+001
8.148562e+002, 1.051476e+001
8.153383e+002, 1.040957e+001
8.158204e+002, 1.041914e+001
8.163026e+002, 1.048995e+001
8.167847e+002, 1.049086e+001
8.172668e+002, 1.041534e+001
8.177489e+002, 1.036424e+001
8.182310e+002, 1.040014e+001
8.187131e+002, 1.046285e+001
8.191953e+002, 1.042419e+001
8.196774e+002, 1.025786e+001
8.201595e+002, 1.015584e+001
8.206416e+002, 1.013228e+001
8.211237e+002, 1.014612e+001
8.216058e+002, 1.022299e+001
8.220880e+002, 1.030114e+001
8.225701e+002, 1.029817e+001
8.230522e+002, 1.021716e+001
8.235343e+002, 1.016749e+001
8.240164e+002, 1.022110e+001
8.244985e+002, 1.024995e+001
8.249807e+002, 1.016969e+001
8.254628e+002, 1.005410e+001
8.259449e+002, 1.000228e+001
8.264270e+002, 1.000166e+001
8.269091e+002, 9.943615e+000
8.273912e+002, 9.748878e+000
8.278734e+002, 9.557218e+000
8.283555e+002, 9.613600e+000
8.288376e+002, 9.848682e+000
8.293197e+002, 9.962407e+000
8.298018e+002, 9.927570e+000
8.302839e+002, 9.877995e+000
8.307661e+002, 9.880117e+000
8.312482e+002, 9.901900e+000
8.317303e+002, 9.895948e+000
8.322124e+002, 9.866837e+000
8.326945e+002, 9.774021e+000
8.331766e+002, 9.514783e+000
8.336588e+002, 9.342693e+000
8.341409e+002, 9.371196e+000
8.346230e+002, 9.458436e+000
8.351051e+002, 9.482448e+000
8.355872e+002, 9.455334e+000
8.360693e+002, 9.472867e+000
8.365515e+002, 9.592301e+000
8.370336e+002, 9.716392e+000
8.375157e+002, 9.792235e+000
8.379978e+002, 9.844747e+000
8.384799e+002, 9.930954e+000
8.389620e+002, 1.002306e+001
8.394442e+002, 1.000276e+001
8.399263e+002, 9.813370e+000
8.404084e+002, 9.598904e+000
8.408905e+002, 9.575516e+000
8.413726e+002, 9.707809e+000
8.418547e+002, 9.794299e+000
8.423369e+002, 9.829537e+000
8.428190e+002, 9.852674e+000
8.433011e+002, 9.880228e+000
8.437832e+002, 9.892706e+000
8.442653e+002, 9.867670e+000
8.447474e+002, 9.805467e+000
8.452296e+002, 9.720175e+000
8.457117e+002, 9.515944e+000
8.461938e+002, 9.432759e+000
8.466759e+002, 9.607028e+000
8.471580e+002, 9.794952e+000
8.476401e+002, 9.825194e+000
8.481223e+002, 9.754595e+000
8.486044e+002, 9.733196e+000
8.490865e+002, 9.811173e+000
8.495686e+002, 9.884870e+000
8.500507e+002, 9.858373e+000
8.505328e+002, 9.832629e+000
8.510150e+002, 9.938087e+000
8.514971e+002, 1.012478e+001
8.519792e+002, 1.025737e+001
8.524613e+002, 1.029878e+001
8.529434e+002, 1.033260e+001
8.534255e+002, 1.044182e+001
8.539077e+002, 1.060405e+001
8.543898e+002, 1.076494e+001
8.548719e+002, 1.092481e+001
8.553540e+002, 1.099637e+001
8.558361e+002, 1.093726e+001
8.563182e+002, 1.089919e+001
8.568004e+002, 1.101004e+001
8.572825e+002, 1.121652e+001
8.577646e+002, 1.134230e+001
8.582467e+002, 1.130057e+001
8.587288e+002, 1.136686e+001
8.592109e+002, 1.163127e+001
8.596931e+002, 1.189504e+001
8.601752e+002, 1.211024e+001
8.606573e+002, 1.227536e+001
8.611394e+002, 1.235371e+001
8.616215e+002, 1.235366e+001
8.621036e+002, 1.244506e+001
8.625858e+002, 1.277251e+001
8.630679e+002, 1.313321e+001
8.635500e+002, 1.338279e+001
8.640321e+002, 1.358218e+001
8.645142e+002, 1.382702e+001
8.649963e+002, 1.411560e+001
8.654785e+002, 1.435299e+001
8.659606e+002, 1.447419e+001
8.664427e+002, 1.459603e+001
8.669248e+002, 1.493285e+001
8.674069e+002, 1.543638e+001
8.678890e+002, 1.584688e+001
8.683712e+002, 1.614610e+001
8.688533e+002, 1.643307e+001
8.693354e+002, 1.674351e+001
8.698175e+002, 1.708069e+001
8.702996e+002, 1.744274e+001
8.707817e+002, 1.782998e+001
8.712639e+002, 1.827554e+001
8.717459e+002, 1.886341e+001
8.722280e+002, 1.936145e+001
8.727101e+002, 1.966037e+001
8.731923e+002, 1.992048e+001
8.736744e+002, 2.023817e+001
8.741565e+002, 2.058895e+001
8.746386e+002, 2.091882e+001
8.751207e+002, 2.122813e+001
8.756028e+002, 2.148147e+001
8.760850e+002, 2.158268e+001
8.765671e+002, 2.170228e+001
8.770492e+002, 2.205492e+001
8.775313e+002, 2.248151e+001
8.780134e+002, 2.270042e+001
8.784955e+002, 2.265584e+001
8.789777e+002, 2.250890e+001
8.794598e+002, 2.235276e+001
8.799419e+002, 2.220369e+001
8.804240e+002, 2.213409e+001
8.809061e+002, 2.209631e+001
8.813882e+002, 2.190897e+001
8.818704e+002, 2.154695e+001
8.823525e+002, 2.110105e+001
8.828346e+002, 2.062712e+001
8.833167e+002, 2.011498e+001
8.837988e+002, 1.952250e+001
8.842809e+002, 1.881868e+001
8.847631e+002, 1.826899e+001
8.852452e+002, 1.792705e+001
8.857273e+002, 1.761036e+001
8.862094e+002, 1.728936e+001
8.866915e+002, 1.693011e+001
8.871736e+002, 1.646638e+001
8.876558e+002, 1.590803e+001
8.881379e+002, 1.539230e+001
8.886200e+002, 1.491383e+001
8.891021e+002, 1.449174e+001
8.895842e+002, 1.415009e+001
8.900663e+002, 1.384391e+001
8.905485e+002, 1.355473e+001
8.910306e+002, 1.327490e+001
8.915127e+002, 1.299190e+001
8.919948e+002, 1.269893e+001
8.924769e+002, 1.243712e+001
8.929590e+002, 1.226198e+001
8.934412e+002, 1.210582e+001
8.939233e+002, 1.189869e+001
8.944054e+002, 1.165435e+001
8.948875e+002, 1.138598e+001
8.953696e+002, 1.111127e+001
8.958517e+002, 1.090382e+001
8.963339e+002, 1.083407e+001
8.968160e+002, 1.081529e+001
8.972981e+002, 1.064927e+001
8.977802e+002, 1.035668e+001
8.982623e+002, 1.015210e+001
8.987444e+002, 1.006288e+001
8.992266e+002, 9.963350e+000
8.997087e+002, 9.789440e+000
9.001908e+002, 9.585236e+000
9.006729e+002, 9.407717e+000
9.011550e+002, 9.254904e+000
9.016371e+002, 9.174469e+000
9.021193e+002, 9.182814e+000
9.026014e+002, 9.234606e+000
9.030835e+002, 9.414266e+000
9.035656e+002, 9.543151e+000
9.040477e+002, 9.470761e+000
9.045298e+002, 9.259118e+000
9.050120e+002, 9.058288e+000
9.054941e+002, 8.862216e+000
9.059762e+002, 8.741433e+000
9.064583e+002, 8.768596e+000
9.069404e+002, 8.817785e+000
9.074225e+002, 8.848192e+000
9.079047e+002, 8.836208e+000
9.083868e+002, 8.730773e+000
9.088689e+002, 8.543734e+000
9.093510e+002, 8.382874e+000
9.098331e+002, 8.312304e+000
9.103152e+002, 8.294635e+000
9.107974e+002, 8.300817e+000
9.112795e+002, 8.328674e+000
9.117616e+002, 8.388307e+000
9.122437e+002, 8.468701e+000
9.127258e+002, 8.523581e+000
9.132079e+002, 8.530911e+000
9.136901e+002, 8.514856e+000
9.141722e+002, 8.519300e+000
9.146543e+002, 8.529826e+000
9.151364e+002, 8.437011e+000
9.156185e+002, 8.234818e+000
9.161006e+002, 8.106301e+000
9.165828e+002, 8.104527e+000
9.170649e+002, 8.153042e+000
9.175470e+002, 8.199374e+000
9.180291e+002, 8.236574e+000
9.185112e+002, 8.239056e+000
9.189933e+002, 8.199439e+000
9.194755e+002, 8.142626e+000
9.199576e+002, 8.051558e+000
9.204397e+002, 7.968155e+000
9.209218e+002, 7.894702e+000
9.214039e+002, 7.846629e+000
9.218860e+002, 7.855311e+000
9.223682e+002, 7.917564e+000
9.228503e+002, 7.957833e+000
9.233324e+002, 7.945772e+000
9.238145e+002, 7.937635e+000
9.242966e+002, 7.980429e+000
9.247787e+002, 8.004908e+000
9.252609e+002, 7.920043e+000
9.257430e+002, 7.783237e+000
9.262251e+002, 7.729071e+000
9.267072e+002, 7.799260e+000
9.271893e+002, 7.865423e+000
9.276714e+002, 7.839009e+000
9.281536e+002, 7.771306e+000
9.286357e+002, 7.669064e+000
9.291178e+002, 7.580496e+000
9.295999e+002, 7.632191e+000
9.300820e+002, 7.810960e+000
9.305641e+002, 7.931415e+000
9.310463e+002, 7.867467e+000
9.315284e+002, 7.732778e+000
9.320105e+002, 7.710352e+000
9.324926e+002, 7.772270e+000
9.329747e+002, 7.807793e+000
9.334568e+002, 7.811057e+000
9.339390e+002, 7.792174e+000
9.344211e+002, 7.754383e+000
9.349032e+002, 7.699272e+000
9.353853e+002, 7.622644e+000
9.358674e+002, 7.533921e+000
9.363495e+002, 7.490636e+000
9.368317e+002, 7.500384e+000
9.373138e+002, 7.521767e+000
9.377959e+002, 7.546116e+000
9.382780e+002, 7.593576e+000
9.387601e+002, 7.699524e+000
9.392422e+002, 7.816576e+000
9.397244e+002, 7.861351e+000
9.402065e+002, 7.827288e+000
9.406886e+002, 7.758853e+000
9.411707e+002, 7.604087e+000
9.416528e+002, 7.486787e+000
9.421349e+002, 7.438792e+000
9.426171e+002, 7.428123e+000
9.430992e+002, 7.458768e+000
9.435813e+002, 7.504005e+000
9.440634e+002, 7.490495e+000
9.445455e+002, 7.376043e+000
9.450276e+002, 7.311061e+000
9.455098e+002, 7.389424e+000
9.459919e+002, 7.491181e+000
9.464740e+002, 7.548054e+000
9.469561e+002, 7.572767e+000
9.474382e+002, 7.584404e+000
9.479203e+002, 7.587999e+000
9.484025e+002, 7.584689e+000
9.488846e+002, 7.574611e+000
9.493667e+002, 7.559016e+000
9.498488e+002, 7.534821e+000
9.503309e+002, 7.508252e+000
9.508130e+002, 7.477385e+000
9.512952e+002, 7.453078e+000
9.517773e+002, 7.478990e+000
9.522594e+002, 7.564330e+000
9.527415e+002, 7.639090e+000
9.532236e+002, 7.626544e+000
9.537057e+002, 7.568176e+000
9.541878e+002, 7.570026e+000
9.546699e+002, 7.622075e+000
9.551520e+002, 7.660100e+000
9.556342e+002, 7.675143e+000
9.561163e+002, 7.675719e+000
9.565984e+002, 7.665929e+000
9.570805e+002, 7.647705e+000
9.575626e+002, 7.626277e+000
9.580447e+002, 7.601133e+000
9.585269e+002, 7.534958e+000
9.590090e+002, 7.395236e+000
9.594911e+002, 7.365017e+000
9.599732e+002, 7.525560e+000
9.604553e+002, 7.709198e+000
9.609374e+002, 7.798058e+000
9.614196e+002, 7.811711e+000
9.619017e+002, 7.801764e+000
9.623838e+002, 7.757354e+000
9.628659e+002, 7.722320e+000
9.633480e+002, 7.681931e+000
9.638301e+002, 7.671428e+000
9.643123e+002, 7.734385e+000
9.647944e+002, 7.802162e+000
9.652765e+002, 7.795295e+000
9.657586e+002, 7.737008e+000
9.662407e+002, 7.744330e+000
9.667228e+002, 7.902796e+000
9.672050e+002, 7.982338e+000
9.676871e+002, 7.841336e+000
9.681692e+002, 7.708830e+000
9.686513e+002, 7.749044e+000
9.691334e+002, 7.858637e+000
9.696155e+002, 7.883181e+000
9.700977e+002, 7.815126e+000
9.705798e+002, 7.778118e+000
9.710619e+002, 7.866705e+000
9.715440e+002, 7.934439e+000
9.720261e+002, 7.830701e+000
9.725082e+002, 7.705226e+000
9.729904e+002, 7.737271e+000
9.734725e+002, 7.878764e+000
9.739546e+002, 7.994876e+000
9.744367e+002, 8.044613e+000
9.749188e+002, 8.075274e+000
9.754009e+002, 8.130565e+000
9.758831e+002, 8.179394e+000
9.763652e+002, 8.155470e+000
9.768473e+002, 8.101313e+000
9.773294e+002, 8.120462e+000
9.778115e+002, 8.209860e+000
9.782936e+002, 8.288539e+000
9.787758e+002, 8.318313e+000
9.792579e+002, 8.318933e+000
9.797400e+002, 8.315717e+000
9.802221e+002, 8.303110e+000
9.807042e+002, 8.244823e+000
9.811863e+002, 8.151556e+000
9.816685e+002, 8.107764e+000
9.821506e+002, 8.130322e+000
9.826327e+002, 8.218300e+000
9.831148e+002, 8.385568e+000
9.835969e+002, 8.548564e+000
9.840790e+002, 8.521979e+000
9.845612e+002, 8.304009e+000
9.850433e+002, 8.205061e+000
9.855254e+002, 8.250163e+000
9.860075e+002, 8.255024e+000
9.864896e+002, 8.145836e+000
9.869717e+002, 8.068761e+000
9.874539e+002, 8.150893e+000
9.879360e+002, 8.348510e+000
9.884181e+002, 8.534314e+000
9.889002e+002, 8.732743e+000
9.893823e+002, 8.821849e+000
9.898644e+002, 8.731390e+000
9.903466e+002, 8.668021e+000
9.908287e+002, 8.716036e+000
9.913108e+002, 8.794621e+000
9.917929e+002, 8.831964e+000
9.922750e+002, 8.832698e+000
9.927571e+002, 8.822385e+000
9.932393e+002, 8.776068e+000
9.937214e+002, 8.763842e+000
9.942035e+002, 8.839496e+000
9.946856e+002, 8.886225e+000
9.951677e+002, 8.823865e+000
9.956498e+002, 8.734707e+000
9.961320e+002, 8.694314e+000
9.966141e+002, 8.708436e+000
9.970962e+002, 8.780473e+000
9.975783e+002, 8.978987e+000
9.980604e+002, 9.121839e+000
9.985425e+002, 9.096470e+000
9.990247e+002, 9.071062e+000
9.995068e+002, 9.182342e+000
9.999889e+002, 9.343459e+000
1.000471e+003, 9.422036e+000
1.000953e+003, 9.404898e+000
1.001435e+003, 9.371351e+000
1.001917e+003, 9.341249e+000
1.002399e+003, 9.321481e+000
1.002882e+003, 9.313308e+000
1.003364e+003, 9.319294e+000
1.003846e+003, 9.363285e+000
1.004328e+003, 9.416118e+000
1.004810e+003, 9.405499e+000
1.005292e+003, 9.324279e+000
1.005774e+003, 9.279346e+000
1.006256e+003, 9.344371e+000
1.006739e+003, 9.465378e+000
1.007221e+003, 9.650881e+000
1.007703e+003, 9.823342e+000
1.008185e+003, 9.849760e+000
1.008667e+003, 9.762061e+000
1.009149e+003, 9.671450e+000
1.009631e+003, 9.620570e+000
1.010113e+003, 9.605604e+000
1.010595e+003, 9.635572e+000
1.011078e+003, 9.686192e+000
1.011560e+003, 9.710231e+000
1.012042e+003, 9.729361e+000
1.012524e+003, 9.811441e+000
1.013006e+003, 9.946074e+000
1.013488e+003, 1.004892e+001
1.013970e+003, 1.008371e+001
1.014452e+003, 1.008978e+001
1.014935e+003, 1.011013e+001
1.015417e+003, 1.013562e+001
1.015899e+003, 1.012848e+001
1.016381e+003, 1.010344e+001
1.016863e+003, 1.014826e+001
1.017345e+003, 1.026683e+001
1.017827e+003, 1.034759e+001
1.018309e+003, 1.033115e+001
1.018791e+003, 1.028821e+001
1.019274e+003, 1.031953e+001
1.019756e+003, 1.040767e+001
1.020238e+003, 1.046178e+001
1.020720e+003, 1.048393e+001
1.021202e+003, 1.055458e+001
1.021684e+003, 1.069386e+001
1.022166e+003, 1.074589e+001
1.022648e+003, 1.060412e+001
1.023130e+003, 1.040834e+001
1.023613e+003, 1.038953e+001
1.024095e+003, 1.053661e+001
1.024577e+003, 1.067903e+001
1.025059e+003, 1.082612e+001
1.025541e+003, 1.085791e+001
1.026023e+003, 1.071206e+001
1.026505e+003, 1.064447e+001
1.026987e+003, 1.084964e+001
1.027469e+003, 1.115194e+001
1.027952e+003, 1.120761e+001
1.028434e+003, 1.100183e+001
1.028916e+003, 1.093382e+001
1.029398e+003, 1.104536e+001
1.029880e+003, 1.115193e+001
1.030362e+003, 1.123281e+001
1.030844e+003, 1.126588e+001
1.031326e+003, 1.121025e+001
1.031809e+003, 1.112649e+001
1.032291e+003, 1.114121e+001
1.032773e+003, 1.126670e+001
1.033255e+003, 1.139241e+001
1.033737e+003, 1.155606e+001
1.034219e+003, 1.163221e+001
1.034701e+003, 1.154085e+001
1.035183e+003, 1.144095e+001
1.035666e+003, 1.141836e+001
1.036148e+003, 1.147038e+001
1.036630e+003, 1.161253e+001
1.037112e+003, 1.188141e+001
1.037594e+003, 1.203303e+001
1.038076e+003, 1.201466e+001
1.038558e+003, 1.195877e+001
1.039040e+003, 1.177769e+001
1.039522e+003, 1.168591e+001
1.040005e+003, 1.193844e+001
1.040487e+003, 1.234145e+001
1.040969e+003, 1.245251e+001
1.041451e+003, 1.218901e+001
1.041933e+003, 1.207444e+001
1.042415e+003, 1.226429e+001
1.042897e+003, 1.239879e+001
1.043379e+003, 1.234133e+001
1.043861e+003, 1.227938e+001
1.044344e+003, 1.233263e+001
1.044826e+003, 1.246769e+001
1.045308e+003, 1.264022e+001
1.045790e+003, 1.286885e+001
1.046272e+003, 1.297599e+001
1.046754e+003, 1.282699e+001
1.047236e+003, 1.271505e+001
1.047718e+003, 1.272533e+001
1.048201e+003, 1.278238e+001
1.048683e+003, 1.281770e+001
1.049165e+003, 1.286711e+001
1.049647e+003, 1.303996e+001
1.050129e+003, 1.336889e+001
1.050611e+003, 1.355385e+001
1.051093e+003, 1.337116e+001
1.051575e+003, 1.326196e+001
1.052057e+003, 1.344609e+001
1.052540e+003, 1.366262e+001
1.053022e+003, 1.370777e+001
1.053504e+003, 1.365289e+001
1.053986e+003, 1.365259e+001
1.054468e+003, 1.373056e+001
1.054950e+003, 1.377884e+001
1.055432e+003, 1.369367e+001
1.055914e+003, 1.367642e+001
1.056396e+003, 1.387401e+001
1.056879e+003, 1.408879e+001
1.057361e+003, 1.415535e+001
1.057843e+003, 1.413989e+001
1.058325e+003, 1.416814e+001
1.058807e+003, 1.426014e+001
1.059289e+003, 1.437436e+001
1.059771e+003, 1.454989e+001
1.060253e+003, 1.467457e+001
1.060736e+003, 1.465172e+001
1.061218e+003, 1.461577e+001
1.061700e+003, 1.467141e+001
1.062182e+003, 1.478499e+001
1.062664e+003, 1.490213e+001
1.063146e+003, 1.500981e+001
1.063628e+003, 1.508213e+001
1.064110e+003, 1.506514e+001
1.064593e+003, 1.507506e+001
1.065075e+003, 1.519963e+001
1.065557e+003, 1.532967e+001
1.066039e+003, 1.535505e+001
1.066521e+003, 1.534279e+001
1.067003e+003, 1.541865e+001
1.067485e+003, 1.558768e+001
1.067967e+003, 1.571981e+001
1.068449e+003, 1.573153e+001
1.068932e+003, 1.575931e+001
1.069414e+003, 1.586982e+001
1.069896e+003, 1.601353e+001
1.070378e+003, 1.619509e+001
1.070860e+003, 1.636229e+001
1.071342e+003, 1.641495e+001
1.071824e+003, 1.637034e+001
1.072306e+003, 1.640609e+001
1.072788e+003, 1.664015e+001
1.073271e+003, 1.684080e+001
1.073753e+003, 1.684921e+001
1.074235e+003, 1.683856e+001
1.074717e+003, 1.693834e+001
1.075199e+003, 1.709342e+001
1.075681e+003, 1.722503e+001
1.076163e+003, 1.732903e+001
1.076645e+003, 1.744981e+001
1.077127e+003, 1.761979e+001
1.077610e+003, 1.775340e+001
1.078092e+003, 1.779431e+001
1.078574e+003, 1.780430e+001
1.079056e+003, 1.775789e+001
1.079538e+003, 1.775182e+001
1.080020e+003, 1.795990e+001
1.080502e+003, 1.831354e+001
1.080984e+003, 1.853523e+001
1.081467e+003, 1.851155e+001
1.081949e+003, 1.849390e+001
1.082431e+003, 1.859146e+001
1.082913e+003, 1.873380e+001
1.083395e+003, 1.889603e+001
1.083877e+003, 1.906634e+001
1.084359e+003, 1.923055e+001
1.084841e+003, 1.939395e+001
1.085323e+003, 1.957741e+001
1.085806e+003, 1.978824e+001
1.086288e+003, 1.999445e+001
1.086770e+003, 2.021873e+001
1.087252e+003, 2.038968e+001
1.087734e+003, 2.043197e+001
1.088216e+003, 2.043893e+001
1.088698e+003, 2.050573e+001
1.089180e+003, 2.060481e+001
1.089662e+003, 2.064215e+001
1.090145e+003, 2.059836e+001
1.090627e+003, 2.062844e+001
1.091109e+003, 2.080667e+001
1.091591e+003, 2.104938e+001
1.092073e+003, 2.144030e+001
1.092555e+003, 2.176658e+001
1.093037e+003, 2.179351e+001
1.093519e+003, 2.166545e+001
1.094002e+003, 2.159808e+001
1.094484e+003, 2.163354e+001
1.094966e+003, 2.181362e+001
1.095448e+003, 2.233380e+001
1.095930e+003, 2.273013e+001
1.096412e+003, 2.275586e+001
1.096894e+003, 2.271285e+001
1.097376e+003, 2.274026e+001
1.097859e+003, 2.285003e+001
1.098341e+003, 2.309892e+001
1.098823e+003, 2.344836e+001
1.099305e+003, 2.365457e+001
1.099787e+003, 2.355662e+001
1.100269e+003, 2.353320e+001
1.100751e+003, 2.371091e+001
1.101233e+003, 2.394971e+001
1.101715e+003, 2.425824e+001
1.102198e+003, 2.453504e+001
1.102680e+003, 2.460287e+001
1.103162e+003, 2.454355e+001
1.103644e+003, 2.469618e+001
1.104126e+003, 2.520815e+001
1.104608e+003, 2.561742e+001
1.105090e+003, 2.576129e+001
1.105572e+003, 2.589543e+001
1.106054e+003, 2.614790e+001
1.106537e+003, 2.639020e+001
1.107019e+003, 2.648788e+001
1.107501e+003, 2.650061e+001
1.107983e+003, 2.657230e+001
1.108465e+003, 2.671176e+001
1.108947e+003, 2.692116e+001
1.109429e+003, 2.732485e+001
1.109911e+003, 2.762164e+001
1.110394e+003, 2.760296e+001
1.110876e+003, 2.761577e+001
1.111358e+003, 2.795588e+001
1.111840e+003, 2.842113e+001
1.112322e+003, 2.865225e+001
1.112804e+003, 2.862957e+001
1.113286e+003, 2.869763e+001
1.113768e+003, 2.887420e+001
1.114250e+003, 2.911449e+001
1.114733e+003, 2.951077e+001
1.115215e+003, 2.983743e+001
1.115697e+003, 2.992551e+001
1.116179e+003, 2.996448e+001
1.116661e+003, 3.017712e+001
1.117143e+003, 3.054187e+001
1.117625e+003, 3.090090e+001
1.118107e+003, 3.125880e+001
1.118589e+003, 3.159419e+001
1.119072e+003, 3.188625e+001
1.119554e+003, 3.220753e+001
1.120036e+003, 3.265556e+001
1.120518e+003, 3.301468e+001
1.121000e+003, 3.305999e+001
1.121482e+003, 3.290342e+001
1.121964e+003, 3.285472e+001
1.122446e+003, 3.289319e+001
1.122929e+003, 3.318571e+001
1.123411e+003, 3.380378e+001
1.123893e+003, 3.447071e+001
1.124375e+003, 3.521330e+001
1.124857e+003, 3.570426e+001
1.125339e+003, 3.565110e+001
1.125821e+003, 3.540848e+001
1.126303e+003, 3.561835e+001
1.126786e+003, 3.624418e+001
1.127268e+003, 3.658500e+001
1.127750e+003, 3.659674e+001
1.128232e+003, 3.668330e+001
1.128714e+003, 3.688178e+001
1.129196e+003, 3.731156e+001
1.129678e+003, 3.807248e+001
1.130160e+003, 3.879718e+001
1.130642e+003, 3.903048e+001
1.131125e+003, 3.894415e+001
1.131607e+003, 3.915441e+001
1.132089e+003, 3.964294e+001
1.132571e+003, 4.009274e+001
1.133053e+003, 4.048750e+001
1.133535e+003, 4.082258e+001
1.134017e+003, 4.109736e+001
1.134499e+003, 4.140662e+001
1.134981e+003, 4.183584e+001
1.135464e+003, 4.228026e+001
1.135946e+003, 4.247243e+001
1.136428e+003, 4.252570e+001
1.136910e+003, 4.295663e+001
1.137392e+003, 4.367269e+001
1.137874e+003, 4.416160e+001
1.138356e+003, 4.436594e+001
1.138838e+003, 4.462280e+001
1.139321e+003, 4.510668e+001
1.139803e+003, 4.568163e+001
1.140285e+003, 4.624231e+001
1.140767e+003, 4.675663e+001
1.141249e+003, 4.714716e+001
1.141731e+003, 4.745762e+001
1.142213e+003, 4.772758e+001
1.142695e+003, 4.801195e+001
1.143177e+003, 4.848522e+001
1.143660e+003, 4.917830e+001
1.144142e+003, 4.987226e+001
1.144624e+003, 5.043570e+001
1.145106e+003, 5.088827e+001
1.145588e+003, 5.109743e+001
1.146070e+003, 5.133348e+001
1.146552e+003, 5.211695e+001
1.147034e+003, 5.310712e+001
1.147516e+003, 5.353975e+001
1.147999e+003, 5.346300e+001
1.148481e+003, 5.368263e+001
1.148963e+003, 5.459574e+001
1.149445e+003, 5.548484e+001
1.149927e+003, 5.579845e+001
1.150409e+003, 5.603922e+001
1.150891e+003, 5.654299e+001
1.151373e+003, 5.718801e+001
1.151856e+003, 5.783576e+001
1.152338e+003, 5.850100e+001
1.152820e+003, 5.929922e+001
1.153302e+003, 6.025253e+001
1.153784e+003, 6.107066e+001
1.154266e+003, 6.158406e+001
1.154748e+003, 6.205507e+001
1.155230e+003, 6.246636e+001
1.155713e+003, 6.297511e+001
1.156195e+003, 6.374440e+001
1.156677e+003, 6.462847e+001
1.157159e+003, 6.548085e+001
1.157641e+003, 6.628109e+001
1.158123e+003, 6.696394e+001
1.158605e+003, 6.743624e+001
1.159087e+003, 6.799239e+001
1.159569e+003, 6.866901e+001
1.160052e+003, 6.941169e+001
1.160534e+003, 7.024773e+001
1.161016e+003, 7.110258e+001
1.161498e+003, 7.190406e+001
1.161980e+003, 7.269288e+001
1.162462e+003, 7.356614e+001
1.162944e+003, 7.453857e+001
1.163426e+003, 7.544877e+001
1.163908e+003, 7.625979e+001
1.164391e+003, 7.711367e+001
1.164873e+003, 7.803658e+001
1.165355e+003, 7.896077e+001
1.165837e+003, 7.983958e+001
1.166319e+003, 8.076030e+001
1.166801e+003, 8.185460e+001
1.167283e+003, 8.305132e+001
1.167765e+003, 8.405293e+001
1.168247e+003, 8.485094e+001
1.168730e+003, 8.569727e+001
1.169212e+003, 8.659777e+001
1.169694e+003, 8.765234e+001
1.170176e+003, 8.888895e+001
1.170658e+003, 9.003365e+001
1.171140e+003, 9.087459e+001
1.171622e+003, 9.169228e+001
1.172104e+003, 9.306798e+001
1.172587e+003, 9.474104e+001
1.173069e+003, 9.574419e+001
1.173551e+003, 9.627601e+001
1.174033e+003, 9.709727e+001
1.174515e+003, 9.826198e+001
1.174997e+003, 9.944178e+001
1.175479e+003, 1.005257e+002
1.175961e+003, 1.017060e+002
1.176443e+003, 1.032046e+002
1.176926e+003, 1.047529e+002
1.177408e+003, 1.059297e+002
1.177890e+003, 1.070080e+002
1.178372e+003, 1.084873e+002
1.178854e+003, 1.101418e+002
1.179336e+003, 1.113198e+002
1.179818e+003, 1.121342e+002
1.180300e+003, 1.134968e+002
1.180782e+003, 1.158566e+002
1.181265e+003, 1.181877e+002
1.181747e+003, 1.197946e+002
1.182229e+003, 1.212431e+002
1.182711e+003, 1.229070e+002
1.183193e+003, 1.245740e+002
1.183675e+003, 1.258903e+002
1.184157e+003, 1.271080e+002
1.184639e+003, 1.287890e+002
1.185122e+003, 1.309827e+002
1.185604e+003, 1.330455e+002
1.186086e+003, 1.347481e+002
1.186568e+003, 1.364574e+002
1.187050e+003, 1.381538e+002
1.187532e+003, 1.399714e+002
1.188014e+003, 1.420030e+002
1.188496e+003, 1.441448e+002
1.188979e+003, 1.463047e+002
1.189461e+003, 1.484848e+002
1.189943e+003, 1.505748e+002
1.190425e+003, 1.524370e+002
1.190907e+003, 1.550888e+002
1.191389e+003, 1.590280e+002
1.191871e+003, 1.622775e+002
1.192353e+003, 1.643044e+002
1.192835e+003, 1.662224e+002
1.193318e+003, 1.685485e+002
1.193800e+003, 1.711334e+002
1.194282e+003, 1.737919e+002
1.194764e+003, 1.765370e+002
1.195246e+003, 1.794681e+002
1.195728e+003, 1.825671e+002
1.196210e+003, 1.851793e+002
1.196692e+003, 1.873107e+002
1.197174e+003, 1.900552e+002
1.197657e+003, 1.936454e+002
1.198139e+003, 1.973185e+002
1.198621e+003, 2.005960e+002
1.199103e+003, 2.037665e+002
1.199585e+003, 2.070965e+002
1.200067e+003, 2.106437e+002
1.200549e+003, 2.148357e+002
1.201031e+003, 2.192563e+002
1.201514e+003, 2.228923e+002
1.201996e+003, 2.259252e+002
1.202478e+003, 2.291826e+002
1.202960e+003, 2.328933e+002
1.203442e+003, 2.367165e+002
1.203924e+003, 2.404693e+002
1.204406e+003, 2.442508e+002
1.204888e+003, 2.480996e+002
1.205370e+003, 2.520231e+002
1.205853e+003, 2.560093e+002
1.206335e+003, 2.600574e+002
1.206817e+003, 2.643134e+002
1.207299e+003, 2.686261e+002
1.207781e+003, 2.724661e+002
1.208263e+003, 2.756519e+002
1.208745e+003, 2.795399e+002
1.209227e+003, 2.852644e+002
1.209709e+003, 2.904687e+002
1.210192e+003, 2.944775e+002
1.210674e+003, 2.981293e+002
1.211156e+003, 3.015006e+002
1.211638e+003, 3.050049e+002
1.212120e+003, 3.090087e+002
1.212602e+003, 3.135029e+002
1.213084e+003, 3.185429e+002
1.213566e+003, 3.245196e+002
1.214049e+003, 3.288933e+002
1.214531e+003, 3.311368e+002
1.215013e+003, 3.339565e+002
1.215495e+003, 3.380291e+002
1.215977e+003, 3.418040e+002
1.216459e+003, 3.443486e+002
1.216941e+003, 3.467536e+002
1.217423e+003, 3.504139e+002
1.217906e+003, 3.548852e+002
1.218388e+003, 3.587923e+002
1.218870e+003, 3.622262e+002
1.219352e+003, 3.657855e+002
1.219834e+003, 3.693847e+002
1.220316e+003, 3.722077e+002
1.220798e+003, 3.742229e+002
1.221280e+003, 3.765922e+002
1.221762e+003, 3.799807e+002
1.222245e+003, 3.831651e+002
1.222727e+003, 3.843695e+002
1.223209e+003, 3.852750e+002
1.223691e+003, 3.880061e+002
1.224173e+003, 3.914603e+002
1.224655e+003, 3.944146e+002
1.225137e+003, 3.967959e+002
1.225619e+003, 3.986498e+002
1.226101e+003, 4.000660e+002
1.226584e+003, 4.014398e+002
1.227066e+003, 4.028625e+002
1.227548e+003, 4.043587e+002
1.228030e+003, 4.060113e+002
1.228512e+003, 4.076367e+002
1.228994e+003, 4.095117e+002
1.229476e+003, 4.109875e+002
1.229958e+003, 4.110243e+002
1.230441e+003, 4.105933e+002
1.230923e+003, 4.115496e+002
1.231405e+003, 4.138417e+002
1.231887e+003, 4.155631e+002
1.232369e+003, 4.165957e+002
1.232851e+003, 4.173653e+002
1.233333e+003, 4.177843e+002
1.233815e+003, 4.183163e+002
1.234297e+003, 4.191149e+002
1.234780e+003, 4.200132e+002
1.235262e+003, 4.209321e+002
1.235744e+003, 4.216954e+002
1.236226e+003, 4.218013e+002
1.236708e+003, 4.215944e+002
1.237190e+003, 4.229677e+002
1.237672e+003, 4.253676e+002
1.238154e+003, 4.261918e+002
1.238636e+003, 4.254911e+002
1.239119e+003, 4.249145e+002
1.239601e+003, 4.249218e+002
1.240083e+003, 4.248334e+002
1.240565e+003, 4.241729e+002
1.241047e+003, 4.235342e+002
1.241529e+003, 4.237259e+002
1.242011e+003, 4.239716e+002
1.242493e+003, 4.234716e+002
1.242975e+003, 4.226046e+002
1.243458e+003, 4.216071e+002
1.243940e+003, 4.207453e+002
1.244422e+003, 4.205532e+002
1.244904e+003, 4.210533e+002
1.245386e+003, 4.213795e+002
1.245868e+003, 4.213130e+002
1.246350e+003, 4.210536e+002
1.246832e+003, 4.205996e+002
1.247315e+003, 4.199999e+002
1.247797e+003, 4.192374e+002
1.248279e+003, 4.183634e+002
1.248761e+003, 4.173361e+002
1.249243e+003, 4.162849e+002
1.249725e+003, 4.154441e+002
1.250207e+003, 4.148015e+002
1.250689e+003, 4.141992e+002
1.251172e+003, 4.136324e+002
1.251654e+003, 4.130862e+002
1.252136e+003, 4.125516e+002
1.252618e+003, 4.122020e+002
1.253100e+003, 4.120852e+002
1.253582e+003, 4.115653e+002
1.254064e+003, 4.101642e+002
1.254546e+003, 4.086383e+002
1.255028e+003, 4.082700e+002
1.255510e+003, 4.083477e+002
1.255993e+003, 4.076317e+002
1.256475e+003, 4.063184e+002
1.256957e+003, 4.043780e+002
1.257439e+003, 4.023009e+002
1.257921e+003, 4.013690e+002
1.258403e+003, 4.015737e+002
1.258885e+003, 4.012009e+002
1.259367e+003, 3.993725e+002
1.259850e+003, 3.974942e+002
1.260332e+003, 3.961762e+002
1.260814e+003, 3.950215e+002
1.261296e+003, 3.937881e+002
1.261778e+003, 3.926919e+002
1.262260e+003, 3.918837e+002
1.262742e+003, 3.913368e+002
1.263224e+003, 3.912158e+002
1.263707e+003, 3.913769e+002
1.264189e+003, 3.905758e+002
1.264671e+003, 3.882978e+002
1.265153e+003, 3.868180e+002
1.265635e+003, 3.862760e+002
1.266117e+003, 3.860737e+002
1.266599e+003, 3.861692e+002
1.267081e+003, 3.858837e+002
1.267563e+003, 3.847928e+002
1.268046e+003, 3.835625e+002
1.268528e+003, 3.830153e+002
1.269010e+003, 3.828271e+002
1.269492e+003, 3.820374e+002
1.269974e+003, 3.810875e+002
1.270456e+003, 3.813936e+002
1.270938e+003, 3.824487e+002
1.271420e+003, 3.827453e+002
1.271902e+003, 3.821544e+002
1.272385e+003, 3.813244e+002
1.272867e+003, 3.805024e+002
1.273349e+003, 3.798676e+002
1.273831e+003, 3.792719e+002
1.274313e+003, 3.792399e+002
1.274795e+003, 3.806891e+002
1.275277e+003, 3.820466e+002
1.275759e+003, 3.821263e+002
1.276242e+003, 3.816635e+002
1.276724e+003, 3.815041e+002
1.277206e+003, 3.815571e+002
1.277688e+003, 3.812687e+002
1.278170e+003, 3.804803e+002
1.278652e+003, 3.809529e+002
1.279134e+003, 3.832978e+002
1.279616e+003, 3.845555e+002
1.280099e+003, 3.841645e+002
1.280581e+003, 3.840410e+002
1.281063e+003, 3.849003e+002
1.281545e+003, 3.859315e+002
1.282027e+003, 3.864774e+002
1.282509e+003, 3.869364e+002
1.282991e+003, 3.882518e+002
1.283473e+003, 3.898373e+002
1.283955e+003, 3.905154e+002
##END=



