##NAMES=Rasvumite
##RRUFFID=R060491
##IDEAL CHEMISTRY=KFe_2_S^2-^_3_
##LOCALITY=Coyote Peak, Humboldt County, California, USA
##OWNER=RRUFF
##SOURCE=Michael Scott
##DESCRIPTION=Parallel aggregates of brownish-red fibers, associated with phlogopite, andradite, augite, pyrrhotite, magnetite, sulphur, and apatite.
##STATUS=The identification of this mineral has been confirmed by X-ray diffraction.
##URL=rruff.info/R060491
8.930109e+001, 0.000000e+000
8.978320e+001, 3.931604e+001
9.026532e+001, 3.885654e+001
9.074744e+001, 3.882768e+001
9.122955e+001, 3.939029e+001
9.171167e+001, 4.019765e+001
9.219379e+001, 4.099995e+001
9.267590e+001, 4.177293e+001
9.315802e+001, 4.213018e+001
9.364014e+001, 4.156722e+001
9.412225e+001, 4.035542e+001
9.460437e+001, 3.923669e+001
9.508649e+001, 3.843995e+001
9.556860e+001, 3.781993e+001
9.605072e+001, 3.701611e+001
9.653284e+001, 3.604794e+001
9.701495e+001, 3.511373e+001
9.749707e+001, 3.437697e+001
9.797919e+001, 3.382620e+001
9.846130e+001, 3.340901e+001
9.894342e+001, 3.312439e+001
9.942554e+001, 3.296141e+001
9.990765e+001, 3.283952e+001
1.003898e+002, 3.278601e+001
1.008719e+002, 3.271904e+001
1.013540e+002, 3.249815e+001
1.018361e+002, 3.208014e+001
1.023182e+002, 3.167403e+001
1.028004e+002, 3.132191e+001
1.032825e+002, 3.098261e+001
1.037646e+002, 3.087039e+001
1.042467e+002, 3.104084e+001
1.047288e+002, 3.139947e+001
1.052109e+002, 3.171112e+001
1.056931e+002, 3.185686e+001
1.061752e+002, 3.212719e+001
1.066573e+002, 3.268406e+001
1.071394e+002, 3.389537e+001
1.076215e+002, 3.477053e+001
1.081036e+002, 3.530297e+001
1.085858e+002, 3.550524e+001
1.090679e+002, 3.537805e+001
1.095500e+002, 3.456964e+001
1.100321e+002, 3.369805e+001
1.105142e+002, 3.309647e+001
1.109963e+002, 3.294903e+001
1.114785e+002, 3.285431e+001
1.119606e+002, 3.276987e+001
1.124427e+002, 3.269544e+001
1.129248e+002, 3.266830e+001
1.134069e+002, 3.262730e+001
1.138890e+002, 3.266401e+001
1.143712e+002, 3.285242e+001
1.148533e+002, 3.336632e+001
1.153354e+002, 3.388509e+001
1.158175e+002, 3.434671e+001
1.162996e+002, 3.476288e+001
1.167817e+002, 3.501385e+001
1.172639e+002, 3.498477e+001
1.177460e+002, 3.479161e+001
1.182281e+002, 3.458087e+001
1.187102e+002, 3.443907e+001
1.191923e+002, 3.427267e+001
1.196744e+002, 3.398779e+001
1.201566e+002, 3.353350e+001
1.206387e+002, 3.314774e+001
1.211208e+002, 3.295387e+001
1.216029e+002, 3.293389e+001
1.220850e+002, 3.305720e+001
1.225671e+002, 3.333327e+001
1.230493e+002, 3.373207e+001
1.235314e+002, 3.430782e+001
1.240135e+002, 3.521072e+001
1.244956e+002, 3.593722e+001
1.249777e+002, 3.585566e+001
1.254598e+002, 3.512481e+001
1.259420e+002, 3.434284e+001
1.264241e+002, 3.384837e+001
1.269062e+002, 3.357254e+001
1.273883e+002, 3.338938e+001
1.278704e+002, 3.326573e+001
1.283525e+002, 3.323209e+001
1.288347e+002, 3.340210e+001
1.293168e+002, 3.376414e+001
1.297989e+002, 3.409419e+001
1.302810e+002, 3.414511e+001
1.307631e+002, 3.399203e+001
1.312452e+002, 3.396457e+001
1.317274e+002, 3.423728e+001
1.322095e+002, 3.464611e+001
1.326916e+002, 3.468716e+001
1.331737e+002, 3.431536e+001
1.336558e+002, 3.388816e+001
1.341379e+002, 3.378219e+001
1.346201e+002, 3.399258e+001
1.351022e+002, 3.418393e+001
1.355843e+002, 3.425841e+001
1.360664e+002, 3.422859e+001
1.365485e+002, 3.414757e+001
1.370306e+002, 3.397026e+001
1.375128e+002, 3.385026e+001
1.379949e+002, 3.398509e+001
1.384770e+002, 3.440737e+001
1.389591e+002, 3.494027e+001
1.394412e+002, 3.562991e+001
1.399233e+002, 3.651043e+001
1.404055e+002, 3.695428e+001
1.408876e+002, 3.682531e+001
1.413697e+002, 3.639577e+001
1.418518e+002, 3.611214e+001
1.423339e+002, 3.603432e+001
1.428160e+002, 3.596787e+001
1.432982e+002, 3.583337e+001
1.437803e+002, 3.559151e+001
1.442624e+002, 3.539870e+001
1.447445e+002, 3.518991e+001
1.452266e+002, 3.505366e+001
1.457087e+002, 3.521161e+001
1.461909e+002, 3.584232e+001
1.466730e+002, 3.654249e+001
1.471551e+002, 3.716946e+001
1.476372e+002, 3.773241e+001
1.481193e+002, 3.819703e+001
1.486014e+002, 3.854955e+001
1.490836e+002, 3.880257e+001
1.495657e+002, 3.900780e+001
1.500478e+002, 3.901612e+001
1.505299e+002, 3.909173e+001
1.510120e+002, 3.935215e+001
1.514941e+002, 4.027370e+001
1.519763e+002, 4.081624e+001
1.524584e+002, 4.077526e+001
1.529405e+002, 4.026503e+001
1.534226e+002, 3.987067e+001
1.539047e+002, 3.976600e+001
1.543868e+002, 3.970311e+001
1.548690e+002, 3.954692e+001
1.553511e+002, 3.934338e+001
1.558332e+002, 3.898076e+001
1.563153e+002, 3.836609e+001
1.567974e+002, 3.753221e+001
1.572795e+002, 3.674295e+001
1.577617e+002, 3.606191e+001
1.582438e+002, 3.544283e+001
1.587259e+002, 3.485235e+001
1.592080e+002, 3.424434e+001
1.596901e+002, 3.370171e+001
1.601722e+002, 3.323412e+001
1.606544e+002, 3.284423e+001
1.611365e+002, 3.256775e+001
1.616186e+002, 3.249006e+001
1.621007e+002, 3.250245e+001
1.625828e+002, 3.250264e+001
1.630649e+002, 3.241453e+001
1.635471e+002, 3.234358e+001
1.640292e+002, 3.239221e+001
1.645113e+002, 3.256331e+001
1.649934e+002, 3.262163e+001
1.654755e+002, 3.232654e+001
1.659576e+002, 3.188138e+001
1.664398e+002, 3.154170e+001
1.669219e+002, 3.145984e+001
1.674040e+002, 3.147264e+001
1.678861e+002, 3.147664e+001
1.683682e+002, 3.146468e+001
1.688503e+002, 3.147870e+001
1.693325e+002, 3.154261e+001
1.698146e+002, 3.165132e+001
1.702967e+002, 3.179493e+001
1.707788e+002, 3.204843e+001
1.712609e+002, 3.229287e+001
1.717430e+002, 3.243144e+001
1.722252e+002, 3.246098e+001
1.727073e+002, 3.237306e+001
1.731894e+002, 3.206573e+001
1.736715e+002, 3.162655e+001
1.741536e+002, 3.126249e+001
1.746357e+002, 3.105185e+001
1.751179e+002, 3.097188e+001
1.756000e+002, 3.104520e+001
1.760821e+002, 3.130377e+001
1.765642e+002, 3.154322e+001
1.770463e+002, 3.149685e+001
1.775284e+002, 3.125013e+001
1.780106e+002, 3.106630e+001
1.784927e+002, 3.117603e+001
1.789748e+002, 3.141961e+001
1.794569e+002, 3.150031e+001
1.799390e+002, 3.135900e+001
1.804211e+002, 3.117834e+001
1.809033e+002, 3.120320e+001
1.813854e+002, 3.139327e+001
1.818675e+002, 3.155530e+001
1.823496e+002, 3.152661e+001
1.828317e+002, 3.139095e+001
1.833138e+002, 3.135075e+001
1.837960e+002, 3.143729e+001
1.842781e+002, 3.159452e+001
1.847602e+002, 3.178177e+001
1.852423e+002, 3.199083e+001
1.857244e+002, 3.213903e+001
1.862065e+002, 3.213834e+001
1.866887e+002, 3.202802e+001
1.871708e+002, 3.195121e+001
1.876529e+002, 3.191867e+001
1.881350e+002, 3.193384e+001
1.886171e+002, 3.203947e+001
1.890992e+002, 3.223299e+001
1.895814e+002, 3.238877e+001
1.900635e+002, 3.242720e+001
1.905456e+002, 3.235637e+001
1.910277e+002, 3.221244e+001
1.915098e+002, 3.196808e+001
1.919919e+002, 3.170107e+001
1.924741e+002, 3.157994e+001
1.929562e+002, 3.160848e+001
1.934383e+002, 3.170174e+001
1.939204e+002, 3.183180e+001
1.944025e+002, 3.199415e+001
1.948846e+002, 3.210661e+001
1.953668e+002, 3.214674e+001
1.958489e+002, 3.214590e+001
1.963310e+002, 3.218567e+001
1.968131e+002, 3.227234e+001
1.972952e+002, 3.235080e+001
1.977773e+002, 3.238678e+001
1.982595e+002, 3.237946e+001
1.987416e+002, 3.233338e+001
1.992237e+002, 3.222179e+001
1.997058e+002, 3.209431e+001
2.001879e+002, 3.207927e+001
2.006700e+002, 3.217661e+001
2.011522e+002, 3.238863e+001
2.016343e+002, 3.278851e+001
2.021164e+002, 3.341191e+001
2.025985e+002, 3.385027e+001
2.030806e+002, 3.401789e+001
2.035627e+002, 3.398544e+001
2.040449e+002, 3.392930e+001
2.045270e+002, 3.380725e+001
2.050091e+002, 3.379976e+001
2.054912e+002, 3.414174e+001
2.059733e+002, 3.494779e+001
2.064554e+002, 3.537782e+001
2.069376e+002, 3.521070e+001
2.074197e+002, 3.463435e+001
2.079018e+002, 3.436776e+001
2.083839e+002, 3.448097e+001
2.088660e+002, 3.472709e+001
2.093481e+002, 3.492770e+001
2.098303e+002, 3.505153e+001
2.103124e+002, 3.528737e+001
2.107945e+002, 3.570180e+001
2.112766e+002, 3.623567e+001
2.117587e+002, 3.664892e+001
2.122408e+002, 3.689775e+001
2.127230e+002, 3.712026e+001
2.132051e+002, 3.737101e+001
2.136872e+002, 3.759042e+001
2.141693e+002, 3.808018e+001
2.146514e+002, 3.900833e+001
2.151335e+002, 4.022972e+001
2.156157e+002, 4.099289e+001
2.160978e+002, 4.113853e+001
2.165799e+002, 4.112903e+001
2.170620e+002, 4.124043e+001
2.175441e+002, 4.146493e+001
2.180262e+002, 4.186566e+001
2.185084e+002, 4.258858e+001
2.189905e+002, 4.350657e+001
2.194726e+002, 4.398841e+001
2.199547e+002, 4.406976e+001
2.204368e+002, 4.367507e+001
2.209189e+002, 4.265713e+001
2.214011e+002, 4.066829e+001
2.218832e+002, 3.894912e+001
2.223653e+002, 3.759546e+001
2.228474e+002, 3.658502e+001
2.233295e+002, 3.575730e+001
2.238116e+002, 3.511484e+001
2.242938e+002, 3.467706e+001
2.247759e+002, 3.449693e+001
2.252580e+002, 3.471392e+001
2.257401e+002, 3.485018e+001
2.262222e+002, 3.484216e+001
2.267043e+002, 3.472769e+001
2.271865e+002, 3.466482e+001
2.276686e+002, 3.466776e+001
2.281507e+002, 3.470216e+001
2.286328e+002, 3.474643e+001
2.291149e+002, 3.478636e+001
2.295970e+002, 3.486952e+001
2.300792e+002, 3.500478e+001
2.305613e+002, 3.518579e+001
2.310434e+002, 3.538904e+001
2.315255e+002, 3.563797e+001
2.320076e+002, 3.587238e+001
2.324897e+002, 3.606177e+001
2.329719e+002, 3.621530e+001
2.334540e+002, 3.629531e+001
2.339361e+002, 3.623904e+001
2.344182e+002, 3.611332e+001
2.349003e+002, 3.616591e+001
2.353824e+002, 3.650978e+001
2.358646e+002, 3.687041e+001
2.363467e+002, 3.711193e+001
2.368288e+002, 3.718912e+001
2.373109e+002, 3.723914e+001
2.377930e+002, 3.722411e+001
2.382751e+002, 3.718985e+001
2.387573e+002, 3.728463e+001
2.392394e+002, 3.757496e+001
2.397215e+002, 3.789732e+001
2.402036e+002, 3.817789e+001
2.406857e+002, 3.838263e+001
2.411678e+002, 3.862106e+001
2.416500e+002, 3.889941e+001
2.421321e+002, 3.920791e+001
2.426142e+002, 3.953926e+001
2.430963e+002, 3.994907e+001
2.435784e+002, 4.029589e+001
2.440605e+002, 4.049932e+001
2.445427e+002, 4.047282e+001
2.450248e+002, 4.053324e+001
2.455069e+002, 4.071965e+001
2.459890e+002, 4.097867e+001
2.464711e+002, 4.120796e+001
2.469532e+002, 4.147886e+001
2.474354e+002, 4.160637e+001
2.479175e+002, 4.148603e+001
2.483996e+002, 4.100886e+001
2.488817e+002, 4.063909e+001
2.493638e+002, 4.040106e+001
2.498459e+002, 4.025726e+001
2.503281e+002, 4.015166e+001
2.508102e+002, 4.013367e+001
2.512923e+002, 4.006880e+001
2.517744e+002, 3.990908e+001
2.522565e+002, 3.964489e+001
2.527386e+002, 3.933537e+001
2.532208e+002, 3.898151e+001
2.537029e+002, 3.858182e+001
2.541850e+002, 3.810764e+001
2.546671e+002, 3.748107e+001
2.551492e+002, 3.692983e+001
2.556313e+002, 3.654039e+001
2.561135e+002, 3.633768e+001
2.565956e+002, 3.613140e+001
2.570777e+002, 3.591529e+001
2.575598e+002, 3.570276e+001
2.580419e+002, 3.551889e+001
2.585240e+002, 3.538805e+001
2.590062e+002, 3.523188e+001
2.594883e+002, 3.501219e+001
2.599704e+002, 3.472489e+001
2.604525e+002, 3.448429e+001
2.609346e+002, 3.427010e+001
2.614167e+002, 3.413097e+001
2.618989e+002, 3.415231e+001
2.623810e+002, 3.441303e+001
2.628631e+002, 3.462606e+001
2.633452e+002, 3.472898e+001
2.638273e+002, 3.472303e+001
2.643094e+002, 3.462996e+001
2.647916e+002, 3.439607e+001
2.652737e+002, 3.416013e+001
2.657558e+002, 3.407626e+001
2.662379e+002, 3.420768e+001
2.667200e+002, 3.428452e+001
2.672021e+002, 3.424066e+001
2.676843e+002, 3.408962e+001
2.681664e+002, 3.395369e+001
2.686485e+002, 3.381707e+001
2.691306e+002, 3.372775e+001
2.696127e+002, 3.373713e+001
2.700948e+002, 3.386230e+001
2.705770e+002, 3.401313e+001
2.710591e+002, 3.419972e+001
2.715412e+002, 3.439738e+001
2.720233e+002, 3.448413e+001
2.725054e+002, 3.443817e+001
2.729875e+002, 3.433432e+001
2.734697e+002, 3.419689e+001
2.739518e+002, 3.400476e+001
2.744339e+002, 3.391098e+001
2.749160e+002, 3.393802e+001
2.753981e+002, 3.407168e+001
2.758802e+002, 3.431639e+001
2.763624e+002, 3.471302e+001
2.768445e+002, 3.504583e+001
2.773266e+002, 3.514382e+001
2.778087e+002, 3.498878e+001
2.782908e+002, 3.487018e+001
2.787729e+002, 3.480983e+001
2.792551e+002, 3.480032e+001
2.797372e+002, 3.483444e+001
2.802193e+002, 3.491717e+001
2.807014e+002, 3.501390e+001
2.811835e+002, 3.509592e+001
2.816656e+002, 3.516424e+001
2.821478e+002, 3.529284e+001
2.826299e+002, 3.549923e+001
2.831120e+002, 3.573750e+001
2.835941e+002, 3.594963e+001
2.840762e+002, 3.613807e+001
2.845583e+002, 3.625904e+001
2.850405e+002, 3.622778e+001
2.855226e+002, 3.607477e+001
2.860047e+002, 3.610347e+001
2.864868e+002, 3.634273e+001
2.869689e+002, 3.667310e+001
2.874510e+002, 3.695120e+001
2.879332e+002, 3.717808e+001
2.884153e+002, 3.737580e+001
2.888974e+002, 3.749274e+001
2.893795e+002, 3.758139e+001
2.898616e+002, 3.789112e+001
2.903438e+002, 3.845202e+001
2.908259e+002, 3.902461e+001
2.913080e+002, 3.931590e+001
2.917901e+002, 3.936541e+001
2.922722e+002, 3.942639e+001
2.927543e+002, 3.957999e+001
2.932365e+002, 3.979750e+001
2.937186e+002, 4.002258e+001
2.942007e+002, 4.025358e+001
2.946828e+002, 4.047520e+001
2.951649e+002, 4.068975e+001
2.956470e+002, 4.088512e+001
2.961292e+002, 4.102948e+001
2.966113e+002, 4.111503e+001
2.970934e+002, 4.114262e+001
2.975755e+002, 4.107866e+001
2.980576e+002, 4.093307e+001
2.985397e+002, 4.081308e+001
2.990219e+002, 4.082832e+001
2.995040e+002, 4.092389e+001
2.999861e+002, 4.099006e+001
3.004682e+002, 4.102019e+001
3.009503e+002, 4.098605e+001
3.014324e+002, 4.083405e+001
3.019146e+002, 4.058139e+001
3.023967e+002, 4.029240e+001
3.028788e+002, 3.997107e+001
3.033609e+002, 3.965075e+001
3.038430e+002, 3.939597e+001
3.043251e+002, 3.922962e+001
3.048073e+002, 3.907509e+001
3.052894e+002, 3.886750e+001
3.057715e+002, 3.861632e+001
3.062536e+002, 3.833884e+001
3.067357e+002, 3.794152e+001
3.072178e+002, 3.757657e+001
3.077000e+002, 3.745628e+001
3.081821e+002, 3.762169e+001
3.086642e+002, 3.777861e+001
3.091463e+002, 3.766628e+001
3.096284e+002, 3.741017e+001
3.101105e+002, 3.720419e+001
3.105927e+002, 3.719722e+001
3.110748e+002, 3.722364e+001
3.115569e+002, 3.716792e+001
3.120390e+002, 3.702687e+001
3.125211e+002, 3.685819e+001
3.130032e+002, 3.664718e+001
3.134854e+002, 3.644209e+001
3.139675e+002, 3.629717e+001
3.144496e+002, 3.629758e+001
3.149317e+002, 3.630264e+001
3.154138e+002, 3.623056e+001
3.158959e+002, 3.609607e+001
3.163781e+002, 3.598592e+001
3.168602e+002, 3.592085e+001
3.173423e+002, 3.590569e+001
3.178244e+002, 3.595719e+001
3.183065e+002, 3.620515e+001
3.187886e+002, 3.634008e+001
3.192708e+002, 3.617245e+001
3.197529e+002, 3.580082e+001
3.202350e+002, 3.550156e+001
3.207171e+002, 3.531679e+001
3.211992e+002, 3.525693e+001
3.216813e+002, 3.535680e+001
3.221635e+002, 3.572538e+001
3.226456e+002, 3.601181e+001
3.231277e+002, 3.613194e+001
3.236098e+002, 3.613069e+001
3.240919e+002, 3.608322e+001
3.245740e+002, 3.592276e+001
3.250562e+002, 3.578952e+001
3.255383e+002, 3.573029e+001
3.260204e+002, 3.576093e+001
3.265025e+002, 3.580983e+001
3.269846e+002, 3.588211e+001
3.274667e+002, 3.596703e+001
3.279489e+002, 3.605483e+001
3.284310e+002, 3.622417e+001
3.289131e+002, 3.630867e+001
3.293952e+002, 3.624617e+001
3.298773e+002, 3.603183e+001
3.303594e+002, 3.588684e+001
3.308416e+002, 3.580236e+001
3.313237e+002, 3.579601e+001
3.318058e+002, 3.589332e+001
3.322879e+002, 3.621086e+001
3.327700e+002, 3.643149e+001
3.332521e+002, 3.650075e+001
3.337343e+002, 3.644954e+001
3.342164e+002, 3.642606e+001
3.346985e+002, 3.643675e+001
3.351806e+002, 3.646458e+001
3.356627e+002, 3.651290e+001
3.361448e+002, 3.661217e+001
3.366270e+002, 3.661544e+001
3.371091e+002, 3.644061e+001
3.375912e+002, 3.622710e+001
3.380733e+002, 3.631546e+001
3.385554e+002, 3.682279e+001
3.390375e+002, 3.724893e+001
3.395197e+002, 3.734457e+001
3.400018e+002, 3.708416e+001
3.404839e+002, 3.696807e+001
3.409660e+002, 3.702670e+001
3.414481e+002, 3.716766e+001
3.419302e+002, 3.728971e+001
3.424124e+002, 3.739536e+001
3.428945e+002, 3.745184e+001
3.433766e+002, 3.740652e+001
3.438587e+002, 3.730568e+001
3.443408e+002, 3.742369e+001
3.448229e+002, 3.779834e+001
3.453051e+002, 3.812730e+001
3.457872e+002, 3.801245e+001
3.462693e+002, 3.754293e+001
3.467514e+002, 3.733984e+001
3.472335e+002, 3.761244e+001
3.477156e+002, 3.811266e+001
3.481978e+002, 3.837411e+001
3.486799e+002, 3.840862e+001
3.491620e+002, 3.835974e+001
3.496441e+002, 3.825166e+001
3.501262e+002, 3.813618e+001
3.506083e+002, 3.814729e+001
3.510905e+002, 3.831683e+001
3.515726e+002, 3.855733e+001
3.520547e+002, 3.879276e+001
3.525368e+002, 3.902004e+001
3.530189e+002, 3.923002e+001
3.535010e+002, 3.939244e+001
3.539832e+002, 3.954680e+001
3.544653e+002, 3.977431e+001
3.549474e+002, 4.008515e+001
3.554295e+002, 4.032822e+001
3.559116e+002, 4.033086e+001
3.563937e+002, 4.020072e+001
3.568759e+002, 4.009784e+001
3.573580e+002, 3.991411e+001
3.578401e+002, 3.991409e+001
3.583222e+002, 4.047196e+001
3.588043e+002, 4.147947e+001
3.592864e+002, 4.225843e+001
3.597686e+002, 4.227148e+001
3.602507e+002, 4.199515e+001
3.607328e+002, 4.183210e+001
3.612149e+002, 4.190664e+001
3.616970e+002, 4.204493e+001
3.621791e+002, 4.218247e+001
3.626613e+002, 4.233253e+001
3.631434e+002, 4.252601e+001
3.636255e+002, 4.275797e+001
3.641076e+002, 4.304652e+001
3.645897e+002, 4.343593e+001
3.650718e+002, 4.398461e+001
3.655540e+002, 4.441729e+001
3.660361e+002, 4.456357e+001
3.665182e+002, 4.460878e+001
3.670003e+002, 4.477530e+001
3.674824e+002, 4.531356e+001
3.679645e+002, 4.574414e+001
3.684467e+002, 4.590575e+001
3.689288e+002, 4.577881e+001
3.694109e+002, 4.577657e+001
3.698930e+002, 4.590815e+001
3.703751e+002, 4.615868e+001
3.708572e+002, 4.653584e+001
3.713394e+002, 4.718802e+001
3.718215e+002, 4.770559e+001
3.723036e+002, 4.799725e+001
3.727857e+002, 4.813493e+001
3.732678e+002, 4.838023e+001
3.737499e+002, 4.876809e+001
3.742321e+002, 4.920456e+001
3.747142e+002, 4.965141e+001
3.751963e+002, 5.011998e+001
3.756784e+002, 5.056306e+001
3.761605e+002, 5.098168e+001
3.766426e+002, 5.136879e+001
3.771248e+002, 5.168208e+001
3.776069e+002, 5.190760e+001
3.780890e+002, 5.216546e+001
3.785711e+002, 5.252061e+001
3.790532e+002, 5.295068e+001
3.795353e+002, 5.326397e+001
3.800175e+002, 5.345419e+001
3.804996e+002, 5.357393e+001
3.809817e+002, 5.363941e+001
3.814638e+002, 5.366179e+001
3.819459e+002, 5.373971e+001
3.824280e+002, 5.389812e+001
3.829102e+002, 5.411457e+001
3.833923e+002, 5.434885e+001
3.838744e+002, 5.460228e+001
3.843565e+002, 5.487205e+001
3.848386e+002, 5.519711e+001
3.853207e+002, 5.553008e+001
3.858029e+002, 5.573793e+001
3.862850e+002, 5.578864e+001
3.867671e+002, 5.582686e+001
3.872492e+002, 5.605891e+001
3.877313e+002, 5.639574e+001
3.882134e+002, 5.662962e+001
3.886956e+002, 5.658837e+001
3.891777e+002, 5.645173e+001
3.896598e+002, 5.638049e+001
3.901419e+002, 5.637410e+001
3.906240e+002, 5.636215e+001
3.911061e+002, 5.631001e+001
3.915883e+002, 5.622733e+001
3.920704e+002, 5.612196e+001
3.925525e+002, 5.597626e+001
3.930346e+002, 5.583742e+001
3.935167e+002, 5.575123e+001
3.939988e+002, 5.569080e+001
3.944810e+002, 5.557930e+001
3.949631e+002, 5.532256e+001
3.954452e+002, 5.506050e+001
3.959273e+002, 5.487882e+001
3.964094e+002, 5.483120e+001
3.968915e+002, 5.472245e+001
3.973737e+002, 5.443389e+001
3.978558e+002, 5.409162e+001
3.983379e+002, 5.385107e+001
3.988200e+002, 5.387894e+001
3.993021e+002, 5.384744e+001
3.997842e+002, 5.370282e+001
4.002664e+002, 5.344479e+001
4.007485e+002, 5.308723e+001
4.012306e+002, 5.252163e+001
4.017127e+002, 5.196544e+001
4.021948e+002, 5.156303e+001
4.026769e+002, 5.138337e+001
4.031591e+002, 5.121035e+001
4.036412e+002, 5.104060e+001
4.041233e+002, 5.086687e+001
4.046054e+002, 5.066870e+001
4.050875e+002, 5.045118e+001
4.055696e+002, 5.020085e+001
4.060518e+002, 4.991103e+001
4.065339e+002, 4.958177e+001
4.070160e+002, 4.922004e+001
4.074981e+002, 4.881984e+001
4.079802e+002, 4.841687e+001
4.084623e+002, 4.805733e+001
4.089445e+002, 4.773963e+001
4.094266e+002, 4.742607e+001
4.099087e+002, 4.709917e+001
4.103908e+002, 4.677804e+001
4.108729e+002, 4.654152e+001
4.113550e+002, 4.638493e+001
4.118372e+002, 4.618775e+001
4.123193e+002, 4.578269e+001
4.128014e+002, 4.527684e+001
4.132835e+002, 4.493424e+001
4.137656e+002, 4.480946e+001
4.142477e+002, 4.475809e+001
4.147299e+002, 4.463579e+001
4.152120e+002, 4.446608e+001
4.156941e+002, 4.430969e+001
4.161762e+002, 4.427252e+001
4.166583e+002, 4.420708e+001
4.171404e+002, 4.397195e+001
4.176226e+002, 4.356507e+001
4.181047e+002, 4.308864e+001
4.185868e+002, 4.241505e+001
4.190689e+002, 4.178428e+001
4.195510e+002, 4.143041e+001
4.200331e+002, 4.163456e+001
4.205153e+002, 4.183589e+001
4.209974e+002, 4.183451e+001
4.214795e+002, 4.167165e+001
4.219616e+002, 4.144950e+001
4.224437e+002, 4.106767e+001
4.229258e+002, 4.073880e+001
4.234080e+002, 4.058226e+001
4.238901e+002, 4.067590e+001
4.243722e+002, 4.068227e+001
4.248543e+002, 4.041251e+001
4.253364e+002, 4.012397e+001
4.258185e+002, 4.008530e+001
4.263007e+002, 4.064106e+001
4.267828e+002, 4.093924e+001
4.272649e+002, 4.077791e+001
4.277470e+002, 4.023342e+001
4.282291e+002, 3.977800e+001
4.287112e+002, 3.938500e+001
4.291934e+002, 3.913343e+001
4.296755e+002, 3.913440e+001
4.301576e+002, 3.949004e+001
4.306397e+002, 3.952893e+001
4.311218e+002, 3.912475e+001
4.316039e+002, 3.857476e+001
4.320861e+002, 3.838696e+001
4.325682e+002, 3.858916e+001
4.330503e+002, 3.874494e+001
4.335324e+002, 3.869947e+001
4.340145e+002, 3.849370e+001
4.344966e+002, 3.822518e+001
4.349788e+002, 3.789011e+001
4.354609e+002, 3.761948e+001
4.359430e+002, 3.755837e+001
4.364251e+002, 3.764889e+001
4.369072e+002, 3.773191e+001
4.373893e+002, 3.778185e+001
4.378715e+002, 3.780999e+001
4.383536e+002, 3.785768e+001
4.388357e+002, 3.789824e+001
4.393178e+002, 3.785720e+001
4.397999e+002, 3.761839e+001
4.402820e+002, 3.732795e+001
4.407642e+002, 3.712327e+001
4.412463e+002, 3.700996e+001
4.417284e+002, 3.691349e+001
4.422105e+002, 3.678324e+001
4.426926e+002, 3.665210e+001
4.431747e+002, 3.655270e+001
4.436569e+002, 3.652872e+001
4.441390e+002, 3.649450e+001
4.446211e+002, 3.641925e+001
4.451032e+002, 3.631289e+001
4.455853e+002, 3.620673e+001
4.460674e+002, 3.604147e+001
4.465496e+002, 3.593449e+001
4.470317e+002, 3.595925e+001
4.475138e+002, 3.619448e+001
4.479959e+002, 3.630483e+001
4.484780e+002, 3.620612e+001
4.489601e+002, 3.604356e+001
4.494423e+002, 3.595389e+001
4.499244e+002, 3.595053e+001
4.504065e+002, 3.599947e+001
4.508886e+002, 3.611937e+001
4.513707e+002, 3.628607e+001
4.518528e+002, 3.639442e+001
4.523350e+002, 3.642736e+001
4.528171e+002, 3.645362e+001
4.532992e+002, 3.653438e+001
4.537813e+002, 3.667108e+001
4.542634e+002, 3.667038e+001
4.547455e+002, 3.648246e+001
4.552277e+002, 3.630196e+001
4.557098e+002, 3.639086e+001
4.561919e+002, 3.672231e+001
4.566740e+002, 3.713777e+001
4.571561e+002, 3.765703e+001
4.576382e+002, 3.815999e+001
4.581204e+002, 3.837774e+001
4.586025e+002, 3.834415e+001
4.590846e+002, 3.828894e+001
4.595667e+002, 3.831340e+001
4.600488e+002, 3.843141e+001
4.605309e+002, 3.869583e+001
4.610131e+002, 3.914838e+001
4.614952e+002, 3.958048e+001
4.619773e+002, 3.984017e+001
4.624594e+002, 3.998297e+001
4.629415e+002, 4.009283e+001
4.634236e+002, 3.998760e+001
4.639058e+002, 4.005278e+001
4.643879e+002, 4.059695e+001
4.648700e+002, 4.155110e+001
4.653521e+002, 4.231487e+001
4.658342e+002, 4.254131e+001
4.663163e+002, 4.269015e+001
4.667985e+002, 4.302305e+001
4.672806e+002, 4.369417e+001
4.677627e+002, 4.430235e+001
4.682448e+002, 4.480599e+001
4.687269e+002, 4.525222e+001
4.692090e+002, 4.572222e+001
4.696912e+002, 4.628673e+001
4.701733e+002, 4.675291e+001
4.706554e+002, 4.706439e+001
4.711375e+002, 4.723323e+001
4.716196e+002, 4.739375e+001
4.721017e+002, 4.758026e+001
4.725839e+002, 4.766185e+001
4.730660e+002, 4.756534e+001
4.735481e+002, 4.729047e+001
4.740302e+002, 4.681264e+001
4.745123e+002, 4.611240e+001
4.749944e+002, 4.525881e+001
4.754766e+002, 4.429147e+001
4.759587e+002, 4.323398e+001
4.764408e+002, 4.222666e+001
4.769229e+002, 4.128566e+001
4.774050e+002, 4.046388e+001
4.778871e+002, 3.991312e+001
4.783693e+002, 3.960998e+001
4.788514e+002, 3.934019e+001
4.793335e+002, 3.891536e+001
4.798156e+002, 3.845323e+001
4.802977e+002, 3.809832e+001
4.807798e+002, 3.788677e+001
4.812620e+002, 3.774768e+001
4.817441e+002, 3.767337e+001
4.822262e+002, 3.763801e+001
4.827083e+002, 3.760356e+001
4.831904e+002, 3.751752e+001
4.836725e+002, 3.746778e+001
4.841547e+002, 3.755664e+001
4.846368e+002, 3.776191e+001
4.851189e+002, 3.779064e+001
4.856010e+002, 3.744673e+001
4.860831e+002, 3.703499e+001
4.865652e+002, 3.670731e+001
4.870474e+002, 3.647960e+001
4.875295e+002, 3.629763e+001
4.880116e+002, 3.616668e+001
4.884937e+002, 3.607951e+001
4.889758e+002, 3.602122e+001
4.894579e+002, 3.598192e+001
4.899401e+002, 3.600904e+001
4.904222e+002, 3.614439e+001
4.909043e+002, 3.635100e+001
4.913864e+002, 3.646459e+001
4.918685e+002, 3.648129e+001
4.923506e+002, 3.643125e+001
4.928328e+002, 3.629519e+001
4.933149e+002, 3.610074e+001
4.937970e+002, 3.597053e+001
4.942791e+002, 3.591525e+001
4.947612e+002, 3.591766e+001
4.952433e+002, 3.602718e+001
4.957255e+002, 3.618197e+001
4.962076e+002, 3.621865e+001
4.966897e+002, 3.597205e+001
4.971718e+002, 3.568620e+001
4.976539e+002, 3.561751e+001
4.981360e+002, 3.571997e+001
4.986182e+002, 3.581433e+001
4.991003e+002, 3.578414e+001
4.995824e+002, 3.572788e+001
5.000645e+002, 3.571737e+001
5.005466e+002, 3.577132e+001
5.010287e+002, 3.582176e+001
5.015109e+002, 3.587720e+001
5.019930e+002, 3.590667e+001
5.024751e+002, 3.587825e+001
5.029572e+002, 3.572175e+001
5.034393e+002, 3.558394e+001
5.039214e+002, 3.545079e+001
5.044036e+002, 3.534622e+001
5.048857e+002, 3.536192e+001
5.053678e+002, 3.556787e+001
5.058499e+002, 3.577519e+001
5.063320e+002, 3.592054e+001
5.068141e+002, 3.600529e+001
5.072963e+002, 3.599761e+001
5.077784e+002, 3.587652e+001
5.082605e+002, 3.571822e+001
5.087426e+002, 3.557563e+001
5.092247e+002, 3.545207e+001
5.097068e+002, 3.540779e+001
5.101890e+002, 3.547228e+001
5.106711e+002, 3.558579e+001
5.111532e+002, 3.562774e+001
5.116353e+002, 3.562019e+001
5.121174e+002, 3.566774e+001
5.125995e+002, 3.591941e+001
5.130817e+002, 3.620527e+001
5.135638e+002, 3.630321e+001
5.140459e+002, 3.621497e+001
5.145280e+002, 3.609034e+001
5.150101e+002, 3.600294e+001
5.154922e+002, 3.593451e+001
5.159744e+002, 3.586505e+001
5.164565e+002, 3.576860e+001
5.169386e+002, 3.571349e+001
5.174207e+002, 3.572875e+001
5.179028e+002, 3.579851e+001
5.183849e+002, 3.589651e+001
5.188671e+002, 3.603688e+001
5.193492e+002, 3.618864e+001
5.198313e+002, 3.643544e+001
5.203134e+002, 3.674897e+001
5.207955e+002, 3.667782e+001
5.212776e+002, 3.589227e+001
5.217598e+002, 3.520732e+001
5.222419e+002, 3.516037e+001
5.227240e+002, 3.591502e+001
5.232061e+002, 3.641792e+001
5.236882e+002, 3.661205e+001
5.241703e+002, 3.664557e+001
5.246525e+002, 3.670620e+001
5.251346e+002, 3.679016e+001
5.256167e+002, 3.682117e+001
5.260988e+002, 3.674899e+001
5.265809e+002, 3.664746e+001
5.270630e+002, 3.669386e+001
5.275452e+002, 3.685589e+001
5.280273e+002, 3.694867e+001
5.285094e+002, 3.676283e+001
5.289915e+002, 3.650143e+001
5.294736e+002, 3.638476e+001
5.299557e+002, 3.643038e+001
5.304379e+002, 3.657288e+001
5.309200e+002, 3.693139e+001
5.314021e+002, 3.729179e+001
5.318842e+002, 3.743621e+001
5.323663e+002, 3.714891e+001
5.328484e+002, 3.687523e+001
5.333306e+002, 3.669869e+001
5.338127e+002, 3.661173e+001
5.342948e+002, 3.660592e+001
5.347769e+002, 3.679693e+001
5.352590e+002, 3.693232e+001
5.357411e+002, 3.692955e+001
5.362233e+002, 3.679488e+001
5.367054e+002, 3.673339e+001
5.371875e+002, 3.676001e+001
5.376696e+002, 3.683339e+001
5.381517e+002, 3.694475e+001
5.386339e+002, 3.709945e+001
5.391160e+002, 3.721675e+001
5.395981e+002, 3.729539e+001
5.400802e+002, 3.732642e+001
5.405623e+002, 3.724710e+001
5.410444e+002, 3.708891e+001
5.415266e+002, 3.703294e+001
5.420087e+002, 3.716898e+001
5.424908e+002, 3.739591e+001
5.429729e+002, 3.752243e+001
5.434550e+002, 3.759587e+001
5.439371e+002, 3.780906e+001
5.444193e+002, 3.838700e+001
5.449014e+002, 3.907626e+001
5.453835e+002, 3.978201e+001
5.458656e+002, 4.051374e+001
5.463477e+002, 4.084555e+001
5.468298e+002, 4.027245e+001
5.473120e+002, 3.941155e+001
5.477941e+002, 3.877526e+001
5.482762e+002, 3.859200e+001
5.487583e+002, 3.842917e+001
5.492404e+002, 3.821793e+001
5.497225e+002, 3.801760e+001
5.502047e+002, 3.793600e+001
5.506868e+002, 3.802262e+001
5.511689e+002, 3.813770e+001
5.516510e+002, 3.827175e+001
5.521331e+002, 3.840989e+001
5.526152e+002, 3.842287e+001
5.530974e+002, 3.828389e+001
5.535795e+002, 3.815545e+001
5.540616e+002, 3.817706e+001
5.545437e+002, 3.831519e+001
5.550258e+002, 3.835761e+001
5.555079e+002, 3.828236e+001
5.559901e+002, 3.819284e+001
5.564722e+002, 3.827839e+001
5.569543e+002, 3.842217e+001
5.574364e+002, 3.835168e+001
5.579185e+002, 3.783714e+001
5.584006e+002, 3.733047e+001
5.588828e+002, 3.721893e+001
5.593649e+002, 3.738746e+001
5.598470e+002, 3.756655e+001
5.603291e+002, 3.771127e+001
5.608112e+002, 3.778393e+001
5.612933e+002, 3.775907e+001
5.617755e+002, 3.763489e+001
5.622576e+002, 3.746678e+001
5.627397e+002, 3.718113e+001
5.632218e+002, 3.692062e+001
5.637039e+002, 3.675904e+001
5.641860e+002, 3.673928e+001
5.646682e+002, 3.671599e+001
5.651503e+002, 3.671667e+001
5.656324e+002, 3.668029e+001
5.661145e+002, 3.647606e+001
5.665966e+002, 3.606789e+001
5.670787e+002, 3.583944e+001
5.675609e+002, 3.592083e+001
5.680430e+002, 3.616899e+001
5.685251e+002, 3.630221e+001
5.690072e+002, 3.632662e+001
5.694893e+002, 3.627931e+001
5.699714e+002, 3.611809e+001
5.704536e+002, 3.592605e+001
5.709357e+002, 3.584197e+001
5.714178e+002, 3.586087e+001
5.718999e+002, 3.586364e+001
5.723820e+002, 3.576880e+001
5.728641e+002, 3.562548e+001
5.733463e+002, 3.546453e+001
5.738284e+002, 3.525824e+001
5.743105e+002, 3.512101e+001
5.747926e+002, 3.509061e+001
5.752747e+002, 3.514613e+001
5.757568e+002, 3.525938e+001
5.762390e+002, 3.527781e+001
5.767211e+002, 3.558045e+001
5.772032e+002, 3.647953e+001
5.776853e+002, 3.767304e+001
5.781674e+002, 3.801148e+001
5.786495e+002, 3.721896e+001
5.791317e+002, 3.637798e+001
5.796138e+002, 3.593637e+001
5.800959e+002, 3.584670e+001
5.805780e+002, 3.571373e+001
5.810601e+002, 3.553033e+001
5.815422e+002, 3.537187e+001
5.820244e+002, 3.531909e+001
5.825065e+002, 3.533823e+001
5.829886e+002, 3.534249e+001
5.834707e+002, 3.531579e+001
5.839528e+002, 3.529880e+001
5.844349e+002, 3.532431e+001
5.849171e+002, 3.538395e+001
5.853992e+002, 3.546613e+001
5.858813e+002, 3.562395e+001
5.863634e+002, 3.574133e+001
5.868455e+002, 3.575368e+001
5.873276e+002, 3.568697e+001
5.878098e+002, 3.561092e+001
5.882919e+002, 3.551554e+001
5.887740e+002, 3.543561e+001
5.892561e+002, 3.537761e+001
5.897382e+002, 3.534126e+001
5.902203e+002, 3.533898e+001
5.907025e+002, 3.538834e+001
5.911846e+002, 3.543995e+001
5.916667e+002, 3.546058e+001
5.921488e+002, 3.544823e+001
5.926309e+002, 3.542157e+001
5.931130e+002, 3.536754e+001
5.935952e+002, 3.535033e+001
5.940773e+002, 3.549329e+001
5.945594e+002, 3.575065e+001
5.950415e+002, 3.594548e+001
5.955236e+002, 3.604148e+001
5.960057e+002, 3.604553e+001
5.964879e+002, 3.588404e+001
5.969700e+002, 3.563453e+001
5.974521e+002, 3.548054e+001
5.979342e+002, 3.561147e+001
5.984163e+002, 3.576900e+001
5.988984e+002, 3.578669e+001
5.993806e+002, 3.568056e+001
5.998627e+002, 3.563306e+001
6.003448e+002, 3.574190e+001
6.008269e+002, 3.587059e+001
6.013090e+002, 3.595129e+001
6.017911e+002, 3.596392e+001
6.022733e+002, 3.600924e+001
6.027554e+002, 3.610460e+001
6.032375e+002, 3.620788e+001
6.037196e+002, 3.627316e+001
6.042017e+002, 3.629576e+001
6.046838e+002, 3.633885e+001
6.051660e+002, 3.641717e+001
6.056481e+002, 3.650310e+001
6.061302e+002, 3.656182e+001
6.066123e+002, 3.659140e+001
6.070944e+002, 3.657359e+001
6.075765e+002, 3.641350e+001
6.080587e+002, 3.629124e+001
6.085408e+002, 3.650672e+001
6.090229e+002, 3.696082e+001
6.095050e+002, 3.730671e+001
6.099871e+002, 3.725581e+001
6.104692e+002, 3.712521e+001
6.109514e+002, 3.712478e+001
6.114335e+002, 3.727889e+001
6.119156e+002, 3.735314e+001
6.123977e+002, 3.723688e+001
6.128798e+002, 3.707368e+001
6.133619e+002, 3.693542e+001
6.138441e+002, 3.676687e+001
6.143262e+002, 3.676816e+001
6.148083e+002, 3.699476e+001
6.152904e+002, 3.731528e+001
6.157725e+002, 3.759730e+001
6.162546e+002, 3.784660e+001
6.167368e+002, 3.793922e+001
6.172189e+002, 3.779898e+001
6.177010e+002, 3.758415e+001
6.181831e+002, 3.759608e+001
6.186652e+002, 3.779010e+001
6.191473e+002, 3.798956e+001
6.196295e+002, 3.811577e+001
6.201116e+002, 3.819955e+001
6.205937e+002, 3.828269e+001
6.210758e+002, 3.835564e+001
6.215579e+002, 3.837172e+001
6.220400e+002, 3.822451e+001
6.225222e+002, 3.807885e+001
6.230043e+002, 3.804844e+001
6.234864e+002, 3.817335e+001
6.239685e+002, 3.823983e+001
6.244506e+002, 3.821962e+001
6.249327e+002, 3.814092e+001
6.254149e+002, 3.798558e+001
6.258970e+002, 3.764313e+001
6.263791e+002, 3.759720e+001
6.268612e+002, 3.796518e+001
6.273433e+002, 3.846194e+001
6.278254e+002, 3.865334e+001
6.283076e+002, 3.855591e+001
6.287897e+002, 3.854610e+001
6.292718e+002, 3.877613e+001
6.297539e+002, 3.904318e+001
6.302360e+002, 3.893396e+001
6.307181e+002, 3.857145e+001
6.312003e+002, 3.834656e+001
6.316824e+002, 3.859245e+001
6.321645e+002, 3.894530e+001
6.326466e+002, 3.913082e+001
6.331287e+002, 3.916656e+001
6.336108e+002, 3.919375e+001
6.340930e+002, 3.922393e+001
6.345751e+002, 3.929028e+001
6.350572e+002, 3.943460e+001
6.355393e+002, 3.969357e+001
6.360214e+002, 3.983554e+001
6.365035e+002, 3.977245e+001
6.369857e+002, 3.969972e+001
6.374678e+002, 3.979347e+001
6.379499e+002, 4.009187e+001
6.384320e+002, 4.025962e+001
6.389141e+002, 4.024530e+001
6.393962e+002, 4.018079e+001
6.398784e+002, 4.025462e+001
6.403605e+002, 4.043505e+001
6.408426e+002, 4.058899e+001
6.413247e+002, 4.067871e+001
6.418068e+002, 4.072711e+001
6.422889e+002, 4.071369e+001
6.427711e+002, 4.067941e+001
6.432532e+002, 4.071690e+001
6.437353e+002, 4.097686e+001
6.442174e+002, 4.121323e+001
6.446995e+002, 4.127541e+001
6.451816e+002, 4.119094e+001
6.456638e+002, 4.116534e+001
6.461459e+002, 4.122199e+001
6.466280e+002, 4.135426e+001
6.471101e+002, 4.160754e+001
6.475922e+002, 4.199641e+001
6.480743e+002, 4.218262e+001
6.485565e+002, 4.210513e+001
6.490386e+002, 4.197725e+001
6.495207e+002, 4.195079e+001
6.500028e+002, 4.201850e+001
6.504849e+002, 4.215067e+001
6.509670e+002, 4.235695e+001
6.514492e+002, 4.253761e+001
6.519313e+002, 4.253076e+001
6.524134e+002, 4.243045e+001
6.528955e+002, 4.242765e+001
6.533776e+002, 4.262500e+001
6.538597e+002, 4.280526e+001
6.543419e+002, 4.277195e+001
6.548240e+002, 4.264856e+001
6.553061e+002, 4.262479e+001
6.557882e+002, 4.283780e+001
6.562703e+002, 4.305829e+001
6.567524e+002, 4.327103e+001
6.572346e+002, 4.345602e+001
6.577167e+002, 4.353956e+001
6.581988e+002, 4.347628e+001
6.586809e+002, 4.341428e+001
6.591630e+002, 4.339570e+001
6.596451e+002, 4.341926e+001
6.601273e+002, 4.346920e+001
6.606094e+002, 4.354442e+001
6.610915e+002, 4.368069e+001
6.615736e+002, 4.396491e+001
6.620557e+002, 4.430980e+001
6.625378e+002, 4.451062e+001
6.630200e+002, 4.455787e+001
6.635021e+002, 4.464328e+001
6.639842e+002, 4.503267e+001
6.644663e+002, 4.545060e+001
6.649484e+002, 4.560345e+001
6.654305e+002, 4.532862e+001
6.659127e+002, 4.512656e+001
6.663948e+002, 4.516423e+001
6.668769e+002, 4.530891e+001
6.673590e+002, 4.542686e+001
6.678411e+002, 4.551894e+001
6.683232e+002, 4.557749e+001
6.688054e+002, 4.558766e+001
6.692875e+002, 4.557953e+001
6.697696e+002, 4.558591e+001
6.702517e+002, 4.560543e+001
6.707338e+002, 4.571910e+001
6.712159e+002, 4.598890e+001
6.716981e+002, 4.631238e+001
6.721802e+002, 4.652906e+001
6.726623e+002, 4.664640e+001
6.731444e+002, 4.669925e+001
6.736265e+002, 4.673227e+001
6.741086e+002, 4.668484e+001
6.745908e+002, 4.638060e+001
6.750729e+002, 4.589460e+001
6.755550e+002, 4.568675e+001
6.760371e+002, 4.626970e+001
6.765192e+002, 4.682830e+001
6.770013e+002, 4.693744e+001
6.774835e+002, 4.653175e+001
6.779656e+002, 4.640346e+001
6.784477e+002, 4.666830e+001
6.789298e+002, 4.699962e+001
6.794119e+002, 4.717680e+001
6.798940e+002, 4.720028e+001
6.803762e+002, 4.717906e+001
6.808583e+002, 4.710896e+001
6.813404e+002, 4.704042e+001
6.818225e+002, 4.700700e+001
6.823046e+002, 4.701582e+001
6.827867e+002, 4.710696e+001
6.832689e+002, 4.732766e+001
6.837510e+002, 4.749277e+001
6.842331e+002, 4.737384e+001
6.847152e+002, 4.715050e+001
6.851973e+002, 4.705396e+001
6.856794e+002, 4.731285e+001
6.861616e+002, 4.750262e+001
6.866437e+002, 4.749672e+001
6.871258e+002, 4.738909e+001
6.876079e+002, 4.732762e+001
6.880900e+002, 4.727862e+001
6.885721e+002, 4.739064e+001
6.890543e+002, 4.780495e+001
6.895364e+002, 4.833285e+001
6.900185e+002, 4.833109e+001
6.905006e+002, 4.781761e+001
6.909827e+002, 4.734770e+001
6.914648e+002, 4.722561e+001
6.919470e+002, 4.730408e+001
6.924291e+002, 4.740341e+001
6.929112e+002, 4.751045e+001
6.933933e+002, 4.755273e+001
6.938754e+002, 4.745562e+001
6.943575e+002, 4.730851e+001
6.948397e+002, 4.715257e+001
6.953218e+002, 4.698817e+001
6.958039e+002, 4.686940e+001
6.962860e+002, 4.685775e+001
6.967681e+002, 4.684113e+001
6.972502e+002, 4.675120e+001
6.977324e+002, 4.655971e+001
6.982145e+002, 4.645042e+001
6.986966e+002, 4.644618e+001
6.991787e+002, 4.646043e+001
6.996608e+002, 4.634999e+001
7.001429e+002, 4.616764e+001
7.006251e+002, 4.624517e+001
7.011072e+002, 4.668449e+001
7.015893e+002, 4.704381e+001
7.020714e+002, 4.674697e+001
7.025535e+002, 4.612946e+001
7.030356e+002, 4.568009e+001
7.035178e+002, 4.558261e+001
7.039999e+002, 4.560145e+001
7.044820e+002, 4.572539e+001
7.049641e+002, 4.588898e+001
7.054462e+002, 4.599129e+001
7.059283e+002, 4.601151e+001
7.064105e+002, 4.600077e+001
7.068926e+002, 4.598653e+001
7.073747e+002, 4.593206e+001
7.078568e+002, 4.568481e+001
7.083389e+002, 4.521645e+001
7.088210e+002, 4.494041e+001
7.093032e+002, 4.509823e+001
7.097853e+002, 4.543800e+001
7.102674e+002, 4.539986e+001
7.107495e+002, 4.506897e+001
7.112316e+002, 4.480429e+001
7.117137e+002, 4.485928e+001
7.121959e+002, 4.500544e+001
7.126780e+002, 4.510137e+001
7.131601e+002, 4.514437e+001
7.136422e+002, 4.515293e+001
7.141243e+002, 4.512257e+001
7.146064e+002, 4.506732e+001
7.150886e+002, 4.500225e+001
7.155707e+002, 4.492823e+001
7.160528e+002, 4.477000e+001
7.165349e+002, 4.447132e+001
7.170170e+002, 4.422926e+001
7.174991e+002, 4.423197e+001
7.179813e+002, 4.443330e+001
7.184634e+002, 4.445262e+001
7.189455e+002, 4.427682e+001
7.194276e+002, 4.402290e+001
7.199097e+002, 4.373738e+001
7.203918e+002, 4.345741e+001
7.208740e+002, 4.322781e+001
7.213561e+002, 4.304723e+001
7.218382e+002, 4.295369e+001
7.223203e+002, 4.304475e+001
7.228024e+002, 4.318277e+001
7.232845e+002, 4.324608e+001
7.237667e+002, 4.317864e+001
7.242488e+002, 4.311276e+001
7.247309e+002, 4.305173e+001
7.252130e+002, 4.298734e+001
7.256951e+002, 4.291280e+001
7.261772e+002, 4.282926e+001
7.266594e+002, 4.272372e+001
7.271415e+002, 4.259639e+001
7.276236e+002, 4.244614e+001
7.281057e+002, 4.222660e+001
7.285878e+002, 4.198197e+001
7.290699e+002, 4.182762e+001
7.295521e+002, 4.183202e+001
7.300342e+002, 4.188895e+001
7.305163e+002, 4.196564e+001
7.309984e+002, 4.203872e+001
7.314805e+002, 4.206632e+001
7.319626e+002, 4.204149e+001
7.324448e+002, 4.196227e+001
7.329269e+002, 4.179685e+001
7.334090e+002, 4.158588e+001
7.338911e+002, 4.144290e+001
7.343732e+002, 4.137616e+001
7.348553e+002, 4.135376e+001
7.353375e+002, 4.138802e+001
7.358196e+002, 4.144260e+001
7.363017e+002, 4.143987e+001
7.367838e+002, 4.137698e+001
7.372659e+002, 4.123682e+001
7.377480e+002, 4.092636e+001
7.382302e+002, 4.059657e+001
7.387123e+002, 4.037996e+001
7.391944e+002, 4.026692e+001
7.396765e+002, 4.019901e+001
7.401586e+002, 4.017155e+001
7.406407e+002, 4.016919e+001
7.411229e+002, 4.020199e+001
7.416050e+002, 4.026655e+001
7.420871e+002, 4.029414e+001
7.425692e+002, 4.030025e+001
7.430513e+002, 4.023318e+001
7.435334e+002, 4.002791e+001
7.440156e+002, 3.970876e+001
7.444977e+002, 3.948917e+001
7.449798e+002, 3.936799e+001
7.454619e+002, 3.929544e+001
7.459440e+002, 3.926036e+001
7.464261e+002, 3.923870e+001
7.469083e+002, 3.917390e+001
7.473904e+002, 3.905951e+001
7.478725e+002, 3.902868e+001
7.483546e+002, 3.928306e+001
7.488367e+002, 3.954019e+001
7.493188e+002, 3.958786e+001
7.498010e+002, 3.933618e+001
7.502831e+002, 3.915939e+001
7.507652e+002, 3.909006e+001
7.512473e+002, 3.904455e+001
7.517294e+002, 3.895310e+001
7.522115e+002, 3.881720e+001
7.526937e+002, 3.868164e+001
7.531758e+002, 3.854254e+001
7.536579e+002, 3.844759e+001
7.541400e+002, 3.849716e+001
7.546221e+002, 3.860792e+001
7.551042e+002, 3.862949e+001
7.555864e+002, 3.850750e+001
7.560685e+002, 3.840291e+001
7.565506e+002, 3.843994e+001
7.570327e+002, 3.851833e+001
7.575148e+002, 3.853621e+001
7.579969e+002, 3.841135e+001
7.584791e+002, 3.833862e+001
7.589612e+002, 3.835542e+001
7.594433e+002, 3.838268e+001
7.599254e+002, 3.829727e+001
7.604075e+002, 3.808950e+001
7.608896e+002, 3.798308e+001
7.613718e+002, 3.803037e+001
7.618539e+002, 3.812774e+001
7.623360e+002, 3.814746e+001
7.628181e+002, 3.811354e+001
7.633002e+002, 3.807442e+001
7.637823e+002, 3.803697e+001
7.642645e+002, 3.801105e+001
7.647466e+002, 3.801038e+001
7.652287e+002, 3.802246e+001
7.657108e+002, 3.802953e+001
7.661929e+002, 3.811997e+001
7.666750e+002, 3.805972e+001
7.671572e+002, 3.772040e+001
7.676393e+002, 3.730306e+001
7.681214e+002, 3.723121e+001
7.686035e+002, 3.753504e+001
7.690856e+002, 3.774794e+001
7.695677e+002, 3.773472e+001
7.700499e+002, 3.761000e+001
7.705320e+002, 3.748500e+001
7.710141e+002, 3.739038e+001
7.714962e+002, 3.740689e+001
7.719783e+002, 3.776919e+001
7.724604e+002, 3.803975e+001
7.729426e+002, 3.783656e+001
7.734247e+002, 3.738166e+001
7.739068e+002, 3.720138e+001
7.743889e+002, 3.761751e+001
7.748710e+002, 3.794598e+001
7.753531e+002, 3.809658e+001
7.758353e+002, 3.807354e+001
7.763174e+002, 3.780426e+001
7.767995e+002, 3.727265e+001
7.772816e+002, 3.690543e+001
7.777637e+002, 3.691127e+001
7.782458e+002, 3.711426e+001
7.787280e+002, 3.728156e+001
7.792101e+002, 3.740396e+001
7.796922e+002, 3.744949e+001
7.801743e+002, 3.733684e+001
7.806564e+002, 3.720954e+001
7.811385e+002, 3.708548e+001
7.816207e+002, 3.699523e+001
7.821028e+002, 3.707904e+001
7.825849e+002, 3.749437e+001
7.830670e+002, 3.784041e+001
7.835491e+002, 3.802725e+001
7.840313e+002, 3.806139e+001
7.845134e+002, 3.789934e+001
7.849955e+002, 3.753433e+001
7.854776e+002, 3.731421e+001
7.859597e+002, 3.753542e+001
7.864418e+002, 3.790088e+001
7.869240e+002, 3.788642e+001
7.874061e+002, 3.758947e+001
7.878882e+002, 3.736732e+001
7.883703e+002, 3.746338e+001
7.888524e+002, 3.762086e+001
7.893345e+002, 3.775406e+001
7.898167e+002, 3.784985e+001
7.902988e+002, 3.783755e+001
7.907809e+002, 3.758463e+001
7.912630e+002, 3.748107e+001
7.917451e+002, 3.774810e+001
7.922272e+002, 3.825183e+001
7.927094e+002, 3.837073e+001
7.931915e+002, 3.811781e+001
7.936736e+002, 3.784354e+001
7.941557e+002, 3.775605e+001
7.946378e+002, 3.775525e+001
7.951199e+002, 3.769365e+001
7.956021e+002, 3.759855e+001
7.960842e+002, 3.759499e+001
7.965663e+002, 3.780779e+001
7.970484e+002, 3.805653e+001
7.975305e+002, 3.833070e+001
7.980126e+002, 3.860130e+001
7.984948e+002, 3.858047e+001
7.989769e+002, 3.808781e+001
7.994590e+002, 3.776051e+001
7.999411e+002, 3.796597e+001
8.004232e+002, 3.852198e+001
8.009053e+002, 3.867020e+001
8.013875e+002, 3.844844e+001
8.018696e+002, 3.823131e+001
8.023517e+002, 3.828617e+001
8.028338e+002, 3.842306e+001
8.033159e+002, 3.845176e+001
8.037980e+002, 3.838693e+001
8.042802e+002, 3.834323e+001
8.047623e+002, 3.839740e+001
8.052444e+002, 3.843455e+001
8.057265e+002, 3.838346e+001
8.062086e+002, 3.826468e+001
8.066907e+002, 3.828588e+001
8.071729e+002, 3.848579e+001
8.076550e+002, 3.865894e+001
8.081371e+002, 3.871444e+001
8.086192e+002, 3.867104e+001
8.091013e+002, 3.851982e+001
8.095834e+002, 3.829070e+001
8.100656e+002, 3.815385e+001
8.105477e+002, 3.833599e+001
8.110298e+002, 3.853835e+001
8.115119e+002, 3.850769e+001
8.119940e+002, 3.827927e+001
8.124761e+002, 3.817751e+001
8.129583e+002, 3.840760e+001
8.134404e+002, 3.856892e+001
8.139225e+002, 3.850352e+001
8.144046e+002, 3.826454e+001
8.148867e+002, 3.817098e+001
8.153688e+002, 3.822797e+001
8.158510e+002, 3.834344e+001
8.163331e+002, 3.855024e+001
8.168152e+002, 3.873903e+001
8.172973e+002, 3.865617e+001
8.177794e+002, 3.837188e+001
8.182615e+002, 3.816820e+001
8.187437e+002, 3.802931e+001
8.192258e+002, 3.815812e+001
8.197079e+002, 3.875422e+001
8.201900e+002, 3.976203e+001
8.206721e+002, 4.077030e+001
8.211542e+002, 4.214349e+001
8.216364e+002, 4.266781e+001
8.221185e+002, 4.157716e+001
8.226006e+002, 3.953099e+001
8.230827e+002, 3.862735e+001
8.235648e+002, 3.879477e+001
8.240469e+002, 3.938846e+001
8.245291e+002, 4.039440e+001
8.250112e+002, 4.142209e+001
8.254933e+002, 4.226391e+001
8.259754e+002, 4.284253e+001
8.264575e+002, 4.293208e+001
8.269396e+002, 4.185782e+001
8.274218e+002, 4.097681e+001
8.279039e+002, 4.065563e+001
8.283860e+002, 4.078645e+001
8.288681e+002, 4.107755e+001
8.293502e+002, 4.157643e+001
8.298323e+002, 4.197364e+001
8.303145e+002, 4.217011e+001
8.307966e+002, 4.219948e+001
8.312787e+002, 4.208444e+001
8.317608e+002, 4.185137e+001
8.322429e+002, 4.158660e+001
8.327250e+002, 4.132431e+001
8.332072e+002, 4.104287e+001
8.336893e+002, 4.073975e+001
8.341714e+002, 4.040831e+001
8.346535e+002, 4.001744e+001
8.351356e+002, 3.943285e+001
8.356177e+002, 3.903889e+001
8.360999e+002, 3.894673e+001
8.365820e+002, 3.903865e+001
8.370641e+002, 3.907706e+001
8.375462e+002, 3.906146e+001
8.380283e+002, 3.897311e+001
8.385104e+002, 3.875965e+001
8.389926e+002, 3.855631e+001
8.394747e+002, 3.852334e+001
8.399568e+002, 3.860405e+001
8.404389e+002, 3.869993e+001
8.409210e+002, 3.876906e+001
8.414031e+002, 3.886077e+001
8.418853e+002, 3.901852e+001
8.423674e+002, 3.918703e+001
8.428495e+002, 3.928281e+001
8.433316e+002, 3.929167e+001
8.438137e+002, 3.929844e+001
8.442958e+002, 3.932031e+001
8.447780e+002, 3.933442e+001
8.452601e+002, 3.929822e+001
8.457422e+002, 3.922854e+001
8.462243e+002, 3.916306e+001
8.467064e+002, 3.910741e+001
8.471885e+002, 3.906947e+001
8.476707e+002, 3.905516e+001
8.481528e+002, 3.906072e+001
8.486349e+002, 3.908912e+001
8.491170e+002, 3.925700e+001
8.495991e+002, 3.920749e+001
8.500812e+002, 3.882087e+001
8.505634e+002, 3.839809e+001
8.510455e+002, 3.830054e+001
8.515276e+002, 3.848976e+001
8.520097e+002, 3.868091e+001
8.524918e+002, 3.884286e+001
8.529739e+002, 3.897121e+001
8.534561e+002, 3.910553e+001
8.539382e+002, 3.918238e+001
8.544203e+002, 3.908683e+001
8.549024e+002, 3.869547e+001
8.553845e+002, 3.848931e+001
8.558666e+002, 3.869681e+001
8.563488e+002, 3.899518e+001
8.568309e+002, 3.919174e+001
8.573130e+002, 3.928782e+001
8.577951e+002, 3.924461e+001
8.582772e+002, 3.903541e+001
8.587593e+002, 3.886980e+001
8.592415e+002, 3.907027e+001
8.597236e+002, 3.938408e+001
8.602057e+002, 3.928907e+001
8.606878e+002, 3.874681e+001
8.611699e+002, 3.837831e+001
8.616520e+002, 3.864576e+001
8.621342e+002, 3.904471e+001
8.626163e+002, 3.931404e+001
8.630984e+002, 3.945231e+001
8.635805e+002, 3.935034e+001
8.640626e+002, 3.890796e+001
8.645447e+002, 3.852533e+001
8.650269e+002, 3.850912e+001
8.655090e+002, 3.872139e+001
8.659911e+002, 3.862708e+001
8.664732e+002, 3.827542e+001
8.669553e+002, 3.800219e+001
8.674374e+002, 3.807162e+001
8.679196e+002, 3.824617e+001
8.684017e+002, 3.842071e+001
8.688838e+002, 3.857259e+001
8.693659e+002, 3.857634e+001
8.698480e+002, 3.831186e+001
8.703301e+002, 3.809078e+001
8.708123e+002, 3.800559e+001
8.712944e+002, 3.802443e+001
8.717765e+002, 3.806729e+001
8.722586e+002, 3.812619e+001
8.727407e+002, 3.811585e+001
8.732228e+002, 3.792081e+001
8.737050e+002, 3.772768e+001
8.741871e+002, 3.778914e+001
8.746692e+002, 3.799436e+001
8.751513e+002, 3.810285e+001
8.756334e+002, 3.791017e+001
8.761155e+002, 3.777898e+001
8.765977e+002, 3.782111e+001
8.770798e+002, 3.792950e+001
8.775619e+002, 3.790430e+001
8.780440e+002, 3.773741e+001
8.785261e+002, 3.754528e+001
8.790082e+002, 3.732919e+001
8.794904e+002, 3.715424e+001
8.799725e+002, 3.714082e+001
8.804546e+002, 3.721554e+001
8.809367e+002, 3.725226e+001
8.814188e+002, 3.721695e+001
8.819009e+002, 3.713848e+001
8.823831e+002, 3.696071e+001
8.828652e+002, 3.678444e+001
8.833473e+002, 3.670923e+001
8.838294e+002, 3.674497e+001
8.843115e+002, 3.687363e+001
8.847936e+002, 3.713844e+001
8.852758e+002, 3.733486e+001
8.857579e+002, 3.715625e+001
8.862400e+002, 3.677040e+001
8.867221e+002, 3.656596e+001
8.872042e+002, 3.659742e+001
8.876863e+002, 3.667632e+001
8.881685e+002, 3.673821e+001
8.886506e+002, 3.677510e+001
8.891327e+002, 3.678237e+001
8.896148e+002, 3.676130e+001
8.900969e+002, 3.668319e+001
8.905790e+002, 3.650686e+001
8.910612e+002, 3.637692e+001
8.915433e+002, 3.644098e+001
8.920254e+002, 3.661681e+001
8.925075e+002, 3.655742e+001
8.929896e+002, 3.629121e+001
8.934717e+002, 3.605429e+001
8.939539e+002, 3.601349e+001
8.944360e+002, 3.602871e+001
8.949181e+002, 3.599912e+001
8.954002e+002, 3.593600e+001
8.958823e+002, 3.594529e+001
8.963644e+002, 3.613398e+001
8.968466e+002, 3.619541e+001
8.973287e+002, 3.600343e+001
8.978108e+002, 3.566930e+001
8.982929e+002, 3.547045e+001
8.987750e+002, 3.539699e+001
8.992571e+002, 3.537540e+001
8.997393e+002, 3.537153e+001
9.002214e+002, 3.541836e+001
9.007035e+002, 3.559271e+001
9.011856e+002, 3.582471e+001
9.016677e+002, 3.599336e+001
9.021498e+002, 3.601805e+001
9.026320e+002, 3.605957e+001
9.031141e+002, 3.616990e+001
9.035962e+002, 3.625055e+001
9.040783e+002, 3.613094e+001
9.045604e+002, 3.582826e+001
9.050425e+002, 3.558803e+001
9.055247e+002, 3.544802e+001
9.060068e+002, 3.535880e+001
9.064889e+002, 3.527631e+001
9.069710e+002, 3.521745e+001
9.074531e+002, 3.521418e+001
9.079352e+002, 3.529945e+001
9.084174e+002, 3.533047e+001
9.088995e+002, 3.524325e+001
9.093816e+002, 3.515064e+001
9.098637e+002, 3.510384e+001
9.103458e+002, 3.510221e+001
9.108279e+002, 3.529454e+001
9.113101e+002, 3.568835e+001
9.117922e+002, 3.588326e+001
9.122743e+002, 3.530901e+001
9.127564e+002, 3.457022e+001
9.132385e+002, 3.441186e+001
9.137206e+002, 3.477338e+001
9.142028e+002, 3.500632e+001
9.146849e+002, 3.467897e+001
9.151670e+002, 3.448085e+001
9.156491e+002, 3.469116e+001
9.161312e+002, 3.516906e+001
9.166133e+002, 3.534925e+001
9.170955e+002, 3.522783e+001
9.175776e+002, 3.507651e+001
9.180597e+002, 3.498599e+001
9.185418e+002, 3.492881e+001
9.190239e+002, 3.486477e+001
9.195060e+002, 3.480965e+001
9.199882e+002, 3.479440e+001
9.204703e+002, 3.491225e+001
9.209524e+002, 3.495760e+001
9.214345e+002, 3.485173e+001
9.219166e+002, 3.469598e+001
9.223987e+002, 3.460107e+001
9.228809e+002, 3.456578e+001
9.233630e+002, 3.463909e+001
9.238451e+002, 3.485152e+001
9.243272e+002, 3.502272e+001
9.248093e+002, 3.485934e+001
9.252914e+002, 3.458458e+001
9.257736e+002, 3.453115e+001
9.262557e+002, 3.479526e+001
9.267378e+002, 3.496936e+001
9.272199e+002, 3.482516e+001
9.277020e+002, 3.466492e+001
9.281841e+002, 3.464495e+001
9.286663e+002, 3.476551e+001
9.291484e+002, 3.485690e+001
9.296305e+002, 3.491836e+001
9.301126e+002, 3.498596e+001
9.305947e+002, 3.517366e+001
9.310768e+002, 3.532283e+001
9.315590e+002, 3.509679e+001
9.320411e+002, 3.461540e+001
9.325232e+002, 3.439094e+001
9.330053e+002, 3.486815e+001
9.334874e+002, 3.529228e+001
9.339695e+002, 3.546669e+001
9.344517e+002, 3.546521e+001
9.349338e+002, 3.548933e+001
9.354159e+002, 3.554234e+001
9.358980e+002, 3.541891e+001
9.363801e+002, 3.498175e+001
9.368622e+002, 3.457152e+001
9.373444e+002, 3.468640e+001
9.378265e+002, 3.506743e+001
9.383086e+002, 3.534248e+001
9.387907e+002, 3.542916e+001
9.392728e+002, 3.535955e+001
9.397549e+002, 3.499313e+001
9.402371e+002, 3.462391e+001
9.407192e+002, 3.447309e+001
9.412013e+002, 3.454428e+001
9.416834e+002, 3.484445e+001
9.421655e+002, 3.539117e+001
9.426476e+002, 3.579511e+001
9.431298e+002, 3.553052e+001
9.436119e+002, 3.507335e+001
9.440940e+002, 3.496481e+001
9.445761e+002, 3.522581e+001
9.450582e+002, 3.542966e+001
9.455403e+002, 3.552480e+001
9.460225e+002, 3.547525e+001
9.465046e+002, 3.520581e+001
9.469867e+002, 3.479697e+001
9.474688e+002, 3.455785e+001
9.479509e+002, 3.448920e+001
9.484330e+002, 3.456252e+001
9.489152e+002, 3.488527e+001
9.493973e+002, 3.518212e+001
9.498794e+002, 3.510803e+001
9.503615e+002, 3.483732e+001
9.508436e+002, 3.467880e+001
9.513257e+002, 3.486941e+001
9.518079e+002, 3.493282e+001
9.522900e+002, 3.475234e+001
9.527721e+002, 3.456043e+001
9.532542e+002, 3.472050e+001
9.537363e+002, 3.516474e+001
9.542184e+002, 3.535460e+001
9.547006e+002, 3.521591e+001
9.551827e+002, 3.499479e+001
9.556648e+002, 3.478667e+001
9.561469e+002, 3.465802e+001
9.566290e+002, 3.468721e+001
9.571111e+002, 3.489966e+001
9.575933e+002, 3.512827e+001
9.580754e+002, 3.539798e+001
9.585575e+002, 3.562256e+001
9.590396e+002, 3.577940e+001
9.595217e+002, 3.585156e+001
9.600038e+002, 3.569869e+001
9.604860e+002, 3.537589e+001
9.609681e+002, 3.516935e+001
9.614502e+002, 3.538272e+001
9.619323e+002, 3.560490e+001
9.624144e+002, 3.550236e+001
9.628965e+002, 3.525052e+001
9.633787e+002, 3.526431e+001
9.638608e+002, 3.573228e+001
9.643429e+002, 3.598704e+001
9.648250e+002, 3.589767e+001
9.653071e+002, 3.570160e+001
9.657892e+002, 3.569501e+001
9.662714e+002, 3.584189e+001
9.667535e+002, 3.609455e+001
9.672356e+002, 3.646740e+001
9.677177e+002, 3.675150e+001
9.681998e+002, 3.680067e+001
9.686819e+002, 3.673807e+001
9.691641e+002, 3.663121e+001
9.696462e+002, 3.647717e+001
9.701283e+002, 3.634471e+001
9.706104e+002, 3.621371e+001
9.710925e+002, 3.620637e+001
9.715746e+002, 3.649226e+001
9.720568e+002, 3.689241e+001
9.725389e+002, 3.710344e+001
9.730210e+002, 3.715065e+001
9.735031e+002, 3.711085e+001
9.739852e+002, 3.681453e+001
9.744673e+002, 3.668427e+001
9.749495e+002, 3.693528e+001
9.754316e+002, 3.736735e+001
9.759137e+002, 3.766023e+001
9.763958e+002, 3.781146e+001
9.768779e+002, 3.785513e+001
9.773600e+002, 3.778308e+001
9.778422e+002, 3.766431e+001
9.783243e+002, 3.752282e+001
9.788064e+002, 3.740347e+001
9.792885e+002, 3.735973e+001
9.797706e+002, 3.739837e+001
9.802527e+002, 3.753809e+001
9.807349e+002, 3.792131e+001
9.812170e+002, 3.821230e+001
9.816991e+002, 3.818204e+001
9.821812e+002, 3.788503e+001
9.826633e+002, 3.774524e+001
9.831454e+002, 3.775068e+001
9.836276e+002, 3.777025e+001
9.841097e+002, 3.769969e+001
9.845918e+002, 3.763750e+001
9.850739e+002, 3.768132e+001
9.855560e+002, 3.779124e+001
9.860381e+002, 3.785517e+001
9.865203e+002, 3.781972e+001
9.870024e+002, 3.784332e+001
9.874845e+002, 3.797578e+001
9.879666e+002, 3.811646e+001
9.884487e+002, 3.811282e+001
9.889308e+002, 3.799798e+001
9.894130e+002, 3.783469e+001
9.898951e+002, 3.761398e+001
9.903772e+002, 3.750660e+001
9.908593e+002, 3.778532e+001
9.913414e+002, 3.807737e+001
9.918235e+002, 3.808941e+001
9.923057e+002, 3.780702e+001
9.927878e+002, 3.753730e+001
9.932699e+002, 3.726808e+001
9.937520e+002, 3.706767e+001
9.942341e+002, 3.698615e+001
9.947162e+002, 3.698604e+001
9.951984e+002, 3.703787e+001
9.956805e+002, 3.711898e+001
9.961626e+002, 3.716628e+001
9.966447e+002, 3.714236e+001
9.971268e+002, 3.709764e+001
9.976089e+002, 3.702868e+001
9.980911e+002, 3.695734e+001
9.985732e+002, 3.689642e+001
9.990553e+002, 3.684615e+001
9.995374e+002, 3.691724e+001
1.000020e+003, 3.713473e+001
1.000502e+003, 3.735783e+001
1.000984e+003, 3.749305e+001
1.001466e+003, 3.754329e+001
1.001948e+003, 3.748896e+001
1.002430e+003, 3.731885e+001
1.002912e+003, 3.715770e+001
1.003394e+003, 3.696323e+001
1.003876e+003, 3.688914e+001
1.004359e+003, 3.706143e+001
1.004841e+003, 3.736132e+001
1.005323e+003, 3.738922e+001
1.005805e+003, 3.720674e+001
1.006287e+003, 3.706501e+001
1.006769e+003, 3.715976e+001
1.007251e+003, 3.720905e+001
1.007733e+003, 3.696511e+001
1.008216e+003, 3.663818e+001
1.008698e+003, 3.653012e+001
1.009180e+003, 3.670942e+001
1.009662e+003, 3.686385e+001
1.010144e+003, 3.698604e+001
1.010626e+003, 3.703949e+001
1.011108e+003, 3.695169e+001
1.011590e+003, 3.678762e+001
1.012072e+003, 3.662192e+001
1.012555e+003, 3.646338e+001
1.013037e+003, 3.636700e+001
1.013519e+003, 3.644550e+001
1.014001e+003, 3.647616e+001
1.014483e+003, 3.635573e+001
1.014965e+003, 3.614706e+001
1.015447e+003, 3.607040e+001
1.015929e+003, 3.611526e+001
1.016411e+003, 3.617237e+001
1.016894e+003, 3.619270e+001
1.017376e+003, 3.624513e+001
1.017858e+003, 3.646989e+001
1.018340e+003, 3.672458e+001
1.018822e+003, 3.681311e+001
1.019304e+003, 3.659436e+001
1.019786e+003, 3.653472e+001
1.020268e+003, 3.670121e+001
1.020751e+003, 3.684980e+001
1.021233e+003, 3.673610e+001
1.021715e+003, 3.647291e+001
1.022197e+003, 3.635637e+001
1.022679e+003, 3.637694e+001
1.023161e+003, 3.644513e+001
1.023643e+003, 3.656776e+001
1.024125e+003, 3.667256e+001
1.024607e+003, 3.674451e+001
1.025090e+003, 3.677393e+001
1.025572e+003, 3.669239e+001
1.026054e+003, 3.648106e+001
1.026536e+003, 3.648434e+001
1.027018e+003, 3.681887e+001
1.027500e+003, 3.713533e+001
1.027982e+003, 3.695537e+001
1.028464e+003, 3.660568e+001
1.028947e+003, 3.649559e+001
1.029429e+003, 3.675957e+001
1.029911e+003, 3.687468e+001
1.030393e+003, 3.671741e+001
1.030875e+003, 3.657997e+001
1.031357e+003, 3.663432e+001
1.031839e+003, 3.681256e+001
1.032321e+003, 3.686932e+001
1.032803e+003, 3.683327e+001
1.033286e+003, 3.682689e+001
1.033768e+003, 3.693759e+001
1.034250e+003, 3.706031e+001
1.034732e+003, 3.720940e+001
1.035214e+003, 3.731195e+001
1.035696e+003, 3.723340e+001
1.036178e+003, 3.690611e+001
1.036660e+003, 3.680522e+001
1.037143e+003, 3.699639e+001
1.037625e+003, 3.718182e+001
1.038107e+003, 3.699000e+001
1.038589e+003, 3.669107e+001
1.039071e+003, 3.664651e+001
1.039553e+003, 3.686543e+001
1.040035e+003, 3.704932e+001
1.040517e+003, 3.709783e+001
1.041000e+003, 3.716323e+001
1.041482e+003, 3.729349e+001
1.041964e+003, 3.745798e+001
1.042446e+003, 3.761267e+001
1.042928e+003, 3.773992e+001
1.043410e+003, 3.773782e+001
1.043892e+003, 3.751709e+001
1.044374e+003, 3.734199e+001
1.044856e+003, 3.753205e+001
1.045339e+003, 3.772713e+001
1.045821e+003, 3.753373e+001
1.046303e+003, 3.684115e+001
1.046785e+003, 3.664922e+001
1.047267e+003, 3.701001e+001
1.047749e+003, 3.741065e+001
1.048231e+003, 3.753159e+001
1.048713e+003, 3.747974e+001
1.049195e+003, 3.731069e+001
1.049677e+003, 3.707910e+001
1.050160e+003, 3.694131e+001
1.050642e+003, 3.704663e+001
1.051124e+003, 3.710188e+001
1.051606e+003, 3.706463e+001
1.052088e+003, 3.698183e+001
1.052570e+003, 3.689418e+001
1.053052e+003, 3.681326e+001
1.053534e+003, 3.681219e+001
1.054017e+003, 3.690260e+001
1.054499e+003, 3.695763e+001
1.054981e+003, 3.687097e+001
1.055463e+003, 3.674738e+001
1.055945e+003, 3.661071e+001
1.056427e+003, 3.648523e+001
1.056909e+003, 3.656396e+001
1.057391e+003, 3.687248e+001
1.057874e+003, 3.709115e+001
1.058356e+003, 3.709417e+001
1.058838e+003, 3.699679e+001
1.059320e+003, 3.681905e+001
1.059802e+003, 3.668129e+001
1.060284e+003, 3.679210e+001
1.060766e+003, 3.748358e+001
1.061248e+003, 3.768221e+001
1.061730e+003, 3.712996e+001
1.062213e+003, 3.653041e+001
1.062695e+003, 3.644999e+001
1.063177e+003, 3.672250e+001
1.063659e+003, 3.671404e+001
1.064141e+003, 3.648561e+001
1.064623e+003, 3.633314e+001
1.065105e+003, 3.642735e+001
1.065587e+003, 3.660213e+001
1.066070e+003, 3.689586e+001
1.066552e+003, 3.717839e+001
1.067034e+003, 3.723291e+001
1.067516e+003, 3.705270e+001
1.067998e+003, 3.684506e+001
1.068480e+003, 3.662897e+001
1.068962e+003, 3.645256e+001
1.069444e+003, 3.638596e+001
1.069927e+003, 3.636142e+001
1.070409e+003, 3.629391e+001
1.070891e+003, 3.618375e+001
1.071373e+003, 3.620561e+001
1.071855e+003, 3.643314e+001
1.072337e+003, 3.659234e+001
1.072819e+003, 3.657592e+001
1.073301e+003, 3.648349e+001
1.073783e+003, 3.652634e+001
1.074266e+003, 3.662444e+001
1.074748e+003, 3.658467e+001
1.075230e+003, 3.625825e+001
1.075712e+003, 3.606913e+001
1.076194e+003, 3.620404e+001
1.076676e+003, 3.642333e+001
1.077158e+003, 3.663571e+001
1.077640e+003, 3.682371e+001
1.078122e+003, 3.674329e+001
1.078604e+003, 3.643322e+001
1.079087e+003, 3.622392e+001
1.079569e+003, 3.639329e+001
1.080051e+003, 3.662252e+001
1.080533e+003, 3.675784e+001
1.081015e+003, 3.681187e+001
1.081497e+003, 3.681824e+001
1.081979e+003, 3.676833e+001
1.082461e+003, 3.670295e+001
1.082944e+003, 3.662047e+001
1.083426e+003, 3.655470e+001
1.083908e+003, 3.656613e+001
1.084390e+003, 3.659575e+001
1.084872e+003, 3.657497e+001
1.085354e+003, 3.650139e+001
1.085836e+003, 3.640468e+001
1.086318e+003, 3.626078e+001
1.086801e+003, 3.614336e+001
1.087283e+003, 3.605725e+001
1.087765e+003, 3.602646e+001
1.088247e+003, 3.613616e+001
1.088729e+003, 3.633296e+001
1.089211e+003, 3.648636e+001
1.089693e+003, 3.657729e+001
1.090175e+003, 3.658419e+001
1.090657e+003, 3.633258e+001
1.091140e+003, 3.616377e+001
1.091622e+003, 3.630268e+001
1.092104e+003, 3.669757e+001
1.092586e+003, 3.696083e+001
1.093068e+003, 3.709160e+001
1.093550e+003, 3.706231e+001
1.094032e+003, 3.671317e+001
1.094514e+003, 3.642138e+001
1.094997e+003, 3.657597e+001
1.095479e+003, 3.689861e+001
1.095961e+003, 3.698826e+001
1.096443e+003, 3.669553e+001
1.096925e+003, 3.669597e+001
1.097407e+003, 3.704566e+001
1.097889e+003, 3.734288e+001
1.098371e+003, 3.717858e+001
1.098854e+003, 3.684502e+001
1.099336e+003, 3.668512e+001
1.099818e+003, 3.668153e+001
1.100300e+003, 3.673164e+001
1.100782e+003, 3.687270e+001
1.101264e+003, 3.695594e+001
1.101746e+003, 3.694337e+001
1.102228e+003, 3.690557e+001
1.102710e+003, 3.692202e+001
1.103193e+003, 3.699035e+001
1.103675e+003, 3.713217e+001
1.104157e+003, 3.734909e+001
1.104639e+003, 3.751106e+001
1.105121e+003, 3.753484e+001
1.105603e+003, 3.752150e+001
1.106085e+003, 3.751448e+001
1.106567e+003, 3.749986e+001
1.107049e+003, 3.742792e+001
1.107531e+003, 3.730383e+001
1.108014e+003, 3.716098e+001
1.108496e+003, 3.697680e+001
1.108978e+003, 3.687960e+001
1.109460e+003, 3.709642e+001
1.109942e+003, 3.733576e+001
1.110424e+003, 3.728446e+001
1.110906e+003, 3.691946e+001
1.111388e+003, 3.685300e+001
1.111871e+003, 3.710046e+001
1.112353e+003, 3.743545e+001
1.112835e+003, 3.785604e+001
1.113317e+003, 3.816887e+001
1.113799e+003, 3.806817e+001
1.114281e+003, 3.774004e+001
1.114763e+003, 3.748988e+001
1.115245e+003, 3.742365e+001
1.115728e+003, 3.730979e+001
1.116210e+003, 3.711010e+001
1.116692e+003, 3.699088e+001
1.117174e+003, 3.714655e+001
1.117656e+003, 3.745088e+001
1.118138e+003, 3.773129e+001
1.118620e+003, 3.796091e+001
1.119102e+003, 3.806017e+001
1.119584e+003, 3.789947e+001
1.120067e+003, 3.773186e+001
1.120549e+003, 3.756591e+001
1.121031e+003, 3.745253e+001
1.121513e+003, 3.751932e+001
1.121995e+003, 3.769489e+001
1.122477e+003, 3.769769e+001
1.122959e+003, 3.750598e+001
1.123441e+003, 3.737480e+001
1.123924e+003, 3.750904e+001
1.124406e+003, 3.765638e+001
1.124888e+003, 3.770573e+001
1.125370e+003, 3.768995e+001
1.125852e+003, 3.770085e+001
1.126334e+003, 3.773528e+001
1.126816e+003, 3.774244e+001
1.127298e+003, 3.769947e+001
1.127781e+003, 3.768696e+001
1.128263e+003, 3.780784e+001
1.128745e+003, 3.795145e+001
1.129227e+003, 3.802780e+001
1.129709e+003, 3.803851e+001
1.130191e+003, 3.803955e+001
1.130673e+003, 3.803432e+001
1.131155e+003, 3.794438e+001
1.131637e+003, 3.763891e+001
1.132120e+003, 3.741349e+001
1.132602e+003, 3.777652e+001
1.133084e+003, 3.833210e+001
1.133566e+003, 3.848445e+001
1.134048e+003, 3.800664e+001
1.134530e+003, 3.767569e+001
1.135012e+003, 3.749929e+001
1.135494e+003, 3.743713e+001
1.135976e+003, 3.750679e+001
1.136458e+003, 3.764347e+001
1.136941e+003, 3.775514e+001
1.137423e+003, 3.784776e+001
1.137905e+003, 3.793538e+001
1.138387e+003, 3.813961e+001
1.138869e+003, 3.811178e+001
1.139351e+003, 3.770721e+001
1.139833e+003, 3.734658e+001
1.140315e+003, 3.758321e+001
1.140798e+003, 3.813909e+001
1.141280e+003, 3.835417e+001
1.141762e+003, 3.823833e+001
1.142244e+003, 3.804034e+001
1.142726e+003, 3.772931e+001
1.143208e+003, 3.752587e+001
1.143690e+003, 3.749619e+001
1.144172e+003, 3.756456e+001
1.144655e+003, 3.765707e+001
1.145137e+003, 3.774926e+001
1.145619e+003, 3.770975e+001
1.146101e+003, 3.752085e+001
1.146583e+003, 3.740283e+001
1.147065e+003, 3.753275e+001
1.147547e+003, 3.770839e+001
1.148029e+003, 3.787778e+001
1.148511e+003, 3.800230e+001
1.148994e+003, 3.793029e+001
1.149476e+003, 3.768657e+001
1.149958e+003, 3.749279e+001
1.150440e+003, 3.739943e+001
1.150922e+003, 3.735689e+001
1.151404e+003, 3.732282e+001
1.151886e+003, 3.733177e+001
1.152368e+003, 3.741648e+001
1.152851e+003, 3.756876e+001
1.153333e+003, 3.777103e+001
1.153815e+003, 3.802364e+001
1.154297e+003, 3.812661e+001
1.154779e+003, 3.795203e+001
1.155261e+003, 3.771960e+001
1.155743e+003, 3.757066e+001
1.156225e+003, 3.751216e+001
1.156708e+003, 3.759071e+001
1.157190e+003, 3.783527e+001
1.157672e+003, 3.795049e+001
1.158154e+003, 3.792677e+001
1.158636e+003, 3.785704e+001
1.159118e+003, 3.776667e+001
1.159600e+003, 3.768771e+001
1.160082e+003, 3.768637e+001
1.160564e+003, 3.771353e+001
1.161047e+003, 3.767458e+001
1.161529e+003, 3.747385e+001
1.162011e+003, 3.742137e+001
1.162493e+003, 3.754595e+001
1.162975e+003, 3.770474e+001
1.163457e+003, 3.782373e+001
1.163939e+003, 3.788628e+001
1.164421e+003, 3.780836e+001
1.164903e+003, 3.765182e+001
1.165385e+003, 3.760243e+001
1.165868e+003, 3.772419e+001
1.166350e+003, 3.793887e+001
1.166832e+003, 3.829238e+001
1.167314e+003, 3.858799e+001
1.167796e+003, 3.857289e+001
1.168278e+003, 3.837704e+001
1.168760e+003, 3.816798e+001
1.169242e+003, 3.797823e+001
1.169725e+003, 3.793094e+001
1.170207e+003, 3.826377e+001
1.170689e+003, 3.843315e+001
1.171171e+003, 3.830920e+001
1.171653e+003, 3.808370e+001
1.172135e+003, 3.801525e+001
1.172617e+003, 3.805721e+001
1.173099e+003, 3.810992e+001
1.173582e+003, 3.816187e+001
1.174064e+003, 3.822523e+001
1.174546e+003, 3.835591e+001
1.175028e+003, 3.843114e+001
1.175510e+003, 3.842486e+001
1.175992e+003, 3.833722e+001
1.176474e+003, 3.809208e+001
1.176956e+003, 3.777129e+001
1.177438e+003, 3.762947e+001
1.177921e+003, 3.772692e+001
1.178403e+003, 3.788274e+001
1.178885e+003, 3.804853e+001
1.179367e+003, 3.823824e+001
1.179849e+003, 3.848950e+001
1.180331e+003, 3.874774e+001
1.180813e+003, 3.881288e+001
1.181295e+003, 3.872781e+001
1.181778e+003, 3.865192e+001
1.182260e+003, 3.863191e+001
1.182742e+003, 3.861542e+001
1.183224e+003, 3.853061e+001
1.183706e+003, 3.849812e+001
1.184188e+003, 3.862167e+001
1.184670e+003, 3.885043e+001
1.185152e+003, 3.885218e+001
1.185635e+003, 3.867974e+001
1.186117e+003, 3.861459e+001
1.186599e+003, 3.882600e+001
1.187081e+003, 3.903101e+001
1.187563e+003, 3.907508e+001
1.188045e+003, 3.906916e+001
1.188527e+003, 3.909456e+001
1.189009e+003, 3.914805e+001
1.189491e+003, 3.921486e+001
1.189974e+003, 3.928286e+001
1.190456e+003, 3.925723e+001
1.190938e+003, 3.891510e+001
1.191420e+003, 3.870657e+001
1.191902e+003, 3.905163e+001
1.192384e+003, 3.949498e+001
1.192866e+003, 3.954276e+001
1.193348e+003, 3.918259e+001
1.193830e+003, 3.909726e+001
1.194313e+003, 3.926555e+001
1.194795e+003, 3.940666e+001
1.195277e+003, 3.923939e+001
1.195759e+003, 3.912629e+001
1.196241e+003, 3.937133e+001
1.196723e+003, 3.972115e+001
1.197205e+003, 3.985749e+001
1.197687e+003, 3.977638e+001
1.198169e+003, 3.960714e+001
1.198652e+003, 3.936199e+001
1.199134e+003, 3.918098e+001
1.199616e+003, 3.912133e+001
1.200098e+003, 3.919703e+001
1.200580e+003, 3.958027e+001
1.201062e+003, 4.003107e+001
1.201544e+003, 4.011561e+001
1.202026e+003, 3.982045e+001
1.202509e+003, 3.969617e+001
1.202991e+003, 3.979151e+001
1.203473e+003, 3.992022e+001
1.203955e+003, 4.003107e+001
1.204437e+003, 4.004689e+001
1.204919e+003, 3.982232e+001
1.205401e+003, 3.949196e+001
1.205883e+003, 3.933863e+001
1.206365e+003, 3.936235e+001
1.206848e+003, 3.953248e+001
1.207330e+003, 3.985513e+001
1.207812e+003, 4.014048e+001
1.208294e+003, 4.025314e+001
1.208776e+003, 4.026980e+001
1.209258e+003, 4.022206e+001
1.209740e+003, 4.012236e+001
1.210222e+003, 3.995153e+001
1.210705e+003, 3.970617e+001
1.211187e+003, 3.963736e+001
1.211669e+003, 3.979852e+001
1.212151e+003, 4.004800e+001
1.212633e+003, 4.037971e+001
1.213115e+003, 4.066079e+001
1.213597e+003, 4.077620e+001
1.214079e+003, 4.075715e+001
1.214562e+003, 4.063599e+001
1.215044e+003, 4.041917e+001
1.215526e+003, 4.046245e+001
1.216008e+003, 4.092384e+001
1.216490e+003, 4.123075e+001
1.216972e+003, 4.064401e+001
1.217454e+003, 3.997963e+001
1.217936e+003, 3.993703e+001
1.218418e+003, 4.037388e+001
1.218901e+003, 4.054680e+001
1.219383e+003, 4.047043e+001
1.219865e+003, 4.045586e+001
1.220347e+003, 4.060271e+001
1.220829e+003, 4.078396e+001
1.221311e+003, 4.095365e+001
1.221793e+003, 4.107408e+001
1.222275e+003, 4.110008e+001
1.222757e+003, 4.105232e+001
1.223240e+003, 4.108765e+001
1.223722e+003, 4.119942e+001
1.224204e+003, 4.129684e+001
1.224686e+003, 4.134752e+001
1.225168e+003, 4.138568e+001
1.225650e+003, 4.143264e+001
1.226132e+003, 4.148048e+001
1.226614e+003, 4.154036e+001
1.227096e+003, 4.160151e+001
1.227579e+003, 4.153985e+001
1.228061e+003, 4.136991e+001
1.228543e+003, 4.121085e+001
1.229025e+003, 4.108468e+001
1.229507e+003, 4.103738e+001
1.229989e+003, 4.116492e+001
1.230471e+003, 4.132333e+001
1.230953e+003, 4.138760e+001
1.231436e+003, 4.137425e+001
1.231918e+003, 4.144773e+001
1.232400e+003, 4.159715e+001
1.232882e+003, 4.175778e+001
1.233364e+003, 4.198433e+001
1.233846e+003, 4.206346e+001
1.234328e+003, 4.167868e+001
1.234810e+003, 4.130396e+001
1.235292e+003, 4.132222e+001
1.235775e+003, 4.167308e+001
1.236257e+003, 4.188042e+001
1.236739e+003, 4.195926e+001
1.237221e+003, 4.199458e+001
1.237703e+003, 4.203685e+001
1.238185e+003, 4.201996e+001
1.238667e+003, 4.179104e+001
1.239149e+003, 4.162465e+001
1.239632e+003, 4.178313e+001
1.240114e+003, 4.218615e+001
1.240596e+003, 4.235106e+001
1.241078e+003, 4.232452e+001
1.241560e+003, 4.231144e+001
1.242042e+003, 4.247264e+001
1.242524e+003, 4.254897e+001
1.243006e+003, 4.240011e+001
1.243489e+003, 4.225378e+001
1.243971e+003, 4.232970e+001
1.244453e+003, 4.255638e+001
1.244935e+003, 4.261901e+001
1.245417e+003, 4.255882e+001
1.245899e+003, 4.252867e+001
1.246381e+003, 4.260263e+001
1.246863e+003, 4.270518e+001
1.247345e+003, 4.284660e+001
1.247828e+003, 4.296753e+001
1.248310e+003, 4.296663e+001
1.248792e+003, 4.292022e+001
1.249274e+003, 4.310729e+001
1.249756e+003, 4.343989e+001
1.250238e+003, 4.361299e+001
1.250720e+003, 4.334739e+001
1.251202e+003, 4.316999e+001
1.251684e+003, 4.312667e+001
1.252167e+003, 4.316235e+001
1.252649e+003, 4.324113e+001
1.253131e+003, 4.335915e+001
1.253613e+003, 4.351308e+001
1.254095e+003, 4.370034e+001
1.254577e+003, 4.391547e+001
1.255059e+003, 4.428140e+001
1.255541e+003, 4.441078e+001
1.256023e+003, 4.422468e+001
1.256506e+003, 4.399984e+001
1.256988e+003, 4.399670e+001
1.257470e+003, 4.409081e+001
1.257952e+003, 4.411825e+001
1.258434e+003, 4.409394e+001
1.258916e+003, 4.406836e+001
1.259398e+003, 4.402019e+001
1.259880e+003, 4.407471e+001
1.260363e+003, 4.426268e+001
1.260845e+003, 4.441339e+001
1.261327e+003, 4.430483e+001
1.261809e+003, 4.415193e+001
1.262291e+003, 4.418394e+001
1.262773e+003, 4.435155e+001
1.263255e+003, 4.447499e+001
1.263737e+003, 4.447553e+001
1.264219e+003, 4.488018e+001
1.264702e+003, 4.576536e+001
1.265184e+003, 4.641007e+001
1.265666e+003, 4.604034e+001
1.266148e+003, 4.542643e+001
1.266630e+003, 4.504813e+001
1.267112e+003, 4.490786e+001
1.267594e+003, 4.497937e+001
1.268076e+003, 4.528213e+001
1.268559e+003, 4.551414e+001
1.269041e+003, 4.565459e+001
1.269523e+003, 4.569013e+001
1.270005e+003, 4.553298e+001
1.270487e+003, 4.535400e+001
1.270969e+003, 4.518465e+001
1.271451e+003, 4.509760e+001
1.271933e+003, 4.526934e+001
1.272416e+003, 4.566562e+001
1.272898e+003, 4.581194e+001
1.273380e+003, 4.569960e+001
1.273862e+003, 4.560690e+001
1.274344e+003, 4.565017e+001
1.274826e+003, 4.581188e+001
1.275308e+003, 4.618468e+001
1.275790e+003, 4.655180e+001
1.276272e+003, 4.663318e+001
1.276755e+003, 4.647780e+001
1.277237e+003, 4.616766e+001
1.277719e+003, 4.576120e+001
1.278201e+003, 4.557716e+001
1.278683e+003, 4.595906e+001
1.279165e+003, 4.629879e+001
1.279647e+003, 4.645927e+001
1.280129e+003, 4.659334e+001
1.280611e+003, 4.696604e+001
1.281094e+003, 4.740736e+001
1.281576e+003, 4.753177e+001
1.282058e+003, 4.737366e+001
1.282540e+003, 4.718611e+001
1.283022e+003, 4.692496e+001
1.283504e+003, 4.687204e+001
1.283986e+003, 4.709843e+001
1.284468e+003, 4.738634e+001
1.284950e+003, 4.751641e+001
1.285433e+003, 4.757924e+001
1.285915e+003, 4.772243e+001
1.286397e+003, 4.790488e+001
1.286879e+003, 4.792871e+001
1.287361e+003, 4.770315e+001
1.287843e+003, 4.767676e+001
1.288325e+003, 4.791910e+001
1.288807e+003, 4.810983e+001
1.289290e+003, 4.783380e+001
1.289772e+003, 4.751523e+001
1.290254e+003, 4.756709e+001
1.290736e+003, 4.785387e+001
1.291218e+003, 4.802314e+001
1.291700e+003, 4.806965e+001
1.292182e+003, 4.804483e+001
1.292664e+003, 4.795245e+001
1.293146e+003, 4.788350e+001
1.293629e+003, 4.790899e+001
1.294111e+003, 4.796814e+001
1.294593e+003, 4.805875e+001
1.295075e+003, 4.814038e+001
1.295557e+003, 4.812939e+001
1.296039e+003, 4.804951e+001
1.296521e+003, 4.813709e+001
1.297003e+003, 4.837830e+001
1.297486e+003, 4.855373e+001
1.297968e+003, 4.850987e+001
1.298450e+003, 4.843143e+001
1.298932e+003, 4.833434e+001
1.299414e+003, 4.828062e+001
1.299896e+003, 4.833398e+001
1.300378e+003, 4.848824e+001
1.300860e+003, 4.881132e+001
1.301343e+003, 4.923734e+001
1.301825e+003, 4.949974e+001
##END=



