##NAMES=Rasvumite
##RRUFFID=R060491
##IDEAL CHEMISTRY=KFe_2_S^2-^_3_
##LOCALITY=Coyote Peak, Humboldt County, California, USA
##OWNER=RRUFF
##SOURCE=Michael Scott
##DESCRIPTION=Parallel aggregates of brownish-red fibers, associated with phlogopite, andradite, augite, pyrrhotite, magnetite, sulphur, and apatite.
##STATUS=The identification of this mineral has been confirmed by X-ray diffraction.
##URL=rruff.info/R060491
9.059570e+001, 4.939218e+002
9.107782e+001, 4.971656e+002
9.155994e+001, 4.983432e+002
9.204205e+001, 4.957662e+002
9.252417e+001, 4.922768e+002
9.300629e+001, 4.887852e+002
9.348840e+001, 4.831277e+002
9.397052e+001, 4.725887e+002
9.445264e+001, 4.568828e+002
9.493475e+001, 4.428812e+002
9.541687e+001, 4.296536e+002
9.589898e+001, 4.172621e+002
9.638110e+001, 4.058459e+002
9.686321e+001, 3.955038e+002
9.734533e+001, 3.859660e+002
9.782745e+001, 3.764724e+002
9.830956e+001, 3.682761e+002
9.879168e+001, 3.617065e+002
9.927380e+001, 3.556685e+002
9.975591e+001, 3.497914e+002
1.002380e+002, 3.440860e+002
1.007201e+002, 3.387767e+002
1.012023e+002, 3.339650e+002
1.016844e+002, 3.296578e+002
1.021665e+002, 3.256477e+002
1.026486e+002, 3.218558e+002
1.031307e+002, 3.183203e+002
1.036128e+002, 3.151030e+002
1.040950e+002, 3.121760e+002
1.045771e+002, 3.094980e+002
1.050592e+002, 3.069766e+002
1.055413e+002, 3.045823e+002
1.060234e+002, 3.023356e+002
1.065055e+002, 3.000767e+002
1.069877e+002, 2.979178e+002
1.074698e+002, 2.964521e+002
1.079519e+002, 2.965752e+002
1.084340e+002, 2.962399e+002
1.089161e+002, 2.945230e+002
1.093982e+002, 2.916715e+002
1.098804e+002, 2.883589e+002
1.103625e+002, 2.850331e+002
1.108446e+002, 2.815917e+002
1.113267e+002, 2.787501e+002
1.118088e+002, 2.766771e+002
1.122909e+002, 2.749846e+002
1.127731e+002, 2.736571e+002
1.132552e+002, 2.726169e+002
1.137373e+002, 2.716338e+002
1.142194e+002, 2.703811e+002
1.147015e+002, 2.685733e+002
1.151836e+002, 2.669768e+002
1.156658e+002, 2.656875e+002
1.161479e+002, 2.645459e+002
1.166300e+002, 2.633908e+002
1.171121e+002, 2.621583e+002
1.175942e+002, 2.609093e+002
1.180763e+002, 2.598253e+002
1.185584e+002, 2.590113e+002
1.190406e+002, 2.581055e+002
1.195227e+002, 2.568477e+002
1.200048e+002, 2.553920e+002
1.204869e+002, 2.541586e+002
1.209690e+002, 2.533616e+002
1.214511e+002, 2.529165e+002
1.219333e+002, 2.525503e+002
1.224154e+002, 2.522856e+002
1.228975e+002, 2.520555e+002
1.233796e+002, 2.517252e+002
1.238617e+002, 2.512514e+002
1.243438e+002, 2.510236e+002
1.248260e+002, 2.513233e+002
1.253081e+002, 2.519385e+002
1.257902e+002, 2.526865e+002
1.262723e+002, 2.534135e+002
1.267544e+002, 2.543453e+002
1.272365e+002, 2.558758e+002
1.277187e+002, 2.576444e+002
1.282008e+002, 2.608472e+002
1.286829e+002, 2.659357e+002
1.291650e+002, 2.723810e+002
1.296471e+002, 2.795130e+002
1.301292e+002, 2.869656e+002
1.306114e+002, 2.947329e+002
1.310935e+002, 3.027119e+002
1.315756e+002, 3.101024e+002
1.320577e+002, 3.185771e+002
1.325398e+002, 3.288356e+002
1.330219e+002, 3.406062e+002
1.335041e+002, 3.531103e+002
1.339862e+002, 3.657477e+002
1.344683e+002, 3.785781e+002
1.349504e+002, 3.915338e+002
1.354325e+002, 4.048835e+002
1.359146e+002, 4.181453e+002
1.363968e+002, 4.309452e+002
1.368789e+002, 4.432677e+002
1.373610e+002, 4.554174e+002
1.378431e+002, 4.675721e+002
1.383252e+002, 4.798156e+002
1.388073e+002, 4.918763e+002
1.392895e+002, 5.030835e+002
1.397716e+002, 5.143867e+002
1.402537e+002, 5.267329e+002
1.407358e+002, 5.401673e+002
1.412179e+002, 5.550870e+002
1.417000e+002, 5.718426e+002
1.421821e+002, 5.901005e+002
1.426643e+002, 6.105670e+002
1.431464e+002, 6.335600e+002
1.436285e+002, 6.589905e+002
1.441106e+002, 6.864124e+002
1.445927e+002, 7.145326e+002
1.450748e+002, 7.465964e+002
1.455570e+002, 7.837776e+002
1.460391e+002, 8.260878e+002
1.465212e+002, 8.744101e+002
1.470033e+002, 9.302367e+002
1.474854e+002, 9.940964e+002
1.479675e+002, 1.061275e+003
1.484497e+002, 1.137136e+003
1.489318e+002, 1.212895e+003
1.494139e+002, 1.283537e+003
1.498960e+002, 1.347806e+003
1.503781e+002, 1.409144e+003
1.508602e+002, 1.472273e+003
1.513424e+002, 1.540405e+003
1.518245e+002, 1.604197e+003
1.523066e+002, 1.674182e+003
1.527887e+002, 1.734810e+003
1.532708e+002, 1.774528e+003
1.537529e+002, 1.788750e+003
1.542351e+002, 1.780985e+003
1.547172e+002, 1.759725e+003
1.551993e+002, 1.728703e+003
1.556814e+002, 1.675911e+003
1.561635e+002, 1.593105e+003
1.566456e+002, 1.490963e+003
1.571278e+002, 1.381086e+003
1.576099e+002, 1.268845e+003
1.580920e+002, 1.154459e+003
1.585741e+002, 1.038698e+003
1.590562e+002, 9.109992e+002
1.595383e+002, 7.934244e+002
1.600205e+002, 6.904631e+002
1.605026e+002, 6.018576e+002
1.609847e+002, 5.272112e+002
1.614668e+002, 4.677753e+002
1.619489e+002, 4.227853e+002
1.624310e+002, 3.851917e+002
1.629131e+002, 3.562564e+002
1.633953e+002, 3.326812e+002
1.638774e+002, 3.138665e+002
1.643595e+002, 2.995386e+002
1.648416e+002, 2.875153e+002
1.653237e+002, 2.769807e+002
1.658058e+002, 2.679126e+002
1.662880e+002, 2.599864e+002
1.667701e+002, 2.534292e+002
1.672522e+002, 2.477601e+002
1.677343e+002, 2.425060e+002
1.682164e+002, 2.376634e+002
1.686985e+002, 2.332974e+002
1.691807e+002, 2.296733e+002
1.696628e+002, 2.265162e+002
1.701449e+002, 2.235323e+002
1.706270e+002, 2.206275e+002
1.711091e+002, 2.178366e+002
1.715912e+002, 2.151979e+002
1.720734e+002, 2.125623e+002
1.725555e+002, 2.104143e+002
1.730376e+002, 2.089397e+002
1.735197e+002, 2.079555e+002
1.740018e+002, 2.072292e+002
1.744839e+002, 2.066841e+002
1.749661e+002, 2.062825e+002
1.754482e+002, 2.057796e+002
1.759303e+002, 2.047981e+002
1.764124e+002, 2.041709e+002
1.768945e+002, 2.042960e+002
1.773766e+002, 2.049143e+002
1.778588e+002, 2.055370e+002
1.783409e+002, 2.057621e+002
1.788230e+002, 2.055832e+002
1.793051e+002, 2.059886e+002
1.797872e+002, 2.073138e+002
1.802693e+002, 2.088838e+002
1.807515e+002, 2.104843e+002
1.812336e+002, 2.121619e+002
1.817157e+002, 2.140867e+002
1.821978e+002, 2.164320e+002
1.826799e+002, 2.192507e+002
1.831620e+002, 2.219749e+002
1.836441e+002, 2.244924e+002
1.841263e+002, 2.270328e+002
1.846084e+002, 2.296301e+002
1.850905e+002, 2.323202e+002
1.855726e+002, 2.352648e+002
1.860547e+002, 2.387535e+002
1.865368e+002, 2.429259e+002
1.870190e+002, 2.458683e+002
1.875011e+002, 2.480769e+002
1.879832e+002, 2.487888e+002
1.884653e+002, 2.470475e+002
1.889474e+002, 2.428308e+002
1.894296e+002, 2.374950e+002
1.899117e+002, 2.319778e+002
1.903938e+002, 2.263336e+002
1.908759e+002, 2.212816e+002
1.913580e+002, 2.165402e+002
1.918401e+002, 2.126219e+002
1.923223e+002, 2.102066e+002
1.928044e+002, 2.094723e+002
1.932865e+002, 2.097076e+002
1.937686e+002, 2.103383e+002
1.942507e+002, 2.113747e+002
1.947328e+002, 2.132026e+002
1.952150e+002, 2.159421e+002
1.956971e+002, 2.195575e+002
1.961792e+002, 2.241054e+002
1.966613e+002, 2.298396e+002
1.971434e+002, 2.359992e+002
1.976255e+002, 2.419187e+002
1.981077e+002, 2.477824e+002
1.985898e+002, 2.539928e+002
1.990719e+002, 2.597378e+002
1.995540e+002, 2.657668e+002
2.000361e+002, 2.753401e+002
2.005182e+002, 2.896781e+002
2.010004e+002, 3.064390e+002
2.014825e+002, 3.260853e+002
2.019646e+002, 3.470201e+002
2.024467e+002, 3.652337e+002
2.029288e+002, 3.778965e+002
2.034109e+002, 3.852122e+002
2.038930e+002, 3.897691e+002
2.043752e+002, 3.878534e+002
2.048573e+002, 3.869372e+002
2.053394e+002, 3.893642e+002
2.058215e+002, 3.949958e+002
2.063036e+002, 4.030103e+002
2.067857e+002, 4.127272e+002
2.072679e+002, 4.241192e+002
2.077500e+002, 4.377900e+002
2.082321e+002, 4.540926e+002
2.087142e+002, 4.725687e+002
2.091963e+002, 4.930435e+002
2.096784e+002, 5.155980e+002
2.101606e+002, 5.403858e+002
2.106427e+002, 5.674947e+002
2.111248e+002, 5.966227e+002
2.116069e+002, 6.295013e+002
2.120890e+002, 6.631282e+002
2.125711e+002, 7.026110e+002
2.130533e+002, 7.492057e+002
2.135354e+002, 8.034120e+002
2.140175e+002, 8.668843e+002
2.144996e+002, 9.421802e+002
2.149817e+002, 1.031867e+003
2.154638e+002, 1.116282e+003
2.159460e+002, 1.203174e+003
2.164281e+002, 1.279842e+003
2.169102e+002, 1.330703e+003
2.173923e+002, 1.361564e+003
2.178744e+002, 1.397552e+003
2.183565e+002, 1.461141e+003
2.188387e+002, 1.555778e+003
2.193208e+002, 1.658941e+003
2.198029e+002, 1.835297e+003
2.202850e+002, 1.968685e+003
2.207671e+002, 1.988285e+003
2.212492e+002, 1.893015e+003
2.217314e+002, 1.718651e+003
2.222135e+002, 1.476426e+003
2.226956e+002, 1.162245e+003
2.231777e+002, 9.064568e+002
2.236598e+002, 7.239298e+002
2.241419e+002, 5.869059e+002
2.246240e+002, 4.828535e+002
2.251062e+002, 4.092879e+002
2.255883e+002, 3.559990e+002
2.260704e+002, 3.187515e+002
2.265525e+002, 2.974250e+002
2.270346e+002, 2.811582e+002
2.275167e+002, 2.714840e+002
2.279989e+002, 2.653666e+002
2.284810e+002, 2.605823e+002
2.289631e+002, 2.570410e+002
2.294452e+002, 2.545682e+002
2.299273e+002, 2.533052e+002
2.304094e+002, 2.530980e+002
2.308916e+002, 2.534934e+002
2.313737e+002, 2.546398e+002
2.318558e+002, 2.562454e+002
2.323379e+002, 2.580338e+002
2.328200e+002, 2.600147e+002
2.333021e+002, 2.621070e+002
2.337843e+002, 2.643625e+002
2.342664e+002, 2.666891e+002
2.347485e+002, 2.689226e+002
2.352306e+002, 2.708357e+002
2.357127e+002, 2.727956e+002
2.361948e+002, 2.754927e+002
2.366770e+002, 2.791864e+002
2.371591e+002, 2.825991e+002
2.376412e+002, 2.845954e+002
2.381233e+002, 2.861020e+002
2.386054e+002, 2.881767e+002
2.390875e+002, 2.912652e+002
2.395697e+002, 2.948875e+002
2.400518e+002, 2.981362e+002
2.405339e+002, 3.007266e+002
2.410160e+002, 3.039285e+002
2.414981e+002, 3.080532e+002
2.419802e+002, 3.130664e+002
2.424624e+002, 3.190562e+002
2.429445e+002, 3.260538e+002
2.434266e+002, 3.339834e+002
2.439087e+002, 3.427863e+002
2.443908e+002, 3.525831e+002
2.448729e+002, 3.629351e+002
2.453550e+002, 3.745562e+002
2.458372e+002, 3.861815e+002
2.463193e+002, 3.971963e+002
2.468014e+002, 4.075043e+002
2.472835e+002, 4.159673e+002
2.477656e+002, 4.206303e+002
2.482477e+002, 4.207324e+002
2.487299e+002, 4.184772e+002
2.492120e+002, 4.142655e+002
2.496941e+002, 4.082501e+002
2.501762e+002, 4.005946e+002
2.506583e+002, 3.913116e+002
2.511404e+002, 3.801364e+002
2.516226e+002, 3.661761e+002
2.521047e+002, 3.480749e+002
2.525868e+002, 3.303363e+002
2.530689e+002, 3.126474e+002
2.535510e+002, 2.958560e+002
2.540331e+002, 2.804228e+002
2.545153e+002, 2.665248e+002
2.549974e+002, 2.540258e+002
2.554795e+002, 2.426928e+002
2.559616e+002, 2.327590e+002
2.564437e+002, 2.237144e+002
2.569258e+002, 2.150951e+002
2.574080e+002, 2.074628e+002
2.578901e+002, 2.013747e+002
2.583722e+002, 1.968361e+002
2.588543e+002, 1.931558e+002
2.593364e+002, 1.893901e+002
2.598185e+002, 1.852425e+002
2.603007e+002, 1.818204e+002
2.607828e+002, 1.792465e+002
2.612649e+002, 1.771006e+002
2.617470e+002, 1.752381e+002
2.622291e+002, 1.735767e+002
2.627112e+002, 1.720256e+002
2.631934e+002, 1.704633e+002
2.636755e+002, 1.688445e+002
2.641576e+002, 1.673948e+002
2.646397e+002, 1.661306e+002
2.651218e+002, 1.649866e+002
2.656039e+002, 1.639212e+002
2.660861e+002, 1.629422e+002
2.665682e+002, 1.620969e+002
2.670503e+002, 1.614446e+002
2.675324e+002, 1.610198e+002
2.680145e+002, 1.605946e+002
2.684966e+002, 1.601560e+002
2.689788e+002, 1.597286e+002
2.694609e+002, 1.591117e+002
2.699430e+002, 1.584587e+002
2.704251e+002, 1.582951e+002
2.709072e+002, 1.591549e+002
2.713893e+002, 1.610913e+002
2.718715e+002, 1.622809e+002
2.723536e+002, 1.628964e+002
2.728357e+002, 1.627878e+002
2.733178e+002, 1.614832e+002
2.737999e+002, 1.593409e+002
2.742820e+002, 1.572318e+002
2.747642e+002, 1.557112e+002
2.752463e+002, 1.547562e+002
2.757284e+002, 1.541657e+002
2.762105e+002, 1.541389e+002
2.766926e+002, 1.541613e+002
2.771747e+002, 1.539492e+002
2.776568e+002, 1.536515e+002
2.781389e+002, 1.536869e+002
2.786211e+002, 1.543598e+002
2.791032e+002, 1.554272e+002
2.795853e+002, 1.558057e+002
2.800674e+002, 1.549308e+002
2.805495e+002, 1.541823e+002
2.810316e+002, 1.539644e+002
2.815138e+002, 1.540967e+002
2.819959e+002, 1.542378e+002
2.824780e+002, 1.542236e+002
2.829601e+002, 1.541943e+002
2.834422e+002, 1.545684e+002
2.839243e+002, 1.557223e+002
2.844065e+002, 1.565222e+002
2.848886e+002, 1.564375e+002
2.853707e+002, 1.559394e+002
2.858528e+002, 1.557637e+002
2.863349e+002, 1.561778e+002
2.868170e+002, 1.568089e+002
2.872992e+002, 1.569510e+002
2.877813e+002, 1.563352e+002
2.882634e+002, 1.561725e+002
2.887455e+002, 1.569326e+002
2.892276e+002, 1.581339e+002
2.897097e+002, 1.592439e+002
2.901919e+002, 1.601462e+002
2.906740e+002, 1.608814e+002
2.911561e+002, 1.614491e+002
2.916382e+002, 1.618090e+002
2.921203e+002, 1.623149e+002
2.926024e+002, 1.630940e+002
2.930846e+002, 1.639822e+002
2.935667e+002, 1.648171e+002
2.940488e+002, 1.655816e+002
2.945309e+002, 1.663558e+002
2.950130e+002, 1.672384e+002
2.954951e+002, 1.682279e+002
2.959773e+002, 1.691074e+002
2.964594e+002, 1.696708e+002
2.969415e+002, 1.702641e+002
2.974236e+002, 1.713442e+002
2.979057e+002, 1.728515e+002
2.983878e+002, 1.740659e+002
2.988700e+002, 1.744110e+002
2.993521e+002, 1.739819e+002
2.998342e+002, 1.737040e+002
3.003163e+002, 1.736799e+002
3.007984e+002, 1.737105e+002
3.012805e+002, 1.737712e+002
3.017627e+002, 1.738194e+002
3.022448e+002, 1.736544e+002
3.027269e+002, 1.731174e+002
3.032090e+002, 1.723260e+002
3.036911e+002, 1.716486e+002
3.041732e+002, 1.711160e+002
3.046554e+002, 1.706282e+002
3.051375e+002, 1.701243e+002
3.056196e+002, 1.696308e+002
3.061017e+002, 1.692598e+002
3.065838e+002, 1.691183e+002
3.070659e+002, 1.689995e+002
3.075481e+002, 1.684601e+002
3.080302e+002, 1.674322e+002
3.085123e+002, 1.663913e+002
3.089944e+002, 1.654905e+002
3.094765e+002, 1.646767e+002
3.099586e+002, 1.638574e+002
3.104408e+002, 1.630020e+002
3.109229e+002, 1.621794e+002
3.114050e+002, 1.614939e+002
3.118871e+002, 1.609367e+002
3.123692e+002, 1.604592e+002
3.128513e+002, 1.601662e+002
3.133335e+002, 1.598952e+002
3.138156e+002, 1.594236e+002
3.142977e+002, 1.587148e+002
3.147798e+002, 1.579426e+002
3.152619e+002, 1.572288e+002
3.157440e+002, 1.565798e+002
3.162262e+002, 1.560444e+002
3.167083e+002, 1.557607e+002
3.171904e+002, 1.554971e+002
3.176725e+002, 1.550462e+002
3.181546e+002, 1.544097e+002
3.186367e+002, 1.537317e+002
3.191188e+002, 1.530519e+002
3.196010e+002, 1.524242e+002
3.200831e+002, 1.520134e+002
3.205652e+002, 1.519548e+002
3.210473e+002, 1.519687e+002
3.215294e+002, 1.519343e+002
3.220115e+002, 1.518533e+002
3.224937e+002, 1.517155e+002
3.229758e+002, 1.514901e+002
3.234579e+002, 1.512372e+002
3.239400e+002, 1.511420e+002
3.244221e+002, 1.513450e+002
3.249042e+002, 1.513845e+002
3.253864e+002, 1.508771e+002
3.258685e+002, 1.501262e+002
3.263506e+002, 1.497278e+002
3.268327e+002, 1.498983e+002
3.273148e+002, 1.503634e+002
3.277969e+002, 1.507311e+002
3.282791e+002, 1.509965e+002
3.287612e+002, 1.512298e+002
3.292433e+002, 1.515200e+002
3.297254e+002, 1.517486e+002
3.302075e+002, 1.517064e+002
3.306896e+002, 1.513572e+002
3.311718e+002, 1.510031e+002
3.316539e+002, 1.509670e+002
3.321360e+002, 1.512807e+002
3.326181e+002, 1.515070e+002
3.331002e+002, 1.515196e+002
3.335823e+002, 1.515249e+002
3.340645e+002, 1.516864e+002
3.345466e+002, 1.519963e+002
3.350287e+002, 1.523302e+002
3.355108e+002, 1.525811e+002
3.359929e+002, 1.527839e+002
3.364750e+002, 1.531618e+002
3.369572e+002, 1.538930e+002
3.374393e+002, 1.545940e+002
3.379214e+002, 1.550853e+002
3.384035e+002, 1.554238e+002
3.388856e+002, 1.557529e+002
3.393677e+002, 1.561478e+002
3.398499e+002, 1.565520e+002
3.403320e+002, 1.567820e+002
3.408141e+002, 1.566245e+002
3.412962e+002, 1.566962e+002
3.417783e+002, 1.573034e+002
3.422604e+002, 1.581365e+002
3.427426e+002, 1.587773e+002
3.432247e+002, 1.591039e+002
3.437068e+002, 1.593139e+002
3.441889e+002, 1.596797e+002
3.446710e+002, 1.602761e+002
3.451531e+002, 1.608288e+002
3.456353e+002, 1.613033e+002
3.461174e+002, 1.617537e+002
3.465995e+002, 1.622669e+002
3.470816e+002, 1.628234e+002
3.475637e+002, 1.632656e+002
3.480458e+002, 1.634025e+002
3.485280e+002, 1.632091e+002
3.490101e+002, 1.633559e+002
3.494922e+002, 1.642583e+002
3.499743e+002, 1.650254e+002
3.504564e+002, 1.650470e+002
3.509385e+002, 1.646232e+002
3.514207e+002, 1.644738e+002
3.519028e+002, 1.650274e+002
3.523849e+002, 1.661529e+002
3.528670e+002, 1.673115e+002
3.533491e+002, 1.688568e+002
3.538312e+002, 1.699969e+002
3.543134e+002, 1.705244e+002
3.547955e+002, 1.706398e+002
3.552776e+002, 1.704639e+002
3.557597e+002, 1.700558e+002
3.562418e+002, 1.696433e+002
3.567239e+002, 1.696133e+002
3.572061e+002, 1.701237e+002
3.576882e+002, 1.707425e+002
3.581703e+002, 1.714906e+002
3.586524e+002, 1.723193e+002
3.591345e+002, 1.732057e+002
3.596166e+002, 1.741424e+002
3.600987e+002, 1.751115e+002
3.605808e+002, 1.761046e+002
3.610630e+002, 1.771252e+002
3.615451e+002, 1.781328e+002
3.620272e+002, 1.788627e+002
3.625093e+002, 1.798474e+002
3.629914e+002, 1.813823e+002
3.634735e+002, 1.833017e+002
3.639557e+002, 1.852921e+002
3.644378e+002, 1.871839e+002
3.649199e+002, 1.889541e+002
3.654020e+002, 1.904704e+002
3.658841e+002, 1.911269e+002
3.663662e+002, 1.923981e+002
3.668484e+002, 1.947861e+002
3.673305e+002, 1.976592e+002
3.678126e+002, 2.004651e+002
3.682947e+002, 2.030003e+002
3.687768e+002, 2.053443e+002
3.692589e+002, 2.075680e+002
3.697411e+002, 2.095110e+002
3.702232e+002, 2.117781e+002
3.707053e+002, 2.148022e+002
3.711874e+002, 2.177934e+002
3.716695e+002, 2.203068e+002
3.721516e+002, 2.223699e+002
3.726338e+002, 2.243667e+002
3.731159e+002, 2.266241e+002
3.735980e+002, 2.291284e+002
3.740801e+002, 2.315681e+002
3.745622e+002, 2.337770e+002
3.750443e+002, 2.361415e+002
3.755265e+002, 2.391799e+002
3.760086e+002, 2.423678e+002
3.764907e+002, 2.448333e+002
3.769728e+002, 2.460874e+002
3.774549e+002, 2.465805e+002
3.779370e+002, 2.473713e+002
3.784192e+002, 2.486995e+002
3.789013e+002, 2.496360e+002
3.793834e+002, 2.497217e+002
3.798655e+002, 2.494484e+002
3.803476e+002, 2.491473e+002
3.808297e+002, 2.488862e+002
3.813119e+002, 2.485897e+002
3.817940e+002, 2.482915e+002
3.822761e+002, 2.479839e+002
3.827582e+002, 2.472029e+002
3.832403e+002, 2.456541e+002
3.837224e+002, 2.438682e+002
3.842046e+002, 2.421433e+002
3.846867e+002, 2.404969e+002
3.851688e+002, 2.389271e+002
3.856509e+002, 2.375783e+002
3.861330e+002, 2.362966e+002
3.866151e+002, 2.346612e+002
3.870973e+002, 2.325748e+002
3.875794e+002, 2.304988e+002
3.880615e+002, 2.286839e+002
3.885436e+002, 2.270401e+002
3.890257e+002, 2.254605e+002
3.895078e+002, 2.239402e+002
3.899900e+002, 2.224498e+002
3.904721e+002, 2.209476e+002
3.909542e+002, 2.194375e+002
3.914363e+002, 2.180182e+002
3.919184e+002, 2.167759e+002
3.924005e+002, 2.155700e+002
3.928827e+002, 2.141805e+002
3.933648e+002, 2.125938e+002
3.938469e+002, 2.110487e+002
3.943290e+002, 2.097188e+002
3.948111e+002, 2.084672e+002
3.952932e+002, 2.070097e+002
3.957754e+002, 2.052622e+002
3.962575e+002, 2.036711e+002
3.967396e+002, 2.027697e+002
3.972217e+002, 2.024699e+002
3.977038e+002, 2.016907e+002
3.981859e+002, 1.999216e+002
3.986681e+002, 1.980591e+002
3.991501e+002, 1.966530e+002
3.996323e+002, 1.956474e+002
4.001144e+002, 1.948452e+002
4.005965e+002, 1.942243e+002
4.010786e+002, 1.936205e+002
4.015607e+002, 1.925095e+002
4.020428e+002, 1.904689e+002
4.025250e+002, 1.887375e+002
4.030071e+002, 1.877801e+002
4.034892e+002, 1.871254e+002
4.039713e+002, 1.861656e+002
4.044534e+002, 1.847874e+002
4.049355e+002, 1.834298e+002
4.054177e+002, 1.826362e+002
4.058998e+002, 1.825620e+002
4.063819e+002, 1.823249e+002
4.068640e+002, 1.818857e+002
4.073461e+002, 1.813467e+002
4.078282e+002, 1.806535e+002
4.083104e+002, 1.798971e+002
4.087925e+002, 1.792822e+002
4.092746e+002, 1.789420e+002
4.097567e+002, 1.788146e+002
4.102388e+002, 1.786040e+002
4.107209e+002, 1.781760e+002
4.112031e+002, 1.778403e+002
4.116852e+002, 1.777833e+002
4.121673e+002, 1.777406e+002
4.126494e+002, 1.773522e+002
4.131315e+002, 1.765714e+002
4.136136e+002, 1.757959e+002
4.140958e+002, 1.755639e+002
4.145779e+002, 1.759749e+002
4.150600e+002, 1.765348e+002
4.155421e+002, 1.774663e+002
4.160242e+002, 1.783401e+002
4.165063e+002, 1.789209e+002
4.169885e+002, 1.793070e+002
4.174706e+002, 1.797300e+002
4.179527e+002, 1.803195e+002
4.184348e+002, 1.810755e+002
4.189169e+002, 1.819796e+002
4.193990e+002, 1.829266e+002
4.198812e+002, 1.842651e+002
4.203633e+002, 1.864301e+002
4.208454e+002, 1.888244e+002
4.213275e+002, 1.909213e+002
4.218096e+002, 1.925935e+002
4.222917e+002, 1.939858e+002
4.227739e+002, 1.950736e+002
4.232560e+002, 1.958849e+002
4.237381e+002, 1.970746e+002
4.242202e+002, 1.988687e+002
4.247023e+002, 2.008956e+002
4.251844e+002, 2.030537e+002
4.256666e+002, 2.052373e+002
4.261487e+002, 2.070607e+002
4.266308e+002, 2.080586e+002
4.271129e+002, 2.087426e+002
4.275950e+002, 2.098344e+002
4.280771e+002, 2.113535e+002
4.285593e+002, 2.131409e+002
4.290414e+002, 2.152625e+002
4.295235e+002, 2.175264e+002
4.300056e+002, 2.195181e+002
4.304877e+002, 2.212109e+002
4.309698e+002, 2.226970e+002
4.314520e+002, 2.239734e+002
4.319341e+002, 2.250766e+002
4.324162e+002, 2.260493e+002
4.328983e+002, 2.268816e+002
4.333804e+002, 2.276955e+002
4.338625e+002, 2.285996e+002
4.343447e+002, 2.295905e+002
4.348268e+002, 2.308062e+002
4.353089e+002, 2.325045e+002
4.357910e+002, 2.342127e+002
4.362731e+002, 2.358051e+002
4.367552e+002, 2.371614e+002
4.372374e+002, 2.379298e+002
4.377195e+002, 2.378476e+002
4.382016e+002, 2.371422e+002
4.386837e+002, 2.366805e+002
4.391658e+002, 2.377220e+002
4.396479e+002, 2.373653e+002
4.401301e+002, 2.351294e+002
4.406122e+002, 2.315783e+002
4.410943e+002, 2.271821e+002
4.415764e+002, 2.220821e+002
4.420585e+002, 2.161364e+002
4.425406e+002, 2.090864e+002
4.430227e+002, 2.006967e+002
4.435049e+002, 1.928093e+002
4.439870e+002, 1.854265e+002
4.444691e+002, 1.785813e+002
4.449512e+002, 1.721845e+002
4.454333e+002, 1.664095e+002
4.459154e+002, 1.614275e+002
4.463976e+002, 1.573652e+002
4.468797e+002, 1.542126e+002
4.473618e+002, 1.520269e+002
4.478439e+002, 1.509941e+002
4.483260e+002, 1.503855e+002
4.488081e+002, 1.500046e+002
4.492903e+002, 1.500600e+002
4.497724e+002, 1.507722e+002
4.502545e+002, 1.521204e+002
4.507366e+002, 1.538329e+002
4.512187e+002, 1.556233e+002
4.517008e+002, 1.575901e+002
4.521830e+002, 1.601330e+002
4.526651e+002, 1.633040e+002
4.531472e+002, 1.669082e+002
4.536293e+002, 1.707624e+002
4.541114e+002, 1.749994e+002
4.545935e+002, 1.798600e+002
4.550757e+002, 1.852592e+002
4.555578e+002, 1.915186e+002
4.560399e+002, 1.991407e+002
4.565220e+002, 2.079148e+002
4.570041e+002, 2.170965e+002
4.574862e+002, 2.265374e+002
4.579684e+002, 2.362177e+002
4.584505e+002, 2.463240e+002
4.589326e+002, 2.568595e+002
4.594147e+002, 2.669571e+002
4.598968e+002, 2.759369e+002
4.603789e+002, 2.847570e+002
4.608611e+002, 2.940317e+002
4.613432e+002, 3.038681e+002
4.618253e+002, 3.143571e+002
4.623074e+002, 3.255494e+002
4.627895e+002, 3.375321e+002
4.632716e+002, 3.510216e+002
4.637538e+002, 3.661002e+002
4.642359e+002, 3.824493e+002
4.647180e+002, 3.998948e+002
4.652001e+002, 4.188285e+002
4.656822e+002, 4.396399e+002
4.661643e+002, 4.624586e+002
4.666465e+002, 4.868712e+002
4.671286e+002, 5.123566e+002
4.676107e+002, 5.390675e+002
4.680928e+002, 5.673795e+002
4.685749e+002, 5.978467e+002
4.690570e+002, 6.294023e+002
4.695392e+002, 6.614658e+002
4.700213e+002, 6.944861e+002
4.705034e+002, 7.291743e+002
4.709855e+002, 7.659221e+002
4.714676e+002, 8.036298e+002
4.719497e+002, 8.419358e+002
4.724319e+002, 8.828683e+002
4.729140e+002, 9.154718e+002
4.733961e+002, 9.426699e+002
4.738782e+002, 9.559651e+002
4.743603e+002, 9.506721e+002
4.748424e+002, 9.270723e+002
4.753246e+002, 8.872830e+002
4.758067e+002, 8.272275e+002
4.762888e+002, 7.538215e+002
4.767709e+002, 6.790167e+002
4.772530e+002, 6.019699e+002
4.777351e+002, 5.306066e+002
4.782173e+002, 4.681726e+002
4.786994e+002, 4.145046e+002
4.791815e+002, 3.687614e+002
4.796636e+002, 3.315433e+002
4.801457e+002, 3.002052e+002
4.806278e+002, 2.745269e+002
4.811100e+002, 2.536119e+002
4.815920e+002, 2.360525e+002
4.820742e+002, 2.216465e+002
4.825563e+002, 2.098074e+002
4.830384e+002, 2.003166e+002
4.835205e+002, 1.932458e+002
4.840026e+002, 1.864669e+002
4.844847e+002, 1.794704e+002
4.849669e+002, 1.733035e+002
4.854490e+002, 1.686551e+002
4.859311e+002, 1.650438e+002
4.864132e+002, 1.616527e+002
4.868953e+002, 1.581628e+002
4.873774e+002, 1.547915e+002
4.878596e+002, 1.519470e+002
4.883417e+002, 1.498251e+002
4.888238e+002, 1.476535e+002
4.893059e+002, 1.451159e+002
4.897880e+002, 1.428400e+002
4.902701e+002, 1.409468e+002
4.907523e+002, 1.395762e+002
4.912344e+002, 1.391897e+002
4.917165e+002, 1.402873e+002
4.921986e+002, 1.419243e+002
4.926807e+002, 1.412132e+002
4.931628e+002, 1.370439e+002
4.936450e+002, 1.336053e+002
4.941271e+002, 1.322185e+002
4.946092e+002, 1.315588e+002
4.950913e+002, 1.308397e+002
4.955734e+002, 1.300036e+002
4.960555e+002, 1.293667e+002
4.965377e+002, 1.294641e+002
4.970198e+002, 1.299061e+002
4.975019e+002, 1.294716e+002
4.979840e+002, 1.279289e+002
4.984661e+002, 1.264943e+002
4.989482e+002, 1.259205e+002
4.994304e+002, 1.258470e+002
4.999125e+002, 1.255651e+002
5.003946e+002, 1.249758e+002
5.008767e+002, 1.243318e+002
5.013588e+002, 1.236901e+002
5.018409e+002, 1.230926e+002
5.023231e+002, 1.225972e+002
5.028052e+002, 1.222174e+002
5.032873e+002, 1.219703e+002
5.037694e+002, 1.219253e+002
5.042515e+002, 1.220921e+002
5.047336e+002, 1.219763e+002
5.052158e+002, 1.212358e+002
5.056979e+002, 1.206278e+002
5.061800e+002, 1.204382e+002
5.066621e+002, 1.205484e+002
5.071442e+002, 1.208510e+002
5.076263e+002, 1.212893e+002
5.081085e+002, 1.216704e+002
5.085906e+002, 1.216429e+002
5.090727e+002, 1.210064e+002
5.095548e+002, 1.206853e+002
5.100369e+002, 1.209373e+002
5.105190e+002, 1.212480e+002
5.110012e+002, 1.215316e+002
5.114833e+002, 1.217161e+002
5.119654e+002, 1.216674e+002
5.124475e+002, 1.212755e+002
5.129296e+002, 1.207615e+002
5.134117e+002, 1.205341e+002
5.138939e+002, 1.206252e+002
5.143760e+002, 1.207595e+002
5.148581e+002, 1.209352e+002
5.153402e+002, 1.210781e+002
5.158223e+002, 1.210911e+002
5.163044e+002, 1.210002e+002
5.167866e+002, 1.209765e+002
5.172687e+002, 1.211696e+002
5.177508e+002, 1.214247e+002
5.182329e+002, 1.214991e+002
5.187150e+002, 1.214093e+002
5.191971e+002, 1.214261e+002
5.196793e+002, 1.217179e+002
5.201614e+002, 1.221448e+002
5.206435e+002, 1.223485e+002
5.211256e+002, 1.221923e+002
5.216077e+002, 1.222539e+002
5.220898e+002, 1.228403e+002
5.225720e+002, 1.235353e+002
5.230541e+002, 1.240425e+002
5.235362e+002, 1.243077e+002
5.240183e+002, 1.242830e+002
5.245004e+002, 1.238761e+002
5.249825e+002, 1.232276e+002
5.254647e+002, 1.230818e+002
5.259468e+002, 1.239683e+002
5.264289e+002, 1.246156e+002
5.269110e+002, 1.248045e+002
5.273931e+002, 1.248027e+002
5.278752e+002, 1.248349e+002
5.283574e+002, 1.249204e+002
5.288395e+002, 1.249201e+002
5.293216e+002, 1.246536e+002
5.298037e+002, 1.241861e+002
5.302858e+002, 1.239885e+002
5.307679e+002, 1.243185e+002
5.312501e+002, 1.243186e+002
5.317322e+002, 1.231036e+002
5.322143e+002, 1.216159e+002
5.326964e+002, 1.209353e+002
5.331785e+002, 1.213391e+002
5.336606e+002, 1.217212e+002
5.341428e+002, 1.212664e+002
5.346249e+002, 1.202917e+002
5.351070e+002, 1.194790e+002
5.355891e+002, 1.189256e+002
5.360712e+002, 1.183712e+002
5.365533e+002, 1.175668e+002
5.370355e+002, 1.165926e+002
5.375176e+002, 1.159447e+002
5.379997e+002, 1.157547e+002
5.384818e+002, 1.156941e+002
5.389639e+002, 1.157880e+002
5.394460e+002, 1.159054e+002
5.399282e+002, 1.158633e+002
5.404103e+002, 1.156346e+002
5.408924e+002, 1.153521e+002
5.413745e+002, 1.151635e+002
5.418566e+002, 1.150745e+002
5.423387e+002, 1.148774e+002
5.428209e+002, 1.144190e+002
5.433029e+002, 1.140350e+002
5.437850e+002, 1.138800e+002
5.442672e+002, 1.137923e+002
5.447493e+002, 1.135466e+002
5.452314e+002, 1.130937e+002
5.457135e+002, 1.126663e+002
5.461956e+002, 1.125891e+002
5.466777e+002, 1.128219e+002
5.471599e+002, 1.128788e+002
5.476420e+002, 1.126845e+002
5.481241e+002, 1.124207e+002
5.486062e+002, 1.121337e+002
5.490883e+002, 1.118663e+002
5.495704e+002, 1.117125e+002
5.500526e+002, 1.117624e+002
5.505347e+002, 1.117693e+002
5.510168e+002, 1.115536e+002
5.514989e+002, 1.111877e+002
5.519810e+002, 1.107733e+002
5.524631e+002, 1.103270e+002
5.529453e+002, 1.100056e+002
5.534274e+002, 1.100121e+002
5.539095e+002, 1.103477e+002
5.543916e+002, 1.103666e+002
5.548737e+002, 1.098181e+002
5.553558e+002, 1.093026e+002
5.558380e+002, 1.089912e+002
5.563201e+002, 1.087983e+002
5.568022e+002, 1.086234e+002
5.572843e+002, 1.084361e+002
5.577664e+002, 1.082638e+002
5.582485e+002, 1.081608e+002
5.587307e+002, 1.081354e+002
5.592128e+002, 1.079573e+002
5.596949e+002, 1.075178e+002
5.601770e+002, 1.070797e+002
5.606591e+002, 1.067360e+002
5.611412e+002, 1.064408e+002
5.616234e+002, 1.061577e+002
5.621055e+002, 1.058861e+002
5.625876e+002, 1.055439e+002
5.630697e+002, 1.050017e+002
5.635518e+002, 1.043276e+002
5.640339e+002, 1.037388e+002
5.645161e+002, 1.032529e+002
5.649982e+002, 1.028843e+002
5.654803e+002, 1.026895e+002
5.659624e+002, 1.026241e+002
5.664445e+002, 1.024739e+002
5.669266e+002, 1.021255e+002
5.674088e+002, 1.018538e+002
5.678909e+002, 1.018784e+002
5.683730e+002, 1.019720e+002
5.688551e+002, 1.017996e+002
5.693372e+002, 1.013313e+002
5.698193e+002, 1.008312e+002
5.703015e+002, 1.005462e+002
5.707836e+002, 1.004665e+002
5.712657e+002, 1.004321e+002
5.717478e+002, 1.005616e+002
5.722299e+002, 1.005712e+002
5.727120e+002, 1.003652e+002
5.731942e+002, 1.000583e+002
5.736763e+002, 9.974136e+001
5.741584e+002, 9.943466e+001
5.746405e+002, 9.913497e+001
5.751226e+002, 9.887929e+001
5.756047e+002, 9.863284e+001
5.760869e+002, 9.818299e+001
5.765690e+002, 9.743555e+001
5.770511e+002, 9.689074e+001
5.775332e+002, 9.692236e+001
5.780153e+002, 9.722792e+001
5.784974e+002, 9.730595e+001
5.789796e+002, 9.710343e+001
5.794617e+002, 9.687757e+001
5.799438e+002, 9.673209e+001
5.804259e+002, 9.661021e+001
5.809080e+002, 9.642898e+001
5.813901e+002, 9.619608e+001
5.818723e+002, 9.600074e+001
5.823544e+002, 9.590742e+001
5.828365e+002, 9.587798e+001
5.833186e+002, 9.578104e+001
5.838007e+002, 9.556711e+001
5.842828e+002, 9.535848e+001
5.847650e+002, 9.516305e+001
5.852471e+002, 9.496845e+001
5.857292e+002, 9.472459e+001
5.862113e+002, 9.446997e+001
5.866934e+002, 9.433023e+001
5.871755e+002, 9.442072e+001
5.876577e+002, 9.460555e+001
5.881398e+002, 9.452512e+001
5.886219e+002, 9.412057e+001
5.891040e+002, 9.386094e+001
5.895861e+002, 9.393790e+001
5.900682e+002, 9.411092e+001
5.905504e+002, 9.416057e+001
5.910325e+002, 9.410212e+001
5.915146e+002, 9.403047e+001
5.919967e+002, 9.399861e+001
5.924788e+002, 9.394412e+001
5.929609e+002, 9.375273e+001
5.934431e+002, 9.349102e+001
5.939252e+002, 9.339574e+001
5.944073e+002, 9.356687e+001
5.948894e+002, 9.378338e+001
5.953715e+002, 9.371558e+001
5.958536e+002, 9.326134e+001
5.963358e+002, 9.298608e+001
5.968179e+002, 9.291917e+001
5.973000e+002, 9.296957e+001
5.977821e+002, 9.326428e+001
5.982642e+002, 9.359860e+001
5.987463e+002, 9.366143e+001
5.992285e+002, 9.335349e+001
5.997106e+002, 9.291807e+001
6.001927e+002, 9.263549e+001
6.006748e+002, 9.250027e+001
6.011569e+002, 9.240289e+001
6.016390e+002, 9.236559e+001
6.021212e+002, 9.230838e+001
6.026033e+002, 9.208476e+001
6.030854e+002, 9.184363e+001
6.035675e+002, 9.186713e+001
6.040496e+002, 9.230925e+001
6.045317e+002, 9.265424e+001
6.050139e+002, 9.257785e+001
6.054960e+002, 9.227364e+001
6.059781e+002, 9.197847e+001
6.064602e+002, 9.173635e+001
6.069423e+002, 9.157801e+001
6.074244e+002, 9.152541e+001
6.079066e+002, 9.157663e+001
6.083887e+002, 9.172781e+001
6.088708e+002, 9.213889e+001
6.093529e+002, 9.241965e+001
6.098350e+002, 9.254353e+001
6.103171e+002, 9.254816e+001
6.107993e+002, 9.243062e+001
6.112814e+002, 9.221532e+001
6.117635e+002, 9.193829e+001
6.122456e+002, 9.157204e+001
6.127277e+002, 9.124095e+001
6.132098e+002, 9.125269e+001
6.136920e+002, 9.163926e+001
6.141741e+002, 9.199197e+001
6.146562e+002, 9.220036e+001
6.151383e+002, 9.235879e+001
6.156204e+002, 9.240975e+001
6.161025e+002, 9.242019e+001
6.165847e+002, 9.290776e+001
6.170668e+002, 9.420578e+001
6.175489e+002, 9.578188e+001
6.180310e+002, 9.804668e+001
6.185131e+002, 1.002047e+002
6.189952e+002, 1.003375e+002
6.194774e+002, 9.794173e+001
6.199595e+002, 9.484383e+001
6.204416e+002, 9.319582e+001
6.209237e+002, 9.309119e+001
6.214058e+002, 9.292735e+001
6.218879e+002, 9.263333e+001
6.223701e+002, 9.236681e+001
6.228522e+002, 9.212679e+001
6.233343e+002, 9.194955e+001
6.238164e+002, 9.191591e+001
6.242985e+002, 9.202498e+001
6.247806e+002, 9.210497e+001
6.252628e+002, 9.192603e+001
6.257448e+002, 9.162431e+001
6.262269e+002, 9.163817e+001
6.267090e+002, 9.201210e+001
6.271912e+002, 9.222417e+001
6.276733e+002, 9.186857e+001
6.281554e+002, 9.137405e+001
6.286375e+002, 9.174174e+001
6.291196e+002, 9.326740e+001
6.296017e+002, 9.410947e+001
6.300839e+002, 9.359677e+001
6.305660e+002, 9.267794e+001
6.310481e+002, 9.169923e+001
6.315302e+002, 9.087782e+001
6.320123e+002, 9.064236e+001
6.324944e+002, 9.119179e+001
6.329766e+002, 9.205464e+001
6.334587e+002, 9.240735e+001
6.339408e+002, 9.213300e+001
6.344229e+002, 9.195777e+001
6.349050e+002, 9.199077e+001
6.353871e+002, 9.199360e+001
6.358693e+002, 9.181749e+001
6.363514e+002, 9.156318e+001
6.368335e+002, 9.138332e+001
6.373156e+002, 9.131978e+001
6.377977e+002, 9.130930e+001
6.382798e+002, 9.122477e+001
6.387620e+002, 9.118755e+001
6.392441e+002, 9.157552e+001
6.397262e+002, 9.240153e+001
6.402083e+002, 9.297077e+001
6.406904e+002, 9.276743e+001
6.411725e+002, 9.204736e+001
6.416547e+002, 9.166624e+001
6.421368e+002, 9.197487e+001
6.426189e+002, 9.211649e+001
6.431010e+002, 9.194264e+001
6.435831e+002, 9.173425e+001
6.440652e+002, 9.167873e+001
6.445474e+002, 9.173930e+001
6.450295e+002, 9.176689e+001
6.455116e+002, 9.167146e+001
6.459937e+002, 9.156431e+001
6.464758e+002, 9.167601e+001
6.469579e+002, 9.200373e+001
6.474401e+002, 9.217849e+001
6.479222e+002, 9.210317e+001
6.484043e+002, 9.195592e+001
6.488864e+002, 9.181833e+001
6.493685e+002, 9.171696e+001
6.498506e+002, 9.174235e+001
6.503328e+002, 9.196056e+001
6.508149e+002, 9.221554e+001
6.512970e+002, 9.255840e+001
6.517791e+002, 9.284404e+001
6.522612e+002, 9.285921e+001
6.527433e+002, 9.260972e+001
6.532255e+002, 9.226657e+001
6.537076e+002, 9.193430e+001
6.541897e+002, 9.165372e+001
6.546718e+002, 9.161465e+001
6.551539e+002, 9.199223e+001
6.556360e+002, 9.218456e+001
6.561182e+002, 9.195011e+001
6.566003e+002, 9.164050e+001
6.570824e+002, 9.139558e+001
6.575645e+002, 9.123006e+001
6.580466e+002, 9.116748e+001
6.585287e+002, 9.129379e+001
6.590109e+002, 9.140012e+001
6.594930e+002, 9.117831e+001
6.599751e+002, 9.078139e+001
6.604572e+002, 9.070489e+001
6.609393e+002, 9.106520e+001
6.614214e+002, 9.143529e+001
6.619036e+002, 9.144796e+001
6.623857e+002, 9.112753e+001
6.628678e+002, 9.073909e+001
6.633499e+002, 9.028504e+001
6.638320e+002, 8.975864e+001
6.643141e+002, 8.895678e+001
6.647963e+002, 8.823579e+001
6.652784e+002, 8.790471e+001
6.657605e+002, 8.793179e+001
6.662426e+002, 8.808626e+001
6.667247e+002, 8.826682e+001
6.672068e+002, 8.842518e+001
6.676890e+002, 8.847197e+001
6.681711e+002, 8.840907e+001
6.686532e+002, 8.828744e+001
6.691353e+002, 8.810380e+001
6.696174e+002, 8.790117e+001
6.700995e+002, 8.774065e+001
6.705817e+002, 8.760684e+001
6.710638e+002, 8.737672e+001
6.715459e+002, 8.685281e+001
6.720280e+002, 8.647240e+001
6.725101e+002, 8.646879e+001
6.729922e+002, 8.662467e+001
6.734744e+002, 8.673824e+001
6.739565e+002, 8.676443e+001
6.744386e+002, 8.671697e+001
6.749207e+002, 8.659781e+001
6.754028e+002, 8.642632e+001
6.758849e+002, 8.624892e+001
6.763671e+002, 8.604458e+001
6.768492e+002, 8.593675e+001
6.773313e+002, 8.604479e+001
6.778134e+002, 8.614805e+001
6.782955e+002, 8.603814e+001
6.787776e+002, 8.577458e+001
6.792598e+002, 8.557387e+001
6.797419e+002, 8.557978e+001
6.802240e+002, 8.553904e+001
6.807061e+002, 8.511316e+001
6.811882e+002, 8.461739e+001
6.816703e+002, 8.448253e+001
6.821525e+002, 8.480956e+001
6.826346e+002, 8.568911e+001
6.831167e+002, 8.732669e+001
6.835988e+002, 8.942209e+001
6.840809e+002, 9.044105e+001
6.845630e+002, 8.983120e+001
6.850452e+002, 8.935017e+001
6.855273e+002, 8.977528e+001
6.860094e+002, 8.990481e+001
6.864915e+002, 8.866101e+001
6.869736e+002, 8.651681e+001
6.874557e+002, 8.493366e+001
6.879379e+002, 8.462233e+001
6.884200e+002, 8.475961e+001
6.889021e+002, 8.469544e+001
6.893842e+002, 8.451097e+001
6.898663e+002, 8.438036e+001
6.903484e+002, 8.433619e+001
6.908306e+002, 8.439209e+001
6.913127e+002, 8.459355e+001
6.917948e+002, 8.487801e+001
6.922769e+002, 8.492963e+001
6.927590e+002, 8.463125e+001
6.932411e+002, 8.427756e+001
6.937233e+002, 8.375386e+001
6.942054e+002, 8.330375e+001
6.946875e+002, 8.313693e+001
6.951696e+002, 8.316210e+001
6.956517e+002, 8.312475e+001
6.961339e+002, 8.289482e+001
6.966160e+002, 8.262446e+001
6.970981e+002, 8.248477e+001
6.975802e+002, 8.244597e+001
6.980623e+002, 8.240002e+001
6.985444e+002, 8.233012e+001
6.990266e+002, 8.227232e+001
6.995087e+002, 8.226493e+001
6.999908e+002, 8.228049e+001
7.004729e+002, 8.221391e+001
7.009550e+002, 8.193449e+001
7.014371e+002, 8.177345e+001
7.019193e+002, 8.175375e+001
7.024014e+002, 8.183530e+001
7.028835e+002, 8.206454e+001
7.033656e+002, 8.236422e+001
7.038477e+002, 8.260368e+001
7.043298e+002, 8.273000e+001
7.048120e+002, 8.274262e+001
7.052941e+002, 8.257878e+001
7.057762e+002, 8.228590e+001
7.062583e+002, 8.209771e+001
7.067404e+002, 8.204423e+001
7.072225e+002, 8.205163e+001
7.077046e+002, 8.211391e+001
7.081867e+002, 8.218114e+001
7.086688e+002, 8.210838e+001
7.091509e+002, 8.179873e+001
7.096331e+002, 8.160319e+001
7.101152e+002, 8.164490e+001
7.105973e+002, 8.170718e+001
7.110794e+002, 8.163048e+001
7.115615e+002, 8.149033e+001
7.120436e+002, 8.146543e+001
7.125258e+002, 8.161593e+001
7.130079e+002, 8.175865e+001
7.134900e+002, 8.162172e+001
7.139721e+002, 8.127451e+001
7.144542e+002, 8.111869e+001
7.149363e+002, 8.119177e+001
7.154185e+002, 8.130124e+001
7.159006e+002, 8.139371e+001
7.163827e+002, 8.144112e+001
7.168648e+002, 8.139903e+001
7.173469e+002, 8.127485e+001
7.178290e+002, 8.104087e+001
7.183112e+002, 8.048411e+001
7.187933e+002, 8.004255e+001
7.192754e+002, 8.003358e+001
7.197575e+002, 8.023573e+001
7.202396e+002, 8.033041e+001
7.207217e+002, 8.023331e+001
7.212039e+002, 8.006187e+001
7.216860e+002, 7.992695e+001
7.221681e+002, 7.981094e+001
7.226502e+002, 7.960171e+001
7.231323e+002, 7.926554e+001
7.236144e+002, 7.914067e+001
7.240966e+002, 7.947234e+001
7.245787e+002, 7.984975e+001
7.250608e+002, 7.968679e+001
7.255429e+002, 7.899950e+001
7.260250e+002, 7.868000e+001
7.265071e+002, 7.910585e+001
7.269893e+002, 7.950971e+001
7.274714e+002, 7.965377e+001
7.279535e+002, 7.960865e+001
7.284356e+002, 7.938567e+001
7.289177e+002, 7.904201e+001
7.293998e+002, 7.876584e+001
7.298820e+002, 7.872729e+001
7.303641e+002, 7.878628e+001
7.308462e+002, 7.856458e+001
7.313283e+002, 7.804722e+001
7.318104e+002, 7.770154e+001
7.322925e+002, 7.766177e+001
7.327747e+002, 7.770706e+001
7.332568e+002, 7.767458e+001
7.337389e+002, 7.757510e+001
7.342210e+002, 7.747245e+001
7.347031e+002, 7.723889e+001
7.351852e+002, 7.719775e+001
7.356674e+002, 7.763645e+001
7.361495e+002, 7.811378e+001
7.366316e+002, 7.826707e+001
7.371137e+002, 7.813354e+001
7.375958e+002, 7.789454e+001
7.380779e+002, 7.762472e+001
7.385601e+002, 7.742024e+001
7.390422e+002, 7.751172e+001
7.395243e+002, 7.784827e+001
7.400064e+002, 7.787196e+001
7.404885e+002, 7.745120e+001
7.409706e+002, 7.713960e+001
7.414528e+002, 7.734277e+001
7.419349e+002, 7.778209e+001
7.424170e+002, 7.780968e+001
7.428991e+002, 7.729463e+001
7.433812e+002, 7.686623e+001
7.438633e+002, 7.666920e+001
7.443455e+002, 7.647295e+001
7.448276e+002, 7.605061e+001
7.453097e+002, 7.558963e+001
7.457918e+002, 7.540622e+001
7.462739e+002, 7.557687e+001
7.467560e+002, 7.587310e+001
7.472382e+002, 7.616528e+001
7.477203e+002, 7.639611e+001
7.482024e+002, 7.633751e+001
7.486845e+002, 7.598211e+001
7.491666e+002, 7.561450e+001
7.496487e+002, 7.529173e+001
7.501309e+002, 7.508578e+001
7.506130e+002, 7.510388e+001
7.510951e+002, 7.536006e+001
7.515772e+002, 7.559435e+001
7.520593e+002, 7.588654e+001
7.525414e+002, 7.605367e+001
7.530236e+002, 7.601772e+001
7.535057e+002, 7.586602e+001
7.539878e+002, 7.561462e+001
7.544699e+002, 7.531565e+001
7.549520e+002, 7.510249e+001
7.554341e+002, 7.506045e+001
7.559163e+002, 7.511619e+001
7.563984e+002, 7.526560e+001
7.568805e+002, 7.544079e+001
7.573626e+002, 7.526458e+001
7.578447e+002, 7.465128e+001
7.583268e+002, 7.408248e+001
7.588090e+002, 7.390718e+001
7.592911e+002, 7.402505e+001
7.597732e+002, 7.410253e+001
7.602553e+002, 7.417356e+001
7.607374e+002, 7.414131e+001
7.612195e+002, 7.392165e+001
7.617017e+002, 7.369807e+001
7.621838e+002, 7.350857e+001
7.626659e+002, 7.339116e+001
7.631480e+002, 7.341830e+001
7.636301e+002, 7.361565e+001
7.641122e+002, 7.382849e+001
7.645944e+002, 7.395946e+001
7.650765e+002, 7.402467e+001
7.655586e+002, 7.402298e+001
7.660407e+002, 7.397071e+001
7.665228e+002, 7.395895e+001
7.670049e+002, 7.402629e+001
7.674871e+002, 7.409922e+001
7.679692e+002, 7.409439e+001
7.684513e+002, 7.401359e+001
7.689334e+002, 7.375849e+001
7.694155e+002, 7.309809e+001
7.698976e+002, 7.263935e+001
7.703798e+002, 7.260020e+001
7.708619e+002, 7.273348e+001
7.713440e+002, 7.290533e+001
7.718261e+002, 7.308872e+001
7.723082e+002, 7.321613e+001
7.727903e+002, 7.309476e+001
7.732725e+002, 7.313818e+001
7.737546e+002, 7.400277e+001
7.742367e+002, 7.505746e+001
7.747188e+002, 7.519692e+001
7.752009e+002, 7.439211e+001
7.756830e+002, 7.342734e+001
7.761652e+002, 7.278623e+001
7.766473e+002, 7.245966e+001
7.771294e+002, 7.251377e+001
7.776115e+002, 7.304575e+001
7.780936e+002, 7.328338e+001
7.785757e+002, 7.300905e+001
7.790579e+002, 7.275123e+001
7.795400e+002, 7.286478e+001
7.800221e+002, 7.314442e+001
7.805042e+002, 7.323338e+001
7.809863e+002, 7.307758e+001
7.814684e+002, 7.295540e+001
7.819506e+002, 7.294115e+001
7.824327e+002, 7.297353e+001
7.829148e+002, 7.304986e+001
7.833969e+002, 7.313205e+001
7.838790e+002, 7.316695e+001
7.843611e+002, 7.313969e+001
7.848433e+002, 7.306252e+001
7.853254e+002, 7.292770e+001
7.858075e+002, 7.276311e+001
7.862896e+002, 7.265469e+001
7.867717e+002, 7.260323e+001
7.872538e+002, 7.258682e+001
7.877360e+002, 7.262114e+001
7.882181e+002, 7.261983e+001
7.887002e+002, 7.246558e+001
7.891823e+002, 7.219284e+001
7.896644e+002, 7.210022e+001
7.901465e+002, 7.237976e+001
7.906286e+002, 7.255441e+001
7.911107e+002, 7.250345e+001
7.915928e+002, 7.241697e+001
7.920750e+002, 7.244830e+001
7.925571e+002, 7.253551e+001
7.930392e+002, 7.249388e+001
7.935213e+002, 7.223475e+001
7.940034e+002, 7.204003e+001
7.944855e+002, 7.229047e+001
7.949677e+002, 7.271880e+001
7.954498e+002, 7.277384e+001
7.959319e+002, 7.248153e+001
7.964140e+002, 7.223425e+001
7.968961e+002, 7.219556e+001
7.973782e+002, 7.224190e+001
7.978604e+002, 7.218727e+001
7.983425e+002, 7.201973e+001
7.988246e+002, 7.205216e+001
7.993067e+002, 7.244163e+001
7.997888e+002, 7.274599e+001
8.002709e+002, 7.289613e+001
8.007531e+002, 7.288680e+001
8.012352e+002, 7.257924e+001
8.017173e+002, 7.206714e+001
8.021994e+002, 7.178963e+001
8.026815e+002, 7.195928e+001
8.031636e+002, 7.224245e+001
8.036458e+002, 7.255747e+001
8.041279e+002, 7.283461e+001
8.046100e+002, 7.295123e+001
8.050921e+002, 7.294334e+001
8.055742e+002, 7.299424e+001
8.060563e+002, 7.321037e+001
8.065385e+002, 7.342171e+001
8.070206e+002, 7.330486e+001
8.075027e+002, 7.289072e+001
8.079848e+002, 7.260063e+001
8.084669e+002, 7.245482e+001
8.089490e+002, 7.241094e+001
8.094312e+002, 7.244404e+001
8.099133e+002, 7.258317e+001
8.103954e+002, 7.295107e+001
8.108775e+002, 7.364481e+001
8.113596e+002, 7.388154e+001
8.118417e+002, 7.323814e+001
8.123239e+002, 7.268377e+001
8.128060e+002, 7.236067e+001
8.132881e+002, 7.233067e+001
8.137702e+002, 7.287103e+001
8.142523e+002, 7.379758e+001
8.147344e+002, 7.438123e+001
8.152166e+002, 7.413964e+001
8.156987e+002, 7.367223e+001
8.161808e+002, 7.363564e+001
8.166629e+002, 7.383577e+001
8.171450e+002, 7.378884e+001
8.176271e+002, 7.347427e+001
8.181093e+002, 7.327634e+001
8.185914e+002, 7.342542e+001
8.190735e+002, 7.374851e+001
8.195556e+002, 7.391640e+001
8.200377e+002, 7.390989e+001
8.205198e+002, 7.384328e+001
8.210020e+002, 7.359578e+001
8.214841e+002, 7.351981e+001
8.219662e+002, 7.397244e+001
8.224483e+002, 7.450168e+001
8.229304e+002, 7.456312e+001
8.234125e+002, 7.416921e+001
8.238947e+002, 7.383732e+001
8.243768e+002, 7.377992e+001
8.248589e+002, 7.367348e+001
8.253410e+002, 7.321907e+001
8.258231e+002, 7.274498e+001
8.263052e+002, 7.269154e+001
8.267874e+002, 7.300076e+001
8.272695e+002, 7.327370e+001
8.277516e+002, 7.329411e+001
8.282337e+002, 7.315287e+001
8.287158e+002, 7.289846e+001
8.291979e+002, 7.258572e+001
8.296801e+002, 7.248784e+001
8.301622e+002, 7.263016e+001
8.306443e+002, 7.272536e+001
8.311264e+002, 7.262193e+001
8.316085e+002, 7.242174e+001
8.320906e+002, 7.228634e+001
8.325728e+002, 7.222060e+001
8.330549e+002, 7.218507e+001
8.335370e+002, 7.219344e+001
8.340191e+002, 7.221221e+001
8.345012e+002, 7.227204e+001
8.349833e+002, 7.230818e+001
8.354655e+002, 7.215701e+001
8.359476e+002, 7.190498e+001
8.364297e+002, 7.197908e+001
8.369118e+002, 7.280997e+001
8.373939e+002, 7.351017e+001
8.378760e+002, 7.346856e+001
8.383582e+002, 7.312420e+001
8.388403e+002, 7.293922e+001
8.393224e+002, 7.294111e+001
8.398045e+002, 7.302755e+001
8.402866e+002, 7.315158e+001
8.407687e+002, 7.322894e+001
8.412509e+002, 7.308241e+001
8.417330e+002, 7.277097e+001
8.422151e+002, 7.265844e+001
8.426972e+002, 7.276209e+001
8.431793e+002, 7.288791e+001
8.436614e+002, 7.298429e+001
8.441436e+002, 7.301900e+001
8.446257e+002, 7.292081e+001
8.451078e+002, 7.269598e+001
8.455899e+002, 7.265446e+001
8.460720e+002, 7.309206e+001
8.465541e+002, 7.327438e+001
8.470363e+002, 7.285587e+001
8.475184e+002, 7.243685e+001
8.480005e+002, 7.243001e+001
8.484826e+002, 7.270631e+001
8.489647e+002, 7.294858e+001
8.494468e+002, 7.308941e+001
8.499290e+002, 7.313457e+001
8.504111e+002, 7.299126e+001
8.508932e+002, 7.283149e+001
8.513753e+002, 7.282449e+001
8.518574e+002, 7.294747e+001
8.523395e+002, 7.316677e+001
8.528217e+002, 7.345041e+001
8.533038e+002, 7.365624e+001
8.537859e+002, 7.361300e+001
8.542680e+002, 7.340974e+001
8.547501e+002, 7.333640e+001
8.552322e+002, 7.339285e+001
8.557144e+002, 7.338418e+001
8.561965e+002, 7.323572e+001
8.566786e+002, 7.319776e+001
8.571607e+002, 7.353936e+001
8.576428e+002, 7.407210e+001
8.581249e+002, 7.416668e+001
8.586071e+002, 7.348096e+001
8.590892e+002, 7.309879e+001
8.595713e+002, 7.313237e+001
8.600534e+002, 7.332762e+001
8.605355e+002, 7.379595e+001
8.610176e+002, 7.426411e+001
8.614998e+002, 7.436340e+001
8.619819e+002, 7.407144e+001
8.624640e+002, 7.378947e+001
8.629461e+002, 7.359921e+001
8.634282e+002, 7.355461e+001
8.639103e+002, 7.385569e+001
8.643925e+002, 7.423905e+001
8.648746e+002, 7.427309e+001
8.653567e+002, 7.398492e+001
8.658388e+002, 7.376062e+001
8.663209e+002, 7.383288e+001
8.668030e+002, 7.401231e+001
8.672852e+002, 7.399557e+001
8.677673e+002, 7.382400e+001
8.682494e+002, 7.373512e+001
8.687315e+002, 7.374672e+001
8.692136e+002, 7.368777e+001
8.696957e+002, 7.346781e+001
8.701779e+002, 7.321432e+001
8.706600e+002, 7.310226e+001
8.711421e+002, 7.313264e+001
8.716242e+002, 7.314481e+001
8.721063e+002, 7.309766e+001
8.725884e+002, 7.310439e+001
8.730705e+002, 7.326418e+001
8.735526e+002, 7.340730e+001
8.740347e+002, 7.347662e+001
8.745168e+002, 7.344449e+001
8.749990e+002, 7.323388e+001
8.754811e+002, 7.277457e+001
8.759632e+002, 7.231701e+001
8.764453e+002, 7.182521e+001
8.769274e+002, 7.148706e+001
8.774095e+002, 7.154398e+001
8.778917e+002, 7.181559e+001
8.783738e+002, 7.204672e+001
8.788559e+002, 7.214986e+001
8.793380e+002, 7.207238e+001
8.798201e+002, 7.171934e+001
8.803022e+002, 7.122460e+001
8.807844e+002, 7.074909e+001
8.812665e+002, 7.031849e+001
8.817486e+002, 7.005279e+001
8.822307e+002, 6.996359e+001
8.827128e+002, 6.993227e+001
8.831949e+002, 6.989384e+001
8.836771e+002, 6.982677e+001
8.841592e+002, 6.966000e+001
8.846413e+002, 6.935890e+001
8.851234e+002, 6.924953e+001
8.856055e+002, 6.948377e+001
8.860876e+002, 6.952022e+001
8.865698e+002, 6.903889e+001
8.870519e+002, 6.841553e+001
8.875340e+002, 6.810566e+001
8.880161e+002, 6.808088e+001
8.884982e+002, 6.788106e+001
8.889803e+002, 6.715364e+001
8.894625e+002, 6.673079e+001
8.899446e+002, 6.704053e+001
8.904267e+002, 6.742915e+001
8.909088e+002, 6.735493e+001
8.913909e+002, 6.704374e+001
8.918730e+002, 6.706329e+001
8.923552e+002, 6.758827e+001
8.928373e+002, 6.798791e+001
8.933194e+002, 6.765163e+001
8.938015e+002, 6.716537e+001
8.942836e+002, 6.724681e+001
8.947657e+002, 6.764097e+001
8.952479e+002, 6.777134e+001
8.957300e+002, 6.753445e+001
8.962121e+002, 6.719638e+001
8.966942e+002, 6.694048e+001
8.971763e+002, 6.675630e+001
8.976584e+002, 6.663647e+001
8.981406e+002, 6.657612e+001
8.986227e+002, 6.652299e+001
8.991048e+002, 6.647115e+001
8.995869e+002, 6.643954e+001
9.000690e+002, 6.643566e+001
9.005511e+002, 6.646331e+001
9.010333e+002, 6.654704e+001
9.015154e+002, 6.669573e+001
9.019975e+002, 6.669038e+001
9.024796e+002, 6.644205e+001
9.029617e+002, 6.620106e+001
9.034438e+002, 6.585812e+001
9.039260e+002, 6.569290e+001
9.044081e+002, 6.612426e+001
9.048902e+002, 6.685175e+001
9.053723e+002, 6.704375e+001
9.058544e+002, 6.635404e+001
9.063365e+002, 6.587072e+001
9.068187e+002, 6.609365e+001
9.073008e+002, 6.634720e+001
9.077829e+002, 6.617305e+001
9.082650e+002, 6.580709e+001
9.087471e+002, 6.560129e+001
9.092292e+002, 6.560271e+001
9.097114e+002, 6.562015e+001
9.101935e+002, 6.553410e+001
9.106756e+002, 6.542850e+001
9.111577e+002, 6.544129e+001
9.116398e+002, 6.547353e+001
9.121219e+002, 6.532464e+001
9.126041e+002, 6.500231e+001
9.130862e+002, 6.460726e+001
9.135683e+002, 6.418704e+001
9.140504e+002, 6.388073e+001
9.145325e+002, 6.395079e+001
9.150146e+002, 6.430536e+001
9.154968e+002, 6.436748e+001
9.159789e+002, 6.412444e+001
9.164610e+002, 6.396712e+001
9.169431e+002, 6.398309e+001
9.174252e+002, 6.417010e+001
9.179073e+002, 6.457993e+001
9.183895e+002, 6.511404e+001
9.188716e+002, 6.541203e+001
9.193537e+002, 6.541657e+001
9.198358e+002, 6.532838e+001
9.203179e+002, 6.507121e+001
9.208000e+002, 6.483083e+001
9.212822e+002, 6.472961e+001
9.217643e+002, 6.464819e+001
9.222464e+002, 6.434872e+001
9.227285e+002, 6.385635e+001
9.232106e+002, 6.377048e+001
9.236927e+002, 6.428799e+001
9.241749e+002, 6.506477e+001
9.246570e+002, 6.619225e+001
9.251391e+002, 6.737707e+001
9.256212e+002, 6.891395e+001
9.261033e+002, 7.018700e+001
9.265854e+002, 6.971321e+001
9.270676e+002, 6.700700e+001
9.275497e+002, 6.450846e+001
9.280318e+002, 6.407401e+001
9.285139e+002, 6.440888e+001
9.289960e+002, 6.427094e+001
9.294781e+002, 6.388386e+001
9.299603e+002, 6.378678e+001
9.304424e+002, 6.402223e+001
9.309245e+002, 6.420305e+001
9.314066e+002, 6.406237e+001
9.318887e+002, 6.385937e+001
9.323708e+002, 6.410638e+001
9.328530e+002, 6.464897e+001
9.333351e+002, 6.477694e+001
9.338172e+002, 6.448055e+001
9.342993e+002, 6.429037e+001
9.347814e+002, 6.441074e+001
9.352635e+002, 6.461678e+001
9.357457e+002, 6.465853e+001
9.362278e+002, 6.457422e+001
9.367099e+002, 6.460780e+001
9.371920e+002, 6.480597e+001
9.376741e+002, 6.492915e+001
9.381563e+002, 6.499336e+001
9.386384e+002, 6.487190e+001
9.391205e+002, 6.438358e+001
9.396026e+002, 6.375370e+001
9.400847e+002, 6.337961e+001
9.405668e+002, 6.329338e+001
9.410490e+002, 6.327734e+001
9.415311e+002, 6.348676e+001
9.420132e+002, 6.355245e+001
9.424953e+002, 6.318577e+001
9.429774e+002, 6.285057e+001
9.434595e+002, 6.300092e+001
9.439417e+002, 6.344239e+001
9.444238e+002, 6.362823e+001
9.449059e+002, 6.338953e+001
9.453880e+002, 6.313984e+001
9.458701e+002, 6.300154e+001
9.463522e+002, 6.292432e+001
9.468344e+002, 6.288556e+001
9.473165e+002, 6.288292e+001
9.477986e+002, 6.296145e+001
9.482807e+002, 6.308891e+001
9.487628e+002, 6.311086e+001
9.492449e+002, 6.292235e+001
9.497271e+002, 6.265807e+001
9.502092e+002, 6.235866e+001
9.506913e+002, 6.211623e+001
9.511734e+002, 6.210903e+001
9.516555e+002, 6.229111e+001
9.521376e+002, 6.249384e+001
9.526198e+002, 6.265526e+001
9.531019e+002, 6.279551e+001
9.535840e+002, 6.295879e+001
9.540661e+002, 6.308443e+001
9.545482e+002, 6.298458e+001
9.550303e+002, 6.269607e+001
9.555124e+002, 6.247321e+001
9.559945e+002, 6.235035e+001
9.564766e+002, 6.218113e+001
9.569587e+002, 6.186487e+001
9.574409e+002, 6.157829e+001
9.579230e+002, 6.163104e+001
9.584051e+002, 6.201603e+001
9.588872e+002, 6.231993e+001
9.593693e+002, 6.256218e+001
9.598514e+002, 6.262191e+001
9.603336e+002, 6.239988e+001
9.608157e+002, 6.215349e+001
9.612978e+002, 6.205404e+001
9.617799e+002, 6.208651e+001
9.622620e+002, 6.221355e+001
9.627441e+002, 6.245409e+001
9.632263e+002, 6.273373e+001
9.637084e+002, 6.323587e+001
9.641905e+002, 6.352436e+001
9.646726e+002, 6.340076e+001
9.651547e+002, 6.309200e+001
9.656368e+002, 6.267060e+001
9.661190e+002, 6.221331e+001
9.666011e+002, 6.203727e+001
9.670832e+002, 6.230360e+001
9.675653e+002, 6.260081e+001
9.680474e+002, 6.287262e+001
9.685295e+002, 6.311924e+001
9.690117e+002, 6.339038e+001
9.694938e+002, 6.360744e+001
9.699759e+002, 6.361042e+001
9.704580e+002, 6.342128e+001
9.709401e+002, 6.331160e+001
9.714222e+002, 6.333223e+001
9.719044e+002, 6.357393e+001
9.723865e+002, 6.437801e+001
9.728686e+002, 6.521011e+001
9.733507e+002, 6.545394e+001
9.738328e+002, 6.524924e+001
9.743149e+002, 6.496199e+001
9.747971e+002, 6.472658e+001
9.752792e+002, 6.460876e+001
9.757613e+002, 6.464934e+001
9.762434e+002, 6.485040e+001
9.767255e+002, 6.537663e+001
9.772076e+002, 6.601184e+001
9.776898e+002, 6.621015e+001
9.781719e+002, 6.600534e+001
9.786540e+002, 6.590458e+001
9.791361e+002, 6.614849e+001
9.796182e+002, 6.652328e+001
9.801003e+002, 6.678217e+001
9.805825e+002, 6.695184e+001
9.810646e+002, 6.713177e+001
9.815467e+002, 6.730901e+001
9.820288e+002, 6.736395e+001
9.825109e+002, 6.727319e+001
9.829930e+002, 6.713343e+001
9.834752e+002, 6.699925e+001
9.839573e+002, 6.689513e+001
9.844394e+002, 6.689570e+001
9.849215e+002, 6.700278e+001
9.854036e+002, 6.695937e+001
9.858857e+002, 6.674783e+001
9.863679e+002, 6.646831e+001
9.868500e+002, 6.610998e+001
9.873321e+002, 6.580468e+001
9.878142e+002, 6.566506e+001
9.882963e+002, 6.565614e+001
9.887784e+002, 6.569581e+001
9.892606e+002, 6.587975e+001
9.897427e+002, 6.574731e+001
9.902248e+002, 6.508158e+001
9.907069e+002, 6.451112e+001
9.911890e+002, 6.418385e+001
9.916711e+002, 6.408410e+001
9.921533e+002, 6.434597e+001
9.926354e+002, 6.485950e+001
9.931175e+002, 6.495292e+001
9.935996e+002, 6.424567e+001
9.940817e+002, 6.380583e+001
9.945638e+002, 6.401093e+001
9.950460e+002, 6.404927e+001
9.955281e+002, 6.337563e+001
9.960102e+002, 6.254271e+001
9.964923e+002, 6.219367e+001
9.969744e+002, 6.228753e+001
9.974565e+002, 6.228246e+001
9.979387e+002, 6.193189e+001
9.984208e+002, 6.171938e+001
9.989029e+002, 6.194784e+001
9.993850e+002, 6.216092e+001
9.998671e+002, 6.196461e+001
1.000349e+003, 6.162802e+001
1.000831e+003, 6.157022e+001
1.001313e+003, 6.182512e+001
1.001796e+003, 6.207743e+001
1.002278e+003, 6.199945e+001
1.002760e+003, 6.219107e+001
1.003242e+003, 6.362233e+001
1.003724e+003, 6.491221e+001
1.004206e+003, 6.447177e+001
1.004688e+003, 6.297546e+001
1.005170e+003, 6.184776e+001
1.005653e+003, 6.145176e+001
1.006135e+003, 6.134923e+001
1.006617e+003, 6.135990e+001
1.007099e+003, 6.141783e+001
1.007581e+003, 6.156861e+001
1.008063e+003, 6.166085e+001
1.008545e+003, 6.142511e+001
1.009027e+003, 6.093460e+001
1.009509e+003, 6.040955e+001
1.009992e+003, 5.994506e+001
1.010474e+003, 5.962849e+001
1.010956e+003, 5.956187e+001
1.011438e+003, 5.966338e+001
1.011920e+003, 5.987293e+001
1.012402e+003, 6.013666e+001
1.012884e+003, 6.035676e+001
1.013366e+003, 6.050620e+001
1.013849e+003, 6.052938e+001
1.014331e+003, 6.040431e+001
1.014813e+003, 6.021446e+001
1.015295e+003, 6.001433e+001
1.015777e+003, 5.984930e+001
1.016259e+003, 5.989929e+001
1.016741e+003, 6.009792e+001
1.017223e+003, 6.010547e+001
1.017705e+003, 5.988814e+001
1.018188e+003, 5.966713e+001
1.018670e+003, 5.955445e+001
1.019152e+003, 5.951997e+001
1.019634e+003, 5.954356e+001
1.020116e+003, 5.960339e+001
1.020598e+003, 5.957565e+001
1.021080e+003, 5.946516e+001
1.021562e+003, 5.943399e+001
1.022044e+003, 5.951997e+001
1.022527e+003, 5.944936e+001
1.023009e+003, 5.902174e+001
1.023491e+003, 5.856737e+001
1.023973e+003, 5.868037e+001
1.024455e+003, 5.930888e+001
1.024937e+003, 5.953700e+001
1.025419e+003, 5.930704e+001
1.025901e+003, 5.918032e+001
1.026384e+003, 5.929515e+001
1.026866e+003, 5.935162e+001
1.027348e+003, 5.913647e+001
1.027830e+003, 5.880607e+001
1.028312e+003, 5.864778e+001
1.028794e+003, 5.866597e+001
1.029276e+003, 5.873541e+001
1.029758e+003, 5.886560e+001
1.030240e+003, 5.904275e+001
1.030723e+003, 5.936272e+001
1.031205e+003, 5.947028e+001
1.031687e+003, 5.898714e+001
1.032169e+003, 5.830449e+001
1.032651e+003, 5.827719e+001
1.033133e+003, 5.903320e+001
1.033615e+003, 5.934078e+001
1.034097e+003, 5.892879e+001
1.034579e+003, 5.865625e+001
1.035062e+003, 5.869251e+001
1.035544e+003, 5.890011e+001
1.036026e+003, 5.932866e+001
1.036508e+003, 5.978167e+001
1.036990e+003, 5.979329e+001
1.037472e+003, 5.923655e+001
1.037954e+003, 5.895501e+001
1.038436e+003, 5.919364e+001
1.038919e+003, 5.931307e+001
1.039401e+003, 5.900016e+001
1.039883e+003, 5.876173e+001
1.040365e+003, 5.911543e+001
1.040847e+003, 5.971318e+001
1.041329e+003, 5.973307e+001
1.041811e+003, 5.898228e+001
1.042293e+003, 5.868308e+001
1.042776e+003, 5.935108e+001
1.043258e+003, 5.977930e+001
1.043740e+003, 5.947316e+001
1.044222e+003, 5.913442e+001
1.044704e+003, 5.941267e+001
1.045186e+003, 5.991458e+001
1.045668e+003, 5.975010e+001
1.046150e+003, 5.871072e+001
1.046632e+003, 5.811507e+001
1.047115e+003, 5.849279e+001
1.047597e+003, 5.879008e+001
1.048079e+003, 5.870655e+001
1.048561e+003, 5.850269e+001
1.049043e+003, 5.829288e+001
1.049525e+003, 5.811908e+001
1.050007e+003, 5.804236e+001
1.050489e+003, 5.807555e+001
1.050971e+003, 5.813860e+001
1.051454e+003, 5.825283e+001
1.051936e+003, 5.834451e+001
1.052418e+003, 5.838348e+001
1.052900e+003, 5.840021e+001
1.053382e+003, 5.844069e+001
1.053864e+003, 5.846602e+001
1.054346e+003, 5.836540e+001
1.054828e+003, 5.811760e+001
1.055311e+003, 5.800194e+001
1.055793e+003, 5.814553e+001
1.056275e+003, 5.836033e+001
1.056757e+003, 5.883796e+001
1.057239e+003, 5.911629e+001
1.057721e+003, 5.863100e+001
1.058203e+003, 5.779274e+001
1.058685e+003, 5.734902e+001
1.059167e+003, 5.740963e+001
1.059650e+003, 5.745762e+001
1.060132e+003, 5.725286e+001
1.060614e+003, 5.710424e+001
1.061096e+003, 5.713836e+001
1.061578e+003, 5.726251e+001
1.062060e+003, 5.750009e+001
1.062542e+003, 5.773394e+001
1.063024e+003, 5.771558e+001
1.063506e+003, 5.743991e+001
1.063989e+003, 5.734674e+001
1.064471e+003, 5.772677e+001
1.064953e+003, 5.813078e+001
1.065435e+003, 5.854649e+001
1.065917e+003, 5.874586e+001
1.066399e+003, 5.840260e+001
1.066881e+003, 5.780154e+001
1.067363e+003, 5.732297e+001
1.067846e+003, 5.704973e+001
1.068328e+003, 5.701838e+001
1.068810e+003, 5.749426e+001
1.069292e+003, 5.777415e+001
1.069774e+003, 5.737518e+001
1.070256e+003, 5.683416e+001
1.070738e+003, 5.647588e+001
1.071220e+003, 5.627946e+001
1.071703e+003, 5.616386e+001
1.072185e+003, 5.612605e+001
1.072667e+003, 5.624128e+001
1.073149e+003, 5.666077e+001
1.073631e+003, 5.695082e+001
1.074113e+003, 5.685109e+001
1.074595e+003, 5.660975e+001
1.075077e+003, 5.630999e+001
1.075559e+003, 5.603948e+001
1.076042e+003, 5.589612e+001
1.076524e+003, 5.587933e+001
1.077006e+003, 5.591407e+001
1.077488e+003, 5.595698e+001
1.077970e+003, 5.610533e+001
1.078452e+003, 5.665797e+001
1.078934e+003, 5.705406e+001
1.079416e+003, 5.675018e+001
1.079898e+003, 5.619048e+001
1.080380e+003, 5.584641e+001
1.080863e+003, 5.576977e+001
1.081345e+003, 5.592491e+001
1.081827e+003, 5.638317e+001
1.082309e+003, 5.665297e+001
1.082791e+003, 5.630840e+001
1.083273e+003, 5.594743e+001
1.083755e+003, 5.599104e+001
1.084237e+003, 5.616533e+001
1.084720e+003, 5.609181e+001
1.085202e+003, 5.588880e+001
1.085684e+003, 5.604092e+001
1.086166e+003, 5.674064e+001
1.086648e+003, 5.710598e+001
1.087130e+003, 5.645489e+001
1.087612e+003, 5.576042e+001
1.088094e+003, 5.548180e+001
1.088577e+003, 5.542780e+001
1.089059e+003, 5.544242e+001
1.089541e+003, 5.551699e+001
1.090023e+003, 5.571177e+001
1.090505e+003, 5.604095e+001
1.090987e+003, 5.628775e+001
1.091469e+003, 5.629299e+001
1.091951e+003, 5.630660e+001
1.092433e+003, 5.662337e+001
1.092916e+003, 5.680967e+001
1.093398e+003, 5.631319e+001
1.093880e+003, 5.554042e+001
1.094362e+003, 5.522718e+001
1.094844e+003, 5.544944e+001
1.095326e+003, 5.562978e+001
1.095808e+003, 5.558617e+001
1.096290e+003, 5.547609e+001
1.096772e+003, 5.527650e+001
1.097255e+003, 5.510648e+001
1.097737e+003, 5.502924e+001
1.098219e+003, 5.503364e+001
1.098701e+003, 5.516789e+001
1.099183e+003, 5.538616e+001
1.099665e+003, 5.540308e+001
1.100147e+003, 5.496430e+001
1.100629e+003, 5.471607e+001
1.101112e+003, 5.517236e+001
1.101594e+003, 5.544382e+001
1.102076e+003, 5.479457e+001
1.102558e+003, 5.396682e+001
1.103040e+003, 5.375074e+001
1.103522e+003, 5.407476e+001
1.104004e+003, 5.449220e+001
1.104486e+003, 5.505825e+001
1.104969e+003, 5.533258e+001
1.105451e+003, 5.493223e+001
1.105933e+003, 5.462418e+001
1.106415e+003, 5.477284e+001
1.106897e+003, 5.502719e+001
1.107379e+003, 5.510732e+001
1.107861e+003, 5.506677e+001
1.108343e+003, 5.507570e+001
1.108825e+003, 5.516992e+001
1.109307e+003, 5.517814e+001
1.109790e+003, 5.498089e+001
1.110272e+003, 5.484531e+001
1.110754e+003, 5.493899e+001
1.111236e+003, 5.498879e+001
1.111718e+003, 5.473833e+001
1.112200e+003, 5.438192e+001
1.112682e+003, 5.426805e+001
1.113164e+003, 5.441664e+001
1.113647e+003, 5.446523e+001
1.114129e+003, 5.427816e+001
1.114611e+003, 5.421600e+001
1.115093e+003, 5.428524e+001
1.115575e+003, 5.451696e+001
1.116057e+003, 5.515916e+001
1.116539e+003, 5.575254e+001
1.117021e+003, 5.569192e+001
1.117504e+003, 5.507716e+001
1.117986e+003, 5.464058e+001
1.118468e+003, 5.437729e+001
1.118950e+003, 5.431643e+001
1.119432e+003, 5.454057e+001
1.119914e+003, 5.481870e+001
1.120396e+003, 5.517922e+001
1.120878e+003, 5.540237e+001
1.121360e+003, 5.526478e+001
1.121843e+003, 5.486987e+001
1.122325e+003, 5.450759e+001
1.122807e+003, 5.416298e+001
1.123289e+003, 5.393472e+001
1.123771e+003, 5.380141e+001
1.124253e+003, 5.388593e+001
1.124735e+003, 5.429493e+001
1.125217e+003, 5.468331e+001
1.125699e+003, 5.483062e+001
1.126182e+003, 5.483289e+001
1.126664e+003, 5.486182e+001
1.127146e+003, 5.490797e+001
1.127628e+003, 5.475576e+001
1.128110e+003, 5.436531e+001
1.128592e+003, 5.416041e+001
1.129074e+003, 5.421862e+001
1.129556e+003, 5.427942e+001
1.130039e+003, 5.420947e+001
1.130521e+003, 5.419953e+001
1.131003e+003, 5.450683e+001
1.131485e+003, 5.498869e+001
1.131967e+003, 5.512570e+001
1.132449e+003, 5.493446e+001
1.132931e+003, 5.469365e+001
1.133413e+003, 5.442027e+001
1.133896e+003, 5.412728e+001
1.134378e+003, 5.381875e+001
1.134860e+003, 5.361903e+001
1.135342e+003, 5.363107e+001
1.135824e+003, 5.377528e+001
1.136306e+003, 5.394582e+001
1.136788e+003, 5.412069e+001
1.137270e+003, 5.423925e+001
1.137752e+003, 5.428527e+001
1.138234e+003, 5.411143e+001
1.138717e+003, 5.374302e+001
1.139199e+003, 5.356913e+001
1.139681e+003, 5.378942e+001
1.140163e+003, 5.407671e+001
1.140645e+003, 5.404704e+001
1.141127e+003, 5.385816e+001
1.141609e+003, 5.373288e+001
1.142091e+003, 5.370127e+001
1.142574e+003, 5.392596e+001
1.143056e+003, 5.430812e+001
1.143538e+003, 5.451595e+001
1.144020e+003, 5.444344e+001
1.144502e+003, 5.415528e+001
1.144984e+003, 5.356339e+001
1.145466e+003, 5.309580e+001
1.145948e+003, 5.340488e+001
1.146431e+003, 5.393079e+001
1.146913e+003, 5.392893e+001
1.147395e+003, 5.361817e+001
1.147877e+003, 5.347089e+001
1.148359e+003, 5.353371e+001
1.148841e+003, 5.356233e+001
1.149323e+003, 5.343397e+001
1.149805e+003, 5.338323e+001
1.150287e+003, 5.373180e+001
1.150770e+003, 5.401303e+001
1.151252e+003, 5.379755e+001
1.151734e+003, 5.341162e+001
1.152216e+003, 5.310846e+001
1.152698e+003, 5.296981e+001
1.153180e+003, 5.319641e+001
1.153662e+003, 5.382475e+001
1.154144e+003, 5.407944e+001
1.154626e+003, 5.317939e+001
1.155109e+003, 5.260863e+001
1.155591e+003, 5.318670e+001
1.156073e+003, 5.387858e+001
1.156555e+003, 5.407088e+001
1.157037e+003, 5.397767e+001
1.157519e+003, 5.387291e+001
1.158001e+003, 5.378211e+001
1.158483e+003, 5.372289e+001
1.158966e+003, 5.376353e+001
1.159448e+003, 5.369117e+001
1.159930e+003, 5.336480e+001
1.160412e+003, 5.309709e+001
1.160894e+003, 5.290767e+001
1.161376e+003, 5.288062e+001
1.161858e+003, 5.323359e+001
1.162340e+003, 5.370368e+001
1.162822e+003, 5.366846e+001
1.163305e+003, 5.305611e+001
1.163787e+003, 5.271754e+001
1.164269e+003, 5.273070e+001
1.164751e+003, 5.279088e+001
1.165233e+003, 5.284348e+001
1.165715e+003, 5.301726e+001
1.166197e+003, 5.345980e+001
1.166679e+003, 5.380468e+001
1.167161e+003, 5.354564e+001
1.167644e+003, 5.290295e+001
1.168126e+003, 5.286790e+001
1.168608e+003, 5.347161e+001
1.169090e+003, 5.368903e+001
1.169572e+003, 5.346810e+001
1.170054e+003, 5.312937e+001
1.170536e+003, 5.275416e+001
1.171018e+003, 5.257339e+001
1.171500e+003, 5.276389e+001
1.171983e+003, 5.311591e+001
1.172465e+003, 5.333859e+001
1.172947e+003, 5.343091e+001
1.173429e+003, 5.329915e+001
1.173911e+003, 5.303750e+001
1.174393e+003, 5.308433e+001
1.174875e+003, 5.340278e+001
1.175357e+003, 5.348520e+001
1.175840e+003, 5.315911e+001
1.176322e+003, 5.280904e+001
1.176804e+003, 5.275000e+001
1.177286e+003, 5.282638e+001
1.177768e+003, 5.289119e+001
1.178250e+003, 5.293388e+001
1.178732e+003, 5.289027e+001
1.179214e+003, 5.283303e+001
1.179697e+003, 5.296227e+001
1.180179e+003, 5.323713e+001
1.180661e+003, 5.335025e+001
1.181143e+003, 5.315592e+001
1.181625e+003, 5.294586e+001
1.182107e+003, 5.286760e+001
1.182589e+003, 5.286795e+001
1.183071e+003, 5.296854e+001
1.183553e+003, 5.308142e+001
1.184036e+003, 5.318216e+001
1.184518e+003, 5.320792e+001
1.185000e+003, 5.296419e+001
1.185482e+003, 5.245755e+001
1.185964e+003, 5.225594e+001
1.186446e+003, 5.278858e+001
1.186928e+003, 5.314622e+001
1.187410e+003, 5.310067e+001
1.187892e+003, 5.294897e+001
1.188375e+003, 5.271507e+001
1.188857e+003, 5.251943e+001
1.189339e+003, 5.250417e+001
1.189821e+003, 5.260246e+001
1.190303e+003, 5.261780e+001
1.190785e+003, 5.253033e+001
1.191267e+003, 5.246966e+001
1.191749e+003, 5.239840e+001
1.192232e+003, 5.249181e+001
1.192714e+003, 5.288392e+001
1.193196e+003, 5.309739e+001
1.193678e+003, 5.282006e+001
1.194160e+003, 5.247712e+001
1.194642e+003, 5.262940e+001
1.195124e+003, 5.310051e+001
1.195606e+003, 5.314439e+001
1.196089e+003, 5.278310e+001
1.196571e+003, 5.263525e+001
1.197053e+003, 5.271851e+001
1.197535e+003, 5.279067e+001
1.198017e+003, 5.278781e+001
1.198499e+003, 5.267493e+001
1.198981e+003, 5.241593e+001
1.199463e+003, 5.224669e+001
1.199945e+003, 5.252256e+001
1.200427e+003, 5.307459e+001
1.200910e+003, 5.383646e+001
1.201392e+003, 5.449883e+001
1.201874e+003, 5.414587e+001
1.202356e+003, 5.307953e+001
1.202838e+003, 5.237799e+001
1.203320e+003, 5.232947e+001
1.203802e+003, 5.259743e+001
1.204284e+003, 5.313876e+001
1.204767e+003, 5.346955e+001
1.205249e+003, 5.249025e+001
1.205731e+003, 5.193154e+001
1.206213e+003, 5.436975e+001
1.206695e+003, 5.721734e+001
1.207177e+003, 5.681404e+001
1.207659e+003, 5.417981e+001
1.208141e+003, 5.285952e+001
1.208624e+003, 5.363770e+001
1.209106e+003, 5.407827e+001
1.209588e+003, 5.326578e+001
1.210070e+003, 5.256493e+001
1.210552e+003, 5.224495e+001
1.211034e+003, 5.211351e+001
1.211516e+003, 5.214821e+001
1.211998e+003, 5.226442e+001
1.212480e+003, 5.243586e+001
1.212963e+003, 5.260993e+001
1.213445e+003, 5.256599e+001
1.213927e+003, 5.223532e+001
1.214409e+003, 5.202142e+001
1.214891e+003, 5.191876e+001
1.215373e+003, 5.198440e+001
1.215855e+003, 5.227728e+001
1.216337e+003, 5.250315e+001
1.216819e+003, 5.250171e+001
1.217302e+003, 5.238176e+001
1.217784e+003, 5.226276e+001
1.218266e+003, 5.215331e+001
1.218748e+003, 5.208992e+001
1.219230e+003, 5.206141e+001
1.219712e+003, 5.203439e+001
1.220194e+003, 5.198797e+001
1.220676e+003, 5.175441e+001
1.221159e+003, 5.135593e+001
1.221641e+003, 5.120016e+001
1.222123e+003, 5.151526e+001
1.222605e+003, 5.191357e+001
1.223087e+003, 5.200127e+001
1.223569e+003, 5.196928e+001
1.224051e+003, 5.201421e+001
1.224533e+003, 5.208862e+001
1.225016e+003, 5.209959e+001
1.225498e+003, 5.210067e+001
1.225980e+003, 5.227413e+001
1.226462e+003, 5.258675e+001
1.226944e+003, 5.266530e+001
1.227426e+003, 5.225361e+001
1.227908e+003, 5.197265e+001
1.228390e+003, 5.220092e+001
1.228872e+003, 5.238440e+001
1.229354e+003, 5.223270e+001
1.229837e+003, 5.200309e+001
1.230319e+003, 5.188358e+001
1.230801e+003, 5.183641e+001
1.231283e+003, 5.179455e+001
1.231765e+003, 5.175681e+001
1.232247e+003, 5.165007e+001
1.232729e+003, 5.133187e+001
1.233211e+003, 5.143107e+001
1.233694e+003, 5.213054e+001
1.234176e+003, 5.269417e+001
1.234658e+003, 5.289600e+001
1.235140e+003, 5.294633e+001
1.235622e+003, 5.300695e+001
1.236104e+003, 5.295950e+001
1.236586e+003, 5.248793e+001
1.237068e+003, 5.179212e+001
1.237551e+003, 5.189729e+001
1.238033e+003, 5.254396e+001
1.238515e+003, 5.244971e+001
1.238997e+003, 5.167896e+001
1.239479e+003, 5.119130e+001
1.239961e+003, 5.125534e+001
1.240443e+003, 5.156241e+001
1.240925e+003, 5.198889e+001
1.241407e+003, 5.221510e+001
1.241890e+003, 5.159805e+001
1.242372e+003, 5.098446e+001
1.242854e+003, 5.143371e+001
1.243336e+003, 5.219841e+001
1.243818e+003, 5.229485e+001
1.244300e+003, 5.194907e+001
1.244782e+003, 5.187439e+001
1.245264e+003, 5.216035e+001
1.245746e+003, 5.225465e+001
1.246229e+003, 5.185200e+001
1.246711e+003, 5.155017e+001
1.247193e+003, 5.141434e+001
1.247675e+003, 5.144734e+001
1.248157e+003, 5.187478e+001
1.248639e+003, 5.218866e+001
1.249121e+003, 5.193016e+001
1.249603e+003, 5.142610e+001
1.250085e+003, 5.126001e+001
1.250568e+003, 5.141771e+001
1.251050e+003, 5.170881e+001
1.251532e+003, 5.217818e+001
1.252014e+003, 5.221180e+001
1.252496e+003, 5.174376e+001
1.252978e+003, 5.139583e+001
1.253460e+003, 5.135477e+001
1.253942e+003, 5.149979e+001
1.254425e+003, 5.175892e+001
1.254907e+003, 5.203745e+001
1.255389e+003, 5.219370e+001
1.255871e+003, 5.228264e+001
1.256353e+003, 5.243524e+001
1.256835e+003, 5.258043e+001
1.257317e+003, 5.254224e+001
1.257799e+003, 5.238877e+001
1.258281e+003, 5.235165e+001
1.258764e+003, 5.243849e+001
1.259246e+003, 5.235179e+001
1.259728e+003, 5.186321e+001
1.260210e+003, 5.158515e+001
1.260692e+003, 5.210025e+001
1.261174e+003, 5.250048e+001
1.261656e+003, 5.218058e+001
1.262138e+003, 5.175940e+001
1.262620e+003, 5.173410e+001
1.263103e+003, 5.191494e+001
1.263585e+003, 5.199039e+001
1.264067e+003, 5.196446e+001
1.264549e+003, 5.186815e+001
1.265031e+003, 5.157884e+001
1.265513e+003, 5.169753e+001
1.265995e+003, 5.238271e+001
1.266477e+003, 5.272875e+001
1.266960e+003, 5.248223e+001
1.267442e+003, 5.223405e+001
1.267924e+003, 5.231245e+001
1.268406e+003, 5.255316e+001
1.268888e+003, 5.279164e+001
1.269370e+003, 5.299487e+001
1.269852e+003, 5.309513e+001
1.270334e+003, 5.309858e+001
1.270817e+003, 5.297730e+001
1.271299e+003, 5.278441e+001
1.271781e+003, 5.266175e+001
1.272263e+003, 5.261371e+001
1.272745e+003, 5.255442e+001
1.273227e+003, 5.245131e+001
1.273709e+003, 5.230490e+001
1.274191e+003, 5.189452e+001
1.274673e+003, 5.174793e+001
1.275156e+003, 5.232466e+001
1.275638e+003, 5.303027e+001
1.276120e+003, 5.369162e+001
1.276602e+003, 5.409361e+001
1.277084e+003, 5.386317e+001
1.277566e+003, 5.320909e+001
1.278048e+003, 5.281773e+001
1.278530e+003, 5.270794e+001
1.279012e+003, 5.272157e+001
1.279495e+003, 5.291532e+001
1.279977e+003, 5.296198e+001
1.280459e+003, 5.273921e+001
1.280941e+003, 5.292619e+001
1.281423e+003, 5.382182e+001
1.281905e+003, 5.470308e+001
1.282387e+003, 5.499813e+001
1.282869e+003, 5.497379e+001
1.283352e+003, 5.510935e+001
1.283834e+003, 5.524804e+001
1.284316e+003, 5.504930e+001
1.284798e+003, 5.451545e+001
##END=



