##NAMES=Raygrantite
##RRUFFID=R120151
##IDEAL CHEMISTRY=Pb^2+^_10_Zn^2+^(S^6+^O_4_)_6_(SiO_4_)_2_(OH)_2_
##LOCALITY=Evening Star mine, Tiger Wash, Belmont Mountain, Tonopah, Big Horn Mts, Maricopa County, Arizona, USA
##OWNER=RRUFF
##SOURCE=Ron Gibbs and Bob Jenkins
##DESCRIPTION=Colorless bladed crystals associated with anglesite and galena, type sample. The crystals show fish-tail twin habit. Type sample.
##STATUS=The identification of this mineral is confirmed by single-crystal X-ray diffraction and chemical analysis.
##URL=rruff.info/R120151
##MEASURED CHEMISTRY=Pb_9.81_Zn_0.93_(S_1.00_O_4_)_6_(Si_1.05_O_4_)_2_(OH)_2_
8.975323e+001, 0.000000e+000
9.023535e+001, 4.172232e+002
9.071747e+001, 4.250628e+002
9.119958e+001, 4.262681e+002
9.168170e+001, 4.235382e+002
9.216382e+001, 4.157858e+002
9.264594e+001, 4.043736e+002
9.312805e+001, 3.917115e+002
9.361017e+001, 3.796801e+002
9.409229e+001, 3.688184e+002
9.457440e+001, 3.588108e+002
9.505651e+001, 3.504216e+002
9.553863e+001, 3.435968e+002
9.602074e+001, 3.383107e+002
9.650286e+001, 3.347044e+002
9.698498e+001, 3.326019e+002
9.746709e+001, 3.310399e+002
9.794921e+001, 3.299024e+002
9.843133e+001, 3.291271e+002
9.891344e+001, 3.287924e+002
9.939556e+001, 3.286430e+002
9.987768e+001, 3.287888e+002
1.003598e+002, 3.296212e+002
1.008419e+002, 3.312104e+002
1.013240e+002, 3.338517e+002
1.018061e+002, 3.377341e+002
1.022883e+002, 3.431778e+002
1.027704e+002, 3.495844e+002
1.032525e+002, 3.562568e+002
1.037346e+002, 3.630710e+002
1.042167e+002, 3.708199e+002
1.046988e+002, 3.800366e+002
1.051810e+002, 3.903694e+002
1.056631e+002, 4.015746e+002
1.061452e+002, 4.141761e+002
1.066273e+002, 4.276884e+002
1.071094e+002, 4.404199e+002
1.075915e+002, 4.536592e+002
1.080737e+002, 4.641371e+002
1.085558e+002, 4.718292e+002
1.090379e+002, 4.762056e+002
1.095200e+002, 4.761062e+002
1.100021e+002, 4.702045e+002
1.104842e+002, 4.579541e+002
1.109664e+002, 4.426045e+002
1.114485e+002, 4.216053e+002
1.119306e+002, 3.998455e+002
1.124127e+002, 3.787856e+002
1.128948e+002, 3.590874e+002
1.133769e+002, 3.409975e+002
1.138591e+002, 3.250858e+002
1.143412e+002, 3.117458e+002
1.148233e+002, 3.002062e+002
1.153054e+002, 2.907824e+002
1.157875e+002, 2.828427e+002
1.162696e+002, 2.758279e+002
1.167517e+002, 2.695229e+002
1.172339e+002, 2.639568e+002
1.177160e+002, 2.594787e+002
1.181981e+002, 2.565058e+002
1.186802e+002, 2.534414e+002
1.191623e+002, 2.500070e+002
1.196444e+002, 2.461649e+002
1.201266e+002, 2.417510e+002
1.206087e+002, 2.366253e+002
1.210908e+002, 2.308732e+002
1.215729e+002, 2.248090e+002
1.220550e+002, 2.182161e+002
1.225371e+002, 2.116814e+002
1.230193e+002, 2.057216e+002
1.235014e+002, 2.003316e+002
1.239835e+002, 1.954293e+002
1.244656e+002, 1.912751e+002
1.249477e+002, 1.875289e+002
1.254298e+002, 1.838618e+002
1.259120e+002, 1.800833e+002
1.263941e+002, 1.764737e+002
1.268762e+002, 1.737739e+002
1.273583e+002, 1.724441e+002
1.278404e+002, 1.713210e+002
1.283225e+002, 1.702268e+002
1.288047e+002, 1.690455e+002
1.292868e+002, 1.676044e+002
1.297689e+002, 1.657485e+002
1.302510e+002, 1.635201e+002
1.307331e+002, 1.615385e+002
1.312152e+002, 1.598415e+002
1.316974e+002, 1.583629e+002
1.321795e+002, 1.572102e+002
1.326616e+002, 1.562883e+002
1.331437e+002, 1.553909e+002
1.336258e+002, 1.543102e+002
1.341079e+002, 1.529669e+002
1.345901e+002, 1.519958e+002
1.350722e+002, 1.515163e+002
1.355543e+002, 1.512273e+002
1.360364e+002, 1.511177e+002
1.365185e+002, 1.511258e+002
1.370006e+002, 1.509559e+002
1.374828e+002, 1.502031e+002
1.379649e+002, 1.486975e+002
1.384470e+002, 1.474438e+002
1.389291e+002, 1.467644e+002
1.394112e+002, 1.462568e+002
1.398933e+002, 1.453845e+002
1.403755e+002, 1.439701e+002
1.408576e+002, 1.424419e+002
1.413397e+002, 1.414311e+002
1.418218e+002, 1.408899e+002
1.423039e+002, 1.402892e+002
1.427860e+002, 1.393216e+002
1.432681e+002, 1.380994e+002
1.437503e+002, 1.370204e+002
1.442324e+002, 1.361782e+002
1.447145e+002, 1.355197e+002
1.451966e+002, 1.350275e+002
1.456787e+002, 1.346974e+002
1.461608e+002, 1.343215e+002
1.466430e+002, 1.337086e+002
1.471251e+002, 1.328373e+002
1.476072e+002, 1.319225e+002
1.480893e+002, 1.307212e+002
1.485714e+002, 1.296641e+002
1.490535e+002, 1.290804e+002
1.495357e+002, 1.290227e+002
1.500178e+002, 1.291780e+002
1.504999e+002, 1.290760e+002
1.509820e+002, 1.285643e+002
1.514641e+002, 1.281163e+002
1.519462e+002, 1.277894e+002
1.524284e+002, 1.275234e+002
1.529105e+002, 1.272879e+002
1.533926e+002, 1.270700e+002
1.538747e+002, 1.268465e+002
1.543568e+002, 1.265632e+002
1.548389e+002, 1.263307e+002
1.553211e+002, 1.258771e+002
1.558032e+002, 1.249007e+002
1.562853e+002, 1.237825e+002
1.567674e+002, 1.230050e+002
1.572495e+002, 1.228190e+002
1.577316e+002, 1.230863e+002
1.582138e+002, 1.232327e+002
1.586959e+002, 1.230895e+002
1.591780e+002, 1.230302e+002
1.596601e+002, 1.232923e+002
1.601422e+002, 1.237189e+002
1.606243e+002, 1.238955e+002
1.611065e+002, 1.234890e+002
1.615886e+002, 1.227095e+002
1.620707e+002, 1.224855e+002
1.625528e+002, 1.232285e+002
1.630349e+002, 1.240804e+002
1.635170e+002, 1.245146e+002
1.639991e+002, 1.245724e+002
1.644813e+002, 1.246583e+002
1.649634e+002, 1.250928e+002
1.654455e+002, 1.257112e+002
1.659276e+002, 1.261242e+002
1.664097e+002, 1.261570e+002
1.668918e+002, 1.260761e+002
1.673740e+002, 1.261995e+002
1.678561e+002, 1.265691e+002
1.683382e+002, 1.269415e+002
1.688203e+002, 1.272433e+002
1.693024e+002, 1.274478e+002
1.697845e+002, 1.274712e+002
1.702667e+002, 1.271521e+002
1.707488e+002, 1.267079e+002
1.712309e+002, 1.267267e+002
1.717130e+002, 1.276131e+002
1.721951e+002, 1.282052e+002
1.726772e+002, 1.279453e+002
1.731594e+002, 1.271846e+002
1.736415e+002, 1.264155e+002
1.741236e+002, 1.259446e+002
1.746057e+002, 1.257019e+002
1.750878e+002, 1.252533e+002
1.755699e+002, 1.242835e+002
1.760521e+002, 1.234609e+002
1.765342e+002, 1.230590e+002
1.770163e+002, 1.229237e+002
1.774984e+002, 1.227838e+002
1.779805e+002, 1.224408e+002
1.784626e+002, 1.218920e+002
1.789448e+002, 1.213382e+002
1.794269e+002, 1.205719e+002
1.799090e+002, 1.200000e+002
1.803911e+002, 1.198063e+002
1.808732e+002, 1.199258e+002
1.813553e+002, 1.201733e+002
1.818375e+002, 1.203861e+002
1.823196e+002, 1.205425e+002
1.828017e+002, 1.208998e+002
1.832838e+002, 1.215276e+002
1.837659e+002, 1.222407e+002
1.842480e+002, 1.229751e+002
1.847301e+002, 1.237153e+002
1.852123e+002, 1.244530e+002
1.856944e+002, 1.251769e+002
1.861765e+002, 1.258845e+002
1.866586e+002, 1.265848e+002
1.871407e+002, 1.271950e+002
1.876228e+002, 1.278483e+002
1.881050e+002, 1.286746e+002
1.885871e+002, 1.296782e+002
1.890692e+002, 1.307205e+002
1.895513e+002, 1.316622e+002
1.900334e+002, 1.325036e+002
1.905155e+002, 1.333857e+002
1.909977e+002, 1.344314e+002
1.914798e+002, 1.354713e+002
1.919619e+002, 1.363344e+002
1.924440e+002, 1.370039e+002
1.929261e+002, 1.374895e+002
1.934082e+002, 1.376173e+002
1.938904e+002, 1.375160e+002
1.943725e+002, 1.376145e+002
1.948546e+002, 1.383242e+002
1.953367e+002, 1.392783e+002
1.958188e+002, 1.397180e+002
1.963009e+002, 1.394492e+002
1.967831e+002, 1.389440e+002
1.972652e+002, 1.385718e+002
1.977473e+002, 1.382635e+002
1.982294e+002, 1.378372e+002
1.987115e+002, 1.371638e+002
1.991936e+002, 1.362836e+002
1.996758e+002, 1.353611e+002
2.001579e+002, 1.343202e+002
2.006400e+002, 1.333505e+002
2.011221e+002, 1.326303e+002
2.016042e+002, 1.320643e+002
2.020863e+002, 1.314311e+002
2.025685e+002, 1.306175e+002
2.030506e+002, 1.296194e+002
2.035327e+002, 1.283667e+002
2.040148e+002, 1.265678e+002
2.044969e+002, 1.248084e+002
2.049790e+002, 1.233218e+002
2.054612e+002, 1.220641e+002
2.059433e+002, 1.208913e+002
2.064254e+002, 1.197269e+002
2.069075e+002, 1.185787e+002
2.073896e+002, 1.172812e+002
2.078717e+002, 1.154643e+002
2.083539e+002, 1.138311e+002
2.088360e+002, 1.126709e+002
2.093181e+002, 1.119101e+002
2.098002e+002, 1.113178e+002
2.102823e+002, 1.107246e+002
2.107644e+002, 1.101626e+002
2.112466e+002, 1.093379e+002
2.117287e+002, 1.078108e+002
2.122108e+002, 1.064551e+002
2.126929e+002, 1.056980e+002
2.131750e+002, 1.054561e+002
2.136571e+002, 1.053488e+002
2.141393e+002, 1.050266e+002
2.146214e+002, 1.044395e+002
2.151035e+002, 1.039905e+002
2.155856e+002, 1.037598e+002
2.160677e+002, 1.035613e+002
2.165498e+002, 1.032321e+002
2.170320e+002, 1.028169e+002
2.175141e+002, 1.025268e+002
2.179962e+002, 1.025656e+002
2.184783e+002, 1.029785e+002
2.189604e+002, 1.034252e+002
2.194425e+002, 1.039133e+002
2.199247e+002, 1.044255e+002
2.204068e+002, 1.049359e+002
2.208889e+002, 1.054507e+002
2.213710e+002, 1.060064e+002
2.218531e+002, 1.066087e+002
2.223352e+002, 1.072729e+002
2.228174e+002, 1.081637e+002
2.232995e+002, 1.096355e+002
2.237816e+002, 1.110755e+002
2.242637e+002, 1.119044e+002
2.247458e+002, 1.121237e+002
2.252279e+002, 1.123322e+002
2.257100e+002, 1.130265e+002
2.261922e+002, 1.141670e+002
2.266743e+002, 1.152812e+002
2.271564e+002, 1.164713e+002
2.276385e+002, 1.175415e+002
2.281206e+002, 1.182486e+002
2.286027e+002, 1.185733e+002
2.290849e+002, 1.187930e+002
2.295670e+002, 1.190874e+002
2.300491e+002, 1.194266e+002
2.305312e+002, 1.197282e+002
2.310133e+002, 1.199611e+002
2.314954e+002, 1.201595e+002
2.319776e+002, 1.203614e+002
2.324597e+002, 1.205690e+002
2.329418e+002, 1.207656e+002
2.334239e+002, 1.209414e+002
2.339060e+002, 1.210992e+002
2.343881e+002, 1.212134e+002
2.348703e+002, 1.210878e+002
2.353524e+002, 1.210769e+002
2.358345e+002, 1.217916e+002
2.363166e+002, 1.234230e+002
2.367987e+002, 1.250044e+002
2.372808e+002, 1.258776e+002
2.377630e+002, 1.264761e+002
2.382451e+002, 1.273215e+002
2.387272e+002, 1.287165e+002
2.392093e+002, 1.302194e+002
2.396914e+002, 1.310058e+002
2.401735e+002, 1.308000e+002
2.406557e+002, 1.307751e+002
2.411378e+002, 1.313786e+002
2.416199e+002, 1.323761e+002
2.421020e+002, 1.336443e+002
2.425841e+002, 1.351897e+002
2.430662e+002, 1.368289e+002
2.435484e+002, 1.382591e+002
2.440305e+002, 1.394563e+002
2.445126e+002, 1.404928e+002
2.449947e+002, 1.413348e+002
2.454768e+002, 1.420665e+002
2.459589e+002, 1.427903e+002
2.464410e+002, 1.435509e+002
2.469232e+002, 1.442062e+002
2.474053e+002, 1.444758e+002
2.478874e+002, 1.441740e+002
2.483695e+002, 1.439177e+002
2.488516e+002, 1.440331e+002
2.493337e+002, 1.441084e+002
2.498159e+002, 1.438076e+002
2.502980e+002, 1.430298e+002
2.507801e+002, 1.419478e+002
2.512622e+002, 1.408447e+002
2.517443e+002, 1.397980e+002
2.522264e+002, 1.385491e+002
2.527086e+002, 1.371800e+002
2.531907e+002, 1.355763e+002
2.536728e+002, 1.335395e+002
2.541549e+002, 1.310638e+002
2.546370e+002, 1.284375e+002
2.551191e+002, 1.260951e+002
2.556013e+002, 1.242054e+002
2.560834e+002, 1.222643e+002
2.565655e+002, 1.202609e+002
2.570476e+002, 1.182173e+002
2.575297e+002, 1.161058e+002
2.580118e+002, 1.139424e+002
2.584940e+002, 1.117933e+002
2.589761e+002, 1.097603e+002
2.594582e+002, 1.079247e+002
2.599403e+002, 1.059973e+002
2.604224e+002, 1.037210e+002
2.609045e+002, 1.015482e+002
2.613867e+002, 9.988110e+001
2.618688e+002, 9.868429e+001
2.623509e+002, 9.754432e+001
2.628330e+002, 9.594608e+001
2.633151e+002, 9.367640e+001
2.637972e+002, 9.172836e+001
2.642794e+002, 9.015407e+001
2.647615e+002, 8.879060e+001
2.652436e+002, 8.764659e+001
2.657257e+002, 8.666766e+001
2.662078e+002, 8.569408e+001
2.666899e+002, 8.455258e+001
2.671721e+002, 8.319061e+001
2.676542e+002, 8.203356e+001
2.681363e+002, 8.108774e+001
2.686184e+002, 8.029121e+001
2.691005e+002, 7.980287e+001
2.695826e+002, 7.949135e+001
2.700648e+002, 7.891409e+001
2.705469e+002, 7.761916e+001
2.710290e+002, 7.556524e+001
2.715111e+002, 7.432445e+001
2.719932e+002, 7.439310e+001
2.724753e+002, 7.459832e+001
2.729575e+002, 7.454453e+001
2.734396e+002, 7.422755e+001
2.739217e+002, 7.372482e+001
2.744038e+002, 7.305738e+001
2.748859e+002, 7.224919e+001
2.753680e+002, 7.161953e+001
2.758501e+002, 7.116965e+001
2.763322e+002, 7.084327e+001
2.768144e+002, 7.067076e+001
2.772965e+002, 7.060705e+001
2.777786e+002, 7.056519e+001
2.782607e+002, 7.050206e+001
2.787428e+002, 7.041912e+001
2.792249e+002, 7.031946e+001
2.797071e+002, 7.017085e+001
2.801892e+002, 7.004580e+001
2.806713e+002, 6.997198e+001
2.811534e+002, 6.993285e+001
2.816355e+002, 6.992348e+001
2.821176e+002, 6.995749e+001
2.825998e+002, 6.996997e+001
2.830819e+002, 6.975732e+001
2.835640e+002, 6.910015e+001
2.840461e+002, 6.865841e+001
2.845282e+002, 6.864678e+001
2.850103e+002, 6.890987e+001
2.854925e+002, 6.925655e+001
2.859746e+002, 6.963795e+001
2.864567e+002, 7.000790e+001
2.869388e+002, 7.029731e+001
2.874209e+002, 7.052377e+001
2.879030e+002, 7.062468e+001
2.883852e+002, 7.052680e+001
2.888673e+002, 7.032110e+001
2.893494e+002, 7.012450e+001
2.898315e+002, 6.996499e+001
2.903136e+002, 6.978114e+001
2.907957e+002, 6.950647e+001
2.912779e+002, 6.914419e+001
2.917600e+002, 6.864061e+001
2.922421e+002, 6.783998e+001
2.927242e+002, 6.697932e+001
2.932063e+002, 6.634671e+001
2.936884e+002, 6.597067e+001
2.941706e+002, 6.556254e+001
2.946527e+002, 6.483874e+001
2.951348e+002, 6.378554e+001
2.956169e+002, 6.275954e+001
2.960990e+002, 6.169791e+001
2.965811e+002, 6.072166e+001
2.970633e+002, 5.993742e+001
2.975454e+002, 5.934475e+001
2.980275e+002, 5.884426e+001
2.985096e+002, 5.834945e+001
2.989917e+002, 5.790153e+001
2.994738e+002, 5.765403e+001
2.999560e+002, 5.776081e+001
3.004381e+002, 5.792443e+001
3.009202e+002, 5.795668e+001
3.014023e+002, 5.788816e+001
3.018844e+002, 5.787139e+001
3.023665e+002, 5.800138e+001
3.028487e+002, 5.822782e+001
3.033308e+002, 5.838548e+001
3.038129e+002, 5.838927e+001
3.042950e+002, 5.846572e+001
3.047771e+002, 5.868284e+001
3.052592e+002, 5.904690e+001
3.057414e+002, 5.960190e+001
3.062235e+002, 6.040234e+001
3.067056e+002, 6.133149e+001
3.071877e+002, 6.219413e+001
3.076698e+002, 6.304193e+001
3.081519e+002, 6.369531e+001
3.086341e+002, 6.380497e+001
3.091162e+002, 6.373970e+001
3.095983e+002, 6.421414e+001
3.100804e+002, 6.547767e+001
3.105625e+002, 6.699921e+001
3.110446e+002, 6.799995e+001
3.115268e+002, 6.845817e+001
3.120089e+002, 6.916151e+001
3.124910e+002, 7.046511e+001
3.129731e+002, 7.199980e+001
3.134552e+002, 7.329533e+001
3.139373e+002, 7.427162e+001
3.144195e+002, 7.526508e+001
3.149016e+002, 7.662801e+001
3.153837e+002, 7.834148e+001
3.158658e+002, 7.996290e+001
3.163479e+002, 8.147385e+001
3.168300e+002, 8.286793e+001
3.173121e+002, 8.405924e+001
3.177943e+002, 8.507386e+001
3.182764e+002, 8.617034e+001
3.187585e+002, 8.757517e+001
3.192406e+002, 8.919878e+001
3.197227e+002, 9.062440e+001
3.202048e+002, 9.211549e+001
3.206870e+002, 9.317062e+001
3.211691e+002, 9.340727e+001
3.216512e+002, 9.295210e+001
3.221333e+002, 9.227182e+001
3.226154e+002, 9.162550e+001
3.230975e+002, 9.082541e+001
3.235797e+002, 8.942333e+001
3.240618e+002, 8.736546e+001
3.245439e+002, 8.497718e+001
3.250260e+002, 8.211877e+001
3.255081e+002, 7.903979e+001
3.259902e+002, 7.621583e+001
3.264724e+002, 7.382236e+001
3.269545e+002, 7.161128e+001
3.274366e+002, 6.915178e+001
3.279187e+002, 6.637131e+001
3.284008e+002, 6.380005e+001
3.288829e+002, 6.149762e+001
3.293651e+002, 5.948129e+001
3.298472e+002, 5.775288e+001
3.303293e+002, 5.631243e+001
3.308114e+002, 5.524261e+001
3.312935e+002, 5.479614e+001
3.317756e+002, 5.503189e+001
3.322578e+002, 5.465087e+001
3.327399e+002, 5.300320e+001
3.332220e+002, 5.119214e+001
3.337041e+002, 4.998613e+001
3.341862e+002, 4.939805e+001
3.346683e+002, 4.910114e+001
3.351505e+002, 4.897209e+001
3.356326e+002, 4.894072e+001
3.361147e+002, 4.855308e+001
3.365968e+002, 4.734618e+001
3.370789e+002, 4.630582e+001
3.375610e+002, 4.599313e+001
3.380432e+002, 4.616645e+001
3.385253e+002, 4.623768e+001
3.390074e+002, 4.592025e+001
3.394895e+002, 4.537131e+001
3.399716e+002, 4.501232e+001
3.404537e+002, 4.487492e+001
3.409359e+002, 4.483149e+001
3.414180e+002, 4.499634e+001
3.419001e+002, 4.519310e+001
3.423822e+002, 4.515740e+001
3.428643e+002, 4.481377e+001
3.433464e+002, 4.435283e+001
3.438286e+002, 4.403582e+001
3.443107e+002, 4.392351e+001
3.447928e+002, 4.379974e+001
3.452749e+002, 4.361436e+001
3.457570e+002, 4.345247e+001
3.462391e+002, 4.340928e+001
3.467213e+002, 4.347618e+001
3.472034e+002, 4.353572e+001
3.476855e+002, 4.346991e+001
3.481676e+002, 4.326823e+001
3.486497e+002, 4.319236e+001
3.491318e+002, 4.332571e+001
3.496140e+002, 4.347790e+001
3.500961e+002, 4.359304e+001
3.505782e+002, 4.366320e+001
3.510603e+002, 4.367789e+001
3.515424e+002, 4.362514e+001
3.520245e+002, 4.352448e+001
3.525067e+002, 4.345939e+001
3.529888e+002, 4.343384e+001
3.534709e+002, 4.343864e+001
3.539530e+002, 4.351628e+001
3.544351e+002, 4.360662e+001
3.549172e+002, 4.363161e+001
3.553994e+002, 4.356531e+001
3.558815e+002, 4.345723e+001
3.563636e+002, 4.340266e+001
3.568457e+002, 4.352803e+001
3.573278e+002, 4.342774e+001
3.578099e+002, 4.293920e+001
3.582920e+002, 4.236843e+001
3.587741e+002, 4.188824e+001
3.592563e+002, 4.153175e+001
3.597384e+002, 4.128124e+001
3.602205e+002, 4.112539e+001
3.607026e+002, 4.107310e+001
3.611847e+002, 4.103238e+001
3.616668e+002, 4.112041e+001
3.621490e+002, 4.109967e+001
3.626311e+002, 4.075511e+001
3.631132e+002, 4.025208e+001
3.635953e+002, 3.993014e+001
3.640774e+002, 4.001243e+001
3.645595e+002, 4.037827e+001
3.650417e+002, 4.051040e+001
3.655238e+002, 4.023639e+001
3.660059e+002, 3.994691e+001
3.664880e+002, 3.961837e+001
3.669701e+002, 3.933255e+001
3.674522e+002, 3.915619e+001
3.679344e+002, 3.911371e+001
3.684165e+002, 3.919975e+001
3.688986e+002, 3.943690e+001
3.693807e+002, 3.991445e+001
3.698628e+002, 4.029778e+001
3.703449e+002, 4.054889e+001
3.708271e+002, 4.073422e+001
3.713092e+002, 4.084279e+001
3.717913e+002, 4.090504e+001
3.722734e+002, 4.101171e+001
3.727555e+002, 4.126471e+001
3.732376e+002, 4.165699e+001
3.737198e+002, 4.195526e+001
3.742019e+002, 4.200102e+001
3.746840e+002, 4.215419e+001
3.751661e+002, 4.257525e+001
3.756482e+002, 4.316410e+001
3.761303e+002, 4.377888e+001
3.766125e+002, 4.437264e+001
3.770946e+002, 4.491047e+001
3.775767e+002, 4.529557e+001
3.780588e+002, 4.546713e+001
3.785409e+002, 4.565701e+001
3.790230e+002, 4.589588e+001
3.795052e+002, 4.619712e+001
3.799873e+002, 4.660260e+001
3.804694e+002, 4.711848e+001
3.809515e+002, 4.764526e+001
3.814336e+002, 4.803328e+001
3.819157e+002, 4.828857e+001
3.823979e+002, 4.871836e+001
3.828800e+002, 4.953641e+001
3.833621e+002, 5.032800e+001
3.838442e+002, 5.074956e+001
3.843263e+002, 5.089529e+001
3.848084e+002, 5.112505e+001
3.852906e+002, 5.169604e+001
3.857727e+002, 5.247005e+001
3.862548e+002, 5.316951e+001
3.867369e+002, 5.381347e+001
3.872190e+002, 5.430416e+001
3.877011e+002, 5.448671e+001
3.881833e+002, 5.450391e+001
3.886654e+002, 5.457174e+001
3.891475e+002, 5.482133e+001
3.896296e+002, 5.496313e+001
3.901117e+002, 5.466598e+001
3.905938e+002, 5.398293e+001
3.910760e+002, 5.333081e+001
3.915581e+002, 5.283118e+001
3.920402e+002, 5.244139e+001
3.925223e+002, 5.212259e+001
3.930044e+002, 5.188412e+001
3.934865e+002, 5.159946e+001
3.939687e+002, 5.118728e+001
3.944508e+002, 5.070927e+001
3.949329e+002, 5.027247e+001
3.954150e+002, 4.989184e+001
3.958971e+002, 4.950900e+001
3.963792e+002, 4.903117e+001
3.968614e+002, 4.848310e+001
3.973435e+002, 4.809995e+001
3.978256e+002, 4.799314e+001
3.983077e+002, 4.796100e+001
3.987898e+002, 4.779296e+001
3.992719e+002, 4.756646e+001
3.997540e+002, 4.760265e+001
4.002361e+002, 4.811187e+001
4.007183e+002, 4.890637e+001
4.012004e+002, 4.942095e+001
4.016825e+002, 4.943494e+001
4.021646e+002, 4.960156e+001
4.026467e+002, 5.019311e+001
4.031288e+002, 5.092337e+001
4.036110e+002, 5.142159e+001
4.040931e+002, 5.161383e+001
4.045752e+002, 5.176546e+001
4.050573e+002, 5.222049e+001
4.055394e+002, 5.310136e+001
4.060215e+002, 5.363285e+001
4.065037e+002, 5.363640e+001
4.069858e+002, 5.350913e+001
4.074679e+002, 5.330775e+001
4.079500e+002, 5.313324e+001
4.084321e+002, 5.318425e+001
4.089142e+002, 5.360335e+001
4.093964e+002, 5.430452e+001
4.098785e+002, 5.489907e+001
4.103606e+002, 5.539585e+001
4.108427e+002, 5.575407e+001
4.113248e+002, 5.573275e+001
4.118069e+002, 5.570276e+001
4.122891e+002, 5.610933e+001
4.127712e+002, 5.702649e+001
4.132533e+002, 5.804512e+001
4.137354e+002, 5.849406e+001
4.142175e+002, 5.804035e+001
4.146996e+002, 5.837243e+001
4.151818e+002, 6.007222e+001
4.156639e+002, 6.204047e+001
4.161460e+002, 6.392170e+001
4.166281e+002, 6.574125e+001
4.171102e+002, 6.761897e+001
4.175923e+002, 6.963777e+001
4.180745e+002, 7.178228e+001
4.185566e+002, 7.402654e+001
4.190387e+002, 7.632648e+001
4.195208e+002, 7.880788e+001
4.200029e+002, 8.155891e+001
4.204850e+002, 8.445319e+001
4.209672e+002, 8.734409e+001
4.214493e+002, 9.018828e+001
4.219314e+002, 9.313667e+001
4.224135e+002, 9.629780e+001
4.228956e+002, 9.967089e+001
4.233777e+002, 1.033815e+002
4.238599e+002, 1.075960e+002
4.243420e+002, 1.119537e+002
4.248241e+002, 1.162120e+002
4.253062e+002, 1.203872e+002
4.257883e+002, 1.245719e+002
4.262704e+002, 1.289530e+002
4.267526e+002, 1.333078e+002
4.272347e+002, 1.371731e+002
4.277168e+002, 1.405394e+002
4.281989e+002, 1.439739e+002
4.286810e+002, 1.477393e+002
4.291631e+002, 1.517860e+002
4.296453e+002, 1.558984e+002
4.301274e+002, 1.600173e+002
4.306095e+002, 1.643440e+002
4.310916e+002, 1.690301e+002
4.315737e+002, 1.739646e+002
4.320558e+002, 1.790840e+002
4.325380e+002, 1.844025e+002
4.330201e+002, 1.895115e+002
4.335022e+002, 1.939505e+002
4.339843e+002, 1.976453e+002
4.344664e+002, 2.008381e+002
4.349485e+002, 2.034703e+002
4.354307e+002, 2.056572e+002
4.359128e+002, 2.075195e+002
4.363949e+002, 2.090026e+002
4.368770e+002, 2.100483e+002
4.373591e+002, 2.107251e+002
4.378412e+002, 2.107398e+002
4.383234e+002, 2.089268e+002
4.388055e+002, 2.050494e+002
4.392876e+002, 1.995593e+002
4.397697e+002, 1.916020e+002
4.402518e+002, 1.825580e+002
4.407339e+002, 1.733262e+002
4.412160e+002, 1.643325e+002
4.416982e+002, 1.560410e+002
4.421803e+002, 1.489849e+002
4.426624e+002, 1.431091e+002
4.431445e+002, 1.387638e+002
4.436266e+002, 1.364152e+002
4.441087e+002, 1.351655e+002
4.445909e+002, 1.349769e+002
4.450730e+002, 1.356892e+002
4.455551e+002, 1.371998e+002
4.460372e+002, 1.395026e+002
4.465193e+002, 1.423155e+002
4.470014e+002, 1.450556e+002
4.474836e+002, 1.477408e+002
4.479657e+002, 1.502914e+002
4.484478e+002, 1.530702e+002
4.489299e+002, 1.554404e+002
4.494120e+002, 1.571445e+002
4.498941e+002, 1.580903e+002
4.503763e+002, 1.580381e+002
4.508584e+002, 1.565831e+002
4.513405e+002, 1.539335e+002
4.518226e+002, 1.509514e+002
4.523047e+002, 1.476079e+002
4.527868e+002, 1.440758e+002
4.532690e+002, 1.404337e+002
4.537511e+002, 1.366698e+002
4.542332e+002, 1.327027e+002
4.547153e+002, 1.284137e+002
4.551974e+002, 1.241484e+002
4.556795e+002, 1.199699e+002
4.561617e+002, 1.159968e+002
4.566438e+002, 1.127546e+002
4.571259e+002, 1.105423e+002
4.576080e+002, 1.087866e+002
4.580901e+002, 1.067099e+002
4.585722e+002, 1.043063e+002
4.590544e+002, 1.022049e+002
4.595365e+002, 1.006435e+002
4.600186e+002, 9.934872e+001
4.605007e+002, 9.824603e+001
4.609828e+002, 9.724683e+001
4.614649e+002, 9.604394e+001
4.619471e+002, 9.446786e+001
4.624292e+002, 9.251366e+001
4.629113e+002, 9.009350e+001
4.633934e+002, 8.689479e+001
4.638755e+002, 8.367525e+001
4.643576e+002, 8.058289e+001
4.648398e+002, 7.744492e+001
4.653219e+002, 7.399605e+001
4.658040e+002, 7.022092e+001
4.662861e+002, 6.647112e+001
4.667682e+002, 6.311076e+001
4.672503e+002, 6.011448e+001
4.677325e+002, 5.751368e+001
4.682146e+002, 5.562086e+001
4.686967e+002, 5.379633e+001
4.691788e+002, 5.174337e+001
4.696609e+002, 4.969291e+001
4.701430e+002, 4.805811e+001
4.706252e+002, 4.703049e+001
4.711073e+002, 4.630941e+001
4.715894e+002, 4.530576e+001
4.720715e+002, 4.387744e+001
4.725536e+002, 4.280494e+001
4.730357e+002, 4.263463e+001
4.735179e+002, 4.248842e+001
4.740000e+002, 4.174072e+001
4.744821e+002, 4.052942e+001
4.749642e+002, 3.949556e+001
4.754463e+002, 3.911806e+001
4.759284e+002, 3.914447e+001
4.764106e+002, 3.903200e+001
4.768927e+002, 3.876439e+001
4.773748e+002, 3.846186e+001
4.778569e+002, 3.816367e+001
4.783390e+002, 3.787085e+001
4.788211e+002, 3.755144e+001
4.793033e+002, 3.715101e+001
4.797854e+002, 3.692083e+001
4.802675e+002, 3.716392e+001
4.807496e+002, 3.761824e+001
4.812317e+002, 3.777063e+001
4.817138e+002, 3.752181e+001
4.821959e+002, 3.718848e+001
4.826780e+002, 3.703653e+001
4.831602e+002, 3.707026e+001
4.836423e+002, 3.712868e+001
4.841244e+002, 3.720405e+001
4.846065e+002, 3.731013e+001
4.850886e+002, 3.750213e+001
4.855707e+002, 3.771871e+001
4.860529e+002, 3.781218e+001
4.865350e+002, 3.773019e+001
4.870171e+002, 3.764213e+001
4.874992e+002, 3.784929e+001
4.879813e+002, 3.854161e+001
4.884634e+002, 3.901087e+001
4.889456e+002, 3.917115e+001
4.894277e+002, 3.923054e+001
4.899098e+002, 3.929820e+001
4.903919e+002, 3.934626e+001
4.908740e+002, 3.926040e+001
4.913561e+002, 3.894405e+001
4.918383e+002, 3.852906e+001
4.923204e+002, 3.841221e+001
4.928025e+002, 3.873264e+001
4.932846e+002, 3.896698e+001
4.937667e+002, 3.903368e+001
4.942488e+002, 3.895494e+001
4.947310e+002, 3.867112e+001
4.952131e+002, 3.821107e+001
4.956952e+002, 3.777229e+001
4.961773e+002, 3.748963e+001
4.966594e+002, 3.733433e+001
4.971415e+002, 3.726194e+001
4.976237e+002, 3.730017e+001
4.981058e+002, 3.728254e+001
4.985879e+002, 3.708868e+001
4.990700e+002, 3.678672e+001
4.995521e+002, 3.652225e+001
5.000342e+002, 3.633733e+001
5.005164e+002, 3.610261e+001
5.009985e+002, 3.576263e+001
5.014806e+002, 3.532603e+001
5.019627e+002, 3.475912e+001
5.024448e+002, 3.405396e+001
5.029269e+002, 3.338316e+001
5.034091e+002, 3.294786e+001
5.038912e+002, 3.275613e+001
5.043733e+002, 3.233299e+001
5.048554e+002, 3.134174e+001
5.053375e+002, 3.052156e+001
5.058196e+002, 3.024930e+001
5.063018e+002, 3.028203e+001
5.067839e+002, 3.026351e+001
5.072660e+002, 3.006214e+001
5.077481e+002, 2.975270e+001
5.082302e+002, 2.943052e+001
5.087123e+002, 2.905264e+001
5.091945e+002, 2.881716e+001
5.096766e+002, 2.888770e+001
5.101587e+002, 2.893781e+001
5.106408e+002, 2.880027e+001
5.111229e+002, 2.855682e+001
5.116050e+002, 2.837267e+001
5.120872e+002, 2.833072e+001
5.125693e+002, 2.838439e+001
5.130514e+002, 2.848388e+001
5.135335e+002, 2.864925e+001
5.140156e+002, 2.869689e+001
5.144977e+002, 2.845761e+001
5.149799e+002, 2.821947e+001
5.154620e+002, 2.826551e+001
5.159441e+002, 2.855183e+001
5.164262e+002, 2.877381e+001
5.169083e+002, 2.871992e+001
5.173904e+002, 2.858102e+001
5.178726e+002, 2.861570e+001
5.183547e+002, 2.881577e+001
5.188368e+002, 2.901427e+001
5.193189e+002, 2.912440e+001
5.198010e+002, 2.919575e+001
5.202831e+002, 2.934806e+001
5.207653e+002, 2.961649e+001
5.212474e+002, 2.984711e+001
5.217295e+002, 3.001351e+001
5.222116e+002, 3.013161e+001
5.226937e+002, 3.017671e+001
5.231758e+002, 3.017336e+001
5.236580e+002, 3.022375e+001
5.241401e+002, 3.041161e+001
5.246222e+002, 3.069900e+001
5.251043e+002, 3.088628e+001
5.255864e+002, 3.077888e+001
5.260685e+002, 3.085466e+001
5.265507e+002, 3.132218e+001
5.270328e+002, 3.186338e+001
5.275149e+002, 3.217583e+001
5.279970e+002, 3.225626e+001
5.284791e+002, 3.236795e+001
5.289612e+002, 3.280559e+001
5.294434e+002, 3.348533e+001
5.299255e+002, 3.388679e+001
5.304076e+002, 3.393737e+001
5.308897e+002, 3.387415e+001
5.313718e+002, 3.367780e+001
5.318539e+002, 3.347672e+001
5.323361e+002, 3.344217e+001
5.328182e+002, 3.362997e+001
5.333003e+002, 3.376910e+001
5.337824e+002, 3.371967e+001
5.342645e+002, 3.348905e+001
5.347466e+002, 3.304744e+001
5.352288e+002, 3.237775e+001
5.357109e+002, 3.167047e+001
5.361930e+002, 3.105786e+001
5.366751e+002, 3.053187e+001
5.371572e+002, 3.003733e+001
5.376393e+002, 2.952172e+001
5.381215e+002, 2.909562e+001
5.386036e+002, 2.885333e+001
5.390857e+002, 2.868680e+001
5.395678e+002, 2.846460e+001
5.400499e+002, 2.815906e+001
5.405320e+002, 2.781326e+001
5.410142e+002, 2.746545e+001
5.414963e+002, 2.711380e+001
5.419784e+002, 2.681933e+001
5.424604e+002, 2.653709e+001
5.429426e+002, 2.637763e+001
5.434247e+002, 2.649920e+001
5.439068e+002, 2.668951e+001
5.443889e+002, 2.667392e+001
5.448710e+002, 2.638934e+001
5.453531e+002, 2.607548e+001
5.458353e+002, 2.601191e+001
5.463174e+002, 2.617715e+001
5.467995e+002, 2.633411e+001
5.472816e+002, 2.650464e+001
5.477637e+002, 2.659340e+001
5.482458e+002, 2.644274e+001
5.487280e+002, 2.619090e+001
5.492101e+002, 2.606902e+001
5.496922e+002, 2.616282e+001
5.501743e+002, 2.628955e+001
5.506564e+002, 2.634012e+001
5.511385e+002, 2.634052e+001
5.516207e+002, 2.634112e+001
5.521028e+002, 2.635224e+001
5.525849e+002, 2.636887e+001
5.530670e+002, 2.637876e+001
5.535491e+002, 2.638226e+001
5.540313e+002, 2.645370e+001
5.545134e+002, 2.668939e+001
5.549955e+002, 2.686782e+001
5.554776e+002, 2.691259e+001
5.559597e+002, 2.687466e+001
5.564418e+002, 2.678762e+001
5.569240e+002, 2.667371e+001
5.574061e+002, 2.659902e+001
5.578882e+002, 2.666042e+001
5.583703e+002, 2.686535e+001
5.588524e+002, 2.698380e+001
5.593345e+002, 2.698807e+001
5.598167e+002, 2.693729e+001
5.602988e+002, 2.677910e+001
5.607809e+002, 2.661600e+001
5.612630e+002, 2.660401e+001
5.617451e+002, 2.679722e+001
5.622272e+002, 2.697692e+001
5.627094e+002, 2.685796e+001
5.631915e+002, 2.656532e+001
5.636736e+002, 2.656171e+001
5.641557e+002, 2.694929e+001
5.646378e+002, 2.737942e+001
5.651199e+002, 2.763312e+001
5.656021e+002, 2.771837e+001
5.660842e+002, 2.772291e+001
5.665663e+002, 2.760029e+001
5.670484e+002, 2.746471e+001
5.675305e+002, 2.728061e+001
5.680126e+002, 2.714055e+001
5.684948e+002, 2.719554e+001
5.689769e+002, 2.745210e+001
5.694590e+002, 2.775825e+001
5.699411e+002, 2.797592e+001
5.704232e+002, 2.810874e+001
5.709053e+002, 2.820733e+001
5.713875e+002, 2.823177e+001
5.718696e+002, 2.827575e+001
5.723517e+002, 2.832267e+001
5.728338e+002, 2.841378e+001
5.733159e+002, 2.862066e+001
5.737980e+002, 2.893746e+001
5.742802e+002, 2.923704e+001
5.747623e+002, 2.939952e+001
5.752444e+002, 2.945188e+001
5.757265e+002, 2.944252e+001
5.762086e+002, 2.929346e+001
5.766907e+002, 2.943064e+001
5.771729e+002, 3.031412e+001
5.776550e+002, 3.145483e+001
5.781371e+002, 3.203970e+001
5.786192e+002, 3.194580e+001
5.791013e+002, 3.179285e+001
5.795834e+002, 3.159021e+001
5.800656e+002, 3.158277e+001
5.805477e+002, 3.220269e+001
5.810298e+002, 3.337589e+001
5.815119e+002, 3.451648e+001
5.819940e+002, 3.525716e+001
5.824761e+002, 3.568605e+001
5.829583e+002, 3.610230e+001
5.834404e+002, 3.641160e+001
5.839225e+002, 3.686141e+001
5.844046e+002, 3.754930e+001
5.848867e+002, 3.829305e+001
5.853688e+002, 3.893003e+001
5.858510e+002, 3.950863e+001
5.863331e+002, 4.022329e+001
5.868152e+002, 4.122721e+001
5.872973e+002, 4.238152e+001
5.877794e+002, 4.331673e+001
5.882615e+002, 4.398022e+001
5.887437e+002, 4.479530e+001
5.892258e+002, 4.588546e+001
5.897079e+002, 4.714994e+001
5.901900e+002, 4.853319e+001
5.906721e+002, 5.001089e+001
5.911542e+002, 5.141042e+001
5.916364e+002, 5.254445e+001
5.921185e+002, 5.368929e+001
5.926006e+002, 5.501429e+001
5.930827e+002, 5.652752e+001
5.935648e+002, 5.836419e+001
5.940469e+002, 6.060355e+001
5.945291e+002, 6.280540e+001
5.950112e+002, 6.433527e+001
5.954933e+002, 6.503160e+001
5.959754e+002, 6.578655e+001
5.964575e+002, 6.693588e+001
5.969396e+002, 6.776626e+001
5.974218e+002, 6.803973e+001
5.979039e+002, 6.783581e+001
5.983860e+002, 6.715413e+001
5.988681e+002, 6.601769e+001
5.993502e+002, 6.486713e+001
5.998323e+002, 6.433884e+001
6.003145e+002, 6.439906e+001
6.007966e+002, 6.409943e+001
6.012787e+002, 6.315958e+001
6.017608e+002, 6.237425e+001
6.022429e+002, 6.239178e+001
6.027250e+002, 6.279809e+001
6.032072e+002, 6.295676e+001
6.036893e+002, 6.269346e+001
6.041714e+002, 6.247919e+001
6.046535e+002, 6.264276e+001
6.051356e+002, 6.296110e+001
6.056177e+002, 6.311327e+001
6.060999e+002, 6.306456e+001
6.065820e+002, 6.291861e+001
6.070641e+002, 6.272443e+001
6.075462e+002, 6.252013e+001
6.080283e+002, 6.248326e+001
6.085104e+002, 6.286725e+001
6.089926e+002, 6.305514e+001
6.094747e+002, 6.280156e+001
6.099568e+002, 6.253229e+001
6.104389e+002, 6.261665e+001
6.109210e+002, 6.297729e+001
6.114031e+002, 6.328148e+001
6.118853e+002, 6.336925e+001
6.123674e+002, 6.318939e+001
6.128495e+002, 6.259997e+001
6.133316e+002, 6.157663e+001
6.138137e+002, 6.037402e+001
6.142958e+002, 5.900827e+001
6.147780e+002, 5.753279e+001
6.152601e+002, 5.594249e+001
6.157422e+002, 5.425944e+001
6.162243e+002, 5.264059e+001
6.167064e+002, 5.107981e+001
6.171885e+002, 4.963114e+001
6.176707e+002, 4.840303e+001
6.181528e+002, 4.730017e+001
6.186349e+002, 4.611723e+001
6.191170e+002, 4.479502e+001
6.195991e+002, 4.343402e+001
6.200812e+002, 4.213966e+001
6.205634e+002, 4.090146e+001
6.210455e+002, 3.981369e+001
6.215276e+002, 3.877994e+001
6.220097e+002, 3.803654e+001
6.224918e+002, 3.780469e+001
6.229739e+002, 3.778684e+001
6.234561e+002, 3.767456e+001
6.239382e+002, 3.741434e+001
6.244203e+002, 3.718604e+001
6.249023e+002, 3.710272e+001
6.253845e+002, 3.716746e+001
6.258666e+002, 3.740031e+001
6.263487e+002, 3.780672e+001
6.268308e+002, 3.837576e+001
6.273129e+002, 3.928017e+001
6.277950e+002, 4.017839e+001
6.282772e+002, 4.034856e+001
6.287593e+002, 3.969004e+001
6.292414e+002, 3.899061e+001
6.297235e+002, 3.851945e+001
6.302056e+002, 3.790470e+001
6.306877e+002, 3.672179e+001
6.311699e+002, 3.519360e+001
6.316520e+002, 3.383255e+001
6.321341e+002, 3.287897e+001
6.326162e+002, 3.222654e+001
6.330983e+002, 3.173140e+001
6.335804e+002, 3.141874e+001
6.340626e+002, 3.112411e+001
6.345447e+002, 3.083508e+001
6.350268e+002, 3.058214e+001
6.355089e+002, 3.034545e+001
6.359910e+002, 3.015996e+001
6.364731e+002, 3.008870e+001
6.369553e+002, 3.016068e+001
6.374374e+002, 3.028428e+001
6.379195e+002, 3.041866e+001
6.384016e+002, 3.055175e+001
6.388837e+002, 3.067193e+001
6.393658e+002, 3.077544e+001
6.398480e+002, 3.082861e+001
6.403301e+002, 3.080087e+001
6.408122e+002, 3.071640e+001
6.412943e+002, 3.065847e+001
6.417764e+002, 3.079421e+001
6.422585e+002, 3.069747e+001
6.427407e+002, 3.024370e+001
6.432228e+002, 2.967047e+001
6.437049e+002, 2.904953e+001
6.441870e+002, 2.843916e+001
6.446691e+002, 2.792250e+001
6.451512e+002, 2.754700e+001
6.456334e+002, 2.727849e+001
6.461155e+002, 2.707691e+001
6.465976e+002, 2.694202e+001
6.470797e+002, 2.685739e+001
6.475618e+002, 2.688444e+001
6.480439e+002, 2.682284e+001
6.485261e+002, 2.636323e+001
6.490082e+002, 2.569014e+001
6.494903e+002, 2.540964e+001
6.499724e+002, 2.583421e+001
6.504545e+002, 2.624243e+001
6.509366e+002, 2.636209e+001
6.514188e+002, 2.630722e+001
6.519009e+002, 2.618152e+001
6.523830e+002, 2.601491e+001
6.528651e+002, 2.582446e+001
6.533472e+002, 2.561337e+001
6.538293e+002, 2.540867e+001
6.543115e+002, 2.531138e+001
6.547936e+002, 2.533809e+001
6.552757e+002, 2.543279e+001
6.557578e+002, 2.569565e+001
6.562399e+002, 2.593249e+001
6.567220e+002, 2.605750e+001
6.572042e+002, 2.606768e+001
6.576863e+002, 2.596256e+001
6.581684e+002, 2.567906e+001
6.586505e+002, 2.538150e+001
6.591326e+002, 2.518954e+001
6.596147e+002, 2.510881e+001
6.600969e+002, 2.518611e+001
6.605790e+002, 2.543575e+001
6.610611e+002, 2.572190e+001
6.615432e+002, 2.595128e+001
6.620253e+002, 2.611385e+001
6.625074e+002, 2.609803e+001
6.629896e+002, 2.567665e+001
6.634717e+002, 2.537711e+001
6.639538e+002, 2.529278e+001
6.644359e+002, 2.530852e+001
6.649180e+002, 2.536597e+001
6.654001e+002, 2.543940e+001
6.658823e+002, 2.549730e+001
6.663644e+002, 2.552789e+001
6.668465e+002, 2.551930e+001
6.673286e+002, 2.541303e+001
6.678107e+002, 2.521442e+001
6.682928e+002, 2.512658e+001
6.687750e+002, 2.523117e+001
6.692571e+002, 2.537067e+001
6.697392e+002, 2.541074e+001
6.702213e+002, 2.535234e+001
6.707034e+002, 2.524823e+001
6.711855e+002, 2.496086e+001
6.716677e+002, 2.479795e+001
6.721498e+002, 2.490915e+001
6.726319e+002, 2.516393e+001
6.731140e+002, 2.549488e+001
6.735961e+002, 2.584121e+001
6.740782e+002, 2.603728e+001
6.745604e+002, 2.591588e+001
6.750425e+002, 2.562140e+001
6.755246e+002, 2.570572e+001
6.760067e+002, 2.632860e+001
6.764888e+002, 2.659921e+001
6.769709e+002, 2.608009e+001
6.774531e+002, 2.545483e+001
6.779352e+002, 2.529934e+001
6.784173e+002, 2.549651e+001
6.788994e+002, 2.563146e+001
6.793815e+002, 2.555761e+001
6.798636e+002, 2.546720e+001
6.803458e+002, 2.551950e+001
6.808279e+002, 2.561064e+001
6.813100e+002, 2.550698e+001
6.817921e+002, 2.520671e+001
6.822742e+002, 2.503680e+001
6.827563e+002, 2.530705e+001
6.832385e+002, 2.587915e+001
6.837206e+002, 2.603673e+001
6.842027e+002, 2.550012e+001
6.846848e+002, 2.516039e+001
6.851669e+002, 2.527820e+001
6.856490e+002, 2.550119e+001
6.861312e+002, 2.567590e+001
6.866133e+002, 2.578990e+001
6.870954e+002, 2.584629e+001
6.875775e+002, 2.583438e+001
6.880596e+002, 2.578528e+001
6.885417e+002, 2.569195e+001
6.890239e+002, 2.558801e+001
6.895060e+002, 2.555663e+001
6.899881e+002, 2.561221e+001
6.904702e+002, 2.571478e+001
6.909523e+002, 2.584306e+001
6.914344e+002, 2.598525e+001
6.919166e+002, 2.608410e+001
6.923987e+002, 2.613078e+001
6.928808e+002, 2.614528e+001
6.933629e+002, 2.610698e+001
6.938450e+002, 2.605897e+001
6.943271e+002, 2.601301e+001
6.948093e+002, 2.597959e+001
6.952914e+002, 2.598272e+001
6.957735e+002, 2.604364e+001
6.962556e+002, 2.611022e+001
6.967377e+002, 2.609512e+001
6.972198e+002, 2.603495e+001
6.977020e+002, 2.609026e+001
6.981841e+002, 2.629502e+001
6.986662e+002, 2.646019e+001
6.991483e+002, 2.644443e+001
6.996304e+002, 2.629223e+001
7.001125e+002, 2.617148e+001
7.005947e+002, 2.604805e+001
7.010768e+002, 2.601372e+001
7.015589e+002, 2.611679e+001
7.020410e+002, 2.626584e+001
7.025231e+002, 2.645064e+001
7.030052e+002, 2.663005e+001
7.034874e+002, 2.673787e+001
7.039695e+002, 2.674450e+001
7.044516e+002, 2.667902e+001
7.049337e+002, 2.656002e+001
7.054158e+002, 2.639632e+001
7.058979e+002, 2.620140e+001
7.063801e+002, 2.595805e+001
7.068622e+002, 2.582005e+001
7.073442e+002, 2.589647e+001
7.078264e+002, 2.612396e+001
7.083085e+002, 2.636616e+001
7.087906e+002, 2.671405e+001
7.092727e+002, 2.684511e+001
7.097548e+002, 2.646776e+001
7.102369e+002, 2.613146e+001
7.107191e+002, 2.622391e+001
7.112012e+002, 2.657334e+001
7.116833e+002, 2.686101e+001
7.121654e+002, 2.697009e+001
7.126475e+002, 2.695953e+001
7.131296e+002, 2.682854e+001
7.136118e+002, 2.662122e+001
7.140939e+002, 2.660593e+001
7.145760e+002, 2.681874e+001
7.150581e+002, 2.704839e+001
7.155402e+002, 2.722310e+001
7.160223e+002, 2.733640e+001
7.165045e+002, 2.736548e+001
7.169866e+002, 2.730052e+001
7.174687e+002, 2.722407e+001
7.179508e+002, 2.714419e+001
7.184329e+002, 2.705290e+001
7.189150e+002, 2.691877e+001
7.193972e+002, 2.678216e+001
7.198793e+002, 2.668246e+001
7.203614e+002, 2.663788e+001
7.208435e+002, 2.667894e+001
7.213256e+002, 2.685402e+001
7.218077e+002, 2.713527e+001
7.222899e+002, 2.746267e+001
7.227720e+002, 2.787015e+001
7.232541e+002, 2.802514e+001
7.237362e+002, 2.768833e+001
7.242183e+002, 2.725685e+001
7.247004e+002, 2.723913e+001
7.251826e+002, 2.762510e+001
7.256647e+002, 2.787353e+001
7.261468e+002, 2.779239e+001
7.266289e+002, 2.776682e+001
7.271110e+002, 2.806495e+001
7.275931e+002, 2.841597e+001
7.280753e+002, 2.848688e+001
7.285574e+002, 2.826349e+001
7.290395e+002, 2.795991e+001
7.295216e+002, 2.770090e+001
7.300037e+002, 2.752186e+001
7.304858e+002, 2.755987e+001
7.309680e+002, 2.782653e+001
7.314501e+002, 2.794328e+001
7.319322e+002, 2.776559e+001
7.324143e+002, 2.759639e+001
7.328964e+002, 2.774896e+001
7.333785e+002, 2.813112e+001
7.338607e+002, 2.824947e+001
7.343428e+002, 2.780410e+001
7.348249e+002, 2.755923e+001
7.353070e+002, 2.787461e+001
7.357891e+002, 2.828374e+001
7.362712e+002, 2.839263e+001
7.367534e+002, 2.825065e+001
7.372355e+002, 2.811109e+001
7.377176e+002, 2.809955e+001
7.381997e+002, 2.813296e+001
7.386818e+002, 2.804516e+001
7.391639e+002, 2.786374e+001
7.396461e+002, 2.789827e+001
7.401282e+002, 2.822941e+001
7.406103e+002, 2.851085e+001
7.410924e+002, 2.850900e+001
7.415745e+002, 2.836375e+001
7.420566e+002, 2.840478e+001
7.425388e+002, 2.871440e+001
7.430209e+002, 2.891026e+001
7.435030e+002, 2.890475e+001
7.439851e+002, 2.883773e+001
7.444672e+002, 2.872297e+001
7.449493e+002, 2.861835e+001
7.454315e+002, 2.863223e+001
7.459136e+002, 2.878122e+001
7.463957e+002, 2.891212e+001
7.468778e+002, 2.880651e+001
7.473599e+002, 2.857898e+001
7.478420e+002, 2.863980e+001
7.483242e+002, 2.899851e+001
7.488063e+002, 2.922637e+001
7.492884e+002, 2.912755e+001
7.497705e+002, 2.897740e+001
7.502526e+002, 2.913119e+001
7.507347e+002, 2.961407e+001
7.512169e+002, 2.990416e+001
7.516990e+002, 2.986275e+001
7.521811e+002, 2.982544e+001
7.526632e+002, 2.990332e+001
7.531453e+002, 2.998923e+001
7.536274e+002, 2.997821e+001
7.541096e+002, 2.987559e+001
7.545917e+002, 2.972875e+001
7.550738e+002, 2.949103e+001
7.555559e+002, 2.937800e+001
7.560380e+002, 2.988877e+001
7.565201e+002, 3.082449e+001
7.570023e+002, 3.121485e+001
7.574844e+002, 3.087148e+001
7.579665e+002, 3.050658e+001
7.584486e+002, 3.063687e+001
7.589307e+002, 3.111175e+001
7.594128e+002, 3.142799e+001
7.598950e+002, 3.153212e+001
7.603771e+002, 3.156942e+001
7.608592e+002, 3.152145e+001
7.613413e+002, 3.143083e+001
7.618234e+002, 3.128417e+001
7.623055e+002, 3.112024e+001
7.627877e+002, 3.097357e+001
7.632698e+002, 3.085059e+001
7.637519e+002, 3.083134e+001
7.642340e+002, 3.100279e+001
7.647161e+002, 3.130103e+001
7.651982e+002, 3.173757e+001
7.656804e+002, 3.224260e+001
7.661625e+002, 3.242603e+001
7.666446e+002, 3.212443e+001
7.671267e+002, 3.163042e+001
7.676088e+002, 3.131039e+001
7.680909e+002, 3.116430e+001
7.685731e+002, 3.115289e+001
7.690552e+002, 3.138721e+001
7.695373e+002, 3.157498e+001
7.700194e+002, 3.168609e+001
7.705015e+002, 3.170310e+001
7.709836e+002, 3.153250e+001
7.714658e+002, 3.122976e+001
7.719479e+002, 3.106045e+001
7.724300e+002, 3.119743e+001
7.729121e+002, 3.138619e+001
7.733942e+002, 3.145254e+001
7.738763e+002, 3.145523e+001
7.743585e+002, 3.151908e+001
7.748406e+002, 3.163445e+001
7.753227e+002, 3.162955e+001
7.758048e+002, 3.137417e+001
7.762869e+002, 3.100784e+001
7.767690e+002, 3.088229e+001
7.772512e+002, 3.104228e+001
7.777333e+002, 3.114236e+001
7.782154e+002, 3.114844e+001
7.786975e+002, 3.111640e+001
7.791796e+002, 3.106576e+001
7.796617e+002, 3.099936e+001
7.801439e+002, 3.088529e+001
7.806260e+002, 3.067059e+001
7.811081e+002, 3.066413e+001
7.815902e+002, 3.115305e+001
7.820723e+002, 3.165953e+001
7.825544e+002, 3.191663e+001
7.830366e+002, 3.196499e+001
7.835187e+002, 3.183896e+001
7.840008e+002, 3.158120e+001
7.844829e+002, 3.137501e+001
7.849650e+002, 3.143048e+001
7.854471e+002, 3.164071e+001
7.859293e+002, 3.166190e+001
7.864114e+002, 3.149059e+001
7.868935e+002, 3.136520e+001
7.873756e+002, 3.134905e+001
7.878577e+002, 3.137874e+001
7.883398e+002, 3.138684e+001
7.888220e+002, 3.138582e+001
7.893040e+002, 3.148122e+001
7.897861e+002, 3.180813e+001
7.902682e+002, 3.203356e+001
7.907504e+002, 3.205023e+001
7.912325e+002, 3.203519e+001
7.917146e+002, 3.209611e+001
7.921967e+002, 3.221737e+001
7.926788e+002, 3.235696e+001
7.931609e+002, 3.250556e+001
7.936431e+002, 3.261598e+001
7.941252e+002, 3.258482e+001
7.946073e+002, 3.251267e+001
7.950894e+002, 3.261208e+001
7.955715e+002, 3.287051e+001
7.960536e+002, 3.312672e+001
7.965358e+002, 3.331709e+001
7.970179e+002, 3.345395e+001
7.975000e+002, 3.355058e+001
7.979821e+002, 3.360612e+001
7.984642e+002, 3.365120e+001
7.989464e+002, 3.370179e+001
7.994285e+002, 3.371312e+001
7.999106e+002, 3.359730e+001
8.003927e+002, 3.349921e+001
8.008748e+002, 3.352579e+001
8.013569e+002, 3.366872e+001
8.018391e+002, 3.387280e+001
8.023212e+002, 3.420954e+001
8.028033e+002, 3.447920e+001
8.032854e+002, 3.454563e+001
8.037675e+002, 3.450658e+001
8.042496e+002, 3.442041e+001
8.047318e+002, 3.433697e+001
8.052139e+002, 3.438670e+001
8.056960e+002, 3.464894e+001
8.061781e+002, 3.495818e+001
8.066602e+002, 3.500463e+001
8.071423e+002, 3.481625e+001
8.076245e+002, 3.478598e+001
8.081066e+002, 3.494698e+001
8.085887e+002, 3.518246e+001
8.090708e+002, 3.545647e+001
8.095529e+002, 3.575631e+001
8.100350e+002, 3.606657e+001
8.105172e+002, 3.639048e+001
8.109993e+002, 3.670268e+001
8.114814e+002, 3.707781e+001
8.119635e+002, 3.734581e+001
8.124456e+002, 3.728073e+001
8.129277e+002, 3.721601e+001
8.134099e+002, 3.750370e+001
8.138920e+002, 3.810965e+001
8.143741e+002, 3.873325e+001
8.148562e+002, 3.923169e+001
8.153383e+002, 3.967437e+001
8.158204e+002, 4.013871e+001
8.163026e+002, 4.059405e+001
8.167847e+002, 4.090142e+001
8.172668e+002, 4.108217e+001
8.177489e+002, 4.143775e+001
8.182310e+002, 4.214751e+001
8.187131e+002, 4.308789e+001
8.191953e+002, 4.405132e+001
8.196774e+002, 4.506588e+001
8.201595e+002, 4.590144e+001
8.206416e+002, 4.637302e+001
8.211237e+002, 4.702967e+001
8.216058e+002, 4.819293e+001
8.220880e+002, 4.956118e+001
8.225701e+002, 5.083508e+001
8.230522e+002, 5.201098e+001
8.235343e+002, 5.307391e+001
8.240164e+002, 5.382464e+001
8.244985e+002, 5.468996e+001
8.249807e+002, 5.594816e+001
8.254628e+002, 5.736378e+001
8.259449e+002, 5.867476e+001
8.264270e+002, 5.987141e+001
8.269091e+002, 6.110521e+001
8.273912e+002, 6.249366e+001
8.278734e+002, 6.382963e+001
8.283555e+002, 6.487595e+001
8.288376e+002, 6.562493e+001
8.293197e+002, 6.601889e+001
8.298018e+002, 6.605112e+001
8.302839e+002, 6.585371e+001
8.307661e+002, 6.548829e+001
8.312482e+002, 6.492741e+001
8.317303e+002, 6.408791e+001
8.322124e+002, 6.291884e+001
8.326945e+002, 6.187475e+001
8.331766e+002, 6.102950e+001
8.336588e+002, 6.021551e+001
8.341409e+002, 5.928803e+001
8.346230e+002, 5.846582e+001
8.351051e+002, 5.800956e+001
8.355872e+002, 5.784376e+001
8.360693e+002, 5.755653e+001
8.365515e+002, 5.697522e+001
8.370336e+002, 5.632783e+001
8.375157e+002, 5.567508e+001
8.379978e+002, 5.506236e+001
8.384799e+002, 5.457159e+001
8.389620e+002, 5.417146e+001
8.394442e+002, 5.381576e+001
8.399263e+002, 5.348650e+001
8.404084e+002, 5.294025e+001
8.408905e+002, 5.171116e+001
8.413726e+002, 4.994010e+001
8.418547e+002, 4.843482e+001
8.423369e+002, 4.722112e+001
8.428190e+002, 4.621313e+001
8.433011e+002, 4.545719e+001
8.437832e+002, 4.469481e+001
8.442653e+002, 4.355774e+001
8.447474e+002, 4.206323e+001
8.452296e+002, 4.106808e+001
8.457117e+002, 4.096856e+001
8.461938e+002, 4.080157e+001
8.466759e+002, 4.039423e+001
8.471580e+002, 3.997958e+001
8.476401e+002, 3.969395e+001
8.481223e+002, 3.951471e+001
8.486044e+002, 3.937521e+001
8.490865e+002, 3.926466e+001
8.495686e+002, 3.916599e+001
8.500507e+002, 3.904656e+001
8.505328e+002, 3.895301e+001
8.510150e+002, 3.893651e+001
8.514971e+002, 3.898390e+001
8.519792e+002, 3.906855e+001
8.524613e+002, 3.917744e+001
8.529434e+002, 3.929812e+001
8.534255e+002, 3.945525e+001
8.539077e+002, 3.958074e+001
8.543898e+002, 3.934096e+001
8.548719e+002, 3.873574e+001
8.553540e+002, 3.854396e+001
8.558361e+002, 3.899056e+001
8.563182e+002, 3.957167e+001
8.568004e+002, 3.993797e+001
8.572825e+002, 4.013250e+001
8.577646e+002, 4.029725e+001
8.582467e+002, 4.046445e+001
8.587288e+002, 4.052813e+001
8.592109e+002, 4.018517e+001
8.596931e+002, 4.009446e+001
8.601752e+002, 4.068563e+001
8.606573e+002, 4.154378e+001
8.611394e+002, 4.218653e+001
8.616215e+002, 4.256010e+001
8.621036e+002, 4.285735e+001
8.625858e+002, 4.312403e+001
8.630679e+002, 4.337974e+001
8.635500e+002, 4.359822e+001
8.640321e+002, 4.383495e+001
8.645142e+002, 4.418020e+001
8.649963e+002, 4.462849e+001
8.654785e+002, 4.509193e+001
8.659606e+002, 4.551888e+001
8.664427e+002, 4.594154e+001
8.669248e+002, 4.643659e+001
8.674069e+002, 4.697420e+001
8.678890e+002, 4.735647e+001
8.683712e+002, 4.756370e+001
8.688533e+002, 4.788998e+001
8.693354e+002, 4.848048e+001
8.698175e+002, 4.916383e+001
8.702996e+002, 4.969367e+001
8.707817e+002, 5.006840e+001
8.712639e+002, 5.059027e+001
8.717459e+002, 5.140870e+001
8.722280e+002, 5.211081e+001
8.727101e+002, 5.258849e+001
8.731923e+002, 5.296195e+001
8.736744e+002, 5.336317e+001
8.741565e+002, 5.370456e+001
8.746386e+002, 5.375702e+001
8.751207e+002, 5.340821e+001
8.756028e+002, 5.299943e+001
8.760850e+002, 5.274038e+001
8.765671e+002, 5.237808e+001
8.770492e+002, 5.165252e+001
8.775313e+002, 5.071804e+001
8.780134e+002, 4.979753e+001
8.784955e+002, 4.896986e+001
8.789777e+002, 4.828893e+001
8.794598e+002, 4.786742e+001
8.799419e+002, 4.753416e+001
8.804240e+002, 4.697345e+001
8.809061e+002, 4.625346e+001
8.813882e+002, 4.561245e+001
8.818704e+002, 4.509099e+001
8.823525e+002, 4.468806e+001
8.828346e+002, 4.441682e+001
8.833167e+002, 4.421495e+001
8.837988e+002, 4.395774e+001
8.842809e+002, 4.364008e+001
8.847631e+002, 4.328069e+001
8.852452e+002, 4.280004e+001
8.857273e+002, 4.248342e+001
8.862094e+002, 4.252789e+001
8.866915e+002, 4.267590e+001
8.871736e+002, 4.262209e+001
8.876558e+002, 4.238317e+001
8.881379e+002, 4.222459e+001
8.886200e+002, 4.210269e+001
8.891021e+002, 4.213296e+001
8.895842e+002, 4.246177e+001
8.900663e+002, 4.282990e+001
8.905485e+002, 4.304328e+001
8.910306e+002, 4.316470e+001
8.915127e+002, 4.332258e+001
8.919948e+002, 4.355072e+001
8.924769e+002, 4.387811e+001
8.929590e+002, 4.439215e+001
8.934412e+002, 4.495810e+001
8.939233e+002, 4.545507e+001
8.944054e+002, 4.588415e+001
8.948875e+002, 4.618984e+001
8.953696e+002, 4.640077e+001
8.958517e+002, 4.676753e+001
8.963339e+002, 4.751424e+001
8.968160e+002, 4.838856e+001
8.972981e+002, 4.881606e+001
8.977802e+002, 4.885188e+001
8.982623e+002, 4.902905e+001
8.987444e+002, 4.938442e+001
8.992266e+002, 5.006244e+001
8.997087e+002, 5.122276e+001
9.001908e+002, 5.248802e+001
9.006729e+002, 5.326981e+001
9.011550e+002, 5.353773e+001
9.016371e+002, 5.401797e+001
9.021193e+002, 5.492725e+001
9.026014e+002, 5.564760e+001
9.030835e+002, 5.590706e+001
9.035656e+002, 5.609747e+001
9.040477e+002, 5.648261e+001
9.045298e+002, 5.700318e+001
9.050120e+002, 5.753748e+001
9.054941e+002, 5.819552e+001
9.059762e+002, 5.851030e+001
9.064583e+002, 5.820219e+001
9.069404e+002, 5.769474e+001
9.074225e+002, 5.721303e+001
9.079047e+002, 5.670601e+001
9.083868e+002, 5.608231e+001
9.088689e+002, 5.532908e+001
9.093510e+002, 5.446448e+001
9.098331e+002, 5.341462e+001
9.103152e+002, 5.240083e+001
9.107974e+002, 5.175392e+001
9.112795e+002, 5.125518e+001
9.117616e+002, 5.046954e+001
9.122437e+002, 4.941003e+001
9.127258e+002, 4.835595e+001
9.132079e+002, 4.743989e+001
9.136901e+002, 4.661650e+001
9.141722e+002, 4.581480e+001
9.146543e+002, 4.504969e+001
9.151364e+002, 4.434737e+001
9.156185e+002, 4.370094e+001
9.161006e+002, 4.335080e+001
9.165828e+002, 4.341795e+001
9.170649e+002, 4.350174e+001
9.175470e+002, 4.326954e+001
9.180291e+002, 4.279204e+001
9.185112e+002, 4.230122e+001
9.189933e+002, 4.166240e+001
9.194755e+002, 4.135868e+001
9.199576e+002, 4.162405e+001
9.204397e+002, 4.188995e+001
9.209218e+002, 4.194454e+001
9.214039e+002, 4.188131e+001
9.218860e+002, 4.174275e+001
9.223682e+002, 4.154139e+001
9.228503e+002, 4.149031e+001
9.233324e+002, 4.183846e+001
9.238145e+002, 4.204305e+001
9.242966e+002, 4.178543e+001
9.247787e+002, 4.147627e+001
9.252609e+002, 4.146032e+001
9.257430e+002, 4.164393e+001
9.262251e+002, 4.176424e+001
9.267072e+002, 4.174107e+001
9.271893e+002, 4.177098e+001
9.276714e+002, 4.198167e+001
9.281536e+002, 4.230775e+001
9.286357e+002, 4.282062e+001
9.291178e+002, 4.335254e+001
9.295999e+002, 4.352051e+001
9.300820e+002, 4.333099e+001
9.305641e+002, 4.319306e+001
9.310463e+002, 4.337749e+001
9.315284e+002, 4.368630e+001
9.320105e+002, 4.376914e+001
9.324926e+002, 4.370449e+001
9.329747e+002, 4.380529e+001
9.334568e+002, 4.408714e+001
9.339390e+002, 4.450910e+001
9.344211e+002, 4.505319e+001
9.349032e+002, 4.575756e+001
9.353853e+002, 4.671737e+001
9.358674e+002, 4.784002e+001
9.363495e+002, 4.850938e+001
9.368317e+002, 4.855557e+001
9.373138e+002, 4.889592e+001
9.377959e+002, 4.966262e+001
9.382780e+002, 5.067694e+001
9.387601e+002, 5.190311e+001
9.392422e+002, 5.328038e+001
9.397244e+002, 5.470849e+001
9.402065e+002, 5.617781e+001
9.406886e+002, 5.773713e+001
9.411707e+002, 5.936779e+001
9.416528e+002, 6.111424e+001
9.421349e+002, 6.294598e+001
9.426171e+002, 6.493092e+001
9.430992e+002, 6.713815e+001
9.435813e+002, 6.953874e+001
9.440634e+002, 7.204818e+001
9.445455e+002, 7.468202e+001
9.450276e+002, 7.731722e+001
9.455098e+002, 7.954680e+001
9.459919e+002, 8.216599e+001
9.464740e+002, 8.583395e+001
9.469561e+002, 9.011570e+001
9.474382e+002, 9.428979e+001
9.479203e+002, 9.836565e+001
9.484025e+002, 1.030527e+002
9.488846e+002, 1.087656e+002
9.493667e+002, 1.151337e+002
9.498488e+002, 1.221931e+002
9.503309e+002, 1.294881e+002
9.508130e+002, 1.361982e+002
9.512952e+002, 1.425274e+002
9.517773e+002, 1.493734e+002
9.522594e+002, 1.570206e+002
9.527415e+002, 1.649554e+002
9.532236e+002, 1.727200e+002
9.537057e+002, 1.804501e+002
9.541878e+002, 1.883892e+002
9.546699e+002, 1.965914e+002
9.551520e+002, 2.054182e+002
9.556342e+002, 2.149706e+002
9.561163e+002, 2.249299e+002
9.565984e+002, 2.351128e+002
9.570805e+002, 2.459645e+002
9.575626e+002, 2.581251e+002
9.580447e+002, 2.716710e+002
9.585269e+002, 2.859989e+002
9.590090e+002, 3.013427e+002
9.594911e+002, 3.168004e+002
9.599732e+002, 3.323892e+002
9.604553e+002, 3.475357e+002
9.609374e+002, 3.617155e+002
9.614196e+002, 3.750172e+002
9.619017e+002, 3.878710e+002
9.623838e+002, 4.011925e+002
9.628659e+002, 4.111861e+002
9.633480e+002, 4.167798e+002
9.638301e+002, 4.203864e+002
9.643123e+002, 4.218036e+002
9.647944e+002, 4.222377e+002
9.652765e+002, 4.220225e+002
9.657586e+002, 4.216146e+002
9.662407e+002, 4.228624e+002
9.667228e+002, 4.262461e+002
9.672050e+002, 4.307727e+002
9.676871e+002, 4.369577e+002
9.681692e+002, 4.434579e+002
9.686513e+002, 4.492827e+002
9.691334e+002, 4.550695e+002
9.696155e+002, 4.626896e+002
9.700977e+002, 4.716868e+002
9.705798e+002, 4.776455e+002
9.710619e+002, 4.784009e+002
9.715440e+002, 4.759746e+002
9.720261e+002, 4.706792e+002
9.725082e+002, 4.636033e+002
9.729904e+002, 4.555429e+002
9.734725e+002, 4.467977e+002
9.739546e+002, 4.375204e+002
9.744367e+002, 4.278502e+002
9.749188e+002, 4.183694e+002
9.754009e+002, 4.097798e+002
9.758831e+002, 4.014335e+002
9.763652e+002, 3.931537e+002
9.768473e+002, 3.842348e+002
9.773294e+002, 3.731242e+002
9.778115e+002, 3.596490e+002
9.782936e+002, 3.443472e+002
9.787758e+002, 3.273960e+002
9.792579e+002, 3.093673e+002
9.797400e+002, 2.906312e+002
9.802221e+002, 2.714348e+002
9.807042e+002, 2.529634e+002
9.811863e+002, 2.352694e+002
9.816685e+002, 2.182963e+002
9.821506e+002, 2.021077e+002
9.826327e+002, 1.874101e+002
9.831148e+002, 1.747392e+002
9.835969e+002, 1.638275e+002
9.840790e+002, 1.543088e+002
9.845612e+002, 1.462023e+002
9.850433e+002, 1.386233e+002
9.855254e+002, 1.315397e+002
9.860075e+002, 1.252799e+002
9.864896e+002, 1.200341e+002
9.869717e+002, 1.152073e+002
9.874539e+002, 1.102420e+002
9.879360e+002, 1.053943e+002
9.884181e+002, 1.014886e+002
9.889002e+002, 9.870610e+001
9.893823e+002, 9.628712e+001
9.898644e+002, 9.428283e+001
9.903466e+002, 9.254562e+001
9.908287e+002, 9.107777e+001
9.913108e+002, 8.979305e+001
9.917929e+002, 8.856567e+001
9.922750e+002, 8.743483e+001
9.927571e+002, 8.665609e+001
9.932393e+002, 8.645741e+001
9.937214e+002, 8.620326e+001
9.942035e+002, 8.577796e+001
9.946856e+002, 8.542275e+001
9.951677e+002, 8.540553e+001
9.956498e+002, 8.538499e+001
9.961320e+002, 8.492381e+001
9.966141e+002, 8.407133e+001
9.970962e+002, 8.333405e+001
9.975783e+002, 8.279253e+001
9.980604e+002, 8.239821e+001
9.985425e+002, 8.214355e+001
9.990247e+002, 8.202940e+001
9.995068e+002, 8.210149e+001
9.999889e+002, 8.229307e+001
1.000471e+003, 8.247878e+001
1.000953e+003, 8.266330e+001
1.001435e+003, 8.304433e+001
1.001917e+003, 8.386916e+001
1.002399e+003, 8.465408e+001
1.002882e+003, 8.505306e+001
1.003364e+003, 8.536263e+001
1.003846e+003, 8.591604e+001
1.004328e+003, 8.658389e+001
1.004810e+003, 8.707182e+001
1.005292e+003, 8.731663e+001
1.005774e+003, 8.749350e+001
1.006256e+003, 8.764643e+001
1.006739e+003, 8.787062e+001
1.007221e+003, 8.838578e+001
1.007703e+003, 8.894638e+001
1.008185e+003, 8.917688e+001
1.008667e+003, 8.912930e+001
1.009149e+003, 8.906209e+001
1.009631e+003, 8.906409e+001
1.010113e+003, 8.902631e+001
1.010595e+003, 8.889163e+001
1.011078e+003, 8.861958e+001
1.011560e+003, 8.812656e+001
1.012042e+003, 8.745341e+001
1.012524e+003, 8.667483e+001
1.013006e+003, 8.581059e+001
1.013488e+003, 8.485550e+001
1.013970e+003, 8.380791e+001
1.014452e+003, 8.282588e+001
1.014935e+003, 8.217590e+001
1.015417e+003, 8.164958e+001
1.015899e+003, 8.063294e+001
1.016381e+003, 7.924826e+001
1.016863e+003, 7.808995e+001
1.017345e+003, 7.723967e+001
1.017827e+003, 7.649905e+001
1.018309e+003, 7.577393e+001
1.018791e+003, 7.499739e+001
1.019274e+003, 7.404842e+001
1.019756e+003, 7.297814e+001
1.020238e+003, 7.205237e+001
1.020720e+003, 7.126453e+001
1.021202e+003, 7.028193e+001
1.021684e+003, 6.902809e+001
1.022166e+003, 6.792885e+001
1.022648e+003, 6.723977e+001
1.023130e+003, 6.678510e+001
1.023613e+003, 6.629107e+001
1.024095e+003, 6.576030e+001
1.024577e+003, 6.528870e+001
1.025059e+003, 6.490723e+001
1.025541e+003, 6.431188e+001
1.026023e+003, 6.340614e+001
1.026505e+003, 6.244298e+001
1.026987e+003, 6.156733e+001
1.027469e+003, 6.074911e+001
1.027952e+003, 5.991649e+001
1.028434e+003, 5.905261e+001
1.028916e+003, 5.846228e+001
1.029398e+003, 5.817688e+001
1.029880e+003, 5.808466e+001
1.030362e+003, 5.829316e+001
1.030844e+003, 5.838404e+001
1.031326e+003, 5.805506e+001
1.031809e+003, 5.745622e+001
1.032291e+003, 5.683734e+001
1.032773e+003, 5.614550e+001
1.033255e+003, 5.592022e+001
1.033737e+003, 5.644737e+001
1.034219e+003, 5.681463e+001
1.034701e+003, 5.679449e+001
1.035183e+003, 5.666371e+001
1.035666e+003, 5.658089e+001
1.036148e+003, 5.652344e+001
1.036630e+003, 5.642921e+001
1.037112e+003, 5.626705e+001
1.037594e+003, 5.624839e+001
1.038076e+003, 5.660199e+001
1.038558e+003, 5.672302e+001
1.039040e+003, 5.616601e+001
1.039522e+003, 5.571989e+001
1.040005e+003, 5.608473e+001
1.040487e+003, 5.685675e+001
1.040969e+003, 5.717121e+001
1.041451e+003, 5.694426e+001
1.041933e+003, 5.671129e+001
1.042415e+003, 5.638068e+001
1.042897e+003, 5.618738e+001
1.043379e+003, 5.638567e+001
1.043861e+003, 5.652461e+001
1.044344e+003, 5.616701e+001
1.044826e+003, 5.559384e+001
1.045308e+003, 5.538504e+001
1.045790e+003, 5.563435e+001
1.046272e+003, 5.584185e+001
1.046754e+003, 5.594027e+001
1.047236e+003, 5.601228e+001
1.047718e+003, 5.605328e+001
1.048201e+003, 5.609843e+001
1.048683e+003, 5.617571e+001
1.049165e+003, 5.627246e+001
1.049647e+003, 5.635651e+001
1.050129e+003, 5.641885e+001
1.050611e+003, 5.652690e+001
1.051093e+003, 5.672850e+001
1.051575e+003, 5.692775e+001
1.052057e+003, 5.701519e+001
1.052540e+003, 5.716799e+001
1.053022e+003, 5.754012e+001
1.053504e+003, 5.805973e+001
1.053986e+003, 5.863445e+001
1.054468e+003, 5.925777e+001
1.054950e+003, 5.970130e+001
1.055432e+003, 5.972982e+001
1.055914e+003, 5.980685e+001
1.056396e+003, 6.016185e+001
1.056879e+003, 6.055417e+001
1.057361e+003, 6.071883e+001
1.057843e+003, 6.082548e+001
1.058325e+003, 6.121655e+001
1.058807e+003, 6.193825e+001
1.059289e+003, 6.263854e+001
1.059771e+003, 6.316615e+001
1.060253e+003, 6.370372e+001
1.060736e+003, 6.434048e+001
1.061218e+003, 6.499686e+001
1.061700e+003, 6.562064e+001
1.062182e+003, 6.622169e+001
1.062664e+003, 6.684559e+001
1.063146e+003, 6.748911e+001
1.063628e+003, 6.802468e+001
1.064110e+003, 6.824577e+001
1.064593e+003, 6.858260e+001
1.065075e+003, 6.936551e+001
1.065557e+003, 7.017967e+001
1.066039e+003, 7.071481e+001
1.066521e+003, 7.106322e+001
1.067003e+003, 7.139429e+001
1.067485e+003, 7.172959e+001
1.067967e+003, 7.198246e+001
1.068449e+003, 7.196074e+001
1.068932e+003, 7.213081e+001
1.069414e+003, 7.301823e+001
1.069896e+003, 7.385422e+001
1.070378e+003, 7.403416e+001
1.070860e+003, 7.380871e+001
1.071342e+003, 7.346867e+001
1.071824e+003, 7.312383e+001
1.072306e+003, 7.301905e+001
1.072788e+003, 7.342274e+001
1.073271e+003, 7.366565e+001
1.073753e+003, 7.313192e+001
1.074235e+003, 7.264295e+001
1.074717e+003, 7.304380e+001
1.075199e+003, 7.369763e+001
1.075681e+003, 7.367845e+001
1.076163e+003, 7.301247e+001
1.076645e+003, 7.241122e+001
1.077127e+003, 7.212247e+001
1.077610e+003, 7.190149e+001
1.078092e+003, 7.175603e+001
1.078574e+003, 7.150448e+001
1.079056e+003, 7.092703e+001
1.079538e+003, 7.024026e+001
1.080020e+003, 6.973017e+001
1.080502e+003, 6.935931e+001
1.080984e+003, 6.889246e+001
1.081467e+003, 6.825656e+001
1.081949e+003, 6.753372e+001
1.082431e+003, 6.668355e+001
1.082913e+003, 6.584279e+001
1.083395e+003, 6.514243e+001
1.083877e+003, 6.446146e+001
1.084359e+003, 6.369007e+001
1.084841e+003, 6.281934e+001
1.085323e+003, 6.182842e+001
1.085806e+003, 6.069273e+001
1.086288e+003, 5.965791e+001
1.086770e+003, 5.889521e+001
1.087252e+003, 5.817635e+001
1.087734e+003, 5.735936e+001
1.088216e+003, 5.654089e+001
1.088698e+003, 5.579747e+001
1.089180e+003, 5.513301e+001
1.089662e+003, 5.451383e+001
1.090145e+003, 5.392773e+001
1.090627e+003, 5.355048e+001
1.091109e+003, 5.376901e+001
1.091591e+003, 5.377882e+001
1.092073e+003, 5.308011e+001
1.092555e+003, 5.219065e+001
1.093037e+003, 5.133071e+001
1.093519e+003, 5.066428e+001
1.094002e+003, 5.054731e+001
1.094484e+003, 5.096211e+001
1.094966e+003, 5.105632e+001
1.095448e+003, 5.020866e+001
1.095930e+003, 4.952517e+001
1.096412e+003, 4.949077e+001
1.096894e+003, 4.959994e+001
1.097376e+003, 4.958416e+001
1.097859e+003, 4.948086e+001
1.098341e+003, 4.939721e+001
1.098823e+003, 4.931706e+001
1.099305e+003, 4.905644e+001
1.099787e+003, 4.837243e+001
1.100269e+003, 4.792760e+001
1.100751e+003, 4.808385e+001
1.101233e+003, 4.829183e+001
1.101715e+003, 4.831127e+001
1.102198e+003, 4.822372e+001
1.102680e+003, 4.805607e+001
1.103162e+003, 4.786813e+001
1.103644e+003, 4.787424e+001
1.104126e+003, 4.823671e+001
1.104608e+003, 4.837080e+001
1.105090e+003, 4.790383e+001
1.105572e+003, 4.754462e+001
1.106054e+003, 4.759959e+001
1.106537e+003, 4.780159e+001
1.107019e+003, 4.804300e+001
1.107501e+003, 4.823453e+001
1.107983e+003, 4.812500e+001
1.108465e+003, 4.759055e+001
1.108947e+003, 4.737130e+001
1.109429e+003, 4.796665e+001
1.109911e+003, 4.826163e+001
1.110394e+003, 4.773700e+001
1.110876e+003, 4.716324e+001
1.111358e+003, 4.704161e+001
1.111840e+003, 4.714918e+001
1.112322e+003, 4.709820e+001
1.112804e+003, 4.687117e+001
1.113286e+003, 4.677032e+001
1.113768e+003, 4.695608e+001
1.114250e+003, 4.699780e+001
1.114733e+003, 4.668874e+001
1.115215e+003, 4.647900e+001
1.115697e+003, 4.666682e+001
1.116179e+003, 4.694830e+001
1.116661e+003, 4.694712e+001
1.117143e+003, 4.671217e+001
1.117625e+003, 4.661138e+001
1.118107e+003, 4.674433e+001
1.118589e+003, 4.676728e+001
1.119072e+003, 4.658524e+001
1.119554e+003, 4.646944e+001
1.120036e+003, 4.644214e+001
1.120518e+003, 4.663026e+001
1.121000e+003, 4.726416e+001
1.121482e+003, 4.811078e+001
1.121964e+003, 4.843129e+001
1.122446e+003, 4.808141e+001
1.122929e+003, 4.814107e+001
1.123411e+003, 4.883794e+001
1.123893e+003, 4.910112e+001
1.124375e+003, 4.851054e+001
1.124857e+003, 4.804149e+001
1.125339e+003, 4.834425e+001
1.125821e+003, 4.907059e+001
1.126303e+003, 4.963987e+001
1.126786e+003, 5.005993e+001
1.127268e+003, 5.048445e+001
1.127750e+003, 5.091740e+001
1.128232e+003, 5.128808e+001
1.128714e+003, 5.157468e+001
1.129196e+003, 5.189791e+001
1.129678e+003, 5.233002e+001
1.130160e+003, 5.269421e+001
1.130642e+003, 5.275059e+001
1.131125e+003, 5.263433e+001
1.131607e+003, 5.285723e+001
1.132089e+003, 5.339599e+001
1.132571e+003, 5.381107e+001
1.133053e+003, 5.408481e+001
1.133535e+003, 5.448025e+001
1.134017e+003, 5.507762e+001
1.134499e+003, 5.553661e+001
1.134981e+003, 5.557309e+001
1.135464e+003, 5.541982e+001
1.135946e+003, 5.553111e+001
1.136428e+003, 5.581021e+001
1.136910e+003, 5.588182e+001
1.137392e+003, 5.576840e+001
1.137874e+003, 5.559610e+001
1.138356e+003, 5.539306e+001
1.138838e+003, 5.516639e+001
1.139321e+003, 5.491853e+001
1.139803e+003, 5.464100e+001
1.140285e+003, 5.435596e+001
1.140767e+003, 5.399936e+001
1.141249e+003, 5.327276e+001
1.141731e+003, 5.245410e+001
1.142213e+003, 5.226181e+001
1.142695e+003, 5.257910e+001
1.143177e+003, 5.280297e+001
1.143660e+003, 5.273373e+001
1.144142e+003, 5.248342e+001
1.144624e+003, 5.205607e+001
1.145106e+003, 5.166099e+001
1.145588e+003, 5.154390e+001
1.146070e+003, 5.156358e+001
1.146552e+003, 5.160524e+001
1.147034e+003, 5.161778e+001
1.147516e+003, 5.142268e+001
1.147999e+003, 5.110927e+001
1.148481e+003, 5.115527e+001
1.148963e+003, 5.182089e+001
1.149445e+003, 5.249379e+001
1.149927e+003, 5.287541e+001
1.150409e+003, 5.302626e+001
1.150891e+003, 5.280058e+001
1.151373e+003, 5.252117e+001
1.151856e+003, 5.263599e+001
1.152338e+003, 5.295478e+001
1.152820e+003, 5.292335e+001
1.153302e+003, 5.242823e+001
1.153784e+003, 5.208344e+001
1.154266e+003, 5.219704e+001
1.154748e+003, 5.234631e+001
1.155230e+003, 5.240301e+001
1.155713e+003, 5.244097e+001
1.156195e+003, 5.254469e+001
1.156677e+003, 5.263326e+001
1.157159e+003, 5.257850e+001
1.157641e+003, 5.239744e+001
1.158123e+003, 5.225222e+001
1.158605e+003, 5.216261e+001
1.159087e+003, 5.209834e+001
1.159569e+003, 5.208433e+001
1.160052e+003, 5.205854e+001
1.160534e+003, 5.197945e+001
1.161016e+003, 5.191386e+001
1.161498e+003, 5.195985e+001
1.161980e+003, 5.202566e+001
1.162462e+003, 5.189009e+001
1.162944e+003, 5.152400e+001
1.163426e+003, 5.126153e+001
1.163908e+003, 5.109780e+001
1.164391e+003, 5.108887e+001
1.164873e+003, 5.135690e+001
1.165355e+003, 5.139514e+001
1.165837e+003, 5.083204e+001
1.166319e+003, 5.029702e+001
1.166801e+003, 5.060514e+001
1.167283e+003, 5.149005e+001
1.167765e+003, 5.183065e+001
1.168247e+003, 5.160749e+001
1.168730e+003, 5.145724e+001
1.169212e+003, 5.141270e+001
1.169694e+003, 5.119784e+001
1.170176e+003, 5.073462e+001
1.170658e+003, 5.026666e+001
1.171140e+003, 4.996084e+001
1.171622e+003, 4.974861e+001
1.172104e+003, 4.950202e+001
1.172587e+003, 4.926437e+001
1.173069e+003, 4.926023e+001
1.173551e+003, 4.939060e+001
1.174033e+003, 4.924759e+001
1.174515e+003, 4.882912e+001
1.174997e+003, 4.840582e+001
1.175479e+003, 4.808062e+001
1.175961e+003, 4.778601e+001
1.176443e+003, 4.742477e+001
1.176926e+003, 4.715439e+001
1.177408e+003, 4.733280e+001
1.177890e+003, 4.760735e+001
1.178372e+003, 4.739073e+001
1.178854e+003, 4.689394e+001
1.179336e+003, 4.660655e+001
1.179818e+003, 4.655371e+001
1.180300e+003, 4.643554e+001
1.180782e+003, 4.612327e+001
1.181265e+003, 4.577880e+001
1.181747e+003, 4.540452e+001
1.182229e+003, 4.514836e+001
1.182711e+003, 4.515699e+001
1.183193e+003, 4.528739e+001
1.183675e+003, 4.552893e+001
1.184157e+003, 4.573277e+001
1.184639e+003, 4.559192e+001
1.185122e+003, 4.508935e+001
1.185604e+003, 4.472541e+001
1.186086e+003, 4.474857e+001
1.186568e+003, 4.469690e+001
1.187050e+003, 4.428812e+001
1.187532e+003, 4.404580e+001
1.188014e+003, 4.433113e+001
1.188496e+003, 4.476009e+001
1.188979e+003, 4.502354e+001
1.189461e+003, 4.513712e+001
1.189943e+003, 4.514180e+001
1.190425e+003, 4.504199e+001
1.190907e+003, 4.478188e+001
1.191389e+003, 4.422834e+001
1.191871e+003, 4.390425e+001
1.192353e+003, 4.394580e+001
1.192835e+003, 4.406459e+001
1.193318e+003, 4.410779e+001
1.193800e+003, 4.420248e+001
1.194282e+003, 4.455235e+001
1.194764e+003, 4.502375e+001
1.195246e+003, 4.501094e+001
1.195728e+003, 4.454046e+001
1.196210e+003, 4.433890e+001
1.196692e+003, 4.442932e+001
1.197174e+003, 4.456959e+001
1.197657e+003, 4.469386e+001
1.198139e+003, 4.477440e+001
1.198621e+003, 4.479175e+001
1.199103e+003, 4.478571e+001
1.199585e+003, 4.478502e+001
1.200067e+003, 4.481604e+001
1.200549e+003, 4.500208e+001
1.201031e+003, 4.523257e+001
1.201514e+003, 4.523148e+001
1.201996e+003, 4.504755e+001
1.202478e+003, 4.491475e+001
1.202960e+003, 4.488790e+001
1.203442e+003, 4.483360e+001
1.203924e+003, 4.465739e+001
1.204406e+003, 4.448304e+001
1.204888e+003, 4.440525e+001
1.205370e+003, 4.436832e+001
1.205853e+003, 4.426574e+001
1.206335e+003, 4.422416e+001
1.206817e+003, 4.448599e+001
1.207299e+003, 4.492266e+001
1.207781e+003, 4.518932e+001
1.208263e+003, 4.521690e+001
1.208745e+003, 4.509717e+001
1.209227e+003, 4.463009e+001
1.209709e+003, 4.435070e+001
1.210192e+003, 4.439621e+001
1.210674e+003, 4.462166e+001
1.211156e+003, 4.519338e+001
1.211638e+003, 4.570069e+001
1.212120e+003, 4.563810e+001
1.212602e+003, 4.518635e+001
1.213084e+003, 4.504698e+001
1.213566e+003, 4.529763e+001
1.214049e+003, 4.546956e+001
1.214531e+003, 4.554631e+001
1.215013e+003, 4.563061e+001
1.215495e+003, 4.577568e+001
1.215977e+003, 4.570799e+001
1.216459e+003, 4.521972e+001
1.216941e+003, 4.480732e+001
1.217423e+003, 4.514994e+001
1.217906e+003, 4.593311e+001
1.218388e+003, 4.616242e+001
1.218870e+003, 4.594112e+001
1.219352e+003, 4.571187e+001
1.219834e+003, 4.553558e+001
1.220316e+003, 4.559773e+001
1.220798e+003, 4.590333e+001
1.221280e+003, 4.623591e+001
1.221762e+003, 4.648589e+001
1.222245e+003, 4.656230e+001
1.222727e+003, 4.626215e+001
1.223209e+003, 4.585346e+001
1.223691e+003, 4.552864e+001
1.224173e+003, 4.536953e+001
1.224655e+003, 4.562856e+001
1.225137e+003, 4.607810e+001
1.225619e+003, 4.626381e+001
1.226101e+003, 4.614240e+001
1.226584e+003, 4.600795e+001
1.227066e+003, 4.593087e+001
1.227548e+003, 4.594112e+001
1.228030e+003, 4.613777e+001
1.228512e+003, 4.630804e+001
1.228994e+003, 4.638509e+001
1.229476e+003, 4.637989e+001
1.229958e+003, 4.627000e+001
1.230441e+003, 4.610030e+001
1.230923e+003, 4.592498e+001
1.231405e+003, 4.574719e+001
1.231887e+003, 4.570045e+001
1.232369e+003, 4.582658e+001
1.232851e+003, 4.595325e+001
1.233333e+003, 4.606393e+001
1.233815e+003, 4.623839e+001
1.234297e+003, 4.654854e+001
1.234780e+003, 4.668011e+001
1.235262e+003, 4.636181e+001
1.235744e+003, 4.591492e+001
1.236226e+003, 4.591644e+001
1.236708e+003, 4.624874e+001
1.237190e+003, 4.641516e+001
1.237672e+003, 4.645986e+001
1.238154e+003, 4.661711e+001
1.238636e+003, 4.686660e+001
1.239119e+003, 4.700252e+001
1.239601e+003, 4.696675e+001
1.240083e+003, 4.681340e+001
1.240565e+003, 4.655042e+001
1.241047e+003, 4.632025e+001
1.241529e+003, 4.628970e+001
1.242011e+003, 4.632677e+001
1.242493e+003, 4.627637e+001
1.242975e+003, 4.623621e+001
1.243458e+003, 4.637181e+001
1.243940e+003, 4.660439e+001
1.244422e+003, 4.671657e+001
1.244904e+003, 4.669046e+001
1.245386e+003, 4.678788e+001
1.245868e+003, 4.723805e+001
1.246350e+003, 4.751633e+001
1.246832e+003, 4.754477e+001
1.247315e+003, 4.736735e+001
1.247797e+003, 4.673526e+001
1.248279e+003, 4.623161e+001
1.248761e+003, 4.637422e+001
1.249243e+003, 4.680027e+001
1.249725e+003, 4.683563e+001
1.250207e+003, 4.650950e+001
1.250689e+003, 4.634477e+001
1.251172e+003, 4.635032e+001
1.251654e+003, 4.640645e+001
1.252136e+003, 4.650169e+001
1.252618e+003, 4.678812e+001
1.253100e+003, 4.730907e+001
1.253582e+003, 4.760714e+001
1.254064e+003, 4.734867e+001
1.254546e+003, 4.690878e+001
1.255028e+003, 4.678649e+001
1.255510e+003, 4.685968e+001
1.255993e+003, 4.698575e+001
1.256475e+003, 4.708970e+001
1.256957e+003, 4.695731e+001
1.257439e+003, 4.669815e+001
1.257921e+003, 4.664312e+001
1.258403e+003, 4.681360e+001
1.258885e+003, 4.687153e+001
1.259367e+003, 4.662610e+001
1.259850e+003, 4.643814e+001
1.260332e+003, 4.653487e+001
1.260814e+003, 4.665001e+001
1.261296e+003, 4.667439e+001
1.261778e+003, 4.665158e+001
1.262260e+003, 4.659829e+001
1.262742e+003, 4.653240e+001
1.263224e+003, 4.647828e+001
1.263707e+003, 4.643490e+001
1.264189e+003, 4.638750e+001
1.264671e+003, 4.629368e+001
1.265153e+003, 4.635652e+001
1.265635e+003, 4.662069e+001
1.266117e+003, 4.686129e+001
1.266599e+003, 4.704328e+001
1.267081e+003, 4.706232e+001
1.267563e+003, 4.684138e+001
1.268046e+003, 4.660439e+001
1.268528e+003, 4.663335e+001
1.269010e+003, 4.680845e+001
1.269492e+003, 4.685446e+001
1.269974e+003, 4.682287e+001
1.270456e+003, 4.682310e+001
1.270938e+003, 4.686760e+001
1.271420e+003, 4.698001e+001
1.271902e+003, 4.714640e+001
1.272385e+003, 4.732990e+001
1.272867e+003, 4.751645e+001
1.273349e+003, 4.759796e+001
1.273831e+003, 4.751869e+001
1.274313e+003, 4.730764e+001
1.274795e+003, 4.677335e+001
1.275277e+003, 4.634464e+001
1.275759e+003, 4.638161e+001
1.276242e+003, 4.661774e+001
1.276724e+003, 4.677679e+001
1.277206e+003, 4.686263e+001
1.277688e+003, 4.692883e+001
1.278170e+003, 4.696934e+001
1.278652e+003, 4.706509e+001
1.279134e+003, 4.728019e+001
1.279616e+003, 4.728732e+001
1.280099e+003, 4.699879e+001
1.280581e+003, 4.679885e+001
1.281063e+003, 4.683625e+001
1.281545e+003, 4.687318e+001
1.282027e+003, 4.669439e+001
1.282509e+003, 4.655580e+001
1.282991e+003, 4.709063e+001
1.283473e+003, 4.788405e+001
1.283955e+003, 4.805624e+001
##END=



