##NAMES=Raygrantite
##RRUFFID=R120151
##IDEAL CHEMISTRY=Pb^2+^_10_Zn^2+^(S^6+^O_4_)_6_(SiO_4_)_2_(OH)_2_
##LOCALITY=Evening Star mine, Tiger Wash, Belmont Mountain, Tonopah, Big Horn Mts, Maricopa County, Arizona, USA
##OWNER=RRUFF
##SOURCE=Ron Gibbs and Bob Jenkins
##DESCRIPTION=Colorless bladed crystals associated with anglesite and galena, type sample. The crystals show fish-tail twin habit. Type sample.
##STATUS=The identification of this mineral is confirmed by single-crystal X-ray diffraction and chemical analysis.
##URL=rruff.info/R120151
##MEASURED CHEMISTRY=Pb_9.81_Zn_0.93_(S_1.00_O_4_)_6_(Si_1.05_O_4_)_2_(OH)_2_
8.936163e+001, 0.000000e+000
8.984375e+001, 5.023245e+002
9.032587e+001, 5.035581e+002
9.080798e+001, 5.039142e+002
9.129010e+001, 5.033961e+002
9.177222e+001, 5.019839e+002
9.225433e+001, 4.995760e+002
9.273645e+001, 4.961922e+002
9.321857e+001, 4.920885e+002
9.370068e+001, 4.877128e+002
9.418280e+001, 4.828668e+002
9.466492e+001, 4.768340e+002
9.514703e+001, 4.681498e+002
9.562915e+001, 4.583525e+002
9.611127e+001, 4.520010e+002
9.659338e+001, 4.495670e+002
9.707550e+001, 4.484325e+002
9.755762e+001, 4.452532e+002
9.803973e+001, 4.399684e+002
9.852185e+001, 4.351018e+002
9.900397e+001, 4.318974e+002
9.948608e+001, 4.303891e+002
9.996820e+001, 4.286639e+002
1.004503e+002, 4.270472e+002
1.009324e+002, 4.247960e+002
1.014146e+002, 4.199559e+002
1.018967e+002, 4.116222e+002
1.023788e+002, 4.031623e+002
1.028609e+002, 3.960912e+002
1.033430e+002, 3.904906e+002
1.038251e+002, 3.863170e+002
1.043073e+002, 3.840984e+002
1.047894e+002, 3.834094e+002
1.052715e+002, 3.820961e+002
1.057536e+002, 3.802061e+002
1.062357e+002, 3.776300e+002
1.067178e+002, 3.741295e+002
1.072000e+002, 3.684536e+002
1.076821e+002, 3.637314e+002
1.081642e+002, 3.608232e+002
1.086463e+002, 3.599233e+002
1.091284e+002, 3.581477e+002
1.096105e+002, 3.557745e+002
1.100927e+002, 3.523920e+002
1.105748e+002, 3.476480e+002
1.110569e+002, 3.383180e+002
1.115390e+002, 3.306536e+002
1.120211e+002, 3.267511e+002
1.125032e+002, 3.279933e+002
1.129854e+002, 3.281154e+002
1.134675e+002, 3.259767e+002
1.139496e+002, 3.222953e+002
1.144317e+002, 3.180679e+002
1.149138e+002, 3.121089e+002
1.153959e+002, 3.067295e+002
1.158781e+002, 3.032245e+002
1.163602e+002, 3.027467e+002
1.168423e+002, 3.020360e+002
1.173244e+002, 3.000555e+002
1.178065e+002, 2.969849e+002
1.182886e+002, 2.932809e+002
1.187708e+002, 2.879103e+002
1.192529e+002, 2.825930e+002
1.197350e+002, 2.787875e+002
1.202171e+002, 2.775604e+002
1.206992e+002, 2.770846e+002
1.211813e+002, 2.766615e+002
1.216635e+002, 2.761925e+002
1.221456e+002, 2.751255e+002
1.226277e+002, 2.726021e+002
1.231098e+002, 2.693924e+002
1.235919e+002, 2.665165e+002
1.240740e+002, 2.645864e+002
1.245562e+002, 2.629900e+002
1.250383e+002, 2.611884e+002
1.255204e+002, 2.591750e+002
1.260025e+002, 2.569507e+002
1.264846e+002, 2.541577e+002
1.269667e+002, 2.511079e+002
1.274489e+002, 2.485818e+002
1.279310e+002, 2.474149e+002
1.284131e+002, 2.469192e+002
1.288952e+002, 2.457709e+002
1.293773e+002, 2.438932e+002
1.298594e+002, 2.415319e+002
1.303416e+002, 2.386738e+002
1.308237e+002, 2.354326e+002
1.313058e+002, 2.324455e+002
1.317879e+002, 2.301339e+002
1.322700e+002, 2.283963e+002
1.327521e+002, 2.267564e+002
1.332343e+002, 2.251816e+002
1.337164e+002, 2.236768e+002
1.341985e+002, 2.222246e+002
1.346806e+002, 2.208340e+002
1.351627e+002, 2.193730e+002
1.356448e+002, 2.177747e+002
1.361270e+002, 2.160322e+002
1.366091e+002, 2.141846e+002
1.370912e+002, 2.121725e+002
1.375733e+002, 2.100971e+002
1.380554e+002, 2.081987e+002
1.385375e+002, 2.065281e+002
1.390197e+002, 2.048708e+002
1.395018e+002, 2.028826e+002
1.399839e+002, 2.003639e+002
1.404660e+002, 1.985270e+002
1.409481e+002, 1.978725e+002
1.414302e+002, 1.982581e+002
1.419124e+002, 1.976617e+002
1.423945e+002, 1.956272e+002
1.428766e+002, 1.932487e+002
1.433587e+002, 1.916550e+002
1.438408e+002, 1.912913e+002
1.443229e+002, 1.908391e+002
1.448051e+002, 1.900739e+002
1.452872e+002, 1.889833e+002
1.457693e+002, 1.875298e+002
1.462514e+002, 1.853011e+002
1.467335e+002, 1.829483e+002
1.472156e+002, 1.812697e+002
1.476978e+002, 1.805461e+002
1.481799e+002, 1.801858e+002
1.486620e+002, 1.803349e+002
1.491441e+002, 1.818490e+002
1.496262e+002, 1.814980e+002
1.501083e+002, 1.772542e+002
1.505905e+002, 1.714788e+002
1.510726e+002, 1.683138e+002
1.515547e+002, 1.709991e+002
1.520368e+002, 1.735184e+002
1.525189e+002, 1.740002e+002
1.530010e+002, 1.711116e+002
1.534832e+002, 1.684086e+002
1.539653e+002, 1.659300e+002
1.544474e+002, 1.637766e+002
1.549295e+002, 1.621908e+002
1.554116e+002, 1.616946e+002
1.558937e+002, 1.614142e+002
1.563759e+002, 1.609530e+002
1.568580e+002, 1.599926e+002
1.573401e+002, 1.592037e+002
1.578222e+002, 1.589656e+002
1.583043e+002, 1.590726e+002
1.587864e+002, 1.587664e+002
1.592686e+002, 1.573186e+002
1.597507e+002, 1.556977e+002
1.602328e+002, 1.545259e+002
1.607149e+002, 1.545138e+002
1.611970e+002, 1.544020e+002
1.616791e+002, 1.535297e+002
1.621613e+002, 1.520648e+002
1.626434e+002, 1.510360e+002
1.631255e+002, 1.509000e+002
1.636076e+002, 1.513800e+002
1.640897e+002, 1.522296e+002
1.645718e+002, 1.541660e+002
1.650540e+002, 1.557955e+002
1.655361e+002, 1.561591e+002
1.660182e+002, 1.553057e+002
1.665003e+002, 1.545477e+002
1.669824e+002, 1.545518e+002
1.674645e+002, 1.550640e+002
1.679467e+002, 1.557664e+002
1.684288e+002, 1.563407e+002
1.689109e+002, 1.571993e+002
1.693930e+002, 1.586607e+002
1.698751e+002, 1.607531e+002
1.703572e+002, 1.632143e+002
1.708394e+002, 1.657132e+002
1.713215e+002, 1.685021e+002
1.718036e+002, 1.719577e+002
1.722857e+002, 1.772678e+002
1.727678e+002, 1.828252e+002
1.732499e+002, 1.867857e+002
1.737321e+002, 1.888830e+002
1.742142e+002, 1.907462e+002
1.746963e+002, 1.942499e+002
1.751784e+002, 1.986803e+002
1.756605e+002, 2.023610e+002
1.761426e+002, 2.035692e+002
1.766248e+002, 2.037838e+002
1.771069e+002, 2.051621e+002
1.775890e+002, 2.081124e+002
1.780711e+002, 2.113239e+002
1.785532e+002, 2.132359e+002
1.790353e+002, 2.141762e+002
1.795175e+002, 2.152457e+002
1.799996e+002, 2.172902e+002
1.804817e+002, 2.198625e+002
1.809638e+002, 2.221184e+002
1.814459e+002, 2.239153e+002
1.819280e+002, 2.255096e+002
1.824102e+002, 2.270500e+002
1.828923e+002, 2.285845e+002
1.833744e+002, 2.306045e+002
1.838565e+002, 2.332757e+002
1.843386e+002, 2.366580e+002
1.848207e+002, 2.410086e+002
1.853029e+002, 2.467113e+002
1.857850e+002, 2.528203e+002
1.862671e+002, 2.577647e+002
1.867492e+002, 2.615730e+002
1.872313e+002, 2.653278e+002
1.877134e+002, 2.695585e+002
1.881956e+002, 2.743287e+002
1.886777e+002, 2.797756e+002
1.891598e+002, 2.860936e+002
1.896419e+002, 2.929871e+002
1.901240e+002, 3.001271e+002
1.906061e+002, 3.076380e+002
1.910883e+002, 3.146396e+002
1.915704e+002, 3.202636e+002
1.920525e+002, 3.247006e+002
1.925346e+002, 3.293134e+002
1.930167e+002, 3.342709e+002
1.934988e+002, 3.393691e+002
1.939810e+002, 3.438978e+002
1.944631e+002, 3.477111e+002
1.949452e+002, 3.507433e+002
1.954273e+002, 3.512717e+002
1.959094e+002, 3.493752e+002
1.963915e+002, 3.473308e+002
1.968737e+002, 3.455562e+002
1.973558e+002, 3.439711e+002
1.978379e+002, 3.423548e+002
1.983200e+002, 3.407973e+002
1.988021e+002, 3.388980e+002
1.992842e+002, 3.362376e+002
1.997664e+002, 3.327885e+002
2.002485e+002, 3.292513e+002
2.007306e+002, 3.256386e+002
2.012127e+002, 3.220385e+002
2.016948e+002, 3.189675e+002
2.021769e+002, 3.165873e+002
2.026591e+002, 3.142269e+002
2.031412e+002, 3.112296e+002
2.036233e+002, 3.075064e+002
2.041054e+002, 3.037155e+002
2.045875e+002, 2.997360e+002
2.050696e+002, 2.956990e+002
2.055518e+002, 2.931834e+002
2.060339e+002, 2.926720e+002
2.065160e+002, 2.925421e+002
2.069981e+002, 2.909051e+002
2.074802e+002, 2.873609e+002
2.079623e+002, 2.842928e+002
2.084445e+002, 2.824882e+002
2.089266e+002, 2.818542e+002
2.094087e+002, 2.802373e+002
2.098908e+002, 2.771807e+002
2.103729e+002, 2.739494e+002
2.108550e+002, 2.719997e+002
2.113372e+002, 2.716609e+002
2.118193e+002, 2.714750e+002
2.123014e+002, 2.711593e+002
2.127835e+002, 2.707186e+002
2.132656e+002, 2.700483e+002
2.137477e+002, 2.691165e+002
2.142299e+002, 2.679975e+002
2.147120e+002, 2.666627e+002
2.151941e+002, 2.648120e+002
2.156762e+002, 2.635384e+002
2.161583e+002, 2.631767e+002
2.166404e+002, 2.637620e+002
2.171226e+002, 2.645153e+002
2.176047e+002, 2.654947e+002
2.180868e+002, 2.665684e+002
2.185689e+002, 2.675598e+002
2.190510e+002, 2.683566e+002
2.195331e+002, 2.693432e+002
2.200153e+002, 2.705901e+002
2.204974e+002, 2.720917e+002
2.209795e+002, 2.740247e+002
2.214616e+002, 2.765345e+002
2.219437e+002, 2.793437e+002
2.224258e+002, 2.821251e+002
2.229080e+002, 2.846930e+002
2.233901e+002, 2.876054e+002
2.238722e+002, 2.909782e+002
2.243543e+002, 2.948767e+002
2.248364e+002, 2.989376e+002
2.253185e+002, 3.032034e+002
2.258007e+002, 3.075332e+002
2.262828e+002, 3.118374e+002
2.267649e+002, 3.161620e+002
2.272470e+002, 3.203114e+002
2.277291e+002, 3.242797e+002
2.282112e+002, 3.282273e+002
2.286934e+002, 3.311284e+002
2.291755e+002, 3.326783e+002
2.296576e+002, 3.334552e+002
2.301397e+002, 3.342124e+002
2.306218e+002, 3.352502e+002
2.311039e+002, 3.357372e+002
2.315861e+002, 3.354089e+002
2.320682e+002, 3.341783e+002
2.325503e+002, 3.327206e+002
2.330324e+002, 3.307443e+002
2.335145e+002, 3.288052e+002
2.339966e+002, 3.276069e+002
2.344788e+002, 3.274282e+002
2.349609e+002, 3.275205e+002
2.354430e+002, 3.276976e+002
2.359251e+002, 3.279380e+002
2.364072e+002, 3.284020e+002
2.368893e+002, 3.290102e+002
2.373715e+002, 3.298997e+002
2.378536e+002, 3.312572e+002
2.383357e+002, 3.332495e+002
2.388178e+002, 3.354218e+002
2.392999e+002, 3.375846e+002
2.397820e+002, 3.396251e+002
2.402642e+002, 3.423409e+002
2.407463e+002, 3.459699e+002
2.412284e+002, 3.500582e+002
2.417105e+002, 3.540589e+002
2.421926e+002, 3.578543e+002
2.426747e+002, 3.617433e+002
2.431569e+002, 3.657663e+002
2.436390e+002, 3.699421e+002
2.441211e+002, 3.742127e+002
2.446032e+002, 3.786951e+002
2.450853e+002, 3.831987e+002
2.455674e+002, 3.875729e+002
2.460496e+002, 3.921319e+002
2.465317e+002, 3.959853e+002
2.470138e+002, 3.987770e+002
2.474959e+002, 4.003992e+002
2.479780e+002, 4.024642e+002
2.484601e+002, 4.054897e+002
2.489423e+002, 4.084860e+002
2.494244e+002, 4.104261e+002
2.499065e+002, 4.113482e+002
2.503886e+002, 4.111511e+002
2.508707e+002, 4.095807e+002
2.513528e+002, 4.065938e+002
2.518350e+002, 4.037482e+002
2.523171e+002, 4.014577e+002
2.527992e+002, 3.988993e+002
2.532813e+002, 3.952149e+002
2.537634e+002, 3.902346e+002
2.542455e+002, 3.845682e+002
2.547277e+002, 3.782705e+002
2.552098e+002, 3.713020e+002
2.556919e+002, 3.639188e+002
2.561740e+002, 3.559784e+002
2.566561e+002, 3.477968e+002
2.571382e+002, 3.397460e+002
2.576204e+002, 3.316701e+002
2.581025e+002, 3.239676e+002
2.585846e+002, 3.169495e+002
2.590667e+002, 3.105374e+002
2.595488e+002, 3.035386e+002
2.600309e+002, 2.957558e+002
2.605131e+002, 2.878839e+002
2.609952e+002, 2.806931e+002
2.614773e+002, 2.743142e+002
2.619594e+002, 2.680969e+002
2.624415e+002, 2.619222e+002
2.629236e+002, 2.557886e+002
2.634058e+002, 2.503366e+002
2.638879e+002, 2.457939e+002
2.643700e+002, 2.414559e+002
2.648521e+002, 2.365674e+002
2.653342e+002, 2.309220e+002
2.658163e+002, 2.255424e+002
2.662985e+002, 2.205474e+002
2.667806e+002, 2.159731e+002
2.672627e+002, 2.118850e+002
2.677448e+002, 2.082765e+002
2.682269e+002, 2.052209e+002
2.687090e+002, 2.030910e+002
2.691912e+002, 2.023256e+002
2.696733e+002, 2.004060e+002
2.701554e+002, 1.966549e+002
2.706375e+002, 1.916010e+002
2.711196e+002, 1.875011e+002
2.716017e+002, 1.845163e+002
2.720839e+002, 1.820407e+002
2.725660e+002, 1.797889e+002
2.730481e+002, 1.777658e+002
2.735302e+002, 1.758344e+002
2.740123e+002, 1.738804e+002
2.744944e+002, 1.720567e+002
2.749766e+002, 1.709324e+002
2.754587e+002, 1.707087e+002
2.759408e+002, 1.704143e+002
2.764229e+002, 1.693228e+002
2.769050e+002, 1.673351e+002
2.773871e+002, 1.658167e+002
2.778693e+002, 1.650089e+002
2.783514e+002, 1.645562e+002
2.788335e+002, 1.635324e+002
2.793156e+002, 1.617843e+002
2.797977e+002, 1.603176e+002
2.802798e+002, 1.598660e+002
2.807620e+002, 1.604397e+002
2.812441e+002, 1.606089e+002
2.817262e+002, 1.601753e+002
2.822083e+002, 1.595445e+002
2.826904e+002, 1.595435e+002
2.831725e+002, 1.602223e+002
2.836547e+002, 1.607920e+002
2.841368e+002, 1.606034e+002
2.846189e+002, 1.597744e+002
2.851010e+002, 1.598461e+002
2.855831e+002, 1.610332e+002
2.860652e+002, 1.626090e+002
2.865474e+002, 1.634631e+002
2.870295e+002, 1.636111e+002
2.875116e+002, 1.638076e+002
2.879937e+002, 1.644837e+002
2.884758e+002, 1.655346e+002
2.889579e+002, 1.663761e+002
2.894401e+002, 1.670497e+002
2.899222e+002, 1.673768e+002
2.904043e+002, 1.669273e+002
2.908864e+002, 1.658028e+002
2.913685e+002, 1.648292e+002
2.918506e+002, 1.645931e+002
2.923328e+002, 1.647117e+002
2.928149e+002, 1.640847e+002
2.932970e+002, 1.626969e+002
2.937791e+002, 1.607605e+002
2.942612e+002, 1.583021e+002
2.947433e+002, 1.554311e+002
2.952255e+002, 1.526114e+002
2.957076e+002, 1.500452e+002
2.961897e+002, 1.476145e+002
2.966718e+002, 1.451623e+002
2.971539e+002, 1.426990e+002
2.976360e+002, 1.402137e+002
2.981182e+002, 1.375676e+002
2.986003e+002, 1.349037e+002
2.990824e+002, 1.325129e+002
2.995645e+002, 1.304800e+002
3.000466e+002, 1.287474e+002
3.005287e+002, 1.272880e+002
3.010109e+002, 1.260850e+002
3.014930e+002, 1.249704e+002
3.019751e+002, 1.238772e+002
3.024572e+002, 1.227902e+002
3.029393e+002, 1.216358e+002
3.034214e+002, 1.201935e+002
3.039036e+002, 1.190314e+002
3.043857e+002, 1.189381e+002
3.048678e+002, 1.197017e+002
3.053499e+002, 1.205509e+002
3.058320e+002, 1.209868e+002
3.063141e+002, 1.212523e+002
3.067963e+002, 1.216056e+002
3.072784e+002, 1.220702e+002
3.077605e+002, 1.226948e+002
3.082426e+002, 1.234369e+002
3.087247e+002, 1.243620e+002
3.092068e+002, 1.256284e+002
3.096890e+002, 1.277009e+002
3.101711e+002, 1.299281e+002
3.106532e+002, 1.316514e+002
3.111353e+002, 1.326951e+002
3.116174e+002, 1.337467e+002
3.120995e+002, 1.351510e+002
3.125817e+002, 1.368474e+002
3.130638e+002, 1.387547e+002
3.135459e+002, 1.407235e+002
3.140280e+002, 1.429994e+002
3.145101e+002, 1.458165e+002
3.149922e+002, 1.492007e+002
3.154744e+002, 1.527299e+002
3.159565e+002, 1.560764e+002
3.164386e+002, 1.594920e+002
3.169207e+002, 1.632166e+002
3.174028e+002, 1.674947e+002
3.178849e+002, 1.719846e+002
3.183671e+002, 1.766836e+002
3.188492e+002, 1.816045e+002
3.193313e+002, 1.862627e+002
3.198134e+002, 1.903548e+002
3.202955e+002, 1.942179e+002
3.207776e+002, 1.980729e+002
3.212598e+002, 2.029125e+002
3.217419e+002, 2.067894e+002
3.222240e+002, 2.094696e+002
3.227061e+002, 2.108916e+002
3.231882e+002, 2.107617e+002
3.236703e+002, 2.087404e+002
3.241525e+002, 2.053305e+002
3.246346e+002, 2.007988e+002
3.251167e+002, 1.944146e+002
3.255988e+002, 1.879208e+002
3.260809e+002, 1.814608e+002
3.265630e+002, 1.750004e+002
3.270452e+002, 1.684161e+002
3.275273e+002, 1.616103e+002
3.280094e+002, 1.548400e+002
3.284915e+002, 1.480521e+002
3.289736e+002, 1.407882e+002
3.294557e+002, 1.346976e+002
3.299379e+002, 1.302594e+002
3.304200e+002, 1.268258e+002
3.309021e+002, 1.234284e+002
3.313842e+002, 1.199423e+002
3.318663e+002, 1.166176e+002
3.323484e+002, 1.134650e+002
3.328306e+002, 1.105135e+002
3.333127e+002, 1.078852e+002
3.337948e+002, 1.055249e+002
3.342769e+002, 1.035291e+002
3.347590e+002, 1.021207e+002
3.352411e+002, 1.016656e+002
3.357233e+002, 1.009321e+002
3.362054e+002, 9.952109e+001
3.366875e+002, 9.749467e+001
3.371696e+002, 9.610445e+001
3.376517e+002, 9.555038e+001
3.381339e+002, 9.525319e+001
3.386160e+002, 9.472496e+001
3.390981e+002, 9.388206e+001
3.395802e+002, 9.322031e+001
3.400623e+002, 9.284792e+001
3.405444e+002, 9.268884e+001
3.410266e+002, 9.251713e+001
3.415087e+002, 9.232699e+001
3.419908e+002, 9.213387e+001
3.424729e+002, 9.199545e+001
3.429550e+002, 9.191048e+001
3.434371e+002, 9.156201e+001
3.439193e+002, 9.082342e+001
3.444014e+002, 9.000541e+001
3.448835e+002, 8.973243e+001
3.453656e+002, 9.000097e+001
3.458477e+002, 9.034566e+001
3.463298e+002, 9.056570e+001
3.468120e+002, 9.067798e+001
3.472941e+002, 9.070988e+001
3.477762e+002, 9.064366e+001
3.482583e+002, 9.060670e+001
3.487404e+002, 9.074958e+001
3.492225e+002, 9.105369e+001
3.497047e+002, 9.143034e+001
3.501868e+002, 9.169771e+001
3.506689e+002, 9.207928e+001
3.511510e+002, 9.331461e+001
3.516331e+002, 9.537214e+001
3.521152e+002, 9.700880e+001
3.525974e+002, 9.682552e+001
3.530795e+002, 9.553265e+001
3.535616e+002, 9.443203e+001
3.540437e+002, 9.387081e+001
3.545258e+002, 9.365726e+001
3.550079e+002, 9.380723e+001
3.554901e+002, 9.421490e+001
3.559722e+002, 9.441008e+001
3.564543e+002, 9.403027e+001
3.569364e+002, 9.332705e+001
3.574185e+002, 9.254845e+001
3.579006e+002, 9.174615e+001
3.583828e+002, 9.086108e+001
3.588649e+002, 8.976360e+001
3.593470e+002, 8.855312e+001
3.598291e+002, 8.742149e+001
3.603112e+002, 8.658681e+001
3.607933e+002, 8.575584e+001
3.612755e+002, 8.467441e+001
3.617576e+002, 8.326212e+001
3.622397e+002, 8.202608e+001
3.627218e+002, 8.135023e+001
3.632039e+002, 8.088322e+001
3.636860e+002, 8.023315e+001
3.641682e+002, 7.901737e+001
3.646503e+002, 7.786890e+001
3.651324e+002, 7.705383e+001
3.656145e+002, 7.655403e+001
3.660966e+002, 7.601025e+001
3.665787e+002, 7.528362e+001
3.670609e+002, 7.454508e+001
3.675430e+002, 7.390427e+001
3.680251e+002, 7.318913e+001
3.685072e+002, 7.278797e+001
3.689893e+002, 7.296531e+001
3.694714e+002, 7.351369e+001
3.699536e+002, 7.375077e+001
3.704357e+002, 7.354257e+001
3.709178e+002, 7.316045e+001
3.713999e+002, 7.264185e+001
3.718820e+002, 7.171606e+001
3.723641e+002, 7.137855e+001
3.728463e+002, 7.192818e+001
3.733284e+002, 7.287132e+001
3.738105e+002, 7.343084e+001
3.742926e+002, 7.343426e+001
3.747747e+002, 7.342874e+001
3.752568e+002, 7.348344e+001
3.757390e+002, 7.359624e+001
3.762211e+002, 7.429896e+001
3.767032e+002, 7.587072e+001
3.771853e+002, 7.746333e+001
3.776674e+002, 7.817561e+001
3.781495e+002, 7.789352e+001
3.786317e+002, 7.774093e+001
3.791138e+002, 7.788898e+001
3.795959e+002, 7.833346e+001
3.800780e+002, 7.921043e+001
3.805601e+002, 8.056432e+001
3.810422e+002, 8.181678e+001
3.815244e+002, 8.234241e+001
3.820065e+002, 8.233807e+001
3.824886e+002, 8.292754e+001
3.829707e+002, 8.433199e+001
3.834528e+002, 8.605717e+001
3.839349e+002, 8.747144e+001
3.844171e+002, 8.861446e+001
3.848992e+002, 8.969038e+001
3.853813e+002, 9.069717e+001
3.858634e+002, 9.174924e+001
3.863455e+002, 9.319015e+001
3.868276e+002, 9.504346e+001
3.873098e+002, 9.677760e+001
3.877919e+002, 9.795708e+001
3.882740e+002, 9.871036e+001
3.887561e+002, 9.926852e+001
3.892382e+002, 9.977882e+001
3.897203e+002, 1.000645e+002
3.902025e+002, 9.987920e+001
3.906846e+002, 9.929501e+001
3.911667e+002, 9.864674e+001
3.916488e+002, 9.815253e+001
3.921309e+002, 9.766208e+001
3.926130e+002, 9.702605e+001
3.930952e+002, 9.614348e+001
3.935773e+002, 9.529465e+001
3.940594e+002, 9.468484e+001
3.945415e+002, 9.419004e+001
3.950236e+002, 9.357935e+001
3.955057e+002, 9.265302e+001
3.959879e+002, 9.171365e+001
3.964700e+002, 9.080318e+001
3.969521e+002, 8.987519e+001
3.974342e+002, 8.931819e+001
3.979163e+002, 8.947092e+001
3.983984e+002, 8.988776e+001
3.988806e+002, 9.016209e+001
3.993627e+002, 8.981412e+001
3.998448e+002, 8.984823e+001
4.003269e+002, 9.054822e+001
4.008090e+002, 9.181246e+001
4.012911e+002, 9.282597e+001
4.017733e+002, 9.334561e+001
4.022554e+002, 9.391078e+001
4.027375e+002, 9.483080e+001
4.032196e+002, 9.630531e+001
4.037017e+002, 9.762252e+001
4.041838e+002, 9.866963e+001
4.046660e+002, 9.962904e+001
4.051481e+002, 1.008908e+002
4.056302e+002, 1.025986e+002
4.061123e+002, 1.041096e+002
4.065944e+002, 1.052050e+002
4.070765e+002, 1.058948e+002
4.075587e+002, 1.062366e+002
4.080408e+002, 1.061443e+002
4.085229e+002, 1.060380e+002
4.090050e+002, 1.065137e+002
4.094871e+002, 1.075063e+002
4.099692e+002, 1.080864e+002
4.104514e+002, 1.079396e+002
4.109335e+002, 1.073944e+002
4.114156e+002, 1.070497e+002
4.118977e+002, 1.069056e+002
4.123798e+002, 1.069351e+002
4.128619e+002, 1.072517e+002
4.133441e+002, 1.077061e+002
4.138262e+002, 1.078952e+002
4.143083e+002, 1.076757e+002
4.147904e+002, 1.076936e+002
4.152725e+002, 1.086768e+002
4.157546e+002, 1.103601e+002
4.162368e+002, 1.122196e+002
4.167189e+002, 1.138166e+002
4.172010e+002, 1.156176e+002
4.176831e+002, 1.179929e+002
4.181652e+002, 1.209245e+002
4.186473e+002, 1.243169e+002
4.191295e+002, 1.280594e+002
4.196116e+002, 1.322458e+002
4.200937e+002, 1.368837e+002
4.205758e+002, 1.419015e+002
4.210579e+002, 1.475508e+002
4.215400e+002, 1.541590e+002
4.220222e+002, 1.614977e+002
4.225043e+002, 1.691929e+002
4.229864e+002, 1.769523e+002
4.234685e+002, 1.851347e+002
4.239506e+002, 1.940322e+002
4.244327e+002, 2.038074e+002
4.249149e+002, 2.136477e+002
4.253970e+002, 2.236717e+002
4.258791e+002, 2.336374e+002
4.263612e+002, 2.434641e+002
4.268433e+002, 2.533812e+002
4.273254e+002, 2.627032e+002
4.278076e+002, 2.714356e+002
4.282897e+002, 2.795689e+002
4.287718e+002, 2.864165e+002
4.292539e+002, 2.915205e+002
4.297360e+002, 2.960955e+002
4.302181e+002, 3.005090e+002
4.307003e+002, 3.045528e+002
4.311824e+002, 3.097682e+002
4.316645e+002, 3.161696e+002
4.321466e+002, 3.238160e+002
4.326287e+002, 3.333618e+002
4.331108e+002, 3.447810e+002
4.335930e+002, 3.554440e+002
4.340751e+002, 3.648589e+002
4.345572e+002, 3.726810e+002
4.350393e+002, 3.773982e+002
4.355214e+002, 3.789688e+002
4.360035e+002, 3.789863e+002
4.364857e+002, 3.781844e+002
4.369678e+002, 3.769016e+002
4.374499e+002, 3.761376e+002
4.379320e+002, 3.766296e+002
4.384141e+002, 3.766618e+002
4.388962e+002, 3.752707e+002
4.393784e+002, 3.720288e+002
4.398605e+002, 3.656867e+002
4.403426e+002, 3.547176e+002
4.408247e+002, 3.409024e+002
4.413068e+002, 3.245820e+002
4.417889e+002, 3.056486e+002
4.422711e+002, 2.879213e+002
4.427532e+002, 2.722635e+002
4.432353e+002, 2.592709e+002
4.437174e+002, 2.495625e+002
4.441995e+002, 2.439859e+002
4.446816e+002, 2.410147e+002
4.451638e+002, 2.405680e+002
4.456459e+002, 2.424633e+002
4.461280e+002, 2.458403e+002
4.466101e+002, 2.510687e+002
4.470922e+002, 2.573457e+002
4.475743e+002, 2.645086e+002
4.480565e+002, 2.729209e+002
4.485386e+002, 2.811577e+002
4.490207e+002, 2.897608e+002
4.495028e+002, 2.978004e+002
4.499849e+002, 3.039432e+002
4.504670e+002, 3.080225e+002
4.509492e+002, 3.106673e+002
4.514313e+002, 3.118014e+002
4.519134e+002, 3.115634e+002
4.523955e+002, 3.107876e+002
4.528776e+002, 3.094385e+002
4.533597e+002, 3.077509e+002
4.538419e+002, 3.060244e+002
4.543240e+002, 3.042573e+002
4.548061e+002, 3.015965e+002
4.552882e+002, 2.979164e+002
4.557703e+002, 2.935300e+002
4.562524e+002, 2.887329e+002
4.567346e+002, 2.835495e+002
4.572167e+002, 2.786060e+002
4.576988e+002, 2.734384e+002
4.581809e+002, 2.689018e+002
4.586630e+002, 2.666832e+002
4.591451e+002, 2.667041e+002
4.596273e+002, 2.674427e+002
4.601094e+002, 2.683153e+002
4.605915e+002, 2.690182e+002
4.610736e+002, 2.693393e+002
4.615557e+002, 2.697271e+002
4.620378e+002, 2.686313e+002
4.625200e+002, 2.649047e+002
4.630021e+002, 2.589859e+002
4.634842e+002, 2.517895e+002
4.639663e+002, 2.436965e+002
4.644484e+002, 2.343472e+002
4.649305e+002, 2.234698e+002
4.654127e+002, 2.109993e+002
4.658948e+002, 1.982051e+002
4.663769e+002, 1.845951e+002
4.668590e+002, 1.712999e+002
4.673411e+002, 1.591915e+002
4.678232e+002, 1.481271e+002
4.683054e+002, 1.382648e+002
4.687875e+002, 1.298811e+002
4.692696e+002, 1.227289e+002
4.697517e+002, 1.161699e+002
4.702338e+002, 1.101572e+002
4.707159e+002, 1.049200e+002
4.711981e+002, 1.006698e+002
4.716802e+002, 9.744241e+001
4.721623e+002, 9.419283e+001
4.726444e+002, 9.085522e+001
4.731265e+002, 8.777628e+001
4.736086e+002, 8.547339e+001
4.740908e+002, 8.393348e+001
4.745729e+002, 8.235349e+001
4.750550e+002, 8.053439e+001
4.755371e+002, 7.868862e+001
4.760192e+002, 7.720855e+001
4.765013e+002, 7.606893e+001
4.769835e+002, 7.512336e+001
4.774656e+002, 7.433898e+001
4.779477e+002, 7.366747e+001
4.784298e+002, 7.306004e+001
4.789119e+002, 7.251646e+001
4.793940e+002, 7.194849e+001
4.798762e+002, 7.119736e+001
4.803583e+002, 7.040783e+001
4.808404e+002, 6.976697e+001
4.813225e+002, 6.932494e+001
4.818046e+002, 6.904089e+001
4.822867e+002, 6.894918e+001
4.827689e+002, 6.900464e+001
4.832510e+002, 6.908979e+001
4.837331e+002, 6.911464e+001
4.842152e+002, 6.920824e+001
4.846973e+002, 6.946575e+001
4.851794e+002, 6.994670e+001
4.856616e+002, 7.032333e+001
4.861437e+002, 7.047665e+001
4.866258e+002, 7.056985e+001
4.871079e+002, 7.070146e+001
4.875900e+002, 7.065782e+001
4.880721e+002, 7.106113e+001
4.885543e+002, 7.214856e+001
4.890364e+002, 7.365648e+001
4.895185e+002, 7.484084e+001
4.900006e+002, 7.566336e+001
4.904827e+002, 7.624236e+001
4.909648e+002, 7.652921e+001
4.914470e+002, 7.654666e+001
4.919291e+002, 7.680650e+001
4.924112e+002, 7.735928e+001
4.928933e+002, 7.790366e+001
4.933754e+002, 7.820112e+001
4.938575e+002, 7.824706e+001
4.943397e+002, 7.795438e+001
4.948218e+002, 7.719514e+001
4.953039e+002, 7.630572e+001
4.957860e+002, 7.575564e+001
4.962681e+002, 7.547750e+001
4.967502e+002, 7.524081e+001
4.972324e+002, 7.501443e+001
4.977145e+002, 7.471095e+001
4.981966e+002, 7.425373e+001
4.986787e+002, 7.363422e+001
4.991608e+002, 7.288393e+001
4.996429e+002, 7.201240e+001
5.001251e+002, 7.101661e+001
5.006072e+002, 6.986397e+001
5.010893e+002, 6.844202e+001
5.015714e+002, 6.702585e+001
5.020535e+002, 6.578082e+001
5.025356e+002, 6.457170e+001
5.030178e+002, 6.308368e+001
5.034999e+002, 6.087037e+001
5.039820e+002, 5.880712e+001
5.044641e+002, 5.714526e+001
5.049462e+002, 5.589547e+001
5.054283e+002, 5.470245e+001
5.059105e+002, 5.355372e+001
5.063926e+002, 5.249651e+001
5.068747e+002, 5.158823e+001
5.073568e+002, 5.085534e+001
5.078389e+002, 5.009886e+001
5.083210e+002, 4.928769e+001
5.088032e+002, 4.849370e+001
5.092853e+002, 4.783744e+001
5.097674e+002, 4.731715e+001
5.102495e+002, 4.691830e+001
5.107316e+002, 4.672959e+001
5.112137e+002, 4.661261e+001
5.116959e+002, 4.614691e+001
5.121780e+002, 4.537355e+001
5.126601e+002, 4.478416e+001
5.131422e+002, 4.490715e+001
5.136243e+002, 4.536058e+001
5.141064e+002, 4.566390e+001
5.145886e+002, 4.571749e+001
5.150707e+002, 4.567625e+001
5.155528e+002, 4.531726e+001
5.160349e+002, 4.500508e+001
5.165170e+002, 4.525937e+001
5.169991e+002, 4.725938e+001
5.174813e+002, 4.882553e+001
5.179634e+002, 4.889202e+001
5.184455e+002, 4.767244e+001
5.189276e+002, 4.700329e+001
5.194097e+002, 4.747621e+001
5.198918e+002, 4.822018e+001
5.203740e+002, 4.890908e+001
5.208561e+002, 4.952893e+001
5.213382e+002, 5.014557e+001
5.218203e+002, 5.073841e+001
5.223024e+002, 5.135083e+001
5.227845e+002, 5.208518e+001
5.232667e+002, 5.299169e+001
5.237488e+002, 5.369075e+001
5.242309e+002, 5.396799e+001
5.247130e+002, 5.411077e+001
5.251951e+002, 5.489373e+001
5.256772e+002, 5.631245e+001
5.261594e+002, 5.791889e+001
5.266415e+002, 5.960738e+001
5.271236e+002, 6.129382e+001
5.276057e+002, 6.270742e+001
5.280878e+002, 6.383165e+001
5.285699e+002, 6.497066e+001
5.290521e+002, 6.644612e+001
5.295342e+002, 6.804863e+001
5.300163e+002, 6.949090e+001
5.304984e+002, 7.062023e+001
5.309805e+002, 7.169604e+001
5.314626e+002, 7.303263e+001
5.319448e+002, 7.439119e+001
5.324269e+002, 7.530515e+001
5.329090e+002, 7.563079e+001
5.333911e+002, 7.550907e+001
5.338732e+002, 7.496480e+001
5.343553e+002, 7.399563e+001
5.348375e+002, 7.266451e+001
5.353196e+002, 7.094693e+001
5.358017e+002, 6.891133e+001
5.362838e+002, 6.655665e+001
5.367659e+002, 6.369363e+001
5.372480e+002, 6.094006e+001
5.377302e+002, 5.822980e+001
5.382123e+002, 5.573051e+001
5.386944e+002, 5.382479e+001
5.391765e+002, 5.253679e+001
5.396586e+002, 5.126208e+001
5.401407e+002, 4.981035e+001
5.406229e+002, 4.830683e+001
5.411050e+002, 4.713352e+001
5.415871e+002, 4.626583e+001
5.420692e+002, 4.545492e+001
5.425513e+002, 4.448710e+001
5.430334e+002, 4.348845e+001
5.435156e+002, 4.259887e+001
5.439977e+002, 4.181890e+001
5.444798e+002, 4.131736e+001
5.449619e+002, 4.154000e+001
5.454440e+002, 4.197555e+001
5.459261e+002, 4.204336e+001
5.464083e+002, 4.124476e+001
5.468904e+002, 4.055330e+001
5.473725e+002, 4.039151e+001
5.478546e+002, 4.056260e+001
5.483367e+002, 4.064198e+001
5.488188e+002, 4.051605e+001
5.493010e+002, 4.034249e+001
5.497831e+002, 4.012793e+001
5.502652e+002, 3.987392e+001
5.507473e+002, 3.971958e+001
5.512294e+002, 3.969188e+001
5.517115e+002, 3.971849e+001
5.521937e+002, 3.976361e+001
5.526758e+002, 3.983050e+001
5.531579e+002, 3.989364e+001
5.536400e+002, 3.995653e+001
5.541221e+002, 4.000569e+001
5.546042e+002, 3.999405e+001
5.550864e+002, 3.993912e+001
5.555685e+002, 3.995543e+001
5.560506e+002, 4.010661e+001
5.565327e+002, 4.030672e+001
5.570148e+002, 4.050528e+001
5.574969e+002, 4.066638e+001
5.579791e+002, 4.065536e+001
5.584612e+002, 4.011680e+001
5.589433e+002, 3.956463e+001
5.594254e+002, 3.951509e+001
5.599075e+002, 4.000994e+001
5.603896e+002, 4.039855e+001
5.608718e+002, 4.029015e+001
5.613539e+002, 4.004760e+001
5.618360e+002, 3.993895e+001
5.623181e+002, 4.009670e+001
5.628002e+002, 4.024855e+001
5.632823e+002, 4.033675e+001
5.637645e+002, 4.042829e+001
5.642466e+002, 4.064776e+001
5.647287e+002, 4.110192e+001
5.652108e+002, 4.142775e+001
5.656929e+002, 4.147443e+001
5.661750e+002, 4.133716e+001
5.666572e+002, 4.148838e+001
5.671393e+002, 4.196519e+001
5.676214e+002, 4.245603e+001
5.681035e+002, 4.278905e+001
5.685856e+002, 4.298495e+001
5.690677e+002, 4.308104e+001
5.695499e+002, 4.306521e+001
5.700320e+002, 4.314146e+001
5.705141e+002, 4.358856e+001
5.709962e+002, 4.423289e+001
5.714783e+002, 4.480529e+001
5.719604e+002, 4.527808e+001
5.724426e+002, 4.559518e+001
5.729247e+002, 4.557592e+001
5.734068e+002, 4.540050e+001
5.738889e+002, 4.539125e+001
5.743710e+002, 4.576571e+001
5.748531e+002, 4.621162e+001
5.753353e+002, 4.657899e+001
5.758174e+002, 4.688457e+001
5.762995e+002, 4.742565e+001
5.767816e+002, 4.843268e+001
5.772637e+002, 4.940071e+001
5.777458e+002, 5.005928e+001
5.782280e+002, 5.028587e+001
5.787101e+002, 5.085423e+001
5.791922e+002, 5.182062e+001
5.796743e+002, 5.300473e+001
5.801564e+002, 5.421460e+001
5.806385e+002, 5.545098e+001
5.811207e+002, 5.684379e+001
5.816028e+002, 5.840813e+001
5.820849e+002, 6.013338e+001
5.825670e+002, 6.204818e+001
5.830491e+002, 6.410128e+001
5.835313e+002, 6.622851e+001
5.840134e+002, 6.855598e+001
5.844955e+002, 7.080362e+001
5.849776e+002, 7.248499e+001
5.854597e+002, 7.375016e+001
5.859418e+002, 7.544118e+001
5.864240e+002, 7.817464e+001
5.869061e+002, 8.126899e+001
5.873882e+002, 8.437542e+001
5.878703e+002, 8.738764e+001
5.883524e+002, 9.060600e+001
5.888345e+002, 9.387694e+001
5.893167e+002, 9.749894e+001
5.897988e+002, 1.017534e+002
5.902809e+002, 1.069249e+002
5.907630e+002, 1.121248e+002
5.912451e+002, 1.173694e+002
5.917272e+002, 1.225759e+002
5.922094e+002, 1.274948e+002
5.926915e+002, 1.320479e+002
5.931736e+002, 1.369230e+002
5.936557e+002, 1.425090e+002
5.941378e+002, 1.484559e+002
5.946199e+002, 1.540909e+002
5.951021e+002, 1.593508e+002
5.955842e+002, 1.641109e+002
5.960663e+002, 1.686781e+002
5.965484e+002, 1.724723e+002
5.970305e+002, 1.750595e+002
5.975126e+002, 1.764194e+002
5.979948e+002, 1.760516e+002
5.984769e+002, 1.729639e+002
5.989590e+002, 1.684318e+002
5.994411e+002, 1.634717e+002
5.999232e+002, 1.579555e+002
6.004053e+002, 1.525299e+002
6.008875e+002, 1.471059e+002
6.013696e+002, 1.419312e+002
6.018517e+002, 1.373603e+002
6.023338e+002, 1.333471e+002
6.028159e+002, 1.301101e+002
6.032980e+002, 1.276991e+002
6.037802e+002, 1.260738e+002
6.042623e+002, 1.250710e+002
6.047444e+002, 1.247230e+002
6.052265e+002, 1.247813e+002
6.057086e+002, 1.251752e+002
6.061907e+002, 1.258769e+002
6.066729e+002, 1.268864e+002
6.071550e+002, 1.281917e+002
6.076371e+002, 1.294831e+002
6.081192e+002, 1.305087e+002
6.086013e+002, 1.313608e+002
6.090834e+002, 1.320532e+002
6.095656e+002, 1.324922e+002
6.100477e+002, 1.332261e+002
6.105298e+002, 1.349020e+002
6.110119e+002, 1.368898e+002
6.114940e+002, 1.385028e+002
6.119761e+002, 1.396210e+002
6.124583e+002, 1.402934e+002
6.129404e+002, 1.407614e+002
6.134225e+002, 1.407729e+002
6.139046e+002, 1.397287e+002
6.143867e+002, 1.376179e+002
6.148688e+002, 1.344964e+002
6.153510e+002, 1.301812e+002
6.158331e+002, 1.248270e+002
6.163152e+002, 1.191135e+002
6.167973e+002, 1.129873e+002
6.172794e+002, 1.071912e+002
6.177615e+002, 1.022700e+002
6.182437e+002, 9.813220e+001
6.187258e+002, 9.454752e+001
6.192079e+002, 9.149253e+001
6.196900e+002, 8.849805e+001
6.201721e+002, 8.497314e+001
6.206542e+002, 8.133969e+001
6.211364e+002, 7.813083e+001
6.216185e+002, 7.544304e+001
6.221006e+002, 7.316417e+001
6.225827e+002, 7.114109e+001
6.230648e+002, 6.949917e+001
6.235469e+002, 6.841315e+001
6.240291e+002, 6.818733e+001
6.245112e+002, 6.821242e+001
6.249933e+002, 6.845585e+001
6.254754e+002, 6.888580e+001
6.259575e+002, 6.936872e+001
6.264396e+002, 6.986501e+001
6.269218e+002, 7.054591e+001
6.274039e+002, 7.154393e+001
6.278860e+002, 7.279310e+001
6.283681e+002, 7.405457e+001
6.288502e+002, 7.534962e+001
6.293323e+002, 7.610495e+001
6.298145e+002, 7.595078e+001
6.302966e+002, 7.493901e+001
6.307787e+002, 7.304900e+001
6.312608e+002, 7.024352e+001
6.317429e+002, 6.703622e+001
6.322250e+002, 6.355965e+001
6.327072e+002, 6.000322e+001
6.331893e+002, 5.647416e+001
6.336714e+002, 5.274453e+001
6.341535e+002, 4.955200e+001
6.346356e+002, 4.709436e+001
6.351177e+002, 4.531189e+001
6.355999e+002, 4.406800e+001
6.360820e+002, 4.366341e+001
6.365641e+002, 4.328489e+001
6.370462e+002, 4.279103e+001
6.375283e+002, 4.223646e+001
6.380104e+002, 4.182661e+001
6.384926e+002, 4.158901e+001
6.389747e+002, 4.129437e+001
6.394568e+002, 4.072327e+001
6.399389e+002, 4.003046e+001
6.404210e+002, 3.986985e+001
6.409031e+002, 4.020586e+001
6.413853e+002, 4.044170e+001
6.418674e+002, 4.005367e+001
6.423495e+002, 3.936623e+001
6.428316e+002, 3.870347e+001
6.433137e+002, 3.807826e+001
6.437958e+002, 3.767474e+001
6.442780e+002, 3.791905e+001
6.447601e+002, 3.823450e+001
6.452422e+002, 3.810378e+001
6.457243e+002, 3.706504e+001
6.462064e+002, 3.615195e+001
6.466885e+002, 3.544730e+001
6.471707e+002, 3.487653e+001
6.476528e+002, 3.435516e+001
6.481349e+002, 3.387210e+001
6.486170e+002, 3.344735e+001
6.490991e+002, 3.304357e+001
6.495812e+002, 3.273632e+001
6.500634e+002, 3.282325e+001
6.505455e+002, 3.326537e+001
6.510276e+002, 3.348396e+001
6.515097e+002, 3.303247e+001
6.519918e+002, 3.230633e+001
6.524739e+002, 3.189632e+001
6.529561e+002, 3.177201e+001
6.534382e+002, 3.174600e+001
6.539203e+002, 3.174532e+001
6.544024e+002, 3.178111e+001
6.548845e+002, 3.187170e+001
6.553666e+002, 3.202304e+001
6.558488e+002, 3.217270e+001
6.563309e+002, 3.234071e+001
6.568130e+002, 3.247628e+001
6.572951e+002, 3.256728e+001
6.577772e+002, 3.268129e+001
6.582593e+002, 3.252322e+001
6.587415e+002, 3.194399e+001
6.592236e+002, 3.133324e+001
6.597057e+002, 3.122890e+001
6.601878e+002, 3.161688e+001
6.606699e+002, 3.178013e+001
6.611520e+002, 3.151425e+001
6.616342e+002, 3.116705e+001
6.621163e+002, 3.128629e+001
6.625984e+002, 3.172404e+001
6.630805e+002, 3.208918e+001
6.635626e+002, 3.216661e+001
6.640447e+002, 3.217497e+001
6.645269e+002, 3.231369e+001
6.650090e+002, 3.251126e+001
6.654911e+002, 3.256276e+001
6.659732e+002, 3.227125e+001
6.664553e+002, 3.195481e+001
6.669374e+002, 3.170181e+001
6.674196e+002, 3.151318e+001
6.679017e+002, 3.142354e+001
6.683838e+002, 3.145179e+001
6.688659e+002, 3.154477e+001
6.693480e+002, 3.171827e+001
6.698301e+002, 3.196948e+001
6.703123e+002, 3.204204e+001
6.707944e+002, 3.191747e+001
6.712765e+002, 3.175523e+001
6.717586e+002, 3.165090e+001
6.722407e+002, 3.161937e+001
6.727228e+002, 3.174549e+001
6.732050e+002, 3.207807e+001
6.736871e+002, 3.232475e+001
6.741692e+002, 3.208660e+001
6.746513e+002, 3.171650e+001
6.751334e+002, 3.163752e+001
6.756155e+002, 3.217427e+001
6.760977e+002, 3.267812e+001
6.765798e+002, 3.308892e+001
6.770619e+002, 3.334559e+001
6.775440e+002, 3.332128e+001
6.780261e+002, 3.280186e+001
6.785082e+002, 3.247004e+001
6.789904e+002, 3.250683e+001
6.794725e+002, 3.275704e+001
6.799546e+002, 3.279676e+001
6.804367e+002, 3.262358e+001
6.809188e+002, 3.247961e+001
6.814009e+002, 3.248428e+001
6.818831e+002, 3.257276e+001
6.823652e+002, 3.264085e+001
6.828473e+002, 3.268971e+001
6.833294e+002, 3.272079e+001
6.838115e+002, 3.272778e+001
6.842936e+002, 3.272351e+001
6.847758e+002, 3.270971e+001
6.852579e+002, 3.268711e+001
6.857400e+002, 3.268420e+001
6.862221e+002, 3.277547e+001
6.867042e+002, 3.282978e+001
6.871863e+002, 3.276754e+001
6.876685e+002, 3.254807e+001
6.881506e+002, 3.239100e+001
6.886327e+002, 3.231161e+001
6.891148e+002, 3.225742e+001
6.895969e+002, 3.215765e+001
6.900790e+002, 3.202019e+001
6.905612e+002, 3.199896e+001
6.910433e+002, 3.212300e+001
6.915254e+002, 3.229162e+001
6.920075e+002, 3.242274e+001
6.924896e+002, 3.250638e+001
6.929717e+002, 3.250922e+001
6.934539e+002, 3.236410e+001
6.939360e+002, 3.225290e+001
6.944181e+002, 3.228913e+001
6.949002e+002, 3.242546e+001
6.953823e+002, 3.258916e+001
6.958644e+002, 3.290961e+001
6.963466e+002, 3.306649e+001
6.968287e+002, 3.290191e+001
6.973108e+002, 3.257718e+001
6.977929e+002, 3.255591e+001
6.982750e+002, 3.294448e+001
6.987571e+002, 3.323081e+001
6.992393e+002, 3.319457e+001
6.997214e+002, 3.297367e+001
7.002035e+002, 3.307205e+001
7.006856e+002, 3.344027e+001
7.011677e+002, 3.363968e+001
7.016498e+002, 3.313836e+001
7.021320e+002, 3.250016e+001
7.026141e+002, 3.226351e+001
7.030962e+002, 3.245581e+001
7.035783e+002, 3.312319e+001
7.040604e+002, 3.535259e+001
7.045425e+002, 3.720063e+001
7.050247e+002, 3.722480e+001
7.055068e+002, 3.480964e+001
7.059889e+002, 3.354900e+001
7.064710e+002, 3.414935e+001
7.069531e+002, 3.501102e+001
7.074352e+002, 3.502557e+001
7.079174e+002, 3.408552e+001
7.083995e+002, 3.357690e+001
7.088816e+002, 3.358035e+001
7.093637e+002, 3.373893e+001
7.098458e+002, 3.367362e+001
7.103279e+002, 3.347502e+001
7.108101e+002, 3.336271e+001
7.112922e+002, 3.337725e+001
7.117743e+002, 3.347884e+001
7.122564e+002, 3.375793e+001
7.127385e+002, 3.405878e+001
7.132206e+002, 3.419271e+001
7.137028e+002, 3.399984e+001
7.141849e+002, 3.378838e+001
7.146670e+002, 3.350904e+001
7.151491e+002, 3.328613e+001
7.156312e+002, 3.330880e+001
7.161133e+002, 3.365538e+001
7.165955e+002, 3.403969e+001
7.170776e+002, 3.443813e+001
7.175597e+002, 3.481496e+001
7.180418e+002, 3.507512e+001
7.185239e+002, 3.522760e+001
7.190060e+002, 3.533929e+001
7.194882e+002, 3.540786e+001
7.199703e+002, 3.547887e+001
7.204524e+002, 3.568372e+001
7.209345e+002, 3.594696e+001
7.214166e+002, 3.605246e+001
7.218987e+002, 3.580973e+001
7.223809e+002, 3.546770e+001
7.228630e+002, 3.500604e+001
7.233451e+002, 3.448578e+001
7.238272e+002, 3.438586e+001
7.243093e+002, 3.499722e+001
7.247914e+002, 3.561620e+001
7.252736e+002, 3.598948e+001
7.257557e+002, 3.613520e+001
7.262378e+002, 3.626739e+001
7.267199e+002, 3.638873e+001
7.272020e+002, 3.649068e+001
7.276841e+002, 3.657674e+001
7.281663e+002, 3.663973e+001
7.286484e+002, 3.662733e+001
7.291305e+002, 3.654412e+001
7.296126e+002, 3.652558e+001
7.300947e+002, 3.681222e+001
7.305768e+002, 3.710118e+001
7.310590e+002, 3.708086e+001
7.315411e+002, 3.661462e+001
7.320232e+002, 3.636441e+001
7.325053e+002, 3.672651e+001
7.329874e+002, 3.711329e+001
7.334695e+002, 3.711582e+001
7.339517e+002, 3.651123e+001
7.344338e+002, 3.639058e+001
7.349159e+002, 3.691178e+001
7.353980e+002, 3.746558e+001
7.358801e+002, 3.722097e+001
7.363622e+002, 3.641102e+001
7.368444e+002, 3.606870e+001
7.373265e+002, 3.642250e+001
7.378086e+002, 3.690680e+001
7.382907e+002, 3.698232e+001
7.387728e+002, 3.686882e+001
7.392549e+002, 3.684851e+001
7.397371e+002, 3.700969e+001
7.402192e+002, 3.724947e+001
7.407013e+002, 3.770564e+001
7.411834e+002, 3.815287e+001
7.416655e+002, 3.828112e+001
7.421476e+002, 3.790502e+001
7.426298e+002, 3.764092e+001
7.431119e+002, 3.754839e+001
7.435940e+002, 3.761587e+001
7.440761e+002, 3.792001e+001
7.445582e+002, 3.842191e+001
7.450403e+002, 3.872367e+001
7.455225e+002, 3.859309e+001
7.460046e+002, 3.840654e+001
7.464867e+002, 3.872260e+001
7.469688e+002, 3.933130e+001
7.474509e+002, 3.977855e+001
7.479330e+002, 3.970229e+001
7.484152e+002, 3.961275e+001
7.488973e+002, 3.973991e+001
7.493794e+002, 4.001554e+001
7.498615e+002, 4.019653e+001
7.503436e+002, 4.021694e+001
7.508257e+002, 4.025243e+001
7.513079e+002, 4.032761e+001
7.517900e+002, 4.045689e+001
7.522721e+002, 4.072911e+001
7.527542e+002, 4.114563e+001
7.532363e+002, 4.150463e+001
7.537184e+002, 4.164536e+001
7.542006e+002, 4.170781e+001
7.546827e+002, 4.192256e+001
7.551648e+002, 4.226100e+001
7.556469e+002, 4.259425e+001
7.561290e+002, 4.285351e+001
7.566111e+002, 4.309550e+001
7.570933e+002, 4.331103e+001
7.575754e+002, 4.350832e+001
7.580575e+002, 4.388041e+001
7.585396e+002, 4.469616e+001
7.590217e+002, 4.527343e+001
7.595038e+002, 4.517023e+001
7.599860e+002, 4.450186e+001
7.604681e+002, 4.477517e+001
7.609502e+002, 4.607211e+001
7.614323e+002, 4.732536e+001
7.619144e+002, 4.777180e+001
7.623965e+002, 4.771430e+001
7.628787e+002, 4.760332e+001
7.633608e+002, 4.747275e+001
7.638429e+002, 4.748920e+001
7.643250e+002, 4.802345e+001
7.648071e+002, 4.853257e+001
7.652892e+002, 4.855409e+001
7.657714e+002, 4.796076e+001
7.662535e+002, 4.765915e+001
7.667356e+002, 4.789693e+001
7.672177e+002, 4.817472e+001
7.676998e+002, 4.820087e+001
7.681819e+002, 4.795638e+001
7.686641e+002, 4.776003e+001
7.691462e+002, 4.759904e+001
7.696283e+002, 4.759665e+001
7.701104e+002, 4.816082e+001
7.705925e+002, 4.887208e+001
7.710746e+002, 4.882477e+001
7.715568e+002, 4.791122e+001
7.720389e+002, 4.689049e+001
7.725210e+002, 4.600208e+001
7.730031e+002, 4.535461e+001
7.734852e+002, 4.508353e+001
7.739673e+002, 4.538653e+001
7.744495e+002, 4.548315e+001
7.749316e+002, 4.525278e+001
7.754137e+002, 4.492377e+001
7.758958e+002, 4.462258e+001
7.763779e+002, 4.433629e+001
7.768600e+002, 4.430328e+001
7.773422e+002, 4.457404e+001
7.778243e+002, 4.483251e+001
7.783064e+002, 4.465548e+001
7.787885e+002, 4.426659e+001
7.792706e+002, 4.411298e+001
7.797527e+002, 4.430049e+001
7.802349e+002, 4.451092e+001
7.807170e+002, 4.455776e+001
7.811991e+002, 4.454120e+001
7.816812e+002, 4.455502e+001
7.821633e+002, 4.468676e+001
7.826454e+002, 4.468842e+001
7.831276e+002, 4.447127e+001
7.836097e+002, 4.423037e+001
7.840918e+002, 4.420001e+001
7.845739e+002, 4.438604e+001
7.850560e+002, 4.439690e+001
7.855381e+002, 4.415977e+001
7.860203e+002, 4.393390e+001
7.865024e+002, 4.400970e+001
7.869845e+002, 4.429528e+001
7.874666e+002, 4.466253e+001
7.879487e+002, 4.513703e+001
7.884308e+002, 4.551863e+001
7.889130e+002, 4.558501e+001
7.893951e+002, 4.558112e+001
7.898772e+002, 4.577163e+001
7.903593e+002, 4.636527e+001
7.908414e+002, 4.679928e+001
7.913235e+002, 4.702197e+001
7.918057e+002, 4.714478e+001
7.922878e+002, 4.730200e+001
7.927699e+002, 4.748844e+001
7.932520e+002, 4.751981e+001
7.937341e+002, 4.729866e+001
7.942162e+002, 4.725312e+001
7.946984e+002, 4.813121e+001
7.951805e+002, 4.941144e+001
7.956626e+002, 5.024553e+001
7.961447e+002, 5.028773e+001
7.966268e+002, 5.022478e+001
7.971089e+002, 5.020021e+001
7.975911e+002, 5.025239e+001
7.980732e+002, 5.041431e+001
7.985553e+002, 5.068241e+001
7.990374e+002, 5.108316e+001
7.995195e+002, 5.165230e+001
8.000016e+002, 5.229182e+001
8.004838e+002, 5.293531e+001
8.009659e+002, 5.356298e+001
8.014480e+002, 5.405881e+001
8.019301e+002, 5.438000e+001
8.024122e+002, 5.465489e+001
8.028943e+002, 5.500392e+001
8.033765e+002, 5.537790e+001
8.038586e+002, 5.572585e+001
8.043407e+002, 5.609627e+001
8.048228e+002, 5.632585e+001
8.053049e+002, 5.611622e+001
8.057870e+002, 5.591004e+001
8.062692e+002, 5.619685e+001
8.067513e+002, 5.714171e+001
8.072334e+002, 5.794546e+001
8.077155e+002, 5.854985e+001
8.081976e+002, 5.894711e+001
8.086797e+002, 5.903236e+001
8.091619e+002, 5.889701e+001
8.096440e+002, 5.878148e+001
8.101261e+002, 5.870638e+001
8.106082e+002, 5.877769e+001
8.110903e+002, 5.911617e+001
8.115724e+002, 5.962243e+001
8.120546e+002, 6.019511e+001
8.125367e+002, 6.093025e+001
8.130188e+002, 6.152649e+001
8.135009e+002, 6.183471e+001
8.139830e+002, 6.214170e+001
8.144651e+002, 6.274620e+001
8.149473e+002, 6.366276e+001
8.154294e+002, 6.473846e+001
8.159115e+002, 6.596846e+001
8.163936e+002, 6.733221e+001
8.168757e+002, 6.885914e+001
8.173578e+002, 7.048516e+001
8.178400e+002, 7.208521e+001
8.183221e+002, 7.356201e+001
8.188042e+002, 7.528425e+001
8.192863e+002, 7.762379e+001
8.197684e+002, 8.017585e+001
8.202505e+002, 8.252274e+001
8.207327e+002, 8.425444e+001
8.212148e+002, 8.662692e+001
8.216969e+002, 8.982404e+001
8.221790e+002, 9.334884e+001
8.226611e+002, 9.645506e+001
8.231432e+002, 9.931650e+001
8.236254e+002, 1.028307e+002
8.241075e+002, 1.071384e+002
8.245896e+002, 1.118472e+002
8.250717e+002, 1.166518e+002
8.255538e+002, 1.215946e+002
8.260359e+002, 1.267383e+002
8.265181e+002, 1.322522e+002
8.270002e+002, 1.373883e+002
8.274823e+002, 1.420798e+002
8.279644e+002, 1.462853e+002
8.284465e+002, 1.499895e+002
8.289286e+002, 1.531167e+002
8.294108e+002, 1.560762e+002
8.298929e+002, 1.589474e+002
8.303750e+002, 1.612509e+002
8.308571e+002, 1.623850e+002
8.313392e+002, 1.626584e+002
8.318214e+002, 1.628244e+002
8.323035e+002, 1.629739e+002
8.327856e+002, 1.624747e+002
8.332677e+002, 1.600938e+002
8.337498e+002, 1.575017e+002
8.342319e+002, 1.559722e+002
8.347141e+002, 1.558887e+002
8.351962e+002, 1.559265e+002
8.356783e+002, 1.559403e+002
8.361604e+002, 1.563110e+002
8.366425e+002, 1.574919e+002
8.371246e+002, 1.593992e+002
8.376068e+002, 1.608560e+002
8.380889e+002, 1.618557e+002
8.385710e+002, 1.622983e+002
8.390531e+002, 1.624363e+002
8.395352e+002, 1.617726e+002
8.400173e+002, 1.597618e+002
8.404995e+002, 1.563556e+002
8.409816e+002, 1.519239e+002
8.414637e+002, 1.460915e+002
8.419458e+002, 1.396915e+002
8.424279e+002, 1.329724e+002
8.429100e+002, 1.259415e+002
8.433922e+002, 1.189275e+002
8.438743e+002, 1.118437e+002
8.443564e+002, 1.052483e+002
8.448385e+002, 9.935476e+001
8.453206e+002, 9.420320e+001
8.458027e+002, 9.019364e+001
8.462849e+002, 8.717130e+001
8.467670e+002, 8.437272e+001
8.472491e+002, 8.116614e+001
8.477312e+002, 7.825008e+001
8.482133e+002, 7.610404e+001
8.486954e+002, 7.468311e+001
8.491776e+002, 7.336379e+001
8.496597e+002, 7.218757e+001
8.501418e+002, 7.094125e+001
8.506239e+002, 6.942981e+001
8.511060e+002, 6.787260e+001
8.515881e+002, 6.711868e+001
8.520703e+002, 6.709887e+001
8.525524e+002, 6.723425e+001
8.530345e+002, 6.737983e+001
8.535166e+002, 6.741972e+001
8.539987e+002, 6.713853e+001
8.544808e+002, 6.666679e+001
8.549630e+002, 6.633595e+001
8.554451e+002, 6.623426e+001
8.559272e+002, 6.631548e+001
8.564093e+002, 6.668106e+001
8.568914e+002, 6.716000e+001
8.573735e+002, 6.729353e+001
8.578557e+002, 6.703217e+001
8.583378e+002, 6.704312e+001
8.588199e+002, 6.754212e+001
8.593020e+002, 6.831540e+001
8.597841e+002, 6.915630e+001
8.602662e+002, 7.001490e+001
8.607484e+002, 7.075748e+001
8.612305e+002, 7.114767e+001
8.617126e+002, 7.170268e+001
8.621947e+002, 7.275364e+001
8.626768e+002, 7.402291e+001
8.631589e+002, 7.508930e+001
8.636411e+002, 7.587273e+001
8.641232e+002, 7.668666e+001
8.646053e+002, 7.752422e+001
8.650874e+002, 7.847958e+001
8.655695e+002, 7.970826e+001
8.660516e+002, 8.116709e+001
8.665338e+002, 8.271172e+001
8.670159e+002, 8.431033e+001
8.674980e+002, 8.608576e+001
8.679801e+002, 8.822741e+001
8.684622e+002, 9.055199e+001
8.689443e+002, 9.293752e+001
8.694265e+002, 9.554263e+001
8.699086e+002, 9.776719e+001
8.703907e+002, 9.931190e+001
8.708728e+002, 1.009397e+002
8.713549e+002, 1.034146e+002
8.718370e+002, 1.066470e+002
8.723192e+002, 1.093905e+002
8.728013e+002, 1.116271e+002
8.732834e+002, 1.136851e+002
8.737655e+002, 1.159710e+002
8.742476e+002, 1.181329e+002
8.747297e+002, 1.198977e+002
8.752119e+002, 1.212566e+002
8.756940e+002, 1.219704e+002
8.761761e+002, 1.218382e+002
8.766582e+002, 1.211554e+002
8.771403e+002, 1.199855e+002
8.776224e+002, 1.183386e+002
8.781046e+002, 1.163028e+002
8.785867e+002, 1.138791e+002
8.790688e+002, 1.112525e+002
8.795509e+002, 1.085053e+002
8.800330e+002, 1.056981e+002
8.805151e+002, 1.029213e+002
8.809973e+002, 1.001728e+002
8.814794e+002, 9.743888e+001
8.819615e+002, 9.444262e+001
8.824436e+002, 9.175726e+001
8.829257e+002, 8.960532e+001
8.834078e+002, 8.793277e+001
8.838900e+002, 8.655581e+001
8.843721e+002, 8.550782e+001
8.848542e+002, 8.456953e+001
8.853363e+002, 8.365307e+001
8.858184e+002, 8.285268e+001
8.863005e+002, 8.235619e+001
8.867827e+002, 8.210748e+001
8.872648e+002, 8.197318e+001
8.877469e+002, 8.193387e+001
8.882290e+002, 8.195141e+001
8.887111e+002, 8.190376e+001
8.891932e+002, 8.195011e+001
8.896754e+002, 8.233272e+001
8.901575e+002, 8.318629e+001
8.906396e+002, 8.397923e+001
8.911217e+002, 8.459997e+001
8.916038e+002, 8.530695e+001
8.920859e+002, 8.643353e+001
8.925681e+002, 8.791788e+001
8.930502e+002, 8.960336e+001
8.935323e+002, 9.146465e+001
8.940144e+002, 9.342277e+001
8.944965e+002, 9.529831e+001
8.949786e+002, 9.729848e+001
8.954608e+002, 9.962966e+001
8.959429e+002, 1.023396e+002
8.964250e+002, 1.052487e+002
8.969071e+002, 1.083242e+002
8.973892e+002, 1.116170e+002
8.978713e+002, 1.152002e+002
8.983535e+002, 1.190391e+002
8.988356e+002, 1.226828e+002
8.993177e+002, 1.261517e+002
8.997998e+002, 1.297778e+002
9.002819e+002, 1.337869e+002
9.007640e+002, 1.380723e+002
9.012462e+002, 1.428055e+002
9.017283e+002, 1.478695e+002
9.022104e+002, 1.525391e+002
9.026925e+002, 1.563649e+002
9.031746e+002, 1.603189e+002
9.036567e+002, 1.648441e+002
9.041389e+002, 1.696304e+002
9.046210e+002, 1.740687e+002
9.051031e+002, 1.780710e+002
9.055852e+002, 1.810166e+002
9.060673e+002, 1.824170e+002
9.065494e+002, 1.829827e+002
9.070316e+002, 1.833785e+002
9.075137e+002, 1.833909e+002
9.079958e+002, 1.826414e+002
9.084779e+002, 1.813978e+002
9.089600e+002, 1.787746e+002
9.094421e+002, 1.745009e+002
9.099243e+002, 1.690932e+002
9.104064e+002, 1.628471e+002
9.108885e+002, 1.558406e+002
9.113706e+002, 1.489502e+002
9.118527e+002, 1.422465e+002
9.123348e+002, 1.360608e+002
9.128170e+002, 1.310541e+002
9.132991e+002, 1.265608e+002
9.137812e+002, 1.217148e+002
9.142633e+002, 1.161179e+002
9.147454e+002, 1.113002e+002
9.152275e+002, 1.077608e+002
9.157097e+002, 1.046994e+002
9.161918e+002, 1.016511e+002
9.166739e+002, 9.862221e+001
9.171560e+002, 9.610499e+001
9.176381e+002, 9.412162e+001
9.181202e+002, 9.230466e+001
9.186024e+002, 9.029209e+001
9.190845e+002, 8.839510e+001
9.195666e+002, 8.698299e+001
9.200487e+002, 8.602219e+001
9.205308e+002, 8.518896e+001
9.210129e+002, 8.448093e+001
9.214951e+002, 8.378345e+001
9.219772e+002, 8.302586e+001
9.224593e+002, 8.226925e+001
9.229414e+002, 8.170400e+001
9.234235e+002, 8.133195e+001
9.239056e+002, 8.105756e+001
9.243878e+002, 8.088296e+001
9.248699e+002, 8.072623e+001
9.253520e+002, 8.039869e+001
9.258341e+002, 8.005097e+001
9.263162e+002, 7.992224e+001
9.267983e+002, 8.029210e+001
9.272805e+002, 8.056429e+001
9.277626e+002, 8.062341e+001
9.282447e+002, 8.061575e+001
9.287268e+002, 8.065640e+001
9.292089e+002, 8.074512e+001
9.296910e+002, 8.101118e+001
9.301732e+002, 8.147141e+001
9.306553e+002, 8.200689e+001
9.311374e+002, 8.252360e+001
9.316195e+002, 8.304702e+001
9.321016e+002, 8.357108e+001
9.325837e+002, 8.407954e+001
9.330659e+002, 8.481098e+001
9.335480e+002, 8.605964e+001
9.340301e+002, 8.723878e+001
9.345122e+002, 8.799926e+001
9.349943e+002, 8.846999e+001
9.354764e+002, 8.951098e+001
9.359586e+002, 9.112636e+001
9.364407e+002, 9.296878e+001
9.369228e+002, 9.500022e+001
9.374049e+002, 9.708907e+001
9.378870e+002, 9.887246e+001
9.383691e+002, 1.006350e+002
9.388513e+002, 1.029871e+002
9.393334e+002, 1.065495e+002
9.398155e+002, 1.101901e+002
9.402976e+002, 1.137009e+002
9.407797e+002, 1.172280e+002
9.412618e+002, 1.207429e+002
9.417440e+002, 1.243019e+002
9.422261e+002, 1.286488e+002
9.427082e+002, 1.339773e+002
9.431903e+002, 1.399907e+002
9.436724e+002, 1.464085e+002
9.441545e+002, 1.532738e+002
9.446367e+002, 1.606561e+002
9.451188e+002, 1.684776e+002
9.456009e+002, 1.770517e+002
9.460830e+002, 1.862606e+002
9.465651e+002, 1.963038e+002
9.470472e+002, 2.071016e+002
9.475294e+002, 2.188696e+002
9.480115e+002, 2.321107e+002
9.484936e+002, 2.468659e+002
9.489757e+002, 2.631736e+002
9.494578e+002, 2.814759e+002
9.499399e+002, 3.009618e+002
9.504221e+002, 3.206842e+002
9.509042e+002, 3.410818e+002
9.513863e+002, 3.635490e+002
9.518684e+002, 3.890437e+002
9.523505e+002, 4.152347e+002
9.528326e+002, 4.418849e+002
9.533148e+002, 4.688344e+002
9.537969e+002, 4.954649e+002
9.542790e+002, 5.220704e+002
9.547611e+002, 5.500117e+002
9.552432e+002, 5.794744e+002
9.557253e+002, 6.099162e+002
9.562075e+002, 6.396914e+002
9.566896e+002, 6.708660e+002
9.571717e+002, 7.058272e+002
9.576538e+002, 7.446752e+002
9.581359e+002, 7.876906e+002
9.586180e+002, 8.354108e+002
9.591002e+002, 8.864347e+002
9.595823e+002, 9.400340e+002
9.600644e+002, 9.961370e+002
9.605465e+002, 1.055464e+003
9.610286e+002, 1.117546e+003
9.615107e+002, 1.176800e+003
9.619929e+002, 1.233948e+003
9.624750e+002, 1.284374e+003
9.629571e+002, 1.327645e+003
9.634392e+002, 1.362205e+003
9.639213e+002, 1.384374e+003
9.644034e+002, 1.392896e+003
9.648856e+002, 1.392706e+003
9.653677e+002, 1.383502e+003
9.658498e+002, 1.369115e+003
9.663319e+002, 1.351437e+003
9.668140e+002, 1.333916e+003
9.672961e+002, 1.324391e+003
9.677783e+002, 1.326172e+003
9.682604e+002, 1.332454e+003
9.687425e+002, 1.342012e+003
9.692246e+002, 1.354224e+003
9.697067e+002, 1.369860e+003
9.701888e+002, 1.390001e+003
9.706710e+002, 1.405239e+003
9.711531e+002, 1.415918e+003
9.716352e+002, 1.417172e+003
9.721173e+002, 1.406123e+003
9.725994e+002, 1.382864e+003
9.730815e+002, 1.345056e+003
9.735637e+002, 1.294094e+003
9.740458e+002, 1.237332e+003
9.745279e+002, 1.170535e+003
9.750100e+002, 1.106475e+003
9.754921e+002, 1.047353e+003
9.759742e+002, 9.929824e+002
9.764564e+002, 9.427170e+002
9.769385e+002, 8.961368e+002
9.774206e+002, 8.529452e+002
9.779027e+002, 8.141794e+002
9.783848e+002, 7.766736e+002
9.788669e+002, 7.379075e+002
9.793491e+002, 6.981156e+002
9.798312e+002, 6.571559e+002
9.803133e+002, 6.139037e+002
9.807954e+002, 5.725186e+002
9.812775e+002, 5.324252e+002
9.817596e+002, 4.945688e+002
9.822418e+002, 4.588454e+002
9.827239e+002, 4.254233e+002
9.832060e+002, 3.952311e+002
9.836881e+002, 3.682462e+002
9.841702e+002, 3.442811e+002
9.846523e+002, 3.237175e+002
9.851345e+002, 3.056628e+002
9.856166e+002, 2.896889e+002
9.860987e+002, 2.757594e+002
9.865808e+002, 2.633031e+002
9.870629e+002, 2.523912e+002
9.875450e+002, 2.427588e+002
9.880272e+002, 2.344057e+002
9.885093e+002, 2.271724e+002
9.889914e+002, 2.210791e+002
9.894735e+002, 2.159469e+002
9.899556e+002, 2.115302e+002
9.904377e+002, 2.078595e+002
9.909199e+002, 2.045448e+002
9.914020e+002, 2.012068e+002
9.918841e+002, 1.983946e+002
9.923662e+002, 1.964312e+002
9.928483e+002, 1.953541e+002
9.933304e+002, 1.948466e+002
9.938126e+002, 1.949200e+002
9.942947e+002, 1.953625e+002
9.947768e+002, 1.960781e+002
9.952589e+002, 1.970614e+002
9.957410e+002, 1.983061e+002
9.962231e+002, 1.998145e+002
9.967053e+002, 2.016338e+002
9.971874e+002, 2.039306e+002
9.976695e+002, 2.063288e+002
9.981516e+002, 2.088420e+002
9.986337e+002, 2.113517e+002
9.991158e+002, 2.134314e+002
9.995980e+002, 2.152830e+002
1.000080e+003, 2.182424e+002
1.000562e+003, 2.226147e+002
1.001044e+003, 2.274526e+002
1.001526e+003, 2.325288e+002
1.002009e+003, 2.374710e+002
1.002491e+003, 2.417358e+002
1.002973e+003, 2.452215e+002
1.003455e+003, 2.494618e+002
1.003937e+003, 2.546731e+002
1.004419e+003, 2.599680e+002
1.004901e+003, 2.651062e+002
1.005383e+003, 2.699736e+002
1.005865e+003, 2.744024e+002
1.006348e+003, 2.784225e+002
1.006830e+003, 2.822499e+002
1.007312e+003, 2.858412e+002
1.007794e+003, 2.893511e+002
1.008276e+003, 2.931743e+002
1.008758e+003, 2.967604e+002
1.009240e+003, 2.995900e+002
1.009722e+003, 3.016369e+002
1.010205e+003, 3.029390e+002
1.010687e+003, 3.034838e+002
1.011169e+003, 3.035211e+002
1.011651e+003, 3.033631e+002
1.012133e+003, 3.027755e+002
1.012615e+003, 3.014658e+002
1.013097e+003, 2.994317e+002
1.013579e+003, 2.969577e+002
1.014061e+003, 2.940449e+002
1.014544e+003, 2.908386e+002
1.015026e+003, 2.874751e+002
1.015508e+003, 2.837839e+002
1.015990e+003, 2.791590e+002
1.016472e+003, 2.737377e+002
1.016954e+003, 2.680690e+002
1.017436e+003, 2.621828e+002
1.017918e+003, 2.562892e+002
1.018401e+003, 2.504651e+002
1.018883e+003, 2.447296e+002
1.019365e+003, 2.390148e+002
1.019847e+003, 2.332974e+002
1.020329e+003, 2.277261e+002
1.020811e+003, 2.223129e+002
1.021293e+003, 2.169879e+002
1.021775e+003, 2.115637e+002
1.022257e+003, 2.062827e+002
1.022740e+003, 2.015073e+002
1.023222e+003, 1.971492e+002
1.023704e+003, 1.928576e+002
1.024186e+003, 1.884593e+002
1.024668e+003, 1.841945e+002
1.025150e+003, 1.802090e+002
1.025632e+003, 1.762855e+002
1.026114e+003, 1.719643e+002
1.026596e+003, 1.673627e+002
1.027079e+003, 1.629027e+002
1.027561e+003, 1.586558e+002
1.028043e+003, 1.545598e+002
1.028525e+003, 1.503125e+002
1.029007e+003, 1.463645e+002
1.029489e+003, 1.431770e+002
1.029971e+003, 1.408298e+002
1.030453e+003, 1.389392e+002
1.030936e+003, 1.378028e+002
1.031418e+003, 1.360540e+002
1.031900e+003, 1.327410e+002
1.032382e+003, 1.288401e+002
1.032864e+003, 1.262574e+002
1.033346e+003, 1.246622e+002
1.033828e+003, 1.233409e+002
1.034310e+003, 1.221480e+002
1.034792e+003, 1.210321e+002
1.035275e+003, 1.198693e+002
1.035757e+003, 1.188796e+002
1.036239e+003, 1.183355e+002
1.036721e+003, 1.182416e+002
1.037203e+003, 1.179333e+002
1.037685e+003, 1.173970e+002
1.038167e+003, 1.167617e+002
1.038649e+003, 1.159795e+002
1.039132e+003, 1.152628e+002
1.039614e+003, 1.148720e+002
1.040096e+003, 1.147215e+002
1.040578e+003, 1.143271e+002
1.041060e+003, 1.135529e+002
1.041542e+003, 1.128393e+002
1.042024e+003, 1.122945e+002
1.042506e+003, 1.117591e+002
1.042989e+003, 1.109964e+002
1.043471e+003, 1.100483e+002
1.043953e+003, 1.089407e+002
1.044435e+003, 1.076036e+002
1.044917e+003, 1.064798e+002
1.045399e+003, 1.059221e+002
1.045881e+003, 1.054292e+002
1.046363e+003, 1.047760e+002
1.046845e+003, 1.039749e+002
1.047328e+003, 1.030241e+002
1.047810e+003, 1.019380e+002
1.048292e+003, 1.011374e+002
1.048774e+003, 1.009392e+002
1.049256e+003, 1.009169e+002
1.049738e+003, 1.006777e+002
1.050220e+003, 1.004035e+002
1.050702e+003, 1.004101e+002
1.051184e+003, 1.008894e+002
1.051667e+003, 1.012038e+002
1.052149e+003, 1.012866e+002
1.052631e+003, 1.013805e+002
1.053113e+003, 1.016085e+002
1.053595e+003, 1.020379e+002
1.054077e+003, 1.029309e+002
1.054559e+003, 1.042139e+002
1.055041e+003, 1.053635e+002
1.055523e+003, 1.055271e+002
1.056006e+003, 1.063845e+002
1.056488e+003, 1.087090e+002
1.056970e+003, 1.116979e+002
1.057452e+003, 1.136394e+002
1.057934e+003, 1.146562e+002
1.058416e+003, 1.158393e+002
1.058898e+003, 1.173887e+002
1.059380e+003, 1.192060e+002
1.059863e+003, 1.211640e+002
1.060345e+003, 1.233447e+002
1.060827e+003, 1.258775e+002
1.061309e+003, 1.287730e+002
1.061791e+003, 1.315638e+002
1.062273e+003, 1.341851e+002
1.062755e+003, 1.370379e+002
1.063237e+003, 1.404160e+002
1.063719e+003, 1.439140e+002
1.064202e+003, 1.467670e+002
1.064684e+003, 1.493334e+002
1.065166e+003, 1.523416e+002
1.065648e+003, 1.565690e+002
1.066130e+003, 1.601471e+002
1.066612e+003, 1.625728e+002
1.067094e+003, 1.648232e+002
1.067576e+003, 1.678559e+002
1.068059e+003, 1.714737e+002
1.068541e+003, 1.742686e+002
1.069023e+003, 1.763274e+002
1.069505e+003, 1.784326e+002
1.069987e+003, 1.816302e+002
1.070469e+003, 1.843599e+002
1.070951e+003, 1.855376e+002
1.071433e+003, 1.857147e+002
1.071916e+003, 1.857911e+002
1.072398e+003, 1.857480e+002
1.072880e+003, 1.857661e+002
1.073362e+003, 1.858726e+002
1.073844e+003, 1.860213e+002
1.074326e+003, 1.863897e+002
1.074808e+003, 1.866275e+002
1.075290e+003, 1.862128e+002
1.075772e+003, 1.851070e+002
1.076255e+003, 1.843780e+002
1.076737e+003, 1.841991e+002
1.077219e+003, 1.841727e+002
1.077701e+003, 1.842235e+002
1.078183e+003, 1.842812e+002
1.078665e+003, 1.844116e+002
1.079147e+003, 1.844090e+002
1.079629e+003, 1.837381e+002
1.080111e+003, 1.820469e+002
1.080594e+003, 1.802891e+002
1.081076e+003, 1.791204e+002
1.081558e+003, 1.776325e+002
1.082040e+003, 1.752702e+002
1.082522e+003, 1.720991e+002
1.083004e+003, 1.688802e+002
1.083486e+003, 1.655777e+002
1.083968e+003, 1.621098e+002
1.084450e+003, 1.583955e+002
1.084933e+003, 1.545318e+002
1.085415e+003, 1.504776e+002
1.085897e+003, 1.463797e+002
1.086379e+003, 1.423142e+002
1.086861e+003, 1.382339e+002
1.087343e+003, 1.345390e+002
1.087825e+003, 1.312995e+002
1.088307e+003, 1.281080e+002
1.088790e+003, 1.244490e+002
1.089272e+003, 1.207501e+002
1.089754e+003, 1.175397e+002
1.090236e+003, 1.147550e+002
1.090718e+003, 1.119059e+002
1.091200e+003, 1.085431e+002
1.091682e+003, 1.058046e+002
1.092164e+003, 1.040628e+002
1.092646e+003, 1.026915e+002
1.093129e+003, 1.006334e+002
1.093611e+003, 9.820935e+001
1.094093e+003, 9.616862e+001
1.094575e+003, 9.463856e+001
1.095057e+003, 9.328388e+001
1.095539e+003, 9.203853e+001
1.096021e+003, 9.087473e+001
1.096503e+003, 8.978458e+001
1.096986e+003, 8.876656e+001
1.097468e+003, 8.777892e+001
1.097950e+003, 8.681998e+001
1.098432e+003, 8.591027e+001
1.098914e+003, 8.504782e+001
1.099396e+003, 8.423973e+001
1.099878e+003, 8.338070e+001
1.100360e+003, 8.265734e+001
1.100843e+003, 8.231628e+001
1.101325e+003, 8.241245e+001
1.101807e+003, 8.217815e+001
1.102289e+003, 8.156555e+001
1.102771e+003, 8.112887e+001
1.103253e+003, 8.138580e+001
1.103735e+003, 8.178574e+001
1.104217e+003, 8.160407e+001
1.104699e+003, 8.110442e+001
1.105182e+003, 8.079005e+001
1.105664e+003, 8.097024e+001
1.106146e+003, 8.095853e+001
1.106628e+003, 8.074491e+001
1.107110e+003, 8.032278e+001
1.107592e+003, 7.940750e+001
1.108074e+003, 7.838755e+001
1.108556e+003, 7.821675e+001
1.109038e+003, 7.875018e+001
1.109521e+003, 7.904732e+001
1.110003e+003, 7.854191e+001
1.110485e+003, 7.803735e+001
1.110967e+003, 7.778830e+001
1.111449e+003, 7.752158e+001
1.111931e+003, 7.672160e+001
1.112413e+003, 7.552222e+001
1.112895e+003, 7.455962e+001
1.113377e+003, 7.390461e+001
1.113860e+003, 7.325425e+001
1.114342e+003, 7.239885e+001
1.114824e+003, 7.151342e+001
1.115306e+003, 7.060455e+001
1.115788e+003, 6.977011e+001
1.116270e+003, 6.940826e+001
1.116752e+003, 6.950942e+001
1.117234e+003, 6.971394e+001
1.117717e+003, 6.997777e+001
1.118199e+003, 7.012727e+001
1.118681e+003, 6.981355e+001
1.119163e+003, 6.944677e+001
1.119645e+003, 6.947526e+001
1.120127e+003, 6.993629e+001
1.120609e+003, 7.021200e+001
1.121091e+003, 7.027539e+001
1.121573e+003, 7.032137e+001
1.122056e+003, 7.045064e+001
1.122538e+003, 7.057247e+001
1.123020e+003, 7.037089e+001
1.123502e+003, 7.015765e+001
1.123984e+003, 7.047588e+001
1.124466e+003, 7.193160e+001
1.124948e+003, 7.265865e+001
1.125430e+003, 7.231255e+001
1.125913e+003, 7.207943e+001
1.126395e+003, 7.297176e+001
1.126877e+003, 7.443161e+001
1.127359e+003, 7.509727e+001
1.127841e+003, 7.526074e+001
1.128323e+003, 7.572440e+001
1.128805e+003, 7.700769e+001
1.129287e+003, 7.830714e+001
1.129770e+003, 7.948202e+001
1.130252e+003, 8.067744e+001
1.130734e+003, 8.213268e+001
1.131216e+003, 8.373799e+001
1.131698e+003, 8.499556e+001
1.132180e+003, 8.595332e+001
1.132662e+003, 8.711494e+001
1.133144e+003, 8.872803e+001
1.133626e+003, 9.064956e+001
1.134109e+003, 9.320116e+001
1.134591e+003, 9.576205e+001
1.135073e+003, 9.727277e+001
1.135555e+003, 9.780711e+001
1.136037e+003, 9.851302e+001
1.136519e+003, 9.953495e+001
1.137001e+003, 1.001296e+002
1.137483e+003, 9.951741e+001
1.137965e+003, 9.854715e+001
1.138448e+003, 9.781219e+001
1.138930e+003, 9.714903e+001
1.139412e+003, 9.597272e+001
1.139894e+003, 9.425558e+001
1.140376e+003, 9.240075e+001
1.140858e+003, 9.046879e+001
1.141340e+003, 8.855215e+001
1.141822e+003, 8.656638e+001
1.142304e+003, 8.474206e+001
1.142787e+003, 8.338950e+001
1.143269e+003, 8.252042e+001
1.143751e+003, 8.125977e+001
1.144233e+003, 7.953166e+001
1.144715e+003, 7.785214e+001
1.145197e+003, 7.638644e+001
1.145679e+003, 7.514307e+001
1.146161e+003, 7.422335e+001
1.146644e+003, 7.352510e+001
1.147126e+003, 7.292924e+001
1.147608e+003, 7.246229e+001
1.148090e+003, 7.188286e+001
1.148572e+003, 7.107678e+001
1.149054e+003, 7.052060e+001
1.149536e+003, 7.057006e+001
1.150018e+003, 7.086860e+001
1.150500e+003, 7.084840e+001
1.150983e+003, 7.058907e+001
1.151465e+003, 7.023386e+001
1.151947e+003, 6.968982e+001
1.152429e+003, 6.934957e+001
1.152911e+003, 6.928627e+001
1.153393e+003, 6.931742e+001
1.153875e+003, 6.935539e+001
1.154357e+003, 6.937924e+001
1.154840e+003, 6.932730e+001
1.155322e+003, 6.921040e+001
1.155804e+003, 6.906589e+001
1.156286e+003, 6.879407e+001
1.156768e+003, 6.867146e+001
1.157250e+003, 6.879700e+001
1.157732e+003, 6.897495e+001
1.158214e+003, 6.907204e+001
1.158697e+003, 6.906752e+001
1.159179e+003, 6.879446e+001
1.159661e+003, 6.830305e+001
1.160143e+003, 6.790416e+001
1.160625e+003, 6.784194e+001
1.161107e+003, 6.778120e+001
1.161589e+003, 6.757748e+001
1.162071e+003, 6.736448e+001
1.162553e+003, 6.737991e+001
1.163036e+003, 6.756650e+001
1.163518e+003, 6.744331e+001
1.164000e+003, 6.699989e+001
1.164482e+003, 6.666829e+001
1.164964e+003, 6.674886e+001
1.165446e+003, 6.697066e+001
1.165928e+003, 6.731043e+001
1.166410e+003, 6.764520e+001
1.166892e+003, 6.767816e+001
1.167375e+003, 6.744094e+001
1.167857e+003, 6.739318e+001
1.168339e+003, 6.759861e+001
1.168821e+003, 6.790187e+001
1.169303e+003, 6.833685e+001
1.169785e+003, 6.869265e+001
1.170267e+003, 6.876235e+001
1.170749e+003, 6.865771e+001
1.171231e+003, 6.871803e+001
1.171714e+003, 6.894073e+001
1.172196e+003, 6.906103e+001
1.172678e+003, 6.904414e+001
1.173160e+003, 6.877886e+001
1.173642e+003, 6.813318e+001
1.174124e+003, 6.723113e+001
1.174606e+003, 6.611650e+001
1.175088e+003, 6.482069e+001
1.175571e+003, 6.349369e+001
1.176053e+003, 6.212573e+001
1.176535e+003, 6.073001e+001
1.177017e+003, 5.930279e+001
1.177499e+003, 5.782167e+001
1.177981e+003, 5.602270e+001
1.178463e+003, 5.432782e+001
1.178945e+003, 5.328490e+001
1.179427e+003, 5.290686e+001
1.179910e+003, 5.200028e+001
1.180392e+003, 5.047800e+001
1.180874e+003, 4.925801e+001
1.181356e+003, 4.879989e+001
1.181838e+003, 4.850239e+001
1.182320e+003, 4.764971e+001
1.182802e+003, 4.663981e+001
1.183284e+003, 4.596670e+001
1.183767e+003, 4.572694e+001
1.184249e+003, 4.538385e+001
1.184731e+003, 4.491323e+001
1.185213e+003, 4.448830e+001
1.185695e+003, 4.421869e+001
1.186177e+003, 4.399771e+001
1.186659e+003, 4.374427e+001
1.187141e+003, 4.344198e+001
1.187624e+003, 4.306015e+001
1.188106e+003, 4.257117e+001
1.188588e+003, 4.205901e+001
1.189070e+003, 4.148674e+001
1.189552e+003, 4.113598e+001
1.190034e+003, 4.132572e+001
1.190516e+003, 4.165729e+001
1.190998e+003, 4.161298e+001
1.191480e+003, 4.136138e+001
1.191963e+003, 4.119613e+001
1.192445e+003, 4.124439e+001
1.192927e+003, 4.115033e+001
1.193409e+003, 4.087625e+001
1.193891e+003, 4.062842e+001
1.194373e+003, 4.059722e+001
1.194855e+003, 4.063375e+001
1.195337e+003, 4.062579e+001
1.195819e+003, 4.051690e+001
1.196302e+003, 4.014815e+001
1.196784e+003, 3.912879e+001
1.197266e+003, 3.877127e+001
1.197748e+003, 3.922417e+001
1.198230e+003, 3.980799e+001
1.198712e+003, 4.006372e+001
1.199194e+003, 4.006609e+001
1.199676e+003, 3.982642e+001
1.200158e+003, 3.942018e+001
1.200641e+003, 3.904683e+001
1.201123e+003, 3.881111e+001
1.201605e+003, 3.839692e+001
1.202087e+003, 3.770982e+001
1.202569e+003, 3.716163e+001
1.203051e+003, 3.717483e+001
1.203533e+003, 3.751961e+001
1.204015e+003, 3.813418e+001
1.204498e+003, 3.882770e+001
1.204980e+003, 3.894960e+001
1.205462e+003, 3.813743e+001
1.205944e+003, 3.742281e+001
1.206426e+003, 3.686135e+001
1.206908e+003, 3.650646e+001
1.207390e+003, 3.651684e+001
1.207872e+003, 3.668885e+001
1.208354e+003, 3.677611e+001
1.208837e+003, 3.678366e+001
1.209319e+003, 3.680424e+001
1.209801e+003, 3.692334e+001
1.210283e+003, 3.682733e+001
1.210765e+003, 3.641114e+001
1.211247e+003, 3.603271e+001
1.211729e+003, 3.606174e+001
1.212211e+003, 3.634514e+001
1.212694e+003, 3.688068e+001
1.213176e+003, 3.754893e+001
1.213658e+003, 3.763548e+001
1.214140e+003, 3.681535e+001
1.214622e+003, 3.629896e+001
1.215104e+003, 3.629066e+001
1.215586e+003, 3.649218e+001
1.216068e+003, 3.668843e+001
1.216551e+003, 3.683833e+001
1.217033e+003, 3.690583e+001
1.217515e+003, 3.688209e+001
1.217997e+003, 3.672348e+001
1.218479e+003, 3.637917e+001
1.218961e+003, 3.608013e+001
1.219443e+003, 3.585180e+001
1.219925e+003, 3.572607e+001
1.220407e+003, 3.590090e+001
1.220890e+003, 3.608340e+001
1.221372e+003, 3.583313e+001
1.221854e+003, 3.519699e+001
1.222336e+003, 3.489175e+001
1.222818e+003, 3.501933e+001
1.223300e+003, 3.517945e+001
1.223782e+003, 3.531673e+001
1.224264e+003, 3.536756e+001
1.224746e+003, 3.513131e+001
1.225229e+003, 3.486660e+001
1.225711e+003, 3.492902e+001
1.226193e+003, 3.528709e+001
1.226675e+003, 3.531100e+001
1.227157e+003, 3.492363e+001
1.227639e+003, 3.461007e+001
1.228121e+003, 3.448817e+001
1.228603e+003, 3.439395e+001
1.229085e+003, 3.415101e+001
1.229568e+003, 3.385600e+001
1.230050e+003, 3.351870e+001
1.230532e+003, 3.319111e+001
1.231014e+003, 3.333022e+001
1.231496e+003, 3.404917e+001
1.231978e+003, 3.413284e+001
1.232460e+003, 3.316483e+001
1.232942e+003, 3.220003e+001
1.233425e+003, 3.247234e+001
1.233907e+003, 3.302235e+001
1.234389e+003, 3.295863e+001
1.234871e+003, 3.235735e+001
1.235353e+003, 3.189164e+001
1.235835e+003, 3.156693e+001
1.236317e+003, 3.132832e+001
1.236799e+003, 3.115900e+001
1.237281e+003, 3.110783e+001
1.237764e+003, 3.141432e+001
1.238246e+003, 3.168489e+001
1.238728e+003, 3.152448e+001
1.239210e+003, 3.104956e+001
1.239692e+003, 3.069991e+001
1.240174e+003, 3.048059e+001
1.240656e+003, 3.045483e+001
1.241138e+003, 3.069785e+001
1.241621e+003, 3.077513e+001
1.242103e+003, 3.006885e+001
1.242585e+003, 2.937529e+001
1.243067e+003, 2.932041e+001
1.243549e+003, 2.968568e+001
1.244031e+003, 2.956411e+001
1.244513e+003, 2.905004e+001
1.244995e+003, 2.898401e+001
1.245478e+003, 2.964944e+001
1.245960e+003, 3.021140e+001
1.246442e+003, 3.013099e+001
1.246924e+003, 2.981390e+001
1.247406e+003, 2.944241e+001
1.247888e+003, 2.906349e+001
1.248370e+003, 2.880631e+001
1.248852e+003, 2.868064e+001
1.249334e+003, 2.878102e+001
1.249817e+003, 2.917755e+001
1.250299e+003, 2.945886e+001
1.250781e+003, 2.944213e+001
1.251263e+003, 2.920144e+001
1.251745e+003, 2.858470e+001
1.252227e+003, 2.795124e+001
1.252709e+003, 2.850635e+001
1.253191e+003, 2.975748e+001
1.253673e+003, 3.018061e+001
1.254156e+003, 2.934835e+001
1.254638e+003, 2.866779e+001
1.255120e+003, 2.871744e+001
1.255602e+003, 2.878547e+001
1.256084e+003, 2.864385e+001
1.256566e+003, 2.838631e+001
1.257048e+003, 2.820821e+001
1.257530e+003, 2.805352e+001
1.258012e+003, 2.775682e+001
1.258495e+003, 2.725330e+001
1.258977e+003, 2.702974e+001
1.259459e+003, 2.732402e+001
1.259941e+003, 2.747940e+001
1.260423e+003, 2.724394e+001
1.260905e+003, 2.686025e+001
1.261387e+003, 2.667149e+001
1.261869e+003, 2.661021e+001
1.262352e+003, 2.662131e+001
1.262834e+003, 2.670551e+001
1.263316e+003, 2.658150e+001
1.263798e+003, 2.618744e+001
1.264280e+003, 2.578707e+001
1.264762e+003, 2.547403e+001
1.265244e+003, 2.514132e+001
1.265726e+003, 2.455951e+001
1.266208e+003, 2.394747e+001
1.266691e+003, 2.352170e+001
1.267173e+003, 2.331782e+001
1.267655e+003, 2.340952e+001
1.268137e+003, 2.385859e+001
1.268619e+003, 2.407236e+001
1.269101e+003, 2.385480e+001
1.269583e+003, 2.353728e+001
1.270065e+003, 2.327406e+001
1.270548e+003, 2.317893e+001
1.271030e+003, 2.354518e+001
1.271512e+003, 2.418937e+001
1.271994e+003, 2.424630e+001
1.272476e+003, 2.373010e+001
1.272958e+003, 2.331462e+001
1.273440e+003, 2.314651e+001
1.273922e+003, 2.311896e+001
1.274405e+003, 2.306305e+001
1.274887e+003, 2.325740e+001
1.275369e+003, 2.415931e+001
1.275851e+003, 2.526621e+001
1.276333e+003, 2.490003e+001
1.276815e+003, 2.339542e+001
1.277297e+003, 2.250875e+001
1.277779e+003, 2.260646e+001
1.278261e+003, 2.275441e+001
1.278744e+003, 2.233289e+001
1.279226e+003, 2.207205e+001
1.279708e+003, 2.232952e+001
1.280190e+003, 2.277176e+001
1.280672e+003, 2.270243e+001
1.281154e+003, 2.231181e+001
1.281636e+003, 2.207506e+001
1.282118e+003, 2.205637e+001
1.282600e+003, 2.213313e+001
1.283083e+003, 2.231941e+001
1.283565e+003, 2.252474e+001
1.284047e+003, 2.276064e+001
1.284529e+003, 2.293311e+001
1.285011e+003, 2.287312e+001
1.285493e+003, 2.268005e+001
1.285975e+003, 2.251643e+001
1.286457e+003, 2.238907e+001
1.286939e+003, 2.211758e+001
1.287422e+003, 2.155072e+001
1.287904e+003, 2.138861e+001
1.288386e+003, 2.184631e+001
1.288868e+003, 2.235665e+001
1.289350e+003, 2.216052e+001
1.289832e+003, 2.182254e+001
1.290314e+003, 2.201732e+001
1.290796e+003, 2.261650e+001
1.291279e+003, 2.282560e+001
1.291761e+003, 2.261382e+001
1.292243e+003, 2.227401e+001
1.292725e+003, 2.183120e+001
1.293207e+003, 2.150028e+001
1.293689e+003, 2.153337e+001
1.294171e+003, 2.165669e+001
1.294653e+003, 2.171779e+001
1.295135e+003, 2.172753e+001
1.295618e+003, 2.169568e+001
1.296100e+003, 2.162679e+001
1.296582e+003, 2.156263e+001
1.297064e+003, 2.150958e+001
1.297546e+003, 2.146870e+001
1.298028e+003, 2.146646e+001
1.298510e+003, 2.143216e+001
1.298992e+003, 2.134372e+001
1.299475e+003, 2.122496e+001
1.299957e+003, 2.104258e+001
1.300439e+003, 2.086906e+001
1.300921e+003, 2.099941e+001
1.301403e+003, 2.137891e+001
1.301885e+003, 2.160938e+001
##END=



