##NAMES=Realgar
##RRUFFID=R060106
##IDEAL CHEMISTRY=AsS
##LOCALITY=Humboldt County, Nevada, USA
##OWNER=RRUFF
##SOURCE=University of Arizona Mineral Museum
##DESCRIPTION=Red incrustation with some prismatic crystals
##STATUS=The identification of this mineral has been confirmed by X-ray diffraction and chemical analysis
##URL=rruff.info/R060106
##MEASURED CHEMISTRY=As_1.06_S_0.94_
89.78156, 0.0000000E+00
90.26367, 1.574652
90.74579, 2.039492
91.22791, 1.838637
91.71002, 1.046139
92.19214, 0.3118270
92.67426, 0.2702939
93.15638, 0.7139639
93.63850, 1.097509
94.12061, 1.232835
94.60273, 1.193053
95.08485, 1.186234
95.56696, 1.234643
96.04908, 0.1612720
96.53120, 1.405252
97.01331, 2.101535
97.49543, 2.279551
97.97755, 0.3870350
98.45966, 1.168182
98.94178, 0.8778457
99.42390, 0.5435733
99.90602, 1.701026
100.3881, 0.1096654
100.8703, 1.243461
101.3524, 1.289425
101.8345, 1.833263
102.3166, 1.299001
102.7987, 1.097729
103.2808, 1.974904
103.7630, 2.254933
104.2451, 1.748435
104.7272, 1.923210
105.2093, 2.7454074E-02
105.6914, 0.8053603
106.1735, 0.5117838
106.6557, 0.1742687
107.1378, 1.328481
107.6199, -0.2661206
108.1020, 0.8644360
108.5841, 0.9071587
109.0662, 1.447756
109.5484, 0.9102508
110.0305, 0.7057387
110.5126, 1.579672
110.9947, 1.856462
111.4768, 1.194852
111.9590, 1.767095
112.4411, 0.1348327
112.9232, 0.4370562
113.4053, 0.1951728
113.8874, 0.6607037
114.3695, 1.146717
114.8517, 1.251333
115.3338, 0.6792899
115.8159, 0.3615819
116.2980, 0.8484735
116.7801, 1.794621
117.2622, 2.442624
117.7444, 2.212935
118.2265, 1.772172
118.7086, 1.582105
119.1907, 1.913962
119.6728, 2.245690
120.1549, 2.301397
120.6371, 2.115319
121.1192, 1.824936
121.6013, 1.321262
122.0834, 0.8195973
122.5655, 0.5748638
123.0476, 0.8472508
123.5298, 1.246952
124.0119, 1.542795
124.4940, 1.720829
124.9761, 0.6490502
125.4582, 1.940948
125.9404, 2.723944
126.4225, 3.025334
126.9046, 1.402757
127.3867, 2.264584
127.8688, 2.130772
128.3509, 1.956139
128.8331, 3.167660
129.3152, 1.824921
129.7973, 3.014436
130.2794, 3.193121
130.7615, 3.834439
131.2436, 3.438896
131.7258, 3.693497
132.2079, 3.906765
132.6900, 4.059856
133.1721, 4.049366
133.6542, 3.872158
134.1364, 3.810651
134.6185, 4.147109
135.1006, 4.857253
135.5827, 5.196791
136.0648, 4.973446
136.5469, 4.509782
137.0291, 4.769159
137.5112, 5.982111
137.9933, 6.950890
138.4754, 6.650297
138.9575, 4.770690
139.4396, 3.599491
139.9218, 3.557420
140.4039, 4.415463
140.8860, 5.095181
141.3681, 5.565907
141.8502, 5.903059
142.3323, 6.133237
142.8145, 6.206162
143.2966, 6.317066
143.7787, 6.540576
144.2608, 6.873479
144.7429, 6.974883
145.2250, 6.580230
145.7072, 6.193205
146.1893, 6.334477
146.6714, 7.513278
147.1535, 8.455510
147.6356, 8.834188
148.1178, 8.540150
148.5999, 8.423079
149.0820, 8.626168
149.5641, 8.946945
150.0462, 9.145175
150.5283, 9.041421
151.0105, 8.991512
151.4926, 9.004278
151.9747, 9.196947
152.4568, 9.375767
152.9389, 9.715376
153.4210, 9.999230
153.9032, 9.922847
154.3853, 8.866153
154.8674, 7.970654
155.3495, 7.680522
155.8316, 8.396436
156.3137, 8.819611
156.7959, 8.505979
157.2780, 7.789183
157.7601, 7.297788
158.2422, 7.322775
158.7243, 7.482061
159.2065, 7.594866
159.6886, 7.621666
160.1707, 7.621955
160.6528, 7.551665
161.1349, 7.459089
161.6170, 7.473705
162.0992, 7.889667
162.5813, 8.278940
163.0634, 8.321181
163.5455, 7.554134
164.0276, 6.964833
164.5097, 7.139987
164.9919, 7.909383
165.4740, 8.616228
165.9561, 9.004702
166.4382, 9.158140
166.9203, 9.129055
167.4024, 8.498926
167.8846, 8.133073
168.3667, 9.011876
168.8488, 10.89253
169.3309, 12.19365
169.8130, 11.21757
170.2952, 9.321135
170.7773, 8.208581
171.2594, 9.130250
171.7415, 10.52053
172.2236, 11.01936
172.7057, 10.67892
173.1879, 10.24871
173.6700, 10.14256
174.1521, 10.33599
174.6342, 10.78281
175.1163, 11.83849
175.5984, 12.96119
176.0806, 13.40175
176.5627, 13.15963
177.0448, 12.81650
177.5269, 13.07946
178.0090, 13.65199
178.4911, 13.83324
178.9733, 12.80569
179.4554, 11.36425
179.9375, 10.81525
180.4196, 11.22462
180.9017, 12.04538
181.3838, 12.89864
181.8660, 13.73595
182.3481, 14.41411
182.8302, 14.92211
183.3123, 15.21633
183.7944, 15.10486
184.2766, 14.52606
184.7587, 13.84910
185.2408, 13.50048
185.7229, 13.45021
186.2050, 13.50033
186.6871, 13.55411
187.1693, 13.63137
187.6514, 13.76162
188.1335, 13.91388
188.6156, 14.22525
189.0977, 15.04744
189.5798, 16.34619
190.0620, 17.52478
190.5441, 18.31008
191.0262, 18.72063
191.5083, 18.91167
191.9904, 18.91840
192.4725, 18.66152
192.9547, 17.83829
193.4368, 16.41994
193.9189, 15.13579
194.4010, 14.63608
194.8831, 14.83595
195.3652, 14.22399
195.8474, 12.42144
196.3295, 10.21576
196.8116, 9.296329
197.2937, 9.779975
197.7758, 10.44287
198.2579, 10.55204
198.7401, 10.09367
199.2222, 9.711824
199.7043, 9.395358
200.1864, 9.244424
200.6685, 9.686449
201.1507, 10.89789
201.6328, 11.85990
202.1149, 11.73910
202.5970, 10.37918
203.0791, 9.581896
203.5612, 9.619409
204.0434, 10.21654
204.5255, 10.68979
205.0076, 11.05699
205.4897, 11.24231
205.9718, 11.11414
206.4539, 10.58630
206.9361, 10.27382
207.4182, 10.27730
207.9003, 10.50960
208.3824, 10.67011
208.8645, 10.69847
209.3466, 10.81396
209.8288, 11.21171
210.3109, 11.99705
210.7930, 12.59541
211.2751, 12.91368
211.7572, 13.01953
212.2393, 13.15847
212.7215, 13.31888
213.2036, 13.53357
213.6857, 13.81717
214.1678, 14.16350
214.6499, 14.61766
215.1320, 15.24401
215.6142, 15.98111
216.0963, 16.51569
216.5784, 16.72893
217.0605, 16.96064
217.5426, 17.46765
218.0247, 18.38477
218.5069, 19.18175
218.9890, 19.89047
219.4711, 20.44538
219.9532, 20.50668
220.4353, 19.88104
220.9175, 19.08281
221.3996, 18.40646
221.8817, 17.86666
222.3638, 17.43130
222.8459, 17.13464
223.3280, 16.94385
223.8102, 16.70478
224.2923, 16.35814
224.7744, 16.04698
225.2565, 15.85250
225.7386, 15.75844
226.2207, 15.83677
226.7029, 16.20068
227.1850, 16.75968
227.6671, 17.01468
228.1492, 16.84894
228.6313, 16.54593
229.1134, 16.26414
229.5956, 15.98452
230.0777, 15.76277
230.5598, 15.60010
231.0419, 15.49745
231.5240, 15.44110
232.0062, 15.36321
232.4883, 15.42317
232.9704, 15.77990
233.4525, 16.74238
233.9346, 17.32537
234.4167, 17.44234
234.8989, 17.12180
235.3810, 16.44727
235.8631, 15.14122
236.3452, 13.83367
236.8273, 12.83115
237.3094, 12.04657
237.7916, 11.79429
238.2737, 12.38614
238.7558, 13.54074
239.2379, 14.04863
239.7200, 13.55501
240.2021, 12.89419
240.6843, 12.53712
241.1664, 12.74341
241.6485, 12.66214
242.1306, 12.07731
242.6127, 11.17733
243.0948, 10.76878
243.5770, 11.33629
244.0591, 11.72340
244.5412, 11.20797
245.0233, 8.983411
245.5054, 7.694763
245.9876, 7.810010
246.4697, 8.866028
246.9518, 9.389114
247.4339, 9.125454
247.9160, 8.708276
248.3981, 8.424895
248.8803, 8.284062
249.3624, 8.261837
249.8445, 8.429418
250.3266, 8.696456
250.8087, 8.805304
251.2908, 8.674743
251.7730, 8.515072
252.2551, 8.404715
252.7372, 8.306591
253.2193, 8.377386
253.7014, 8.759122
254.1835, 9.246933
254.6657, 9.303725
255.1478, 8.605569
255.6299, 8.046939
256.1120, 8.067405
256.5941, 8.952056
257.0763, 9.493076
257.5584, 9.587625
258.0405, 9.409397
258.5226, 9.341516
259.0047, 9.548917
259.4868, 9.521291
259.9690, 8.951293
260.4511, 7.617180
260.9332, 6.769674
261.4153, 6.503073
261.8974, 6.629661
262.3795, 6.862982
262.8617, 7.243882
263.3438, 7.641643
263.8259, 8.060674
264.3080, 8.536098
264.7901, 8.741738
265.2722, 8.604755
265.7544, 8.285460
266.2365, 7.950030
266.7186, 7.500737
267.2007, 7.347266
267.6828, 7.746806
268.1649, 8.759120
268.6471, 9.299880
269.1292, 9.237124
269.6113, 8.927811
270.0934, 8.803786
270.5755, 8.897084
271.0576, 9.058853
271.5398, 9.312395
272.0219, 9.649845
272.5040, 9.656332
272.9861, 9.218867
273.4682, 8.696367
273.9503, 8.508759
274.4325, 8.733992
274.9146, 8.856317
275.3967, 8.707355
275.8788, 8.334278
276.3610, 8.189103
276.8431, 8.371453
277.3252, 8.483956
277.8073, 8.001547
278.2894, 6.838690
278.7715, 6.091061
279.2537, 6.076909
279.7358, 6.617376
280.2179, 6.909219
280.7000, 6.879436
281.1821, 6.936021
281.6642, 7.650704
282.1464, 9.031489
282.6285, 9.687033
283.1106, 9.206960
283.5927, 8.015282
284.0748, 7.232038
284.5569, 6.881788
285.0391, 6.700152
285.5212, 6.442559
286.0033, 6.137835
286.4854, 6.195785
286.9675, 6.793698
287.4496, 7.583653
287.9318, 7.697019
288.4139, 7.121998
288.8960, 6.793464
289.3781, 7.699034
289.8602, 9.477870
290.3423, 10.18344
290.8245, 9.468860
291.3066, 8.104357
291.7887, 6.918852
292.2708, 5.971024
292.7529, 5.911432
293.2350, 7.118111
293.7172, 8.307081
294.1993, 8.987118
294.6814, 9.185573
295.1635, 7.460063
295.6456, 8.218955
296.1277, 7.982211
296.6099, 7.704647
297.0920, 8.813210
297.5741, 7.367536
298.0562, 8.454118
298.5383, 8.529867
299.0204, 8.615200
299.5026, 8.852156
299.9847, 9.054166
300.4668, 9.213436
300.9489, 9.295660
301.4311, 9.346421
301.9132, 9.478346
302.3953, 9.685092
302.8774, 9.775227
303.3595, 9.487909
303.8416, 8.994050
304.3238, 8.574595
304.8059, 8.251135
305.2880, 8.116751
305.7701, 8.363721
306.2522, 8.943673
306.7343, 9.546986
307.2165, 10.11171
307.6986, 10.53849
308.1807, 10.65022
308.6628, 10.16350
309.1449, 9.747712
309.6270, 10.07347
310.1092, 10.93553
310.5913, 11.66431
311.0734, 11.88014
311.5555, 11.80997
312.0376, 11.57663
312.5197, 11.07295
313.0019, 10.76107
313.4840, 11.15449
313.9661, 11.91940
314.4482, 12.37734
314.9303, 11.68911
315.4124, 10.99683
315.8946, 11.18013
316.3767, 12.57412
316.8588, 13.65252
317.3409, 13.52588
317.8230, 12.79169
318.3051, 12.23942
318.7873, 12.22767
319.2694, 12.33729
319.7515, 12.43037
320.2336, 12.50008
320.7157, 12.50835
321.1978, 12.24131
321.6800, 12.00031
322.1621, 12.05904
322.6442, 12.93320
323.1263, 13.63656
323.6084, 13.73754
324.0905, 13.29531
324.5727, 13.27469
325.0548, 14.43165
325.5369, 15.65538
326.0190, 16.27204
326.5012, 15.59309
326.9833, 15.04836
327.4654, 14.85729
327.9475, 14.91283
328.4296, 14.78392
328.9117, 14.25410
329.3939, 13.73011
329.8760, 13.33887
330.3581, 12.86625
330.8402, 12.94855
331.3223, 13.97484
331.8044, 15.44842
332.2866, 16.34766
332.7687, 16.35410
333.2508, 16.23592
333.7329, 16.21114
334.2150, 16.28561
334.6971, 16.42580
335.1793, 16.62835
335.6614, 16.90147
336.1435, 17.24072
336.6256, 17.61984
337.1077, 18.16555
337.5898, 19.03200
338.0720, 20.18921
338.5541, 20.70592
339.0362, 20.39041
339.5183, 19.87599
340.0004, 19.76806
340.4825, 20.13215
340.9647, 20.45313
341.4468, 20.69294
341.9289, 20.80544
342.4110, 20.51880
342.8931, 19.75812
343.3752, 19.10328
343.8574, 19.03598
344.3395, 19.51676
344.8216, 19.93920
345.3037, 20.23179
345.7858, 20.46434
346.2679, 20.72085
346.7501, 21.00746
347.2322, 21.38858
347.7143, 22.02289
348.1964, 22.78982
348.6785, 23.20626
349.1607, 23.19264
349.6428, 23.23419
350.1249, 23.91876
350.6070, 25.11671
351.0891, 26.45093
351.5713, 28.06510
352.0534, 29.56541
352.5355, 30.53816
353.0176, 30.95599
353.4997, 30.53861
353.9818, 28.41208
354.4640, 25.45620
354.9461, 22.99209
355.4282, 21.51904
355.9103, 20.54797
356.3924, 19.75028
356.8745, 19.11391
357.3567, 18.60757
357.8388, 18.34558
358.3209, 18.12703
358.8030, 17.74906
359.2851, 17.10993
359.7672, 16.49653
360.2494, 16.04609
360.7315, 15.72801
361.2136, 15.49159
361.6957, 15.39787
362.1778, 15.31178
362.6599, 15.14439
363.1421, 14.87138
363.6242, 14.65724
364.1063, 14.55563
364.5884, 14.53479
365.0705, 14.56302
365.5526, 14.69239
366.0348, 14.80831
366.5169, 14.93473
366.9990, 15.06039
367.4811, 15.01471
367.9632, 14.60980
368.4453, 14.14579
368.9275, 13.79674
369.4096, 13.69704
369.8917, 13.52440
370.3738, 13.10583
370.8559, 12.61595
371.3380, 12.58724
371.8202, 13.48071
372.3023, 14.20543
372.7844, 14.22647
373.2665, 13.22588
373.7487, 12.89327
374.2308, 13.62775
374.7129, 14.62843
375.1950, 14.71344
375.6771, 13.53325
376.1592, 12.55752
376.6414, 12.23874
377.1235, 12.49792
377.6056, 12.52772
378.0877, 12.30866
378.5698, 11.92696
379.0519, 11.41084
379.5341, 10.76380
380.0162, 10.08270
380.4983, 9.279186
380.9804, 8.581598
381.4625, 8.726344
381.9446, 9.695024
382.4268, 10.56312
382.9089, 10.63786
383.3910, 10.15206
383.8731, 9.890015
384.3552, 9.946001
384.8373, 10.06660
385.3195, 9.905217
385.8016, 9.556920
386.2837, 9.299791
386.7658, 9.411791
387.2479, 9.609601
387.7300, 9.503248
388.2122, 9.101827
388.6943, 8.643888
389.1764, 8.227241
389.6585, 7.885386
390.1406, 7.683478
390.6227, 7.728188
391.1049, 7.788520
391.5870, 7.679552
392.0691, 7.457067
392.5512, 7.289124
393.0333, 7.265596
393.5154, 7.312333
393.9976, 7.419745
394.4797, 7.644892
394.9618, 7.724511
395.4439, 7.299393
395.9260, 6.757296
396.4081, 6.614202
396.8903, 7.700899
397.3724, 8.480744
397.8545, 8.346210
398.3366, 7.241518
398.8188, 6.455737
399.3009, 6.226531
399.7830, 6.243801
400.2651, 6.317435
400.7472, 6.455675
401.2293, 6.646888
401.7115, 6.978890
402.1936, 7.356679
402.6757, 7.461368
403.1578, 7.114019
403.6399, 6.800694
404.1220, 6.742036
404.6042, 6.985390
405.0863, 7.234759
405.5684, 7.553817
406.0505, 7.773256
406.5326, 7.580956
407.0147, 6.902994
407.4969, 6.357077
407.9790, 6.053893
408.4611, 6.017125
408.9432, 6.514311
409.4253, 7.605634
409.9074, 8.573071
410.3896, 8.800378
410.8717, 8.410903
411.3538, 7.903347
411.8359, 7.295641
412.3180, 6.747560
412.8001, 6.533550
413.2823, 6.597013
413.7644, 6.694352
414.2465, 6.631470
414.7286, 6.558490
415.2107, 6.777431
415.6928, 7.312017
416.1750, 7.693715
416.6571, 7.363129
417.1392, 6.719390
417.6213, 6.296388
418.1034, 6.447698
418.5855, 6.683564
419.0677, 6.700834
419.5498, 6.560135
420.0319, 6.487710
420.5140, 6.645421
420.9961, 6.849642
421.4782, 7.025711
421.9604, 7.243754
422.4425, 7.214030
422.9246, 6.586555
423.4067, 5.756272
423.8889, 5.257084
424.3710, 5.272022
424.8531, 5.509732
425.3352, 6.083570
425.8173, 6.998674
426.2994, 7.405519
426.7816, 6.955100
427.2637, 6.345775
427.7458, 6.050469
428.2279, 6.260027
428.7100, 6.296555
429.1921, 6.036282
429.6743, 5.632117
430.1564, 5.443619
430.6385, 5.491549
431.1206, 5.678463
431.6027, 6.037502
432.0848, 6.556130
432.5670, 6.843093
433.0491, 6.870688
433.5312, 6.782050
434.0133, 6.748715
434.4954, 6.748297
434.9775, 6.589571
435.4597, 6.102465
435.9418, 5.588756
436.4239, 5.765506
436.9060, 6.513181
437.3881, 7.074405
437.8702, 6.733587
438.3524, 5.993652
438.8345, 5.562123
439.3166, 5.527312
439.7987, 5.706278
440.2808, 6.139404
440.7629, 6.657692
441.2451, 6.993598
441.7272, 6.874976
442.2093, 6.697158
442.6914, 6.735961
443.1735, 6.941120
443.6556, 6.966074
444.1378, 6.398580
444.6199, 5.804124
445.1020, 5.553318
445.5841, 5.857270
446.0662, 6.195277
446.5483, 6.562577
447.0305, 6.910579
447.5126, 7.159006
447.9947, 7.277997
448.4768, 7.332796
448.9590, 7.361170
449.4411, 7.365499
449.9232, 7.143633
450.4053, 6.473119
450.8874, 5.893473
451.3695, 5.916174
451.8517, 6.768374
452.3338, 7.163534
452.8159, 6.822023
453.2980, 6.154686
453.7801, 6.092894
454.2622, 6.687610
454.7444, 7.138939
455.2265, 6.971342
455.7086, 6.348896
456.1907, 6.036184
456.6728, 6.056465
457.1549, 6.035934
457.6371, 5.285889
458.1192, 4.231423
458.6013, 4.008506
459.0834, 5.271384
459.5655, 6.764400
460.0476, 6.987560
460.5298, 6.292795
461.0119, 5.712828
461.4940, 5.873185
461.9761, 6.293196
462.4582, 6.650154
462.9403, 6.924490
463.4225, 7.059364
463.9046, 6.924886
464.3867, 6.687397
464.8688, 6.507512
465.3509, 6.421297
465.8330, 6.394711
466.3152, 6.570549
466.7973, 6.832940
467.2794, 6.759376
467.7615, 5.606226
468.2436, 4.825556
468.7257, 5.094789
469.2079, 6.820368
469.6900, 7.649298
470.1721, 7.130123
470.6542, 6.198781
471.1363, 5.876997
471.6184, 6.352107
472.1006, 6.679852
472.5827, 6.637681
473.0648, 6.377241
473.5469, 6.380191
474.0291, 6.665208
474.5112, 6.993335
474.9933, 7.255280
475.4754, 7.451120
475.9575, 7.564279
476.4396, 7.586496
476.9218, 7.586310
477.4039, 7.789884
477.8860, 8.026564
478.3681, 7.841144
478.8502, 6.719468
479.3323, 5.574274
479.8145, 5.495932
480.2966, 6.217516
480.7787, 6.754479
481.2608, 6.510421
481.7429, 5.967843
482.2250, 5.312296
482.7072, 4.462006
483.1893, 4.125843
483.6714, 5.131190
484.1535, 6.515862
484.6356, 7.309536
485.1177, 6.631974
485.5999, 6.193144
486.0820, 6.471202
486.5641, 7.227628
487.0462, 7.573726
487.5283, 7.269270
488.0104, 6.874327
488.4926, 6.591527
488.9747, 6.437367
489.4568, 6.299476
489.9389, 6.165590
490.4210, 6.072128
490.9031, 6.109707
491.3853, 6.294608
491.8674, 6.319281
492.3495, 6.057858
492.8316, 5.676733
493.3137, 5.530181
493.7958, 5.606433
494.2780, 5.789311
494.7601, 6.069810
495.2422, 6.395491
495.7243, 6.706126
496.2064, 7.007565
496.6885, 7.147834
497.1707, 6.938095
497.6528, 6.517504
498.1349, 6.041295
498.6170, 5.293407
499.0992, 4.877192
499.5813, 5.480920
500.0634, 6.678547
500.5455, 7.429456
501.0276, 6.906763
501.5097, 6.305551
501.9919, 6.164028
502.4740, 6.609224
502.9561, 6.863679
503.4382, 6.679315
503.9203, 6.423124
504.4024, 6.356702
504.8846, 6.635560
505.3667, 6.778261
505.8488, 6.704887
506.3309, 6.512122
506.8130, 6.414271
507.2951, 6.432685
507.7773, 6.449687
508.2594, 6.406686
508.7415, 6.323656
509.2236, 6.370195
509.7057, 6.565179
510.1878, 6.652325
510.6700, 6.181809
511.1521, 5.422135
511.6342, 5.231806
512.1163, 5.843124
512.5984, 6.685888
513.0806, 7.316715
513.5627, 7.727370
514.0448, 7.900395
514.5269, 7.830532
515.0090, 7.518677
515.4911, 6.730718
515.9733, 5.579958
516.4554, 4.821724
516.9375, 4.979881
517.4196, 5.439614
517.9017, 5.869774
518.3839, 6.269004
518.8660, 6.543105
519.3481, 6.635745
519.8302, 6.616466
520.3123, 6.524491
520.7944, 6.141622
521.2766, 6.108023
521.7587, 6.698894
522.2408, 7.685783
522.7229, 8.180886
523.2050, 8.111996
523.6871, 7.820878
524.1693, 7.349266
524.6514, 6.740321
525.1335, 6.506267
525.6156, 6.685524
526.0977, 6.987801
526.5798, 7.141086
527.0620, 7.182263
527.5441, 7.218515
528.0262, 7.277539
528.5083, 7.335246
528.9904, 7.493906
529.4725, 7.639144
529.9547, 7.486510
530.4368, 6.395837
530.9189, 5.358864
531.4010, 5.076364
531.8831, 5.561036
532.3652, 6.178121
532.8474, 6.980484
533.3295, 7.672468
533.8116, 8.055009
534.2937, 7.807589
534.7758, 7.761128
535.2579, 8.205531
535.7401, 8.726749
536.2222, 8.650493
536.7043, 7.584219
537.1864, 6.859550
537.6685, 6.887451
538.1506, 7.458491
538.6328, 7.555866
539.1149, 7.109715
539.5970, 6.631931
540.0791, 6.450383
540.5612, 6.505876
541.0433, 6.510419
541.5255, 6.440210
542.0076, 6.450565
542.4897, 6.860652
542.9718, 7.443956
543.4539, 7.725953
543.9360, 7.446363
544.4182, 7.054027
544.9003, 6.879184
545.3824, 6.857969
545.8645, 6.848486
546.3466, 6.790548
546.8287, 6.733902
547.3109, 6.719886
547.7930, 6.751160
548.2751, 6.724884
548.7572, 6.390671
549.2393, 6.181293
549.7214, 6.374381
550.2036, 7.333966
550.6857, 7.847491
551.1678, 7.736146
551.6499, 7.361516
552.1320, 7.305219
552.6141, 7.671183
553.0963, 7.627970
553.5784, 6.798464
554.0605, 5.595393
554.5426, 5.113285
555.0247, 5.326465
555.5068, 5.777802
555.9890, 6.411830
556.4711, 7.031322
556.9532, 7.220582
557.4353, 6.965555
557.9174, 6.617398
558.3995, 6.235279
558.8817, 5.995466
559.3638, 6.161965
559.8459, 7.099307
560.3281, 7.822170
560.8102, 7.721243
561.2923, 7.198435
561.7744, 6.884749
562.2565, 7.238739
562.7386, 7.428939
563.2208, 7.153903
563.7029, 6.514765
564.1850, 6.229365
564.6671, 6.464398
565.1492, 6.761397
565.6313, 6.890677
566.1135, 6.834504
566.5956, 6.840530
567.0777, 6.917232
567.5598, 7.026350
568.0419, 7.158096
568.5240, 7.296899
569.0062, 7.368777
569.4883, 7.357111
569.9704, 7.276239
570.4525, 7.018096
570.9346, 6.694684
571.4167, 6.603524
571.8989, 7.098518
572.3810, 7.688598
572.8631, 8.130817
573.3452, 8.400020
573.8273, 8.406013
574.3094, 7.821277
574.7916, 7.191533
575.2737, 6.835954
575.7558, 6.905804
576.2379, 6.859606
576.7200, 6.646544
577.2021, 6.347104
577.6843, 5.996042
578.1664, 5.511933
578.6485, 5.227740
579.1306, 5.184758
579.6127, 5.348800
580.0948, 5.712438
580.5770, 6.274425
581.0591, 6.799566
581.5412, 7.269471
582.0233, 7.594641
582.5054, 7.456313
582.9875, 6.915879
583.4697, 6.424426
583.9518, 6.380768
584.4339, 6.501119
584.9160, 6.402613
585.3981, 5.997736
585.8802, 5.830674
586.3624, 6.473721
586.8445, 7.331706
587.3266, 7.860595
587.8087, 8.111342
588.2908, 7.819946
588.7729, 5.771251
589.2551, 6.516061
589.7372, 6.986603
590.2193, 7.197672
590.7014, 6.372063
591.1835, 6.885091
591.6656, 6.861661
592.1478, 6.816262
592.6299, 7.804654
593.1120, 8.326277
593.5941, 8.032258
594.0762, 7.137733
594.5583, 6.323346
595.0405, 5.606339
595.5226, 5.218974
596.0047, 5.676236
596.4868, 6.495159
596.9689, 6.934088
597.4510, 6.668771
597.9332, 6.417069
598.4153, 6.778512
598.8974, 7.366232
599.3795, 7.612164
599.8616, 6.862397
600.3438, 6.312921
600.8259, 6.488767
601.3080, 7.146093
601.7901, 7.271522
602.2722, 6.455550
602.7543, 5.793664
603.2365, 5.736265
603.7186, 6.271080
604.2007, 6.737350
604.6828, 7.155967
605.1649, 7.387061
605.6470, 7.128633
606.1292, 6.545215
606.6113, 6.393348
607.0934, 6.815194
607.5755, 7.323407
608.0576, 7.500131
608.5398, 7.402190
609.0219, 7.094313
609.5040, 6.327518
609.9861, 5.730381
610.4683, 5.887988
610.9504, 6.454374
611.4325, 6.685155
611.9146, 5.616888
612.3967, 4.985486
612.8788, 5.705070
613.3610, 7.589241
613.8431, 8.413934
614.3252, 7.681108
614.8073, 6.712929
615.2894, 6.085785
615.7715, 5.805635
616.2537, 5.935051
616.7358, 6.561343
617.2179, 7.179087
617.7000, 7.162337
618.1821, 6.693147
618.6642, 6.432982
619.1464, 6.526987
619.6285, 6.716758
620.1106, 6.660810
620.5927, 6.531733
621.0748, 6.626009
621.5569, 7.423300
622.0391, 8.099607
622.5212, 8.203390
623.0033, 7.892305
623.4854, 7.651299
623.9675, 7.739027
624.4496, 7.722301
624.9318, 7.387012
625.4139, 6.745259
625.8960, 6.463766
626.3781, 6.632940
626.8602, 6.957427
627.3423, 7.397682
627.8245, 7.937068
628.3066, 7.832708
628.7887, 6.968307
629.2708, 6.094025
629.7529, 6.139829
630.2350, 6.756447
630.7172, 7.104475
631.1993, 6.889710
631.6814, 6.684885
632.1635, 7.186041
632.6456, 7.956632
633.1277, 8.309430
633.6099, 7.686444
634.0920, 6.959508
634.5741, 6.111701
635.0562, 5.331104
635.5383, 5.300736
636.0204, 6.721705
636.5026, 7.893466
636.9847, 8.237325
637.4668, 7.808061
637.9489, 7.508418
638.4310, 7.355978
638.9131, 7.242806
639.3953, 7.017378
639.8774, 6.751371
640.3595, 6.882041
640.8416, 7.459196
641.3237, 7.958802
641.8058, 7.685184
642.2880, 7.091387
642.7701, 6.859567
643.2522, 7.277541
643.7343, 7.680281
644.2164, 7.759079
644.6985, 7.613563
645.1807, 7.375984
645.6628, 6.644852
646.1449, 6.371495
646.6270, 7.013407
647.1091, 8.117723
647.5912, 8.452960
648.0734, 7.717031
648.5555, 7.078373
649.0376, 6.974509
649.5197, 7.248771
650.0018, 7.124381
650.4839, 6.604689
650.9661, 6.185161
651.4482, 6.240271
651.9303, 6.583770
652.4124, 6.977395
652.8945, 7.402169
653.3766, 7.638433
653.8588, 7.342282
654.3409, 6.916664
654.8230, 6.696006
655.3051, 6.774545
655.7872, 6.956787
656.2693, 7.358749
656.7515, 7.756635
657.2336, 7.918830
657.7158, 7.667345
658.1979, 7.601843
658.6800, 7.901505
659.1621, 8.255606
659.6442, 7.955544
660.1263, 6.990850
660.6085, 6.427486
661.0906, 6.762506
661.5727, 7.477351
662.0548, 7.654417
662.5369, 7.405838
663.0190, 7.159397
663.5012, 6.904749
663.9833, 6.928763
664.4654, 7.256893
664.9475, 7.852852
665.4296, 8.174590
665.9117, 8.236846
666.3939, 7.262413
666.8760, 7.626645
667.3581, 7.454401
667.8402, 7.260160
668.3223, 7.812799
668.8044, 6.989160
669.2866, 7.529946
669.7687, 6.550041
670.2508, 6.189116
670.7329, 6.525217
671.2150, 7.039865
671.6971, 7.162125
672.1793, 7.002553
672.6614, 6.838765
673.1435, 6.725739
673.6256, 6.645717
674.1077, 6.513239
674.5898, 6.420148
675.0720, 6.508759
675.5541, 7.026475
676.0362, 7.504580
676.5183, 7.874162
677.0004, 8.106443
677.4825, 8.109374
677.9647, 7.697539
678.4468, 7.436472
678.9289, 7.607099
679.4110, 8.039509
679.8931, 7.724743
680.3752, 6.601352
680.8574, 5.780278
681.3395, 6.228770
681.8216, 7.336041
682.3037, 7.767335
682.7858, 7.554893
683.2679, 7.274799
683.7501, 7.244623
684.2322, 7.359129
684.7143, 7.606332
685.1964, 8.041297
685.6785, 8.219086
686.1606, 7.632949
686.6428, 7.020524
687.1249, 6.945733
687.6070, 7.844340
688.0891, 8.264324
688.5712, 8.088420
689.0533, 7.621576
689.5355, 7.110610
690.0176, 6.567008
690.4997, 6.422379
690.9818, 6.857280
691.4639, 7.420654
691.9460, 7.476696
692.4282, 7.188813
692.9103, 6.916681
693.3924, 6.874167
693.8745, 6.793565
694.3566, 6.357494
694.8387, 5.771569
695.3209, 5.519151
695.8030, 6.015289
696.2851, 6.521941
696.7672, 6.909616
697.2493, 7.178503
697.7314, 7.289879
698.2136, 7.196760
698.6957, 7.096990
699.1778, 7.045039
699.6599, 7.057903
700.1420, 7.243309
700.6241, 7.594068
701.1063, 7.963324
701.5884, 8.419395
702.0705, 8.745378
702.5526, 8.554124
703.0347, 7.823796
703.5168, 7.192537
703.9990, 6.938427
704.4811, 6.928097
704.9632, 7.133714
705.4453, 7.738055
705.9274, 8.002822
706.4095, 7.750894
706.8917, 7.355276
707.3738, 7.078023
707.8560, 6.906608
708.3381, 7.073256
708.8202, 7.675637
709.3023, 8.338376
709.7844, 8.617850
710.2665, 8.573807
710.7487, 8.375089
711.2308, 8.054771
711.7129, 7.614267
712.1950, 6.664323
712.6771, 5.694346
713.1592, 5.443619
713.6414, 7.064824
714.1235, 8.359264
714.6056, 8.640569
715.0877, 8.305920
715.5698, 8.120378
716.0519, 8.212407
716.5341, 8.084133
717.0162, 7.486894
717.4983, 6.685457
717.9804, 6.548577
718.4625, 7.028255
718.9446, 7.463028
719.4268, 7.449396
719.9089, 7.263347
720.3910, 7.212891
720.8731, 7.296397
721.3552, 7.505013
721.8373, 8.115610
722.3195, 8.601196
722.8016, 8.568107
723.2837, 7.996114
723.7658, 7.668981
724.2479, 7.821868
724.7300, 7.942864
725.2122, 7.713696
725.6943, 7.123965
726.1764, 7.055945
726.6585, 7.585247
727.1406, 8.154903
727.6227, 8.308081
728.1049, 8.181169
728.5870, 8.108441
729.0691, 8.119576
729.5512, 8.029607
730.0333, 7.449601
730.5154, 6.853926
730.9976, 6.776754
731.4797, 7.566805
731.9618, 8.048673
732.4439, 7.694351
732.9260, 7.184179
733.4081, 7.012904
733.8903, 7.232857
734.3724, 7.706946
734.8545, 8.566634
735.3366, 9.341018
735.8187, 9.322768
736.3008, 8.659794
736.7830, 8.004165
737.2651, 7.461261
737.7472, 7.054726
738.2293, 6.866973
738.7114, 6.818041
739.1935, 6.789432
739.6757, 6.665114
740.1578, 6.657146
740.6399, 6.985618
741.1220, 7.420379
741.6041, 7.537949
742.0862, 7.074779
742.5684, 6.898889
743.0505, 7.228275
743.5326, 7.838161
744.0147, 8.341307
744.4968, 8.715735
744.9789, 8.691332
745.4611, 7.947768
745.9432, 7.024437
746.4253, 6.619190
746.9074, 6.601031
747.3895, 6.638292
747.8716, 6.569415
748.3538, 6.539992
748.8359, 6.645062
749.3180, 6.854913
749.8001, 7.014051
750.2822, 7.139966
750.7643, 7.161689
751.2465, 6.962639
751.7286, 6.651231
752.2107, 6.939707
752.6928, 7.847643
753.1749, 8.413196
753.6570, 7.728534
754.1392, 6.522168
754.6213, 6.028603
755.1034, 6.149497
755.5855, 6.325562
756.0676, 6.190643
756.5498, 6.073198
757.0319, 6.185611
757.5140, 6.546162
757.9962, 6.903776
758.4783, 7.345965
758.9604, 7.632767
759.4425, 7.581874
759.9246, 7.207872
760.4067, 7.118744
760.8889, 7.334000
761.3710, 7.666412
761.8531, 8.170946
762.3352, 8.634521
762.8173, 8.494617
763.2994, 7.751164
763.7816, 7.181328
764.2637, 7.394864
764.7458, 7.878389
765.2279, 8.340487
765.7100, 8.827808
766.1921, 8.868833
766.6743, 8.094353
767.1564, 7.308643
767.6385, 7.078079
768.1206, 7.485354
768.6027, 7.592570
769.0848, 7.340934
769.5670, 7.118255
770.0491, 7.557439
770.5312, 8.213525
771.0133, 7.975062
771.4954, 6.609532
771.9775, 5.583340
772.4597, 6.162200
772.9418, 7.276544
773.4239, 8.062334
773.9060, 8.384770
774.3881, 8.348938
774.8702, 7.686449
775.3524, 6.992552
775.8345, 6.818529
776.3166, 7.217433
776.7987, 7.526721
777.2808, 7.728378
777.7629, 7.716574
778.2451, 7.046166
778.7272, 6.146368
779.2093, 6.008356
779.6914, 7.023445
780.1735, 7.884867
780.6556, 7.564069
781.1378, 6.833494
781.6199, 6.444518
782.1020, 6.810547
782.5841, 7.018840
783.0662, 6.920431
783.5483, 6.831483
784.0305, 7.255439
784.5126, 8.230909
784.9947, 8.497125
785.4768, 7.792184
785.9589, 6.892230
786.4410, 6.679988
786.9232, 6.920976
787.4053, 7.242676
787.8874, 7.677362
788.3695, 7.839396
788.8516, 7.282390
789.3337, 6.481044
789.8159, 5.969898
790.2980, 5.902497
790.7801, 5.933017
791.2622, 6.061272
791.7443, 6.275396
792.2264, 6.602289
792.7086, 7.033423
793.1907, 7.352094
793.6728, 7.526381
794.1549, 7.578394
794.6370, 7.485988
795.1191, 7.303401
795.6013, 7.122446
796.0834, 6.996727
796.5655, 6.818644
797.0476, 6.284904
797.5297, 5.807660
798.0118, 5.915173
798.4940, 6.995222
798.9761, 7.770499
799.4582, 8.136109
799.9403, 8.205361
800.4224, 8.008192
800.9045, 7.612234
801.3867, 7.462998
801.8688, 7.718293
802.3509, 7.982897
802.8330, 7.824426
803.3151, 7.445189
803.7972, 7.116970
804.2794, 6.825736
804.7615, 6.729238
805.2436, 7.004477
805.7258, 7.411528
806.2079, 7.741661
806.6900, 8.049911
807.1721, 7.997857
807.6542, 7.443692
808.1364, 6.818224
808.6185, 6.752830
809.1006, 7.090209
809.5827, 7.386506
810.0648, 7.565248
810.5469, 7.606071
811.0291, 7.364243
811.5112, 7.033881
811.9933, 6.838494
812.4754, 6.887959
812.9575, 6.994545
813.4396, 7.286642
813.9218, 7.496992
814.4039, 7.167327
814.8860, 6.227119
815.3681, 5.973092
815.8502, 6.671595
816.3323, 7.515458
816.8145, 7.467789
817.2966, 6.919107
817.7787, 6.540734
818.2608, 6.474119
818.7429, 6.613991
819.2250, 7.273669
819.7072, 7.912394
820.1893, 7.922669
820.6714, 6.686553
821.1535, 6.181460
821.6356, 6.624559
822.1177, 7.411347
822.5999, 8.011094
823.0820, 8.405574
823.5641, 8.392962
824.0462, 7.908218
824.5283, 7.381221
825.0104, 7.232412
825.4926, 7.255179
825.9747, 7.211858
826.4568, 7.029168
826.9389, 6.879797
827.4210, 6.737143
827.9031, 6.695032
828.3853, 6.874099
828.8674, 7.380113
829.3495, 7.495084
829.8316, 7.104604
830.3137, 6.803024
830.7958, 7.564285
831.2780, 8.750344
831.7601, 8.765388
832.2422, 7.389548
832.7243, 6.173207
833.2064, 6.108343
833.6885, 6.584592
834.1707, 7.293219
834.6528, 8.407319
835.1349, 8.725250
835.6170, 7.834661
836.0991, 6.848281
836.5812, 6.489978
837.0634, 6.725992
837.5455, 7.174380
838.0276, 7.843277
838.5097, 8.280506
838.9918, 7.895041
839.4739, 7.256059
839.9561, 6.992369
840.4382, 7.141942
840.9203, 7.321032
841.4024, 7.372555
841.8845, 7.460200
842.3666, 7.703072
842.8488, 8.094259
843.3309, 8.268844
843.8130, 8.219169
844.2951, 7.995341
844.7772, 7.426260
845.2593, 6.764317
845.7415, 6.692007
846.2236, 7.113215
846.7057, 7.516909
847.1878, 7.662075
847.6699, 7.669532
848.1520, 7.570591
848.6342, 7.378133
849.1163, 7.183649
849.5984, 6.995316
850.0805, 6.782250
850.5626, 6.459806
851.0447, 6.147274
851.5269, 6.341898
852.0090, 6.983282
852.4911, 7.574376
852.9732, 7.785101
853.4553, 7.915784
853.9374, 8.428198
854.4196, 9.075655
854.9017, 9.249533
855.3839, 8.164802
855.8660, 7.334910
856.3481, 7.111919
856.8302, 7.286850
857.3123, 7.463208
857.7944, 7.657776
858.2766, 7.599381
858.7587, 7.107095
859.2408, 6.578307
859.7229, 6.632791
860.2050, 7.080832
860.6871, 7.548171
861.1693, 7.985865
861.6514, 8.299827
862.1335, 8.518724
862.6156, 8.551060
863.0977, 8.241182
863.5798, 7.328436
864.0620, 6.847763
864.5441, 6.960808
865.0262, 7.326648
865.5083, 7.536740
865.9904, 7.641784
866.4725, 7.827267
866.9547, 8.153986
867.4368, 8.406981
867.9189, 8.297526
868.4010, 8.126775
868.8831, 8.230223
869.3652, 8.957567
869.8474, 9.108838
870.3295, 8.410871
870.8116, 7.572763
871.2937, 7.161771
871.7758, 7.138368
872.2579, 7.079883
872.7401, 6.972394
873.2222, 6.825221
873.7043, 6.518355
874.1864, 6.260066
874.6685, 6.278026
875.1506, 6.591932
875.6328, 6.964979
876.1149, 7.434152
876.5970, 7.853277
877.0791, 8.230107
877.5612, 8.532907
878.0433, 8.265074
878.5255, 7.394914
879.0076, 6.799886
879.4897, 7.337786
879.9718, 8.234378
880.4539, 8.265885
880.9360, 7.685209
881.4182, 7.366054
881.9003, 8.020164
882.3824, 8.608935
882.8645, 8.800355
883.3466, 8.659659
883.8287, 8.227984
884.3109, 7.379273
884.7930, 6.969239
885.2751, 7.342663
885.7572, 8.041458
886.2393, 8.326706
886.7214, 8.326833
887.2036, 8.363704
887.6857, 8.658904
888.1678, 8.826941
888.6499, 8.621840
889.1320, 8.223517
889.6141, 7.867169
890.0963, 7.564302
890.5784, 7.272477
891.0605, 6.939635
891.5426, 6.739007
892.0247, 6.897525
892.5068, 7.345443
892.9890, 7.983319
893.4711, 8.836996
893.9532, 9.413180
894.4353, 9.127387
894.9174, 8.587610
895.3995, 8.337320
895.8817, 8.577358
896.3638, 8.319797
896.8459, 7.207193
897.3280, 6.348022
897.8101, 6.659503
898.2922, 7.877403
898.7744, 8.587878
899.2565, 8.807137
899.7386, 8.714727
900.2207, 8.114485
900.7028, 7.511155
901.1849, 7.326593
901.6671, 7.514886
902.1492, 7.618757
902.6313, 7.517000
903.1134, 7.458076
903.5955, 7.543556
904.0776, 7.688582
904.5598, 7.588555
905.0419, 7.287723
905.5240, 7.140724
906.0062, 7.333769
906.4883, 7.642165
906.9704, 7.938103
907.4525, 8.192108
907.9346, 8.359821
908.4167, 8.413919
908.8989, 8.395096
909.3810, 8.313716
909.8631, 8.154787
910.3452, 7.824754
910.8273, 7.348102
911.3094, 7.068524
911.7916, 7.016572
912.2737, 7.254307
912.7558, 8.217582
913.2379, 9.285079
913.7200, 9.710201
914.2021, 9.245418
914.6843, 8.922557
915.1664, 9.105517
915.6485, 9.203104
916.1306, 8.820826
916.6127, 8.003972
917.0948, 7.548277
917.5770, 7.452014
918.0591, 7.486429
918.5412, 7.451712
919.0233, 7.508953
919.5054, 8.028973
919.9875, 8.839902
920.4697, 9.234638
920.9518, 8.706044
921.4339, 8.082254
921.9160, 7.418177
922.3981, 6.847847
922.8802, 6.766097
923.3624, 7.160934
923.8445, 7.694826
924.3266, 8.434947
924.8087, 8.879661
925.2908, 8.009233
925.7729, 6.653649
926.2551, 6.071564
926.7372, 7.337880
927.2193, 8.018761
927.7014, 7.513436
928.1835, 6.715698
928.6656, 6.460722
929.1478, 6.748162
929.6299, 6.870906
930.1120, 6.783562
930.5941, 6.727021
931.0762, 7.067613
931.5583, 7.446684
932.0405, 7.369470
932.5226, 6.803400
933.0047, 6.511493
933.4868, 6.942503
933.9689, 7.338302
934.4510, 7.407698
934.9332, 7.231146
935.4153, 7.257181
935.8974, 7.471745
936.3795, 7.568461
936.8616, 7.363691
937.3438, 7.025599
937.8259, 6.548667
938.3080, 6.090493
938.7901, 5.976257
939.2722, 6.610395
939.7543, 7.178046
940.2365, 7.626332
940.7186, 7.931623
941.2007, 8.037454
941.6828, 7.951432
942.1649, 7.723877
942.6470, 7.338069
943.1292, 6.987021
943.6113, 6.764512
944.0934, 6.715075
944.5755, 6.954619
945.0576, 7.584244
945.5397, 7.958618
946.0219, 7.922134
946.5040, 7.811327
946.9861, 7.769464
947.4682, 7.798882
947.9503, 7.986981
948.4324, 8.303037
948.9146, 8.475213
949.3967, 8.181318
949.8788, 7.834982
950.3609, 7.759946
950.8430, 7.878134
951.3251, 7.945009
951.8073, 7.862941
952.2894, 7.874720
952.7715, 8.044878
953.2536, 8.277736
953.7357, 8.550618
954.2179, 8.769519
954.7000, 8.403720
955.1821, 7.173185
955.6642, 6.225377
956.1464, 6.669147
956.6285, 7.568463
957.1106, 8.086422
957.5927, 8.083755
958.0748, 8.019479
958.5569, 7.859380
959.0391, 7.729072
959.5212, 7.716804
960.0033, 7.796495
960.4854, 7.909076
960.9675, 8.049539
961.4496, 8.187223
961.9318, 8.425347
962.4139, 8.535917
962.8960, 8.253899
963.3781, 7.770601
963.8602, 7.603742
964.3423, 7.808734
964.8245, 8.161413
965.3066, 8.727751
965.7887, 9.141068
966.2708, 8.642924
966.7529, 7.665929
967.2350, 7.063060
967.7172, 7.100142
968.1993, 7.233549
968.6814, 7.379332
969.1635, 7.443621
969.6456, 7.322355
970.1277, 6.986015
970.6099, 6.904694
971.0920, 7.099992
971.5741, 7.262012
972.0562, 7.012741
972.5383, 6.714421
973.0204, 6.924845
973.5026, 7.522096
973.9847, 7.978673
974.4668, 8.051571
974.9489, 8.041968
975.4310, 7.959849
975.9131, 7.878356
976.3953, 8.015306
976.8774, 8.345334
977.3595, 8.402752
977.8416, 8.001628
978.3237, 7.669035
978.8058, 8.106354
979.2880, 8.751966
979.7701, 9.007831
980.2522, 8.715758
980.7343, 8.133732
981.2164, 6.962105
981.6985, 6.081009
982.1807, 6.077100
982.6628, 6.805874
983.1449, 7.898780
983.6270, 9.236647
984.1091, 10.07453
984.5912, 9.446923
985.0734, 8.749960
985.5555, 8.998813
986.0376, 9.737512
986.5197, 9.637908
987.0018, 8.258226
987.4839, 7.586885
987.9661, 8.092111
988.4482, 8.924954
988.9303, 8.889558
989.4124, 8.354215
989.8945, 7.952064
990.3766, 7.766134
990.8588, 7.921751
991.3409, 8.962866
991.8230, 9.900960
992.3051, 10.10220
992.7872, 9.599212
993.2693, 9.429014
993.7515, 9.612228
994.2336, 9.512275
994.7157, 8.284945
995.1978, 7.035519
995.6799, 7.337472
996.1620, 8.587673
996.6442, 9.376195
997.1263, 8.983934
997.6084, 8.529450
998.0905, 8.057731
998.5726, 7.647959
999.0547, 7.361247
999.5369, 7.211627
1000.019, 7.340209
1000.501, 7.776067
1000.983, 8.236693
1001.465, 8.699707
1001.947, 8.965964
1002.430, 8.730501
1002.912, 7.981714
1003.394, 7.725762
1003.876, 8.149769
1004.358, 8.436389
1004.840, 8.180551
1005.322, 7.711089
1005.804, 7.660378
1006.287, 7.918542
1006.769, 8.220059
1007.251, 8.525068
1007.733, 8.767999
1008.215, 8.967001
1008.697, 9.068194
1009.179, 8.962502
1009.661, 8.612638
1010.143, 8.576368
1010.626, 8.899526
1011.108, 9.113715
1011.590, 8.593631
1012.072, 7.960045
1012.554, 7.968823
1013.036, 8.539336
1013.518, 8.750040
1014.000, 8.134375
1014.483, 7.721309
1014.965, 7.795991
1015.447, 8.149410
1015.929, 8.421319
1016.411, 8.608824
1016.893, 8.681268
1017.375, 8.595834
1017.857, 8.524801
1018.339, 8.597316
1018.822, 8.715788
1019.304, 8.834046
1019.786, 8.985532
1020.268, 8.778981
1020.750, 8.140272
1021.232, 7.616787
1021.714, 7.615775
1022.196, 7.904696
1022.679, 8.225101
1023.161, 8.535487
1023.643, 8.712297
1024.125, 8.504537
1024.607, 8.457294
1025.089, 8.792096
1025.571, 9.174257
1026.053, 9.045256
1026.535, 8.487465
1027.018, 8.125484
1027.500, 8.033865
1027.982, 8.114167
1028.464, 8.468402
1028.946, 8.824755
1029.428, 8.948912
1029.910, 8.828847
1030.392, 8.733661
1030.875, 8.687654
1031.357, 8.569668
1031.839, 8.313061
1032.321, 7.994009
1032.803, 7.664910
1033.285, 7.393035
1033.767, 7.348028
1034.249, 7.745707
1034.731, 8.041495
1035.214, 8.056368
1035.696, 7.969738
1036.178, 7.902133
1036.660, 7.853691
1037.142, 7.694322
1037.624, 7.439888
1038.106, 7.439929
1038.588, 8.323548
1039.071, 9.194624
1039.553, 9.216140
1040.035, 8.655936
1040.517, 8.530802
1040.999, 9.188221
1041.481, 9.399268
1041.963, 8.874692
1042.445, 8.160542
1042.927, 7.935531
1043.410, 8.056550
1043.892, 8.298902
1044.374, 8.649050
1044.856, 8.888080
1045.338, 9.053426
1045.820, 8.926920
1046.302, 8.224240
1046.784, 7.165916
1047.266, 7.043580
1047.749, 7.772951
1048.231, 8.369294
1048.713, 8.343844
1049.195, 8.208728
1049.677, 8.459101
1050.159, 8.805103
1050.641, 8.787960
1051.123, 8.011184
1051.606, 8.004787
1052.088, 8.989569
1052.570, 9.940764
1053.052, 10.01307
1053.534, 9.538012
1054.016, 8.958156
1054.498, 8.361996
1054.980, 8.072071
1055.463, 8.409811
1055.945, 8.849524
1056.427, 9.365168
1056.909, 9.807249
1057.391, 9.923312
1057.873, 9.730192
1058.355, 9.282611
1058.837, 8.554504
1059.319, 7.956755
1059.802, 7.830070
1060.284, 7.951278
1060.766, 8.292995
1061.248, 8.809877
1061.730, 8.881394
1062.212, 8.410095
1062.694, 7.982976
1063.176, 7.774938
1063.658, 7.793579
1064.141, 8.212786
1064.623, 8.816936
1065.105, 9.257372
1065.587, 9.498642
1066.069, 9.382409
1066.551, 8.644928
1067.033, 7.972517
1067.515, 7.941309
1067.998, 8.407014
1068.480, 8.668997
1068.962, 8.730957
1069.444, 8.602507
1069.926, 7.949205
1070.408, 7.481966
1070.890, 7.714041
1071.372, 8.269711
1071.854, 8.577602
1072.337, 8.599753
1072.819, 8.800271
1073.301, 9.263002
1073.783, 9.532543
1074.265, 8.908341
1074.747, 8.073010
1075.229, 7.680389
1075.711, 7.765970
1076.193, 8.060635
1076.676, 8.769366
1077.158, 9.049288
1077.640, 8.504137
1078.122, 7.736331
1078.604, 7.845960
1079.086, 8.518946
1079.568, 9.173831
1080.051, 9.783227
1080.533, 9.954561
1081.015, 9.118883
1081.497, 8.234951
1081.979, 7.681173
1082.461, 7.482912
1082.943, 8.049931
1083.425, 9.243632
1083.907, 9.972299
1084.390, 9.368393
1084.872, 8.648121
1085.354, 8.663457
1085.836, 8.967063
1086.318, 8.932943
1086.800, 8.399105
1087.282, 8.199578
1087.764, 8.382315
1088.246, 8.619424
1088.729, 8.639069
1089.211, 8.580353
1089.693, 8.574058
1090.175, 8.629093
1090.657, 8.764256
1091.139, 9.048916
1091.621, 9.314342
1092.103, 9.604197
1092.586, 9.728519
1093.068, 9.230296
1093.550, 8.417743
1094.032, 8.050385
1094.514, 8.218531
1094.996, 8.361546
1095.478, 8.004948
1095.960, 7.868319
1096.443, 8.362844
1096.925, 9.184025
1097.407, 9.432386
1097.889, 9.163540
1098.371, 8.732529
1098.853, 8.148894
1099.335, 7.734456
1099.817, 7.894495
1100.299, 8.193933
1100.781, 8.114104
1101.264, 7.615177
1101.746, 8.101854
1102.228, 9.674576
1102.710, 10.91797
1103.192, 11.07753
1103.674, 10.62010
1104.156, 9.663728
1104.638, 8.589967
1105.121, 8.039676
1105.603, 8.513230
1106.085, 8.720022
1106.567, 8.565155
1107.049, 8.414866
1107.531, 8.602822
1108.013, 8.983027
1108.495, 9.305319
1108.978, 9.564645
1109.460, 9.771305
1109.942, 9.927983
1110.424, 10.03561
1110.906, 10.11802
1111.388, 10.12788
1111.870, 9.930418
1112.352, 9.599369
1112.834, 9.442907
1113.317, 9.486428
1113.799, 9.666062
1114.281, 10.36452
1114.763, 10.72303
1115.245, 10.10920
1115.727, 8.944945
1116.209, 8.199116
1116.691, 7.865623
1117.173, 7.993957
1117.656, 8.660412
1118.138, 9.413557
1118.620, 10.22151
1119.102, 10.68019
1119.584, 10.12747
1120.066, 8.619644
1120.548, 8.114778
1121.030, 8.761377
1121.513, 9.392679
1121.995, 9.613414
1122.477, 9.557122
1122.959, 9.117514
1123.441, 8.629962
1123.923, 8.643568
1124.405, 9.626236
1124.887, 9.924251
1125.370, 9.293695
1125.852, 8.599873
1126.334, 8.331599
1126.816, 8.353409
1127.298, 8.464045
1127.780, 8.621836
1128.262, 8.725808
1128.744, 8.589142
1129.226, 8.646986
1129.709, 9.090048
1130.191, 9.490518
1130.673, 9.340486
1131.155, 8.842762
1131.637, 8.901976
1132.119, 9.423745
1132.601, 9.759764
1133.083, 9.496431
1133.566, 9.075429
1134.048, 8.395040
1134.530, 7.855471
1135.012, 8.254069
1135.494, 9.446117
1135.976, 9.686101
1136.458, 8.834162
1136.940, 8.212125
1137.422, 9.106530
1137.905, 10.13347
1138.387, 10.51291
1138.869, 10.38410
1139.351, 9.984148
1139.833, 9.288952
1140.315, 8.861016
1140.797, 8.822794
1141.279, 8.902213
1141.761, 9.029285
1142.244, 9.030560
1142.726, 8.540212
1143.208, 7.640892
1143.690, 7.601429
1144.172, 8.589905
1144.654, 9.456804
1145.136, 9.840703
1145.618, 9.987133
1146.101, 10.16336
1146.583, 10.28375
1147.065, 10.22302
1147.547, 9.917706
1148.029, 9.667124
1148.511, 9.525647
1148.993, 9.250200
1149.475, 8.595874
1149.958, 7.946451
1150.440, 8.023555
1150.922, 8.541713
1151.404, 8.989438
1151.886, 9.230627
1152.368, 9.401320
1152.850, 9.475636
1153.332, 9.570570
1153.814, 9.792687
1154.297, 10.06957
1154.779, 10.32246
1155.261, 10.47603
1155.743, 10.30939
1156.225, 9.253335
1156.707, 8.620147
1157.189, 8.719142
1157.671, 9.005902
1158.153, 8.994250
1158.636, 8.780916
1159.118, 8.825824
1159.600, 9.067142
1160.082, 9.168056
1160.564, 8.628642
1161.046, 8.384674
1161.528, 8.874865
1162.010, 9.566945
1162.493, 9.860646
1162.975, 9.802601
1163.457, 9.661002
1163.939, 9.466640
1164.421, 9.378034
1164.903, 9.752087
1165.385, 9.940754
1165.867, 9.404508
1166.349, 8.672055
1166.832, 8.676343
1167.314, 9.358777
1167.796, 10.01015
1168.278, 10.55732
1168.760, 10.85411
1169.242, 10.61919
1169.724, 10.27675
1170.206, 10.08112
1170.688, 9.975710
1171.171, 9.824640
1171.653, 9.627307
1172.135, 9.291826
1172.617, 8.764112
1173.099, 8.428423
1173.581, 8.866908
1174.063, 9.401526
1174.545, 9.358768
1175.028, 8.922381
1175.510, 9.181623
1175.992, 10.19411
1176.474, 10.42476
1176.956, 9.258151
1177.438, 8.152096
1177.920, 8.836884
1178.402, 9.951125
1178.885, 10.07413
1179.367, 9.210160
1179.849, 9.082262
1180.331, 9.766575
1180.813, 10.37211
1181.295, 10.61680
1181.777, 10.60473
1182.259, 10.36634
1182.741, 9.980575
1183.224, 9.479319
1183.706, 8.845618
1184.188, 8.410989
1184.670, 8.178123
1185.152, 8.108892
1185.634, 8.222879
1186.116, 8.428061
1186.598, 8.585433
1187.081, 8.784829
1187.563, 9.208162
1188.045, 10.01766
1188.527, 10.36702
1189.009, 10.20146
1189.491, 9.886147
1189.973, 9.624605
1190.455, 9.310816
1190.938, 8.558160
1191.420, 7.756166
1191.902, 7.597470
1192.384, 8.527285
1192.866, 9.062779
1193.348, 9.129293
1193.830, 9.169787
1194.312, 9.656840
1194.794, 10.13389
1195.276, 9.735927
1195.759, 8.937596
1196.241, 8.765996
1196.723, 9.921408
1197.205, 10.30841
1197.687, 9.717196
1198.169, 9.182559
1198.651, 9.835238
1199.133, 10.77908
1199.616, 10.69992
1200.098, 9.951684
1200.580, 9.451265
1201.062, 9.483127
1201.544, 9.410463
1202.026, 9.162110
1202.508, 8.990453
1202.990, 9.184721
1203.473, 9.536639
1203.955, 9.809846
1204.437, 10.00438
1204.919, 10.16083
1205.401, 10.35089
1205.883, 10.33288
1206.365, 10.05281
1206.847, 9.707399
1207.329, 9.292301
1207.812, 9.056506
1208.294, 9.578640
1208.776, 10.61567
1209.258, 11.04674
1209.740, 10.50111
1210.222, 10.05528
1210.704, 9.823030
1211.186, 9.707737
1211.668, 9.626699
1212.151, 9.587598
1212.633, 9.701642
1213.115, 9.898718
1213.597, 9.710937
1214.079, 8.793806
1214.561, 8.488957
1215.043, 9.068020
1215.525, 9.923217
1216.008, 10.69275
1216.490, 11.17744
1216.972, 10.98157
1217.454, 10.19852
1217.936, 9.614441
1218.418, 9.226164
1218.900, 9.261988
1219.382, 9.844014
1219.865, 10.48661
1220.347, 10.65958
1220.829, 10.59157
1221.311, 10.56170
1221.793, 10.55551
1222.275, 10.24545
1222.757, 9.457679
1223.239, 9.132936
1223.721, 9.554181
1224.203, 9.995240
1224.686, 9.314271
1225.168, 8.494871
1225.650, 8.740458
1226.132, 10.00664
1226.614, 10.66137
1227.096, 10.59810
1227.578, 10.38782
1228.061, 10.09764
1228.543, 9.957708
1229.025, 10.46202
1229.507, 11.04516
1229.989, 11.18032
1230.471, 10.83898
1230.953, 10.12739
1231.435, 8.911741
1231.917, 8.609716
1232.400, 9.722172
1232.882, 10.93495
1233.364, 11.15116
1233.846, 10.76976
1234.328, 9.802831
1234.810, 8.486235
1235.292, 8.170836
1235.774, 8.901997
1236.256, 9.716535
1236.739, 10.45502
1237.221, 10.83748
1237.703, 10.31461
1238.185, 9.604717
1238.667, 9.281651
1239.149, 9.286830
1239.631, 9.436666
1240.113, 9.716592
1240.596, 9.718197
1241.078, 9.272360
1241.560, 8.936854
1242.042, 9.349974
1242.524, 9.805502
1243.006, 9.751129
1243.488, 9.362011
1243.970, 9.288053
1244.453, 9.512127
1244.935, 9.989846
1245.417, 10.80394
1245.899, 11.32231
1246.381, 11.16411
1246.863, 10.51904
1247.345, 9.203923
1247.827, 7.712373
1248.309, 8.105175
1248.792, 9.882641
1249.274, 10.77245
1249.756, 10.08360
1250.238, 9.486130
1250.720, 10.11065
1251.202, 10.60054
1251.684, 10.29858
1252.166, 9.570077
1252.648, 9.275989
1253.131, 9.353308
1253.613, 9.757421
1254.095, 10.60970
1254.577, 10.82528
1255.059, 9.315564
1255.541, 8.253269
1256.023, 8.542356
1256.505, 9.542434
1256.988, 10.05328
1257.470, 10.22118
1257.952, 10.35800
1258.434, 10.54158
1258.916, 10.49225
1259.398, 9.933288
1259.880, 9.730617
1260.362, 10.31193
1260.844, 11.11769
1261.327, 11.31264
1261.809, 11.07086
1262.291, 10.50112
1262.773, 9.559369
1263.255, 9.345295
1263.737, 10.15699
1264.219, 10.77290
1264.701, 10.76914
1265.183, 10.51294
1265.666, 10.31128
1266.148, 10.22305
1266.630, 10.39402
1267.112, 10.83940
1267.594, 11.05387
1268.076, 11.04369
1268.558, 10.66537
1269.040, 9.718997
1269.523, 9.015868
1270.005, 9.960242
1270.487, 11.04055
1270.969, 10.40459
1271.451, 8.488141
1271.933, 8.078061
1272.415, 9.151257
1272.897, 9.917568
1273.380, 9.906571
1273.862, 9.721570
1274.344, 9.498112
1274.826, 9.583722
1275.308, 10.47125
1275.790, 11.70589
1276.272, 11.59497
1276.754, 10.41316
1277.236, 9.642084
1277.719, 9.620335
1278.201, 9.754224
1278.683, 9.725745
1279.165, 9.834024
1279.647, 10.31894
1280.129, 10.87146
1280.611, 10.79482
1281.093, 10.25979
1281.576, 9.550000
1282.058, 8.675040
1282.540, 8.576518
1283.022, 10.30725
1283.504, 11.51950
1283.986, 11.52821
1284.468, 10.93893
1284.950, 10.47265
1285.432, 10.15915
1285.915, 10.11000
1286.397, 10.32747
1286.879, 10.47330
1287.361, 10.46790
1287.843, 10.60026
1288.325, 11.01280
1288.807, 11.26206
1289.289, 10.52051
1289.771, 9.581106
1290.254, 9.260140
1290.736, 9.587976
1291.218, 10.23693
1291.700, 11.31119
1292.182, 11.56584
1292.664, 10.71503
1293.146, 9.830885
1293.628, 9.843058
1294.111, 10.12416
1294.593, 10.26743
1295.075, 10.33996
1295.557, 10.52831
1296.039, 10.81486
1296.521, 11.03930
1297.003, 11.18101
1297.485, 11.13900
1297.968, 10.59866
1298.450, 10.18107
1298.932, 10.11201
1299.414, 10.25618
1299.896, 10.50168
1300.378, 10.77809
1300.860, 10.82897
1301.342, 10.66224
1301.824, 10.53010
##END=



