##NAMES=Remondite-(Ce)
##RRUFFID=R120060
##IDEAL CHEMISTRY=Na_3_(Ce^3+^,Ca,Na)_3_(CO_3_)_5_
##LOCALITY=Mont Saint-Hilaire, Rouville RCM, Montérégie, Québec, Canada
##OWNER=RRUFF
##SOURCE=Donald Doell
##DESCRIPTION=Tan to pale yellow acicular, associated with albite, calcite, and analcime
##STATUS=The identification of this mineral has been confirmed only by single crystal X-ray diffraction.
##URL=rruff.info/R120060
9.001007e+001, 0.000000e+000
9.049219e+001, 4.834167e+001
9.097430e+001, 4.875256e+001
9.145642e+001, 4.859248e+001
9.193854e+001, 4.792348e+001
9.242065e+001, 4.726263e+001
9.290277e+001, 4.715798e+001
9.338489e+001, 4.738233e+001
9.386700e+001, 4.740142e+001
9.434912e+001, 4.690521e+001
9.483124e+001, 4.612401e+001
9.531335e+001, 4.552446e+001
9.579547e+001, 4.511375e+001
9.627759e+001, 4.482223e+001
9.675970e+001, 4.458259e+001
9.724182e+001, 4.439488e+001
9.772394e+001, 4.424255e+001
9.820605e+001, 4.424340e+001
9.868817e+001, 4.435576e+001
9.917029e+001, 4.399355e+001
9.965240e+001, 4.300097e+001
1.001345e+002, 4.177137e+001
1.006166e+002, 4.110631e+001
1.010988e+002, 4.109582e+001
1.015809e+002, 4.123035e+001
1.020630e+002, 4.124226e+001
1.025451e+002, 4.109947e+001
1.030272e+002, 4.101398e+001
1.035093e+002, 4.107263e+001
1.039915e+002, 4.119142e+001
1.044736e+002, 4.096080e+001
1.049557e+002, 4.014500e+001
1.054378e+002, 3.932322e+001
1.059199e+002, 3.892593e+001
1.064020e+002, 3.925881e+001
1.068842e+002, 3.943736e+001
1.073663e+002, 3.927098e+001
1.078484e+002, 3.875380e+001
1.083305e+002, 3.843028e+001
1.088126e+002, 3.773744e+001
1.092947e+002, 3.756466e+001
1.097769e+002, 3.875269e+001
1.102590e+002, 4.472933e+001
1.107411e+002, 4.858335e+001
1.112232e+002, 4.820712e+001
1.117053e+002, 4.216304e+001
1.121874e+002, 3.816340e+001
1.126696e+002, 3.850205e+001
1.131517e+002, 4.071753e+001
1.136338e+002, 4.162038e+001
1.141159e+002, 3.929789e+001
1.145980e+002, 3.676915e+001
1.150801e+002, 3.508437e+001
1.155623e+002, 3.458988e+001
1.160444e+002, 3.444228e+001
1.165265e+002, 3.473687e+001
1.170086e+002, 3.523228e+001
1.174907e+002, 3.541792e+001
1.179728e+002, 3.472276e+001
1.184550e+002, 3.390276e+001
1.189371e+002, 3.347725e+001
1.194192e+002, 3.386152e+001
1.199013e+002, 3.418272e+001
1.203834e+002, 3.385518e+001
1.208655e+002, 3.303608e+001
1.213477e+002, 3.233769e+001
1.218298e+002, 3.229956e+001
1.223119e+002, 3.249192e+001
1.227940e+002, 3.245238e+001
1.232761e+002, 3.185724e+001
1.237582e+002, 3.114377e+001
1.242404e+002, 3.066246e+001
1.247225e+002, 3.040369e+001
1.252046e+002, 3.024784e+001
1.256867e+002, 3.012327e+001
1.261688e+002, 3.003781e+001
1.266509e+002, 3.000735e+001
1.271331e+002, 3.007492e+001
1.276152e+002, 3.018837e+001
1.280973e+002, 3.032135e+001
1.285794e+002, 3.048538e+001
1.290615e+002, 3.052918e+001
1.295436e+002, 3.016689e+001
1.300258e+002, 2.949436e+001
1.305079e+002, 2.894096e+001
1.309900e+002, 2.875468e+001
1.314721e+002, 2.884228e+001
1.319542e+002, 2.891732e+001
1.324363e+002, 2.896810e+001
1.329185e+002, 2.901289e+001
1.334006e+002, 2.913519e+001
1.338827e+002, 2.933423e+001
1.343648e+002, 2.939620e+001
1.348469e+002, 2.909003e+001
1.353290e+002, 2.845439e+001
1.358112e+002, 2.806381e+001
1.362933e+002, 2.799566e+001
1.367754e+002, 2.815294e+001
1.372575e+002, 2.837880e+001
1.377396e+002, 2.871206e+001
1.382217e+002, 2.894028e+001
1.387039e+002, 2.885068e+001
1.391860e+002, 2.836819e+001
1.396681e+002, 2.812634e+001
1.401502e+002, 2.829426e+001
1.406323e+002, 2.873796e+001
1.411144e+002, 2.883255e+001
1.415966e+002, 2.842300e+001
1.420787e+002, 2.795956e+001
1.425608e+002, 2.780296e+001
1.430429e+002, 2.806463e+001
1.435250e+002, 2.832814e+001
1.440071e+002, 2.858844e+001
1.444893e+002, 2.883446e+001
1.449714e+002, 2.879063e+001
1.454535e+002, 2.823616e+001
1.459356e+002, 2.760655e+001
1.464177e+002, 2.734887e+001
1.468998e+002, 2.779489e+001
1.473820e+002, 2.807904e+001
1.478641e+002, 2.796711e+001
1.483462e+002, 2.736884e+001
1.488283e+002, 2.701391e+001
1.493104e+002, 2.704682e+001
1.497925e+002, 2.725313e+001
1.502747e+002, 2.738662e+001
1.507568e+002, 2.740152e+001
1.512389e+002, 2.738796e+001
1.517210e+002, 2.732255e+001
1.522031e+002, 2.712003e+001
1.526852e+002, 2.713554e+001
1.531674e+002, 2.743360e+001
1.536495e+002, 2.793959e+001
1.541316e+002, 2.854534e+001
1.546137e+002, 2.948064e+001
1.550958e+002, 3.031049e+001
1.555779e+002, 3.082823e+001
1.560601e+002, 3.074757e+001
1.565422e+002, 3.099074e+001
1.570243e+002, 3.177099e+001
1.575064e+002, 3.295732e+001
1.579885e+002, 3.429601e+001
1.584706e+002, 3.583375e+001
1.589528e+002, 3.743763e+001
1.594349e+002, 3.899118e+001
1.599170e+002, 4.017620e+001
1.603991e+002, 4.184556e+001
1.608812e+002, 4.429271e+001
1.613633e+002, 4.740857e+001
1.618455e+002, 5.090661e+001
1.623276e+002, 5.460692e+001
1.628097e+002, 5.868330e+001
1.632918e+002, 6.332851e+001
1.637739e+002, 6.861099e+001
1.642560e+002, 7.437859e+001
1.647382e+002, 8.051638e+001
1.652203e+002, 8.706802e+001
1.657024e+002, 9.420044e+001
1.661845e+002, 1.020869e+002
1.666666e+002, 1.105845e+002
1.671487e+002, 1.194563e+002
1.676309e+002, 1.285706e+002
1.681130e+002, 1.382498e+002
1.685951e+002, 1.488050e+002
1.690772e+002, 1.601603e+002
1.695593e+002, 1.715932e+002
1.700414e+002, 1.827375e+002
1.705236e+002, 1.937474e+002
1.710057e+002, 2.046653e+002
1.714878e+002, 2.158773e+002
1.719699e+002, 2.268814e+002
1.724520e+002, 2.370673e+002
1.729341e+002, 2.465140e+002
1.734163e+002, 2.556297e+002
1.738984e+002, 2.646933e+002
1.743805e+002, 2.737001e+002
1.748626e+002, 2.823651e+002
1.753447e+002, 2.906069e+002
1.758268e+002, 2.986163e+002
1.763090e+002, 3.066029e+002
1.767911e+002, 3.144979e+002
1.772732e+002, 3.223774e+002
1.777553e+002, 3.289747e+002
1.782374e+002, 3.340581e+002
1.787195e+002, 3.386510e+002
1.792017e+002, 3.426957e+002
1.796838e+002, 3.467838e+002
1.801659e+002, 3.517520e+002
1.806480e+002, 3.576670e+002
1.811301e+002, 3.641197e+002
1.816122e+002, 3.708575e+002
1.820944e+002, 3.779173e+002
1.825765e+002, 3.852475e+002
1.830586e+002, 3.929450e+002
1.835407e+002, 4.008841e+002
1.840228e+002, 4.092534e+002
1.845049e+002, 4.180254e+002
1.849871e+002, 4.269722e+002
1.854692e+002, 4.357881e+002
1.859513e+002, 4.445204e+002
1.864334e+002, 4.529250e+002
1.869155e+002, 4.607890e+002
1.873976e+002, 4.682728e+002
1.878798e+002, 4.761402e+002
1.883619e+002, 4.844847e+002
1.888440e+002, 4.928423e+002
1.893261e+002, 5.004214e+002
1.898082e+002, 5.073169e+002
1.902903e+002, 5.138354e+002
1.907725e+002, 5.201336e+002
1.912546e+002, 5.262680e+002
1.917367e+002, 5.319811e+002
1.922188e+002, 5.372341e+002
1.927009e+002, 5.422245e+002
1.931830e+002, 5.472092e+002
1.936652e+002, 5.521722e+002
1.941473e+002, 5.569158e+002
1.946294e+002, 5.613463e+002
1.951115e+002, 5.654563e+002
1.955936e+002, 5.690378e+002
1.960757e+002, 5.719570e+002
1.965579e+002, 5.745592e+002
1.970400e+002, 5.776208e+002
1.975221e+002, 5.812095e+002
1.980042e+002, 5.845369e+002
1.984863e+002, 5.868367e+002
1.989684e+002, 5.880771e+002
1.994506e+002, 5.905096e+002
1.999327e+002, 5.945839e+002
2.004148e+002, 5.995024e+002
2.008969e+002, 6.034447e+002
2.013790e+002, 6.063134e+002
2.018611e+002, 6.089762e+002
2.023433e+002, 6.118953e+002
2.028254e+002, 6.150817e+002
2.033075e+002, 6.185040e+002
2.037896e+002, 6.223068e+002
2.042717e+002, 6.261768e+002
2.047538e+002, 6.290281e+002
2.052360e+002, 6.305068e+002
2.057181e+002, 6.322339e+002
2.062002e+002, 6.353746e+002
2.066823e+002, 6.402027e+002
2.071644e+002, 6.445358e+002
2.076465e+002, 6.480560e+002
2.081287e+002, 6.510303e+002
2.086108e+002, 6.545350e+002
2.090929e+002, 6.589129e+002
2.095750e+002, 6.628766e+002
2.100571e+002, 6.653522e+002
2.105392e+002, 6.659152e+002
2.110214e+002, 6.671266e+002
2.115035e+002, 6.694475e+002
2.119856e+002, 6.724905e+002
2.124677e+002, 6.749462e+002
2.129498e+002, 6.766671e+002
2.134319e+002, 6.781896e+002
2.139140e+002, 6.799005e+002
2.143962e+002, 6.819420e+002
2.148783e+002, 6.837195e+002
2.153604e+002, 6.851406e+002
2.158425e+002, 6.862733e+002
2.163246e+002, 6.871995e+002
2.168067e+002, 6.876191e+002
2.172889e+002, 6.884093e+002
2.177710e+002, 6.904017e+002
2.182531e+002, 6.944425e+002
2.187352e+002, 6.970793e+002
2.192173e+002, 6.975925e+002
2.196994e+002, 6.964725e+002
2.201816e+002, 6.960134e+002
2.206637e+002, 6.962854e+002
2.211458e+002, 6.970319e+002
2.216279e+002, 6.981971e+002
2.221100e+002, 7.001097e+002
2.225921e+002, 7.015306e+002
2.230743e+002, 7.020917e+002
2.235564e+002, 7.020760e+002
2.240385e+002, 7.029487e+002
2.245206e+002, 7.052172e+002
2.250027e+002, 7.075671e+002
2.254848e+002, 7.091051e+002
2.259670e+002, 7.092867e+002
2.264491e+002, 7.100225e+002
2.269312e+002, 7.117225e+002
2.274133e+002, 7.141235e+002
2.278954e+002, 7.159802e+002
2.283775e+002, 7.169767e+002
2.288597e+002, 7.178512e+002
2.293418e+002, 7.190727e+002
2.298239e+002, 7.209063e+002
2.303060e+002, 7.224154e+002
2.307881e+002, 7.232762e+002
2.312702e+002, 7.237119e+002
2.317524e+002, 7.248558e+002
2.322345e+002, 7.271317e+002
2.327166e+002, 7.294518e+002
2.331987e+002, 7.311386e+002
2.336808e+002, 7.319214e+002
2.341629e+002, 7.326066e+002
2.346451e+002, 7.331434e+002
2.351272e+002, 7.336013e+002
2.356093e+002, 7.344010e+002
2.360914e+002, 7.360161e+002
2.365735e+002, 7.373257e+002
2.370556e+002, 7.376222e+002
2.375378e+002, 7.363090e+002
2.380199e+002, 7.353005e+002
2.385020e+002, 7.346701e+002
2.389841e+002, 7.344329e+002
2.394662e+002, 7.347353e+002
2.399483e+002, 7.361164e+002
2.404305e+002, 7.373467e+002
2.409126e+002, 7.376669e+002
2.413947e+002, 7.363063e+002
2.418768e+002, 7.358290e+002
2.423589e+002, 7.367936e+002
2.428410e+002, 7.386986e+002
2.433232e+002, 7.396821e+002
2.438053e+002, 7.390214e+002
2.442874e+002, 7.384174e+002
2.447695e+002, 7.387839e+002
2.452516e+002, 7.406684e+002
2.457337e+002, 7.422645e+002
2.462159e+002, 7.435114e+002
2.466980e+002, 7.444143e+002
2.471801e+002, 7.449361e+002
2.476622e+002, 7.447639e+002
2.481443e+002, 7.446606e+002
2.486264e+002, 7.450579e+002
2.491086e+002, 7.463701e+002
2.495907e+002, 7.471585e+002
2.500728e+002, 7.471961e+002
2.505549e+002, 7.467624e+002
2.510370e+002, 7.465506e+002
2.515191e+002, 7.464623e+002
2.520013e+002, 7.467820e+002
2.524834e+002, 7.478066e+002
2.529655e+002, 7.501559e+002
2.534476e+002, 7.515836e+002
2.539297e+002, 7.518781e+002
2.544118e+002, 7.513596e+002
2.548940e+002, 7.506722e+002
2.553761e+002, 7.496453e+002
2.558582e+002, 7.487428e+002
2.563403e+002, 7.481993e+002
2.568224e+002, 7.481620e+002
2.573046e+002, 7.478990e+002
2.577867e+002, 7.471193e+002
2.582688e+002, 7.462753e+002
2.587509e+002, 7.464033e+002
2.592330e+002, 7.480689e+002
2.597151e+002, 7.495203e+002
2.601973e+002, 7.500754e+002
2.606794e+002, 7.495809e+002
2.611615e+002, 7.487433e+002
2.616436e+002, 7.472672e+002
2.621257e+002, 7.457213e+002
2.626078e+002, 7.452479e+002
2.630900e+002, 7.464485e+002
2.635721e+002, 7.473262e+002
2.640542e+002, 7.469952e+002
2.645363e+002, 7.451544e+002
2.650184e+002, 7.443502e+002
2.655005e+002, 7.451238e+002
2.659827e+002, 7.463151e+002
2.664648e+002, 7.459881e+002
2.669469e+002, 7.433854e+002
2.674290e+002, 7.415233e+002
2.679111e+002, 7.417322e+002
2.683932e+002, 7.442236e+002
2.688754e+002, 7.449682e+002
2.693575e+002, 7.433508e+002
2.698396e+002, 7.409059e+002
2.703217e+002, 7.395673e+002
2.708038e+002, 7.395106e+002
2.712859e+002, 7.398439e+002
2.717681e+002, 7.405110e+002
2.722502e+002, 7.414717e+002
2.727323e+002, 7.417155e+002
2.732144e+002, 7.410399e+002
2.736965e+002, 7.400364e+002
2.741786e+002, 7.393990e+002
2.746608e+002, 7.392384e+002
2.751429e+002, 7.387698e+002
2.756250e+002, 7.375424e+002
2.761071e+002, 7.357751e+002
2.765892e+002, 7.352601e+002
2.770714e+002, 7.363038e+002
2.775535e+002, 7.377549e+002
2.780356e+002, 7.387869e+002
2.785177e+002, 7.394536e+002
2.789998e+002, 7.390060e+002
2.794819e+002, 7.368976e+002
2.799641e+002, 7.336268e+002
2.804462e+002, 7.315635e+002
2.809283e+002, 7.309077e+002
2.814104e+002, 7.305640e+002
2.818925e+002, 7.294554e+002
2.823746e+002, 7.275654e+002
2.828568e+002, 7.264639e+002
2.833389e+002, 7.267840e+002
2.838210e+002, 7.277861e+002
2.843031e+002, 7.271612e+002
2.847852e+002, 7.247455e+002
2.852673e+002, 7.222317e+002
2.857495e+002, 7.208426e+002
2.862316e+002, 7.205131e+002
2.867137e+002, 7.203005e+002
2.871958e+002, 7.201473e+002
2.876779e+002, 7.199826e+002
2.881600e+002, 7.195040e+002
2.886422e+002, 7.186991e+002
2.891243e+002, 7.181719e+002
2.896064e+002, 7.182455e+002
2.900885e+002, 7.188906e+002
2.905706e+002, 7.202844e+002
2.910527e+002, 7.227562e+002
2.915349e+002, 7.251522e+002
2.920170e+002, 7.252947e+002
2.924991e+002, 7.233484e+002
2.929812e+002, 7.212902e+002
2.934633e+002, 7.201945e+002
2.939454e+002, 7.198352e+002
2.944276e+002, 7.195977e+002
2.949097e+002, 7.194874e+002
2.953918e+002, 7.193472e+002
2.958739e+002, 7.189385e+002
2.963560e+002, 7.183144e+002
2.968381e+002, 7.176918e+002
2.973203e+002, 7.171185e+002
2.978024e+002, 7.166388e+002
2.982845e+002, 7.163865e+002
2.987666e+002, 7.163843e+002
2.992487e+002, 7.164228e+002
2.997308e+002, 7.158033e+002
3.002130e+002, 7.149767e+002
3.006951e+002, 7.152744e+002
3.011772e+002, 7.187070e+002
3.016593e+002, 7.228314e+002
3.021414e+002, 7.236405e+002
3.026235e+002, 7.211946e+002
3.031057e+002, 7.184593e+002
3.035878e+002, 7.180990e+002
3.040699e+002, 7.191793e+002
3.045520e+002, 7.200026e+002
3.050341e+002, 7.200156e+002
3.055162e+002, 7.195400e+002
3.059984e+002, 7.185732e+002
3.064805e+002, 7.172422e+002
3.069626e+002, 7.163451e+002
3.074447e+002, 7.168227e+002
3.079268e+002, 7.179466e+002
3.084089e+002, 7.187824e+002
3.088911e+002, 7.190682e+002
3.093732e+002, 7.190406e+002
3.098553e+002, 7.188346e+002
3.103374e+002, 7.184623e+002
3.108195e+002, 7.179523e+002
3.113016e+002, 7.169374e+002
3.117838e+002, 7.159929e+002
3.122659e+002, 7.157354e+002
3.127480e+002, 7.166017e+002
3.132301e+002, 7.173941e+002
3.137122e+002, 7.171151e+002
3.141943e+002, 7.162408e+002
3.146765e+002, 7.157820e+002
3.151586e+002, 7.166513e+002
3.156407e+002, 7.177576e+002
3.161228e+002, 7.183670e+002
3.166049e+002, 7.182546e+002
3.170870e+002, 7.182172e+002
3.175692e+002, 7.188080e+002
3.180513e+002, 7.196463e+002
3.185334e+002, 7.201945e+002
3.190155e+002, 7.202927e+002
3.194976e+002, 7.200582e+002
3.199797e+002, 7.193986e+002
3.204619e+002, 7.182638e+002
3.209440e+002, 7.172986e+002
3.214261e+002, 7.167072e+002
3.219082e+002, 7.163669e+002
3.223903e+002, 7.161639e+002
3.228724e+002, 7.153249e+002
3.233546e+002, 7.153573e+002
3.238367e+002, 7.174811e+002
3.243188e+002, 7.215604e+002
3.248009e+002, 7.239512e+002
3.252830e+002, 7.231149e+002
3.257651e+002, 7.209922e+002
3.262473e+002, 7.188391e+002
3.267294e+002, 7.160001e+002
3.272115e+002, 7.140556e+002
3.276936e+002, 7.135557e+002
3.281757e+002, 7.142403e+002
3.286578e+002, 7.147374e+002
3.291400e+002, 7.151103e+002
3.296221e+002, 7.152540e+002
3.301042e+002, 7.150911e+002
3.305863e+002, 7.141349e+002
3.310684e+002, 7.136937e+002
3.315505e+002, 7.139827e+002
3.320327e+002, 7.147346e+002
3.325148e+002, 7.153702e+002
3.329969e+002, 7.158222e+002
3.334790e+002, 7.161934e+002
3.339611e+002, 7.164581e+002
3.344432e+002, 7.164994e+002
3.349254e+002, 7.168012e+002
3.354075e+002, 7.173649e+002
3.358896e+002, 7.181438e+002
3.363717e+002, 7.192492e+002
3.368538e+002, 7.211475e+002
3.373359e+002, 7.221513e+002
3.378180e+002, 7.214801e+002
3.383001e+002, 7.191796e+002
3.387823e+002, 7.177439e+002
3.392644e+002, 7.173430e+002
3.397465e+002, 7.175295e+002
3.402286e+002, 7.180606e+002
3.407107e+002, 7.190726e+002
3.411928e+002, 7.196902e+002
3.416750e+002, 7.197343e+002
3.421571e+002, 7.192813e+002
3.426392e+002, 7.184662e+002
3.431213e+002, 7.172048e+002
3.436034e+002, 7.160355e+002
3.440855e+002, 7.153205e+002
3.445677e+002, 7.150589e+002
3.450498e+002, 7.150837e+002
3.455319e+002, 7.154490e+002
3.460140e+002, 7.159760e+002
3.464961e+002, 7.163123e+002
3.469782e+002, 7.164639e+002
3.474604e+002, 7.166177e+002
3.479425e+002, 7.169215e+002
3.484246e+002, 7.173188e+002
3.489067e+002, 7.175190e+002
3.493888e+002, 7.174500e+002
3.498709e+002, 7.174678e+002
3.503531e+002, 7.181978e+002
3.508352e+002, 7.194368e+002
3.513173e+002, 7.204304e+002
3.517994e+002, 7.206566e+002
3.522815e+002, 7.204984e+002
3.527636e+002, 7.205606e+002
3.532458e+002, 7.208369e+002
3.537279e+002, 7.212452e+002
3.542100e+002, 7.217598e+002
3.546921e+002, 7.223431e+002
3.551742e+002, 7.229621e+002
3.556563e+002, 7.238500e+002
3.561385e+002, 7.245045e+002
3.566206e+002, 7.241415e+002
3.571027e+002, 7.229806e+002
3.575848e+002, 7.221335e+002
3.580669e+002, 7.229110e+002
3.585490e+002, 7.239908e+002
3.590312e+002, 7.239926e+002
3.595133e+002, 7.221848e+002
3.599954e+002, 7.203482e+002
3.604775e+002, 7.191885e+002
3.609596e+002, 7.187560e+002
3.614417e+002, 7.191575e+002
3.619239e+002, 7.216787e+002
3.624060e+002, 7.241014e+002
3.628881e+002, 7.251418e+002
3.633702e+002, 7.244900e+002
3.638523e+002, 7.234266e+002
3.643344e+002, 7.217823e+002
3.648166e+002, 7.201507e+002
3.652987e+002, 7.192024e+002
3.657808e+002, 7.196048e+002
3.662629e+002, 7.202224e+002
3.667450e+002, 7.208494e+002
3.672271e+002, 7.214734e+002
3.677093e+002, 7.219598e+002
3.681914e+002, 7.223474e+002
3.686735e+002, 7.225478e+002
3.691556e+002, 7.224963e+002
3.696377e+002, 7.217122e+002
3.701198e+002, 7.212597e+002
3.706020e+002, 7.211641e+002
3.710841e+002, 7.214155e+002
3.715662e+002, 7.220370e+002
3.720483e+002, 7.234117e+002
3.725304e+002, 7.246671e+002
3.730125e+002, 7.254607e+002
3.734947e+002, 7.257421e+002
3.739768e+002, 7.256113e+002
3.744589e+002, 7.247799e+002
3.749410e+002, 7.237645e+002
3.754231e+002, 7.234612e+002
3.759052e+002, 7.241201e+002
3.763874e+002, 7.248431e+002
3.768695e+002, 7.255343e+002
3.773516e+002, 7.261931e+002
3.778337e+002, 7.258449e+002
3.783158e+002, 7.241709e+002
3.787979e+002, 7.224147e+002
3.792801e+002, 7.219816e+002
3.797622e+002, 7.229444e+002
3.802443e+002, 7.236691e+002
3.807264e+002, 7.237474e+002
3.812085e+002, 7.234715e+002
3.816906e+002, 7.235635e+002
3.821728e+002, 7.240153e+002
3.826549e+002, 7.247720e+002
3.831370e+002, 7.259417e+002
3.836191e+002, 7.274016e+002
3.841012e+002, 7.287045e+002
3.845833e+002, 7.298456e+002
3.850655e+002, 7.306636e+002
3.855476e+002, 7.309224e+002
3.860297e+002, 7.306677e+002
3.865118e+002, 7.300710e+002
3.869939e+002, 7.284951e+002
3.874760e+002, 7.269156e+002
3.879582e+002, 7.271362e+002
3.884403e+002, 7.292137e+002
3.889224e+002, 7.312147e+002
3.894045e+002, 7.315829e+002
3.898866e+002, 7.308959e+002
3.903687e+002, 7.298961e+002
3.908509e+002, 7.281447e+002
3.913330e+002, 7.269318e+002
3.918151e+002, 7.277955e+002
3.922972e+002, 7.301929e+002
3.927793e+002, 7.319073e+002
3.932614e+002, 7.310208e+002
3.937436e+002, 7.295588e+002
3.942257e+002, 7.290428e+002
3.947078e+002, 7.301942e+002
3.951899e+002, 7.311705e+002
3.956720e+002, 7.308536e+002
3.961541e+002, 7.300184e+002
3.966363e+002, 7.299144e+002
3.971184e+002, 7.318107e+002
3.976005e+002, 7.335768e+002
3.980826e+002, 7.343760e+002
3.985647e+002, 7.340318e+002
3.990468e+002, 7.338796e+002
3.995290e+002, 7.344059e+002
4.000111e+002, 7.349708e+002
4.004932e+002, 7.350557e+002
4.009753e+002, 7.341883e+002
4.014574e+002, 7.334767e+002
4.019395e+002, 7.330457e+002
4.024217e+002, 7.328573e+002
4.029038e+002, 7.327179e+002
4.033859e+002, 7.325111e+002
4.038680e+002, 7.325316e+002
4.043501e+002, 7.329533e+002
4.048322e+002, 7.338713e+002
4.053144e+002, 7.349152e+002
4.057965e+002, 7.362538e+002
4.062786e+002, 7.375029e+002
4.067607e+002, 7.378851e+002
4.072428e+002, 7.372082e+002
4.077249e+002, 7.366920e+002
4.082071e+002, 7.366885e+002
4.086892e+002, 7.371763e+002
4.091713e+002, 7.382817e+002
4.096534e+002, 7.401562e+002
4.101355e+002, 7.417603e+002
4.106176e+002, 7.417678e+002
4.110998e+002, 7.404967e+002
4.115819e+002, 7.398890e+002
4.120640e+002, 7.405124e+002
4.125461e+002, 7.416331e+002
4.130282e+002, 7.423434e+002
4.135103e+002, 7.425917e+002
4.139925e+002, 7.421270e+002
4.144746e+002, 7.399228e+002
4.149567e+002, 7.371904e+002
4.154388e+002, 7.360018e+002
4.159209e+002, 7.366242e+002
4.164030e+002, 7.377084e+002
4.168852e+002, 7.383720e+002
4.173673e+002, 7.387051e+002
4.178494e+002, 7.388596e+002
4.183315e+002, 7.389041e+002
4.188136e+002, 7.387996e+002
4.192957e+002, 7.383284e+002
4.197779e+002, 7.375980e+002
4.202600e+002, 7.372324e+002
4.207421e+002, 7.378289e+002
4.212242e+002, 7.387299e+002
4.217063e+002, 7.394418e+002
4.221884e+002, 7.397681e+002
4.226706e+002, 7.401465e+002
4.231527e+002, 7.410358e+002
4.236348e+002, 7.420162e+002
4.241169e+002, 7.423038e+002
4.245990e+002, 7.407028e+002
4.250811e+002, 7.394216e+002
4.255633e+002, 7.392597e+002
4.260454e+002, 7.404047e+002
4.265275e+002, 7.412817e+002
4.270096e+002, 7.418271e+002
4.274917e+002, 7.421361e+002
4.279738e+002, 7.422148e+002
4.284560e+002, 7.416922e+002
4.289381e+002, 7.417487e+002
4.294202e+002, 7.428986e+002
4.299023e+002, 7.446248e+002
4.303844e+002, 7.450576e+002
4.308665e+002, 7.437825e+002
4.313487e+002, 7.423809e+002
4.318308e+002, 7.416290e+002
4.323129e+002, 7.415555e+002
4.327950e+002, 7.416353e+002
4.332771e+002, 7.418705e+002
4.337592e+002, 7.422672e+002
4.342414e+002, 7.429552e+002
4.347235e+002, 7.439028e+002
4.352056e+002, 7.446663e+002
4.356877e+002, 7.451065e+002
4.361698e+002, 7.452877e+002
4.366519e+002, 7.452693e+002
4.371341e+002, 7.450673e+002
4.376162e+002, 7.448818e+002
4.380983e+002, 7.448228e+002
4.385804e+002, 7.448924e+002
4.390625e+002, 7.451033e+002
4.395446e+002, 7.454758e+002
4.400268e+002, 7.459337e+002
4.405089e+002, 7.464246e+002
4.409910e+002, 7.469498e+002
4.414731e+002, 7.475040e+002
4.419552e+002, 7.481234e+002
4.424373e+002, 7.487366e+002
4.429195e+002, 7.492911e+002
4.434016e+002, 7.497800e+002
4.438837e+002, 7.502565e+002
4.443658e+002, 7.510130e+002
4.448479e+002, 7.515967e+002
4.453300e+002, 7.516251e+002
4.458122e+002, 7.503260e+002
4.462943e+002, 7.493639e+002
4.467764e+002, 7.490126e+002
4.472585e+002, 7.491862e+002
4.477406e+002, 7.496727e+002
4.482227e+002, 7.510314e+002
4.487049e+002, 7.521293e+002
4.491870e+002, 7.525351e+002
4.496691e+002, 7.520676e+002
4.501512e+002, 7.520324e+002
4.506333e+002, 7.526304e+002
4.511154e+002, 7.534596e+002
4.515976e+002, 7.541820e+002
4.520797e+002, 7.548270e+002
4.525618e+002, 7.553152e+002
4.530439e+002, 7.557128e+002
4.535260e+002, 7.559218e+002
4.540081e+002, 7.554385e+002
4.544903e+002, 7.541171e+002
4.549724e+002, 7.530744e+002
4.554545e+002, 7.530386e+002
4.559366e+002, 7.538788e+002
4.564187e+002, 7.547621e+002
4.569008e+002, 7.556881e+002
4.573830e+002, 7.564410e+002
4.578651e+002, 7.565275e+002
4.583472e+002, 7.561688e+002
4.588293e+002, 7.561111e+002
4.593114e+002, 7.567431e+002
4.597935e+002, 7.576191e+002
4.602757e+002, 7.581948e+002
4.607578e+002, 7.585079e+002
4.612399e+002, 7.587978e+002
4.617220e+002, 7.594184e+002
4.622041e+002, 7.599728e+002
4.626862e+002, 7.600042e+002
4.631684e+002, 7.593430e+002
4.636505e+002, 7.586722e+002
4.641326e+002, 7.583573e+002
4.646147e+002, 7.582547e+002
4.650968e+002, 7.581724e+002
4.655789e+002, 7.583011e+002
4.660611e+002, 7.582208e+002
4.665432e+002, 7.574561e+002
4.670253e+002, 7.561487e+002
4.675074e+002, 7.557314e+002
4.679895e+002, 7.573733e+002
4.684716e+002, 7.591473e+002
4.689538e+002, 7.600974e+002
4.694359e+002, 7.596722e+002
4.699180e+002, 7.596267e+002
4.704001e+002, 7.602036e+002
4.708822e+002, 7.609769e+002
4.713643e+002, 7.611877e+002
4.718465e+002, 7.604456e+002
4.723286e+002, 7.602846e+002
4.728107e+002, 7.613373e+002
4.732928e+002, 7.633012e+002
4.737749e+002, 7.644427e+002
4.742570e+002, 7.646284e+002
4.747392e+002, 7.646268e+002
4.752213e+002, 7.652528e+002
4.757034e+002, 7.663174e+002
4.761855e+002, 7.663370e+002
4.766676e+002, 7.649398e+002
4.771497e+002, 7.632433e+002
4.776319e+002, 7.628809e+002
4.781140e+002, 7.635162e+002
4.785961e+002, 7.640508e+002
4.790782e+002, 7.638393e+002
4.795603e+002, 7.633880e+002
4.800424e+002, 7.631781e+002
4.805246e+002, 7.632176e+002
4.810067e+002, 7.635721e+002
4.814888e+002, 7.646290e+002
4.819709e+002, 7.658170e+002
4.824530e+002, 7.665808e+002
4.829352e+002, 7.666260e+002
4.834173e+002, 7.666954e+002
4.838994e+002, 7.671851e+002
4.843815e+002, 7.678507e+002
4.848636e+002, 7.683193e+002
4.853457e+002, 7.685989e+002
4.858279e+002, 7.685710e+002
4.863100e+002, 7.679537e+002
4.867921e+002, 7.667568e+002
4.872742e+002, 7.662101e+002
4.877563e+002, 7.668425e+002
4.882384e+002, 7.676083e+002
4.887206e+002, 7.678538e+002
4.892027e+002, 7.671473e+002
4.896848e+002, 7.671788e+002
4.901669e+002, 7.682502e+002
4.906490e+002, 7.697783e+002
4.911311e+002, 7.709006e+002
4.916133e+002, 7.715896e+002
4.920954e+002, 7.719952e+002
4.925775e+002, 7.720965e+002
4.930596e+002, 7.719563e+002
4.935417e+002, 7.717502e+002
4.940238e+002, 7.714665e+002
4.945060e+002, 7.713015e+002
4.949881e+002, 7.713840e+002
4.954702e+002, 7.716815e+002
4.959523e+002, 7.721371e+002
4.964344e+002, 7.727361e+002
4.969165e+002, 7.734647e+002
4.973987e+002, 7.745632e+002
4.978808e+002, 7.757607e+002
4.983629e+002, 7.765271e+002
4.988450e+002, 7.764822e+002
4.993271e+002, 7.760825e+002
4.998092e+002, 7.753317e+002
5.002914e+002, 7.743655e+002
5.007735e+002, 7.739341e+002
5.012556e+002, 7.750843e+002
5.017377e+002, 7.763064e+002
5.022198e+002, 7.765654e+002
5.027019e+002, 7.750922e+002
5.031841e+002, 7.744095e+002
5.036662e+002, 7.755855e+002
5.041483e+002, 7.774134e+002
5.046304e+002, 7.784749e+002
5.051125e+002, 7.783107e+002
5.055946e+002, 7.781006e+002
5.060768e+002, 7.779675e+002
5.065589e+002, 7.779166e+002
5.070410e+002, 7.780392e+002
5.075231e+002, 7.784457e+002
5.080052e+002, 7.786896e+002
5.084873e+002, 7.784142e+002
5.089695e+002, 7.776108e+002
5.094516e+002, 7.769901e+002
5.099337e+002, 7.764705e+002
5.104158e+002, 7.764606e+002
5.108979e+002, 7.778090e+002
5.113800e+002, 7.801972e+002
5.118622e+002, 7.822161e+002
5.123443e+002, 7.836635e+002
5.128264e+002, 7.843150e+002
5.133085e+002, 7.832950e+002
5.137906e+002, 7.810829e+002
5.142728e+002, 7.793929e+002
5.147549e+002, 7.796867e+002
5.152370e+002, 7.806069e+002
5.157191e+002, 7.810035e+002
5.162012e+002, 7.807716e+002
5.166833e+002, 7.804958e+002
5.171655e+002, 7.803533e+002
5.176476e+002, 7.803491e+002
5.181297e+002, 7.804930e+002
5.186118e+002, 7.811464e+002
5.190939e+002, 7.815105e+002
5.195760e+002, 7.812562e+002
5.200582e+002, 7.806389e+002
5.205403e+002, 7.802512e+002
5.210224e+002, 7.800355e+002
5.215045e+002, 7.801163e+002
5.219866e+002, 7.804239e+002
5.224688e+002, 7.809602e+002
5.229509e+002, 7.825474e+002
5.234330e+002, 7.857610e+002
5.239151e+002, 7.886867e+002
5.243972e+002, 7.895831e+002
5.248793e+002, 7.883890e+002
5.253615e+002, 7.874103e+002
5.258436e+002, 7.866956e+002
5.263257e+002, 7.866399e+002
5.268078e+002, 7.886924e+002
5.272899e+002, 7.922447e+002
5.277720e+002, 7.943077e+002
5.282542e+002, 7.927330e+002
5.287363e+002, 7.897728e+002
5.292184e+002, 7.882272e+002
5.297005e+002, 7.879734e+002
5.301826e+002, 7.882666e+002
5.306647e+002, 7.892149e+002
5.311469e+002, 7.901793e+002
5.316290e+002, 7.905386e+002
5.321111e+002, 7.900801e+002
5.325932e+002, 7.896810e+002
5.330753e+002, 7.901178e+002
5.335574e+002, 7.906190e+002
5.340396e+002, 7.903770e+002
5.345217e+002, 7.874730e+002
5.350038e+002, 7.859367e+002
5.354859e+002, 7.872822e+002
5.359680e+002, 7.904553e+002
5.364501e+002, 7.920484e+002
5.369323e+002, 7.911202e+002
5.374144e+002, 7.902244e+002
5.378965e+002, 7.904470e+002
5.383786e+002, 7.918274e+002
5.388607e+002, 7.921902e+002
5.393428e+002, 7.912104e+002
5.398250e+002, 7.901741e+002
5.403071e+002, 7.904872e+002
5.407892e+002, 7.919730e+002
5.412713e+002, 7.930038e+002
5.417534e+002, 7.932446e+002
5.422355e+002, 7.931765e+002
5.427177e+002, 7.934828e+002
5.431998e+002, 7.940469e+002
5.436819e+002, 7.944915e+002
5.441640e+002, 7.945538e+002
5.446461e+002, 7.944793e+002
5.451282e+002, 7.944584e+002
5.456104e+002, 7.944958e+002
5.460925e+002, 7.946013e+002
5.465746e+002, 7.946495e+002
5.470567e+002, 7.948641e+002
5.475388e+002, 7.955107e+002
5.480209e+002, 7.968666e+002
5.485031e+002, 7.978287e+002
5.489852e+002, 7.977547e+002
5.494673e+002, 7.973759e+002
5.499494e+002, 7.974717e+002
5.504315e+002, 7.984152e+002
5.509136e+002, 7.992708e+002
5.513958e+002, 8.000162e+002
5.518779e+002, 8.005847e+002
5.523600e+002, 8.007455e+002
5.528421e+002, 8.004198e+002
5.533242e+002, 7.999414e+002
5.538063e+002, 7.993360e+002
5.542885e+002, 7.986600e+002
5.547706e+002, 7.984404e+002
5.552527e+002, 7.987140e+002
5.557348e+002, 7.990789e+002
5.562169e+002, 7.992944e+002
5.566990e+002, 7.993320e+002
5.571812e+002, 7.990179e+002
5.576633e+002, 7.982175e+002
5.581454e+002, 7.975154e+002
5.586275e+002, 7.973725e+002
5.591096e+002, 7.977451e+002
5.595917e+002, 7.985508e+002
5.600739e+002, 8.004791e+002
5.605560e+002, 8.021465e+002
5.610381e+002, 8.027640e+002
5.615202e+002, 8.024916e+002
5.620023e+002, 8.020888e+002
5.624844e+002, 8.015229e+002
5.629666e+002, 8.010466e+002
5.634487e+002, 8.007662e+002
5.639308e+002, 8.006777e+002
5.644129e+002, 8.007539e+002
5.648950e+002, 8.009696e+002
5.653771e+002, 8.013635e+002
5.658593e+002, 8.020584e+002
5.663414e+002, 8.032062e+002
5.668235e+002, 8.039679e+002
5.673056e+002, 8.042123e+002
5.677877e+002, 8.041216e+002
5.682698e+002, 8.039332e+002
5.687520e+002, 8.036632e+002
5.692341e+002, 8.035789e+002
5.697162e+002, 8.039988e+002
5.701983e+002, 8.045384e+002
5.706804e+002, 8.044750e+002
5.711625e+002, 8.038663e+002
5.716447e+002, 8.030600e+002
5.721268e+002, 8.018483e+002
5.726089e+002, 8.008132e+002
5.730910e+002, 8.005930e+002
5.735731e+002, 8.013206e+002
5.740552e+002, 8.023778e+002
5.745374e+002, 8.038707e+002
5.750195e+002, 8.053723e+002
5.755016e+002, 8.064860e+002
5.759837e+002, 8.065096e+002
5.764658e+002, 8.068926e+002
5.769479e+002, 8.081667e+002
5.774301e+002, 8.097638e+002
5.779122e+002, 8.104925e+002
5.783943e+002, 8.096871e+002
5.788764e+002, 8.093341e+002
5.793585e+002, 8.102233e+002
5.798406e+002, 8.120630e+002
5.803228e+002, 8.127059e+002
5.808049e+002, 8.119873e+002
5.812870e+002, 8.111246e+002
5.817691e+002, 8.110184e+002
5.822512e+002, 8.114745e+002
5.827333e+002, 8.116917e+002
5.832155e+002, 8.116301e+002
5.836975e+002, 8.114154e+002
5.841796e+002, 8.109579e+002
5.846617e+002, 8.104932e+002
5.851439e+002, 8.104169e+002
5.856260e+002, 8.109596e+002
5.861081e+002, 8.117213e+002
5.865902e+002, 8.127801e+002
5.870723e+002, 8.138596e+002
5.875544e+002, 8.144070e+002
5.880366e+002, 8.134749e+002
5.885187e+002, 8.127853e+002
5.890008e+002, 8.130074e+002
5.894829e+002, 8.140928e+002
5.899650e+002, 8.149695e+002
5.904471e+002, 8.156182e+002
5.909293e+002, 8.160350e+002
5.914114e+002, 8.161490e+002
5.918935e+002, 8.158881e+002
5.923756e+002, 8.157292e+002
5.928577e+002, 8.156316e+002
5.933398e+002, 8.157321e+002
5.938220e+002, 8.164286e+002
5.943041e+002, 8.175910e+002
5.947862e+002, 8.180562e+002
5.952683e+002, 8.174176e+002
5.957504e+002, 8.165703e+002
5.962325e+002, 8.167851e+002
5.967147e+002, 8.177408e+002
5.971968e+002, 8.185789e+002
5.976789e+002, 8.188031e+002
5.981610e+002, 8.188965e+002
5.986431e+002, 8.194099e+002
5.991252e+002, 8.201711e+002
5.996074e+002, 8.203790e+002
6.000895e+002, 8.189869e+002
6.005716e+002, 8.176210e+002
6.010537e+002, 8.171150e+002
6.015358e+002, 8.177263e+002
6.020179e+002, 8.183197e+002
6.025001e+002, 8.191663e+002
6.029822e+002, 8.197065e+002
6.034643e+002, 8.194245e+002
6.039464e+002, 8.180339e+002
6.044285e+002, 8.168358e+002
6.049106e+002, 8.156980e+002
6.053928e+002, 8.151390e+002
6.058749e+002, 8.164603e+002
6.063570e+002, 8.194780e+002
6.068391e+002, 8.216523e+002
6.073212e+002, 8.218534e+002
6.078033e+002, 8.212593e+002
6.082855e+002, 8.217352e+002
6.087676e+002, 8.229975e+002
6.092497e+002, 8.240349e+002
6.097318e+002, 8.242208e+002
6.102139e+002, 8.239850e+002
6.106960e+002, 8.233566e+002
6.111782e+002, 8.223823e+002
6.116603e+002, 8.220742e+002
6.121424e+002, 8.236947e+002
6.126245e+002, 8.254311e+002
6.131066e+002, 8.261005e+002
6.135887e+002, 8.250155e+002
6.140709e+002, 8.242992e+002
6.145530e+002, 8.241567e+002
6.150351e+002, 8.242158e+002
6.155172e+002, 8.240434e+002
6.159993e+002, 8.235413e+002
6.164814e+002, 8.232579e+002
6.169636e+002, 8.232299e+002
6.174457e+002, 8.235186e+002
6.179278e+002, 8.245184e+002
6.184099e+002, 8.261234e+002
6.188920e+002, 8.272792e+002
6.193741e+002, 8.273142e+002
6.198563e+002, 8.268160e+002
6.203384e+002, 8.264744e+002
6.208205e+002, 8.263075e+002
6.213026e+002, 8.264393e+002
6.217847e+002, 8.271819e+002
6.222668e+002, 8.280725e+002
6.227490e+002, 8.289160e+002
6.232311e+002, 8.297473e+002
6.237132e+002, 8.299371e+002
6.241953e+002, 8.286627e+002
6.246774e+002, 8.271583e+002
6.251595e+002, 8.262933e+002
6.256417e+002, 8.263857e+002
6.261238e+002, 8.266194e+002
6.266059e+002, 8.272393e+002
6.270880e+002, 8.277656e+002
6.275701e+002, 8.272855e+002
6.280522e+002, 8.256185e+002
6.285344e+002, 8.247950e+002
6.290165e+002, 8.253748e+002
6.294986e+002, 8.268212e+002
6.299807e+002, 8.284590e+002
6.304628e+002, 8.301649e+002
6.309449e+002, 8.312615e+002
6.314271e+002, 8.308079e+002
6.319092e+002, 8.299614e+002
6.323913e+002, 8.300386e+002
6.328734e+002, 8.309102e+002
6.333555e+002, 8.317657e+002
6.338376e+002, 8.319344e+002
6.343198e+002, 8.321546e+002
6.348019e+002, 8.330754e+002
6.352840e+002, 8.350408e+002
6.357661e+002, 8.361670e+002
6.362482e+002, 8.356534e+002
6.367303e+002, 8.347693e+002
6.372125e+002, 8.343549e+002
6.376946e+002, 8.345338e+002
6.381767e+002, 8.349420e+002
6.386588e+002, 8.357724e+002
6.391409e+002, 8.364940e+002
6.396230e+002, 8.359435e+002
6.401052e+002, 8.342594e+002
6.405873e+002, 8.336481e+002
6.410694e+002, 8.350711e+002
6.415515e+002, 8.371544e+002
6.420336e+002, 8.377226e+002
6.425157e+002, 8.372008e+002
6.429979e+002, 8.368361e+002
6.434800e+002, 8.374403e+002
6.439621e+002, 8.382488e+002
6.444442e+002, 8.387097e+002
6.449263e+002, 8.388769e+002
6.454084e+002, 8.391248e+002
6.458906e+002, 8.397605e+002
6.463727e+002, 8.403395e+002
6.468548e+002, 8.405676e+002
6.473369e+002, 8.403552e+002
6.478190e+002, 8.405462e+002
6.483011e+002, 8.414757e+002
6.487833e+002, 8.423076e+002
6.492654e+002, 8.421749e+002
6.497475e+002, 8.409272e+002
6.502296e+002, 8.407927e+002
6.507117e+002, 8.421266e+002
6.511938e+002, 8.436733e+002
6.516760e+002, 8.434770e+002
6.521581e+002, 8.421631e+002
6.526402e+002, 8.417584e+002
6.531223e+002, 8.431105e+002
6.536044e+002, 8.448396e+002
6.540865e+002, 8.458216e+002
6.545687e+002, 8.462810e+002
6.550508e+002, 8.466636e+002
6.555329e+002, 8.473268e+002
6.560150e+002, 8.477502e+002
6.564971e+002, 8.473595e+002
6.569792e+002, 8.464349e+002
6.574614e+002, 8.464750e+002
6.579435e+002, 8.484365e+002
6.584256e+002, 8.500895e+002
6.589077e+002, 8.506702e+002
6.593898e+002, 8.502151e+002
6.598719e+002, 8.495165e+002
6.603541e+002, 8.484395e+002
6.608362e+002, 8.477414e+002
6.613183e+002, 8.483166e+002
6.618004e+002, 8.497587e+002
6.622825e+002, 8.503171e+002
6.627646e+002, 8.498478e+002
6.632468e+002, 8.493904e+002
6.637289e+002, 8.502382e+002
6.642110e+002, 8.515101e+002
6.646931e+002, 8.519550e+002
6.651752e+002, 8.509374e+002
6.656573e+002, 8.500681e+002
6.661395e+002, 8.502243e+002
6.666216e+002, 8.508649e+002
6.671037e+002, 8.513215e+002
6.675858e+002, 8.514997e+002
6.680679e+002, 8.514538e+002
6.685500e+002, 8.508777e+002
6.690322e+002, 8.502165e+002
6.695143e+002, 8.506346e+002
6.699964e+002, 8.524273e+002
6.704785e+002, 8.538065e+002
6.709606e+002, 8.540484e+002
6.714427e+002, 8.536251e+002
6.719249e+002, 8.538772e+002
6.724070e+002, 8.547284e+002
6.728891e+002, 8.555943e+002
6.733712e+002, 8.558984e+002
6.738533e+002, 8.561605e+002
6.743354e+002, 8.572625e+002
6.748176e+002, 8.590998e+002
6.752997e+002, 8.603807e+002
6.757818e+002, 8.597977e+002
6.762639e+002, 8.589495e+002
6.767460e+002, 8.589163e+002
6.772281e+002, 8.601378e+002
6.777103e+002, 8.608694e+002
6.781924e+002, 8.605446e+002
6.786745e+002, 8.602250e+002
6.791566e+002, 8.608359e+002
6.796387e+002, 8.627164e+002
6.801208e+002, 8.638475e+002
6.806030e+002, 8.640096e+002
6.810851e+002, 8.637322e+002
6.815672e+002, 8.633350e+002
6.820493e+002, 8.629948e+002
6.825314e+002, 8.636567e+002
6.830135e+002, 8.659579e+002
6.834957e+002, 8.683240e+002
6.839778e+002, 8.687531e+002
6.844599e+002, 8.680823e+002
6.849420e+002, 8.678741e+002
6.854241e+002, 8.692747e+002
6.859063e+002, 8.706575e+002
6.863884e+002, 8.713907e+002
6.868705e+002, 8.716273e+002
6.873526e+002, 8.719055e+002
6.878347e+002, 8.720018e+002
6.883168e+002, 8.725834e+002
6.887990e+002, 8.741582e+002
6.892811e+002, 8.764515e+002
6.897632e+002, 8.772520e+002
6.902453e+002, 8.763551e+002
6.907274e+002, 8.754056e+002
6.912095e+002, 8.752990e+002
6.916917e+002, 8.758776e+002
6.921738e+002, 8.770412e+002
6.926559e+002, 8.787157e+002
6.931380e+002, 8.797374e+002
6.936201e+002, 8.781836e+002
6.941022e+002, 8.761773e+002
6.945844e+002, 8.760129e+002
6.950665e+002, 8.782822e+002
6.955486e+002, 8.802862e+002
6.960307e+002, 8.809435e+002
6.965128e+002, 8.810485e+002
6.969949e+002, 8.812167e+002
6.974771e+002, 8.814114e+002
6.979592e+002, 8.818237e+002
6.984413e+002, 8.825956e+002
6.989234e+002, 8.834214e+002
6.994055e+002, 8.839626e+002
6.998876e+002, 8.842312e+002
7.003698e+002, 8.842695e+002
7.008519e+002, 8.840677e+002
7.013340e+002, 8.837430e+002
7.018161e+002, 8.834903e+002
7.022982e+002, 8.832545e+002
7.027803e+002, 8.828425e+002
7.032625e+002, 8.816818e+002
7.037446e+002, 8.809501e+002
7.042267e+002, 8.813434e+002
7.047088e+002, 8.827482e+002
7.051909e+002, 8.849317e+002
7.056730e+002, 8.897492e+002
7.061552e+002, 8.930898e+002
7.066373e+002, 8.933613e+002
7.071194e+002, 8.912855e+002
7.076015e+002, 8.903053e+002
7.080836e+002, 8.907863e+002
7.085657e+002, 8.911977e+002
7.090479e+002, 8.907565e+002
7.095300e+002, 8.897418e+002
7.100121e+002, 8.894328e+002
7.104942e+002, 8.898000e+002
7.109763e+002, 8.902950e+002
7.114584e+002, 8.904354e+002
7.119406e+002, 8.905534e+002
7.124227e+002, 8.912711e+002
7.129048e+002, 8.925919e+002
7.133869e+002, 8.934950e+002
7.138690e+002, 8.933226e+002
7.143511e+002, 8.927027e+002
7.148333e+002, 8.919725e+002
7.153154e+002, 8.910480e+002
7.157975e+002, 8.905652e+002
7.162796e+002, 8.910201e+002
7.167617e+002, 8.913502e+002
7.172438e+002, 8.903582e+002
7.177260e+002, 8.878010e+002
7.182081e+002, 8.870325e+002
7.186902e+002, 8.885628e+002
7.191723e+002, 8.906609e+002
7.196544e+002, 8.911937e+002
7.201365e+002, 8.906959e+002
7.206187e+002, 8.905157e+002
7.211008e+002, 8.910079e+002
7.215829e+002, 8.916705e+002
7.220650e+002, 8.921632e+002
7.225471e+002, 8.925696e+002
7.230292e+002, 8.930165e+002
7.235114e+002, 8.935744e+002
7.239935e+002, 8.940831e+002
7.244756e+002, 8.942194e+002
7.249577e+002, 8.943779e+002
7.254398e+002, 8.953975e+002
7.259219e+002, 8.977280e+002
7.264041e+002, 8.994948e+002
7.268862e+002, 9.002770e+002
7.273683e+002, 9.002602e+002
7.278504e+002, 8.995334e+002
7.283325e+002, 8.982411e+002
7.288146e+002, 8.973852e+002
7.292968e+002, 8.976286e+002
7.297789e+002, 8.983683e+002
7.302610e+002, 8.990535e+002
7.307431e+002, 8.996796e+002
7.312252e+002, 9.002316e+002
7.317073e+002, 9.005945e+002
7.321895e+002, 9.009886e+002
7.326716e+002, 9.016928e+002
7.331537e+002, 9.026425e+002
7.336358e+002, 9.029475e+002
7.341179e+002, 9.023288e+002
7.346000e+002, 9.015486e+002
7.350822e+002, 9.008396e+002
7.355643e+002, 9.002304e+002
7.360464e+002, 9.000342e+002
7.365285e+002, 9.002691e+002
7.370106e+002, 9.006673e+002
7.374927e+002, 9.012244e+002
7.379749e+002, 9.017551e+002
7.384570e+002, 9.018596e+002
7.389391e+002, 9.015328e+002
7.394212e+002, 9.012211e+002
7.399033e+002, 9.012933e+002
7.403854e+002, 9.013977e+002
7.408676e+002, 9.011842e+002
7.413497e+002, 9.004037e+002
7.418318e+002, 9.001826e+002
7.423139e+002, 9.011152e+002
7.427960e+002, 9.020043e+002
7.432781e+002, 9.019102e+002
7.437603e+002, 9.006173e+002
7.442424e+002, 8.999363e+002
7.447245e+002, 9.000081e+002
7.452066e+002, 9.003254e+002
7.456887e+002, 9.003221e+002
7.461708e+002, 9.001592e+002
7.466530e+002, 9.003013e+002
7.471351e+002, 9.008968e+002
7.476172e+002, 9.014650e+002
7.480993e+002, 9.013365e+002
7.485814e+002, 9.011364e+002
7.490635e+002, 9.016005e+002
7.495457e+002, 9.036712e+002
7.500278e+002, 9.051599e+002
7.505099e+002, 9.052939e+002
7.509920e+002, 9.050021e+002
7.514741e+002, 9.053950e+002
7.519562e+002, 9.066717e+002
7.524384e+002, 9.076913e+002
7.529205e+002, 9.082663e+002
7.534026e+002, 9.085283e+002
7.538847e+002, 9.084442e+002
7.543668e+002, 9.081666e+002
7.548489e+002, 9.083978e+002
7.553311e+002, 9.096129e+002
7.558132e+002, 9.108984e+002
7.562953e+002, 9.115189e+002
7.567774e+002, 9.116329e+002
7.572595e+002, 9.115057e+002
7.577416e+002, 9.108000e+002
7.582238e+002, 9.103786e+002
7.587059e+002, 9.106152e+002
7.591880e+002, 9.112442e+002
7.596701e+002, 9.117479e+002
7.601522e+002, 9.121786e+002
7.606343e+002, 9.123615e+002
7.611165e+002, 9.121649e+002
7.615986e+002, 9.118082e+002
7.620807e+002, 9.119972e+002
7.625628e+002, 9.125961e+002
7.630449e+002, 9.127672e+002
7.635270e+002, 9.113874e+002
7.640092e+002, 9.100566e+002
7.644913e+002, 9.105746e+002
7.649734e+002, 9.124203e+002
7.654555e+002, 9.139849e+002
7.659376e+002, 9.143293e+002
7.664197e+002, 9.146420e+002
7.669019e+002, 9.154218e+002
7.673840e+002, 9.165188e+002
7.678661e+002, 9.172464e+002
7.683482e+002, 9.175488e+002
7.688303e+002, 9.175836e+002
7.693124e+002, 9.171705e+002
7.697946e+002, 9.166132e+002
7.702767e+002, 9.170485e+002
7.707588e+002, 9.184114e+002
7.712409e+002, 9.201014e+002
7.717230e+002, 9.225579e+002
7.722051e+002, 9.246076e+002
7.726873e+002, 9.247031e+002
7.731694e+002, 9.230891e+002
7.736515e+002, 9.217487e+002
7.741336e+002, 9.213770e+002
7.746157e+002, 9.214442e+002
7.750978e+002, 9.218686e+002
7.755800e+002, 9.226268e+002
7.760621e+002, 9.231098e+002
7.765442e+002, 9.232613e+002
7.770263e+002, 9.233074e+002
7.775084e+002, 9.232983e+002
7.779905e+002, 9.232744e+002
7.784727e+002, 9.234373e+002
7.789548e+002, 9.237783e+002
7.794369e+002, 9.242305e+002
7.799190e+002, 9.248725e+002
7.804011e+002, 9.255029e+002
7.808832e+002, 9.258270e+002
7.813654e+002, 9.258272e+002
7.818475e+002, 9.260701e+002
7.823296e+002, 9.259772e+002
7.828117e+002, 9.269262e+002
7.832938e+002, 9.302303e+002
7.837759e+002, 9.363707e+002
7.842581e+002, 9.390097e+002
7.847402e+002, 9.372947e+002
7.852223e+002, 9.347332e+002
7.857044e+002, 9.338939e+002
7.861865e+002, 9.342497e+002
7.866686e+002, 9.333636e+002
7.871508e+002, 9.311942e+002
7.876329e+002, 9.294132e+002
7.881150e+002, 9.295496e+002
7.885971e+002, 9.304798e+002
7.890792e+002, 9.310322e+002
7.895613e+002, 9.309767e+002
7.900435e+002, 9.315218e+002
7.905256e+002, 9.340738e+002
7.910077e+002, 9.362726e+002
7.914898e+002, 9.365921e+002
7.919719e+002, 9.345408e+002
7.924540e+002, 9.339924e+002
7.929362e+002, 9.351068e+002
7.934183e+002, 9.370295e+002
7.939004e+002, 9.398992e+002
7.943825e+002, 9.429417e+002
7.948646e+002, 9.435488e+002
7.953467e+002, 9.415190e+002
7.958289e+002, 9.391337e+002
7.963110e+002, 9.375125e+002
7.967931e+002, 9.366552e+002
7.972752e+002, 9.368254e+002
7.977573e+002, 9.384108e+002
7.982394e+002, 9.394298e+002
7.987216e+002, 9.393773e+002
7.992037e+002, 9.390616e+002
7.996858e+002, 9.389286e+002
8.001679e+002, 9.389821e+002
8.006500e+002, 9.394205e+002
8.011321e+002, 9.403549e+002
8.016143e+002, 9.410505e+002
8.020964e+002, 9.401508e+002
8.025785e+002, 9.387296e+002
8.030606e+002, 9.391965e+002
8.035427e+002, 9.419448e+002
8.040248e+002, 9.444514e+002
8.045070e+002, 9.450642e+002
8.049891e+002, 9.449501e+002
8.054712e+002, 9.449028e+002
8.059533e+002, 9.449098e+002
8.064354e+002, 9.453510e+002
8.069175e+002, 9.464230e+002
8.073997e+002, 9.476246e+002
8.078818e+002, 9.486485e+002
8.083639e+002, 9.494818e+002
8.088460e+002, 9.499700e+002
8.093281e+002, 9.500751e+002
8.098102e+002, 9.502311e+002
8.102924e+002, 9.508768e+002
8.107745e+002, 9.517979e+002
8.112566e+002, 9.527936e+002
8.117387e+002, 9.538668e+002
8.122208e+002, 9.546745e+002
8.127029e+002, 9.545452e+002
8.131851e+002, 9.545188e+002
8.136672e+002, 9.554820e+002
8.141493e+002, 9.578736e+002
8.146314e+002, 9.593353e+002
8.151135e+002, 9.596703e+002
8.155956e+002, 9.595335e+002
8.160778e+002, 9.590865e+002
8.165599e+002, 9.585389e+002
8.170420e+002, 9.591551e+002
8.175241e+002, 9.610199e+002
8.180062e+002, 9.627789e+002
8.184883e+002, 9.630380e+002
8.189705e+002, 9.628763e+002
8.194526e+002, 9.635259e+002
8.199347e+002, 9.653226e+002
8.204168e+002, 9.663689e+002
8.208989e+002, 9.654553e+002
8.213810e+002, 9.644296e+002
8.218632e+002, 9.643026e+002
8.223453e+002, 9.652170e+002
8.228274e+002, 9.656415e+002
8.233095e+002, 9.655157e+002
8.237916e+002, 9.653321e+002
8.242737e+002, 9.655185e+002
8.247559e+002, 9.659349e+002
8.252380e+002, 9.663243e+002
8.257201e+002, 9.666729e+002
8.262022e+002, 9.669465e+002
8.266843e+002, 9.666425e+002
8.271664e+002, 9.666358e+002
8.276486e+002, 9.678759e+002
8.281307e+002, 9.707972e+002
8.286128e+002, 9.720339e+002
8.290949e+002, 9.705119e+002
8.295770e+002, 9.691472e+002
8.300591e+002, 9.697526e+002
8.305413e+002, 9.721024e+002
8.310234e+002, 9.737410e+002
8.315055e+002, 9.746667e+002
8.319876e+002, 9.753135e+002
8.324697e+002, 9.761775e+002
8.329518e+002, 9.768120e+002
8.334340e+002, 9.763505e+002
8.339161e+002, 9.748832e+002
8.343982e+002, 9.742177e+002
8.348803e+002, 9.759089e+002
8.353624e+002, 9.776305e+002
8.358445e+002, 9.781608e+002
8.363267e+002, 9.775871e+002
8.368088e+002, 9.782982e+002
8.372909e+002, 9.806996e+002
8.377730e+002, 9.825162e+002
8.382551e+002, 9.819315e+002
8.387372e+002, 9.800250e+002
8.392194e+002, 9.794506e+002
8.397015e+002, 9.800840e+002
8.401836e+002, 9.811891e+002
8.406657e+002, 9.828448e+002
8.411478e+002, 9.843860e+002
8.416299e+002, 9.853112e+002
8.421121e+002, 9.856671e+002
8.425942e+002, 9.860548e+002
8.430763e+002, 9.866132e+002
8.435584e+002, 9.869780e+002
8.440405e+002, 9.867676e+002
8.445226e+002, 9.863485e+002
8.450048e+002, 9.874860e+002
8.454869e+002, 9.900646e+002
8.459690e+002, 9.924235e+002
8.464511e+002, 9.938646e+002
8.469332e+002, 9.945267e+002
8.474153e+002, 9.940280e+002
8.478975e+002, 9.928376e+002
8.483796e+002, 9.922737e+002
8.488617e+002, 9.934453e+002
8.493438e+002, 9.945888e+002
8.498259e+002, 9.950691e+002
8.503080e+002, 9.952208e+002
8.507902e+002, 9.958759e+002
8.512723e+002, 9.970584e+002
8.517544e+002, 9.987055e+002
8.522365e+002, 1.001098e+003
8.527186e+002, 1.003485e+003
8.532007e+002, 1.004228e+003
8.536829e+002, 1.003848e+003
8.541650e+002, 1.003776e+003
8.546471e+002, 1.004722e+003
8.551292e+002, 1.005895e+003
8.556113e+002, 1.006811e+003
8.560934e+002, 1.007707e+003
8.565756e+002, 1.009149e+003
8.570577e+002, 1.012070e+003
8.575398e+002, 1.013486e+003
8.580219e+002, 1.012597e+003
8.585040e+002, 1.010838e+003
8.589861e+002, 1.010506e+003
8.594683e+002, 1.011395e+003
8.599504e+002, 1.012438e+003
8.604325e+002, 1.013370e+003
8.609146e+002, 1.014398e+003
8.613967e+002, 1.015948e+003
8.618788e+002, 1.017584e+003
8.623610e+002, 1.018785e+003
8.628431e+002, 1.019314e+003
8.633252e+002, 1.019541e+003
8.638073e+002, 1.019120e+003
8.642894e+002, 1.018833e+003
8.647715e+002, 1.019757e+003
8.652537e+002, 1.022021e+003
8.657358e+002, 1.023059e+003
8.662179e+002, 1.022619e+003
8.667000e+002, 1.021556e+003
8.671821e+002, 1.020276e+003
8.676642e+002, 1.019138e+003
8.681464e+002, 1.018496e+003
8.686285e+002, 1.018299e+003
8.691106e+002, 1.019441e+003
8.695927e+002, 1.023696e+003
8.700748e+002, 1.028255e+003
8.705569e+002, 1.031254e+003
8.710391e+002, 1.032475e+003
8.715212e+002, 1.033342e+003
8.720033e+002, 1.033755e+003
8.724854e+002, 1.034038e+003
8.729675e+002, 1.034447e+003
8.734496e+002, 1.034859e+003
8.739318e+002, 1.034909e+003
8.744139e+002, 1.034606e+003
8.748960e+002, 1.034398e+003
8.753781e+002, 1.034759e+003
8.758602e+002, 1.035108e+003
8.763423e+002, 1.034951e+003
8.768245e+002, 1.034299e+003
8.773066e+002, 1.034201e+003
8.777887e+002, 1.034779e+003
8.782708e+002, 1.035784e+003
8.787529e+002, 1.037429e+003
8.792350e+002, 1.039351e+003
8.797172e+002, 1.039950e+003
8.801993e+002, 1.039479e+003
8.806814e+002, 1.039467e+003
8.811635e+002, 1.041451e+003
8.816456e+002, 1.043578e+003
8.821277e+002, 1.044153e+003
8.826099e+002, 1.043719e+003
8.830920e+002, 1.043936e+003
8.835741e+002, 1.045782e+003
8.840562e+002, 1.047257e+003
8.845383e+002, 1.047773e+003
8.850204e+002, 1.047921e+003
8.855026e+002, 1.049133e+003
8.859847e+002, 1.051318e+003
8.864668e+002, 1.053397e+003
8.869489e+002, 1.055013e+003
8.874310e+002, 1.056486e+003
8.879131e+002, 1.058215e+003
8.883953e+002, 1.060009e+003
8.888774e+002, 1.061628e+003
8.893595e+002, 1.063698e+003
8.898416e+002, 1.064505e+003
8.903237e+002, 1.063040e+003
8.908058e+002, 1.060948e+003
8.912880e+002, 1.059749e+003
8.917701e+002, 1.059448e+003
8.922522e+002, 1.060500e+003
8.927343e+002, 1.063181e+003
8.932164e+002, 1.065740e+003
8.936985e+002, 1.065844e+003
8.941807e+002, 1.064859e+003
8.946628e+002, 1.064830e+003
8.951449e+002, 1.066195e+003
8.956270e+002, 1.067592e+003
8.961091e+002, 1.068695e+003
8.965912e+002, 1.069541e+003
8.970734e+002, 1.070134e+003
8.975555e+002, 1.070448e+003
8.980376e+002, 1.070837e+003
8.985197e+002, 1.071293e+003
8.990018e+002, 1.071945e+003
8.994839e+002, 1.072871e+003
8.999661e+002, 1.074071e+003
9.004482e+002, 1.075801e+003
9.009303e+002, 1.077929e+003
9.014124e+002, 1.079535e+003
9.018945e+002, 1.079897e+003
9.023766e+002, 1.079909e+003
9.028588e+002, 1.079522e+003
9.033409e+002, 1.079042e+003
9.038230e+002, 1.080051e+003
9.043051e+002, 1.082993e+003
9.047872e+002, 1.085623e+003
9.052693e+002, 1.087127e+003
9.057515e+002, 1.087975e+003
9.062336e+002, 1.088953e+003
9.067157e+002, 1.090080e+003
9.071978e+002, 1.091451e+003
9.076799e+002, 1.093640e+003
9.081620e+002, 1.095396e+003
9.086442e+002, 1.095805e+003
9.091263e+002, 1.095553e+003
9.096084e+002, 1.095834e+003
9.100905e+002, 1.097008e+003
9.105726e+002, 1.097759e+003
9.110547e+002, 1.097768e+003
9.115369e+002, 1.097880e+003
9.120190e+002, 1.099684e+003
9.125011e+002, 1.102479e+003
9.129832e+002, 1.104073e+003
9.134653e+002, 1.103902e+003
9.139474e+002, 1.103802e+003
9.144296e+002, 1.104992e+003
9.149117e+002, 1.106711e+003
9.153938e+002, 1.108405e+003
9.158759e+002, 1.110120e+003
9.163580e+002, 1.111211e+003
9.168401e+002, 1.111354e+003
9.173223e+002, 1.111619e+003
9.178044e+002, 1.113249e+003
9.182865e+002, 1.115597e+003
9.187686e+002, 1.115714e+003
9.192507e+002, 1.113888e+003
9.197328e+002, 1.112902e+003
9.202150e+002, 1.115722e+003
9.206971e+002, 1.118845e+003
9.211792e+002, 1.119918e+003
9.216613e+002, 1.119154e+003
9.221434e+002, 1.118895e+003
9.226255e+002, 1.119186e+003
9.231077e+002, 1.120115e+003
9.235898e+002, 1.122022e+003
9.240719e+002, 1.124246e+003
9.245540e+002, 1.124755e+003
9.250361e+002, 1.124115e+003
9.255182e+002, 1.124742e+003
9.260004e+002, 1.128488e+003
9.264825e+002, 1.132137e+003
9.269646e+002, 1.133117e+003
9.274467e+002, 1.132911e+003
9.279288e+002, 1.133859e+003
9.284109e+002, 1.137512e+003
9.288931e+002, 1.139265e+003
9.293752e+002, 1.138314e+003
9.298573e+002, 1.136623e+003
9.303394e+002, 1.136361e+003
9.308215e+002, 1.137240e+003
9.313036e+002, 1.138327e+003
9.317858e+002, 1.139557e+003
9.322679e+002, 1.140578e+003
9.327500e+002, 1.140824e+003
9.332321e+002, 1.141058e+003
9.337142e+002, 1.142067e+003
9.341964e+002, 1.144101e+003
9.346785e+002, 1.145318e+003
9.351606e+002, 1.145516e+003
9.356427e+002, 1.145375e+003
9.361248e+002, 1.144860e+003
9.366069e+002, 1.144382e+003
9.370891e+002, 1.145725e+003
9.375712e+002, 1.148544e+003
9.380533e+002, 1.151058e+003
9.385354e+002, 1.151621e+003
9.390175e+002, 1.152248e+003
9.394996e+002, 1.154591e+003
9.399818e+002, 1.157833e+003
9.404639e+002, 1.159489e+003
9.409460e+002, 1.158656e+003
9.414281e+002, 1.158342e+003
9.419102e+002, 1.159091e+003
9.423923e+002, 1.160504e+003
9.428745e+002, 1.162397e+003
9.433566e+002, 1.164430e+003
9.438387e+002, 1.165322e+003
9.443208e+002, 1.164296e+003
9.448029e+002, 1.163857e+003
9.452850e+002, 1.166450e+003
9.457672e+002, 1.169669e+003
9.462493e+002, 1.171057e+003
9.467314e+002, 1.169836e+003
9.472135e+002, 1.169913e+003
9.476956e+002, 1.171556e+003
9.481777e+002, 1.173617e+003
9.486599e+002, 1.175417e+003
9.491420e+002, 1.176892e+003
9.496241e+002, 1.177819e+003
9.501062e+002, 1.178216e+003
9.505883e+002, 1.178287e+003
9.510704e+002, 1.177672e+003
9.515526e+002, 1.177199e+003
9.520347e+002, 1.177221e+003
9.525168e+002, 1.177723e+003
9.529989e+002, 1.178881e+003
9.534810e+002, 1.180946e+003
9.539631e+002, 1.182434e+003
9.544453e+002, 1.182823e+003
9.549274e+002, 1.182601e+003
9.554095e+002, 1.182197e+003
9.558916e+002, 1.181867e+003
9.563737e+002, 1.182217e+003
9.568558e+002, 1.183968e+003
9.573380e+002, 1.185446e+003
9.578201e+002, 1.185927e+003
9.583022e+002, 1.186005e+003
9.587843e+002, 1.186094e+003
9.592664e+002, 1.186062e+003
9.597485e+002, 1.187097e+003
9.602307e+002, 1.189387e+003
9.607128e+002, 1.191587e+003
9.611949e+002, 1.192232e+003
9.616770e+002, 1.192174e+003
9.621591e+002, 1.192753e+003
9.626412e+002, 1.193997e+003
9.631234e+002, 1.194723e+003
9.636055e+002, 1.193545e+003
9.640876e+002, 1.192858e+003
9.645697e+002, 1.193625e+003
9.650518e+002, 1.195503e+003
9.655339e+002, 1.197194e+003
9.660161e+002, 1.198689e+003
9.664982e+002, 1.199674e+003
9.669803e+002, 1.199635e+003
9.674624e+002, 1.199662e+003
9.679445e+002, 1.201584e+003
9.684266e+002, 1.204263e+003
9.689088e+002, 1.205781e+003
9.693909e+002, 1.204699e+003
9.698730e+002, 1.203746e+003
9.703551e+002, 1.203196e+003
9.708372e+002, 1.202750e+003
9.713193e+002, 1.201809e+003
9.718015e+002, 1.200546e+003
9.722836e+002, 1.200710e+003
9.727657e+002, 1.202489e+003
9.732478e+002, 1.204327e+003
9.737299e+002, 1.205309e+003
9.742120e+002, 1.205636e+003
9.746942e+002, 1.205181e+003
9.751763e+002, 1.203952e+003
9.756584e+002, 1.203437e+003
9.761405e+002, 1.203729e+003
9.766226e+002, 1.204721e+003
9.771047e+002, 1.206874e+003
9.775869e+002, 1.209276e+003
9.780690e+002, 1.208557e+003
9.785511e+002, 1.205675e+003
9.790332e+002, 1.204320e+003
9.795153e+002, 1.207234e+003
9.799974e+002, 1.210157e+003
9.804796e+002, 1.210666e+003
9.809617e+002, 1.209852e+003
9.814438e+002, 1.209198e+003
9.819259e+002, 1.208491e+003
9.824080e+002, 1.209016e+003
9.828901e+002, 1.211233e+003
9.833723e+002, 1.213208e+003
9.838544e+002, 1.212479e+003
9.843365e+002, 1.210323e+003
9.848186e+002, 1.209192e+003
9.853007e+002, 1.209275e+003
9.857828e+002, 1.209336e+003
9.862650e+002, 1.208309e+003
9.867471e+002, 1.207717e+003
9.872292e+002, 1.208276e+003
9.877113e+002, 1.209796e+003
9.881934e+002, 1.211621e+003
9.886755e+002, 1.213795e+003
9.891577e+002, 1.214883e+003
9.896398e+002, 1.214068e+003
9.901219e+002, 1.212313e+003
9.906040e+002, 1.209838e+003
9.910861e+002, 1.207471e+003
9.915682e+002, 1.206649e+003
9.920504e+002, 1.209171e+003
9.925325e+002, 1.211157e+003
9.930146e+002, 1.212341e+003
9.934967e+002, 1.212879e+003
9.939788e+002, 1.212677e+003
9.944609e+002, 1.211875e+003
9.949431e+002, 1.211932e+003
9.954252e+002, 1.212921e+003
9.959073e+002, 1.213313e+003
9.963894e+002, 1.211243e+003
9.968715e+002, 1.208786e+003
9.973536e+002, 1.207546e+003
9.978358e+002, 1.207526e+003
9.983179e+002, 1.207177e+003
9.988000e+002, 1.206249e+003
9.992821e+002, 1.205542e+003
9.997642e+002, 1.205214e+003
1.000246e+003, 1.205352e+003
1.000728e+003, 1.206433e+003
1.001211e+003, 1.208110e+003
1.001693e+003, 1.209542e+003
1.002175e+003, 1.210822e+003
1.002657e+003, 1.211076e+003
1.003139e+003, 1.209167e+003
1.003621e+003, 1.206558e+003
1.004103e+003, 1.204519e+003
1.004585e+003, 1.203050e+003
1.005068e+003, 1.202224e+003
1.005550e+003, 1.202068e+003
1.006032e+003, 1.202128e+003
1.006514e+003, 1.201956e+003
1.006996e+003, 1.201833e+003
1.007478e+003, 1.202408e+003
1.007960e+003, 1.203456e+003
1.008442e+003, 1.203744e+003
1.008924e+003, 1.201805e+003
1.009407e+003, 1.200524e+003
1.009889e+003, 1.200687e+003
1.010371e+003, 1.201607e+003
1.010853e+003, 1.202054e+003
1.011335e+003, 1.202017e+003
1.011817e+003, 1.201229e+003
1.012299e+003, 1.199449e+003
1.012781e+003, 1.197792e+003
1.013263e+003, 1.196950e+003
1.013746e+003, 1.196766e+003
1.014228e+003, 1.197278e+003
1.014710e+003, 1.198727e+003
1.015192e+003, 1.199630e+003
1.015674e+003, 1.200024e+003
1.016156e+003, 1.199769e+003
1.016638e+003, 1.198103e+003
1.017120e+003, 1.196036e+003
1.017603e+003, 1.196004e+003
1.018085e+003, 1.197542e+003
1.018567e+003, 1.199057e+003
1.019049e+003, 1.199878e+003
1.019531e+003, 1.200439e+003
1.020013e+003, 1.200804e+003
1.020495e+003, 1.200969e+003
1.020977e+003, 1.200952e+003
1.021459e+003, 1.200738e+003
1.021942e+003, 1.200014e+003
1.022424e+003, 1.198633e+003
1.022906e+003, 1.197529e+003
1.023388e+003, 1.198172e+003
1.023870e+003, 1.199139e+003
1.024352e+003, 1.198938e+003
1.024834e+003, 1.197350e+003
1.025316e+003, 1.195769e+003
1.025799e+003, 1.194206e+003
1.026281e+003, 1.192940e+003
1.026763e+003, 1.192074e+003
1.027245e+003, 1.191631e+003
1.027727e+003, 1.191825e+003
1.028209e+003, 1.192469e+003
1.028691e+003, 1.192908e+003
1.029173e+003, 1.192810e+003
1.029656e+003, 1.192566e+003
1.030138e+003, 1.191834e+003
1.030620e+003, 1.191367e+003
1.031102e+003, 1.192117e+003
1.031584e+003, 1.194469e+003
1.032066e+003, 1.195681e+003
1.032548e+003, 1.195609e+003
1.033030e+003, 1.195128e+003
1.033512e+003, 1.194534e+003
1.033995e+003, 1.194200e+003
1.034477e+003, 1.194939e+003
1.034959e+003, 1.196513e+003
1.035441e+003, 1.197319e+003
1.035923e+003, 1.196137e+003
1.036405e+003, 1.195508e+003
1.036887e+003, 1.196241e+003
1.037369e+003, 1.197422e+003
1.037851e+003, 1.197223e+003
1.038334e+003, 1.195915e+003
1.038816e+003, 1.194403e+003
1.039298e+003, 1.192791e+003
1.039780e+003, 1.191486e+003
1.040262e+003, 1.190856e+003
1.040744e+003, 1.190549e+003
1.041226e+003, 1.190207e+003
1.041708e+003, 1.189780e+003
1.042191e+003, 1.190369e+003
1.042673e+003, 1.192191e+003
1.043155e+003, 1.193220e+003
1.043637e+003, 1.191480e+003
1.044119e+003, 1.189096e+003
1.044601e+003, 1.188955e+003
1.045083e+003, 1.190488e+003
1.045565e+003, 1.192389e+003
1.046047e+003, 1.195257e+003
1.046530e+003, 1.196973e+003
1.047012e+003, 1.197039e+003
1.047494e+003, 1.196387e+003
1.047976e+003, 1.195827e+003
1.048458e+003, 1.195419e+003
1.048940e+003, 1.195436e+003
1.049422e+003, 1.195895e+003
1.049904e+003, 1.196887e+003
1.050386e+003, 1.199180e+003
1.050869e+003, 1.201368e+003
1.051351e+003, 1.202207e+003
1.051833e+003, 1.202161e+003
1.052315e+003, 1.203287e+003
1.052797e+003, 1.205774e+003
1.053279e+003, 1.207976e+003
1.053761e+003, 1.209467e+003
1.054243e+003, 1.210539e+003
1.054726e+003, 1.211202e+003
1.055208e+003, 1.211850e+003
1.055690e+003, 1.213111e+003
1.056172e+003, 1.215409e+003
1.056654e+003, 1.217331e+003
1.057136e+003, 1.218439e+003
1.057618e+003, 1.219764e+003
1.058100e+003, 1.221966e+003
1.058583e+003, 1.224875e+003
1.059065e+003, 1.227950e+003
1.059547e+003, 1.231143e+003
1.060029e+003, 1.234235e+003
1.060511e+003, 1.237132e+003
1.060993e+003, 1.239799e+003
1.061475e+003, 1.242069e+003
1.061957e+003, 1.244168e+003
1.062439e+003, 1.246181e+003
1.062922e+003, 1.247955e+003
1.063404e+003, 1.251540e+003
1.063886e+003, 1.257319e+003
1.064368e+003, 1.262604e+003
1.064850e+003, 1.264248e+003
1.065332e+003, 1.264794e+003
1.065814e+003, 1.266898e+003
1.066296e+003, 1.270581e+003
1.066778e+003, 1.273817e+003
1.067261e+003, 1.276393e+003
1.067743e+003, 1.278471e+003
1.068225e+003, 1.279719e+003
1.068707e+003, 1.281094e+003
1.069189e+003, 1.284747e+003
1.069671e+003, 1.289830e+003
1.070153e+003, 1.294493e+003
1.070635e+003, 1.298392e+003
1.071118e+003, 1.301268e+003
1.071600e+003, 1.302067e+003
1.072082e+003, 1.302614e+003
1.072564e+003, 1.304085e+003
1.073046e+003, 1.306348e+003
1.073528e+003, 1.307396e+003
1.074010e+003, 1.307366e+003
1.074492e+003, 1.308194e+003
1.074974e+003, 1.312200e+003
1.075457e+003, 1.315990e+003
1.075939e+003, 1.316428e+003
1.076421e+003, 1.315153e+003
1.076903e+003, 1.315104e+003
1.077385e+003, 1.317285e+003
1.077867e+003, 1.317885e+003
1.078349e+003, 1.316453e+003
1.078831e+003, 1.314576e+003
1.079313e+003, 1.313507e+003
1.079796e+003, 1.313018e+003
1.080278e+003, 1.313216e+003
1.080760e+003, 1.313853e+003
1.081242e+003, 1.313453e+003
1.081724e+003, 1.310127e+003
1.082206e+003, 1.307648e+003
1.082688e+003, 1.307182e+003
1.083170e+003, 1.307483e+003
1.083652e+003, 1.306345e+003
1.084135e+003, 1.304006e+003
1.084617e+003, 1.301292e+003
1.085099e+003, 1.298323e+003
1.085581e+003, 1.295344e+003
1.086063e+003, 1.292789e+003
1.086545e+003, 1.290007e+003
1.087027e+003, 1.286275e+003
1.087509e+003, 1.281798e+003
1.087992e+003, 1.278731e+003
1.088474e+003, 1.277098e+003
1.088956e+003, 1.275196e+003
1.089438e+003, 1.272388e+003
1.089920e+003, 1.268920e+003
1.090402e+003, 1.264332e+003
1.090884e+003, 1.259503e+003
1.091366e+003, 1.255748e+003
1.091849e+003, 1.253872e+003
1.092331e+003, 1.251214e+003
1.092813e+003, 1.247515e+003
1.093295e+003, 1.243911e+003
1.093777e+003, 1.241754e+003
1.094259e+003, 1.240001e+003
1.094741e+003, 1.236516e+003
1.095223e+003, 1.231620e+003
1.095705e+003, 1.226520e+003
1.096188e+003, 1.220769e+003
1.096670e+003, 1.216217e+003
1.097152e+003, 1.213513e+003
1.097634e+003, 1.211544e+003
1.098116e+003, 1.208933e+003
1.098598e+003, 1.205747e+003
1.099080e+003, 1.202109e+003
1.099562e+003, 1.198037e+003
1.100044e+003, 1.194714e+003
1.100527e+003, 1.193809e+003
1.101009e+003, 1.192914e+003
1.101491e+003, 1.190389e+003
1.101973e+003, 1.186914e+003
1.102455e+003, 1.184881e+003
1.102937e+003, 1.184316e+003
1.103419e+003, 1.183115e+003
1.103901e+003, 1.180555e+003
1.104384e+003, 1.178147e+003
1.104866e+003, 1.177929e+003
1.105348e+003, 1.178256e+003
1.105830e+003, 1.177367e+003
1.106312e+003, 1.174913e+003
1.106794e+003, 1.172682e+003
1.107276e+003, 1.170541e+003
1.107758e+003, 1.169142e+003
1.108240e+003, 1.169006e+003
1.108723e+003, 1.169459e+003
1.109205e+003, 1.169384e+003
1.109687e+003, 1.169077e+003
1.110169e+003, 1.169125e+003
1.110651e+003, 1.169909e+003
1.111133e+003, 1.170721e+003
1.111615e+003, 1.171905e+003
1.112097e+003, 1.172394e+003
1.112579e+003, 1.170687e+003
1.113062e+003, 1.167677e+003
1.113544e+003, 1.166551e+003
1.114026e+003, 1.167091e+003
1.114508e+003, 1.168175e+003
1.114990e+003, 1.170157e+003
1.115472e+003, 1.171479e+003
1.115954e+003, 1.171686e+003
1.116436e+003, 1.170974e+003
1.116919e+003, 1.169108e+003
1.117401e+003, 1.166241e+003
1.117883e+003, 1.164763e+003
1.118365e+003, 1.164895e+003
1.118847e+003, 1.165368e+003
1.119329e+003, 1.165450e+003
1.119811e+003, 1.165417e+003
1.120293e+003, 1.165449e+003
1.120776e+003, 1.165514e+003
1.121258e+003, 1.165342e+003
1.121740e+003, 1.164828e+003
1.122222e+003, 1.165228e+003
1.122704e+003, 1.167091e+003
1.123186e+003, 1.168585e+003
1.123668e+003, 1.166992e+003
1.124150e+003, 1.164566e+003
1.124632e+003, 1.163924e+003
1.125115e+003, 1.165585e+003
1.125597e+003, 1.166125e+003
1.126079e+003, 1.165203e+003
1.126561e+003, 1.164158e+003
1.127043e+003, 1.163452e+003
1.127525e+003, 1.163001e+003
1.128007e+003, 1.162795e+003
1.128489e+003, 1.162716e+003
1.128971e+003, 1.162531e+003
1.129454e+003, 1.162139e+003
1.129936e+003, 1.161912e+003
1.130418e+003, 1.162171e+003
1.130900e+003, 1.162102e+003
1.131382e+003, 1.160720e+003
1.131864e+003, 1.158838e+003
1.132346e+003, 1.159380e+003
1.132828e+003, 1.161610e+003
1.133311e+003, 1.163106e+003
1.133793e+003, 1.161326e+003
1.134275e+003, 1.160690e+003
1.134757e+003, 1.162918e+003
1.135239e+003, 1.165776e+003
1.135721e+003, 1.167100e+003
1.136203e+003, 1.167064e+003
1.136685e+003, 1.167602e+003
1.137167e+003, 1.168656e+003
1.137650e+003, 1.169175e+003
1.138132e+003, 1.167637e+003
1.138614e+003, 1.166373e+003
1.139096e+003, 1.167262e+003
1.139578e+003, 1.168822e+003
1.140060e+003, 1.168443e+003
1.140542e+003, 1.166081e+003
1.141024e+003, 1.164745e+003
1.141506e+003, 1.164815e+003
1.141989e+003, 1.165025e+003
1.142471e+003, 1.164240e+003
1.142953e+003, 1.163344e+003
1.143435e+003, 1.163254e+003
1.143917e+003, 1.163711e+003
1.144399e+003, 1.162984e+003
1.144881e+003, 1.160668e+003
1.145363e+003, 1.160197e+003
1.145846e+003, 1.162653e+003
1.146328e+003, 1.165681e+003
1.146810e+003, 1.167178e+003
1.147292e+003, 1.167509e+003
1.147774e+003, 1.166548e+003
1.148256e+003, 1.164132e+003
1.148738e+003, 1.163651e+003
1.149220e+003, 1.165724e+003
1.149703e+003, 1.167616e+003
1.150185e+003, 1.168383e+003
1.150667e+003, 1.168469e+003
1.151149e+003, 1.168347e+003
1.151631e+003, 1.168079e+003
1.152113e+003, 1.167717e+003
1.152595e+003, 1.167170e+003
1.153077e+003, 1.166981e+003
1.153559e+003, 1.167297e+003
1.154042e+003, 1.167735e+003
1.154524e+003, 1.168225e+003
1.155006e+003, 1.168606e+003
1.155488e+003, 1.168496e+003
1.155970e+003, 1.167976e+003
1.156452e+003, 1.167216e+003
1.156934e+003, 1.165849e+003
1.157416e+003, 1.165071e+003
1.157898e+003, 1.165126e+003
1.158381e+003, 1.165572e+003
1.158863e+003, 1.166352e+003
1.159345e+003, 1.167244e+003
1.159827e+003, 1.167058e+003
1.160309e+003, 1.166084e+003
1.160791e+003, 1.165500e+003
1.161273e+003, 1.166328e+003
1.161755e+003, 1.166943e+003
1.162238e+003, 1.166729e+003
1.162720e+003, 1.166337e+003
1.163202e+003, 1.166380e+003
1.163684e+003, 1.166840e+003
1.164166e+003, 1.167962e+003
1.164648e+003, 1.169613e+003
1.165130e+003, 1.170507e+003
1.165612e+003, 1.169241e+003
1.166094e+003, 1.167812e+003
1.166577e+003, 1.166891e+003
1.167059e+003, 1.166462e+003
1.167541e+003, 1.166829e+003
1.168023e+003, 1.167887e+003
1.168505e+003, 1.167811e+003
1.168987e+003, 1.166411e+003
1.169469e+003, 1.165575e+003
1.169951e+003, 1.167150e+003
1.170433e+003, 1.169176e+003
1.170916e+003, 1.170692e+003
1.171398e+003, 1.171715e+003
1.171880e+003, 1.172271e+003
1.172362e+003, 1.172359e+003
1.172844e+003, 1.172010e+003
1.173326e+003, 1.171141e+003
1.173808e+003, 1.170467e+003
1.174290e+003, 1.170864e+003
1.174773e+003, 1.171449e+003
1.175255e+003, 1.171286e+003
1.175737e+003, 1.170616e+003
1.176219e+003, 1.171140e+003
1.176701e+003, 1.172962e+003
1.177183e+003, 1.173698e+003
1.177665e+003, 1.172390e+003
1.178147e+003, 1.170974e+003
1.178630e+003, 1.171761e+003
1.179112e+003, 1.173040e+003
1.179594e+003, 1.172935e+003
1.180076e+003, 1.171378e+003
1.180558e+003, 1.170646e+003
1.181040e+003, 1.170818e+003
1.181522e+003, 1.171083e+003
1.182004e+003, 1.171146e+003
1.182486e+003, 1.171139e+003
1.182969e+003, 1.170890e+003
1.183451e+003, 1.170810e+003
1.183933e+003, 1.171520e+003
1.184415e+003, 1.173208e+003
1.184897e+003, 1.174704e+003
1.185379e+003, 1.176063e+003
1.185861e+003, 1.176817e+003
1.186343e+003, 1.176412e+003
1.186825e+003, 1.175690e+003
1.187308e+003, 1.175734e+003
1.187790e+003, 1.176109e+003
1.188272e+003, 1.176149e+003
1.188754e+003, 1.175792e+003
1.189236e+003, 1.174726e+003
1.189718e+003, 1.172632e+003
1.190200e+003, 1.171567e+003
1.190682e+003, 1.173839e+003
1.191165e+003, 1.177109e+003
1.191647e+003, 1.178504e+003
1.192129e+003, 1.178573e+003
1.192611e+003, 1.178370e+003
1.193093e+003, 1.177816e+003
1.193575e+003, 1.177769e+003
1.194057e+003, 1.178448e+003
1.194539e+003, 1.178799e+003
1.195021e+003, 1.177240e+003
1.195504e+003, 1.175374e+003
1.195986e+003, 1.175651e+003
1.196468e+003, 1.177460e+003
1.196950e+003, 1.178964e+003
1.197432e+003, 1.179863e+003
1.197914e+003, 1.180331e+003
1.198396e+003, 1.180279e+003
1.198878e+003, 1.180115e+003
1.199360e+003, 1.180266e+003
1.199843e+003, 1.180522e+003
1.200325e+003, 1.180485e+003
1.200807e+003, 1.180272e+003
1.201289e+003, 1.180400e+003
1.201771e+003, 1.181167e+003
1.202253e+003, 1.181887e+003
1.202735e+003, 1.182537e+003
1.203217e+003, 1.183036e+003
1.203700e+003, 1.183203e+003
1.204182e+003, 1.183217e+003
1.204664e+003, 1.183134e+003
1.205146e+003, 1.183058e+003
1.205628e+003, 1.183750e+003
1.206110e+003, 1.186161e+003
1.206592e+003, 1.187224e+003
1.207074e+003, 1.186146e+003
1.207557e+003, 1.184401e+003
1.208039e+003, 1.183460e+003
1.208521e+003, 1.183224e+003
1.209003e+003, 1.183686e+003
1.209485e+003, 1.184793e+003
1.209967e+003, 1.186010e+003
1.210449e+003, 1.187376e+003
1.210931e+003, 1.188583e+003
1.211413e+003, 1.189612e+003
1.211896e+003, 1.190401e+003
1.212378e+003, 1.191011e+003
1.212860e+003, 1.191301e+003
1.213342e+003, 1.190945e+003
1.213824e+003, 1.189924e+003
1.214306e+003, 1.188902e+003
1.214788e+003, 1.187701e+003
1.215270e+003, 1.187325e+003
1.215752e+003, 1.188356e+003
1.216235e+003, 1.189546e+003
1.216717e+003, 1.188987e+003
1.217199e+003, 1.187496e+003
1.217681e+003, 1.186061e+003
1.218163e+003, 1.184784e+003
1.218645e+003, 1.184531e+003
1.219127e+003, 1.185909e+003
1.219609e+003, 1.186458e+003
1.220092e+003, 1.185109e+003
1.220574e+003, 1.183235e+003
1.221056e+003, 1.182296e+003
1.221538e+003, 1.182432e+003
1.222020e+003, 1.184302e+003
1.222502e+003, 1.188346e+003
1.222984e+003, 1.190752e+003
1.223466e+003, 1.191037e+003
1.223948e+003, 1.190642e+003
1.224431e+003, 1.189772e+003
1.224913e+003, 1.189092e+003
1.225395e+003, 1.190281e+003
1.225877e+003, 1.191929e+003
1.226359e+003, 1.191867e+003
1.226841e+003, 1.189185e+003
1.227323e+003, 1.187772e+003
1.227805e+003, 1.187959e+003
1.228287e+003, 1.188136e+003
1.228770e+003, 1.187487e+003
1.229252e+003, 1.186763e+003
1.229734e+003, 1.187124e+003
1.230216e+003, 1.187994e+003
1.230698e+003, 1.188536e+003
1.231180e+003, 1.188491e+003
1.231662e+003, 1.188992e+003
1.232144e+003, 1.190137e+003
1.232627e+003, 1.191397e+003
1.233109e+003, 1.192984e+003
1.233591e+003, 1.193833e+003
1.234073e+003, 1.191755e+003
1.234555e+003, 1.188648e+003
1.235037e+003, 1.187317e+003
1.235519e+003, 1.188512e+003
1.236001e+003, 1.188071e+003
1.236484e+003, 1.185737e+003
1.236966e+003, 1.184275e+003
1.237448e+003, 1.185671e+003
1.237930e+003, 1.187634e+003
1.238412e+003, 1.187464e+003
1.238894e+003, 1.186631e+003
1.239376e+003, 1.187498e+003
1.239858e+003, 1.190651e+003
1.240340e+003, 1.190889e+003
1.240823e+003, 1.188010e+003
1.241305e+003, 1.186143e+003
1.241787e+003, 1.188078e+003
1.242269e+003, 1.191008e+003
1.242751e+003, 1.193035e+003
1.243233e+003, 1.194330e+003
1.243715e+003, 1.195098e+003
1.244197e+003, 1.195342e+003
1.244679e+003, 1.195177e+003
1.245162e+003, 1.194615e+003
1.245644e+003, 1.194040e+003
1.246126e+003, 1.193390e+003
1.246608e+003, 1.193192e+003
1.247090e+003, 1.194421e+003
1.247572e+003, 1.195924e+003
1.248054e+003, 1.196393e+003
1.248536e+003, 1.195829e+003
1.249019e+003, 1.194944e+003
1.249501e+003, 1.193838e+003
1.249983e+003, 1.193366e+003
1.250465e+003, 1.194675e+003
1.250947e+003, 1.195915e+003
1.251429e+003, 1.196164e+003
1.251911e+003, 1.195831e+003
1.252393e+003, 1.195006e+003
1.252875e+003, 1.193747e+003
1.253358e+003, 1.193919e+003
1.253840e+003, 1.195246e+003
1.254322e+003, 1.196023e+003
1.254804e+003, 1.194245e+003
1.255286e+003, 1.193185e+003
1.255768e+003, 1.194670e+003
1.256250e+003, 1.196557e+003
1.256732e+003, 1.196860e+003
1.257214e+003, 1.195953e+003
1.257697e+003, 1.196121e+003
1.258179e+003, 1.197216e+003
1.258661e+003, 1.198439e+003
1.259143e+003, 1.200435e+003
1.259625e+003, 1.200977e+003
1.260107e+003, 1.198738e+003
1.260589e+003, 1.196593e+003
1.261071e+003, 1.197268e+003
1.261554e+003, 1.199926e+003
1.262036e+003, 1.202532e+003
1.262518e+003, 1.204770e+003
1.263000e+003, 1.205758e+003
1.263482e+003, 1.204187e+003
1.263964e+003, 1.202654e+003
1.264446e+003, 1.201207e+003
1.264928e+003, 1.200203e+003
1.265411e+003, 1.200059e+003
1.265893e+003, 1.200504e+003
1.266375e+003, 1.201083e+003
1.266857e+003, 1.201817e+003
1.267339e+003, 1.202789e+003
1.267821e+003, 1.204688e+003
1.268303e+003, 1.205602e+003
1.268785e+003, 1.205399e+003
1.269267e+003, 1.204684e+003
1.269750e+003, 1.203525e+003
1.270232e+003, 1.202471e+003
1.270714e+003, 1.202416e+003
1.271196e+003, 1.202983e+003
1.271678e+003, 1.203222e+003
1.272160e+003, 1.202610e+003
1.272642e+003, 1.203186e+003
1.273124e+003, 1.205139e+003
1.273606e+003, 1.206871e+003
1.274089e+003, 1.206740e+003
1.274571e+003, 1.206310e+003
1.275053e+003, 1.207234e+003
1.275535e+003, 1.208709e+003
1.276017e+003, 1.209394e+003
1.276499e+003, 1.209259e+003
1.276981e+003, 1.207963e+003
1.277463e+003, 1.205538e+003
1.277946e+003, 1.203779e+003
1.278428e+003, 1.204625e+003
1.278910e+003, 1.205714e+003
1.279392e+003, 1.205480e+003
1.279874e+003, 1.204789e+003
1.280356e+003, 1.204512e+003
1.280838e+003, 1.204671e+003
1.281320e+003, 1.206233e+003
1.281802e+003, 1.208914e+003
1.282285e+003, 1.210282e+003
1.282767e+003, 1.207544e+003
1.283249e+003, 1.205145e+003
1.283731e+003, 1.204859e+003
1.284213e+003, 1.205333e+003
1.284695e+003, 1.205269e+003
1.285177e+003, 1.204948e+003
1.285659e+003, 1.206023e+003
1.286141e+003, 1.208181e+003
1.286624e+003, 1.210089e+003
1.287106e+003, 1.211601e+003
1.287588e+003, 1.212000e+003
1.288070e+003, 1.210785e+003
1.288552e+003, 1.209483e+003
1.289034e+003, 1.209268e+003
1.289516e+003, 1.209937e+003
1.289998e+003, 1.211498e+003
1.290481e+003, 1.213523e+003
1.290963e+003, 1.214921e+003
1.291445e+003, 1.215322e+003
1.291927e+003, 1.215033e+003
1.292409e+003, 1.213912e+003
1.292891e+003, 1.212686e+003
1.293373e+003, 1.211627e+003
1.293855e+003, 1.210971e+003
1.294338e+003, 1.211027e+003
1.294820e+003, 1.211703e+003
1.295302e+003, 1.213006e+003
1.295784e+003, 1.215371e+003
1.296266e+003, 1.216267e+003
1.296748e+003, 1.215622e+003
1.297230e+003, 1.214807e+003
1.297712e+003, 1.214516e+003
1.298194e+003, 1.214530e+003
1.298677e+003, 1.214668e+003
1.299159e+003, 1.214997e+003
1.299641e+003, 1.215693e+003
1.300123e+003, 1.216777e+003
1.300605e+003, 1.216431e+003
1.301087e+003, 1.214761e+003
1.301569e+003, 1.212732e+003
1.302051e+003, 1.209912e+003
1.302533e+003, 1.208028e+003
1.303016e+003, 1.207705e+003
##END=



