##NAMES=Remondite-(Ce)
##RRUFFID=R120060
##IDEAL CHEMISTRY=Na_3_(Ce^3+^,Ca,Na)_3_(CO_3_)_5_
##LOCALITY=Mont Saint-Hilaire, Rouville RCM, Montérégie, Québec, Canada
##OWNER=RRUFF
##SOURCE=Donald Doell
##DESCRIPTION=Tan to pale yellow acicular, associated with albite, calcite, and analcime
##STATUS=The identification of this mineral has been confirmed only by single crystal X-ray diffraction.
##URL=rruff.info/R120060
9.112140e+001, 0.000000e+000
9.160352e+001, 7.034169e+004
9.208563e+001, 6.864684e+004
9.256775e+001, 6.844625e+004
9.304987e+001, 7.052618e+004
9.353198e+001, 7.308238e+004
9.401410e+001, 7.471337e+004
9.449622e+001, 7.547448e+004
9.497833e+001, 7.578903e+004
9.546045e+001, 7.600565e+004
9.594257e+001, 7.612406e+004
9.642468e+001, 7.608858e+004
9.690680e+001, 7.584997e+004
9.738892e+001, 7.563838e+004
9.787103e+001, 7.555427e+004
9.835315e+001, 7.549400e+004
9.883527e+001, 7.533509e+004
9.931738e+001, 7.516491e+004
9.979950e+001, 7.499988e+004
1.002816e+002, 7.486863e+004
1.007637e+002, 7.471617e+004
1.012458e+002, 7.459195e+004
1.017280e+002, 7.454518e+004
1.022101e+002, 7.458608e+004
1.026922e+002, 7.468348e+004
1.031743e+002, 7.480176e+004
1.036564e+002, 7.493714e+004
1.041385e+002, 7.505797e+004
1.046207e+002, 7.512923e+004
1.051028e+002, 7.516689e+004
1.055849e+002, 7.523141e+004
1.060670e+002, 7.532990e+004
1.065491e+002, 7.544599e+004
1.070313e+002, 7.555209e+004
1.075134e+002, 7.563864e+004
1.079955e+002, 7.574867e+004
1.084776e+002, 7.594160e+004
1.089597e+002, 7.623982e+004
1.094418e+002, 7.651011e+004
1.099240e+002, 7.671087e+004
1.104061e+002, 7.687029e+004
1.108882e+002, 7.698688e+004
1.113703e+002, 7.705520e+004
1.118524e+002, 7.711268e+004
1.123345e+002, 7.726654e+004
1.128167e+002, 7.762274e+004
1.132988e+002, 7.794048e+004
1.137809e+002, 7.815738e+004
1.142630e+002, 7.832158e+004
1.147451e+002, 7.850066e+004
1.152272e+002, 7.873729e+004
1.157094e+002, 7.902837e+004
1.161915e+002, 7.928052e+004
1.166736e+002, 7.949345e+004
1.171557e+002, 7.967601e+004
1.176378e+002, 7.980338e+004
1.181199e+002, 7.989328e+004
1.186021e+002, 8.000084e+004
1.190842e+002, 8.017536e+004
1.195663e+002, 8.042320e+004
1.200484e+002, 8.065492e+004
1.205305e+002, 8.084363e+004
1.210126e+002, 8.103203e+004
1.214948e+002, 8.126966e+004
1.219769e+002, 8.156797e+004
1.224590e+002, 8.186312e+004
1.229411e+002, 8.207500e+004
1.234232e+002, 8.222434e+004
1.239053e+002, 8.236826e+004
1.243875e+002, 8.253066e+004
1.248696e+002, 8.270187e+004
1.253517e+002, 8.284350e+004
1.258338e+002, 8.290705e+004
1.263159e+002, 8.300823e+004
1.267980e+002, 8.323763e+004
1.272802e+002, 8.357650e+004
1.277623e+002, 8.393252e+004
1.282444e+002, 8.424804e+004
1.287265e+002, 8.452285e+004
1.292086e+002, 8.474686e+004
1.296907e+002, 8.484076e+004
1.301729e+002, 8.493980e+004
1.306550e+002, 8.511012e+004
1.311371e+002, 8.535777e+004
1.316192e+002, 8.564145e+004
1.321013e+002, 8.590391e+004
1.325834e+002, 8.613345e+004
1.330656e+002, 8.636934e+004
1.335477e+002, 8.660940e+004
1.340298e+002, 8.685665e+004
1.345119e+002, 8.712275e+004
1.349940e+002, 8.740913e+004
1.354761e+002, 8.769759e+004
1.359583e+002, 8.794266e+004
1.364404e+002, 8.803922e+004
1.369225e+002, 8.822320e+004
1.374046e+002, 8.856534e+004
1.378867e+002, 8.899215e+004
1.383688e+002, 8.939922e+004
1.388510e+002, 8.974149e+004
1.393331e+002, 9.003212e+004
1.398152e+002, 9.030985e+004
1.402973e+002, 9.057347e+004
1.407794e+002, 9.083034e+004
1.412615e+002, 9.105107e+004
1.417437e+002, 9.125315e+004
1.422258e+002, 9.153002e+004
1.427079e+002, 9.197233e+004
1.431900e+002, 9.250080e+004
1.436721e+002, 9.294038e+004
1.441542e+002, 9.324203e+004
1.446364e+002, 9.350409e+004
1.451185e+002, 9.382391e+004
1.456006e+002, 9.420969e+004
1.460827e+002, 9.460244e+004
1.465648e+002, 9.499284e+004
1.470469e+002, 9.536957e+004
1.475291e+002, 9.571628e+004
1.480112e+002, 9.602166e+004
1.484933e+002, 9.630015e+004
1.489754e+002, 9.657863e+004
1.494575e+002, 9.684373e+004
1.499396e+002, 9.713960e+004
1.504218e+002, 9.747975e+004
1.509039e+002, 9.785445e+004
1.513860e+002, 9.824952e+004
1.518681e+002, 9.865831e+004
1.523502e+002, 9.908305e+004
1.528323e+002, 9.951988e+004
1.533145e+002, 1.000062e+005
1.537966e+002, 1.004678e+005
1.542787e+002, 1.008748e+005
1.547608e+002, 1.012460e+005
1.552429e+002, 1.016216e+005
1.557250e+002, 1.020358e+005
1.562072e+002, 1.024904e+005
1.566893e+002, 1.029385e+005
1.571714e+002, 1.033465e+005
1.576535e+002, 1.037797e+005
1.581356e+002, 1.042706e+005
1.586177e+002, 1.048160e+005
1.590999e+002, 1.053992e+005
1.595820e+002, 1.060159e+005
1.600641e+002, 1.066796e+005
1.605462e+002, 1.072555e+005
1.610283e+002, 1.076217e+005
1.615104e+002, 1.079836e+005
1.619926e+002, 1.085126e+005
1.624747e+002, 1.092292e+005
1.629568e+002, 1.100113e+005
1.634389e+002, 1.107366e+005
1.639210e+002, 1.114094e+005
1.644031e+002, 1.120605e+005
1.648853e+002, 1.126810e+005
1.653674e+002, 1.132870e+005
1.658495e+002, 1.138926e+005
1.663316e+002, 1.145063e+005
1.668137e+002, 1.151112e+005
1.672958e+002, 1.156735e+005
1.677780e+002, 1.162078e+005
1.682601e+002, 1.167748e+005
1.687422e+002, 1.174054e+005
1.692243e+002, 1.180933e+005
1.697064e+002, 1.188038e+005
1.701885e+002, 1.195403e+005
1.706707e+002, 1.202918e+005
1.711528e+002, 1.210587e+005
1.716349e+002, 1.218361e+005
1.721170e+002, 1.226104e+005
1.725991e+002, 1.233808e+005
1.730812e+002, 1.241490e+005
1.735634e+002, 1.248748e+005
1.740455e+002, 1.255119e+005
1.745276e+002, 1.261428e+005
1.750097e+002, 1.267754e+005
1.754918e+002, 1.274238e+005
1.759739e+002, 1.281187e+005
1.764561e+002, 1.289070e+005
1.769382e+002, 1.298443e+005
1.774203e+002, 1.307042e+005
1.779024e+002, 1.314438e+005
1.783845e+002, 1.321472e+005
1.788666e+002, 1.328510e+005
1.793488e+002, 1.335587e+005
1.798309e+002, 1.342591e+005
1.803130e+002, 1.349195e+005
1.807951e+002, 1.354850e+005
1.812772e+002, 1.361404e+005
1.817593e+002, 1.369636e+005
1.822415e+002, 1.378127e+005
1.827236e+002, 1.385814e+005
1.832057e+002, 1.392450e+005
1.836878e+002, 1.398460e+005
1.841699e+002, 1.404410e+005
1.846520e+002, 1.409869e+005
1.851342e+002, 1.416306e+005
1.856163e+002, 1.425054e+005
1.860984e+002, 1.434243e+005
1.865805e+002, 1.441693e+005
1.870626e+002, 1.446708e+005
1.875447e+002, 1.450562e+005
1.880269e+002, 1.455224e+005
1.885090e+002, 1.460638e+005
1.889911e+002, 1.466787e+005
1.894732e+002, 1.474293e+005
1.899553e+002, 1.482439e+005
1.904374e+002, 1.489829e+005
1.909196e+002, 1.495995e+005
1.914017e+002, 1.501566e+005
1.918838e+002, 1.507346e+005
1.923659e+002, 1.513213e+005
1.928480e+002, 1.519678e+005
1.933301e+002, 1.527332e+005
1.938123e+002, 1.535847e+005
1.942944e+002, 1.544139e+005
1.947765e+002, 1.552059e+005
1.952586e+002, 1.559413e+005
1.957407e+002, 1.565929e+005
1.962228e+002, 1.571571e+005
1.967050e+002, 1.577335e+005
1.971871e+002, 1.583895e+005
1.976692e+002, 1.591238e+005
1.981513e+002, 1.599020e+005
1.986334e+002, 1.607608e+005
1.991155e+002, 1.616288e+005
1.995977e+002, 1.624396e+005
2.000798e+002, 1.631966e+005
2.005619e+002, 1.639741e+005
2.010440e+002, 1.648699e+005
2.015261e+002, 1.659159e+005
2.020082e+002, 1.669097e+005
2.024904e+002, 1.677718e+005
2.029725e+002, 1.686194e+005
2.034546e+002, 1.695104e+005
2.039367e+002, 1.704530e+005
2.044188e+002, 1.714273e+005
2.049009e+002, 1.723824e+005
2.053831e+002, 1.732601e+005
2.058652e+002, 1.743039e+005
2.063473e+002, 1.757209e+005
2.068294e+002, 1.771408e+005
2.073115e+002, 1.783434e+005
2.077936e+002, 1.792934e+005
2.082758e+002, 1.801025e+005
2.087579e+002, 1.808959e+005
2.092400e+002, 1.815895e+005
2.097221e+002, 1.824673e+005
2.102042e+002, 1.836297e+005
2.106863e+002, 1.848664e+005
2.111685e+002, 1.860626e+005
2.116506e+002, 1.871854e+005
2.121327e+002, 1.882455e+005
2.126148e+002, 1.892563e+005
2.130969e+002, 1.901254e+005
2.135790e+002, 1.911385e+005
2.140612e+002, 1.923862e+005
2.145433e+002, 1.937058e+005
2.150254e+002, 1.949937e+005
2.155075e+002, 1.962133e+005
2.159896e+002, 1.973989e+005
2.164717e+002, 1.985828e+005
2.169539e+002, 1.997586e+005
2.174360e+002, 2.009676e+005
2.179181e+002, 2.022220e+005
2.184002e+002, 2.035061e+005
2.188823e+002, 2.048344e+005
2.193644e+002, 2.062072e+005
2.198466e+002, 2.075697e+005
2.203287e+002, 2.088349e+005
2.208108e+002, 2.099920e+005
2.212929e+002, 2.111557e+005
2.217750e+002, 2.123393e+005
2.222571e+002, 2.135391e+005
2.227393e+002, 2.147455e+005
2.232214e+002, 2.159515e+005
2.237035e+002, 2.171836e+005
2.241856e+002, 2.184936e+005
2.246677e+002, 2.198713e+005
2.251498e+002, 2.212174e+005
2.256320e+002, 2.224613e+005
2.261141e+002, 2.236687e+005
2.265962e+002, 2.249678e+005
2.270783e+002, 2.264132e+005
2.275604e+002, 2.278556e+005
2.280425e+002, 2.291388e+005
2.285247e+002, 2.302892e+005
2.290068e+002, 2.314361e+005
2.294889e+002, 2.326355e+005
2.299710e+002, 2.338548e+005
2.304531e+002, 2.350204e+005
2.309352e+002, 2.360930e+005
2.314174e+002, 2.371677e+005
2.318995e+002, 2.382706e+005
2.323816e+002, 2.394175e+005
2.328637e+002, 2.406712e+005
2.333458e+002, 2.421678e+005
2.338279e+002, 2.438052e+005
2.343101e+002, 2.452550e+005
2.347922e+002, 2.463897e+005
2.352743e+002, 2.475144e+005
2.357564e+002, 2.487893e+005
2.362385e+002, 2.501781e+005
2.367206e+002, 2.516274e+005
2.372028e+002, 2.531408e+005
2.376849e+002, 2.546853e+005
2.381670e+002, 2.561553e+005
2.386491e+002, 2.575811e+005
2.391312e+002, 2.588665e+005
2.396133e+002, 2.599176e+005
2.400955e+002, 2.608367e+005
2.405776e+002, 2.618051e+005
2.410597e+002, 2.629172e+005
2.415418e+002, 2.641633e+005
2.420239e+002, 2.654788e+005
2.425060e+002, 2.669331e+005
2.429882e+002, 2.683711e+005
2.434703e+002, 2.697477e+005
2.439524e+002, 2.710842e+005
2.444345e+002, 2.724056e+005
2.449166e+002, 2.737118e+005
2.453987e+002, 2.750295e+005
2.458809e+002, 2.764663e+005
2.463630e+002, 2.781334e+005
2.468451e+002, 2.797823e+005
2.473272e+002, 2.813921e+005
2.478093e+002, 2.829480e+005
2.482914e+002, 2.844271e+005
2.487736e+002, 2.858190e+005
2.492557e+002, 2.871262e+005
2.497378e+002, 2.883373e+005
2.502199e+002, 2.892808e+005
2.507020e+002, 2.903503e+005
2.511841e+002, 2.916738e+005
2.516663e+002, 2.931170e+005
2.521484e+002, 2.945181e+005
2.526305e+002, 2.958070e+005
2.531126e+002, 2.969986e+005
2.535947e+002, 2.981685e+005
2.540768e+002, 2.991861e+005
2.545590e+002, 3.003385e+005
2.550411e+002, 3.016959e+005
2.555232e+002, 3.031763e+005
2.560053e+002, 3.047227e+005
2.564874e+002, 3.063053e+005
2.569695e+002, 3.078965e+005
2.574517e+002, 3.094259e+005
2.579338e+002, 3.107248e+005
2.584159e+002, 3.121777e+005
2.588980e+002, 3.138806e+005
2.593801e+002, 3.156998e+005
2.598622e+002, 3.175364e+005
2.603444e+002, 3.193516e+005
2.608265e+002, 3.211212e+005
2.613086e+002, 3.227952e+005
2.617907e+002, 3.243408e+005
2.622728e+002, 3.258407e+005
2.627549e+002, 3.272310e+005
2.632371e+002, 3.286129e+005
2.637192e+002, 3.300950e+005
2.642013e+002, 3.317079e+005
2.646834e+002, 3.333663e+005
2.651655e+002, 3.349404e+005
2.656476e+002, 3.363570e+005
2.661298e+002, 3.378630e+005
2.666119e+002, 3.395565e+005
2.670940e+002, 3.412997e+005
2.675761e+002, 3.429401e+005
2.680582e+002, 3.444594e+005
2.685403e+002, 3.459615e+005
2.690225e+002, 3.475820e+005
2.695046e+002, 3.493648e+005
2.699867e+002, 3.510675e+005
2.704688e+002, 3.526355e+005
2.709509e+002, 3.541493e+005
2.714330e+002, 3.556485e+005
2.719152e+002, 3.571419e+005
2.723973e+002, 3.586940e+005
2.728794e+002, 3.603852e+005
2.733615e+002, 3.622314e+005
2.738436e+002, 3.639614e+005
2.743257e+002, 3.654518e+005
2.748079e+002, 3.669167e+005
2.752900e+002, 3.685528e+005
2.757721e+002, 3.703608e+005
2.762542e+002, 3.721010e+005
2.767363e+002, 3.735647e+005
2.772184e+002, 3.747770e+005
2.777006e+002, 3.761419e+005
2.781827e+002, 3.777986e+005
2.786648e+002, 3.794861e+005
2.791469e+002, 3.810352e+005
2.796290e+002, 3.824449e+005
2.801111e+002, 3.837550e+005
2.805933e+002, 3.849501e+005
2.810754e+002, 3.860698e+005
2.815575e+002, 3.872748e+005
2.820396e+002, 3.887008e+005
2.825217e+002, 3.900479e+005
2.830038e+002, 3.911183e+005
2.834860e+002, 3.919435e+005
2.839681e+002, 3.926796e+005
2.844502e+002, 3.933396e+005
2.849323e+002, 3.940036e+005
2.854144e+002, 3.948427e+005
2.858965e+002, 3.959351e+005
2.863787e+002, 3.970051e+005
2.868608e+002, 3.978788e+005
2.873429e+002, 3.985981e+005
2.878250e+002, 3.993172e+005
2.883071e+002, 4.000583e+005
2.887892e+002, 4.008604e+005
2.892714e+002, 4.018269e+005
2.897535e+002, 4.029903e+005
2.902356e+002, 4.040305e+005
2.907177e+002, 4.048054e+005
2.911998e+002, 4.053445e+005
2.916819e+002, 4.057215e+005
2.921641e+002, 4.059245e+005
2.926462e+002, 4.060150e+005
2.931283e+002, 4.060018e+005
2.936104e+002, 4.059017e+005
2.940925e+002, 4.059020e+005
2.945746e+002, 4.061165e+005
2.950568e+002, 4.064758e+005
2.955389e+002, 4.068734e+005
2.960210e+002, 4.073323e+005
2.965031e+002, 4.077238e+005
2.969852e+002, 4.078834e+005
2.974673e+002, 4.078808e+005
2.979495e+002, 4.078906e+005
2.984316e+002, 4.080451e+005
2.989137e+002, 4.082150e+005
2.993958e+002, 4.081809e+005
2.998779e+002, 4.079045e+005
3.003600e+002, 4.075853e+005
3.008422e+002, 4.073238e+005
3.013243e+002, 4.071142e+005
3.018064e+002, 4.069582e+005
3.022885e+002, 4.068578e+005
3.027706e+002, 4.068081e+005
3.032527e+002, 4.068523e+005
3.037349e+002, 4.070052e+005
3.042170e+002, 4.070430e+005
3.046991e+002, 4.067435e+005
3.051812e+002, 4.063218e+005
3.056633e+002, 4.060738e+005
3.061454e+002, 4.060674e+005
3.066276e+002, 4.061612e+005
3.071097e+002, 4.063102e+005
3.075918e+002, 4.065025e+005
3.080739e+002, 4.065105e+005
3.085560e+002, 4.061665e+005
3.090381e+002, 4.056768e+005
3.095203e+002, 4.052692e+005
3.100024e+002, 4.049489e+005
3.104845e+002, 4.046925e+005
3.109666e+002, 4.045083e+005
3.114487e+002, 4.043818e+005
3.119308e+002, 4.042325e+005
3.124130e+002, 4.039927e+005
3.128951e+002, 4.038046e+005
3.133772e+002, 4.038007e+005
3.138593e+002, 4.039598e+005
3.143414e+002, 4.041704e+005
3.148235e+002, 4.043516e+005
3.153057e+002, 4.045428e+005
3.157878e+002, 4.049040e+005
3.162699e+002, 4.055576e+005
3.167520e+002, 4.061105e+005
3.172341e+002, 4.061254e+005
3.177162e+002, 4.058209e+005
3.181984e+002, 4.056699e+005
3.186805e+002, 4.059247e+005
3.191626e+002, 4.063949e+005
3.196447e+002, 4.067718e+005
3.201268e+002, 4.070289e+005
3.206089e+002, 4.073338e+005
3.210911e+002, 4.078329e+005
3.215732e+002, 4.084314e+005
3.220553e+002, 4.089983e+005
3.225374e+002, 4.094939e+005
3.230195e+002, 4.099786e+005
3.235016e+002, 4.105160e+005
3.239838e+002, 4.111097e+005
3.244659e+002, 4.116968e+005
3.249480e+002, 4.122221e+005
3.254301e+002, 4.127520e+005
3.259122e+002, 4.133587e+005
3.263943e+002, 4.140580e+005
3.268765e+002, 4.147979e+005
3.273586e+002, 4.156279e+005
3.278407e+002, 4.165043e+005
3.283228e+002, 4.171369e+005
3.288049e+002, 4.173512e+005
3.292870e+002, 4.174445e+005
3.297692e+002, 4.177116e+005
3.302513e+002, 4.181389e+005
3.307334e+002, 4.186194e+005
3.312155e+002, 4.191294e+005
3.316976e+002, 4.196517e+005
3.321797e+002, 4.201173e+005
3.326619e+002, 4.204733e+005
3.331440e+002, 4.209006e+005
3.336261e+002, 4.216466e+005
3.341082e+002, 4.225854e+005
3.345903e+002, 4.234289e+005
3.350724e+002, 4.238664e+005
3.355546e+002, 4.242677e+005
3.360367e+002, 4.252378e+005
3.365188e+002, 4.268402e+005
3.370009e+002, 4.283170e+005
3.374830e+002, 4.291816e+005
3.379651e+002, 4.296366e+005
3.384473e+002, 4.300659e+005
3.389294e+002, 4.305052e+005
3.394115e+002, 4.309341e+005
3.398936e+002, 4.313705e+005
3.403757e+002, 4.318014e+005
3.408578e+002, 4.320981e+005
3.413400e+002, 4.321467e+005
3.418221e+002, 4.321043e+005
3.423042e+002, 4.322350e+005
3.427863e+002, 4.325748e+005
3.432684e+002, 4.328734e+005
3.437505e+002, 4.329758e+005
3.442327e+002, 4.329464e+005
3.447148e+002, 4.329573e+005
3.451969e+002, 4.330706e+005
3.456790e+002, 4.331591e+005
3.461611e+002, 4.329749e+005
3.466432e+002, 4.325694e+005
3.471254e+002, 4.323599e+005
3.476075e+002, 4.326667e+005
3.480896e+002, 4.331249e+005
3.485717e+002, 4.332907e+005
3.490538e+002, 4.331236e+005
3.495359e+002, 4.327833e+005
3.500181e+002, 4.323201e+005
3.505002e+002, 4.317691e+005
3.509823e+002, 4.312957e+005
3.514644e+002, 4.309018e+005
3.519465e+002, 4.305971e+005
3.524286e+002, 4.304409e+005
3.529108e+002, 4.304002e+005
3.533929e+002, 4.303217e+005
3.538750e+002, 4.301468e+005
3.543571e+002, 4.298702e+005
3.548392e+002, 4.294861e+005
3.553214e+002, 4.289951e+005
3.558035e+002, 4.284229e+005
3.562856e+002, 4.278441e+005
3.567677e+002, 4.271801e+005
3.572498e+002, 4.262402e+005
3.577319e+002, 4.249386e+005
3.582141e+002, 4.235176e+005
3.586962e+002, 4.223002e+005
3.591783e+002, 4.213237e+005
3.596604e+002, 4.203152e+005
3.601425e+002, 4.192474e+005
3.606246e+002, 4.181286e+005
3.611068e+002, 4.169836e+005
3.615889e+002, 4.158032e+005
3.620710e+002, 4.145595e+005
3.625531e+002, 4.132153e+005
3.630352e+002, 4.117672e+005
3.635173e+002, 4.103526e+005
3.639995e+002, 4.089338e+005
3.644816e+002, 4.075737e+005
3.649637e+002, 4.063513e+005
3.654458e+002, 4.052177e+005
3.659279e+002, 4.040304e+005
3.664100e+002, 4.027014e+005
3.668922e+002, 4.013029e+005
3.673743e+002, 4.000955e+005
3.678564e+002, 3.991128e+005
3.683385e+002, 3.982514e+005
3.688206e+002, 3.976630e+005
3.693027e+002, 3.971174e+005
3.697849e+002, 3.964006e+005
3.702670e+002, 3.954458e+005
3.707491e+002, 3.942056e+005
3.712312e+002, 3.925699e+005
3.717133e+002, 3.903307e+005
3.721954e+002, 3.883558e+005
3.726776e+002, 3.867723e+005
3.731597e+002, 3.853314e+005
3.736418e+002, 3.839273e+005
3.741239e+002, 3.825278e+005
3.746060e+002, 3.810842e+005
3.750881e+002, 3.795217e+005
3.755703e+002, 3.778565e+005
3.760524e+002, 3.764135e+005
3.765345e+002, 3.754268e+005
3.770166e+002, 3.743844e+005
3.774987e+002, 3.731386e+005
3.779808e+002, 3.717708e+005
3.784630e+002, 3.703897e+005
3.789451e+002, 3.690449e+005
3.794272e+002, 3.677434e+005
3.799093e+002, 3.665076e+005
3.803914e+002, 3.653885e+005
3.808735e+002, 3.642426e+005
3.813557e+002, 3.629280e+005
3.818378e+002, 3.616806e+005
3.823199e+002, 3.607652e+005
3.828020e+002, 3.601580e+005
3.832841e+002, 3.595287e+005
3.837662e+002, 3.584565e+005
3.842484e+002, 3.568296e+005
3.847305e+002, 3.555063e+005
3.852126e+002, 3.548154e+005
3.856947e+002, 3.541149e+005
3.861768e+002, 3.531517e+005
3.866589e+002, 3.520255e+005
3.871411e+002, 3.509803e+005
3.876232e+002, 3.501847e+005
3.881053e+002, 3.495323e+005
3.885874e+002, 3.486416e+005
3.890695e+002, 3.474058e+005
3.895516e+002, 3.461226e+005
3.900338e+002, 3.447740e+005
3.905159e+002, 3.434568e+005
3.909980e+002, 3.422701e+005
3.914801e+002, 3.412386e+005
3.919622e+002, 3.403133e+005
3.924443e+002, 3.394336e+005
3.929265e+002, 3.386017e+005
3.934086e+002, 3.378240e+005
3.938907e+002, 3.371749e+005
3.943728e+002, 3.365165e+005
3.948549e+002, 3.358097e+005
3.953370e+002, 3.350373e+005
3.958192e+002, 3.341581e+005
3.963013e+002, 3.331195e+005
3.967834e+002, 3.319528e+005
3.972655e+002, 3.307283e+005
3.977476e+002, 3.293667e+005
3.982297e+002, 3.281609e+005
3.987119e+002, 3.273385e+005
3.991940e+002, 3.267376e+005
3.996761e+002, 3.261936e+005
4.001582e+002, 3.257001e+005
4.006403e+002, 3.251708e+005
4.011224e+002, 3.245446e+005
4.016046e+002, 3.238130e+005
4.020867e+002, 3.229037e+005
4.025688e+002, 3.216377e+005
4.030509e+002, 3.203609e+005
4.035330e+002, 3.194786e+005
4.040151e+002, 3.189915e+005
4.044973e+002, 3.186262e+005
4.049794e+002, 3.184268e+005
4.054615e+002, 3.182260e+005
4.059436e+002, 3.176905e+005
4.064257e+002, 3.167600e+005
4.069078e+002, 3.157053e+005
4.073900e+002, 3.147208e+005
4.078721e+002, 3.138006e+005
4.083542e+002, 3.128787e+005
4.088363e+002, 3.118375e+005
4.093184e+002, 3.109013e+005
4.098005e+002, 3.103463e+005
4.102827e+002, 3.100523e+005
4.107648e+002, 3.095921e+005
4.112469e+002, 3.087519e+005
4.117290e+002, 3.076929e+005
4.122111e+002, 3.067752e+005
4.126932e+002, 3.060289e+005
4.131754e+002, 3.053209e+005
4.136575e+002, 3.046054e+005
4.141396e+002, 3.039297e+005
4.146217e+002, 3.033829e+005
4.151038e+002, 3.029656e+005
4.155859e+002, 3.025288e+005
4.160681e+002, 3.019266e+005
4.165502e+002, 3.011458e+005
4.170323e+002, 3.002995e+005
4.175144e+002, 2.993122e+005
4.179965e+002, 2.983481e+005
4.184786e+002, 2.974339e+005
4.189608e+002, 2.965978e+005
4.194429e+002, 2.959021e+005
4.199250e+002, 2.953878e+005
4.204071e+002, 2.949681e+005
4.208892e+002, 2.943957e+005
4.213713e+002, 2.935350e+005
4.218535e+002, 2.927267e+005
4.223356e+002, 2.920847e+005
4.228177e+002, 2.914224e+005
4.232998e+002, 2.905441e+005
4.237819e+002, 2.894570e+005
4.242640e+002, 2.883801e+005
4.247462e+002, 2.875573e+005
4.252283e+002, 2.870075e+005
4.257104e+002, 2.863812e+005
4.261925e+002, 2.857118e+005
4.266746e+002, 2.849146e+005
4.271567e+002, 2.838347e+005
4.276389e+002, 2.826406e+005
4.281210e+002, 2.816047e+005
4.286031e+002, 2.808685e+005
4.290852e+002, 2.803042e+005
4.295673e+002, 2.796720e+005
4.300494e+002, 2.789649e+005
4.305316e+002, 2.782152e+005
4.310137e+002, 2.773782e+005
4.314958e+002, 2.765412e+005
4.319779e+002, 2.757816e+005
4.324600e+002, 2.750965e+005
4.329421e+002, 2.744031e+005
4.334243e+002, 2.736491e+005
4.339064e+002, 2.728377e+005
4.343885e+002, 2.719535e+005
4.348706e+002, 2.709369e+005
4.353527e+002, 2.699788e+005
4.358348e+002, 2.692729e+005
4.363170e+002, 2.686934e+005
4.367991e+002, 2.680189e+005
4.372812e+002, 2.671606e+005
4.377633e+002, 2.662428e+005
4.382454e+002, 2.653622e+005
4.387275e+002, 2.645150e+005
4.392097e+002, 2.637193e+005
4.396918e+002, 2.630198e+005
4.401739e+002, 2.623217e+005
4.406560e+002, 2.614316e+005
4.411381e+002, 2.603184e+005
4.416202e+002, 2.593538e+005
4.421024e+002, 2.587713e+005
4.425845e+002, 2.583219e+005
4.430666e+002, 2.577484e+005
4.435487e+002, 2.570225e+005
4.440308e+002, 2.561898e+005
4.445129e+002, 2.552413e+005
4.449951e+002, 2.542113e+005
4.454772e+002, 2.533763e+005
4.459593e+002, 2.529101e+005
4.464414e+002, 2.524127e+005
4.469235e+002, 2.517523e+005
4.474056e+002, 2.509885e+005
4.478878e+002, 2.501947e+005
4.483699e+002, 2.493980e+005
4.488520e+002, 2.486213e+005
4.493341e+002, 2.478960e+005
4.498162e+002, 2.472384e+005
4.502983e+002, 2.465970e+005
4.507805e+002, 2.460235e+005
4.512626e+002, 2.454188e+005
4.517447e+002, 2.447107e+005
4.522268e+002, 2.439243e+005
4.527089e+002, 2.431276e+005
4.531910e+002, 2.423695e+005
4.536732e+002, 2.416395e+005
4.541553e+002, 2.408968e+005
4.546374e+002, 2.401063e+005
4.551195e+002, 2.393643e+005
4.556016e+002, 2.387506e+005
4.560837e+002, 2.381453e+005
4.565659e+002, 2.374019e+005
4.570480e+002, 2.365085e+005
4.575301e+002, 2.356713e+005
4.580122e+002, 2.351443e+005
4.584943e+002, 2.349183e+005
4.589764e+002, 2.346491e+005
4.594586e+002, 2.344387e+005
4.599407e+002, 2.339987e+005
4.604228e+002, 2.330157e+005
4.609049e+002, 2.317575e+005
4.613870e+002, 2.307098e+005
4.618691e+002, 2.300920e+005
4.623513e+002, 2.296707e+005
4.628334e+002, 2.291853e+005
4.633155e+002, 2.286394e+005
4.637976e+002, 2.281267e+005
4.642797e+002, 2.277231e+005
4.647618e+002, 2.273079e+005
4.652440e+002, 2.267243e+005
4.657261e+002, 2.259734e+005
4.662082e+002, 2.251794e+005
4.666903e+002, 2.242912e+005
4.671724e+002, 2.234292e+005
4.676545e+002, 2.227924e+005
4.681367e+002, 2.223828e+005
4.686188e+002, 2.219395e+005
4.691009e+002, 2.212684e+005
4.695830e+002, 2.204323e+005
4.700651e+002, 2.197320e+005
4.705472e+002, 2.191643e+005
4.710294e+002, 2.187184e+005
4.715115e+002, 2.185145e+005
4.719936e+002, 2.183804e+005
4.724757e+002, 2.180846e+005
4.729578e+002, 2.175728e+005
4.734399e+002, 2.169699e+005
4.739221e+002, 2.164303e+005
4.744042e+002, 2.159821e+005
4.748863e+002, 2.154300e+005
4.753684e+002, 2.147030e+005
4.758505e+002, 2.139550e+005
4.763326e+002, 2.132284e+005
4.768148e+002, 2.125243e+005
4.772969e+002, 2.118177e+005
4.777790e+002, 2.110979e+005
4.782611e+002, 2.104199e+005
4.787432e+002, 2.099515e+005
4.792253e+002, 2.098327e+005
4.797075e+002, 2.095314e+005
4.801896e+002, 2.088041e+005
4.806717e+002, 2.080352e+005
4.811538e+002, 2.074344e+005
4.816359e+002, 2.069915e+005
4.821180e+002, 2.065736e+005
4.826002e+002, 2.061042e+005
4.830823e+002, 2.055931e+005
4.835644e+002, 2.050608e+005
4.840465e+002, 2.045139e+005
4.845286e+002, 2.039296e+005
4.850107e+002, 2.032725e+005
4.854929e+002, 2.025850e+005
4.859750e+002, 2.018969e+005
4.864571e+002, 2.012036e+005
4.869392e+002, 2.005738e+005
4.874213e+002, 2.000829e+005
4.879034e+002, 1.996801e+005
4.883856e+002, 1.992415e+005
4.888677e+002, 1.987345e+005
4.893498e+002, 1.982761e+005
4.898319e+002, 1.980327e+005
4.903140e+002, 1.979628e+005
4.907961e+002, 1.976192e+005
4.912783e+002, 1.967246e+005
4.917604e+002, 1.958486e+005
4.922425e+002, 1.952330e+005
4.927246e+002, 1.948189e+005
4.932067e+002, 1.945214e+005
4.936888e+002, 1.943120e+005
4.941710e+002, 1.941097e+005
4.946531e+002, 1.937882e+005
4.951352e+002, 1.932987e+005
4.956173e+002, 1.928408e+005
4.960994e+002, 1.924712e+005
4.965815e+002, 1.920740e+005
4.970637e+002, 1.915830e+005
4.975458e+002, 1.910220e+005
4.980279e+002, 1.904503e+005
4.985100e+002, 1.899005e+005
4.989921e+002, 1.893592e+005
4.994742e+002, 1.887639e+005
4.999564e+002, 1.880499e+005
5.004385e+002, 1.874494e+005
5.009206e+002, 1.870368e+005
5.014027e+002, 1.867085e+005
5.018848e+002, 1.864419e+005
5.023669e+002, 1.862163e+005
5.028491e+002, 1.859793e+005
5.033312e+002, 1.857177e+005
5.038133e+002, 1.854141e+005
5.042954e+002, 1.850045e+005
5.047775e+002, 1.844711e+005
5.052596e+002, 1.839240e+005
5.057418e+002, 1.833913e+005
5.062239e+002, 1.828927e+005
5.067060e+002, 1.824617e+005
5.071881e+002, 1.821206e+005
5.076702e+002, 1.817685e+005
5.081523e+002, 1.812919e+005
5.086345e+002, 1.807923e+005
5.091166e+002, 1.804924e+005
5.095987e+002, 1.804247e+005
5.100808e+002, 1.803146e+005
5.105629e+002, 1.799088e+005
5.110450e+002, 1.792419e+005
5.115272e+002, 1.787250e+005
5.120093e+002, 1.784865e+005
5.124914e+002, 1.782204e+005
5.129735e+002, 1.777671e+005
5.134556e+002, 1.772620e+005
5.139377e+002, 1.769016e+005
5.144199e+002, 1.767330e+005
5.149020e+002, 1.766212e+005
5.153841e+002, 1.763993e+005
5.158662e+002, 1.760508e+005
5.163483e+002, 1.757117e+005
5.168304e+002, 1.754793e+005
5.173126e+002, 1.751519e+005
5.177947e+002, 1.745757e+005
5.182768e+002, 1.738986e+005
5.187589e+002, 1.733437e+005
5.192410e+002, 1.730025e+005
5.197231e+002, 1.727573e+005
5.202053e+002, 1.724059e+005
5.206874e+002, 1.719312e+005
5.211695e+002, 1.716335e+005
5.216516e+002, 1.717086e+005
5.221337e+002, 1.717673e+005
5.226158e+002, 1.715429e+005
5.230980e+002, 1.710954e+005
5.235801e+002, 1.705861e+005
5.240622e+002, 1.699891e+005
5.245443e+002, 1.694383e+005
5.250264e+002, 1.690929e+005
5.255085e+002, 1.689298e+005
5.259907e+002, 1.688582e+005
5.264728e+002, 1.688927e+005
5.269549e+002, 1.689020e+005
5.274370e+002, 1.686521e+005
5.279191e+002, 1.680875e+005
5.284012e+002, 1.676291e+005
5.288834e+002, 1.673593e+005
5.293655e+002, 1.671742e+005
5.298476e+002, 1.670301e+005
5.303297e+002, 1.669099e+005
5.308118e+002, 1.667970e+005
5.312939e+002, 1.666849e+005
5.317761e+002, 1.665543e+005
5.322582e+002, 1.663488e+005
5.327403e+002, 1.659813e+005
5.332224e+002, 1.656965e+005
5.337045e+002, 1.655035e+005
5.341866e+002, 1.653756e+005
5.346688e+002, 1.653445e+005
5.351509e+002, 1.653675e+005
5.356330e+002, 1.653362e+005
5.361151e+002, 1.651701e+005
5.365972e+002, 1.649144e+005
5.370793e+002, 1.646859e+005
5.375615e+002, 1.644931e+005
5.380436e+002, 1.642995e+005
5.385257e+002, 1.640801e+005
5.390078e+002, 1.638730e+005
5.394899e+002, 1.637312e+005
5.399720e+002, 1.636513e+005
5.404542e+002, 1.635399e+005
5.409363e+002, 1.633337e+005
5.414184e+002, 1.630800e+005
5.419005e+002, 1.628320e+005
5.423826e+002, 1.625941e+005
5.428647e+002, 1.623947e+005
5.433469e+002, 1.622557e+005
5.438290e+002, 1.621556e+005
5.443111e+002, 1.620381e+005
5.447932e+002, 1.618908e+005
5.452753e+002, 1.617560e+005
5.457574e+002, 1.616329e+005
5.462396e+002, 1.615268e+005
5.467217e+002, 1.614491e+005
5.472038e+002, 1.613940e+005
5.476859e+002, 1.613438e+005
5.481680e+002, 1.612879e+005
5.486501e+002, 1.612221e+005
5.491323e+002, 1.611236e+005
5.496144e+002, 1.609485e+005
5.500965e+002, 1.608192e+005
5.505786e+002, 1.607598e+005
5.510607e+002, 1.607356e+005
5.515428e+002, 1.607112e+005
5.520250e+002, 1.606928e+005
5.525071e+002, 1.607287e+005
5.529892e+002, 1.608832e+005
5.534713e+002, 1.611088e+005
5.539534e+002, 1.612776e+005
5.544355e+002, 1.613915e+005
5.549177e+002, 1.614346e+005
5.553998e+002, 1.613829e+005
5.558819e+002, 1.612650e+005
5.563640e+002, 1.610842e+005
5.568461e+002, 1.608157e+005
5.573282e+002, 1.606907e+005
5.578104e+002, 1.609018e+005
5.582925e+002, 1.612432e+005
5.587746e+002, 1.614890e+005
5.592567e+002, 1.616261e+005
5.597388e+002, 1.617111e+005
5.602209e+002, 1.617818e+005
5.607031e+002, 1.618214e+005
5.611852e+002, 1.617770e+005
5.616673e+002, 1.615715e+005
5.621494e+002, 1.613859e+005
5.626315e+002, 1.611352e+005
5.631136e+002, 1.609740e+005
5.635958e+002, 1.611005e+005
5.640779e+002, 1.614407e+005
5.645600e+002, 1.617114e+005
5.650421e+002, 1.617021e+005
5.655242e+002, 1.614952e+005
5.660063e+002, 1.613488e+005
5.664885e+002, 1.612417e+005
5.669706e+002, 1.612579e+005
5.674527e+002, 1.615363e+005
5.679348e+002, 1.618596e+005
5.684169e+002, 1.621097e+005
5.688990e+002, 1.622726e+005
5.693812e+002, 1.623423e+005
5.698633e+002, 1.622379e+005
5.703454e+002, 1.620776e+005
5.708275e+002, 1.620272e+005
5.713096e+002, 1.620849e+005
5.717917e+002, 1.621989e+005
5.722739e+002, 1.623538e+005
5.727560e+002, 1.625469e+005
5.732381e+002, 1.627910e+005
5.737202e+002, 1.631243e+005
5.742023e+002, 1.633657e+005
5.746844e+002, 1.634443e+005
5.751666e+002, 1.634751e+005
5.756487e+002, 1.634933e+005
5.761308e+002, 1.635310e+005
5.766129e+002, 1.636577e+005
5.770950e+002, 1.639140e+005
5.775771e+002, 1.642340e+005
5.780593e+002, 1.644679e+005
5.785414e+002, 1.645744e+005
5.790235e+002, 1.647047e+005
5.795056e+002, 1.648509e+005
5.799877e+002, 1.650356e+005
5.804698e+002, 1.653117e+005
5.809520e+002, 1.656317e+005
5.814341e+002, 1.658982e+005
5.819162e+002, 1.660716e+005
5.823983e+002, 1.661630e+005
5.828804e+002, 1.661247e+005
5.833625e+002, 1.659793e+005
5.838447e+002, 1.659861e+005
5.843268e+002, 1.662409e+005
5.848089e+002, 1.665840e+005
5.852910e+002, 1.668900e+005
5.857731e+002, 1.671538e+005
5.862552e+002, 1.673079e+005
5.867374e+002, 1.672137e+005
5.872195e+002, 1.671487e+005
5.877016e+002, 1.672805e+005
5.881837e+002, 1.675340e+005
5.886658e+002, 1.677939e+005
5.891479e+002, 1.680207e+005
5.896301e+002, 1.681965e+005
5.901122e+002, 1.682837e+005
5.905943e+002, 1.682622e+005
5.910764e+002, 1.683440e+005
5.915585e+002, 1.686175e+005
5.920406e+002, 1.688951e+005
5.925228e+002, 1.691675e+005
5.930049e+002, 1.694033e+005
5.934870e+002, 1.695520e+005
5.939691e+002, 1.696037e+005
5.944512e+002, 1.696338e+005
5.949333e+002, 1.697374e+005
5.954155e+002, 1.698845e+005
5.958976e+002, 1.698987e+005
5.963797e+002, 1.697131e+005
5.968618e+002, 1.696633e+005
5.973439e+002, 1.700678e+005
5.978260e+002, 1.706973e+005
5.983082e+002, 1.709679e+005
5.987903e+002, 1.707131e+005
5.992724e+002, 1.705224e+005
5.997545e+002, 1.705962e+005
6.002366e+002, 1.708213e+005
6.007188e+002, 1.711265e+005
6.012009e+002, 1.714769e+005
6.016830e+002, 1.717967e+005
6.021651e+002, 1.720407e+005
6.026472e+002, 1.722036e+005
6.031293e+002, 1.722560e+005
6.036115e+002, 1.721065e+005
6.040936e+002, 1.720126e+005
6.045757e+002, 1.719981e+005
6.050578e+002, 1.720310e+005
6.055399e+002, 1.721524e+005
6.060220e+002, 1.723098e+005
6.065042e+002, 1.723520e+005
6.069863e+002, 1.721472e+005
6.074684e+002, 1.718541e+005
6.079505e+002, 1.717334e+005
6.084326e+002, 1.717816e+005
6.089147e+002, 1.718585e+005
6.093969e+002, 1.719363e+005
6.098790e+002, 1.720171e+005
6.103611e+002, 1.721223e+005
6.108432e+002, 1.722467e+005
6.113253e+002, 1.723015e+005
6.118074e+002, 1.722405e+005
6.122896e+002, 1.721465e+005
6.127717e+002, 1.720119e+005
6.132538e+002, 1.718880e+005
6.137359e+002, 1.718929e+005
6.142180e+002, 1.720500e+005
6.147001e+002, 1.722057e+005
6.151823e+002, 1.721631e+005
6.156644e+002, 1.719072e+005
6.161465e+002, 1.717556e+005
6.166286e+002, 1.718001e+005
6.171107e+002, 1.718247e+005
6.175928e+002, 1.717553e+005
6.180750e+002, 1.716510e+005
6.185571e+002, 1.715734e+005
6.190392e+002, 1.715342e+005
6.195213e+002, 1.715026e+005
6.200034e+002, 1.714366e+005
6.204855e+002, 1.713672e+005
6.209677e+002, 1.713795e+005
6.214498e+002, 1.714804e+005
6.219319e+002, 1.715727e+005
6.224140e+002, 1.716144e+005
6.228961e+002, 1.716133e+005
6.233782e+002, 1.715852e+005
6.238604e+002, 1.715415e+005
6.243425e+002, 1.714431e+005
6.248246e+002, 1.712435e+005
6.253067e+002, 1.710259e+005
6.257888e+002, 1.707838e+005
6.262709e+002, 1.705741e+005
6.267531e+002, 1.705418e+005
6.272352e+002, 1.707628e+005
6.277173e+002, 1.710693e+005
6.281994e+002, 1.711100e+005
6.286815e+002, 1.707988e+005
6.291636e+002, 1.707161e+005
6.296458e+002, 1.711855e+005
6.301279e+002, 1.715004e+005
6.306100e+002, 1.711538e+005
6.310921e+002, 1.704681e+005
6.315742e+002, 1.700181e+005
6.320563e+002, 1.699803e+005
6.325385e+002, 1.700934e+005
6.330206e+002, 1.702414e+005
6.335027e+002, 1.703889e+005
6.339848e+002, 1.704686e+005
6.344669e+002, 1.704706e+005
6.349490e+002, 1.704037e+005
6.354312e+002, 1.702617e+005
6.359133e+002, 1.700648e+005
6.363954e+002, 1.699044e+005
6.368775e+002, 1.697997e+005
6.373596e+002, 1.697109e+005
6.378417e+002, 1.696583e+005
6.383239e+002, 1.696046e+005
6.388060e+002, 1.695176e+005
6.392881e+002, 1.694044e+005
6.397702e+002, 1.692923e+005
6.402523e+002, 1.691943e+005
6.407344e+002, 1.691149e+005
6.412166e+002, 1.690682e+005
6.416987e+002, 1.690549e+005
6.421808e+002, 1.690543e+005
6.426629e+002, 1.690927e+005
6.431450e+002, 1.690925e+005
6.436271e+002, 1.689125e+005
6.441093e+002, 1.686197e+005
6.445914e+002, 1.684766e+005
6.450735e+002, 1.687114e+005
6.455556e+002, 1.688841e+005
6.460377e+002, 1.687036e+005
6.465198e+002, 1.683714e+005
6.470020e+002, 1.681765e+005
6.474841e+002, 1.681711e+005
6.479662e+002, 1.682368e+005
6.484483e+002, 1.682768e+005
6.489304e+002, 1.682902e+005
6.494125e+002, 1.682688e+005
6.498947e+002, 1.681985e+005
6.503768e+002, 1.681187e+005
6.508589e+002, 1.680628e+005
6.513410e+002, 1.679791e+005
6.518231e+002, 1.678206e+005
6.523052e+002, 1.675950e+005
6.527874e+002, 1.673523e+005
6.532695e+002, 1.670985e+005
6.537516e+002, 1.668573e+005
6.542337e+002, 1.666645e+005
6.547158e+002, 1.665130e+005
6.551979e+002, 1.663589e+005
6.556801e+002, 1.661815e+005
6.561622e+002, 1.660552e+005
6.566443e+002, 1.660957e+005
6.571264e+002, 1.663222e+005
6.576085e+002, 1.663393e+005
6.580906e+002, 1.659568e+005
6.585728e+002, 1.656343e+005
6.590549e+002, 1.655401e+005
6.595370e+002, 1.655230e+005
6.600191e+002, 1.654424e+005
6.605012e+002, 1.652661e+005
6.609833e+002, 1.650112e+005
6.614655e+002, 1.646630e+005
6.619476e+002, 1.642622e+005
6.624297e+002, 1.639458e+005
6.629118e+002, 1.637208e+005
6.633939e+002, 1.635391e+005
6.638760e+002, 1.634247e+005
6.643582e+002, 1.633028e+005
6.648403e+002, 1.630668e+005
6.653224e+002, 1.627271e+005
6.658045e+002, 1.624069e+005
6.662866e+002, 1.621101e+005
6.667687e+002, 1.618536e+005
6.672509e+002, 1.616954e+005
6.677330e+002, 1.615694e+005
6.682151e+002, 1.613687e+005
6.686972e+002, 1.610660e+005
6.691793e+002, 1.607073e+005
6.696614e+002, 1.603327e+005
6.701436e+002, 1.599425e+005
6.706257e+002, 1.595388e+005
6.711078e+002, 1.590955e+005
6.715899e+002, 1.586901e+005
6.720720e+002, 1.583409e+005
6.725541e+002, 1.580369e+005
6.730363e+002, 1.578009e+005
6.735184e+002, 1.576202e+005
6.740005e+002, 1.573826e+005
6.744826e+002, 1.570325e+005
6.749647e+002, 1.566055e+005
6.754468e+002, 1.560795e+005
6.759290e+002, 1.555028e+005
6.764111e+002, 1.550178e+005
6.768932e+002, 1.546693e+005
6.773753e+002, 1.544189e+005
6.778574e+002, 1.542464e+005
6.783395e+002, 1.541605e+005
6.788217e+002, 1.539356e+005
6.793038e+002, 1.535027e+005
6.797859e+002, 1.530115e+005
6.802680e+002, 1.524110e+005
6.807501e+002, 1.518196e+005
6.812322e+002, 1.513633e+005
6.817144e+002, 1.510415e+005
6.821965e+002, 1.507245e+005
6.826786e+002, 1.503277e+005
6.831607e+002, 1.498895e+005
6.836428e+002, 1.495091e+005
6.841249e+002, 1.491670e+005
6.846071e+002, 1.486743e+005
6.850892e+002, 1.479287e+005
6.855713e+002, 1.471698e+005
6.860534e+002, 1.466726e+005
6.865355e+002, 1.464549e+005
6.870176e+002, 1.462299e+005
6.874998e+002, 1.461096e+005
6.879819e+002, 1.458433e+005
6.884640e+002, 1.452711e+005
6.889461e+002, 1.445836e+005
6.894282e+002, 1.439457e+005
6.899103e+002, 1.433938e+005
6.903925e+002, 1.429042e+005
6.908746e+002, 1.424813e+005
6.913567e+002, 1.420911e+005
6.918388e+002, 1.416571e+005
6.923209e+002, 1.411797e+005
6.928030e+002, 1.406633e+005
6.932852e+002, 1.400825e+005
6.937673e+002, 1.395169e+005
6.942494e+002, 1.390947e+005
6.947315e+002, 1.387949e+005
6.952136e+002, 1.383151e+005
6.956957e+002, 1.373736e+005
6.961779e+002, 1.365763e+005
6.966600e+002, 1.362738e+005
6.971421e+002, 1.361394e+005
6.976242e+002, 1.357729e+005
6.981063e+002, 1.351582e+005
6.985884e+002, 1.345920e+005
6.990706e+002, 1.343247e+005
6.995527e+002, 1.342257e+005
7.000348e+002, 1.339122e+005
7.005169e+002, 1.333564e+005
7.009990e+002, 1.327437e+005
7.014811e+002, 1.320332e+005
7.019633e+002, 1.313797e+005
7.024454e+002, 1.309705e+005
7.029275e+002, 1.307331e+005
7.034096e+002, 1.304195e+005
7.038917e+002, 1.299518e+005
7.043738e+002, 1.294649e+005
7.048560e+002, 1.290018e+005
7.053381e+002, 1.285535e+005
7.058202e+002, 1.280910e+005
7.063023e+002, 1.276230e+005
7.067844e+002, 1.272083e+005
7.072665e+002, 1.268996e+005
7.077487e+002, 1.266315e+005
7.082308e+002, 1.262044e+005
7.087129e+002, 1.255567e+005
7.091950e+002, 1.250489e+005
7.096771e+002, 1.248445e+005
7.101592e+002, 1.246278e+005
7.106414e+002, 1.241678e+005
7.111235e+002, 1.235569e+005
7.116056e+002, 1.229877e+005
7.120877e+002, 1.225049e+005
7.125698e+002, 1.220376e+005
7.130519e+002, 1.215640e+005
7.135341e+002, 1.210859e+005
7.140162e+002, 1.206019e+005
7.144983e+002, 1.201168e+005
7.149804e+002, 1.196394e+005
7.154625e+002, 1.191718e+005
7.159446e+002, 1.187185e+005
7.164268e+002, 1.182768e+005
7.169089e+002, 1.178288e+005
7.173910e+002, 1.174739e+005
7.178731e+002, 1.172965e+005
7.183552e+002, 1.170951e+005
7.188373e+002, 1.167943e+005
7.193195e+002, 1.164058e+005
7.198016e+002, 1.159247e+005
7.202837e+002, 1.153297e+005
7.207658e+002, 1.147535e+005
7.212479e+002, 1.142373e+005
7.217300e+002, 1.137877e+005
7.222122e+002, 1.134371e+005
7.226943e+002, 1.131610e+005
7.231764e+002, 1.128892e+005
7.236585e+002, 1.125920e+005
7.241406e+002, 1.122468e+005
7.246227e+002, 1.118048e+005
7.251049e+002, 1.112439e+005
7.255870e+002, 1.107751e+005
7.260691e+002, 1.104666e+005
7.265512e+002, 1.101422e+005
7.270333e+002, 1.096988e+005
7.275154e+002, 1.092380e+005
7.279976e+002, 1.088661e+005
7.284797e+002, 1.085919e+005
7.289618e+002, 1.083551e+005
7.294439e+002, 1.081354e+005
7.299260e+002, 1.079391e+005
7.304081e+002, 1.078304e+005
7.308903e+002, 1.077436e+005
7.313724e+002, 1.075171e+005
7.318545e+002, 1.071068e+005
7.323366e+002, 1.065980e+005
7.328187e+002, 1.060628e+005
7.333008e+002, 1.055094e+005
7.337830e+002, 1.050293e+005
7.342651e+002, 1.046607e+005
7.347472e+002, 1.042836e+005
7.352293e+002, 1.038439e+005
7.357114e+002, 1.034110e+005
7.361935e+002, 1.030615e+005
7.366757e+002, 1.027711e+005
7.371578e+002, 1.024140e+005
7.376399e+002, 1.018444e+005
7.381220e+002, 1.013380e+005
7.386041e+002, 1.011557e+005
7.390862e+002, 1.011271e+005
7.395684e+002, 1.009928e+005
7.400505e+002, 1.007140e+005
7.405326e+002, 1.003688e+005
7.410147e+002, 1.000094e+005
7.414968e+002, 9.963493e+004
7.419789e+002, 9.923429e+004
7.424611e+002, 9.879073e+004
7.429432e+002, 9.838112e+004
7.434253e+002, 9.799473e+004
7.439074e+002, 9.767002e+004
7.443895e+002, 9.746225e+004
7.448716e+002, 9.731820e+004
7.453538e+002, 9.714588e+004
7.458359e+002, 9.693844e+004
7.463180e+002, 9.667835e+004
7.468001e+002, 9.631184e+004
7.472822e+002, 9.592447e+004
7.477643e+002, 9.558538e+004
7.482465e+002, 9.530624e+004
7.487286e+002, 9.510805e+004
7.492107e+002, 9.500163e+004
7.496928e+002, 9.490352e+004
7.501749e+002, 9.469155e+004
7.506570e+002, 9.436277e+004
7.511392e+002, 9.394792e+004
7.516213e+002, 9.336678e+004
7.521034e+002, 9.288325e+004
7.525855e+002, 9.269123e+004
7.530676e+002, 9.258852e+004
7.535497e+002, 9.231084e+004
7.540319e+002, 9.184859e+004
7.545140e+002, 9.144186e+004
7.549961e+002, 9.116940e+004
7.554782e+002, 9.094509e+004
7.559603e+002, 9.074651e+004
7.564424e+002, 9.055154e+004
7.569246e+002, 9.032774e+004
7.574067e+002, 9.006892e+004
7.578888e+002, 8.979523e+004
7.583709e+002, 8.952301e+004
7.588530e+002, 8.924491e+004
7.593351e+002, 8.892288e+004
7.598173e+002, 8.854693e+004
7.602994e+002, 8.822210e+004
7.607815e+002, 8.797820e+004
7.612636e+002, 8.778348e+004
7.617457e+002, 8.763977e+004
7.622278e+002, 8.752932e+004
7.627100e+002, 8.736297e+004
7.631921e+002, 8.709239e+004
7.636742e+002, 8.684038e+004
7.641563e+002, 8.664816e+004
7.646384e+002, 8.647691e+004
7.651205e+002, 8.628395e+004
7.656027e+002, 8.608399e+004
7.660848e+002, 8.593083e+004
7.665669e+002, 8.585124e+004
7.670490e+002, 8.578865e+004
7.675311e+002, 8.569284e+004
7.680132e+002, 8.555393e+004
7.684954e+002, 8.529506e+004
7.689775e+002, 8.489630e+004
7.694596e+002, 8.450284e+004
7.699417e+002, 8.418007e+004
7.704238e+002, 8.390419e+004
7.709059e+002, 8.363059e+004
7.713881e+002, 8.334757e+004
7.718702e+002, 8.312128e+004
7.723523e+002, 8.301943e+004
7.728344e+002, 8.289022e+004
7.733165e+002, 8.265359e+004
7.737986e+002, 8.237920e+004
7.742808e+002, 8.215105e+004
7.747629e+002, 8.197688e+004
7.752450e+002, 8.179347e+004
7.757271e+002, 8.153971e+004
7.762092e+002, 8.127243e+004
7.766913e+002, 8.108364e+004
7.771735e+002, 8.095785e+004
7.776556e+002, 8.083270e+004
7.781377e+002, 8.069319e+004
7.786198e+002, 8.056278e+004
7.791019e+002, 8.047135e+004
7.795840e+002, 8.039955e+004
7.800662e+002, 8.024566e+004
7.805483e+002, 7.996188e+004
7.810304e+002, 7.968524e+004
7.815125e+002, 7.939609e+004
7.819946e+002, 7.914477e+004
7.824767e+002, 7.898338e+004
7.829589e+002, 7.886979e+004
7.834410e+002, 7.872061e+004
7.839231e+002, 7.850629e+004
7.844052e+002, 7.830034e+004
7.848873e+002, 7.817121e+004
7.853694e+002, 7.805844e+004
7.858516e+002, 7.788187e+004
7.863337e+002, 7.765377e+004
7.868158e+002, 7.742507e+004
7.872979e+002, 7.721677e+004
7.877800e+002, 7.703726e+004
7.882621e+002, 7.689450e+004
7.887443e+002, 7.678982e+004
7.892264e+002, 7.673398e+004
7.897085e+002, 7.673353e+004
7.901906e+002, 7.676959e+004
7.906727e+002, 7.690009e+004
7.911548e+002, 7.700336e+004
7.916370e+002, 7.692257e+004
7.921191e+002, 7.668809e+004
7.926012e+002, 7.651763e+004
7.930833e+002, 7.653308e+004
7.935654e+002, 7.650395e+004
7.940475e+002, 7.631055e+004
7.945297e+002, 7.605318e+004
7.950118e+002, 7.583656e+004
7.954939e+002, 7.565685e+004
7.959760e+002, 7.544618e+004
7.964581e+002, 7.516295e+004
7.969402e+002, 7.485621e+004
7.974224e+002, 7.460273e+004
7.979045e+002, 7.439341e+004
7.983866e+002, 7.415414e+004
7.988687e+002, 7.386690e+004
7.993508e+002, 7.367523e+004
7.998329e+002, 7.368063e+004
8.003151e+002, 7.378203e+004
8.007972e+002, 7.380008e+004
8.012793e+002, 7.372979e+004
8.017614e+002, 7.359234e+004
8.022435e+002, 7.330668e+004
8.027256e+002, 7.305984e+004
8.032078e+002, 7.291448e+004
8.036899e+002, 7.282984e+004
8.041720e+002, 7.276430e+004
8.046541e+002, 7.271316e+004
8.051362e+002, 7.269395e+004
8.056183e+002, 7.278222e+004
8.061005e+002, 7.283041e+004
8.065826e+002, 7.262541e+004
8.070647e+002, 7.227569e+004
8.075468e+002, 7.201395e+004
8.080289e+002, 7.188163e+004
8.085110e+002, 7.184679e+004
8.089932e+002, 7.190206e+004
8.094753e+002, 7.198748e+004
8.099574e+002, 7.192996e+004
8.104395e+002, 7.168900e+004
8.109216e+002, 7.148600e+004
8.114037e+002, 7.135002e+004
8.118859e+002, 7.122329e+004
8.123680e+002, 7.109083e+004
8.128501e+002, 7.094368e+004
8.133322e+002, 7.075009e+004
8.138143e+002, 7.049270e+004
8.142964e+002, 7.031055e+004
8.147786e+002, 7.027810e+004
8.152607e+002, 7.028309e+004
8.157428e+002, 7.027795e+004
8.162249e+002, 7.026098e+004
8.167070e+002, 7.022816e+004
8.171891e+002, 7.018355e+004
8.176713e+002, 7.014944e+004
8.181534e+002, 7.014850e+004
8.186355e+002, 7.015962e+004
8.191176e+002, 7.013771e+004
8.195997e+002, 7.008719e+004
8.200818e+002, 7.004761e+004
8.205640e+002, 7.002721e+004
8.210461e+002, 7.000702e+004
8.215282e+002, 6.998323e+004
8.220103e+002, 6.993851e+004
8.224924e+002, 6.981909e+004
8.229745e+002, 6.958583e+004
8.234567e+002, 6.936185e+004
8.239388e+002, 6.913466e+004
8.244209e+002, 6.893023e+004
8.249030e+002, 6.878114e+004
8.253851e+002, 6.864778e+004
8.258672e+002, 6.845420e+004
8.263494e+002, 6.819330e+004
8.268315e+002, 6.801904e+004
8.273136e+002, 6.808616e+004
8.277957e+002, 6.819162e+004
8.282778e+002, 6.818405e+004
8.287599e+002, 6.808482e+004
8.292421e+002, 6.790445e+004
8.297242e+002, 6.766716e+004
8.302063e+002, 6.747493e+004
8.306884e+002, 6.740891e+004
8.311705e+002, 6.742861e+004
8.316526e+002, 6.744898e+004
8.321348e+002, 6.747130e+004
8.326169e+002, 6.743341e+004
8.330990e+002, 6.730994e+004
8.335811e+002, 6.718081e+004
8.340632e+002, 6.708917e+004
8.345453e+002, 6.702383e+004
8.350275e+002, 6.695526e+004
8.355096e+002, 6.686405e+004
8.359917e+002, 6.683004e+004
8.364738e+002, 6.692468e+004
8.369559e+002, 6.699201e+004
8.374380e+002, 6.695734e+004
8.379202e+002, 6.687601e+004
8.384023e+002, 6.681645e+004
8.388844e+002, 6.678266e+004
8.393665e+002, 6.672243e+004
8.398486e+002, 6.657398e+004
8.403307e+002, 6.642963e+004
8.408129e+002, 6.642585e+004
8.412950e+002, 6.648272e+004
8.417771e+002, 6.641016e+004
8.422592e+002, 6.620427e+004
8.427413e+002, 6.603930e+004
8.432234e+002, 6.603005e+004
8.437056e+002, 6.610214e+004
8.441877e+002, 6.611177e+004
8.446698e+002, 6.605692e+004
8.451519e+002, 6.595959e+004
8.456340e+002, 6.580663e+004
8.461161e+002, 6.564882e+004
8.465983e+002, 6.550115e+004
8.470804e+002, 6.536373e+004
8.475625e+002, 6.522594e+004
8.480446e+002, 6.508343e+004
8.485267e+002, 6.500254e+004
8.490089e+002, 6.503965e+004
8.494910e+002, 6.506916e+004
8.499731e+002, 6.502003e+004
8.504552e+002, 6.497627e+004
8.509373e+002, 6.505878e+004
8.514194e+002, 6.521863e+004
8.519016e+002, 6.527082e+004
8.523837e+002, 6.510639e+004
8.528658e+002, 6.491955e+004
8.533479e+002, 6.494100e+004
8.538300e+002, 6.503595e+004
8.543121e+002, 6.493399e+004
8.547943e+002, 6.466077e+004
8.552764e+002, 6.443269e+004
8.557585e+002, 6.434423e+004
8.562406e+002, 6.431884e+004
8.567227e+002, 6.425431e+004
8.572048e+002, 6.415683e+004
8.576870e+002, 6.411132e+004
8.581691e+002, 6.413110e+004
8.586512e+002, 6.415607e+004
8.591333e+002, 6.419886e+004
8.596154e+002, 6.419680e+004
8.600975e+002, 6.406035e+004
8.605797e+002, 6.382307e+004
8.610618e+002, 6.367562e+004
8.615439e+002, 6.365619e+004
8.620260e+002, 6.366063e+004
8.625081e+002, 6.369742e+004
8.629902e+002, 6.373603e+004
8.634724e+002, 6.378993e+004
8.639545e+002, 6.382147e+004
8.644366e+002, 6.374798e+004
8.649187e+002, 6.355362e+004
8.654008e+002, 6.339425e+004
8.658829e+002, 6.339055e+004
8.663651e+002, 6.346114e+004
8.668472e+002, 6.357203e+004
8.673293e+002, 6.367063e+004
8.678114e+002, 6.360580e+004
8.682935e+002, 6.336420e+004
8.687756e+002, 6.310831e+004
8.692578e+002, 6.295621e+004
8.697399e+002, 6.289390e+004
8.702220e+002, 6.291130e+004
8.707041e+002, 6.301425e+004
8.711862e+002, 6.305937e+004
8.716683e+002, 6.302192e+004
8.721505e+002, 6.296890e+004
8.726326e+002, 6.292352e+004
8.731147e+002, 6.289483e+004
8.735968e+002, 6.290701e+004
8.740789e+002, 6.297717e+004
8.745610e+002, 6.299351e+004
8.750432e+002, 6.295236e+004
8.755253e+002, 6.286516e+004
8.760074e+002, 6.265006e+004
8.764895e+002, 6.245746e+004
8.769716e+002, 6.246907e+004
8.774537e+002, 6.262305e+004
8.779359e+002, 6.265437e+004
8.784180e+002, 6.241332e+004
8.789001e+002, 6.218636e+004
8.793822e+002, 6.216063e+004
8.798643e+002, 6.223390e+004
8.803464e+002, 6.233606e+004
8.808286e+002, 6.242909e+004
8.813107e+002, 6.243259e+004
8.817928e+002, 6.232342e+004
8.822749e+002, 6.219713e+004
8.827570e+002, 6.215726e+004
8.832391e+002, 6.218124e+004
8.837213e+002, 6.219596e+004
8.842034e+002, 6.220337e+004
8.846855e+002, 6.224929e+004
8.851676e+002, 6.235380e+004
8.856497e+002, 6.242787e+004
8.861318e+002, 6.239833e+004
8.866140e+002, 6.228909e+004
8.870961e+002, 6.218207e+004
8.875782e+002, 6.208962e+004
8.880603e+002, 6.196234e+004
8.885424e+002, 6.172688e+004
8.890245e+002, 6.155762e+004
8.895067e+002, 6.158271e+004
8.899888e+002, 6.167437e+004
8.904709e+002, 6.167964e+004
8.909530e+002, 6.159292e+004
8.914351e+002, 6.152952e+004
8.919172e+002, 6.154791e+004
8.923994e+002, 6.155011e+004
8.928815e+002, 6.145379e+004
8.933636e+002, 6.135470e+004
8.938457e+002, 6.137711e+004
8.943278e+002, 6.148244e+004
8.948099e+002, 6.152594e+004
8.952921e+002, 6.143967e+004
8.957742e+002, 6.133580e+004
8.962563e+002, 6.134018e+004
8.967384e+002, 6.138775e+004
8.972205e+002, 6.134466e+004
8.977026e+002, 6.123740e+004
8.981848e+002, 6.119171e+004
8.986669e+002, 6.124604e+004
8.991490e+002, 6.135097e+004
8.996311e+002, 6.147099e+004
9.001132e+002, 6.158698e+004
9.005953e+002, 6.162238e+004
9.010775e+002, 6.157312e+004
9.015596e+002, 6.147672e+004
9.020417e+002, 6.131409e+004
9.025238e+002, 6.118302e+004
9.030059e+002, 6.114288e+004
9.034880e+002, 6.116972e+004
9.039702e+002, 6.121934e+004
9.044523e+002, 6.129897e+004
9.049344e+002, 6.136993e+004
9.054165e+002, 6.144125e+004
9.058986e+002, 6.149125e+004
9.063807e+002, 6.151009e+004
9.068629e+002, 6.150972e+004
9.073450e+002, 6.149252e+004
9.078271e+002, 6.146440e+004
9.083092e+002, 6.144871e+004
9.087913e+002, 6.147710e+004
9.092734e+002, 6.146525e+004
9.097556e+002, 6.132593e+004
9.102377e+002, 6.117343e+004
9.107198e+002, 6.112607e+004
9.112019e+002, 6.114132e+004
9.116840e+002, 6.111345e+004
9.121661e+002, 6.101572e+004
9.126483e+002, 6.092270e+004
9.131304e+002, 6.089205e+004
9.136125e+002, 6.090789e+004
9.140946e+002, 6.098267e+004
9.145767e+002, 6.108108e+004
9.150588e+002, 6.105145e+004
9.155410e+002, 6.088617e+004
9.160231e+002, 6.078339e+004
9.165052e+002, 6.087191e+004
9.169873e+002, 6.107488e+004
9.174694e+002, 6.126472e+004
9.179515e+002, 6.144374e+004
9.184337e+002, 6.154402e+004
9.189158e+002, 6.156052e+004
9.193979e+002, 6.151164e+004
9.198800e+002, 6.137567e+004
9.203621e+002, 6.123298e+004
9.208442e+002, 6.117833e+004
9.213264e+002, 6.120003e+004
9.218085e+002, 6.117439e+004
9.222906e+002, 6.101632e+004
9.227727e+002, 6.095115e+004
9.232548e+002, 6.105513e+004
9.237369e+002, 6.117802e+004
9.242191e+002, 6.126549e+004
9.247012e+002, 6.132058e+004
9.251833e+002, 6.134630e+004
9.256654e+002, 6.134243e+004
9.261475e+002, 6.133274e+004
9.266296e+002, 6.128811e+004
9.271118e+002, 6.128219e+004
9.275939e+002, 6.141209e+004
9.280760e+002, 6.155814e+004
9.285581e+002, 6.155716e+004
9.290402e+002, 6.144555e+004
9.295223e+002, 6.139567e+004
9.300045e+002, 6.148902e+004
9.304866e+002, 6.162016e+004
9.309687e+002, 6.168679e+004
9.314508e+002, 6.173380e+004
9.319329e+002, 6.186380e+004
9.324150e+002, 6.203575e+004
9.328972e+002, 6.209859e+004
9.333793e+002, 6.201905e+004
9.338614e+002, 6.191016e+004
9.343435e+002, 6.186270e+004
9.348256e+002, 6.187128e+004
9.353077e+002, 6.194033e+004
9.357899e+002, 6.206400e+004
9.362720e+002, 6.216152e+004
9.367541e+002, 6.222476e+004
9.372362e+002, 6.224497e+004
9.377183e+002, 6.220872e+004
9.382004e+002, 6.215587e+004
9.386826e+002, 6.214805e+004
9.391647e+002, 6.218669e+004
9.396468e+002, 6.221053e+004
9.401289e+002, 6.220313e+004
9.406110e+002, 6.222457e+004
9.410931e+002, 6.232859e+004
9.415753e+002, 6.240823e+004
9.420574e+002, 6.236022e+004
9.425395e+002, 6.223601e+004
9.430216e+002, 6.218037e+004
9.435037e+002, 6.222554e+004
9.439858e+002, 6.224233e+004
9.444680e+002, 6.218413e+004
9.449501e+002, 6.214075e+004
9.454322e+002, 6.211644e+004
9.459143e+002, 6.214453e+004
9.463964e+002, 6.229003e+004
9.468785e+002, 6.252601e+004
9.473607e+002, 6.272441e+004
9.478428e+002, 6.285227e+004
9.483249e+002, 6.291777e+004
9.488070e+002, 6.288866e+004
9.492891e+002, 6.282963e+004
9.497712e+002, 6.277404e+004
9.502534e+002, 6.274464e+004
9.507355e+002, 6.278976e+004
9.512176e+002, 6.291226e+004
9.516997e+002, 6.303427e+004
9.521818e+002, 6.309584e+004
9.526639e+002, 6.312566e+004
9.531461e+002, 6.313329e+004
9.536282e+002, 6.314708e+004
9.541103e+002, 6.326642e+004
9.545924e+002, 6.347586e+004
9.550745e+002, 6.362443e+004
9.555566e+002, 6.363748e+004
9.560388e+002, 6.358739e+004
9.565209e+002, 6.356108e+004
9.570030e+002, 6.355892e+004
9.574851e+002, 6.358754e+004
9.579672e+002, 6.364720e+004
9.584493e+002, 6.369914e+004
9.589315e+002, 6.373088e+004
9.594136e+002, 6.379648e+004
9.598957e+002, 6.395324e+004
9.603778e+002, 6.413766e+004
9.608599e+002, 6.416665e+004
9.613420e+002, 6.398713e+004
9.618242e+002, 6.392628e+004
9.623063e+002, 6.401929e+004
9.627884e+002, 6.415210e+004
9.632705e+002, 6.433921e+004
9.637526e+002, 6.448135e+004
9.642347e+002, 6.443132e+004
9.647169e+002, 6.423086e+004
9.651990e+002, 6.418957e+004
9.656811e+002, 6.443657e+004
9.661632e+002, 6.464709e+004
9.666453e+002, 6.477967e+004
9.671274e+002, 6.492266e+004
9.676096e+002, 6.516723e+004
9.680917e+002, 6.541263e+004
9.685738e+002, 6.551882e+004
9.690559e+002, 6.548292e+004
9.695380e+002, 6.544002e+004
9.700201e+002, 6.540380e+004
9.705023e+002, 6.539086e+004
9.709844e+002, 6.540644e+004
9.714665e+002, 6.544781e+004
9.719486e+002, 6.553100e+004
9.724307e+002, 6.563299e+004
9.729128e+002, 6.570870e+004
9.733950e+002, 6.574695e+004
9.738771e+002, 6.578553e+004
9.743592e+002, 6.583548e+004
9.748413e+002, 6.590780e+004
9.753234e+002, 6.603513e+004
9.758055e+002, 6.617854e+004
9.762877e+002, 6.626461e+004
9.767698e+002, 6.630723e+004
9.772519e+002, 6.640051e+004
9.777340e+002, 6.659120e+004
9.782161e+002, 6.676409e+004
9.786982e+002, 6.671790e+004
9.791804e+002, 6.660815e+004
9.796625e+002, 6.677523e+004
9.801446e+002, 6.714230e+004
9.806267e+002, 6.743290e+004
9.811088e+002, 6.759098e+004
9.815909e+002, 6.773591e+004
9.820731e+002, 6.795533e+004
9.825552e+002, 6.817177e+004
9.830373e+002, 6.822376e+004
9.835194e+002, 6.813660e+004
9.840015e+002, 6.809278e+004
9.844836e+002, 6.809802e+004
9.849658e+002, 6.812588e+004
9.854479e+002, 6.816923e+004
9.859300e+002, 6.821778e+004
9.864121e+002, 6.825120e+004
9.868942e+002, 6.829902e+004
9.873763e+002, 6.849295e+004
9.878585e+002, 6.887207e+004
9.883406e+002, 6.913231e+004
9.888227e+002, 6.922533e+004
9.893048e+002, 6.931913e+004
9.897869e+002, 6.950116e+004
9.902690e+002, 6.967290e+004
9.907512e+002, 6.969463e+004
9.912333e+002, 6.958567e+004
9.917154e+002, 6.959522e+004
9.921975e+002, 6.978559e+004
9.926796e+002, 6.996213e+004
9.931617e+002, 7.008263e+004
9.936439e+002, 7.022866e+004
9.941260e+002, 7.049726e+004
9.946081e+002, 7.078108e+004
9.950902e+002, 7.090259e+004
9.955723e+002, 7.085413e+004
9.960544e+002, 7.087988e+004
9.965366e+002, 7.104620e+004
9.970187e+002, 7.120612e+004
9.975008e+002, 7.129567e+004
9.979829e+002, 7.141395e+004
9.984650e+002, 7.165619e+004
9.989471e+002, 7.195577e+004
9.994293e+002, 7.219156e+004
9.999114e+002, 7.234552e+004
1.000393e+003, 7.249851e+004
1.000876e+003, 7.270748e+004
1.001358e+003, 7.287423e+004
1.001840e+003, 7.291023e+004
1.002322e+003, 7.292468e+004
1.002804e+003, 7.300773e+004
1.003286e+003, 7.315202e+004
1.003768e+003, 7.332439e+004
1.004250e+003, 7.351663e+004
1.004733e+003, 7.371138e+004
1.005215e+003, 7.392262e+004
1.005697e+003, 7.410734e+004
1.006179e+003, 7.420847e+004
1.006661e+003, 7.427865e+004
1.007143e+003, 7.436209e+004
1.007625e+003, 7.448123e+004
1.008107e+003, 7.468295e+004
1.008589e+003, 7.499172e+004
1.009072e+003, 7.531113e+004
1.009554e+003, 7.558061e+004
1.010036e+003, 7.579711e+004
1.010518e+003, 7.593866e+004
1.011000e+003, 7.603054e+004
1.011482e+003, 7.609830e+004
1.011964e+003, 7.616590e+004
1.012446e+003, 7.631224e+004
1.012929e+003, 7.659065e+004
1.013411e+003, 7.687737e+004
1.013893e+003, 7.697050e+004
1.014375e+003, 7.699189e+004
1.014857e+003, 7.719888e+004
1.015339e+003, 7.755905e+004
1.015821e+003, 7.797524e+004
1.016303e+003, 7.840538e+004
1.016785e+003, 7.874073e+004
1.017268e+003, 7.890034e+004
1.017750e+003, 7.897142e+004
1.018232e+003, 7.912360e+004
1.018714e+003, 7.931263e+004
1.019196e+003, 7.928841e+004
1.019678e+003, 7.908509e+004
1.020160e+003, 7.909593e+004
1.020642e+003, 7.942798e+004
1.021125e+003, 7.977863e+004
1.021607e+003, 7.989860e+004
1.022089e+003, 7.990400e+004
1.022571e+003, 8.007320e+004
1.023053e+003, 8.039651e+004
1.023535e+003, 8.065880e+004
1.024017e+003, 8.085020e+004
1.024499e+003, 8.103486e+004
1.024981e+003, 8.122928e+004
1.025464e+003, 8.145759e+004
1.025946e+003, 8.174878e+004
1.026428e+003, 8.207633e+004
1.026910e+003, 8.235257e+004
1.027392e+003, 8.257135e+004
1.027874e+003, 8.279032e+004
1.028356e+003, 8.300000e+004
1.028838e+003, 8.327313e+004
1.029321e+003, 8.365505e+004
1.029803e+003, 8.404995e+004
1.030285e+003, 8.436609e+004
1.030767e+003, 8.462009e+004
1.031249e+003, 8.490134e+004
1.031731e+003, 8.525745e+004
1.032213e+003, 8.543595e+004
1.032695e+003, 8.532680e+004
1.033177e+003, 8.530445e+004
1.033660e+003, 8.550765e+004
1.034142e+003, 8.584950e+004
1.034624e+003, 8.625832e+004
1.035106e+003, 8.672715e+004
1.035588e+003, 8.720241e+004
1.036070e+003, 8.774435e+004
1.036552e+003, 8.814328e+004
1.037034e+003, 8.832907e+004
1.037516e+003, 8.848519e+004
1.037999e+003, 8.866380e+004
1.038481e+003, 8.885759e+004
1.038963e+003, 8.906057e+004
1.039445e+003, 8.927227e+004
1.039927e+003, 8.948642e+004
1.040409e+003, 8.970192e+004
1.040891e+003, 8.992316e+004
1.041373e+003, 9.015255e+004
1.041855e+003, 9.038403e+004
1.042338e+003, 9.057283e+004
1.042820e+003, 9.079186e+004
1.043302e+003, 9.114228e+004
1.043784e+003, 9.160377e+004
1.044266e+003, 9.202870e+004
1.044748e+003, 9.250258e+004
1.045230e+003, 9.278672e+004
1.045712e+003, 9.264325e+004
1.046195e+003, 9.257794e+004
1.046677e+003, 9.280784e+004
1.047159e+003, 9.320464e+004
1.047641e+003, 9.369188e+004
1.048123e+003, 9.423274e+004
1.048605e+003, 9.464512e+004
1.049087e+003, 9.485711e+004
1.049569e+003, 9.503840e+004
1.050052e+003, 9.515255e+004
1.050534e+003, 9.530961e+004
1.051016e+003, 9.557705e+004
1.051498e+003, 9.590072e+004
1.051980e+003, 9.622895e+004
1.052462e+003, 9.655608e+004
1.052944e+003, 9.687968e+004
1.053426e+003, 9.716053e+004
1.053908e+003, 9.751867e+004
1.054391e+003, 9.806901e+004
1.054873e+003, 9.859898e+004
1.055355e+003, 9.899395e+004
1.055837e+003, 9.931738e+004
1.056319e+003, 9.962115e+004
1.056801e+003, 9.992562e+004
1.057283e+003, 1.002885e+005
1.057765e+003, 1.007411e+005
1.058248e+003, 1.012073e+005
1.058730e+003, 1.017313e+005
1.059212e+003, 1.021911e+005
1.059694e+003, 1.024705e+005
1.060176e+003, 1.026830e+005
1.060658e+003, 1.029445e+005
1.061140e+003, 1.032668e+005
1.061622e+003, 1.036473e+005
1.062104e+003, 1.041457e+005
1.062587e+003, 1.045247e+005
1.063069e+003, 1.045154e+005
1.063551e+003, 1.045679e+005
1.064033e+003, 1.049898e+005
1.064515e+003, 1.055850e+005
1.064997e+003, 1.061940e+005
1.065479e+003, 1.067510e+005
1.065961e+003, 1.071219e+005
1.066443e+003, 1.071960e+005
1.066926e+003, 1.073375e+005
1.067408e+003, 1.077177e+005
1.067890e+003, 1.081811e+005
1.068372e+003, 1.086803e+005
1.068854e+003, 1.091808e+005
1.069336e+003, 1.096573e+005
1.069818e+003, 1.101042e+005
1.070300e+003, 1.105129e+005
1.070782e+003, 1.108667e+005
1.071265e+003, 1.112632e+005
1.071747e+003, 1.118415e+005
1.072229e+003, 1.123677e+005
1.072711e+003, 1.126588e+005
1.073193e+003, 1.128567e+005
1.073675e+003, 1.130837e+005
1.074157e+003, 1.133612e+005
1.074639e+003, 1.136916e+005
1.075122e+003, 1.140777e+005
1.075604e+003, 1.145051e+005
1.076086e+003, 1.150578e+005
1.076568e+003, 1.155435e+005
1.077050e+003, 1.157698e+005
1.077532e+003, 1.159365e+005
1.078014e+003, 1.162539e+005
1.078496e+003, 1.166902e+005
1.078979e+003, 1.171044e+005
1.079461e+003, 1.174578e+005
1.079943e+003, 1.178465e+005
1.080425e+003, 1.182978e+005
1.080907e+003, 1.188120e+005
1.081389e+003, 1.194487e+005
1.081871e+003, 1.200939e+005
1.082353e+003, 1.206299e+005
1.082835e+003, 1.210903e+005
1.083318e+003, 1.215599e+005
1.083800e+003, 1.220576e+005
1.084282e+003, 1.225605e+005
1.084764e+003, 1.231294e+005
1.085246e+003, 1.236114e+005
1.085728e+003, 1.238103e+005
1.086210e+003, 1.240012e+005
1.086692e+003, 1.244034e+005
1.087175e+003, 1.249834e+005
1.087657e+003, 1.256773e+005
1.088139e+003, 1.264606e+005
1.088621e+003, 1.272136e+005
1.089103e+003, 1.279329e+005
1.089585e+003, 1.285496e+005
1.090067e+003, 1.290270e+005
1.090549e+003, 1.293964e+005
1.091031e+003, 1.295615e+005
1.091514e+003, 1.296949e+005
1.091996e+003, 1.300427e+005
1.092478e+003, 1.306290e+005
1.092960e+003, 1.313241e+005
1.093442e+003, 1.322160e+005
1.093924e+003, 1.329632e+005
1.094406e+003, 1.334330e+005
1.094888e+003, 1.337311e+005
1.095370e+003, 1.337325e+005
1.095853e+003, 1.337316e+005
1.096335e+003, 1.341676e+005
1.096817e+003, 1.349790e+005
1.097299e+003, 1.356349e+005
1.097781e+003, 1.359230e+005
1.098263e+003, 1.362400e+005
1.098745e+003, 1.367269e+005
1.099227e+003, 1.372583e+005
1.099709e+003, 1.377555e+005
1.100192e+003, 1.382761e+005
1.100674e+003, 1.388929e+005
1.101156e+003, 1.395882e+005
1.101638e+003, 1.402941e+005
1.102120e+003, 1.410194e+005
1.102602e+003, 1.416706e+005
1.103084e+003, 1.421760e+005
1.103566e+003, 1.426660e+005
1.104049e+003, 1.432493e+005
1.104531e+003, 1.437870e+005
1.105013e+003, 1.440458e+005
1.105495e+003, 1.441929e+005
1.105977e+003, 1.446227e+005
1.106459e+003, 1.453993e+005
1.106941e+003, 1.463471e+005
1.107423e+003, 1.475843e+005
1.107906e+003, 1.487861e+005
1.108388e+003, 1.500452e+005
1.108870e+003, 1.510559e+005
1.109352e+003, 1.514466e+005
1.109834e+003, 1.515243e+005
1.110316e+003, 1.518313e+005
1.110798e+003, 1.524161e+005
1.111280e+003, 1.528944e+005
1.111762e+003, 1.531772e+005
1.112245e+003, 1.534472e+005
1.112727e+003, 1.535935e+005
1.113209e+003, 1.538884e+005
1.113691e+003, 1.545298e+005
1.114173e+003, 1.553497e+005
1.114655e+003, 1.561766e+005
1.115137e+003, 1.570011e+005
1.115619e+003, 1.577556e+005
1.116102e+003, 1.583485e+005
1.116584e+003, 1.590292e+005
1.117066e+003, 1.598684e+005
1.117548e+003, 1.606906e+005
1.118030e+003, 1.614352e+005
1.118512e+003, 1.621406e+005
1.118994e+003, 1.628392e+005
1.119476e+003, 1.635338e+005
1.119958e+003, 1.642317e+005
1.120441e+003, 1.649024e+005
1.120923e+003, 1.656827e+005
1.121405e+003, 1.666372e+005
1.121887e+003, 1.675582e+005
1.122369e+003, 1.684055e+005
1.122851e+003, 1.691716e+005
1.123333e+003, 1.698230e+005
1.123815e+003, 1.704177e+005
1.124297e+003, 1.710847e+005
1.124780e+003, 1.718254e+005
1.125262e+003, 1.726029e+005
1.125744e+003, 1.734216e+005
1.126226e+003, 1.742421e+005
1.126708e+003, 1.750396e+005
1.127190e+003, 1.759045e+005
1.127672e+003, 1.769035e+005
1.128154e+003, 1.779572e+005
1.128636e+003, 1.789692e+005
1.129119e+003, 1.799267e+005
1.129601e+003, 1.806737e+005
1.130083e+003, 1.811841e+005
1.130565e+003, 1.818172e+005
1.131047e+003, 1.826187e+005
1.131529e+003, 1.834046e+005
1.132011e+003, 1.840855e+005
1.132493e+003, 1.848027e+005
1.132976e+003, 1.856971e+005
1.133458e+003, 1.867410e+005
1.133940e+003, 1.879255e+005
1.134422e+003, 1.892246e+005
1.134904e+003, 1.902239e+005
1.135386e+003, 1.909222e+005
1.135868e+003, 1.917078e+005
1.136350e+003, 1.926855e+005
1.136833e+003, 1.937096e+005
1.137315e+003, 1.946835e+005
1.137797e+003, 1.956390e+005
1.138279e+003, 1.966190e+005
1.138761e+003, 1.976253e+005
1.139243e+003, 1.986823e+005
1.139725e+003, 1.997665e+005
1.140207e+003, 2.007787e+005
1.140689e+003, 2.017075e+005
1.141172e+003, 2.025850e+005
1.141654e+003, 2.034299e+005
1.142136e+003, 2.042424e+005
1.142618e+003, 2.049512e+005
1.143100e+003, 2.056997e+005
1.143582e+003, 2.068183e+005
1.144064e+003, 2.081208e+005
1.144546e+003, 2.091695e+005
1.145029e+003, 2.100374e+005
1.145511e+003, 2.110781e+005
1.145993e+003, 2.123936e+005
1.146475e+003, 2.138585e+005
1.146957e+003, 2.154910e+005
1.147439e+003, 2.169730e+005
1.147921e+003, 2.179079e+005
1.148403e+003, 2.185856e+005
1.148885e+003, 2.192232e+005
1.149368e+003, 2.199182e+005
1.149850e+003, 2.208243e+005
1.150332e+003, 2.219149e+005
1.150814e+003, 2.229848e+005
1.151296e+003, 2.239033e+005
1.151778e+003, 2.250337e+005
1.152260e+003, 2.268358e+005
1.152742e+003, 2.286336e+005
1.153224e+003, 2.299199e+005
1.153707e+003, 2.310202e+005
1.154189e+003, 2.323450e+005
1.154671e+003, 2.337780e+005
1.155153e+003, 2.349322e+005
1.155635e+003, 2.357308e+005
1.156117e+003, 2.366335e+005
1.156599e+003, 2.378474e+005
1.157081e+003, 2.390993e+005
1.157563e+003, 2.402761e+005
1.158046e+003, 2.414965e+005
1.158528e+003, 2.428596e+005
1.159010e+003, 2.442876e+005
1.159492e+003, 2.456622e+005
1.159974e+003, 2.469898e+005
1.160456e+003, 2.484406e+005
1.160938e+003, 2.501263e+005
1.161420e+003, 2.517402e+005
1.161903e+003, 2.532853e+005
1.162385e+003, 2.547265e+005
1.162867e+003, 2.559864e+005
1.163349e+003, 2.572134e+005
1.163831e+003, 2.584852e+005
1.164313e+003, 2.598321e+005
1.164795e+003, 2.613345e+005
1.165277e+003, 2.630273e+005
1.165760e+003, 2.645969e+005
1.166242e+003, 2.659382e+005
1.166724e+003, 2.675238e+005
1.167206e+003, 2.695010e+005
1.167688e+003, 2.714630e+005
1.168170e+003, 2.731930e+005
1.168652e+003, 2.748124e+005
1.169134e+003, 2.764689e+005
1.169616e+003, 2.781428e+005
1.170099e+003, 2.796898e+005
1.170581e+003, 2.811097e+005
1.171063e+003, 2.827082e+005
1.171545e+003, 2.845107e+005
1.172027e+003, 2.862906e+005
1.172509e+003, 2.879896e+005
1.172991e+003, 2.899407e+005
1.173473e+003, 2.924540e+005
1.173956e+003, 2.950611e+005
1.174438e+003, 2.968996e+005
1.174920e+003, 2.981856e+005
1.175402e+003, 2.994458e+005
1.175884e+003, 3.007740e+005
1.176366e+003, 3.025090e+005
1.176848e+003, 3.046574e+005
1.177330e+003, 3.069771e+005
1.177813e+003, 3.093607e+005
1.178295e+003, 3.116986e+005
1.178777e+003, 3.138392e+005
1.179259e+003, 3.160151e+005
1.179741e+003, 3.186736e+005
1.180223e+003, 3.214343e+005
1.180705e+003, 3.236985e+005
1.181187e+003, 3.256178e+005
1.181669e+003, 3.275368e+005
1.182151e+003, 3.295230e+005
1.182634e+003, 3.314654e+005
1.183116e+003, 3.332643e+005
1.183598e+003, 3.351638e+005
1.184080e+003, 3.373153e+005
1.184562e+003, 3.395923e+005
1.185044e+003, 3.418621e+005
1.185526e+003, 3.442483e+005
1.186008e+003, 3.469817e+005
1.186490e+003, 3.499217e+005
1.186973e+003, 3.527365e+005
1.187455e+003, 3.553538e+005
1.187937e+003, 3.579768e+005
1.188419e+003, 3.606769e+005
1.188901e+003, 3.633572e+005
1.189383e+003, 3.658263e+005
1.189865e+003, 3.684900e+005
1.190347e+003, 3.716143e+005
1.190830e+003, 3.749791e+005
1.191312e+003, 3.784769e+005
1.191794e+003, 3.820147e+005
1.192276e+003, 3.851239e+005
1.192758e+003, 3.876076e+005
1.193240e+003, 3.903618e+005
1.193722e+003, 3.934348e+005
1.194204e+003, 3.966117e+005
1.194687e+003, 3.998230e+005
1.195169e+003, 4.032198e+005
1.195651e+003, 4.069675e+005
1.196133e+003, 4.108148e+005
1.196615e+003, 4.143811e+005
1.197097e+003, 4.176854e+005
1.197579e+003, 4.208111e+005
1.198061e+003, 4.238032e+005
1.198543e+003, 4.272893e+005
1.199026e+003, 4.312949e+005
1.199508e+003, 4.351030e+005
1.199990e+003, 4.384713e+005
1.200472e+003, 4.420556e+005
1.200954e+003, 4.463869e+005
1.201436e+003, 4.509718e+005
1.201918e+003, 4.550747e+005
1.202400e+003, 4.589162e+005
1.202883e+003, 4.627659e+005
1.203365e+003, 4.667585e+005
1.203847e+003, 4.712186e+005
1.204329e+003, 4.760923e+005
1.204811e+003, 4.811521e+005
1.205293e+003, 4.862835e+005
1.205775e+003, 4.912083e+005
1.206257e+003, 4.956357e+005
1.206740e+003, 4.999316e+005
1.207222e+003, 5.041513e+005
1.207704e+003, 5.085644e+005
1.208186e+003, 5.133594e+005
1.208668e+003, 5.185465e+005
1.209150e+003, 5.243578e+005
1.209632e+003, 5.306133e+005
1.210114e+003, 5.364534e+005
1.210596e+003, 5.414653e+005
1.211078e+003, 5.467375e+005
1.211561e+003, 5.527299e+005
1.212043e+003, 5.587431e+005
1.212525e+003, 5.644533e+005
1.213007e+003, 5.702451e+005
1.213489e+003, 5.763717e+005
1.213971e+003, 5.827242e+005
1.214453e+003, 5.890853e+005
1.214935e+003, 5.954602e+005
1.215417e+003, 6.020411e+005
1.215900e+003, 6.088689e+005
1.216382e+003, 6.157177e+005
1.216864e+003, 6.225559e+005
1.217346e+003, 6.293063e+005
1.217828e+003, 6.359448e+005
1.218310e+003, 6.424719e+005
1.218792e+003, 6.489127e+005
1.219274e+003, 6.554614e+005
1.219757e+003, 6.627053e+005
1.220239e+003, 6.704026e+005
1.220721e+003, 6.773646e+005
1.221203e+003, 6.838019e+005
1.221685e+003, 6.907581e+005
1.222167e+003, 6.982459e+005
1.222649e+003, 7.055254e+005
1.223131e+003, 7.123686e+005
1.223614e+003, 7.190179e+005
1.224096e+003, 7.256081e+005
1.224578e+003, 7.322648e+005
1.225060e+003, 7.391743e+005
1.225542e+003, 7.461829e+005
1.226024e+003, 7.532799e+005
1.226506e+003, 7.601936e+005
1.226988e+003, 7.663753e+005
1.227470e+003, 7.719811e+005
1.227953e+003, 7.776501e+005
1.228435e+003, 7.835238e+005
1.228917e+003, 7.892794e+005
1.229399e+003, 7.947245e+005
1.229881e+003, 8.000691e+005
1.230363e+003, 8.052878e+005
1.230845e+003, 8.105953e+005
1.231327e+003, 8.162861e+005
1.231810e+003, 8.220126e+005
1.232292e+003, 8.273382e+005
1.232774e+003, 8.323633e+005
1.233256e+003, 8.374593e+005
1.233738e+003, 8.426930e+005
1.234220e+003, 8.477042e+005
1.234702e+003, 8.524156e+005
1.235184e+003, 8.570881e+005
1.235667e+003, 8.617904e+005
1.236149e+003, 8.663181e+005
1.236631e+003, 8.705266e+005
1.237113e+003, 8.745842e+005
1.237595e+003, 8.786621e+005
1.238077e+003, 8.828384e+005
1.238559e+003, 8.874756e+005
1.239041e+003, 8.924863e+005
1.239523e+003, 8.974619e+005
1.240005e+003, 9.024184e+005
1.240488e+003, 9.072306e+005
1.240970e+003, 9.119796e+005
1.241452e+003, 9.171791e+005
1.241934e+003, 9.231280e+005
1.242416e+003, 9.295318e+005
1.242898e+003, 9.362758e+005
1.243380e+003, 9.431742e+005
1.243862e+003, 9.500634e+005
1.244344e+003, 9.570235e+005
1.244827e+003, 9.640331e+005
1.245309e+003, 9.713031e+005
1.245791e+003, 9.792129e+005
1.246273e+003, 9.877282e+005
1.246755e+003, 9.964686e+005
1.247237e+003, 1.005452e+006
1.247719e+003, 1.014288e+006
1.248201e+003, 1.022779e+006
1.248684e+003, 1.031320e+006
1.249166e+003, 1.039925e+006
1.249648e+003, 1.048689e+006
1.250130e+003, 1.057519e+006
1.250612e+003, 1.066633e+006
1.251094e+003, 1.076410e+006
1.251576e+003, 1.086787e+006
1.252058e+003, 1.097339e+006
1.252541e+003, 1.108216e+006
1.253023e+003, 1.117944e+006
1.253505e+003, 1.126376e+006
1.253987e+003, 1.135549e+006
1.254469e+003, 1.145961e+006
1.254951e+003, 1.157240e+006
1.255433e+003, 1.169212e+006
1.255915e+003, 1.181217e+006
1.256397e+003, 1.192506e+006
1.256880e+003, 1.203232e+006
1.257362e+003, 1.213351e+006
1.257844e+003, 1.223246e+006
1.258326e+003, 1.233686e+006
1.258808e+003, 1.244514e+006
1.259290e+003, 1.255353e+006
1.259772e+003, 1.266102e+006
1.260254e+003, 1.276978e+006
1.260737e+003, 1.288073e+006
1.261219e+003, 1.299018e+006
1.261701e+003, 1.309886e+006
1.262183e+003, 1.320188e+006
1.262665e+003, 1.329272e+006
1.263147e+003, 1.338211e+006
1.263629e+003, 1.347836e+006
1.264111e+003, 1.357772e+006
1.264594e+003, 1.367739e+006
1.265076e+003, 1.377526e+006
1.265558e+003, 1.386049e+006
1.266040e+003, 1.392728e+006
1.266522e+003, 1.400330e+006
1.267004e+003, 1.409217e+006
1.267486e+003, 1.417740e+006
1.267968e+003, 1.425521e+006
1.268450e+003, 1.433336e+006
1.268932e+003, 1.441633e+006
1.269415e+003, 1.449858e+006
1.269897e+003, 1.457502e+006
1.270379e+003, 1.464584e+006
1.270861e+003, 1.471043e+006
1.271343e+003, 1.477086e+006
1.271825e+003, 1.483195e+006
1.272307e+003, 1.489487e+006
1.272789e+003, 1.496395e+006
1.273271e+003, 1.503711e+006
1.273754e+003, 1.510319e+006
1.274236e+003, 1.515848e+006
1.274718e+003, 1.520983e+006
1.275200e+003, 1.526062e+006
1.275682e+003, 1.531066e+006
1.276164e+003, 1.535461e+006
1.276646e+003, 1.540353e+006
1.277128e+003, 1.547529e+006
1.277611e+003, 1.554866e+006
1.278093e+003, 1.559517e+006
1.278575e+003, 1.562248e+006
1.279057e+003, 1.565921e+006
1.279539e+003, 1.570888e+006
1.280021e+003, 1.575290e+006
1.280503e+003, 1.578466e+006
1.280985e+003, 1.582098e+006
1.281468e+003, 1.586969e+006
1.281950e+003, 1.591783e+006
1.282432e+003, 1.596008e+006
1.282914e+003, 1.600062e+006
1.283396e+003, 1.604345e+006
1.283878e+003, 1.608733e+006
1.284360e+003, 1.613046e+006
1.284842e+003, 1.616544e+006
1.285324e+003, 1.617392e+006
##END=



