##NAMES=Renierite
##RRUFFID=R050433
##IDEAL CHEMISTRY=(Cu^1+^,Cu^2+^Zn^2+^)_11_(Fe^2+^,Fe^3+^)_4_(Ge^4+^,As^5+^)_2_S^2-^_16_
##LOCALITY=Tsumeb mine, Tsumeb, Otavi District, Oshikoto, Namibia
##OWNER=RRUFF
##SOURCE=University of Arizona Mineral Museum
##DESCRIPTION=Bronze metallic massive
##STATUS=The identification of this mineral has been confirmed by X-ray diffraction and chemical analysis
##URL=rruff.info/R050433
##MEASURED CHEMISTRY=(Cu_10.51_Zn_0.49_)_Σ=11_Fe_4.00_(Ge_1.67_As_0.33_)_Σ=2_S_16_
99.35004, 282.9718
99.83215, 275.5417
100.3143, 272.7393
100.7964, 277.5222
101.2785, 286.0134
101.7606, 288.6711
102.2427, 281.7173
102.7249, 275.4135
103.2070, 272.2287
103.6891, 271.0440
104.1712, 269.5210
104.6533, 266.1832
105.1354, 262.3071
105.6176, 261.9808
106.0997, 268.3047
106.5818, 273.9061
107.0639, 273.1202
107.5460, 267.5628
108.0281, 265.7418
108.5103, 275.0827
108.9924, 291.0858
109.4745, 299.0423
109.9566, 292.9610
110.4387, 283.1819
110.9208, 276.2669
111.4030, 271.9817
111.8851, 274.0979
112.3672, 288.9136
112.8493, 311.8393
113.3314, 334.1760
113.8135, 354.1279
114.2957, 372.3483
114.7778, 390.4170
115.2599, 408.9507
115.7420, 425.1236
116.2241, 436.6015
116.7062, 444.4861
117.1884, 450.3744
117.6705, 454.2472
118.1526, 456.5511
118.6347, 458.2823
119.1168, 457.6132
119.5989, 459.4077
120.0811, 465.0510
120.5632, 474.5681
121.0453, 488.1771
121.5274, 506.0408
122.0095, 528.1302
122.4916, 553.9707
122.9738, 582.2535
123.4559, 616.4727
123.9380, 657.1893
124.4201, 704.6539
124.9022, 759.2777
125.3843, 824.6647
125.8665, 902.7905
126.3486, 974.7643
126.8307, 1038.287
127.3128, 1096.807
127.7949, 1144.937
128.2770, 1185.730
128.7592, 1232.078
129.2413, 1300.612
129.7234, 1398.304
130.2055, 1498.785
130.6876, 1622.892
131.1698, 1734.637
131.6519, 1810.859
132.1340, 1847.997
132.6161, 1858.744
133.0982, 1859.474
133.5803, 1839.264
134.0625, 1830.622
134.5446, 1843.701
135.0267, 1860.882
135.5088, 1872.748
135.9909, 1875.339
136.4730, 1865.272
136.9552, 1835.705
137.4373, 1776.714
137.9194, 1709.089
138.4015, 1621.332
138.8836, 1530.932
139.3657, 1453.420
139.8479, 1394.571
140.3300, 1353.088
140.8121, 1324.957
141.2942, 1318.599
141.7763, 1317.961
142.2584, 1320.956
142.7406, 1329.763
143.2227, 1348.024
143.7048, 1377.759
144.1869, 1416.166
144.6690, 1454.603
145.1511, 1494.196
145.6333, 1532.330
146.1154, 1564.483
146.5975, 1595.515
147.0796, 1635.704
147.5617, 1691.674
148.0438, 1757.596
148.5260, 1805.691
149.0081, 1833.883
149.4902, 1851.500
149.9723, 1857.734
150.4544, 1855.146
150.9365, 1848.786
151.4187, 1841.388
151.9008, 1832.383
152.3829, 1819.293
152.8650, 1810.329
153.3471, 1790.214
153.8292, 1743.760
154.3114, 1678.884
154.7935, 1620.705
155.2756, 1585.202
155.7577, 1568.986
156.2398, 1549.116
156.7219, 1519.115
157.2041, 1491.705
157.6862, 1470.152
158.1683, 1455.643
158.6504, 1455.412
159.1325, 1479.966
159.6146, 1522.765
160.0968, 1547.049
160.5789, 1544.403
161.0610, 1530.482
161.5431, 1515.682
162.0252, 1499.486
162.5073, 1474.558
162.9895, 1431.393
163.4716, 1374.952
163.9537, 1329.670
164.4358, 1305.869
164.9179, 1286.517
165.4000, 1257.094
165.8822, 1217.642
166.3643, 1178.364
166.8464, 1145.323
167.3285, 1117.880
167.8106, 1092.400
168.2927, 1068.412
168.7749, 1046.537
169.2570, 1028.109
169.7391, 1013.366
170.2212, 998.7216
170.7033, 980.5827
171.1854, 960.8494
171.6676, 944.2697
172.1497, 932.8568
172.6318, 924.3212
173.1139, 920.1522
173.5960, 921.9439
174.0781, 914.1752
174.5603, 875.9066
175.0424, 821.1611
175.5245, 779.6028
176.0066, 763.7469
176.4887, 760.6988
176.9708, 755.7218
177.4530, 748.5347
177.9351, 740.9080
178.4172, 734.8383
178.8993, 728.9856
179.3814, 720.8376
179.8635, 708.2449
180.3457, 693.8401
180.8278, 681.2886
181.3099, 671.0883
181.7920, 660.6224
182.2741, 645.4381
182.7562, 629.1937
183.2384, 618.3467
183.7205, 618.4603
184.2026, 622.7622
184.6847, 621.4473
185.1668, 613.6223
185.6489, 603.7783
186.1311, 593.0000
186.6132, 582.1545
187.0953, 572.5789
187.5774, 564.2177
188.0595, 557.6186
188.5416, 554.6006
189.0238, 556.3005
189.5059, 557.1150
189.9880, 555.6724
190.4701, 551.0136
190.9522, 540.2808
191.4343, 517.3982
191.9165, 491.8610
192.3986, 480.0962
192.8807, 485.8132
193.3628, 490.6218
193.8449, 479.6243
194.3270, 462.7758
194.8092, 453.1288
195.2913, 457.0995
195.7734, 467.7953
196.2555, 475.7980
196.7376, 481.1647
197.2197, 483.7334
197.7019, 481.8381
198.1840, 477.4521
198.6661, 472.3071
199.1482, 465.7729
199.6303, 459.9547
200.1124, 458.4762
200.5946, 462.1974
201.0767, 466.1427
201.5588, 467.5354
202.0409, 467.9166
202.5230, 469.1552
203.0051, 472.6012
203.4873, 475.7935
203.9694, 475.6000
204.4515, 471.7913
204.9336, 465.7757
205.4157, 455.9040
205.8978, 444.9216
206.3800, 435.6878
206.8621, 428.7374
207.3442, 423.8159
207.8263, 421.4134
208.3084, 421.9060
208.7905, 421.6480
209.2727, 418.5660
209.7548, 414.2039
210.2369, 410.2296
210.7190, 407.2456
211.2011, 403.9924
211.6832, 398.9870
212.1654, 392.1549
212.6475, 384.9416
213.1296, 375.9407
213.6117, 368.1031
214.0938, 364.6460
214.5760, 366.4799
215.0581, 371.0702
215.5402, 378.1683
216.0223, 387.7455
216.5044, 392.6049
216.9865, 387.4699
217.4687, 378.5087
217.9508, 371.7598
218.4329, 367.6164
218.9150, 366.0757
219.3971, 368.7901
219.8792, 375.2908
220.3614, 379.2726
220.8435, 377.4530
221.3256, 373.7538
221.8077, 372.8048
222.2898, 375.0406
222.7719, 377.0667
223.2541, 376.8547
223.7362, 374.5313
224.2183, 370.2655
224.7004, 362.1517
225.1825, 354.5886
225.6646, 353.2787
226.1468, 358.4100
226.6289, 362.1623
227.1110, 358.2710
227.5931, 349.2585
228.0752, 343.4265
228.5573, 342.5896
229.0395, 345.0614
229.5216, 350.8813
230.0037, 359.6840
230.4858, 365.0494
230.9679, 361.9494
231.4500, 353.6000
231.9322, 346.6714
232.4143, 341.7684
232.8964, 339.2793
233.3785, 340.8932
233.8606, 345.8201
234.3427, 350.0942
234.8249, 353.4933
235.3070, 355.1656
235.7891, 352.9724
236.2712, 346.0358
236.7533, 338.4885
237.2354, 333.9545
237.7176, 331.9128
238.1997, 330.5193
238.6818, 328.9397
239.1639, 328.0768
239.6460, 329.4046
240.1281, 333.1013
240.6103, 337.0411
241.0924, 340.5368
241.5745, 343.0135
242.0566, 342.1756
242.5387, 332.4452
243.0208, 323.3046
243.5030, 323.6168
243.9851, 332.7502
244.4672, 342.7877
244.9493, 349.6036
245.4314, 353.0163
245.9135, 354.0573
246.3957, 350.1913
246.8778, 346.3856
247.3599, 346.0338
247.8420, 348.2778
248.3241, 349.7241
248.8062, 348.2945
249.2884, 345.1070
249.7705, 344.0113
250.2526, 343.7192
250.7347, 346.6762
251.2168, 357.1353
251.6989, 371.3194
252.1811, 381.4342
252.6632, 384.0520
253.1453, 381.1453
253.6274, 376.5824
254.1095, 365.7187
254.5916, 361.3808
255.0738, 373.4492
255.5559, 391.0348
256.0380, 398.5710
256.5201, 390.9387
257.0022, 376.0570
257.4843, 366.4640
257.9665, 363.5234
258.4486, 364.2085
258.9307, 371.2712
259.4128, 380.3459
259.8949, 387.7530
260.3770, 392.7195
260.8592, 396.3837
261.3413, 400.3246
261.8234, 405.4653
262.3055, 407.3087
262.7876, 401.2957
263.2697, 395.9740
263.7519, 397.9389
264.2340, 406.4935
264.7161, 415.6796
265.1982, 419.8051
265.6803, 418.1949
266.1624, 418.1353
266.6446, 420.8421
267.1267, 423.6657
267.6088, 424.6350
268.0909, 424.8604
268.5730, 427.2080
269.0551, 434.0315
269.5373, 444.7196
270.0194, 452.7843
270.5015, 456.8665
270.9836, 459.4544
271.4657, 459.9918
271.9478, 459.4850
272.4300, 459.0508
272.9121, 459.1990
273.3942, 460.0980
273.8763, 462.1143
274.3584, 464.0632
274.8405, 469.4164
275.3227, 484.5804
275.8048, 499.8581
276.2869, 504.7064
276.7690, 495.6340
277.2511, 481.3014
277.7332, 476.3044
278.2154, 484.4272
278.6975, 490.3001
279.1796, 488.3684
279.6617, 486.2367
280.1438, 488.9048
280.6259, 496.9395
281.1081, 506.9857
281.5902, 516.7173
282.0723, 526.3273
282.5544, 532.6431
283.0365, 532.9236
283.5186, 532.1442
284.0008, 532.0826
284.4829, 533.1375
284.9650, 536.2190
285.4471, 545.8886
285.9292, 559.0400
286.4113, 560.5870
286.8935, 544.9946
287.3756, 527.7629
287.8577, 516.3174
288.3398, 509.9242
288.8219, 507.8930
289.3040, 514.5056
289.7862, 522.5896
290.2683, 519.5836
290.7504, 503.7316
291.2325, 487.8878
291.7146, 478.7780
292.1967, 474.1645
292.6789, 470.3774
293.1610, 467.5791
293.6431, 464.6736
294.1252, 461.1657
294.6073, 456.9528
295.0894, 450.9026
295.5716, 441.1334
296.0537, 430.8001
296.5358, 425.6252
297.0179, 426.0539
297.5000, 429.1552
297.9821, 436.2261
298.4643, 444.7686
298.9464, 450.3552
299.4285, 451.7871
299.9106, 449.9732
300.3927, 444.8830
300.8748, 435.0379
301.3570, 429.3968
301.8391, 428.8231
302.3212, 432.8567
302.8033, 444.8785
303.2854, 463.8820
303.7675, 478.7691
304.2497, 478.3294
304.7318, 460.7280
305.2139, 450.7445
305.6960, 451.5847
306.1781, 455.6345
306.6602, 459.8330
307.1424, 464.3991
307.6245, 471.2734
308.1066, 482.1422
308.5887, 495.5975
309.0708, 503.5799
309.5529, 499.4671
310.0351, 497.2451
310.5172, 497.8004
310.9993, 501.3439
311.4814, 509.1977
311.9635, 521.7382
312.4456, 535.6784
312.9278, 544.6043
313.4099, 545.9915
313.8920, 547.4253
314.3741, 547.6122
314.8562, 549.1976
315.3383, 554.6770
315.8205, 563.9379
316.3026, 574.1666
316.7847, 582.4770
317.2668, 588.6576
317.7489, 595.2436
318.2310, 603.8765
318.7132, 611.0950
319.1953, 614.0989
319.6774, 614.4284
320.1595, 616.4468
320.6416, 625.7622
321.1237, 637.6363
321.6059, 635.5651
322.0880, 612.3060
322.5701, 593.8043
323.0522, 598.1545
323.5343, 612.7521
324.0164, 622.4943
324.4986, 623.2808
324.9807, 618.7874
325.4628, 612.2925
325.9449, 603.7835
326.4270, 592.9818
326.9091, 579.2505
327.3913, 563.5411
327.8734, 547.2655
328.3555, 530.1887
328.8376, 513.7617
329.3197, 499.0942
329.8018, 485.4760
330.2840, 471.3803
330.7661, 456.4986
331.2482, 441.1221
331.7303, 424.0179
332.2124, 404.5832
332.6945, 392.8908
333.1767, 397.0348
333.6588, 403.5389
334.1409, 401.0975
334.6230, 390.6800
335.1051, 381.3407
335.5873, 379.7025
336.0694, 384.8437
336.5515, 386.2094
337.0336, 377.3995
337.5157, 372.7489
337.9979, 378.6728
338.4800, 390.0697
338.9621, 398.9659
339.4442, 402.0191
339.9263, 402.7336
340.4084, 408.9062
340.8906, 426.8443
341.3727, 438.9438
341.8548, 439.0488
342.3369, 438.1517
342.8190, 443.0826
343.3011, 454.9914
343.7833, 471.8889
344.2654, 495.2922
344.7475, 526.5005
345.2296, 541.6305
345.7117, 520.0343
346.1938, 505.5076
346.6760, 519.1218
347.1581, 551.6025
347.6402, 583.8427
348.1223, 606.1898
348.6044, 622.2692
349.0865, 639.8132
349.5687, 659.3754
350.0508, 678.5911
350.5329, 699.3790
351.0150, 717.8372
351.4971, 728.1286
351.9792, 727.3518
352.4614, 726.0721
352.9435, 735.5229
353.4256, 751.9750
353.9077, 759.8232
354.3898, 753.8343
354.8719, 741.1342
355.3541, 730.0187
355.8362, 720.6037
356.3183, 708.2154
356.8004, 689.2513
357.2825, 668.4298
357.7646, 653.3020
358.2468, 643.3042
358.7289, 626.8715
359.2110, 592.4765
359.6931, 542.6482
360.1752, 510.0058
360.6573, 506.0852
361.1395, 503.4825
361.6216, 492.8883
362.1037, 477.9686
362.5858, 465.3103
363.0679, 457.6889
363.5500, 452.7436
364.0322, 445.5613
364.5143, 433.6248
364.9964, 423.7564
365.4785, 417.1102
365.9606, 411.3676
366.4427, 405.1246
366.9249, 398.2177
367.4070, 391.1157
367.8891, 383.9579
368.3712, 376.7461
368.8533, 371.6761
369.3354, 371.1729
369.8176, 369.5604
370.2997, 363.0257
370.7818, 354.5187
371.2639, 349.7776
371.7460, 353.4067
372.2281, 357.2523
372.7103, 344.5853
373.1924, 312.8134
373.6745, 292.5266
374.1566, 301.2320
374.6387, 320.0338
375.1208, 326.5916
375.6030, 318.9401
376.0851, 310.6967
376.5672, 309.5305
377.0493, 312.3566
377.5314, 313.7164
378.0135, 312.8736
378.4957, 309.6350
378.9778, 302.4701
379.4599, 291.5075
379.9420, 285.1702
380.4241, 288.3250
380.9063, 291.6964
381.3884, 289.0060
381.8705, 282.2351
382.3526, 277.0711
382.8347, 276.5616
383.3168, 278.9297
383.7990, 279.2074
384.2811, 274.6868
384.7632, 271.6042
385.2453, 271.2928
385.7274, 271.6143
386.2095, 270.1483
386.6917, 266.9359
387.1738, 264.7589
387.6559, 267.7255
388.1380, 276.6159
388.6201, 278.8568
389.1022, 266.8864
389.5844, 256.7043
390.0665, 256.0523
390.5486, 260.4164
391.0307, 261.5143
391.5128, 254.4749
391.9949, 244.6313
392.4771, 241.3566
392.9592, 245.4586
393.4413, 249.3230
393.9234, 252.3858
394.4055, 252.5657
394.8876, 246.0711
395.3698, 231.9566
395.8519, 221.3797
396.3340, 223.8070
396.8161, 232.4541
397.2982, 234.9316
397.7803, 229.3601
398.2625, 221.5033
398.7446, 215.6278
399.2267, 211.7549
399.7088, 208.0315
400.1909, 203.6669
400.6730, 200.2476
401.1552, 199.8931
401.6373, 200.8114
402.1194, 198.7941
402.6015, 191.9231
403.0836, 183.4264
403.5657, 180.2508
404.0479, 187.8985
404.5300, 190.8558
405.0121, 187.3299
405.4942, 181.2438
405.9763, 173.0170
406.4584, 164.0667
406.9406, 158.0687
407.4227, 158.6372
407.9048, 164.7767
408.3869, 170.0542
408.8690, 175.9828
409.3511, 178.0711
409.8333, 169.5795
410.3154, 158.8530
410.7975, 156.8976
411.2796, 168.2236
411.7617, 181.1596
412.2438, 182.8099
412.7260, 175.2919
413.2081, 172.5263
413.6902, 179.4911
414.1723, 188.0078
414.6544, 187.6443
415.1365, 179.4810
415.6187, 173.7823
416.1008, 175.1221
416.5829, 177.6570
417.0650, 175.4656
417.5471, 169.5981
418.0292, 166.4326
418.5114, 170.3558
418.9935, 178.2148
419.4756, 179.1965
419.9577, 162.5651
420.4398, 152.8347
420.9219, 156.7328
421.4041, 164.5344
421.8862, 167.4973
422.3683, 164.4781
422.8504, 160.1847
423.3325, 159.3538
423.8146, 162.0583
424.2968, 165.7439
424.7789, 173.2825
425.2610, 177.8985
425.7431, 175.2443
426.2252, 169.0591
426.7073, 165.0870
427.1895, 165.9174
427.6716, 167.9859
428.1537, 167.0938
428.6358, 163.3120
429.1179, 157.6709
429.6000, 147.9593
430.0822, 139.9853
430.5643, 142.5192
431.0464, 154.8954
431.5285, 163.4123
432.0106, 160.4317
432.4927, 154.6578
432.9749, 155.3215
433.4570, 161.8150
433.9391, 167.3793
434.4212, 167.7961
434.9033, 164.5011
435.3854, 163.0663
435.8676, 165.9989
436.3497, 167.5471
436.8318, 165.8234
437.3139, 163.4475
437.7960, 162.4685
438.2781, 163.3802
438.7603, 165.9985
439.2424, 171.0969
439.7245, 178.7173
440.2066, 181.1048
440.6887, 173.8401
441.1708, 167.2651
441.6530, 165.0553
442.1351, 165.6244
442.6172, 167.0783
443.0993, 169.1285
443.5814, 170.7497
444.0635, 170.7609
444.5457, 169.2744
445.0278, 166.7239
445.5099, 162.1515
445.9920, 158.6006
446.4741, 161.4269
446.9562, 169.9646
447.4384, 174.3640
447.9205, 169.3910
448.4026, 162.7270
448.8847, 160.0229
449.3668, 160.6817
449.8489, 162.0523
450.3311, 162.9203
450.8132, 163.1272
451.2953, 162.2036
451.7774, 158.5860
452.2595, 156.2297
452.7416, 155.2511
453.2238, 155.3691
453.7059, 156.6395
454.1880, 158.8881
454.6701, 161.8159
455.1522, 165.9785
455.6343, 170.4384
456.1165, 169.5328
456.5986, 159.4764
457.0807, 153.0333
457.5628, 158.7152
458.0449, 168.6863
458.5270, 175.8557
459.0092, 179.1796
459.4913, 179.6993
459.9734, 176.7875
460.4555, 171.7637
460.9376, 167.6294
461.4197, 164.9290
461.9019, 161.9220
462.3840, 156.2027
462.8661, 148.3101
463.3482, 146.1774
463.8303, 155.9411
464.3124, 164.0064
464.7946, 163.4194
465.2767, 159.0855
465.7588, 158.7920
466.2409, 164.7965
466.7230, 172.2149
467.2051, 173.6371
467.6873, 167.1449
468.1694, 163.9590
468.6515, 169.3750
469.1336, 172.6576
469.6157, 167.4975
470.0978, 157.8682
470.5800, 151.2535
471.0621, 151.0714
471.5442, 154.5499
472.0263, 159.1655
472.5084, 164.7703
472.9905, 168.6584
473.4727, 170.4703
473.9548, 169.7800
474.4369, 164.1199
474.9190, 153.7505
475.4011, 147.0331
475.8832, 147.1450
476.3654, 150.0085
476.8475, 153.3399
477.3296, 156.8326
477.8117, 160.3940
478.2938, 164.0437
478.7759, 167.3901
479.2581, 169.5648
479.7402, 171.2053
480.2223, 170.3529
480.7044, 164.8299
481.1865, 158.9993
481.6686, 154.7103
482.1508, 152.4105
482.6329, 152.5087
483.1150, 156.0154
483.5971, 161.4654
484.0792, 166.0308
484.5613, 170.3152
485.0435, 169.8129
485.5256, 158.5142
486.0077, 145.0074
486.4898, 140.3669
486.9719, 145.4570
487.4540, 151.9590
487.9362, 158.3633
488.4183, 163.6034
488.9004, 165.4610
489.3825, 164.3730
489.8646, 164.4402
490.3467, 168.9054
490.8289, 175.8245
491.3110, 177.0843
491.7931, 165.5977
492.2752, 157.6403
492.7573, 157.1147
493.2394, 157.9209
493.7216, 154.1955
494.2037, 146.2418
494.6858, 139.4785
495.1679, 138.4809
495.6500, 142.2496
496.1321, 146.8731
496.6143, 153.0990
497.0964, 157.7923
497.5785, 158.9118
498.0606, 158.1742
498.5427, 157.4338
499.0248, 156.7533
499.5070, 156.4351
499.9891, 157.0865
500.4712, 157.9774
500.9533, 158.3509
501.4355, 158.0473
501.9176, 156.0205
502.3997, 150.5769
502.8818, 143.2714
503.3639, 143.2211
503.8460, 160.5374
504.3282, 172.3505
504.8103, 174.0366
505.2924, 171.3199
505.7745, 169.1615
506.2566, 168.0904
506.7387, 165.2024
507.2209, 155.6369
507.7030, 142.0115
508.1851, 140.0267
508.6672, 155.4643
509.1493, 165.1179
509.6314, 151.2365
510.1136, 130.3819
510.5957, 125.4046
511.0778, 141.2399
511.5599, 156.1809
512.0420, 158.5207
512.5241, 155.1406
513.0062, 155.0330
513.4883, 158.9346
513.9705, 163.5465
514.4526, 166.8737
514.9347, 168.6743
515.4168, 167.5818
515.8989, 160.0125
516.3810, 154.3064
516.8632, 151.2292
517.3453, 150.0350
517.8274, 151.7389
518.3095, 155.3126
518.7916, 156.3556
519.2737, 149.1137
519.7559, 137.2344
520.2380, 133.3065
520.7201, 138.4857
521.2022, 146.5917
521.6843, 159.4634
522.1664, 170.7709
522.6486, 169.0866
523.1307, 150.6186
523.6128, 139.2819
524.0949, 150.3760
524.5770, 167.1140
525.0591, 172.0733
525.5413, 165.8546
526.0234, 158.7385
526.5055, 157.0651
526.9876, 158.8961
527.4697, 157.4914
527.9518, 148.2518
528.4340, 144.4759
528.9161, 151.8455
529.3982, 160.1576
529.8803, 162.8957
530.3624, 160.5548
530.8445, 157.3881
531.3267, 156.1547
531.8088, 155.3196
532.2909, 151.2220
532.7730, 143.9425
533.2551, 139.0226
533.7372, 138.8604
534.2194, 141.0052
534.7015, 141.8280
535.1836, 140.9459
535.6657, 141.7617
536.1478, 145.7391
536.6299, 150.4761
537.1121, 155.1333
537.5942, 159.2957
538.0763, 161.9878
538.5584, 162.7458
539.0405, 162.9998
539.5226, 166.5596
540.0048, 175.8111
540.4869, 177.5819
540.9690, 164.1030
541.4511, 151.0584
541.9332, 146.2951
542.4153, 147.7366
542.8975, 151.0129
543.3796, 156.2697
543.8617, 160.2210
544.3438, 157.6195
544.8259, 151.4967
545.3080, 151.8114
545.7902, 161.3142
546.2723, 171.2805
546.7544, 172.7007
547.2365, 165.1906
547.7186, 159.2324
548.2007, 153.2130
548.6829, 150.4774
549.1650, 156.0492
549.6471, 163.1449
550.1292, 162.7800
550.6113, 153.5809
551.0934, 144.0130
551.5756, 143.1310
552.0577, 149.5067
552.5398, 155.2472
553.0219, 160.9623
553.5040, 163.3362
553.9861, 158.5322
554.4683, 150.3754
554.9504, 146.0994
555.4325, 146.2269
555.9146, 148.7133
556.3967, 155.5964
556.8788, 162.7325
557.3610, 166.0779
557.8431, 165.6672
558.3252, 163.6357
558.8073, 161.2983
559.2894, 158.4052
559.7715, 153.7314
560.2537, 145.2862
560.7358, 139.9646
561.2179, 140.4612
561.7000, 142.7503
562.1821, 145.8182
562.6642, 148.9861
563.1464, 150.5449
563.6285, 149.4899
564.1106, 146.7668
564.5927, 141.3762
565.0748, 134.7847
565.5569, 133.3654
566.0391, 139.3546
566.5212, 148.7562
567.0033, 157.5436
567.4854, 166.2128
567.9675, 170.3355
568.4496, 166.7917
568.9318, 162.9709
569.4139, 160.1637
569.8960, 158.7049
570.3781, 159.9341
570.8602, 163.8621
571.3423, 166.5461
571.8245, 161.3436
572.3066, 150.8437
572.7887, 149.0313
573.2708, 158.2512
573.7529, 167.7779
574.2350, 174.2218
574.7172, 176.1382
575.1993, 169.0702
575.6814, 146.4361
576.1635, 133.0135
576.6456, 141.2588
577.1277, 155.5347
577.6099, 164.3217
578.0920, 167.0922
578.5741, 167.2608
579.0562, 166.6769
579.5383, 165.5256
580.0204, 164.0475
580.5026, 161.9640
580.9847, 160.7192
581.4668, 160.1178
581.9489, 160.9110
582.4310, 166.0810
582.9132, 173.1531
583.3953, 174.1311
583.8774, 161.2619
584.3596, 148.9829
584.8417, 148.1078
585.3238, 154.4073
585.8059, 160.6953
586.2880, 165.1459
586.7701, 167.9063
587.2523, 169.1568
587.7344, 168.8638
588.2165, 166.0591
588.6986, 157.3462
589.1807, 151.2261
589.6628, 150.2672
590.1450, 151.5761
590.6271, 153.1941
591.1092, 154.7189
591.5913, 155.7621
592.0734, 156.0851
592.5555, 155.7851
593.0377, 153.8170
593.5198, 150.7521
594.0019, 151.7179
594.4840, 159.6467
594.9661, 169.2117
595.4482, 171.8273
595.9304, 165.0970
596.4125, 160.3030
596.8946, 157.9905
597.3767, 156.7408
597.8588, 155.5582
598.3409, 155.2643
598.8231, 157.8533
599.3052, 163.9377
599.7873, 169.7065
600.2694, 170.2299
600.7515, 167.1214
601.2336, 167.1316
601.7158, 171.1521
602.1979, 174.9045
602.6800, 176.7532
603.1621, 176.2113
603.6442, 171.1114
604.1263, 156.7339
604.6085, 148.3288
605.0906, 152.0737
605.5727, 158.2352
606.0548, 160.0207
606.5369, 158.6019
607.0190, 159.1483
607.5012, 164.6940
607.9833, 170.8471
608.4654, 168.5993
608.9475, 158.0860
609.4296, 153.4793
609.9117, 158.7207
610.3939, 165.1529
610.8760, 166.3947
611.3581, 163.6155
611.8402, 161.8887
612.3223, 160.3989
612.8044, 161.3074
613.2866, 169.5411
613.7687, 177.6981
614.2508, 177.0983
614.7329, 168.2667
615.2150, 157.4984
615.6971, 148.1269
616.1793, 142.2570
616.6614, 148.0167
617.1435, 168.1750
617.6256, 183.5454
618.1077, 190.9336
618.5898, 191.7921
619.0720, 183.7483
619.5541, 169.2925
620.0362, 159.7000
620.5183, 158.5487
621.0004, 160.6791
621.4825, 165.3012
621.9647, 171.0033
622.4468, 176.9585
622.9289, 182.3991
623.4110, 184.1305
623.8931, 177.7338
624.3752, 166.2111
624.8574, 167.6431
625.3395, 189.1626
625.8216, 200.9139
626.3037, 188.6003
626.7858, 169.7767
627.2679, 159.3657
627.7501, 157.0493
628.2322, 158.1856
628.7143, 164.0979
629.1964, 170.5990
629.6785, 175.0285
630.1606, 178.1315
630.6428, 182.3869
631.1249, 188.0265
631.6070, 190.6949
632.0891, 184.4480
632.5712, 170.5325
633.0533, 164.5195
633.5355, 170.1491
634.0176, 174.7455
634.4997, 171.2913
634.9818, 167.6178
635.4639, 173.4220
635.9460, 188.4070
636.4282, 197.2457
636.9103, 189.9568
637.3924, 179.4027
637.8745, 176.1320
638.3566, 176.8387
638.8387, 172.2831
639.3209, 160.1486
639.8030, 149.6289
640.2851, 152.9006
640.7672, 169.4021
641.2493, 178.8288
641.7314, 177.8099
642.2136, 177.0299
642.6957, 180.7111
643.1778, 185.7827
643.6599, 189.2373
644.1420, 190.9326
644.6241, 192.7178
645.1063, 197.0931
645.5884, 200.0851
646.0705, 197.1364
646.5526, 190.6586
647.0347, 185.7170
647.5168, 184.0264
647.9990, 184.5063
648.4811, 186.4399
648.9632, 189.7601
649.4453, 190.7236
649.9274, 188.7284
650.4095, 185.7191
650.8917, 180.9196
651.3738, 176.4120
651.8559, 175.0055
652.3380, 176.9004
652.8201, 178.0522
653.3022, 175.9518
653.7844, 173.9452
654.2665, 174.9867
654.7486, 177.8195
655.2307, 179.7625
655.7128, 179.9968
656.1949, 179.7608
656.6771, 180.8185
657.1592, 182.9287
657.6413, 182.3197
658.1234, 177.7440
658.6055, 174.1921
659.0876, 174.5589
659.5698, 175.8294
660.0519, 173.3533
660.5340, 166.8676
661.0161, 163.5438
661.4982, 167.3909
661.9803, 172.2147
662.4625, 174.0543
662.9446, 174.4580
663.4267, 176.8439
663.9088, 181.7875
664.3909, 185.7834
664.8730, 184.9303
665.3552, 179.9796
665.8373, 174.2593
666.3194, 167.1056
666.8015, 162.8780
667.2836, 163.5925
667.7657, 167.2328
668.2479, 172.1687
668.7300, 178.4939
669.2121, 182.9378
669.6942, 186.8567
670.1763, 186.9848
670.6584, 176.7050
671.1406, 164.4876
671.6227, 163.1193
672.1048, 173.4637
672.5869, 182.8727
673.0690, 179.0810
673.5511, 167.4717
674.0333, 162.0318
674.5154, 162.7814
674.9975, 167.3793
675.4796, 177.0049
675.9617, 185.4685
676.4438, 184.3942
676.9260, 173.1581
677.4081, 170.2169
677.8902, 186.9407
678.3723, 196.6834
678.8544, 187.4731
679.3365, 172.8207
679.8187, 164.0702
680.3008, 162.7419
680.7829, 166.2004
681.2650, 176.1007
681.7471, 185.8045
682.2292, 182.2504
682.7114, 168.8641
683.1935, 163.0709
683.6756, 169.3614
684.1577, 177.4575
684.6398, 178.1415
685.1219, 172.2742
685.6041, 167.5376
686.0862, 162.2754
686.5683, 160.9217
687.0504, 168.3269
687.5325, 175.5760
688.0146, 175.7151
688.4968, 170.5234
688.9789, 166.6967
689.4610, 167.3381
689.9431, 168.9769
690.4252, 169.4612
690.9073, 168.7092
691.3895, 165.3403
691.8716, 159.8021
692.3537, 156.8276
692.8358, 160.0543
693.3179, 167.0004
693.8000, 170.2533
694.2822, 168.3840
694.7643, 167.8753
695.2464, 170.0932
695.7285, 172.6457
696.2106, 174.2240
696.6927, 175.1557
697.1749, 176.2645
697.6570, 178.4123
698.1391, 178.6950
698.6212, 171.7847
699.1033, 165.7327
699.5854, 171.7175
700.0676, 185.2948
700.5497, 191.9887
701.0318, 185.0370
701.5139, 173.6133
701.9960, 171.4510
702.4781, 177.8963
702.9603, 183.1738
703.4424, 187.8941
703.9245, 186.6073
704.4066, 172.9284
704.8887, 155.1740
705.3708, 148.8333
705.8530, 156.9936
706.3351, 164.6200
706.8172, 174.0063
707.2993, 179.6322
707.7814, 176.0541
708.2635, 168.6408
708.7457, 164.3453
709.2278, 164.7121
709.7099, 166.8488
710.1920, 168.8667
710.6741, 170.9481
711.1563, 173.9917
711.6384, 177.6207
712.1205, 179.3356
712.6026, 178.2030
713.0847, 176.2302
713.5668, 175.7819
714.0490, 176.7991
714.5311, 176.3801
715.0132, 174.2410
715.4953, 171.1024
715.9774, 166.0655
716.4595, 160.9512
716.9417, 155.4818
717.4238, 150.7249
717.9059, 151.1355
718.3880, 162.4414
718.8701, 173.5685
719.3522, 178.5995
719.8344, 178.7023
720.3165, 172.4430
720.7986, 161.9543
721.2807, 156.8743
721.7628, 164.3723
722.2449, 178.0146
722.7271, 182.7053
723.2092, 177.8641
723.6913, 175.5172
724.1734, 177.9990
724.6555, 179.9514
725.1376, 175.8251
725.6198, 169.4442
726.1019, 173.1742
726.5840, 195.5447
727.0661, 206.8403
727.5482, 196.2210
728.0303, 182.0368
728.5125, 172.3577
728.9946, 167.0382
729.4767, 164.8589
729.9588, 165.4582
730.4409, 167.1577
730.9230, 169.6685
731.4052, 171.8233
731.8873, 171.1535
732.3694, 167.9522
732.8515, 163.7716
733.3336, 158.9925
733.8157, 155.8750
734.2979, 158.0613
734.7800, 165.6072
735.2621, 167.3732
735.7442, 158.1247
736.2263, 153.3348
736.7084, 162.4513
737.1906, 172.9131
737.6727, 172.5977
738.1548, 163.4307
738.6369, 159.0758
739.1190, 167.5116
739.6011, 175.5392
740.0833, 179.2484
740.5654, 178.1205
741.0475, 167.4538
741.5296, 150.5879
742.0117, 140.0903
742.4938, 143.9609
742.9760, 155.9491
743.4581, 168.1577
743.9402, 179.9981
744.4223, 187.6570
744.9044, 190.6612
745.3865, 188.7452
745.8687, 179.7644
746.3508, 168.7020
746.8329, 168.1670
747.3150, 186.1873
747.7971, 193.0825
748.2792, 177.4506
748.7614, 163.8582
749.2435, 161.6440
749.7256, 165.3474
750.2077, 168.6367
750.6898, 170.4822
751.1719, 170.8840
751.6541, 167.1299
752.1362, 164.3920
752.6183, 169.3640
753.1004, 178.1324
753.5825, 182.8623
754.0646, 181.8260
754.5468, 178.5040
755.0289, 175.8840
755.5110, 173.5097
755.9931, 168.7006
756.4752, 161.0732
756.9573, 160.0254
757.4395, 169.9676
757.9216, 178.9513
758.4037, 175.9952
758.8858, 164.3330
759.3679, 159.3452
759.8500, 166.0898
760.3322, 172.3473
760.8143, 180.4881
761.2964, 185.6491
761.7785, 183.8446
762.2606, 177.6303
762.7427, 171.1914
763.2249, 165.3670
763.7070, 161.7301
764.1891, 164.1782
764.6712, 167.2191
765.1533, 162.8996
765.6354, 153.6303
766.1176, 147.1627
766.5997, 146.0655
767.0818, 146.6228
767.5639, 144.0739
768.0460, 139.6940
768.5281, 140.4324
769.0103, 146.4737
769.4924, 157.7750
769.9745, 178.4801
770.4566, 195.0471
770.9387, 192.0789
771.4208, 171.9735
771.9030, 160.3928
772.3851, 162.8336
772.8672, 165.7515
773.3493, 170.8407
773.8314, 173.5581
774.3135, 168.0523
774.7957, 158.5079
775.2778, 155.0758
775.7599, 162.3345
776.2420, 168.4795
776.7241, 163.3618
777.2062, 154.6369
777.6884, 150.5018
778.1705, 151.1002
778.6526, 155.8576
779.1347, 164.2998
779.6168, 172.0135
780.0989, 173.0941
780.5811, 168.8158
781.0632, 165.8579
781.5453, 164.1212
782.0274, 164.8070
782.5095, 168.7292
782.9916, 174.0266
783.4738, 179.4513
783.9559, 184.8218
784.4380, 187.6355
784.9201, 187.9464
785.4022, 185.4756
785.8843, 175.8450
786.3665, 167.6471
786.8486, 167.5788
787.3307, 172.6943
787.8128, 176.1163
788.2949, 176.0524
788.7770, 174.6457
789.2592, 172.2075
789.7413, 169.5821
790.2234, 166.3531
790.7055, 163.8540
791.1876, 165.9784
791.6697, 173.6193
792.1519, 181.0604
792.6340, 181.8251
793.1161, 178.0061
793.5982, 176.3683
794.0803, 176.6799
794.5624, 174.3741
795.0446, 167.9359
795.5267, 160.5095
796.0088, 154.3095
796.4909, 149.8423
796.9730, 150.8729
797.4551, 162.0823
797.9373, 168.1853
798.4194, 163.8802
798.9015, 158.7928
799.3836, 158.6539
799.8657, 161.1344
800.3478, 161.6359
800.8300, 158.9001
801.3121, 157.4015
801.7942, 159.6639
802.2763, 162.1858
802.7584, 163.3250
803.2405, 163.0155
803.7227, 161.1170
804.2048, 157.7521
804.6869, 153.7800
805.1690, 148.5436
805.6511, 144.3046
806.1332, 144.9312
806.6154, 149.1926
807.0975, 153.7949
807.5796, 158.0310
808.0617, 161.8105
808.5438, 164.9824
809.0259, 167.9513
809.5081, 171.9919
809.9902, 177.3533
810.4723, 181.4628
810.9544, 184.0696
811.4365, 185.7968
811.9186, 187.2679
812.4008, 187.7029
812.8829, 185.6089
813.3650, 180.4868
813.8471, 175.1682
814.3292, 167.9824
814.8113, 162.7240
815.2935, 160.7106
815.7756, 160.7993
816.2577, 162.3183
816.7398, 165.0001
817.2219, 168.3781
817.7040, 173.9219
818.1862, 177.4162
818.6683, 174.3310
819.1504, 169.1226
819.6325, 166.6768
820.1146, 167.0237
820.5967, 168.5637
821.0789, 170.5908
821.5610, 172.7723
822.0431, 175.9053
822.5252, 178.6619
823.0073, 175.6491
823.4894, 167.4690
823.9716, 162.0616
824.4537, 162.1666
824.9358, 163.7120
825.4179, 162.4258
825.9000, 158.7438
826.3821, 155.3467
826.8643, 150.9795
827.3464, 151.6132
827.8285, 160.8033
828.3106, 170.8821
828.7927, 178.2652
829.2748, 182.3593
829.7570, 181.0055
830.2391, 171.1999
830.7212, 164.0814
831.2033, 160.4770
831.6854, 159.7157
832.1675, 164.8721
832.6497, 170.8005
833.1318, 169.9497
833.6139, 162.1232
834.0960, 156.5874
834.5781, 159.7739
835.0602, 164.5444
835.5424, 165.8788
836.0245, 165.5940
836.5066, 165.7108
836.9887, 166.7523
837.4708, 169.6190
837.9529, 175.1603
838.4351, 179.8786
838.9172, 177.8426
839.3993, 171.2926
839.8814, 167.1933
840.3635, 165.8096
840.8456, 165.6752
841.3278, 166.3165
841.8099, 167.1663
842.2920, 167.5356
842.7741, 167.4897
843.2562, 167.3036
843.7383, 166.2919
844.2205, 168.2377
844.7026, 175.2640
845.1847, 182.7071
845.6668, 187.4747
846.1489, 189.9960
846.6310, 191.9063
847.1132, 194.6232
847.5953, 193.7151
848.0774, 183.2851
848.5595, 176.0576
849.0416, 180.2363
849.5237, 188.4874
850.0059, 192.8555
850.4880, 192.3228
850.9701, 187.6085
851.4522, 172.9216
851.9343, 161.2195
852.4164, 162.8478
852.8986, 168.7776
853.3807, 167.6788
853.8628, 161.1617
854.3449, 159.0510
854.8270, 166.3348
855.3091, 175.1953
855.7913, 177.1908
856.2734, 175.7434
856.7555, 176.8119
857.2376, 180.0686
857.7197, 183.7717
858.2018, 187.1621
858.6840, 187.2707
859.1661, 179.5097
859.6482, 168.0150
860.1303, 168.1601
860.6124, 179.8602
861.0945, 186.7786
861.5767, 185.9621
862.0588, 182.0539
862.5409, 176.8552
863.0230, 172.5233
863.5051, 174.8412
863.9872, 186.7927
864.4694, 190.6960
864.9515, 180.7826
865.4336, 173.8225
865.9157, 178.8191
866.3978, 185.8785
866.8799, 182.4673
867.3621, 170.1024
867.8442, 164.2801
868.3263, 170.7842
868.8084, 176.4383
869.2905, 179.6203
869.7726, 181.0866
870.2548, 180.3058
870.7369, 178.4744
871.2190, 177.6132
871.7011, 178.2018
872.1832, 179.1370
872.6653, 182.4694
873.1475, 183.3352
873.6296, 174.3654
874.1117, 162.7658
874.5938, 158.4266
875.0759, 162.3819
875.5580, 171.3077
876.0402, 185.8783
876.5223, 196.6192
877.0044, 185.8125
877.4865, 166.8308
877.9686, 169.4299
878.4507, 189.9915
878.9329, 203.4720
879.4150, 200.2424
879.8971, 190.3547
880.3792, 184.4321
880.8613, 181.4162
881.3434, 177.5257
881.8256, 172.8619
882.3077, 168.4488
882.7898, 164.3611
883.2719, 162.1223
883.7540, 162.7370
884.2361, 165.9824
884.7183, 172.6856
885.2004, 184.8425
885.6825, 187.6397
886.1646, 176.4307
886.6467, 169.1121
887.1288, 174.9460
887.6110, 182.9460
888.0931, 178.9986
888.5752, 164.1694
889.0573, 158.8447
889.5394, 171.2249
890.0215, 180.2789
890.5037, 184.4037
890.9858, 185.3278
891.4679, 180.7846
891.9500, 174.8219
892.4321, 175.1667
892.9142, 183.7854
893.3964, 189.0493
893.8785, 186.1215
894.3606, 182.3495
894.8427, 180.3013
895.3248, 179.2505
895.8069, 178.1351
896.2891, 177.1974
896.7712, 177.6967
897.2533, 180.4761
897.7354, 183.5380
898.2175, 186.6684
898.6996, 188.6501
899.1818, 187.8278
899.6639, 185.1011
900.1460, 181.4313
900.6281, 177.5490
901.1102, 176.0134
901.5923, 179.8386
902.0745, 185.3498
902.5566, 188.6431
903.0387, 189.8001
903.5208, 188.2038
904.0029, 184.4322
904.4850, 180.6167
904.9672, 177.7735
905.4493, 177.1441
905.9314, 181.4429
906.4135, 189.1329
906.8956, 195.8748
907.3777, 201.2571
907.8599, 200.2072
908.3420, 191.4892
908.8241, 183.7670
909.3062, 184.1514
909.7883, 188.5529
910.2704, 186.2952
910.7526, 176.9688
911.2347, 167.1647
911.7169, 155.3158
912.1990, 154.4590
912.6811, 173.3470
913.1632, 194.9767
913.6453, 199.8923
914.1274, 189.6272
914.6096, 179.5464
915.0917, 166.7025
915.5738, 162.6873
916.0559, 174.5343
916.5380, 185.4406
917.0201, 185.9702
917.5023, 180.3359
917.9844, 175.6814
918.4665, 172.2278
918.9486, 168.3783
919.4307, 159.6530
919.9128, 156.6842
920.3950, 167.3872
920.8771, 178.8711
921.3592, 180.8016
921.8413, 176.3088
922.3234, 174.9712
922.8055, 179.9632
923.2877, 181.5819
923.7698, 171.7701
924.2519, 165.4017
924.7340, 173.5676
925.2161, 185.9678
925.6982, 190.3957
926.1804, 187.1421
926.6625, 185.7342
927.1446, 193.0267
927.6267, 195.4718
928.1088, 180.5735
928.5909, 164.0211
929.0731, 160.1819
929.5552, 163.9236
930.0373, 163.4453
930.5194, 156.8937
931.0015, 154.9763
931.4836, 169.1748
931.9658, 184.4902
932.4479, 187.7727
932.9300, 184.8960
933.4121, 182.4348
933.8942, 181.3561
934.3763, 181.6705
934.8585, 183.3440
935.3406, 184.2800
935.8227, 180.2461
936.3048, 176.0166
936.7869, 180.6688
937.2690, 190.0280
937.7512, 194.5127
938.2333, 192.9416
938.7154, 188.5741
939.1975, 182.8460
939.6796, 179.4233
940.1617, 186.1471
940.6439, 198.2495
941.1260, 202.6947
941.6081, 200.1982
942.0902, 195.8108
942.5723, 191.0272
943.0544, 186.5312
943.5366, 182.6039
944.0187, 180.0855
944.5008, 182.5319
944.9829, 188.6416
945.4650, 186.9942
945.9471, 177.2945
946.4293, 174.1826
946.9114, 183.4553
947.3935, 195.6893
947.8756, 200.9133
948.3577, 200.5467
948.8398, 200.3578
949.3220, 200.4316
949.8041, 197.6918
950.2862, 191.3472
950.7683, 185.5961
951.2504, 182.4145
951.7325, 181.0390
952.2147, 180.4304
952.6968, 180.6068
953.1789, 181.9869
953.6610, 184.9019
954.1431, 187.6622
954.6252, 190.6036
955.1074, 191.1221
955.5895, 186.2490
956.0716, 180.0387
956.5537, 180.9343
957.0358, 190.1825
957.5179, 194.5224
958.0001, 191.9791
958.4822, 189.7631
958.9643, 190.1002
959.4464, 189.9213
959.9285, 186.6089
960.4106, 181.2786
960.8928, 176.6611
961.3749, 171.7391
961.8570, 171.5431
962.3391, 182.1683
962.8212, 186.8297
963.3033, 174.6055
963.7855, 161.7452
964.2676, 163.5103
964.7497, 176.5736
965.2318, 186.6614
965.7139, 194.7132
966.1960, 197.8471
966.6782, 192.8786
967.1603, 186.9681
967.6424, 179.5412
968.1245, 174.3062
968.6066, 177.0292
969.0887, 186.1560
969.5709, 190.3977
970.0530, 184.0985
970.5351, 181.3097
971.0172, 185.9317
971.4993, 190.7981
971.9814, 194.2314
972.4636, 195.2937
972.9457, 191.2063
973.4278, 182.6196
973.9099, 178.4123
974.3920, 181.8152
974.8741, 186.7005
975.3563, 194.8065
975.8384, 201.1547
976.3205, 203.5324
976.8026, 202.1234
977.2847, 194.7434
977.7668, 181.7050
978.2490, 176.5574
978.7311, 191.5931
979.2132, 201.5681
979.6953, 195.2376
980.1774, 185.9216
980.6595, 181.4064
981.1417, 180.6940
981.6238, 181.8949
982.1059, 184.7268
982.5880, 186.2395
983.0701, 183.7511
983.5522, 182.2675
984.0344, 184.5098
984.5165, 187.6387
984.9986, 187.4070
985.4807, 187.0124
985.9628, 196.3669
986.4449, 218.2500
986.9271, 226.7575
987.4092, 198.9559
987.8913, 173.7344
988.3734, 172.5501
988.8555, 178.2729
989.3376, 175.2644
989.8198, 166.6460
990.3019, 163.0346
990.7840, 167.3542
991.2661, 170.2095
991.7482, 167.3237
992.2303, 162.7241
992.7125, 155.7674
993.1946, 150.3051
993.6767, 150.2188
994.1588, 154.7072
994.6409, 162.0108
995.1230, 172.4196
995.6052, 179.0441
996.0873, 174.6084
996.5694, 170.5796
997.0515, 174.8910
997.5336, 181.7560
998.0157, 186.7703
998.4979, 188.6101
998.9800, 184.1376
999.4621, 170.7456
999.9442, 163.8695
1000.426, 178.8710
1000.908, 192.8335
1001.391, 188.0221
1001.873, 178.0159
1002.355, 178.6087
1002.837, 187.6121
1003.319, 193.3264
1003.801, 191.6824
1004.283, 190.7069
1004.765, 197.7560
1005.247, 202.3043
1005.730, 194.4582
1006.212, 183.2733
1006.694, 176.5116
1007.176, 175.8292
1007.658, 184.6029
1008.140, 207.1650
1008.622, 220.1903
1009.104, 203.4795
1009.587, 185.4955
1010.069, 182.4755
1010.551, 187.7993
1011.033, 196.4319
1011.515, 205.8072
1011.997, 211.7703
1012.479, 212.7278
1012.961, 212.1035
1013.443, 211.5538
1013.926, 209.5556
1014.408, 204.3050
1014.890, 197.8654
1015.372, 191.7848
1015.854, 186.5639
1016.336, 182.3162
1016.818, 178.4942
1017.300, 178.6326
1017.783, 189.4717
1018.265, 198.1331
1018.747, 194.8328
1019.229, 188.4088
1019.711, 190.2525
1020.193, 196.6836
1020.675, 193.0186
1021.157, 172.1148
1021.639, 160.6842
1022.122, 179.9072
1022.604, 195.2324
1023.086, 184.4800
1023.568, 167.7953
1024.050, 165.1368
1024.532, 172.7218
1025.014, 175.3724
1025.496, 168.4222
1025.979, 166.4595
1026.461, 178.9818
1026.943, 189.8276
1027.425, 194.1006
1027.907, 192.8246
1028.389, 181.7727
1028.871, 167.0900
1029.353, 164.2169
1029.835, 177.8884
1030.318, 188.6316
1030.800, 193.1349
1031.282, 194.0960
1031.764, 189.3569
1032.246, 184.1847
1032.728, 180.4344
1033.210, 179.7439
1033.692, 187.5989
1034.174, 207.5971
1034.657, 216.6446
1035.139, 204.2891
1035.621, 192.2659
1036.103, 182.4341
1036.585, 177.1715
1037.067, 181.1422
1037.549, 189.6017
1038.031, 193.5706
1038.514, 192.1860
1038.996, 190.7667
1039.478, 187.9802
1039.960, 187.2865
1040.442, 189.6789
1040.924, 193.6837
1041.406, 201.3175
1041.888, 208.1827
1042.370, 205.4998
1042.853, 192.3635
1043.335, 187.5389
1043.817, 197.8604
1044.299, 201.5316
1044.781, 189.2005
1045.263, 182.8624
1045.745, 199.1533
1046.227, 220.3408
1046.709, 219.8378
1047.192, 199.3481
1047.674, 191.4832
1048.156, 201.2806
1048.638, 207.8877
1049.120, 209.9919
1049.602, 206.7568
1050.084, 195.1216
1050.566, 184.0223
1051.049, 185.2141
1051.531, 180.6046
1052.013, 180.3870
1052.495, 186.0968
1052.977, 184.0119
1053.459, 194.2425
1053.941, 197.8921
1054.423, 186.2017
1054.906, 174.4543
1055.388, 178.1966
1055.870, 192.6591
1056.352, 203.6454
1056.834, 211.1324
1057.316, 217.3101
1057.798, 222.3143
1058.280, 222.7304
1058.762, 217.4504
1059.245, 209.3961
1059.727, 200.2354
1060.209, 192.2296
1060.691, 192.6433
1061.173, 198.5865
1061.655, 190.8539
1062.137, 172.1908
1062.619, 167.0388
1063.101, 179.7550
1063.584, 193.2254
1064.066, 197.1120
1064.548, 194.0167
1065.030, 182.3251
1065.512, 168.8270
1065.994, 173.8451
1066.476, 190.6950
1066.958, 199.0091
1067.441, 196.8229
1067.923, 193.8000
1068.405, 194.4674
1068.887, 194.9402
1069.369, 188.5651
1069.851, 181.9863
1070.333, 186.6171
1070.815, 196.2220
1071.297, 200.1334
1071.780, 198.7883
1072.262, 197.2253
1072.744, 197.2155
1073.226, 198.6830
1073.708, 204.4554
1074.190, 207.8928
1074.672, 202.1289
1075.154, 192.4814
1075.636, 181.7406
1076.119, 172.7282
1076.601, 169.8267
1077.083, 173.4365
1077.565, 179.1432
1078.047, 186.7105
1078.529, 193.0639
1079.011, 196.2245
1079.494, 198.2731
1079.976, 201.9708
1080.458, 204.5138
1080.940, 199.6411
1081.422, 189.4441
1081.904, 186.6006
1082.386, 197.4674
1082.868, 206.2613
1083.350, 210.3024
1083.833, 211.4330
1084.315, 208.2579
1084.797, 204.3206
1085.279, 202.4548
1085.761, 202.3276
1086.243, 202.9611
1086.725, 205.1278
1087.207, 204.8799
1087.689, 201.8955
1088.172, 196.7019
1088.654, 186.1061
1089.136, 178.9501
1089.618, 182.0270
1090.100, 190.2536
1090.582, 195.4407
1091.064, 197.5791
1091.546, 195.8382
1092.029, 189.1174
1092.511, 183.3350
1092.993, 178.4254
1093.475, 179.0533
1093.957, 188.3898
1094.439, 199.1070
1094.921, 202.7855
1095.403, 201.2240
1095.885, 200.5319
1096.368, 200.6133
1096.850, 199.6774
1097.332, 197.8436
1097.814, 199.3825
1098.296, 205.3516
1098.778, 209.6683
1099.260, 207.6705
1099.742, 201.7573
1100.224, 192.3781
1100.707, 183.5517
1101.189, 187.6816
1101.671, 200.3538
1102.153, 208.8731
1102.635, 211.3517
1103.117, 211.7754
1103.599, 212.0285
1104.081, 211.1617
1104.564, 209.8707
1105.046, 205.4799
1105.528, 189.6991
1106.010, 172.9495
1106.492, 169.1079
1106.974, 176.5098
1107.456, 190.4333
1107.938, 208.6103
1108.421, 219.5418
1108.903, 212.6550
1109.385, 204.7093
1109.867, 202.6964
1110.349, 203.0985
1110.831, 204.6278
1111.313, 206.2797
1111.795, 208.6205
1112.277, 210.5257
1112.760, 205.3077
1113.242, 185.1230
1113.724, 173.0956
1114.206, 180.1483
1114.688, 183.8631
1115.170, 170.3556
1115.652, 160.1015
1116.134, 172.9480
1116.616, 197.4634
1117.099, 206.2317
1117.581, 197.1556
1118.063, 194.9377
1118.545, 203.3281
1119.027, 203.8742
1119.509, 191.8287
1119.991, 178.6595
1120.473, 168.7886
1120.956, 165.5369
1121.438, 174.3802
1121.920, 191.8613
1122.402, 206.8098
1122.884, 218.4627
1123.366, 214.0159
1123.848, 195.0117
1124.330, 185.4819
1124.813, 192.1736
1125.295, 203.3566
1125.777, 211.4301
1126.259, 214.5652
1126.741, 204.7135
1127.223, 191.8049
1127.705, 195.5384
1128.187, 209.6655
1128.669, 223.4332
1129.151, 232.7315
1129.634, 230.7039
1130.116, 214.6121
1130.598, 198.7794
1131.080, 193.1267
1131.562, 190.5326
1132.044, 186.7087
1132.526, 183.2122
1133.008, 181.0731
1133.491, 180.5587
1133.973, 182.1627
1134.455, 185.7712
1134.937, 189.8279
1135.419, 194.0123
1135.901, 198.6270
1136.383, 208.3775
1136.865, 212.5731
1137.348, 200.5789
1137.830, 187.8012
1138.312, 188.5341
1138.794, 182.8149
1139.276, 181.1239
1139.758, 185.5130
1140.240, 182.2274
1140.722, 189.4579
1141.204, 192.4662
1141.687, 188.1804
1142.169, 182.0948
1142.651, 176.1410
1143.133, 173.9690
1143.615, 181.1711
1144.097, 193.8416
1144.579, 200.3461
1145.061, 201.1110
1145.543, 195.9333
1146.026, 186.7839
1146.508, 184.9084
1146.990, 192.1884
1147.472, 198.9159
1147.954, 199.0600
1148.436, 196.6949
1148.918, 194.9966
1149.400, 194.4283
1149.883, 198.8386
1150.365, 202.6068
1150.847, 192.5958
1151.329, 175.5928
1151.811, 172.5295
1152.293, 188.1305
1152.775, 203.0857
1153.257, 213.8081
1153.740, 215.6000
1154.222, 195.4013
1154.704, 178.8941
1155.186, 189.1121
1155.668, 205.3639
1156.150, 198.3691
1156.632, 174.4334
1157.114, 168.0964
1157.596, 186.4754
1158.078, 197.5605
1158.561, 200.1709
1159.043, 197.6524
1159.525, 188.0989
1160.007, 181.4484
1160.489, 183.8576
1160.971, 191.0119
1161.453, 197.7362
1161.935, 203.1177
1162.418, 201.1727
1162.900, 206.9593
1163.382, 196.0247
1163.864, 207.3941
1164.346, 209.7933
1164.828, 199.4440
1165.310, 191.2531
1165.792, 195.3199
1166.275, 203.4625
1166.757, 209.4377
1167.239, 211.6805
1167.721, 205.1649
1168.203, 195.7079
1168.685, 192.7065
1169.167, 194.1287
1169.649, 190.8537
1170.131, 181.1460
1170.614, 177.5254
1171.096, 193.1983
1171.578, 203.0439
1172.060, 191.9327
1172.542, 182.5979
1173.024, 190.0540
1173.506, 202.3436
1173.988, 206.6272
1174.470, 205.5296
1174.953, 207.5405
1175.435, 213.5728
1175.917, 217.3444
1176.399, 219.5474
1176.881, 215.1667
1177.363, 201.6411
1177.845, 192.7658
1178.327, 195.8089
1178.810, 201.2630
1179.292, 197.8362
1179.774, 200.3247
1180.256, 191.5035
1180.738, 198.0031
1181.220, 197.7287
1181.702, 193.1868
1182.184, 196.7793
1182.667, 208.0482
1183.149, 212.1956
1183.631, 201.9958
1184.113, 189.4293
1184.595, 179.7372
1185.077, 175.2749
1185.559, 182.4069
1186.041, 191.1572
1186.523, 192.0477
1187.005, 188.3729
1187.488, 185.5066
1187.970, 184.2175
1188.452, 184.9428
1188.934, 187.0933
1189.416, 193.0136
1189.898, 206.8919
1190.380, 216.6724
1190.862, 219.6695
1191.345, 216.8982
1191.827, 206.5422
1192.309, 196.7467
1192.791, 202.5782
1193.273, 194.3714
1193.755, 189.8251
1194.237, 192.3429
1194.719, 182.2400
1195.202, 184.9213
1195.684, 190.6408
1196.166, 196.1263
1196.648, 199.8600
1197.130, 200.9208
1197.612, 199.6311
1198.094, 195.0159
1198.576, 189.5612
1199.058, 183.1513
1199.541, 179.5699
1200.023, 186.0227
1200.505, 197.7291
1200.987, 205.5961
1201.469, 208.0739
1201.951, 206.6289
1202.433, 198.5097
1202.915, 192.3307
1203.397, 193.1607
1203.880, 189.7448
1204.362, 173.8079
1204.844, 162.0295
1205.326, 168.6400
1205.808, 181.8203
1206.290, 180.6860
1206.772, 167.4973
1207.254, 157.3923
1207.737, 150.7706
1208.219, 157.6627
1208.701, 177.0616
1209.183, 194.3277
1209.665, 204.7063
1210.147, 205.2254
1210.629, 192.4910
1211.111, 181.9854
1211.594, 195.6007
1212.076, 214.0863
1212.558, 217.4106
1213.040, 212.8973
1213.522, 205.0094
1214.004, 198.7935
1214.486, 204.9858
1214.968, 222.9248
1215.450, 231.3450
1215.932, 217.7851
1216.415, 211.0180
1216.897, 219.4529
1217.379, 225.6286
1217.861, 225.2487
1218.343, 222.2464
1218.825, 219.1889
1219.307, 214.3752
1219.789, 203.7510
1220.272, 190.2055
1220.754, 188.6457
1221.236, 197.5230
1221.718, 207.0922
1222.200, 215.3596
1222.682, 213.0730
1223.164, 200.3510
1223.646, 192.4060
1224.129, 197.4605
1224.611, 203.8492
1225.093, 199.9917
1225.575, 195.3025
1226.057, 199.2930
1226.539, 204.1688
1227.021, 199.7123
1227.503, 192.8753
1227.985, 196.0505
1228.468, 208.1244
1228.950, 216.3358
1229.432, 218.7006
1229.914, 220.3310
1230.396, 221.0586
1230.878, 221.8400
1231.360, 223.7293
1231.842, 221.5089
1232.324, 211.5556
1232.807, 202.9033
1233.289, 206.2553
1233.771, 214.9472
1234.253, 213.8946
1234.735, 206.0091
1235.217, 196.8489
1235.699, 188.6051
1236.181, 190.3428
1236.664, 197.7001
1237.146, 188.8306
1237.628, 158.0391
1238.110, 138.6327
1238.592, 154.5836
1239.074, 174.0717
1239.556, 191.0120
1240.038, 199.7846
1240.521, 188.0504
1241.003, 175.7699
1241.485, 183.2586
1241.967, 200.9429
1242.449, 209.5859
1242.931, 209.3829
1243.413, 205.7534
1243.895, 198.4580
1244.377, 189.9538
1244.859, 180.8195
1245.342, 185.4003
1245.824, 206.2878
1246.306, 219.4679
1246.788, 209.0927
1247.270, 194.3329
1247.752, 196.5781
1248.234, 204.6399
1248.716, 209.2883
1249.199, 210.2485
1249.681, 202.9455
1250.163, 194.2737
1250.645, 198.4257
1251.127, 213.2000
1251.609, 216.9319
1252.091, 198.7180
1252.573, 195.9630
1253.056, 219.8430
1253.538, 234.3600
1254.020, 232.4921
1254.502, 225.9210
1254.984, 219.6149
1255.466, 211.5844
1255.948, 198.9563
1256.430, 186.4070
1256.912, 183.2267
1257.395, 187.3727
1257.877, 196.8553
1258.359, 207.9126
1258.841, 211.5448
1259.323, 209.2924
1259.805, 208.7544
1260.287, 211.6747
1260.769, 214.3307
1261.251, 216.4379
1261.734, 215.3859
1262.216, 205.6432
1262.698, 199.1924
1263.180, 203.1969
1263.662, 207.7386
1264.144, 205.5416
1264.626, 203.0921
1265.108, 210.4642
1265.591, 224.2278
1266.073, 229.6452
1266.555, 227.3635
1267.037, 222.4466
1267.519, 215.5288
1268.001, 206.6497
1268.483, 197.3936
1268.965, 195.7306
1269.448, 204.2458
1269.930, 211.2451
1270.412, 207.3436
1270.894, 202.8869
1271.376, 205.0870
1271.858, 207.3705
##END=



