##NAMES=Retgersite
##RRUFFID=R130119
##IDEAL CHEMISTRY=Ni^2+^S^6+^O_4_&#183;6H_2_O
##LOCALITY=Cerro de Pasco, Alcides Carri√≥n Province, Pasco department, Peru
##OWNER=RRUFF
##SOURCE=Rock Currier
##DESCRIPTION=Green grains in loose unconsolidated material
##STATUS=The identification of this mineral has been confirmed by single-crystal X-ray diffraction.
##URL=rruff.info/R130119
8.936163e+001, 0.000000e+000
8.984375e+001, 1.782490e+002
9.032587e+001, 1.805315e+002
9.080798e+001, 1.810162e+002
9.129010e+001, 1.791579e+002
9.177222e+001, 1.761284e+002
9.225433e+001, 1.730869e+002
9.273645e+001, 1.700387e+002
9.321857e+001, 1.671836e+002
9.370068e+001, 1.648105e+002
9.418280e+001, 1.628069e+002
9.466492e+001, 1.608515e+002
9.514703e+001, 1.588670e+002
9.562915e+001, 1.568611e+002
9.611127e+001, 1.547141e+002
9.659338e+001, 1.523896e+002
9.707550e+001, 1.501754e+002
9.755762e+001, 1.484429e+002
9.803973e+001, 1.471929e+002
9.852185e+001, 1.460679e+002
9.900397e+001, 1.449240e+002
9.948608e+001, 1.437551e+002
9.996820e+001, 1.426770e+002
1.004503e+002, 1.417517e+002
1.009324e+002, 1.408303e+002
1.014146e+002, 1.395938e+002
1.018967e+002, 1.379836e+002
1.023788e+002, 1.361959e+002
1.028609e+002, 1.341944e+002
1.033430e+002, 1.317673e+002
1.038251e+002, 1.299000e+002
1.043073e+002, 1.288708e+002
1.047894e+002, 1.284941e+002
1.052715e+002, 1.278180e+002
1.057536e+002, 1.267910e+002
1.062357e+002, 1.255162e+002
1.067178e+002, 1.240070e+002
1.072000e+002, 1.218987e+002
1.076821e+002, 1.201085e+002
1.081642e+002, 1.188660e+002
1.086463e+002, 1.182191e+002
1.091284e+002, 1.174578e+002
1.096105e+002, 1.165690e+002
1.100927e+002, 1.155690e+002
1.105748e+002, 1.144834e+002
1.110569e+002, 1.131197e+002
1.115390e+002, 1.118515e+002
1.120211e+002, 1.108105e+002
1.125032e+002, 1.100811e+002
1.129854e+002, 1.092797e+002
1.134675e+002, 1.083554e+002
1.139496e+002, 1.073332e+002
1.144317e+002, 1.062346e+002
1.149138e+002, 1.047744e+002
1.153959e+002, 1.034634e+002
1.158781e+002, 1.026122e+002
1.163602e+002, 1.025608e+002
1.168423e+002, 1.023295e+002
1.173244e+002, 1.015136e+002
1.178065e+002, 1.002483e+002
1.182886e+002, 9.887794e+001
1.187708e+002, 9.735944e+001
1.192529e+002, 9.588558e+001
1.197350e+002, 9.463765e+001
1.202171e+002, 9.379971e+001
1.206992e+002, 9.302623e+001
1.211813e+002, 9.198483e+001
1.216635e+002, 9.075279e+001
1.221456e+002, 8.978767e+001
1.226277e+002, 8.980327e+001
1.231098e+002, 9.015837e+001
1.235919e+002, 8.999844e+001
1.240740e+002, 8.859895e+001
1.245562e+002, 8.680000e+001
1.250383e+002, 8.543520e+001
1.255204e+002, 8.449564e+001
1.260025e+002, 8.384146e+001
1.264846e+002, 8.363345e+001
1.269667e+002, 8.365306e+001
1.274489e+002, 8.335406e+001
1.279310e+002, 8.199797e+001
1.284131e+002, 8.024471e+001
1.288952e+002, 7.957883e+001
1.293773e+002, 8.020820e+001
1.298594e+002, 8.110148e+001
1.303416e+002, 8.086954e+001
1.308237e+002, 7.965485e+001
1.313058e+002, 7.847988e+001
1.317879e+002, 7.816830e+001
1.322700e+002, 7.845557e+001
1.327521e+002, 7.789373e+001
1.332343e+002, 7.609588e+001
1.337164e+002, 7.389567e+001
1.341985e+002, 7.291212e+001
1.346806e+002, 7.322841e+001
1.351627e+002, 7.366282e+001
1.356448e+002, 7.341641e+001
1.361270e+002, 7.247879e+001
1.366091e+002, 7.159362e+001
1.370912e+002, 7.084182e+001
1.375733e+002, 7.021004e+001
1.380554e+002, 6.958743e+001
1.385375e+002, 6.894393e+001
1.390197e+002, 6.839368e+001
1.395018e+002, 6.803431e+001
1.399839e+002, 6.790188e+001
1.404660e+002, 6.783884e+001
1.409481e+002, 6.791828e+001
1.414302e+002, 6.809866e+001
1.419124e+002, 6.777857e+001
1.423945e+002, 6.670605e+001
1.428766e+002, 6.548474e+001
1.433587e+002, 6.475166e+001
1.438408e+002, 6.480096e+001
1.443229e+002, 6.475444e+001
1.448051e+002, 6.445153e+001
1.452872e+002, 6.387868e+001
1.457693e+002, 6.306233e+001
1.462514e+002, 6.164897e+001
1.467335e+002, 6.020131e+001
1.472156e+002, 5.946150e+001
1.476978e+002, 6.015418e+001
1.481799e+002, 6.066980e+001
1.486620e+002, 6.056225e+001
1.491441e+002, 5.956762e+001
1.496262e+002, 5.866094e+001
1.501083e+002, 5.770365e+001
1.505905e+002, 5.686730e+001
1.510726e+002, 5.645798e+001
1.515547e+002, 5.707988e+001
1.520368e+002, 5.761010e+001
1.525189e+002, 5.773687e+001
1.530010e+002, 5.745559e+001
1.534832e+002, 5.675243e+001
1.539653e+002, 5.504321e+001
1.544474e+002, 5.287643e+001
1.549295e+002, 5.156879e+001
1.554116e+002, 5.203266e+001
1.558937e+002, 5.284697e+001
1.563759e+002, 5.338059e+001
1.568580e+002, 5.345921e+001
1.573401e+002, 5.337019e+001
1.578222e+002, 5.300143e+001
1.583043e+002, 5.245959e+001
1.587864e+002, 5.213782e+001
1.592686e+002, 5.248986e+001
1.597507e+002, 5.289313e+001
1.602328e+002, 5.294690e+001
1.607149e+002, 5.212767e+001
1.611970e+002, 5.137869e+001
1.616791e+002, 5.124328e+001
1.621613e+002, 5.158281e+001
1.626434e+002, 5.146200e+001
1.631255e+002, 4.975990e+001
1.636076e+002, 4.774547e+001
1.640897e+002, 4.654915e+001
1.645718e+002, 4.734272e+001
1.650540e+002, 4.837144e+001
1.655361e+002, 4.874474e+001
1.660182e+002, 4.847775e+001
1.665003e+002, 4.814497e+001
1.669824e+002, 4.813359e+001
1.674645e+002, 4.821275e+001
1.679467e+002, 4.809869e+001
1.684288e+002, 4.744072e+001
1.689109e+002, 4.671691e+001
1.693930e+002, 4.622182e+001
1.698751e+002, 4.596468e+001
1.703572e+002, 4.594447e+001
1.708394e+002, 4.641988e+001
1.713215e+002, 4.710889e+001
1.718036e+002, 4.752951e+001
1.722857e+002, 4.722469e+001
1.727678e+002, 4.668343e+001
1.732499e+002, 4.639280e+001
1.737321e+002, 4.640159e+001
1.742142e+002, 4.650828e+001
1.746963e+002, 4.646303e+001
1.751784e+002, 4.637428e+001
1.756605e+002, 4.649978e+001
1.761426e+002, 4.702154e+001
1.766248e+002, 4.781604e+001
1.771069e+002, 4.884563e+001
1.775890e+002, 5.021125e+001
1.780711e+002, 5.137646e+001
1.785532e+002, 5.131918e+001
1.790353e+002, 5.043076e+001
1.795175e+002, 5.011400e+001
1.799996e+002, 5.165826e+001
1.804817e+002, 5.424046e+001
1.809638e+002, 5.627156e+001
1.814459e+002, 5.749035e+001
1.819280e+002, 5.834092e+001
1.824102e+002, 5.935748e+001
1.828923e+002, 6.051305e+001
1.833744e+002, 6.175983e+001
1.838565e+002, 6.308540e+001
1.843386e+002, 6.447616e+001
1.848207e+002, 6.583604e+001
1.853029e+002, 6.714197e+001
1.857850e+002, 6.845595e+001
1.862671e+002, 7.002080e+001
1.867492e+002, 7.181021e+001
1.872313e+002, 7.342403e+001
1.877134e+002, 7.435604e+001
1.881956e+002, 7.479864e+001
1.886777e+002, 7.564783e+001
1.891598e+002, 7.713457e+001
1.896419e+002, 7.901336e+001
1.901240e+002, 8.087942e+001
1.906061e+002, 8.276550e+001
1.910883e+002, 8.441975e+001
1.915704e+002, 8.572108e+001
1.920525e+002, 8.667428e+001
1.925346e+002, 8.708141e+001
1.930167e+002, 8.655007e+001
1.934988e+002, 8.564420e+001
1.939810e+002, 8.606236e+001
1.944631e+002, 8.787206e+001
1.949452e+002, 9.006194e+001
1.954273e+002, 9.143038e+001
1.959094e+002, 9.200457e+001
1.963915e+002, 9.273559e+001
1.968737e+002, 9.381148e+001
1.973558e+002, 9.515891e+001
1.978379e+002, 9.662595e+001
1.983200e+002, 9.825084e+001
1.988021e+002, 9.980752e+001
1.992842e+002, 1.010346e+002
1.997664e+002, 1.019259e+002
2.002485e+002, 1.028483e+002
2.007306e+002, 1.039174e+002
2.012127e+002, 1.050887e+002
2.016948e+002, 1.061605e+002
2.021769e+002, 1.071663e+002
2.026591e+002, 1.080009e+002
2.031412e+002, 1.083979e+002
2.036233e+002, 1.082454e+002
2.041054e+002, 1.085398e+002
2.045875e+002, 1.096696e+002
2.050696e+002, 1.115028e+002
2.055518e+002, 1.128480e+002
2.060339e+002, 1.136579e+002
2.065160e+002, 1.141115e+002
2.069981e+002, 1.142570e+002
2.074802e+002, 1.139519e+002
2.079623e+002, 1.139938e+002
2.084445e+002, 1.146609e+002
2.089266e+002, 1.159229e+002
2.094087e+002, 1.170155e+002
2.098908e+002, 1.179483e+002
2.103729e+002, 1.187156e+002
2.108550e+002, 1.192626e+002
2.113372e+002, 1.195000e+002
2.118193e+002, 1.198063e+002
2.123014e+002, 1.202333e+002
2.127835e+002, 1.207742e+002
2.132656e+002, 1.216131e+002
2.137477e+002, 1.228077e+002
2.142299e+002, 1.242175e+002
2.147120e+002, 1.257374e+002
2.151941e+002, 1.275339e+002
2.156762e+002, 1.289943e+002
2.161583e+002, 1.298185e+002
2.166404e+002, 1.299356e+002
2.171226e+002, 1.306451e+002
2.176047e+002, 1.321446e+002
2.180868e+002, 1.339943e+002
2.185689e+002, 1.357617e+002
2.190510e+002, 1.376054e+002
2.195331e+002, 1.389992e+002
2.200153e+002, 1.396789e+002
2.204974e+002, 1.395417e+002
2.209795e+002, 1.399126e+002
2.214616e+002, 1.409876e+002
2.219437e+002, 1.423667e+002
2.224258e+002, 1.435986e+002
2.229080e+002, 1.446755e+002
2.233901e+002, 1.456056e+002
2.238722e+002, 1.463170e+002
2.243543e+002, 1.467705e+002
2.248364e+002, 1.474180e+002
2.253185e+002, 1.483246e+002
2.258007e+002, 1.493505e+002
2.262828e+002, 1.503017e+002
2.267649e+002, 1.510096e+002
2.272470e+002, 1.519640e+002
2.277291e+002, 1.533879e+002
2.282112e+002, 1.554207e+002
2.286934e+002, 1.569383e+002
2.291755e+002, 1.576603e+002
2.296576e+002, 1.581130e+002
2.301397e+002, 1.590036e+002
2.306218e+002, 1.606755e+002
2.311039e+002, 1.621741e+002
2.315861e+002, 1.631735e+002
2.320682e+002, 1.635858e+002
2.325503e+002, 1.642327e+002
2.330324e+002, 1.651197e+002
2.335145e+002, 1.662360e+002
2.339966e+002, 1.676381e+002
2.344788e+002, 1.695832e+002
2.349609e+002, 1.713448e+002
2.354430e+002, 1.727025e+002
2.359251e+002, 1.735968e+002
2.364072e+002, 1.744979e+002
2.368893e+002, 1.753084e+002
2.373715e+002, 1.762029e+002
2.378536e+002, 1.774444e+002
2.383357e+002, 1.793602e+002
2.388178e+002, 1.810594e+002
2.392999e+002, 1.822285e+002
2.397820e+002, 1.827431e+002
2.402642e+002, 1.836083e+002
2.407463e+002, 1.850948e+002
2.412284e+002, 1.866965e+002
2.417105e+002, 1.877760e+002
2.421926e+002, 1.880927e+002
2.426747e+002, 1.883156e+002
2.431569e+002, 1.885985e+002
2.436390e+002, 1.889575e+002
2.441211e+002, 1.892206e+002
2.446032e+002, 1.892760e+002
2.450853e+002, 1.893351e+002
2.455674e+002, 1.897517e+002
2.460496e+002, 1.911129e+002
2.465317e+002, 1.917289e+002
2.470138e+002, 1.909838e+002
2.474959e+002, 1.887032e+002
2.479780e+002, 1.871077e+002
2.484601e+002, 1.865455e+002
2.489423e+002, 1.863145e+002
2.494244e+002, 1.856220e+002
2.499065e+002, 1.842103e+002
2.503886e+002, 1.828721e+002
2.508707e+002, 1.818979e+002
2.513528e+002, 1.813393e+002
2.518350e+002, 1.801511e+002
2.523171e+002, 1.780244e+002
2.527992e+002, 1.756220e+002
2.532813e+002, 1.736606e+002
2.537634e+002, 1.724512e+002
2.542455e+002, 1.710367e+002
2.547277e+002, 1.691542e+002
2.552098e+002, 1.667824e+002
2.556919e+002, 1.646019e+002
2.561740e+002, 1.627139e+002
2.566561e+002, 1.608858e+002
2.571382e+002, 1.588839e+002
2.576204e+002, 1.565148e+002
2.581025e+002, 1.544102e+002
2.585846e+002, 1.527887e+002
2.590667e+002, 1.516142e+002
2.595488e+002, 1.502712e+002
2.600309e+002, 1.487903e+002
2.605131e+002, 1.471398e+002
2.609952e+002, 1.452556e+002
2.614773e+002, 1.429562e+002
2.619594e+002, 1.409067e+002
2.624415e+002, 1.392874e+002
2.629236e+002, 1.380453e+002
2.634058e+002, 1.367705e+002
2.638879e+002, 1.353983e+002
2.643700e+002, 1.340838e+002
2.648521e+002, 1.329955e+002
2.653342e+002, 1.323168e+002
2.658163e+002, 1.312390e+002
2.662985e+002, 1.294628e+002
2.667806e+002, 1.271821e+002
2.672627e+002, 1.255215e+002
2.677448e+002, 1.246988e+002
2.682269e+002, 1.240592e+002
2.687090e+002, 1.230808e+002
2.691912e+002, 1.216179e+002
2.696733e+002, 1.204287e+002
2.701554e+002, 1.197355e+002
2.706375e+002, 1.193471e+002
2.711196e+002, 1.184533e+002
2.716017e+002, 1.168814e+002
2.720839e+002, 1.152831e+002
2.725660e+002, 1.141485e+002
2.730481e+002, 1.135374e+002
2.735302e+002, 1.129596e+002
2.740123e+002, 1.123735e+002
2.744944e+002, 1.117834e+002
2.749766e+002, 1.112214e+002
2.754587e+002, 1.107233e+002
2.759408e+002, 1.101255e+002
2.764229e+002, 1.092713e+002
2.769050e+002, 1.081227e+002
2.773871e+002, 1.071563e+002
2.778693e+002, 1.064143e+002
2.783514e+002, 1.058632e+002
2.788335e+002, 1.054942e+002
2.793156e+002, 1.053451e+002
2.797977e+002, 1.051352e+002
2.802798e+002, 1.046605e+002
2.807620e+002, 1.039232e+002
2.812441e+002, 1.032566e+002
2.817262e+002, 1.026519e+002
2.822083e+002, 1.021655e+002
2.826904e+002, 1.020047e+002
2.831725e+002, 1.022013e+002
2.836547e+002, 1.022565e+002
2.841368e+002, 1.017034e+002
2.846189e+002, 1.006391e+002
2.851010e+002, 1.003256e+002
2.855831e+002, 1.009755e+002
2.860652e+002, 1.018545e+002
2.865474e+002, 1.017322e+002
2.870295e+002, 1.006327e+002
2.875116e+002, 9.972273e+001
2.879937e+002, 9.978613e+001
2.884758e+002, 1.005759e+002
2.889579e+002, 1.005553e+002
2.894401e+002, 9.962482e+001
2.899222e+002, 9.842314e+001
2.904043e+002, 9.768842e+001
2.908864e+002, 9.738097e+001
2.913685e+002, 9.718108e+001
2.918506e+002, 9.697328e+001
2.923328e+002, 9.678383e+001
2.928149e+002, 9.672065e+001
2.932970e+002, 9.679113e+001
2.937791e+002, 9.688716e+001
2.942612e+002, 9.695678e+001
2.947433e+002, 9.697543e+001
2.952255e+002, 9.682090e+001
2.957076e+002, 9.630047e+001
2.961897e+002, 9.566824e+001
2.966718e+002, 9.548896e+001
2.971539e+002, 9.575280e+001
2.976360e+002, 9.610232e+001
2.981182e+002, 9.638090e+001
2.986003e+002, 9.651624e+001
2.990824e+002, 9.628921e+001
2.995645e+002, 9.542897e+001
3.000466e+002, 9.440848e+001
3.005287e+002, 9.393133e+001
3.010109e+002, 9.394366e+001
3.014930e+002, 9.405396e+001
3.019751e+002, 9.413853e+001
3.024572e+002, 9.410389e+001
3.029393e+002, 9.370033e+001
3.034214e+002, 9.262359e+001
3.039036e+002, 9.161930e+001
3.043857e+002, 9.169328e+001
3.048678e+002, 9.259102e+001
3.053499e+002, 9.338366e+001
3.058320e+002, 9.337561e+001
3.063141e+002, 9.298962e+001
3.067963e+002, 9.273914e+001
3.072784e+002, 9.274535e+001
3.077605e+002, 9.277770e+001
3.082426e+002, 9.261953e+001
3.087247e+002, 9.233569e+001
3.092068e+002, 9.208241e+001
3.096890e+002, 9.192393e+001
3.101711e+002, 9.183658e+001
3.106532e+002, 9.180551e+001
3.111353e+002, 9.182949e+001
3.116174e+002, 9.189681e+001
3.120995e+002, 9.211293e+001
3.125817e+002, 9.234963e+001
3.130638e+002, 9.240493e+001
3.135459e+002, 9.197574e+001
3.140280e+002, 9.150465e+001
3.145101e+002, 9.130459e+001
3.149922e+002, 9.141566e+001
3.154744e+002, 9.148667e+001
3.159565e+002, 9.118711e+001
3.164386e+002, 9.081413e+001
3.169207e+002, 9.070842e+001
3.174028e+002, 9.153393e+001
3.178849e+002, 9.213827e+001
3.183671e+002, 9.185146e+001
3.188492e+002, 9.071777e+001
3.193313e+002, 8.983067e+001
3.198134e+002, 8.962408e+001
3.202955e+002, 8.977419e+001
3.207776e+002, 9.002322e+001
3.212598e+002, 9.062769e+001
3.217419e+002, 9.099174e+001
3.222240e+002, 9.091999e+001
3.227061e+002, 9.046529e+001
3.231882e+002, 8.991189e+001
3.236703e+002, 8.900657e+001
3.241525e+002, 8.822476e+001
3.246346e+002, 8.784289e+001
3.251167e+002, 8.818311e+001
3.255988e+002, 8.851402e+001
3.260809e+002, 8.888704e+001
3.265630e+002, 8.921736e+001
3.270452e+002, 8.927173e+001
3.275273e+002, 8.861378e+001
3.280094e+002, 8.804350e+001
3.284915e+002, 8.786606e+001
3.289736e+002, 8.831251e+001
3.294557e+002, 8.864644e+001
3.299379e+002, 8.890306e+001
3.304200e+002, 8.903575e+001
3.309021e+002, 8.894461e+001
3.313842e+002, 8.830952e+001
3.318663e+002, 8.787724e+001
3.323484e+002, 8.794990e+001
3.328306e+002, 8.866021e+001
3.333127e+002, 8.897948e+001
3.337948e+002, 8.875622e+001
3.342769e+002, 8.827500e+001
3.347590e+002, 8.779320e+001
3.352411e+002, 8.714017e+001
3.357233e+002, 8.687822e+001
3.362054e+002, 8.724007e+001
3.366875e+002, 8.818070e+001
3.371696e+002, 8.893719e+001
3.376517e+002, 8.956666e+001
3.381339e+002, 8.990691e+001
3.386160e+002, 8.968598e+001
3.390981e+002, 8.872642e+001
3.395802e+002, 8.810417e+001
3.400623e+002, 8.804333e+001
3.405444e+002, 8.839468e+001
3.410266e+002, 8.863618e+001
3.415087e+002, 8.872792e+001
3.419908e+002, 8.890862e+001
3.424729e+002, 8.944241e+001
3.429550e+002, 9.032024e+001
3.434371e+002, 9.085286e+001
3.439193e+002, 9.088836e+001
3.444014e+002, 9.072840e+001
3.448835e+002, 9.102750e+001
3.453656e+002, 9.178055e+001
3.458477e+002, 9.230479e+001
3.463298e+002, 9.205860e+001
3.468120e+002, 9.125463e+001
3.472941e+002, 9.088656e+001
3.477762e+002, 9.103552e+001
3.482583e+002, 9.129311e+001
3.487404e+002, 9.108923e+001
3.492225e+002, 9.054314e+001
3.497047e+002, 9.016100e+001
3.501868e+002, 9.020919e+001
3.506689e+002, 9.050901e+001
3.511510e+002, 9.078958e+001
3.516331e+002, 9.104821e+001
3.521152e+002, 9.124633e+001
3.525974e+002, 9.135010e+001
3.530795e+002, 9.137016e+001
3.535616e+002, 9.129624e+001
3.540437e+002, 9.096684e+001
3.545258e+002, 9.074548e+001
3.550079e+002, 9.116333e+001
3.554901e+002, 9.208095e+001
3.559722e+002, 9.287855e+001
3.564543e+002, 9.313615e+001
3.569364e+002, 9.309850e+001
3.574185e+002, 9.299908e+001
3.579006e+002, 9.285526e+001
3.583828e+002, 9.272465e+001
3.588649e+002, 9.271651e+001
3.593470e+002, 9.274551e+001
3.598291e+002, 9.263926e+001
3.603112e+002, 9.205057e+001
3.607933e+002, 9.150790e+001
3.612755e+002, 9.134104e+001
3.617576e+002, 9.161485e+001
3.622397e+002, 9.200576e+001
3.627218e+002, 9.248437e+001
3.632039e+002, 9.298094e+001
3.636860e+002, 9.341776e+001
3.641682e+002, 9.371848e+001
3.646503e+002, 9.401334e+001
3.651324e+002, 9.439783e+001
3.656145e+002, 9.486526e+001
3.660966e+002, 9.513854e+001
3.665787e+002, 9.486891e+001
3.670609e+002, 9.458125e+001
3.675430e+002, 9.461195e+001
3.680251e+002, 9.570469e+001
3.685072e+002, 9.626845e+001
3.689893e+002, 9.582483e+001
3.694714e+002, 9.471835e+001
3.699536e+002, 9.407598e+001
3.704357e+002, 9.401122e+001
3.709178e+002, 9.429604e+001
3.713999e+002, 9.491470e+001
3.718820e+002, 9.616116e+001
3.723641e+002, 9.696936e+001
3.728463e+002, 9.710803e+001
3.733284e+002, 9.695214e+001
3.738105e+002, 9.711134e+001
3.742926e+002, 9.776401e+001
3.747747e+002, 9.833009e+001
3.752568e+002, 9.863078e+001
3.757390e+002, 9.866328e+001
3.762211e+002, 9.868401e+001
3.767032e+002, 9.867216e+001
3.771853e+002, 9.868993e+001
3.776674e+002, 9.880241e+001
3.781495e+002, 9.901665e+001
3.786317e+002, 9.925275e+001
3.791138e+002, 9.945689e+001
3.795959e+002, 9.969713e+001
3.800780e+002, 1.003070e+002
3.805601e+002, 1.013288e+002
3.810422e+002, 1.022232e+002
3.815244e+002, 1.024292e+002
3.820065e+002, 1.021152e+002
3.824886e+002, 1.022962e+002
3.829707e+002, 1.032110e+002
3.834528e+002, 1.042522e+002
3.839349e+002, 1.044397e+002
3.844171e+002, 1.039222e+002
3.848992e+002, 1.035108e+002
3.853813e+002, 1.036718e+002
3.858634e+002, 1.041700e+002
3.863455e+002, 1.046150e+002
3.868276e+002, 1.049909e+002
3.873098e+002, 1.053804e+002
3.877919e+002, 1.059815e+002
3.882740e+002, 1.066325e+002
3.887561e+002, 1.070369e+002
3.892382e+002, 1.069590e+002
3.897203e+002, 1.067351e+002
3.902025e+002, 1.066422e+002
3.906846e+002, 1.066493e+002
3.911667e+002, 1.066108e+002
3.916488e+002, 1.063002e+002
3.921309e+002, 1.059880e+002
3.926130e+002, 1.059573e+002
3.930952e+002, 1.064682e+002
3.935773e+002, 1.068060e+002
3.940594e+002, 1.065150e+002
3.945415e+002, 1.058564e+002
3.950236e+002, 1.053142e+002
3.955057e+002, 1.050607e+002
3.959879e+002, 1.049314e+002
3.964700e+002, 1.049350e+002
3.969521e+002, 1.051240e+002
3.974342e+002, 1.051002e+002
3.979163e+002, 1.047131e+002
3.983984e+002, 1.041306e+002
3.988806e+002, 1.035056e+002
3.993627e+002, 1.026798e+002
3.998448e+002, 1.020102e+002
4.003269e+002, 1.016975e+002
4.008090e+002, 1.016508e+002
4.012911e+002, 1.011642e+002
4.017733e+002, 9.975718e+001
4.022554e+002, 9.847292e+001
4.027375e+002, 9.792165e+001
4.032196e+002, 9.853934e+001
4.037017e+002, 9.877351e+001
4.041838e+002, 9.845407e+001
4.046660e+002, 9.785982e+001
4.051481e+002, 9.752680e+001
4.056302e+002, 9.750323e+001
4.061123e+002, 9.756245e+001
4.065944e+002, 9.769360e+001
4.070765e+002, 9.788146e+001
4.075587e+002, 9.777161e+001
4.080408e+002, 9.732305e+001
4.085229e+002, 9.673217e+001
4.090050e+002, 9.612355e+001
4.094871e+002, 9.551159e+001
4.099692e+002, 9.507785e+001
4.104514e+002, 9.488354e+001
4.109335e+002, 9.485758e+001
4.114156e+002, 9.493411e+001
4.118977e+002, 9.509534e+001
4.123798e+002, 9.514561e+001
4.128619e+002, 9.475905e+001
4.133441e+002, 9.420611e+001
4.138262e+002, 9.410812e+001
4.143083e+002, 9.462824e+001
4.147904e+002, 9.513660e+001
4.152725e+002, 9.484653e+001
4.157546e+002, 9.409644e+001
4.162368e+002, 9.358035e+001
4.167189e+002, 9.380130e+001
4.172010e+002, 9.424925e+001
4.176831e+002, 9.452135e+001
4.181652e+002, 9.461976e+001
4.186473e+002, 9.476023e+001
4.191295e+002, 9.513152e+001
4.196116e+002, 9.555988e+001
4.200937e+002, 9.588073e+001
4.205758e+002, 9.597897e+001
4.210579e+002, 9.608003e+001
4.215400e+002, 9.623842e+001
4.220222e+002, 9.645418e+001
4.225043e+002, 9.673184e+001
4.229864e+002, 9.724702e+001
4.234685e+002, 9.767094e+001
4.239506e+002, 9.777988e+001
4.244327e+002, 9.732349e+001
4.249149e+002, 9.737742e+001
4.253970e+002, 9.844128e+001
4.258791e+002, 9.977124e+001
4.263612e+002, 1.006239e+002
4.268433e+002, 1.005914e+002
4.273254e+002, 1.007235e+002
4.278076e+002, 1.012262e+002
4.282897e+002, 1.020429e+002
4.287718e+002, 1.027522e+002
4.292539e+002, 1.033316e+002
4.297360e+002, 1.038282e+002
4.302181e+002, 1.042578e+002
4.307003e+002, 1.046176e+002
4.311824e+002, 1.049046e+002
4.316645e+002, 1.050842e+002
4.321466e+002, 1.052492e+002
4.326287e+002, 1.055634e+002
4.331108e+002, 1.060270e+002
4.335930e+002, 1.065235e+002
4.340751e+002, 1.069573e+002
4.345572e+002, 1.073983e+002
4.350393e+002, 1.081695e+002
4.355214e+002, 1.092787e+002
4.360035e+002, 1.103403e+002
4.364857e+002, 1.109805e+002
4.369678e+002, 1.112993e+002
4.374499e+002, 1.115299e+002
4.379320e+002, 1.116743e+002
4.384141e+002, 1.118454e+002
4.388962e+002, 1.122044e+002
4.393784e+002, 1.126977e+002
4.398605e+002, 1.131694e+002
4.403426e+002, 1.135415e+002
4.408247e+002, 1.138498e+002
4.413068e+002, 1.141340e+002
4.417889e+002, 1.143968e+002
4.422711e+002, 1.146009e+002
4.427532e+002, 1.146606e+002
4.432353e+002, 1.146778e+002
4.437174e+002, 1.147584e+002
4.441995e+002, 1.149198e+002
4.446816e+002, 1.151604e+002
4.451638e+002, 1.155425e+002
4.456459e+002, 1.160228e+002
4.461280e+002, 1.164222e+002
4.466101e+002, 1.166082e+002
4.470922e+002, 1.167956e+002
4.475743e+002, 1.170984e+002
4.480565e+002, 1.176179e+002
4.485386e+002, 1.179799e+002
4.490207e+002, 1.180087e+002
4.495028e+002, 1.179890e+002
4.499849e+002, 1.183266e+002
4.504670e+002, 1.192521e+002
4.509492e+002, 1.200060e+002
4.514313e+002, 1.203097e+002
4.519134e+002, 1.202710e+002
4.523955e+002, 1.207195e+002
4.528776e+002, 1.217524e+002
4.533597e+002, 1.229071e+002
4.538419e+002, 1.238439e+002
4.543240e+002, 1.245636e+002
4.548061e+002, 1.253951e+002
4.552882e+002, 1.263541e+002
4.557703e+002, 1.274428e+002
4.562524e+002, 1.287225e+002
4.567346e+002, 1.301710e+002
4.572167e+002, 1.315143e+002
4.576988e+002, 1.325253e+002
4.581809e+002, 1.334274e+002
4.586630e+002, 1.346533e+002
4.591451e+002, 1.361783e+002
4.596273e+002, 1.378016e+002
4.601094e+002, 1.394286e+002
4.605915e+002, 1.410239e+002
4.610736e+002, 1.425042e+002
4.615557e+002, 1.437704e+002
4.620378e+002, 1.451365e+002
4.625200e+002, 1.468435e+002
4.630021e+002, 1.488041e+002
4.634842e+002, 1.508139e+002
4.639663e+002, 1.530055e+002
4.644484e+002, 1.550608e+002
4.649305e+002, 1.567199e+002
4.654127e+002, 1.579515e+002
4.658948e+002, 1.592521e+002
4.663769e+002, 1.608569e+002
4.668590e+002, 1.624759e+002
4.673411e+002, 1.638949e+002
4.678232e+002, 1.652581e+002
4.683054e+002, 1.662295e+002
4.687875e+002, 1.665683e+002
4.692696e+002, 1.665421e+002
4.697517e+002, 1.668922e+002
4.702338e+002, 1.680601e+002
4.707159e+002, 1.687700e+002
4.711981e+002, 1.685031e+002
4.716802e+002, 1.672249e+002
4.721623e+002, 1.658293e+002
4.726444e+002, 1.643439e+002
4.731265e+002, 1.627146e+002
4.736086e+002, 1.609112e+002
4.740908e+002, 1.589337e+002
4.745729e+002, 1.567796e+002
4.750550e+002, 1.543929e+002
4.755371e+002, 1.519139e+002
4.760192e+002, 1.496639e+002
4.765013e+002, 1.475938e+002
4.769835e+002, 1.454229e+002
4.774656e+002, 1.428126e+002
4.779477e+002, 1.400425e+002
4.784298e+002, 1.375685e+002
4.789119e+002, 1.354138e+002
4.793940e+002, 1.334174e+002
4.798762e+002, 1.314814e+002
4.803583e+002, 1.296172e+002
4.808404e+002, 1.278329e+002
4.813225e+002, 1.260885e+002
4.818046e+002, 1.244633e+002
4.822867e+002, 1.231027e+002
4.827689e+002, 1.219034e+002
4.832510e+002, 1.205967e+002
4.837331e+002, 1.190477e+002
4.842152e+002, 1.174114e+002
4.846973e+002, 1.156743e+002
4.851794e+002, 1.137378e+002
4.856616e+002, 1.121688e+002
4.861437e+002, 1.113397e+002
4.866258e+002, 1.107031e+002
4.871079e+002, 1.098242e+002
4.875900e+002, 1.084896e+002
4.880721e+002, 1.072598e+002
4.885543e+002, 1.060978e+002
4.890364e+002, 1.050966e+002
4.895185e+002, 1.046746e+002
4.900006e+002, 1.050935e+002
4.904827e+002, 1.052550e+002
4.909648e+002, 1.044642e+002
4.914470e+002, 1.027939e+002
4.919291e+002, 1.019595e+002
4.924112e+002, 1.021021e+002
4.928933e+002, 1.024255e+002
4.933754e+002, 1.020677e+002
4.938575e+002, 1.011745e+002
4.943397e+002, 1.003842e+002
4.948218e+002, 9.985507e+001
4.953039e+002, 9.946835e+001
4.957860e+002, 9.912495e+001
4.962681e+002, 9.880722e+001
4.967502e+002, 9.845419e+001
4.972324e+002, 9.807719e+001
4.977145e+002, 9.761797e+001
4.981966e+002, 9.691267e+001
4.986787e+002, 9.594742e+001
4.991608e+002, 9.520782e+001
4.996429e+002, 9.517770e+001
5.001251e+002, 9.536108e+001
5.006072e+002, 9.531187e+001
5.010893e+002, 9.476118e+001
5.015714e+002, 9.420130e+001
5.020535e+002, 9.375112e+001
5.025356e+002, 9.336164e+001
5.030178e+002, 9.291808e+001
5.034999e+002, 9.220942e+001
5.039820e+002, 9.166164e+001
5.044641e+002, 9.143300e+001
5.049462e+002, 9.153849e+001
5.054283e+002, 9.157288e+001
5.059105e+002, 9.155041e+001
5.063926e+002, 9.143746e+001
5.068747e+002, 9.114436e+001
5.073568e+002, 9.061204e+001
5.078389e+002, 9.034413e+001
5.083210e+002, 9.045711e+001
5.088032e+002, 9.073811e+001
5.092853e+002, 9.080840e+001
5.097674e+002, 9.068001e+001
5.102495e+002, 9.056889e+001
5.107316e+002, 9.069177e+001
5.112137e+002, 9.083282e+001
5.116959e+002, 9.038077e+001
5.121780e+002, 8.938735e+001
5.126601e+002, 8.849212e+001
5.131422e+002, 8.815884e+001
5.136243e+002, 8.820238e+001
5.141064e+002, 8.847356e+001
5.145886e+002, 8.905711e+001
5.150707e+002, 8.945794e+001
5.155528e+002, 8.921640e+001
5.160349e+002, 8.863833e+001
5.165170e+002, 8.816264e+001
5.169991e+002, 8.792799e+001
5.174813e+002, 8.782034e+001
5.179634e+002, 8.791873e+001
5.184455e+002, 8.817536e+001
5.189276e+002, 8.821120e+001
5.194097e+002, 8.768578e+001
5.198918e+002, 8.719236e+001
5.203740e+002, 8.699687e+001
5.208561e+002, 8.722997e+001
5.213382e+002, 8.732091e+001
5.218203e+002, 8.721656e+001
5.223024e+002, 8.702831e+001
5.227845e+002, 8.685680e+001
5.232667e+002, 8.668367e+001
5.237488e+002, 8.664239e+001
5.242309e+002, 8.682117e+001
5.247130e+002, 8.708967e+001
5.251951e+002, 8.708358e+001
5.256772e+002, 8.680833e+001
5.261594e+002, 8.653550e+001
5.266415e+002, 8.643458e+001
5.271236e+002, 8.644225e+001
5.276057e+002, 8.647227e+001
5.280878e+002, 8.652524e+001
5.285699e+002, 8.643502e+001
5.290521e+002, 8.580633e+001
5.295342e+002, 8.504115e+001
5.300163e+002, 8.470317e+001
5.304984e+002, 8.512946e+001
5.309805e+002, 8.566570e+001
5.314626e+002, 8.608105e+001
5.319448e+002, 8.633796e+001
5.324269e+002, 8.636343e+001
5.329090e+002, 8.576765e+001
5.333911e+002, 8.529537e+001
5.338732e+002, 8.528449e+001
5.343553e+002, 8.576469e+001
5.348375e+002, 8.603893e+001
5.353196e+002, 8.581647e+001
5.358017e+002, 8.565274e+001
5.362838e+002, 8.593757e+001
5.367659e+002, 8.706739e+001
5.372480e+002, 8.744093e+001
5.377302e+002, 8.672388e+001
5.382123e+002, 8.568867e+001
5.386944e+002, 8.561876e+001
5.391765e+002, 8.660056e+001
5.396586e+002, 8.729894e+001
5.401407e+002, 8.727859e+001
5.406229e+002, 8.680984e+001
5.411050e+002, 8.645461e+001
5.415871e+002, 8.621389e+001
5.420692e+002, 8.608715e+001
5.425513e+002, 8.619113e+001
5.430334e+002, 8.636602e+001
5.435156e+002, 8.629263e+001
5.439977e+002, 8.593660e+001
5.444798e+002, 8.570953e+001
5.449619e+002, 8.613204e+001
5.454440e+002, 8.674425e+001
5.459261e+002, 8.700916e+001
5.464083e+002, 8.630251e+001
5.468904e+002, 8.592007e+001
5.473725e+002, 8.675309e+001
5.478546e+002, 8.818505e+001
5.483367e+002, 8.891838e+001
5.488188e+002, 8.781785e+001
5.493010e+002, 8.700168e+001
5.497831e+002, 8.718909e+001
5.502652e+002, 8.835722e+001
5.507473e+002, 8.880933e+001
5.512294e+002, 8.822891e+001
5.517115e+002, 8.746719e+001
5.521937e+002, 8.700713e+001
5.526758e+002, 8.685960e+001
5.531579e+002, 8.697437e+001
5.536400e+002, 8.742190e+001
5.541221e+002, 8.793620e+001
5.546042e+002, 8.815160e+001
5.550864e+002, 8.810482e+001
5.555685e+002, 8.800528e+001
5.560506e+002, 8.786031e+001
5.565327e+002, 8.776567e+001
5.570148e+002, 8.796136e+001
5.574969e+002, 8.835587e+001
5.579791e+002, 8.860766e+001
5.584612e+002, 8.828465e+001
5.589433e+002, 8.789741e+001
5.594254e+002, 8.789822e+001
5.599075e+002, 8.832175e+001
5.603896e+002, 8.877889e+001
5.608718e+002, 8.913155e+001
5.613539e+002, 8.944009e+001
5.618360e+002, 8.975646e+001
5.623181e+002, 9.026281e+001
5.628002e+002, 9.050033e+001
5.632823e+002, 9.013686e+001
5.637645e+002, 8.963132e+001
5.642466e+002, 8.977634e+001
5.647287e+002, 9.106535e+001
5.652108e+002, 9.186208e+001
5.656929e+002, 9.161182e+001
5.661750e+002, 9.060560e+001
5.666572e+002, 9.019804e+001
5.671393e+002, 9.046439e+001
5.676214e+002, 9.080008e+001
5.681035e+002, 9.075535e+001
5.685856e+002, 9.047145e+001
5.690677e+002, 9.056739e+001
5.695499e+002, 9.108471e+001
5.700320e+002, 9.161775e+001
5.705141e+002, 9.163634e+001
5.709962e+002, 9.144862e+001
5.714783e+002, 9.160940e+001
5.719604e+002, 9.247294e+001
5.724426e+002, 9.325785e+001
5.729247e+002, 9.337443e+001
5.734068e+002, 9.308167e+001
5.738889e+002, 9.284584e+001
5.743710e+002, 9.275594e+001
5.748531e+002, 9.281311e+001
5.753353e+002, 9.308530e+001
5.758174e+002, 9.355254e+001
5.762995e+002, 9.393899e+001
5.767816e+002, 9.414703e+001
5.772637e+002, 9.437770e+001
5.777458e+002, 9.475200e+001
5.782280e+002, 9.532682e+001
5.787101e+002, 9.572009e+001
5.791922e+002, 9.589570e+001
5.796743e+002, 9.596862e+001
5.801564e+002, 9.598385e+001
5.806385e+002, 9.595439e+001
5.811207e+002, 9.615393e+001
5.816028e+002, 9.665469e+001
5.820849e+002, 9.734605e+001
5.825670e+002, 9.820651e+001
5.830491e+002, 9.913718e+001
5.835313e+002, 9.985960e+001
5.840134e+002, 1.001006e+002
5.844955e+002, 1.001635e+002
5.849776e+002, 1.002218e+002
5.854597e+002, 1.003092e+002
5.859418e+002, 1.006005e+002
5.864240e+002, 1.012602e+002
5.869061e+002, 1.020815e+002
5.873882e+002, 1.030079e+002
5.878703e+002, 1.040998e+002
5.883524e+002, 1.050043e+002
5.888345e+002, 1.055343e+002
5.893167e+002, 1.059550e+002
5.897988e+002, 1.064636e+002
5.902809e+002, 1.070764e+002
5.907630e+002, 1.077490e+002
5.912451e+002, 1.085013e+002
5.917272e+002, 1.092942e+002
5.922094e+002, 1.100314e+002
5.926915e+002, 1.106975e+002
5.931736e+002, 1.114744e+002
5.936557e+002, 1.125168e+002
5.941378e+002, 1.136472e+002
5.946199e+002, 1.143955e+002
5.951021e+002, 1.147935e+002
5.955842e+002, 1.151517e+002
5.960663e+002, 1.155733e+002
5.965484e+002, 1.161145e+002
5.970305e+002, 1.168916e+002
5.975126e+002, 1.179206e+002
5.979948e+002, 1.189683e+002
5.984769e+002, 1.198691e+002
5.989590e+002, 1.207383e+002
5.994411e+002, 1.217069e+002
5.999232e+002, 1.230771e+002
6.004053e+002, 1.240928e+002
6.008875e+002, 1.244878e+002
6.013696e+002, 1.245118e+002
6.018517e+002, 1.244404e+002
6.023338e+002, 1.239840e+002
6.028159e+002, 1.240619e+002
6.032980e+002, 1.251249e+002
6.037802e+002, 1.267555e+002
6.042623e+002, 1.273410e+002
6.047444e+002, 1.267594e+002
6.052265e+002, 1.261298e+002
6.057086e+002, 1.260734e+002
6.061907e+002, 1.264268e+002
6.066729e+002, 1.266722e+002
6.071550e+002, 1.268075e+002
6.076371e+002, 1.267929e+002
6.081192e+002, 1.265498e+002
6.086013e+002, 1.261542e+002
6.090834e+002, 1.257123e+002
6.095656e+002, 1.252463e+002
6.100477e+002, 1.246992e+002
6.105298e+002, 1.239734e+002
6.110119e+002, 1.231814e+002
6.114940e+002, 1.224410e+002
6.119761e+002, 1.218985e+002
6.124583e+002, 1.212829e+002
6.129404e+002, 1.204671e+002
6.134225e+002, 1.195669e+002
6.139046e+002, 1.188416e+002
6.143867e+002, 1.184652e+002
6.148688e+002, 1.179101e+002
6.153510e+002, 1.168926e+002
6.158331e+002, 1.155488e+002
6.163152e+002, 1.147868e+002
6.167973e+002, 1.146550e+002
6.172794e+002, 1.146190e+002
6.177615e+002, 1.143555e+002
6.182437e+002, 1.139076e+002
6.187258e+002, 1.133829e+002
6.192079e+002, 1.127793e+002
6.196900e+002, 1.121221e+002
6.201721e+002, 1.114157e+002
6.206542e+002, 1.106719e+002
6.211364e+002, 1.099013e+002
6.216185e+002, 1.090698e+002
6.221006e+002, 1.082739e+002
6.225827e+002, 1.075214e+002
6.230648e+002, 1.068351e+002
6.235469e+002, 1.062466e+002
6.240291e+002, 1.060112e+002
6.245112e+002, 1.055754e+002
6.249933e+002, 1.048070e+002
6.254754e+002, 1.037894e+002
6.259575e+002, 1.027848e+002
6.264396e+002, 1.017346e+002
6.269218e+002, 1.008562e+002
6.274039e+002, 1.002532e+002
6.278860e+002, 9.989590e+001
6.283681e+002, 9.967295e+001
6.288502e+002, 9.959291e+001
6.293323e+002, 9.941257e+001
6.298145e+002, 9.881948e+001
6.302966e+002, 9.803086e+001
6.307787e+002, 9.750815e+001
6.312608e+002, 9.731750e+001
6.317429e+002, 9.707154e+001
6.322250e+002, 9.633562e+001
6.327072e+002, 9.545810e+001
6.331893e+002, 9.481731e+001
6.336714e+002, 9.467563e+001
6.341535e+002, 9.449863e+001
6.346356e+002, 9.405111e+001
6.351177e+002, 9.351247e+001
6.355999e+002, 9.316990e+001
6.360820e+002, 9.319707e+001
6.365641e+002, 9.315144e+001
6.370462e+002, 9.298402e+001
6.375283e+002, 9.268826e+001
6.380104e+002, 9.215456e+001
6.384926e+002, 9.130715e+001
6.389747e+002, 9.069042e+001
6.394568e+002, 9.072207e+001
6.399389e+002, 9.114118e+001
6.404210e+002, 9.097488e+001
6.409031e+002, 9.025712e+001
6.413853e+002, 8.958104e+001
6.418674e+002, 8.950459e+001
6.423495e+002, 8.964893e+001
6.428316e+002, 8.951431e+001
6.433137e+002, 8.900938e+001
6.437958e+002, 8.860720e+001
6.442780e+002, 8.858891e+001
6.447601e+002, 8.875086e+001
6.452422e+002, 8.893233e+001
6.457243e+002, 8.938989e+001
6.462064e+002, 8.938905e+001
6.466885e+002, 8.844458e+001
6.471707e+002, 8.730623e+001
6.476528e+002, 8.710500e+001
6.481349e+002, 8.827406e+001
6.486170e+002, 8.893759e+001
6.490991e+002, 8.862218e+001
6.495812e+002, 8.774117e+001
6.500634e+002, 8.725563e+001
6.505455e+002, 8.713737e+001
6.510276e+002, 8.703405e+001
6.515097e+002, 8.670237e+001
6.519918e+002, 8.633430e+001
6.524739e+002, 8.631844e+001
6.529561e+002, 8.657961e+001
6.534382e+002, 8.672000e+001
6.539203e+002, 8.624441e+001
6.544024e+002, 8.576451e+001
6.548845e+002, 8.580132e+001
6.553666e+002, 8.646530e+001
6.558488e+002, 8.688656e+001
6.563309e+002, 8.667234e+001
6.568130e+002, 8.630522e+001
6.572951e+002, 8.607523e+001
6.577772e+002, 8.603445e+001
6.582593e+002, 8.601064e+001
6.587415e+002, 8.605521e+001
6.592236e+002, 8.603417e+001
6.597057e+002, 8.569495e+001
6.601878e+002, 8.505019e+001
6.606699e+002, 8.466872e+001
6.611520e+002, 8.469579e+001
6.616342e+002, 8.492945e+001
6.621163e+002, 8.518012e+001
6.625984e+002, 8.541356e+001
6.630805e+002, 8.553867e+001
6.635626e+002, 8.548607e+001
6.640447e+002, 8.534511e+001
6.645269e+002, 8.506627e+001
6.650090e+002, 8.473799e+001
6.654911e+002, 8.461135e+001
6.659732e+002, 8.496085e+001
6.664553e+002, 8.533192e+001
6.669374e+002, 8.561185e+001
6.674196e+002, 8.579682e+001
6.679017e+002, 8.576087e+001
6.683838e+002, 8.539896e+001
6.688659e+002, 8.501555e+001
6.693480e+002, 8.476892e+001
6.698301e+002, 8.465730e+001
6.703123e+002, 8.448135e+001
6.707944e+002, 8.422212e+001
6.712765e+002, 8.404259e+001
6.717586e+002, 8.413242e+001
6.722407e+002, 8.440020e+001
6.727228e+002, 8.465555e+001
6.732050e+002, 8.487996e+001
6.736871e+002, 8.504964e+001
6.741692e+002, 8.510816e+001
6.746513e+002, 8.511893e+001
6.751334e+002, 8.516179e+001
6.756155e+002, 8.536097e+001
6.760977e+002, 8.543409e+001
6.765798e+002, 8.515831e+001
6.770619e+002, 8.477109e+001
6.775440e+002, 8.465771e+001
6.780261e+002, 8.506261e+001
6.785082e+002, 8.520401e+001
6.789904e+002, 8.484045e+001
6.794725e+002, 8.421166e+001
6.799546e+002, 8.393948e+001
6.804367e+002, 8.403125e+001
6.809188e+002, 8.422754e+001
6.814009e+002, 8.455319e+001
6.818831e+002, 8.482706e+001
6.823652e+002, 8.450826e+001
6.828473e+002, 8.374290e+001
6.833294e+002, 8.327168e+001
6.838115e+002, 8.376562e+001
6.842936e+002, 8.452901e+001
6.847758e+002, 8.520113e+001
6.852579e+002, 8.574279e+001
6.857400e+002, 8.586093e+001
6.862221e+002, 8.489684e+001
6.867042e+002, 8.397884e+001
6.871863e+002, 8.375847e+001
6.876685e+002, 8.450004e+001
6.881506e+002, 8.474011e+001
6.886327e+002, 8.427995e+001
6.891148e+002, 8.372762e+001
6.895969e+002, 8.367335e+001
6.900790e+002, 8.407995e+001
6.905612e+002, 8.440151e+001
6.910433e+002, 8.458212e+001
6.915254e+002, 8.467055e+001
6.920075e+002, 8.470123e+001
6.924896e+002, 8.467986e+001
6.929717e+002, 8.461951e+001
6.934539e+002, 8.453525e+001
6.939360e+002, 8.438972e+001
6.944181e+002, 8.397578e+001
6.949002e+002, 8.353460e+001
6.953823e+002, 8.344046e+001
6.958644e+002, 8.430956e+001
6.963466e+002, 8.487144e+001
6.968287e+002, 8.481984e+001
6.973108e+002, 8.438549e+001
6.977929e+002, 8.418227e+001
6.982750e+002, 8.428532e+001
6.987571e+002, 8.432956e+001
6.992393e+002, 8.411361e+001
6.997214e+002, 8.380691e+001
7.002035e+002, 8.405218e+001
7.006856e+002, 8.477922e+001
7.011677e+002, 8.536621e+001
7.016498e+002, 8.542187e+001
7.021320e+002, 8.515913e+001
7.026141e+002, 8.459434e+001
7.030962e+002, 8.381215e+001
7.035783e+002, 8.347635e+001
7.040604e+002, 8.457959e+001
7.045425e+002, 8.565137e+001
7.050247e+002, 8.569020e+001
7.055068e+002, 8.433457e+001
7.059889e+002, 8.360737e+001
7.064710e+002, 8.386253e+001
7.069531e+002, 8.429887e+001
7.074352e+002, 8.436530e+001
7.079174e+002, 8.400961e+001
7.083995e+002, 8.393985e+001
7.088816e+002, 8.423042e+001
7.093637e+002, 8.450801e+001
7.098458e+002, 8.429363e+001
7.103279e+002, 8.377129e+001
7.108101e+002, 8.337951e+001
7.112922e+002, 8.319530e+001
7.117743e+002, 8.316760e+001
7.122564e+002, 8.337199e+001
7.127385e+002, 8.366438e+001
7.132206e+002, 8.387333e+001
7.137028e+002, 8.392622e+001
7.141849e+002, 8.392991e+001
7.146670e+002, 8.387493e+001
7.151491e+002, 8.379232e+001
7.156312e+002, 8.373895e+001
7.161133e+002, 8.377676e+001
7.165955e+002, 8.365376e+001
7.170776e+002, 8.327551e+001
7.175597e+002, 8.277483e+001
7.180418e+002, 8.244376e+001
7.185239e+002, 8.226644e+001
7.190060e+002, 8.211176e+001
7.194882e+002, 8.184695e+001
7.199703e+002, 8.166457e+001
7.204524e+002, 8.191171e+001
7.209345e+002, 8.245161e+001
7.214166e+002, 8.288927e+001
7.218987e+002, 8.298840e+001
7.223809e+002, 8.298746e+001
7.228630e+002, 8.295766e+001
7.233451e+002, 8.291117e+001
7.238272e+002, 8.291270e+001
7.243093e+002, 8.296977e+001
7.247914e+002, 8.306976e+001
7.252736e+002, 8.322979e+001
7.257557e+002, 8.344075e+001
7.262378e+002, 8.357326e+001
7.267199e+002, 8.362453e+001
7.272020e+002, 8.364294e+001
7.276841e+002, 8.369017e+001
7.281663e+002, 8.372351e+001
7.286484e+002, 8.361195e+001
7.291305e+002, 8.335842e+001
7.296126e+002, 8.312630e+001
7.300947e+002, 8.306568e+001
7.305768e+002, 8.304539e+001
7.310590e+002, 8.294361e+001
7.315411e+002, 8.271743e+001
7.320232e+002, 8.255395e+001
7.325053e+002, 8.246707e+001
7.329874e+002, 8.246816e+001
7.334695e+002, 8.260758e+001
7.339517e+002, 8.299756e+001
7.344338e+002, 8.306395e+001
7.349159e+002, 8.270206e+001
7.353980e+002, 8.231289e+001
7.358801e+002, 8.239248e+001
7.363622e+002, 8.282871e+001
7.368444e+002, 8.316152e+001
7.373265e+002, 8.331974e+001
7.378086e+002, 8.337107e+001
7.382907e+002, 8.334805e+001
7.387728e+002, 8.326945e+001
7.392549e+002, 8.315572e+001
7.397371e+002, 8.298718e+001
7.402192e+002, 8.283028e+001
7.407013e+002, 8.270129e+001
7.411834e+002, 8.259676e+001
7.416655e+002, 8.248311e+001
7.421476e+002, 8.223734e+001
7.426298e+002, 8.232508e+001
7.431119e+002, 8.295334e+001
7.435940e+002, 8.373506e+001
7.440761e+002, 8.387294e+001
7.445582e+002, 8.343372e+001
7.450403e+002, 8.312904e+001
7.455225e+002, 8.319725e+001
7.460046e+002, 8.344466e+001
7.464867e+002, 8.365083e+001
7.469688e+002, 8.385023e+001
7.474509e+002, 8.411705e+001
7.479330e+002, 8.465341e+001
7.484152e+002, 8.508163e+001
7.488973e+002, 8.524648e+001
7.493794e+002, 8.518642e+001
7.498615e+002, 8.504663e+001
7.503436e+002, 8.485967e+001
7.508257e+002, 8.452798e+001
7.513079e+002, 8.391038e+001
7.517900e+002, 8.317839e+001
7.522721e+002, 8.310043e+001
7.527542e+002, 8.367575e+001
7.532363e+002, 8.409016e+001
7.537184e+002, 8.377076e+001
7.542006e+002, 8.316573e+001
7.546827e+002, 8.295641e+001
7.551648e+002, 8.308598e+001
7.556469e+002, 8.332585e+001
7.561290e+002, 8.375301e+001
7.566111e+002, 8.408236e+001
7.570933e+002, 8.414416e+001
7.575754e+002, 8.393877e+001
7.580575e+002, 8.364893e+001
7.585396e+002, 8.306041e+001
7.590217e+002, 8.273947e+001
7.595038e+002, 8.304646e+001
7.599860e+002, 8.388698e+001
7.604681e+002, 8.407078e+001
7.609502e+002, 8.353298e+001
7.614323e+002, 8.309456e+001
7.619144e+002, 8.353838e+001
7.623965e+002, 8.436379e+001
7.628787e+002, 8.459850e+001
7.633608e+002, 8.425675e+001
7.638429e+002, 8.388020e+001
7.643250e+002, 8.369289e+001
7.648071e+002, 8.366103e+001
7.652892e+002, 8.382899e+001
7.657714e+002, 8.424526e+001
7.662535e+002, 8.446408e+001
7.667356e+002, 8.429408e+001
7.672177e+002, 8.414606e+001
7.676998e+002, 8.430971e+001
7.681819e+002, 8.482232e+001
7.686641e+002, 8.498666e+001
7.691462e+002, 8.476932e+001
7.696283e+002, 8.445225e+001
7.701104e+002, 8.414712e+001
7.705925e+002, 8.394471e+001
7.710746e+002, 8.411964e+001
7.715568e+002, 8.471315e+001
7.720389e+002, 8.519831e+001
7.725210e+002, 8.514814e+001
7.730031e+002, 8.492205e+001
7.734852e+002, 8.479721e+001
7.739673e+002, 8.484100e+001
7.744495e+002, 8.489182e+001
7.749316e+002, 8.501769e+001
7.754137e+002, 8.505717e+001
7.758958e+002, 8.483184e+001
7.763779e+002, 8.430628e+001
7.768600e+002, 8.398354e+001
7.773422e+002, 8.389536e+001
7.778243e+002, 8.391109e+001
7.783064e+002, 8.397252e+001
7.787885e+002, 8.402678e+001
7.792706e+002, 8.390656e+001
7.797527e+002, 8.353185e+001
7.802349e+002, 8.334273e+001
7.807170e+002, 8.387088e+001
7.811991e+002, 8.454623e+001
7.816812e+002, 8.485143e+001
7.821633e+002, 8.444602e+001
7.826454e+002, 8.417911e+001
7.831276e+002, 8.411927e+001
7.836097e+002, 8.411617e+001
7.840918e+002, 8.398161e+001
7.845739e+002, 8.371018e+001
7.850560e+002, 8.364816e+001
7.855381e+002, 8.385268e+001
7.860203e+002, 8.414063e+001
7.865024e+002, 8.438657e+001
7.869845e+002, 8.455392e+001
7.874666e+002, 8.455369e+001
7.879487e+002, 8.430179e+001
7.884308e+002, 8.409086e+001
7.889130e+002, 8.401143e+001
7.893951e+002, 8.406826e+001
7.898772e+002, 8.429147e+001
7.903593e+002, 8.504975e+001
7.908414e+002, 8.524721e+001
7.913235e+002, 8.461818e+001
7.918057e+002, 8.377998e+001
7.922878e+002, 8.353498e+001
7.927699e+002, 8.383660e+001
7.932520e+002, 8.398160e+001
7.937341e+002, 8.383267e+001
7.942162e+002, 8.368015e+001
7.946984e+002, 8.400780e+001
7.951805e+002, 8.449023e+001
7.956626e+002, 8.455796e+001
7.961447e+002, 8.380087e+001
7.966268e+002, 8.325979e+001
7.971089e+002, 8.354173e+001
7.975911e+002, 8.410864e+001
7.980732e+002, 8.434982e+001
7.985553e+002, 8.410899e+001
7.990374e+002, 8.387988e+001
7.995195e+002, 8.364295e+001
8.000016e+002, 8.350823e+001
8.004838e+002, 8.370748e+001
8.009659e+002, 8.416772e+001
8.014480e+002, 8.446042e+001
8.019301e+002, 8.448894e+001
8.024122e+002, 8.441260e+001
8.028943e+002, 8.421394e+001
8.033765e+002, 8.407015e+001
8.038586e+002, 8.425026e+001
8.043407e+002, 8.517249e+001
8.048228e+002, 8.577769e+001
8.053049e+002, 8.558479e+001
8.057870e+002, 8.512645e+001
8.062692e+002, 8.494505e+001
8.067513e+002, 8.515852e+001
8.072334e+002, 8.513972e+001
8.077155e+002, 8.476908e+001
8.081976e+002, 8.433735e+001
8.086797e+002, 8.427046e+001
8.091619e+002, 8.445009e+001
8.096440e+002, 8.451879e+001
8.101261e+002, 8.436984e+001
8.106082e+002, 8.421807e+001
8.110903e+002, 8.430773e+001
8.115724e+002, 8.444143e+001
8.120546e+002, 8.439568e+001
8.125367e+002, 8.393468e+001
8.130188e+002, 8.361453e+001
8.135009e+002, 8.350851e+001
8.139830e+002, 8.350464e+001
8.144651e+002, 8.346703e+001
8.149473e+002, 8.338685e+001
8.154294e+002, 8.345391e+001
8.159115e+002, 8.370641e+001
8.163936e+002, 8.402277e+001
8.168757e+002, 8.437452e+001
8.173578e+002, 8.466080e+001
8.178400e+002, 8.461097e+001
8.183221e+002, 8.397614e+001
8.188042e+002, 8.368127e+001
8.192863e+002, 8.471276e+001
8.197684e+002, 8.597993e+001
8.202505e+002, 8.637075e+001
8.207327e+002, 8.522459e+001
8.212148e+002, 8.463473e+001
8.216969e+002, 8.478219e+001
8.221790e+002, 8.515372e+001
8.226611e+002, 8.518493e+001
8.231432e+002, 8.493639e+001
8.236254e+002, 8.478935e+001
8.241075e+002, 8.478562e+001
8.245896e+002, 8.486447e+001
8.250717e+002, 8.512624e+001
8.255538e+002, 8.536105e+001
8.260359e+002, 8.529061e+001
8.265181e+002, 8.476964e+001
8.270002e+002, 8.429679e+001
8.274823e+002, 8.396131e+001
8.279644e+002, 8.373399e+001
8.284465e+002, 8.360873e+001
8.289286e+002, 8.360698e+001
8.294108e+002, 8.361256e+001
8.298929e+002, 8.361950e+001
8.303750e+002, 8.366895e+001
8.308571e+002, 8.382079e+001
8.313392e+002, 8.403877e+001
8.318214e+002, 8.428885e+001
8.323035e+002, 8.457069e+001
8.327856e+002, 8.471731e+001
8.332677e+002, 8.441795e+001
8.337498e+002, 8.408475e+001
8.342319e+002, 8.405598e+001
8.347141e+002, 8.446931e+001
8.351962e+002, 8.477087e+001
8.356783e+002, 8.495969e+001
8.361604e+002, 8.503291e+001
8.366425e+002, 8.493434e+001
8.371246e+002, 8.468119e+001
8.376068e+002, 8.451181e+001
8.380889e+002, 8.442683e+001
8.385710e+002, 8.451742e+001
8.390531e+002, 8.516966e+001
8.395352e+002, 8.583926e+001
8.400173e+002, 8.575471e+001
8.404995e+002, 8.488853e+001
8.409816e+002, 8.437096e+001
8.414637e+002, 8.504232e+001
8.419458e+002, 8.569084e+001
8.424279e+002, 8.571864e+001
8.429100e+002, 8.514073e+001
8.433922e+002, 8.484282e+001
8.438743e+002, 8.486016e+001
8.443564e+002, 8.496008e+001
8.448385e+002, 8.505367e+001
8.453206e+002, 8.511507e+001
8.458027e+002, 8.502312e+001
8.462849e+002, 8.481599e+001
8.467670e+002, 8.471265e+001
8.472491e+002, 8.501597e+001
8.477312e+002, 8.529346e+001
8.482133e+002, 8.521855e+001
8.486954e+002, 8.483876e+001
8.491776e+002, 8.470686e+001
8.496597e+002, 8.501511e+001
8.501418e+002, 8.520012e+001
8.506239e+002, 8.499426e+001
8.511060e+002, 8.457204e+001
8.515881e+002, 8.463215e+001
8.520703e+002, 8.510313e+001
8.525524e+002, 8.537412e+001
8.530345e+002, 8.489537e+001
8.535166e+002, 8.430828e+001
8.539987e+002, 8.424277e+001
8.544808e+002, 8.453069e+001
8.549630e+002, 8.474678e+001
8.554451e+002, 8.469446e+001
8.559272e+002, 8.463888e+001
8.564093e+002, 8.464175e+001
8.568914e+002, 8.466921e+001
8.573735e+002, 8.464258e+001
8.578557e+002, 8.455747e+001
8.583378e+002, 8.444318e+001
8.588199e+002, 8.426692e+001
8.593020e+002, 8.414697e+001
8.597841e+002, 8.433154e+001
8.602662e+002, 8.469736e+001
8.607484e+002, 8.499900e+001
8.612305e+002, 8.528928e+001
8.617126e+002, 8.529772e+001
8.621947e+002, 8.453739e+001
8.626768e+002, 8.360139e+001
8.631589e+002, 8.335684e+001
8.636411e+002, 8.411473e+001
8.641232e+002, 8.467090e+001
8.646053e+002, 8.488712e+001
8.650874e+002, 8.494849e+001
8.655695e+002, 8.513912e+001
8.660516e+002, 8.537899e+001
8.665338e+002, 8.534628e+001
8.670159e+002, 8.490002e+001
8.674980e+002, 8.459779e+001
8.679801e+002, 8.508231e+001
8.684622e+002, 8.576003e+001
8.689443e+002, 8.603686e+001
8.694265e+002, 8.560487e+001
8.699086e+002, 8.531269e+001
8.703907e+002, 8.527831e+001
8.708728e+002, 8.520677e+001
8.713549e+002, 8.470878e+001
8.718370e+002, 8.385867e+001
8.723192e+002, 8.369707e+001
8.728013e+002, 8.427493e+001
8.732834e+002, 8.480232e+001
8.737655e+002, 8.440476e+001
8.742476e+002, 8.378004e+001
8.747297e+002, 8.366203e+001
8.752119e+002, 8.412920e+001
8.756940e+002, 8.459434e+001
8.761761e+002, 8.513050e+001
8.766582e+002, 8.538685e+001
8.771403e+002, 8.512783e+001
8.776224e+002, 8.440394e+001
8.781046e+002, 8.388767e+001
8.785867e+002, 8.358223e+001
8.790688e+002, 8.344109e+001
8.795509e+002, 8.357021e+001
8.800330e+002, 8.377525e+001
8.805151e+002, 8.373692e+001
8.809973e+002, 8.351997e+001
8.814794e+002, 8.337347e+001
8.819615e+002, 8.340599e+001
8.824436e+002, 8.352752e+001
8.829257e+002, 8.386766e+001
8.834078e+002, 8.425494e+001
8.838900e+002, 8.410934e+001
8.843721e+002, 8.328613e+001
8.848542e+002, 8.269236e+001
8.853363e+002, 8.260139e+001
8.858184e+002, 8.285339e+001
8.863005e+002, 8.331465e+001
8.867827e+002, 8.389137e+001
8.872648e+002, 8.433717e+001
8.877469e+002, 8.451486e+001
8.882290e+002, 8.461379e+001
8.887111e+002, 8.475389e+001
8.891932e+002, 8.484477e+001
8.896754e+002, 8.474516e+001
8.901575e+002, 8.435507e+001
8.906396e+002, 8.405094e+001
8.911217e+002, 8.388942e+001
8.916038e+002, 8.376010e+001
8.920859e+002, 8.344129e+001
8.925681e+002, 8.304011e+001
8.930502e+002, 8.293446e+001
8.935323e+002, 8.322498e+001
8.940144e+002, 8.351783e+001
8.944965e+002, 8.343659e+001
8.949786e+002, 8.330517e+001
8.954608e+002, 8.345339e+001
8.959429e+002, 8.407203e+001
8.964250e+002, 8.434373e+001
8.969071e+002, 8.416369e+001
8.973892e+002, 8.384071e+001
8.978713e+002, 8.346437e+001
8.983535e+002, 8.309714e+001
8.988356e+002, 8.328406e+001
8.993177e+002, 8.398081e+001
8.997998e+002, 8.449314e+001
9.002819e+002, 8.421080e+001
9.007640e+002, 8.368583e+001
9.012462e+002, 8.322633e+001
9.017283e+002, 8.287536e+001
9.022104e+002, 8.282021e+001
9.026925e+002, 8.337698e+001
9.031746e+002, 8.369321e+001
9.036567e+002, 8.337722e+001
9.041389e+002, 8.272486e+001
9.046210e+002, 8.281754e+001
9.051031e+002, 8.355752e+001
9.055852e+002, 8.405019e+001
9.060673e+002, 8.372822e+001
9.065494e+002, 8.328874e+001
9.070316e+002, 8.351766e+001
9.075137e+002, 8.404234e+001
9.079958e+002, 8.420734e+001
9.084779e+002, 8.340934e+001
9.089600e+002, 8.283126e+001
9.094421e+002, 8.258999e+001
9.099243e+002, 8.259387e+001
9.104064e+002, 8.282191e+001
9.108885e+002, 8.324821e+001
9.113706e+002, 8.335828e+001
9.118527e+002, 8.302479e+001
9.123348e+002, 8.270524e+001
9.128170e+002, 8.300786e+001
9.132991e+002, 8.348061e+001
9.137812e+002, 8.355270e+001
9.142633e+002, 8.298555e+001
9.147454e+002, 8.264741e+001
9.152275e+002, 8.280408e+001
9.157097e+002, 8.305677e+001
9.161918e+002, 8.315949e+001
9.166739e+002, 8.311692e+001
9.171560e+002, 8.328992e+001
9.176381e+002, 8.367949e+001
9.181202e+002, 8.398543e+001
9.186024e+002, 8.391607e+001
9.190845e+002, 8.371096e+001
9.195666e+002, 8.353542e+001
9.200487e+002, 8.343180e+001
9.205308e+002, 8.356739e+001
9.210129e+002, 8.437318e+001
9.214951e+002, 8.496476e+001
9.219772e+002, 8.510432e+001
9.224593e+002, 8.488630e+001
9.229414e+002, 8.448975e+001
9.234235e+002, 8.392453e+001
9.239056e+002, 8.359460e+001
9.243878e+002, 8.368645e+001
9.248699e+002, 8.395959e+001
9.253520e+002, 8.419475e+001
9.258341e+002, 8.440727e+001
9.263162e+002, 8.462766e+001
9.267983e+002, 8.493143e+001
9.272805e+002, 8.514027e+001
9.277626e+002, 8.523473e+001
9.282447e+002, 8.524053e+001
9.287268e+002, 8.520356e+001
9.292089e+002, 8.512709e+001
9.296910e+002, 8.476297e+001
9.301732e+002, 8.405451e+001
9.306553e+002, 8.355709e+001
9.311374e+002, 8.414713e+001
9.316195e+002, 8.500845e+001
9.321016e+002, 8.508534e+001
9.325837e+002, 8.421770e+001
9.330659e+002, 8.371472e+001
9.335480e+002, 8.417337e+001
9.340301e+002, 8.469875e+001
9.345122e+002, 8.491088e+001
9.349943e+002, 8.488480e+001
9.354764e+002, 8.524219e+001
9.359586e+002, 8.596751e+001
9.364407e+002, 8.641033e+001
9.369228e+002, 8.584375e+001
9.374049e+002, 8.522215e+001
9.378870e+002, 8.580115e+001
9.383691e+002, 8.707905e+001
9.388513e+002, 8.788297e+001
9.393334e+002, 8.753580e+001
9.398155e+002, 8.716191e+001
9.402976e+002, 8.691922e+001
9.407797e+002, 8.672458e+001
9.412618e+002, 8.645412e+001
9.417440e+002, 8.611389e+001
9.422261e+002, 8.570870e+001
9.427082e+002, 8.518665e+001
9.431903e+002, 8.488515e+001
9.436724e+002, 8.525626e+001
9.441545e+002, 8.594066e+001
9.446367e+002, 8.662839e+001
9.451188e+002, 8.733720e+001
9.456009e+002, 8.768405e+001
9.460830e+002, 8.732206e+001
9.465651e+002, 8.711021e+001
9.470472e+002, 8.773747e+001
9.475294e+002, 8.903744e+001
9.480115e+002, 8.944622e+001
9.484936e+002, 8.903477e+001
9.489757e+002, 8.859655e+001
9.494578e+002, 8.864000e+001
9.499399e+002, 8.884579e+001
9.504221e+002, 8.898866e+001
9.509042e+002, 8.908848e+001
9.513863e+002, 8.923988e+001
9.518684e+002, 8.945484e+001
9.523505e+002, 8.973203e+001
9.528326e+002, 9.010156e+001
9.533148e+002, 9.050015e+001
9.537969e+002, 9.081651e+001
9.542790e+002, 9.105798e+001
9.547611e+002, 9.122665e+001
9.552432e+002, 9.128215e+001
9.557253e+002, 9.141017e+001
9.562075e+002, 9.166766e+001
9.566896e+002, 9.210631e+001
9.571717e+002, 9.283024e+001
9.576538e+002, 9.399809e+001
9.581359e+002, 9.489690e+001
9.586180e+002, 9.539791e+001
9.591002e+002, 9.595439e+001
9.595823e+002, 9.706311e+001
9.600644e+002, 9.847079e+001
9.605465e+002, 9.929243e+001
9.610286e+002, 9.959367e+001
9.615107e+002, 9.997587e+001
9.619929e+002, 1.005971e+002
9.624750e+002, 1.015768e+002
9.629571e+002, 1.031121e+002
9.634392e+002, 1.050761e+002
9.639213e+002, 1.070337e+002
9.644034e+002, 1.089113e+002
9.648856e+002, 1.110209e+002
9.653677e+002, 1.134810e+002
9.658498e+002, 1.161356e+002
9.663319e+002, 1.186531e+002
9.668140e+002, 1.212127e+002
9.672961e+002, 1.240387e+002
9.677783e+002, 1.269748e+002
9.682604e+002, 1.308526e+002
9.687425e+002, 1.359665e+002
9.692246e+002, 1.422567e+002
9.697067e+002, 1.497277e+002
9.701888e+002, 1.582598e+002
9.706710e+002, 1.679004e+002
9.711531e+002, 1.785552e+002
9.716352e+002, 1.904835e+002
9.721173e+002, 2.048413e+002
9.725994e+002, 2.198014e+002
9.730815e+002, 2.329613e+002
9.735637e+002, 2.444870e+002
9.740458e+002, 2.561621e+002
9.745279e+002, 2.681407e+002
9.750100e+002, 2.808063e+002
9.754921e+002, 2.940044e+002
9.759742e+002, 3.081701e+002
9.764564e+002, 3.240161e+002
9.769385e+002, 3.417440e+002
9.774206e+002, 3.625845e+002
9.779027e+002, 3.863107e+002
9.783848e+002, 4.142221e+002
9.788669e+002, 4.475596e+002
9.793491e+002, 4.860873e+002
9.798312e+002, 5.298281e+002
9.803133e+002, 5.798190e+002
9.807954e+002, 6.330907e+002
9.812775e+002, 6.919213e+002
9.817596e+002, 7.507729e+002
9.822418e+002, 8.095458e+002
9.827239e+002, 8.661544e+002
9.832060e+002, 9.138096e+002
9.836881e+002, 9.509634e+002
9.841702e+002, 9.649462e+002
9.846523e+002, 9.463294e+002
9.851345e+002, 9.036449e+002
9.856166e+002, 8.336323e+002
9.860987e+002, 7.423816e+002
9.865808e+002, 6.518782e+002
9.870629e+002, 5.591897e+002
9.875450e+002, 4.769980e+002
9.880272e+002, 4.076548e+002
9.885093e+002, 3.498535e+002
9.889914e+002, 3.044105e+002
9.894735e+002, 2.690251e+002
9.899556e+002, 2.398819e+002
9.904377e+002, 2.166041e+002
9.909199e+002, 1.975412e+002
9.914020e+002, 1.835212e+002
9.918841e+002, 1.724107e+002
9.923662e+002, 1.628020e+002
9.928483e+002, 1.548605e+002
9.933304e+002, 1.477579e+002
9.938126e+002, 1.414955e+002
9.942947e+002, 1.360281e+002
9.947768e+002, 1.314153e+002
9.952589e+002, 1.275234e+002
9.957410e+002, 1.242712e+002
9.962231e+002, 1.215695e+002
9.967053e+002, 1.190716e+002
9.971874e+002, 1.166190e+002
9.976695e+002, 1.145393e+002
9.981516e+002, 1.130109e+002
9.986337e+002, 1.117138e+002
9.991158e+002, 1.099697e+002
9.995980e+002, 1.079024e+002
1.000080e+003, 1.066177e+002
1.000562e+003, 1.063401e+002
1.001044e+003, 1.060863e+002
1.001526e+003, 1.049532e+002
1.002009e+003, 1.036181e+002
1.002491e+003, 1.026786e+002
1.002973e+003, 1.022212e+002
1.003455e+003, 1.016360e+002
1.003937e+003, 1.008057e+002
1.004419e+003, 1.002429e+002
1.004901e+003, 1.003363e+002
1.005383e+003, 1.007103e+002
1.005865e+003, 1.004896e+002
1.006348e+003, 9.985350e+001
1.006830e+003, 9.930685e+001
1.007312e+003, 9.927030e+001
1.007794e+003, 9.910960e+001
1.008276e+003, 9.854408e+001
1.008758e+003, 9.780148e+001
1.009240e+003, 9.708819e+001
1.009722e+003, 9.640586e+001
1.010205e+003, 9.572288e+001
1.010687e+003, 9.501095e+001
1.011169e+003, 9.447874e+001
1.011651e+003, 9.455801e+001
1.012133e+003, 9.473714e+001
1.012615e+003, 9.441345e+001
1.013097e+003, 9.357298e+001
1.013579e+003, 9.278242e+001
1.014061e+003, 9.197497e+001
1.014544e+003, 9.151876e+001
1.015026e+003, 9.168182e+001
1.015508e+003, 9.211995e+001
1.015990e+003, 9.193336e+001
1.016472e+003, 9.125668e+001
1.016954e+003, 9.061552e+001
1.017436e+003, 9.010183e+001
1.017918e+003, 8.982185e+001
1.018401e+003, 9.005457e+001
1.018883e+003, 9.041930e+001
1.019365e+003, 9.054668e+001
1.019847e+003, 9.041484e+001
1.020329e+003, 9.007481e+001
1.020811e+003, 8.947642e+001
1.021293e+003, 8.894735e+001
1.021775e+003, 8.868819e+001
1.022257e+003, 8.866765e+001
1.022740e+003, 8.905029e+001
1.023222e+003, 8.966399e+001
1.023704e+003, 8.987167e+001
1.024186e+003, 8.899818e+001
1.024668e+003, 8.825930e+001
1.025150e+003, 8.790022e+001
1.025632e+003, 8.780772e+001
1.026114e+003, 8.787663e+001
1.026596e+003, 8.807536e+001
1.027079e+003, 8.808948e+001
1.027561e+003, 8.784131e+001
1.028043e+003, 8.763667e+001
1.028525e+003, 8.780582e+001
1.029007e+003, 8.806859e+001
1.029489e+003, 8.819627e+001
1.029971e+003, 8.816338e+001
1.030453e+003, 8.803588e+001
1.030936e+003, 8.776302e+001
1.031418e+003, 8.757684e+001
1.031900e+003, 8.763545e+001
1.032382e+003, 8.777267e+001
1.032864e+003, 8.762035e+001
1.033346e+003, 8.728524e+001
1.033828e+003, 8.701985e+001
1.034310e+003, 8.686802e+001
1.034792e+003, 8.687285e+001
1.035275e+003, 8.719613e+001
1.035757e+003, 8.754617e+001
1.036239e+003, 8.769770e+001
1.036721e+003, 8.765049e+001
1.037203e+003, 8.730303e+001
1.037685e+003, 8.666115e+001
1.038167e+003, 8.617033e+001
1.038649e+003, 8.633382e+001
1.039132e+003, 8.663692e+001
1.039614e+003, 8.657384e+001
1.040096e+003, 8.625293e+001
1.040578e+003, 8.633386e+001
1.041060e+003, 8.709998e+001
1.041542e+003, 8.756747e+001
1.042024e+003, 8.748402e+001
1.042506e+003, 8.718404e+001
1.042989e+003, 8.698525e+001
1.043471e+003, 8.699352e+001
1.043953e+003, 8.759011e+001
1.044435e+003, 8.902454e+001
1.044917e+003, 8.998470e+001
1.045399e+003, 8.952547e+001
1.045881e+003, 8.890177e+001
1.046363e+003, 8.873990e+001
1.046845e+003, 8.897636e+001
1.047328e+003, 8.913383e+001
1.047810e+003, 8.921362e+001
1.048292e+003, 8.919835e+001
1.048774e+003, 8.904013e+001
1.049256e+003, 8.884432e+001
1.049738e+003, 8.861121e+001
1.050220e+003, 8.842490e+001
1.050702e+003, 8.844077e+001
1.051184e+003, 8.880473e+001
1.051667e+003, 8.902266e+001
1.052149e+003, 8.905961e+001
1.052631e+003, 8.903114e+001
1.053113e+003, 8.896011e+001
1.053595e+003, 8.892690e+001
1.054077e+003, 8.910976e+001
1.054559e+003, 8.949431e+001
1.055041e+003, 8.993642e+001
1.055523e+003, 9.052046e+001
1.056006e+003, 9.098447e+001
1.056488e+003, 9.134212e+001
1.056970e+003, 9.149154e+001
1.057452e+003, 9.104363e+001
1.057934e+003, 9.009668e+001
1.058416e+003, 8.962146e+001
1.058898e+003, 8.987106e+001
1.059380e+003, 9.017211e+001
1.059863e+003, 9.001586e+001
1.060345e+003, 8.965087e+001
1.060827e+003, 8.914965e+001
1.061309e+003, 8.850850e+001
1.061791e+003, 8.849083e+001
1.062273e+003, 8.921936e+001
1.062755e+003, 9.000061e+001
1.063237e+003, 9.057595e+001
1.063719e+003, 9.096516e+001
1.064202e+003, 9.111191e+001
1.064684e+003, 9.111887e+001
1.065166e+003, 9.118956e+001
1.065648e+003, 9.151234e+001
1.066130e+003, 9.165084e+001
1.066612e+003, 9.141599e+001
1.067094e+003, 9.121091e+001
1.067576e+003, 9.148037e+001
1.068059e+003, 9.209668e+001
1.068541e+003, 9.221589e+001
1.069023e+003, 9.189526e+001
1.069505e+003, 9.168745e+001
1.069987e+003, 9.206437e+001
1.070469e+003, 9.248772e+001
1.070951e+003, 9.267017e+001
1.071433e+003, 9.270432e+001
1.071916e+003, 9.274173e+001
1.072398e+003, 9.277346e+001
1.072880e+003, 9.289454e+001
1.073362e+003, 9.312487e+001
1.073844e+003, 9.339238e+001
1.074326e+003, 9.367725e+001
1.074808e+003, 9.392364e+001
1.075290e+003, 9.405143e+001
1.075772e+003, 9.405381e+001
1.076255e+003, 9.408459e+001
1.076737e+003, 9.416321e+001
1.077219e+003, 9.424787e+001
1.077701e+003, 9.431262e+001
1.078183e+003, 9.439401e+001
1.078665e+003, 9.453500e+001
1.079147e+003, 9.475315e+001
1.079629e+003, 9.512973e+001
1.080111e+003, 9.580845e+001
1.080594e+003, 9.628293e+001
1.081076e+003, 9.619677e+001
1.081558e+003, 9.602086e+001
1.082040e+003, 9.605189e+001
1.082522e+003, 9.624968e+001
1.083004e+003, 9.610070e+001
1.083486e+003, 9.565540e+001
1.083968e+003, 9.541439e+001
1.084450e+003, 9.602534e+001
1.084933e+003, 9.651747e+001
1.085415e+003, 9.605832e+001
1.085897e+003, 9.516953e+001
1.086379e+003, 9.467544e+001
1.086861e+003, 9.464891e+001
1.087343e+003, 9.488014e+001
1.087825e+003, 9.542123e+001
1.088307e+003, 9.581837e+001
1.088790e+003, 9.547243e+001
1.089272e+003, 9.489527e+001
1.089754e+003, 9.471655e+001
1.090236e+003, 9.489739e+001
1.090718e+003, 9.505678e+001
1.091200e+003, 9.509551e+001
1.091682e+003, 9.517705e+001
1.092164e+003, 9.537737e+001
1.092646e+003, 9.554112e+001
1.093129e+003, 9.543348e+001
1.093611e+003, 9.509969e+001
1.094093e+003, 9.451713e+001
1.094575e+003, 9.364210e+001
1.095057e+003, 9.318544e+001
1.095539e+003, 9.386605e+001
1.096021e+003, 9.461675e+001
1.096503e+003, 9.497832e+001
1.096986e+003, 9.504623e+001
1.097468e+003, 9.525869e+001
1.097950e+003, 9.557056e+001
1.098432e+003, 9.553093e+001
1.098914e+003, 9.480461e+001
1.099396e+003, 9.421559e+001
1.099878e+003, 9.475266e+001
1.100360e+003, 9.545375e+001
1.100843e+003, 9.523203e+001
1.101325e+003, 9.391530e+001
1.101807e+003, 9.340445e+001
1.102289e+003, 9.377756e+001
1.102771e+003, 9.408418e+001
1.103253e+003, 9.361882e+001
1.103735e+003, 9.296987e+001
1.104217e+003, 9.296156e+001
1.104699e+003, 9.325471e+001
1.105182e+003, 9.319209e+001
1.105664e+003, 9.233508e+001
1.106146e+003, 9.170814e+001
1.106628e+003, 9.137420e+001
1.107110e+003, 9.116316e+001
1.107592e+003, 9.089350e+001
1.108074e+003, 9.064487e+001
1.108556e+003, 9.066697e+001
1.109038e+003, 9.089217e+001
1.109521e+003, 9.093230e+001
1.110003e+003, 9.032382e+001
1.110485e+003, 8.994173e+001
1.110967e+003, 9.002818e+001
1.111449e+003, 9.033888e+001
1.111931e+003, 9.058374e+001
1.112413e+003, 9.073799e+001
1.112895e+003, 9.063674e+001
1.113377e+003, 9.025620e+001
1.113860e+003, 8.989507e+001
1.114342e+003, 8.975831e+001
1.114824e+003, 8.966464e+001
1.115306e+003, 8.942899e+001
1.115788e+003, 8.917522e+001
1.116270e+003, 8.944704e+001
1.116752e+003, 9.023280e+001
1.117234e+003, 9.075864e+001
1.117717e+003, 9.082368e+001
1.118199e+003, 9.060585e+001
1.118681e+003, 8.993703e+001
1.119163e+003, 8.928636e+001
1.119645e+003, 8.921609e+001
1.120127e+003, 8.977610e+001
1.120609e+003, 8.990549e+001
1.121091e+003, 8.951791e+001
1.121573e+003, 8.922792e+001
1.122056e+003, 8.926285e+001
1.122538e+003, 8.957532e+001
1.123020e+003, 9.041908e+001
1.123502e+003, 9.138636e+001
1.123984e+003, 9.181675e+001
1.124466e+003, 9.124413e+001
1.124948e+003, 9.087965e+001
1.125430e+003, 9.079533e+001
1.125913e+003, 9.077867e+001
1.126395e+003, 9.066949e+001
1.126877e+003, 9.053899e+001
1.127359e+003, 9.058327e+001
1.127841e+003, 9.074216e+001
1.128323e+003, 9.084599e+001
1.128805e+003, 9.081685e+001
1.129287e+003, 9.073185e+001
1.129770e+003, 9.050779e+001
1.130252e+003, 9.037336e+001
1.130734e+003, 9.074954e+001
1.131216e+003, 9.140809e+001
1.131698e+003, 9.118326e+001
1.132180e+003, 9.019287e+001
1.132662e+003, 8.964454e+001
1.133144e+003, 9.073512e+001
1.133626e+003, 9.171349e+001
1.134109e+003, 9.176868e+001
1.134591e+003, 9.149785e+001
1.135073e+003, 9.194199e+001
1.135555e+003, 9.300798e+001
1.136037e+003, 9.356242e+001
1.136519e+003, 9.347018e+001
1.137001e+003, 9.323383e+001
1.137483e+003, 9.287126e+001
1.137965e+003, 9.281152e+001
1.138448e+003, 9.374421e+001
1.138930e+003, 9.517520e+001
1.139412e+003, 9.540009e+001
1.139894e+003, 9.433879e+001
1.140376e+003, 9.379420e+001
1.140858e+003, 9.419047e+001
1.141340e+003, 9.492433e+001
1.141822e+003, 9.564873e+001
1.142304e+003, 9.629304e+001
1.142787e+003, 9.681658e+001
1.143269e+003, 9.720579e+001
1.143751e+003, 9.736424e+001
1.144233e+003, 9.723791e+001
1.144715e+003, 9.717312e+001
1.145197e+003, 9.731497e+001
1.145679e+003, 9.749931e+001
1.146161e+003, 9.756250e+001
1.146644e+003, 9.751232e+001
1.147126e+003, 9.731801e+001
1.147608e+003, 9.688538e+001
1.148090e+003, 9.671687e+001
1.148572e+003, 9.690475e+001
1.149054e+003, 9.708890e+001
1.149536e+003, 9.710258e+001
1.150018e+003, 9.699805e+001
1.150500e+003, 9.675877e+001
1.150983e+003, 9.649526e+001
1.151465e+003, 9.646056e+001
1.151947e+003, 9.709047e+001
1.152429e+003, 9.710453e+001
1.152911e+003, 9.616053e+001
1.153393e+003, 9.517150e+001
1.153875e+003, 9.479787e+001
1.154357e+003, 9.484128e+001
1.154840e+003, 9.485921e+001
1.155322e+003, 9.483018e+001
1.155804e+003, 9.468633e+001
1.156286e+003, 9.432438e+001
1.156768e+003, 9.394441e+001
1.157250e+003, 9.354430e+001
1.157732e+003, 9.318407e+001
1.158214e+003, 9.298677e+001
1.158697e+003, 9.287798e+001
1.159179e+003, 9.243753e+001
1.159661e+003, 9.173672e+001
1.160143e+003, 9.125388e+001
1.160625e+003, 9.140560e+001
1.161107e+003, 9.159842e+001
1.161589e+003, 9.175837e+001
1.162071e+003, 9.176558e+001
1.162553e+003, 9.133796e+001
1.163036e+003, 9.056961e+001
1.163518e+003, 9.022568e+001
1.164000e+003, 9.032543e+001
1.164482e+003, 9.025432e+001
1.164964e+003, 8.918678e+001
1.165446e+003, 8.837373e+001
1.165928e+003, 8.868827e+001
1.166410e+003, 8.948697e+001
1.166892e+003, 8.950926e+001
1.167375e+003, 8.882420e+001
1.167857e+003, 8.840046e+001
1.168339e+003, 8.836166e+001
1.168821e+003, 8.861960e+001
1.169303e+003, 8.947194e+001
1.169785e+003, 9.025623e+001
1.170267e+003, 9.056698e+001
1.170749e+003, 9.046620e+001
1.171231e+003, 8.998230e+001
1.171714e+003, 8.911691e+001
1.172196e+003, 8.848380e+001
1.172678e+003, 8.822874e+001
1.173160e+003, 8.812174e+001
1.173642e+003, 8.805230e+001
1.174124e+003, 8.798771e+001
1.174606e+003, 8.787220e+001
1.175088e+003, 8.772860e+001
1.175571e+003, 8.771776e+001
1.176053e+003, 8.784595e+001
1.176535e+003, 8.799205e+001
1.177017e+003, 8.811874e+001
1.177499e+003, 8.826991e+001
1.177981e+003, 8.866872e+001
1.178463e+003, 8.898656e+001
1.178945e+003, 8.879566e+001
1.179427e+003, 8.808829e+001
1.179910e+003, 8.766678e+001
1.180392e+003, 8.754858e+001
1.180874e+003, 8.751125e+001
1.181356e+003, 8.749046e+001
1.181838e+003, 8.747153e+001
1.182320e+003, 8.736949e+001
1.182802e+003, 8.730012e+001
1.183284e+003, 8.748426e+001
1.183767e+003, 8.802013e+001
1.184249e+003, 8.805632e+001
1.184731e+003, 8.752719e+001
1.185213e+003, 8.693570e+001
1.185695e+003, 8.645569e+001
1.186177e+003, 8.613567e+001
1.186659e+003, 8.607365e+001
1.187141e+003, 8.619343e+001
1.187624e+003, 8.642129e+001
1.188106e+003, 8.682288e+001
1.188588e+003, 8.701028e+001
1.189070e+003, 8.695308e+001
1.189552e+003, 8.685416e+001
1.190034e+003, 8.682536e+001
1.190516e+003, 8.682319e+001
1.190998e+003, 8.679221e+001
1.191480e+003, 8.674938e+001
1.191963e+003, 8.671423e+001
1.192445e+003, 8.662222e+001
1.192927e+003, 8.674252e+001
1.193409e+003, 8.711892e+001
1.193891e+003, 8.750365e+001
1.194373e+003, 8.774689e+001
1.194855e+003, 8.788563e+001
1.195337e+003, 8.797219e+001
1.195819e+003, 8.798999e+001
1.196302e+003, 8.789333e+001
1.196784e+003, 8.760123e+001
1.197266e+003, 8.737298e+001
1.197748e+003, 8.722314e+001
1.198230e+003, 8.709314e+001
1.198712e+003, 8.673251e+001
1.199194e+003, 8.651048e+001
1.199676e+003, 8.734886e+001
1.200158e+003, 8.871910e+001
1.200641e+003, 8.907383e+001
1.201123e+003, 8.738185e+001
1.201605e+003, 8.668389e+001
1.202087e+003, 8.735265e+001
1.202569e+003, 8.815591e+001
1.203051e+003, 8.777590e+001
1.203533e+003, 8.700227e+001
1.204015e+003, 8.695328e+001
1.204498e+003, 8.744146e+001
1.204980e+003, 8.766539e+001
1.205462e+003, 8.730662e+001
1.205944e+003, 8.719286e+001
1.206426e+003, 8.742749e+001
1.206908e+003, 8.777823e+001
1.207390e+003, 8.808700e+001
1.207872e+003, 8.832570e+001
1.208354e+003, 8.844816e+001
1.208837e+003, 8.846585e+001
1.209319e+003, 8.842589e+001
1.209801e+003, 8.828585e+001
1.210283e+003, 8.823603e+001
1.210765e+003, 8.832175e+001
1.211247e+003, 8.840822e+001
1.211729e+003, 8.826180e+001
1.212211e+003, 8.809551e+001
1.212694e+003, 8.831245e+001
1.213176e+003, 8.881592e+001
1.213658e+003, 8.888634e+001
1.214140e+003, 8.826517e+001
1.214622e+003, 8.789951e+001
1.215104e+003, 8.799760e+001
1.215586e+003, 8.807699e+001
1.216068e+003, 8.727047e+001
1.216551e+003, 8.637937e+001
1.217033e+003, 8.653561e+001
1.217515e+003, 8.764624e+001
1.217997e+003, 8.844137e+001
1.218479e+003, 8.883720e+001
1.218961e+003, 8.890195e+001
1.219443e+003, 8.858543e+001
1.219925e+003, 8.820872e+001
1.220407e+003, 8.825448e+001
1.220890e+003, 8.835287e+001
1.221372e+003, 8.787657e+001
1.221854e+003, 8.692850e+001
1.222336e+003, 8.680348e+001
1.222818e+003, 8.782439e+001
1.223300e+003, 8.845885e+001
1.223782e+003, 8.834708e+001
1.224264e+003, 8.806994e+001
1.224746e+003, 8.838037e+001
1.225229e+003, 8.878039e+001
1.225711e+003, 8.869127e+001
1.226193e+003, 8.811520e+001
1.226675e+003, 8.767551e+001
1.227157e+003, 8.736472e+001
1.227639e+003, 8.730231e+001
1.228121e+003, 8.756432e+001
1.228603e+003, 8.783428e+001
1.229085e+003, 8.766764e+001
1.229568e+003, 8.742767e+001
1.230050e+003, 8.753322e+001
1.230532e+003, 8.794933e+001
1.231014e+003, 8.810789e+001
1.231496e+003, 8.798718e+001
1.231978e+003, 8.777016e+001
1.232460e+003, 8.745960e+001
1.232942e+003, 8.725954e+001
1.233425e+003, 8.744273e+001
1.233907e+003, 8.776023e+001
1.234389e+003, 8.804293e+001
1.234871e+003, 8.826636e+001
1.235353e+003, 8.830854e+001
1.235835e+003, 8.815678e+001
1.236317e+003, 8.813643e+001
1.236799e+003, 8.834795e+001
1.237281e+003, 8.858318e+001
1.237764e+003, 8.860493e+001
1.238246e+003, 8.863552e+001
1.238728e+003, 8.905822e+001
1.239210e+003, 8.965625e+001
1.239692e+003, 8.916380e+001
1.240174e+003, 8.765885e+001
1.240656e+003, 8.716193e+001
1.241138e+003, 8.832935e+001
1.241621e+003, 8.952117e+001
1.242103e+003, 8.941996e+001
1.242585e+003, 8.900150e+001
1.243067e+003, 8.888976e+001
1.243549e+003, 8.901095e+001
1.244031e+003, 8.907067e+001
1.244513e+003, 8.907879e+001
1.244995e+003, 8.916022e+001
1.245478e+003, 8.938766e+001
1.245960e+003, 8.941049e+001
1.246442e+003, 8.863514e+001
1.246924e+003, 8.800597e+001
1.247406e+003, 8.801191e+001
1.247888e+003, 8.852931e+001
1.248370e+003, 8.943811e+001
1.248852e+003, 9.055415e+001
1.249334e+003, 9.102270e+001
1.249817e+003, 9.055724e+001
1.250299e+003, 9.007169e+001
1.250781e+003, 8.997298e+001
1.251263e+003, 8.999034e+001
1.251745e+003, 9.000153e+001
1.252227e+003, 9.006572e+001
1.252709e+003, 9.040220e+001
1.253191e+003, 9.090941e+001
1.253673e+003, 9.137839e+001
1.254156e+003, 9.182253e+001
1.254638e+003, 9.174010e+001
1.255120e+003, 9.035339e+001
1.255602e+003, 8.938199e+001
1.256084e+003, 8.954579e+001
1.256566e+003, 9.023928e+001
1.257048e+003, 9.014951e+001
1.257530e+003, 8.969810e+001
1.258012e+003, 8.983141e+001
1.258495e+003, 9.078577e+001
1.258977e+003, 9.149113e+001
1.259459e+003, 9.170911e+001
1.259941e+003, 9.187889e+001
1.260423e+003, 9.219297e+001
1.260905e+003, 9.240941e+001
1.261387e+003, 9.205058e+001
1.261869e+003, 9.138806e+001
1.262352e+003, 9.077206e+001
1.262834e+003, 9.025352e+001
1.263316e+003, 8.991128e+001
1.263798e+003, 8.973781e+001
1.264280e+003, 8.976585e+001
1.264762e+003, 9.003216e+001
1.265244e+003, 9.042167e+001
1.265726e+003, 9.100656e+001
1.266208e+003, 9.149935e+001
1.266691e+003, 9.142599e+001
1.267173e+003, 9.077842e+001
1.267655e+003, 9.074821e+001
1.268137e+003, 9.145837e+001
1.268619e+003, 9.167458e+001
1.269101e+003, 9.093444e+001
1.269583e+003, 9.023188e+001
1.270065e+003, 9.065105e+001
1.270548e+003, 9.141253e+001
1.271030e+003, 9.190046e+001
1.271512e+003, 9.211202e+001
1.271994e+003, 9.199638e+001
1.272476e+003, 9.156550e+001
1.272958e+003, 9.139787e+001
1.273440e+003, 9.167516e+001
1.273922e+003, 9.183222e+001
1.274405e+003, 9.119339e+001
1.274887e+003, 9.059209e+001
1.275369e+003, 9.054153e+001
1.275851e+003, 9.087749e+001
1.276333e+003, 9.121575e+001
1.276815e+003, 9.153260e+001
1.277297e+003, 9.171521e+001
1.277779e+003, 9.174086e+001
1.278261e+003, 9.162769e+001
1.278744e+003, 9.111626e+001
1.279226e+003, 9.080939e+001
1.279708e+003, 9.095319e+001
1.280190e+003, 9.136989e+001
1.280672e+003, 9.191866e+001
1.281154e+003, 9.242494e+001
1.281636e+003, 9.226404e+001
1.282118e+003, 9.135123e+001
1.282600e+003, 9.092801e+001
1.283083e+003, 9.184602e+001
1.283565e+003, 9.241122e+001
1.284047e+003, 9.214645e+001
1.284529e+003, 9.161242e+001
1.285011e+003, 9.164962e+001
1.285493e+003, 9.192666e+001
1.285975e+003, 9.183838e+001
1.286457e+003, 9.138188e+001
1.286939e+003, 9.141457e+001
1.287422e+003, 9.228223e+001
1.287904e+003, 9.257278e+001
1.288386e+003, 9.191178e+001
1.288868e+003, 9.112060e+001
1.289350e+003, 9.102601e+001
1.289832e+003, 9.129765e+001
1.290314e+003, 9.179616e+001
1.290796e+003, 9.236855e+001
1.291279e+003, 9.239540e+001
1.291761e+003, 9.178738e+001
1.292243e+003, 9.161546e+001
1.292725e+003, 9.205523e+001
1.293207e+003, 9.249506e+001
1.293689e+003, 9.222799e+001
1.294171e+003, 9.200982e+001
1.294653e+003, 9.258651e+001
1.295135e+003, 9.344189e+001
1.295618e+003, 9.370857e+001
1.296100e+003, 9.342397e+001
1.296582e+003, 9.276798e+001
1.297064e+003, 9.180946e+001
1.297546e+003, 9.128231e+001
1.298028e+003, 9.212986e+001
1.298510e+003, 9.276187e+001
1.298992e+003, 9.262160e+001
1.299475e+003, 9.216179e+001
1.299957e+003, 9.187634e+001
1.300439e+003, 9.177061e+001
1.300921e+003, 9.187234e+001
1.301403e+003, 9.217048e+001
1.301885e+003, 9.257497e+001
##END=



