##NAMES=Retgersite
##RRUFFID=R130366
##IDEAL CHEMISTRY=Ni^2+^S^6+^O_4_&#183;6H_2_O
##LOCALITY=Minas Ragra mine, Pasco, Peru
##OWNER=RRUFF
##SOURCE=Tom Loomis
##DESCRIPTION=Glassy green crystals on patronite, associated with R130365 minasragrite
##STATUS=The identification of this mineral has been confirmed by single-crystal X-ray diffraction.
##URL=rruff.info/R130366
8.975323e+001, 0.000000e+000
9.023535e+001, 1.837112e+002
9.071747e+001, 1.827112e+002
9.119958e+001, 1.816529e+002
9.168170e+001, 1.838809e+002
9.216382e+001, 1.852825e+002
9.264594e+001, 1.852263e+002
9.312805e+001, 1.843118e+002
9.361017e+001, 1.831941e+002
9.409229e+001, 1.818131e+002
9.457440e+001, 1.798463e+002
9.505651e+001, 1.781413e+002
9.553863e+001, 1.770076e+002
9.602074e+001, 1.761074e+002
9.650286e+001, 1.751412e+002
9.698498e+001, 1.738687e+002
9.746709e+001, 1.720508e+002
9.794921e+001, 1.703721e+002
9.843133e+001, 1.686721e+002
9.891344e+001, 1.672719e+002
9.939556e+001, 1.662738e+002
9.987768e+001, 1.655880e+002
1.003598e+002, 1.650404e+002
1.008419e+002, 1.645289e+002
1.013240e+002, 1.640754e+002
1.018061e+002, 1.637196e+002
1.022883e+002, 1.634413e+002
1.027704e+002, 1.632439e+002
1.032525e+002, 1.631785e+002
1.037346e+002, 1.632737e+002
1.042167e+002, 1.633076e+002
1.046988e+002, 1.629365e+002
1.051810e+002, 1.623762e+002
1.056631e+002, 1.619746e+002
1.061452e+002, 1.619802e+002
1.066273e+002, 1.622732e+002
1.071094e+002, 1.623577e+002
1.075915e+002, 1.620676e+002
1.080737e+002, 1.617433e+002
1.085558e+002, 1.615134e+002
1.090379e+002, 1.613639e+002
1.095200e+002, 1.612495e+002
1.100021e+002, 1.611357e+002
1.104842e+002, 1.610255e+002
1.109664e+002, 1.608994e+002
1.114485e+002, 1.606586e+002
1.119306e+002, 1.604802e+002
1.124127e+002, 1.605635e+002
1.128948e+002, 1.608762e+002
1.133769e+002, 1.611437e+002
1.138591e+002, 1.609494e+002
1.143412e+002, 1.598353e+002
1.148233e+002, 1.590594e+002
1.153054e+002, 1.588411e+002
1.157875e+002, 1.588377e+002
1.162696e+002, 1.587027e+002
1.167517e+002, 1.583058e+002
1.172339e+002, 1.577793e+002
1.177160e+002, 1.574551e+002
1.181981e+002, 1.574211e+002
1.186802e+002, 1.573478e+002
1.191623e+002, 1.569819e+002
1.196444e+002, 1.564743e+002
1.201266e+002, 1.562884e+002
1.206087e+002, 1.567873e+002
1.210908e+002, 1.576182e+002
1.215729e+002, 1.580487e+002
1.220550e+002, 1.579727e+002
1.225371e+002, 1.576790e+002
1.230193e+002, 1.573590e+002
1.235014e+002, 1.570015e+002
1.239835e+002, 1.567035e+002
1.244656e+002, 1.565361e+002
1.249477e+002, 1.564473e+002
1.254298e+002, 1.564127e+002
1.259120e+002, 1.564456e+002
1.263941e+002, 1.565043e+002
1.268762e+002, 1.564821e+002
1.273583e+002, 1.562984e+002
1.278404e+002, 1.561741e+002
1.283225e+002, 1.561880e+002
1.288047e+002, 1.562887e+002
1.292868e+002, 1.564150e+002
1.297689e+002, 1.565355e+002
1.302510e+002, 1.566481e+002
1.307331e+002, 1.567139e+002
1.312152e+002, 1.567380e+002
1.316974e+002, 1.567069e+002
1.321795e+002, 1.565573e+002
1.326616e+002, 1.563389e+002
1.331437e+002, 1.561510e+002
1.336258e+002, 1.560676e+002
1.341079e+002, 1.560810e+002
1.345901e+002, 1.563127e+002
1.350722e+002, 1.570378e+002
1.355543e+002, 1.577220e+002
1.360364e+002, 1.579660e+002
1.365185e+002, 1.577699e+002
1.370006e+002, 1.575257e+002
1.374828e+002, 1.577278e+002
1.379649e+002, 1.585197e+002
1.384470e+002, 1.589971e+002
1.389291e+002, 1.588899e+002
1.394112e+002, 1.585320e+002
1.398933e+002, 1.582754e+002
1.403755e+002, 1.581826e+002
1.408576e+002, 1.582535e+002
1.413397e+002, 1.585423e+002
1.418218e+002, 1.590241e+002
1.423039e+002, 1.595443e+002
1.427860e+002, 1.601367e+002
1.432681e+002, 1.607393e+002
1.437503e+002, 1.611097e+002
1.442324e+002, 1.610670e+002
1.447145e+002, 1.609060e+002
1.451966e+002, 1.608761e+002
1.456787e+002, 1.609818e+002
1.461608e+002, 1.611740e+002
1.466430e+002, 1.614798e+002
1.471251e+002, 1.619286e+002
1.476072e+002, 1.622021e+002
1.480893e+002, 1.618182e+002
1.485714e+002, 1.615096e+002
1.490535e+002, 1.618143e+002
1.495357e+002, 1.628140e+002
1.500178e+002, 1.640095e+002
1.504999e+002, 1.645916e+002
1.509820e+002, 1.641369e+002
1.514641e+002, 1.639985e+002
1.519462e+002, 1.644951e+002
1.524284e+002, 1.651871e+002
1.529105e+002, 1.657619e+002
1.533926e+002, 1.660950e+002
1.538747e+002, 1.662409e+002
1.543568e+002, 1.663273e+002
1.548389e+002, 1.661834e+002
1.553211e+002, 1.661921e+002
1.558032e+002, 1.665609e+002
1.562853e+002, 1.670348e+002
1.567674e+002, 1.672775e+002
1.572495e+002, 1.671095e+002
1.577316e+002, 1.666490e+002
1.582138e+002, 1.664012e+002
1.586959e+002, 1.665260e+002
1.591780e+002, 1.666484e+002
1.596601e+002, 1.666319e+002
1.601422e+002, 1.665420e+002
1.606243e+002, 1.665710e+002
1.611065e+002, 1.668933e+002
1.615886e+002, 1.673733e+002
1.620707e+002, 1.674404e+002
1.625528e+002, 1.668153e+002
1.630349e+002, 1.660867e+002
1.635170e+002, 1.654737e+002
1.639991e+002, 1.649901e+002
1.644813e+002, 1.648228e+002
1.649634e+002, 1.653325e+002
1.654455e+002, 1.661922e+002
1.659276e+002, 1.666268e+002
1.664097e+002, 1.662478e+002
1.668918e+002, 1.656563e+002
1.673740e+002, 1.656402e+002
1.678561e+002, 1.663549e+002
1.683382e+002, 1.669034e+002
1.688203e+002, 1.664650e+002
1.693024e+002, 1.656128e+002
1.697845e+002, 1.650403e+002
1.702667e+002, 1.650799e+002
1.707488e+002, 1.655159e+002
1.712309e+002, 1.658783e+002
1.717130e+002, 1.661867e+002
1.721951e+002, 1.663687e+002
1.726772e+002, 1.662869e+002
1.731594e+002, 1.661062e+002
1.736415e+002, 1.660896e+002
1.741236e+002, 1.664627e+002
1.746057e+002, 1.671189e+002
1.750878e+002, 1.673778e+002
1.755699e+002, 1.667451e+002
1.760521e+002, 1.662542e+002
1.765342e+002, 1.662172e+002
1.770163e+002, 1.665134e+002
1.774984e+002, 1.669152e+002
1.779805e+002, 1.672688e+002
1.784626e+002, 1.675746e+002
1.789448e+002, 1.678593e+002
1.794269e+002, 1.680279e+002
1.799090e+002, 1.682679e+002
1.803911e+002, 1.686400e+002
1.808732e+002, 1.691335e+002
1.813553e+002, 1.696982e+002
1.818375e+002, 1.702859e+002
1.823196e+002, 1.708838e+002
1.828017e+002, 1.716506e+002
1.832838e+002, 1.728173e+002
1.837659e+002, 1.739096e+002
1.842480e+002, 1.746286e+002
1.847301e+002, 1.750089e+002
1.852123e+002, 1.753039e+002
1.856944e+002, 1.756847e+002
1.861765e+002, 1.761469e+002
1.866586e+002, 1.771000e+002
1.871407e+002, 1.789907e+002
1.876228e+002, 1.810258e+002
1.881050e+002, 1.826368e+002
1.885871e+002, 1.837569e+002
1.890692e+002, 1.846562e+002
1.895513e+002, 1.855808e+002
1.900334e+002, 1.865185e+002
1.905155e+002, 1.872965e+002
1.909977e+002, 1.882010e+002
1.914798e+002, 1.887934e+002
1.919619e+002, 1.885591e+002
1.924440e+002, 1.874007e+002
1.929261e+002, 1.856088e+002
1.934082e+002, 1.828923e+002
1.938904e+002, 1.795988e+002
1.943725e+002, 1.769478e+002
1.948546e+002, 1.756610e+002
1.953367e+002, 1.752029e+002
1.958188e+002, 1.744658e+002
1.963009e+002, 1.731887e+002
1.967831e+002, 1.720307e+002
1.972652e+002, 1.715992e+002
1.977473e+002, 1.716689e+002
1.982294e+002, 1.716966e+002
1.987115e+002, 1.712785e+002
1.991936e+002, 1.705554e+002
1.996758e+002, 1.701705e+002
2.001579e+002, 1.703865e+002
2.006400e+002, 1.706035e+002
2.011221e+002, 1.703223e+002
2.016042e+002, 1.697622e+002
2.020863e+002, 1.694794e+002
2.025685e+002, 1.700234e+002
2.030506e+002, 1.713275e+002
2.035327e+002, 1.722307e+002
2.040148e+002, 1.724904e+002
2.044969e+002, 1.725456e+002
2.049790e+002, 1.725640e+002
2.054612e+002, 1.725212e+002
2.059433e+002, 1.723084e+002
2.064254e+002, 1.717441e+002
2.069075e+002, 1.707872e+002
2.073896e+002, 1.702805e+002
2.078717e+002, 1.709651e+002
2.083539e+002, 1.714431e+002
2.088360e+002, 1.710979e+002
2.093181e+002, 1.701236e+002
2.098002e+002, 1.691192e+002
2.102823e+002, 1.686167e+002
2.107644e+002, 1.686716e+002
2.112466e+002, 1.687720e+002
2.117287e+002, 1.691723e+002
2.122108e+002, 1.693846e+002
2.126929e+002, 1.690450e+002
2.131750e+002, 1.682930e+002
2.136571e+002, 1.675938e+002
2.141393e+002, 1.673971e+002
2.146214e+002, 1.678056e+002
2.151035e+002, 1.680042e+002
2.155856e+002, 1.678527e+002
2.160677e+002, 1.676677e+002
2.165498e+002, 1.675977e+002
2.170320e+002, 1.676447e+002
2.175141e+002, 1.677463e+002
2.179962e+002, 1.678734e+002
2.184783e+002, 1.680432e+002
2.189604e+002, 1.679596e+002
2.194425e+002, 1.675206e+002
2.199247e+002, 1.669457e+002
2.204068e+002, 1.663654e+002
2.208889e+002, 1.657832e+002
2.213710e+002, 1.651105e+002
2.218531e+002, 1.642161e+002
2.223352e+002, 1.630919e+002
2.228174e+002, 1.622723e+002
2.232995e+002, 1.618957e+002
2.237816e+002, 1.617136e+002
2.242637e+002, 1.616511e+002
2.247458e+002, 1.616810e+002
2.252279e+002, 1.615603e+002
2.257100e+002, 1.609715e+002
2.261922e+002, 1.600054e+002
2.266743e+002, 1.593838e+002
2.271564e+002, 1.593736e+002
2.276385e+002, 1.595883e+002
2.281206e+002, 1.597241e+002
2.286027e+002, 1.597675e+002
2.290849e+002, 1.597173e+002
2.295670e+002, 1.594785e+002
2.300491e+002, 1.591449e+002
2.305312e+002, 1.589778e+002
2.310133e+002, 1.591430e+002
2.314954e+002, 1.594269e+002
2.319776e+002, 1.596245e+002
2.324597e+002, 1.597416e+002
2.329418e+002, 1.597298e+002
2.334239e+002, 1.593680e+002
2.339060e+002, 1.588887e+002
2.343881e+002, 1.586778e+002
2.348703e+002, 1.589958e+002
2.353524e+002, 1.594843e+002
2.358345e+002, 1.596264e+002
2.363166e+002, 1.593428e+002
2.367987e+002, 1.590411e+002
2.372808e+002, 1.589125e+002
2.377630e+002, 1.588877e+002
2.382451e+002, 1.589109e+002
2.387272e+002, 1.589823e+002
2.392093e+002, 1.590688e+002
2.396914e+002, 1.591217e+002
2.401735e+002, 1.591416e+002
2.406557e+002, 1.591244e+002
2.411378e+002, 1.590655e+002
2.416199e+002, 1.589724e+002
2.421020e+002, 1.588334e+002
2.425841e+002, 1.586318e+002
2.430662e+002, 1.584260e+002
2.435484e+002, 1.583184e+002
2.440305e+002, 1.583294e+002
2.445126e+002, 1.583887e+002
2.449947e+002, 1.584762e+002
2.454768e+002, 1.585986e+002
2.459589e+002, 1.587681e+002
2.464410e+002, 1.589903e+002
2.469232e+002, 1.592476e+002
2.474053e+002, 1.595576e+002
2.478874e+002, 1.600516e+002
2.483695e+002, 1.602589e+002
2.488516e+002, 1.597648e+002
2.493337e+002, 1.591825e+002
2.498159e+002, 1.590466e+002
2.502980e+002, 1.595087e+002
2.507801e+002, 1.602131e+002
2.512622e+002, 1.605310e+002
2.517443e+002, 1.601872e+002
2.522264e+002, 1.600779e+002
2.527086e+002, 1.604371e+002
2.531907e+002, 1.609192e+002
2.536728e+002, 1.613215e+002
2.541549e+002, 1.615782e+002
2.546370e+002, 1.617018e+002
2.551191e+002, 1.616883e+002
2.556013e+002, 1.614293e+002
2.560834e+002, 1.612690e+002
2.565655e+002, 1.612136e+002
2.570476e+002, 1.612379e+002
2.575297e+002, 1.613761e+002
2.580118e+002, 1.616094e+002
2.584940e+002, 1.618322e+002
2.589761e+002, 1.618907e+002
2.594582e+002, 1.616953e+002
2.599403e+002, 1.615583e+002
2.604224e+002, 1.612730e+002
2.609045e+002, 1.611834e+002
2.613867e+002, 1.616287e+002
2.618688e+002, 1.625698e+002
2.623509e+002, 1.636106e+002
2.628330e+002, 1.643136e+002
2.633151e+002, 1.646314e+002
2.637972e+002, 1.647355e+002
2.642794e+002, 1.644383e+002
2.647615e+002, 1.641282e+002
2.652436e+002, 1.639894e+002
2.657257e+002, 1.640428e+002
2.662078e+002, 1.642461e+002
2.666899e+002, 1.645875e+002
2.671721e+002, 1.651191e+002
2.676542e+002, 1.654253e+002
2.681363e+002, 1.652620e+002
2.686184e+002, 1.651417e+002
2.691005e+002, 1.653633e+002
2.695826e+002, 1.658749e+002
2.700648e+002, 1.664439e+002
2.705469e+002, 1.669160e+002
2.710290e+002, 1.672956e+002
2.715111e+002, 1.672776e+002
2.719932e+002, 1.667197e+002
2.724753e+002, 1.660000e+002
2.729575e+002, 1.651447e+002
2.734396e+002, 1.642428e+002
2.739217e+002, 1.634997e+002
2.744038e+002, 1.630763e+002
2.748859e+002, 1.629387e+002
2.753680e+002, 1.626768e+002
2.758501e+002, 1.620095e+002
2.763322e+002, 1.615453e+002
2.768144e+002, 1.617105e+002
2.772965e+002, 1.622380e+002
2.777786e+002, 1.624883e+002
2.782607e+002, 1.620661e+002
2.787428e+002, 1.611746e+002
2.792249e+002, 1.606975e+002
2.797071e+002, 1.608307e+002
2.801892e+002, 1.610492e+002
2.806713e+002, 1.613074e+002
2.811534e+002, 1.615542e+002
2.816355e+002, 1.616670e+002
2.821176e+002, 1.615711e+002
2.825998e+002, 1.613830e+002
2.830819e+002, 1.614298e+002
2.835640e+002, 1.619114e+002
2.840461e+002, 1.622197e+002
2.845282e+002, 1.620798e+002
2.850103e+002, 1.617327e+002
2.854925e+002, 1.615766e+002
2.859746e+002, 1.617645e+002
2.864567e+002, 1.620359e+002
2.869388e+002, 1.619053e+002
2.874209e+002, 1.612295e+002
2.879030e+002, 1.606827e+002
2.883852e+002, 1.604416e+002
2.888673e+002, 1.603567e+002
2.893494e+002, 1.602999e+002
2.898315e+002, 1.602479e+002
2.903136e+002, 1.600946e+002
2.907957e+002, 1.596105e+002
2.912779e+002, 1.587120e+002
2.917600e+002, 1.581899e+002
2.922421e+002, 1.583312e+002
2.927242e+002, 1.587651e+002
2.932063e+002, 1.592655e+002
2.936884e+002, 1.597925e+002
2.941706e+002, 1.600529e+002
2.946527e+002, 1.596268e+002
2.951348e+002, 1.585143e+002
2.956169e+002, 1.579016e+002
2.960990e+002, 1.582113e+002
2.965811e+002, 1.587587e+002
2.970633e+002, 1.590771e+002
2.975454e+002, 1.591411e+002
2.980275e+002, 1.590408e+002
2.985096e+002, 1.588096e+002
2.989917e+002, 1.584527e+002
2.994738e+002, 1.580729e+002
2.999560e+002, 1.576084e+002
3.004381e+002, 1.571797e+002
3.009202e+002, 1.568396e+002
3.014023e+002, 1.565892e+002
3.018844e+002, 1.564243e+002
3.023665e+002, 1.563430e+002
3.028487e+002, 1.563506e+002
3.033308e+002, 1.564542e+002
3.038129e+002, 1.567394e+002
3.042950e+002, 1.569742e+002
3.047771e+002, 1.570885e+002
3.052592e+002, 1.570761e+002
3.057414e+002, 1.568874e+002
3.062235e+002, 1.564563e+002
3.067056e+002, 1.559277e+002
3.071877e+002, 1.555535e+002
3.076698e+002, 1.552832e+002
3.081519e+002, 1.552530e+002
3.086341e+002, 1.557155e+002
3.091162e+002, 1.564056e+002
3.095983e+002, 1.568946e+002
3.100804e+002, 1.570853e+002
3.105625e+002, 1.570024e+002
3.110446e+002, 1.565237e+002
3.115268e+002, 1.556203e+002
3.120089e+002, 1.550031e+002
3.124910e+002, 1.549721e+002
3.129731e+002, 1.552257e+002
3.134552e+002, 1.554301e+002
3.139373e+002, 1.555378e+002
3.144195e+002, 1.556111e+002
3.149016e+002, 1.557276e+002
3.153837e+002, 1.558742e+002
3.158658e+002, 1.559002e+002
3.163479e+002, 1.556755e+002
3.168300e+002, 1.554087e+002
3.173121e+002, 1.552371e+002
3.177943e+002, 1.551709e+002
3.182764e+002, 1.552594e+002
3.187585e+002, 1.556575e+002
3.192406e+002, 1.562190e+002
3.197227e+002, 1.563217e+002
3.202048e+002, 1.556593e+002
3.206870e+002, 1.548627e+002
3.211691e+002, 1.540629e+002
3.216512e+002, 1.533633e+002
3.221333e+002, 1.531765e+002
3.226154e+002, 1.538059e+002
3.230975e+002, 1.549442e+002
3.235797e+002, 1.558245e+002
3.240618e+002, 1.565137e+002
3.245439e+002, 1.568950e+002
3.250260e+002, 1.566334e+002
3.255081e+002, 1.560773e+002
3.259902e+002, 1.559342e+002
3.264724e+002, 1.564753e+002
3.269545e+002, 1.573058e+002
3.274366e+002, 1.578067e+002
3.279187e+002, 1.579275e+002
3.284008e+002, 1.580940e+002
3.288829e+002, 1.584666e+002
3.293651e+002, 1.588849e+002
3.298472e+002, 1.591546e+002
3.303293e+002, 1.592416e+002
3.308114e+002, 1.592418e+002
3.312935e+002, 1.591948e+002
3.317756e+002, 1.590976e+002
3.322578e+002, 1.592530e+002
3.327399e+002, 1.598866e+002
3.332220e+002, 1.606093e+002
3.337041e+002, 1.611230e+002
3.341862e+002, 1.614352e+002
3.346683e+002, 1.617735e+002
3.351505e+002, 1.623408e+002
3.356326e+002, 1.630649e+002
3.361147e+002, 1.634389e+002
3.365968e+002, 1.630576e+002
3.370789e+002, 1.627974e+002
3.375610e+002, 1.630601e+002
3.380432e+002, 1.637266e+002
3.385253e+002, 1.645726e+002
3.390074e+002, 1.655536e+002
3.394895e+002, 1.665123e+002
3.399716e+002, 1.669446e+002
3.404537e+002, 1.664128e+002
3.409359e+002, 1.662265e+002
3.414180e+002, 1.668135e+002
3.419001e+002, 1.678172e+002
3.423822e+002, 1.688057e+002
3.428643e+002, 1.696521e+002
3.433464e+002, 1.704373e+002
3.438286e+002, 1.712700e+002
3.443107e+002, 1.721762e+002
3.447928e+002, 1.730557e+002
3.452749e+002, 1.741414e+002
3.457570e+002, 1.750312e+002
3.462391e+002, 1.754042e+002
3.467213e+002, 1.752448e+002
3.472034e+002, 1.747390e+002
3.476855e+002, 1.740490e+002
3.481676e+002, 1.731689e+002
3.486497e+002, 1.719848e+002
3.491318e+002, 1.702236e+002
3.496140e+002, 1.684894e+002
3.500961e+002, 1.670279e+002
3.505782e+002, 1.658096e+002
3.510603e+002, 1.647214e+002
3.515424e+002, 1.637072e+002
3.520245e+002, 1.627698e+002
3.525067e+002, 1.619146e+002
3.529888e+002, 1.610169e+002
3.534709e+002, 1.603558e+002
3.539530e+002, 1.600656e+002
3.544351e+002, 1.599910e+002
3.549172e+002, 1.599710e+002
3.553994e+002, 1.599470e+002
3.558815e+002, 1.599283e+002
3.563636e+002, 1.599466e+002
3.568457e+002, 1.601484e+002
3.573278e+002, 1.600566e+002
3.578099e+002, 1.592885e+002
3.582920e+002, 1.585375e+002
3.587741e+002, 1.583288e+002
3.592563e+002, 1.586652e+002
3.597384e+002, 1.591853e+002
3.602205e+002, 1.595583e+002
3.607026e+002, 1.597829e+002
3.611847e+002, 1.598633e+002
3.616668e+002, 1.596016e+002
3.621490e+002, 1.594109e+002
3.626311e+002, 1.595154e+002
3.631132e+002, 1.597864e+002
3.635953e+002, 1.599458e+002
3.640774e+002, 1.598097e+002
3.645595e+002, 1.594783e+002
3.650417e+002, 1.593887e+002
3.655238e+002, 1.598137e+002
3.660059e+002, 1.601116e+002
3.664880e+002, 1.601016e+002
3.669701e+002, 1.599886e+002
3.674522e+002, 1.599906e+002
3.679344e+002, 1.601718e+002
3.684165e+002, 1.604097e+002
3.688986e+002, 1.605034e+002
3.693807e+002, 1.603820e+002
3.698628e+002, 1.603092e+002
3.703449e+002, 1.603761e+002
3.708271e+002, 1.604232e+002
3.713092e+002, 1.603592e+002
3.717913e+002, 1.601902e+002
3.722734e+002, 1.599786e+002
3.727555e+002, 1.597618e+002
3.732376e+002, 1.595426e+002
3.737198e+002, 1.594021e+002
3.742019e+002, 1.594009e+002
3.746840e+002, 1.594100e+002
3.751661e+002, 1.594164e+002
3.756482e+002, 1.593987e+002
3.761303e+002, 1.593467e+002
3.766125e+002, 1.592757e+002
3.770946e+002, 1.591169e+002
3.775767e+002, 1.586253e+002
3.780588e+002, 1.575689e+002
3.785409e+002, 1.568430e+002
3.790230e+002, 1.568992e+002
3.795052e+002, 1.572502e+002
3.799873e+002, 1.576221e+002
3.804694e+002, 1.579540e+002
3.809515e+002, 1.581173e+002
3.814336e+002, 1.579397e+002
3.819157e+002, 1.574263e+002
3.823979e+002, 1.568405e+002
3.828800e+002, 1.560609e+002
3.833621e+002, 1.554088e+002
3.838442e+002, 1.551938e+002
3.843263e+002, 1.552976e+002
3.848084e+002, 1.552837e+002
3.852906e+002, 1.547948e+002
3.857727e+002, 1.540485e+002
3.862548e+002, 1.535246e+002
3.867369e+002, 1.532414e+002
3.872190e+002, 1.531246e+002
3.877011e+002, 1.533811e+002
3.881833e+002, 1.537110e+002
3.886654e+002, 1.536276e+002
3.891475e+002, 1.528500e+002
3.896296e+002, 1.519895e+002
3.901117e+002, 1.516283e+002
3.905938e+002, 1.517042e+002
3.910760e+002, 1.517230e+002
3.915581e+002, 1.514634e+002
3.920402e+002, 1.511591e+002
3.925223e+002, 1.511827e+002
3.930044e+002, 1.515639e+002
3.934865e+002, 1.518446e+002
3.939687e+002, 1.518556e+002
3.944508e+002, 1.516529e+002
3.949329e+002, 1.512671e+002
3.954150e+002, 1.506804e+002
3.958971e+002, 1.501025e+002
3.963792e+002, 1.496901e+002
3.968614e+002, 1.494530e+002
3.973435e+002, 1.493516e+002
3.978256e+002, 1.494430e+002
3.983077e+002, 1.496161e+002
3.987898e+002, 1.499117e+002
3.992719e+002, 1.502527e+002
3.997540e+002, 1.503333e+002
4.002361e+002, 1.499361e+002
4.007183e+002, 1.492828e+002
4.012004e+002, 1.490535e+002
4.016825e+002, 1.495587e+002
4.021646e+002, 1.498722e+002
4.026467e+002, 1.495945e+002
4.031288e+002, 1.491520e+002
4.036110e+002, 1.490969e+002
4.040931e+002, 1.495365e+002
4.045752e+002, 1.500876e+002
4.050573e+002, 1.502973e+002
4.055394e+002, 1.500830e+002
4.060215e+002, 1.499132e+002
4.065037e+002, 1.497395e+002
4.069858e+002, 1.496502e+002
4.074679e+002, 1.497556e+002
4.079500e+002, 1.499842e+002
4.084321e+002, 1.501497e+002
4.089142e+002, 1.501269e+002
4.093964e+002, 1.499741e+002
4.098785e+002, 1.499612e+002
4.103606e+002, 1.501785e+002
4.108427e+002, 1.504303e+002
4.113248e+002, 1.508159e+002
4.118069e+002, 1.511648e+002
4.122891e+002, 1.512614e+002
4.127712e+002, 1.510737e+002
4.132533e+002, 1.508202e+002
4.137354e+002, 1.507913e+002
4.142175e+002, 1.510313e+002
4.146996e+002, 1.513198e+002
4.151818e+002, 1.518434e+002
4.156639e+002, 1.522395e+002
4.161460e+002, 1.522478e+002
4.166281e+002, 1.520070e+002
4.171102e+002, 1.518624e+002
4.175923e+002, 1.520630e+002
4.180745e+002, 1.524944e+002
4.185566e+002, 1.527595e+002
4.190387e+002, 1.527906e+002
4.195208e+002, 1.528012e+002
4.200029e+002, 1.528429e+002
4.204850e+002, 1.529028e+002
4.209672e+002, 1.530074e+002
4.214493e+002, 1.531681e+002
4.219314e+002, 1.532422e+002
4.224135e+002, 1.529501e+002
4.228956e+002, 1.523253e+002
4.233777e+002, 1.520963e+002
4.238599e+002, 1.526565e+002
4.243420e+002, 1.532420e+002
4.248241e+002, 1.532649e+002
4.253062e+002, 1.528291e+002
4.257883e+002, 1.522976e+002
4.262704e+002, 1.517013e+002
4.267526e+002, 1.511505e+002
4.272347e+002, 1.508836e+002
4.277168e+002, 1.509209e+002
4.281989e+002, 1.508696e+002
4.286810e+002, 1.504579e+002
4.291631e+002, 1.498542e+002
4.296453e+002, 1.494374e+002
4.301274e+002, 1.492410e+002
4.306095e+002, 1.491565e+002
4.310916e+002, 1.491913e+002
4.315737e+002, 1.492912e+002
4.320558e+002, 1.493749e+002
4.325380e+002, 1.494320e+002
4.330201e+002, 1.493852e+002
4.335022e+002, 1.490806e+002
4.339843e+002, 1.484598e+002
4.344664e+002, 1.481057e+002
4.349485e+002, 1.482942e+002
4.354307e+002, 1.485352e+002
4.359128e+002, 1.485488e+002
4.363949e+002, 1.483364e+002
4.368770e+002, 1.479349e+002
4.373591e+002, 1.473253e+002
4.378412e+002, 1.466245e+002
4.383234e+002, 1.462935e+002
4.388055e+002, 1.468410e+002
4.392876e+002, 1.471096e+002
4.397697e+002, 1.469116e+002
4.402518e+002, 1.464662e+002
4.407339e+002, 1.458880e+002
4.412160e+002, 1.452485e+002
4.416982e+002, 1.447002e+002
4.421803e+002, 1.444494e+002
4.426624e+002, 1.445550e+002
4.431445e+002, 1.445265e+002
4.436266e+002, 1.441446e+002
4.441087e+002, 1.438562e+002
4.445909e+002, 1.438343e+002
4.450730e+002, 1.439932e+002
4.455551e+002, 1.441779e+002
4.460372e+002, 1.443062e+002
4.465193e+002, 1.444306e+002
4.470014e+002, 1.447655e+002
4.474836e+002, 1.455635e+002
4.479657e+002, 1.458115e+002
4.484478e+002, 1.447558e+002
4.489299e+002, 1.435023e+002
4.494120e+002, 1.426401e+002
4.498941e+002, 1.422428e+002
4.503763e+002, 1.421949e+002
4.508584e+002, 1.426041e+002
4.513405e+002, 1.433282e+002
4.518226e+002, 1.437548e+002
4.523047e+002, 1.438405e+002
4.527868e+002, 1.437025e+002
4.532690e+002, 1.431872e+002
4.537511e+002, 1.425424e+002
4.542332e+002, 1.421202e+002
4.547153e+002, 1.419973e+002
4.551974e+002, 1.421080e+002
4.556795e+002, 1.426291e+002
4.561617e+002, 1.434030e+002
4.566438e+002, 1.436728e+002
4.571259e+002, 1.430789e+002
4.576080e+002, 1.422199e+002
4.580901e+002, 1.419118e+002
4.585722e+002, 1.421438e+002
4.590544e+002, 1.423111e+002
4.595365e+002, 1.422039e+002
4.600186e+002, 1.420647e+002
4.605007e+002, 1.422480e+002
4.609828e+002, 1.426647e+002
4.614649e+002, 1.427408e+002
4.619471e+002, 1.420441e+002
4.624292e+002, 1.408183e+002
4.629113e+002, 1.400659e+002
4.633934e+002, 1.400182e+002
4.638755e+002, 1.401030e+002
4.643576e+002, 1.404071e+002
4.648398e+002, 1.407321e+002
4.653219e+002, 1.408540e+002
4.658040e+002, 1.407412e+002
4.662861e+002, 1.405469e+002
4.667682e+002, 1.404504e+002
4.672503e+002, 1.404765e+002
4.677325e+002, 1.403434e+002
4.682146e+002, 1.398546e+002
4.686967e+002, 1.394130e+002
4.691788e+002, 1.391455e+002
4.696609e+002, 1.389886e+002
4.701430e+002, 1.388616e+002
4.706252e+002, 1.387324e+002
4.711073e+002, 1.385653e+002
4.715894e+002, 1.382596e+002
4.720715e+002, 1.377551e+002
4.725536e+002, 1.373822e+002
4.730357e+002, 1.372861e+002
4.735179e+002, 1.372600e+002
4.740000e+002, 1.372425e+002
4.744821e+002, 1.372053e+002
4.749642e+002, 1.370716e+002
4.754463e+002, 1.367428e+002
4.759284e+002, 1.363066e+002
4.764106e+002, 1.359157e+002
4.768927e+002, 1.355540e+002
4.773748e+002, 1.353567e+002
4.778569e+002, 1.354899e+002
4.783390e+002, 1.357765e+002
4.788211e+002, 1.359465e+002
4.793033e+002, 1.359876e+002
4.797854e+002, 1.359178e+002
4.802675e+002, 1.356246e+002
4.807496e+002, 1.352559e+002
4.812317e+002, 1.351311e+002
4.817138e+002, 1.353163e+002
4.821959e+002, 1.355064e+002
4.826780e+002, 1.354148e+002
4.831602e+002, 1.350427e+002
4.836423e+002, 1.347555e+002
4.841244e+002, 1.344997e+002
4.846065e+002, 1.343792e+002
4.850886e+002, 1.345845e+002
4.855707e+002, 1.349222e+002
4.860529e+002, 1.350223e+002
4.865350e+002, 1.347498e+002
4.870171e+002, 1.343365e+002
4.874992e+002, 1.341876e+002
4.879813e+002, 1.345053e+002
4.884634e+002, 1.345233e+002
4.889456e+002, 1.339804e+002
4.894277e+002, 1.334402e+002
4.899098e+002, 1.332364e+002
4.903919e+002, 1.332575e+002
4.908740e+002, 1.331898e+002
4.913561e+002, 1.328269e+002
4.918383e+002, 1.323052e+002
4.923204e+002, 1.319874e+002
4.928025e+002, 1.318846e+002
4.932846e+002, 1.319574e+002
4.937667e+002, 1.325312e+002
4.942488e+002, 1.330368e+002
4.947310e+002, 1.330270e+002
4.952131e+002, 1.325132e+002
4.956952e+002, 1.319133e+002
4.961773e+002, 1.313717e+002
4.966594e+002, 1.309765e+002
4.971415e+002, 1.311066e+002
4.976237e+002, 1.319149e+002
4.981058e+002, 1.325467e+002
4.985879e+002, 1.323840e+002
4.990700e+002, 1.317961e+002
4.995521e+002, 1.315283e+002
5.000342e+002, 1.317615e+002
5.005164e+002, 1.319601e+002
5.009985e+002, 1.317500e+002
5.014806e+002, 1.313550e+002
5.019627e+002, 1.311883e+002
5.024448e+002, 1.313362e+002
5.029269e+002, 1.316065e+002
5.034091e+002, 1.318709e+002
5.038912e+002, 1.321316e+002
5.043733e+002, 1.320614e+002
5.048554e+002, 1.313664e+002
5.053375e+002, 1.307093e+002
5.058196e+002, 1.301858e+002
5.063018e+002, 1.298926e+002
5.067839e+002, 1.300943e+002
5.072660e+002, 1.308566e+002
5.077481e+002, 1.317189e+002
5.082302e+002, 1.319269e+002
5.087123e+002, 1.312437e+002
5.091945e+002, 1.307632e+002
5.096766e+002, 1.306468e+002
5.101587e+002, 1.305735e+002
5.106408e+002, 1.304048e+002
5.111229e+002, 1.301923e+002
5.116050e+002, 1.300786e+002
5.120872e+002, 1.301668e+002
5.125693e+002, 1.302802e+002
5.130514e+002, 1.299893e+002
5.135335e+002, 1.291929e+002
5.140156e+002, 1.287865e+002
5.144977e+002, 1.292574e+002
5.149799e+002, 1.298916e+002
5.154620e+002, 1.300385e+002
5.159441e+002, 1.297698e+002
5.164262e+002, 1.296062e+002
5.169083e+002, 1.299193e+002
5.173904e+002, 1.303673e+002
5.178726e+002, 1.304551e+002
5.183547e+002, 1.302066e+002
5.188368e+002, 1.300550e+002
5.193189e+002, 1.302570e+002
5.198010e+002, 1.306153e+002
5.202831e+002, 1.306778e+002
5.207653e+002, 1.304220e+002
5.212474e+002, 1.300218e+002
5.217295e+002, 1.292439e+002
5.222116e+002, 1.285163e+002
5.226937e+002, 1.282460e+002
5.231758e+002, 1.284226e+002
5.236580e+002, 1.288031e+002
5.241401e+002, 1.292397e+002
5.246222e+002, 1.296969e+002
5.251043e+002, 1.299957e+002
5.255864e+002, 1.300564e+002
5.260685e+002, 1.300563e+002
5.265507e+002, 1.299294e+002
5.270328e+002, 1.298089e+002
5.275149e+002, 1.298669e+002
5.279970e+002, 1.300804e+002
5.284791e+002, 1.302085e+002
5.289612e+002, 1.299678e+002
5.294434e+002, 1.294465e+002
5.299255e+002, 1.292028e+002
5.304076e+002, 1.293410e+002
5.308897e+002, 1.295185e+002
5.313718e+002, 1.296252e+002
5.318539e+002, 1.296792e+002
5.323361e+002, 1.296975e+002
5.328182e+002, 1.296843e+002
5.333003e+002, 1.296231e+002
5.337824e+002, 1.294496e+002
5.342645e+002, 1.292308e+002
5.347466e+002, 1.291084e+002
5.352288e+002, 1.291018e+002
5.357109e+002, 1.291784e+002
5.361930e+002, 1.293553e+002
5.366751e+002, 1.295977e+002
5.371572e+002, 1.296952e+002
5.376393e+002, 1.295415e+002
5.381215e+002, 1.293870e+002
5.386036e+002, 1.293699e+002
5.390857e+002, 1.293594e+002
5.395678e+002, 1.291214e+002
5.400499e+002, 1.286418e+002
5.405320e+002, 1.282117e+002
5.410142e+002, 1.281708e+002
5.414963e+002, 1.285365e+002
5.419784e+002, 1.286786e+002
5.424604e+002, 1.283799e+002
5.429426e+002, 1.281042e+002
5.434247e+002, 1.279916e+002
5.439068e+002, 1.279267e+002
5.443889e+002, 1.277715e+002
5.448710e+002, 1.274908e+002
5.453531e+002, 1.271631e+002
5.458353e+002, 1.268162e+002
5.463174e+002, 1.264667e+002
5.467995e+002, 1.263671e+002
5.472816e+002, 1.266573e+002
5.477637e+002, 1.269282e+002
5.482458e+002, 1.268366e+002
5.487280e+002, 1.265757e+002
5.492101e+002, 1.264748e+002
5.496922e+002, 1.266886e+002
5.501743e+002, 1.268541e+002
5.506564e+002, 1.266477e+002
5.511385e+002, 1.262466e+002
5.516207e+002, 1.260366e+002
5.521028e+002, 1.261014e+002
5.525849e+002, 1.262445e+002
5.530670e+002, 1.262810e+002
5.535491e+002, 1.262108e+002
5.540313e+002, 1.262147e+002
5.545134e+002, 1.263618e+002
5.549955e+002, 1.264897e+002
5.554776e+002, 1.266327e+002
5.559597e+002, 1.266974e+002
5.564418e+002, 1.264685e+002
5.569240e+002, 1.259387e+002
5.574061e+002, 1.254761e+002
5.578882e+002, 1.255827e+002
5.583703e+002, 1.262908e+002
5.588524e+002, 1.266292e+002
5.593345e+002, 1.264718e+002
5.598167e+002, 1.260929e+002
5.602988e+002, 1.253723e+002
5.607809e+002, 1.246048e+002
5.612630e+002, 1.241567e+002
5.617451e+002, 1.241335e+002
5.622272e+002, 1.242954e+002
5.627094e+002, 1.244693e+002
5.631915e+002, 1.246615e+002
5.636736e+002, 1.249614e+002
5.641557e+002, 1.254405e+002
5.646378e+002, 1.256964e+002
5.651199e+002, 1.252738e+002
5.656021e+002, 1.243886e+002
5.660842e+002, 1.240127e+002
5.665663e+002, 1.245449e+002
5.670484e+002, 1.250148e+002
5.675305e+002, 1.250108e+002
5.680126e+002, 1.248024e+002
5.684948e+002, 1.247233e+002
5.689769e+002, 1.248317e+002
5.694590e+002, 1.250110e+002
5.699411e+002, 1.251795e+002
5.704232e+002, 1.253264e+002
5.709053e+002, 1.252136e+002
5.713875e+002, 1.243505e+002
5.718696e+002, 1.238995e+002
5.723517e+002, 1.244442e+002
5.728338e+002, 1.252070e+002
5.733159e+002, 1.253640e+002
5.737980e+002, 1.248456e+002
5.742802e+002, 1.243499e+002
5.747623e+002, 1.246083e+002
5.752444e+002, 1.254102e+002
5.757265e+002, 1.258827e+002
5.762086e+002, 1.259928e+002
5.766907e+002, 1.258923e+002
5.771729e+002, 1.254335e+002
5.776550e+002, 1.249336e+002
5.781371e+002, 1.249587e+002
5.786192e+002, 1.256674e+002
5.791013e+002, 1.262235e+002
5.795834e+002, 1.261733e+002
5.800656e+002, 1.258875e+002
5.805477e+002, 1.258242e+002
5.810298e+002, 1.259798e+002
5.815119e+002, 1.259987e+002
5.819940e+002, 1.255985e+002
5.824761e+002, 1.250069e+002
5.829583e+002, 1.250155e+002
5.834404e+002, 1.263586e+002
5.839225e+002, 1.271877e+002
5.844046e+002, 1.271300e+002
5.848867e+002, 1.268692e+002
5.853688e+002, 1.267975e+002
5.858510e+002, 1.269310e+002
5.863331e+002, 1.271359e+002
5.868152e+002, 1.273299e+002
5.872973e+002, 1.275385e+002
5.877794e+002, 1.278840e+002
5.882615e+002, 1.284246e+002
5.887437e+002, 1.286884e+002
5.892258e+002, 1.284439e+002
5.897079e+002, 1.280074e+002
5.901900e+002, 1.275509e+002
5.906721e+002, 1.271184e+002
5.911542e+002, 1.270267e+002
5.916364e+002, 1.277094e+002
5.921185e+002, 1.284876e+002
5.926006e+002, 1.287720e+002
5.930827e+002, 1.286704e+002
5.935648e+002, 1.284917e+002
5.940469e+002, 1.283379e+002
5.945291e+002, 1.282457e+002
5.950112e+002, 1.282676e+002
5.954933e+002, 1.284175e+002
5.959754e+002, 1.286320e+002
5.964575e+002, 1.291720e+002
5.969396e+002, 1.294814e+002
5.974218e+002, 1.291135e+002
5.979039e+002, 1.284855e+002
5.983860e+002, 1.282465e+002
5.988681e+002, 1.286059e+002
5.993502e+002, 1.291109e+002
5.998323e+002, 1.291977e+002
6.003145e+002, 1.288815e+002
6.007966e+002, 1.285630e+002
6.012787e+002, 1.281704e+002
6.017608e+002, 1.279644e+002
6.022429e+002, 1.283647e+002
6.027250e+002, 1.289655e+002
6.032072e+002, 1.290936e+002
6.036893e+002, 1.285143e+002
6.041714e+002, 1.279259e+002
6.046535e+002, 1.277527e+002
6.051356e+002, 1.277533e+002
6.056177e+002, 1.275135e+002
6.060999e+002, 1.270182e+002
6.065820e+002, 1.266518e+002
6.070641e+002, 1.267280e+002
6.075462e+002, 1.271180e+002
6.080283e+002, 1.272353e+002
6.085104e+002, 1.268129e+002
6.089926e+002, 1.264906e+002
6.094747e+002, 1.263990e+002
6.099568e+002, 1.263266e+002
6.104389e+002, 1.261424e+002
6.109210e+002, 1.258396e+002
6.114031e+002, 1.254414e+002
6.118853e+002, 1.249097e+002
6.123674e+002, 1.243793e+002
6.128495e+002, 1.241887e+002
6.133316e+002, 1.243742e+002
6.138137e+002, 1.244529e+002
6.142958e+002, 1.242594e+002
6.147780e+002, 1.239840e+002
6.152601e+002, 1.238483e+002
6.157422e+002, 1.238182e+002
6.162243e+002, 1.236698e+002
6.167064e+002, 1.232634e+002
6.171885e+002, 1.228190e+002
6.176707e+002, 1.224779e+002
6.181528e+002, 1.222003e+002
6.186349e+002, 1.218580e+002
6.191170e+002, 1.214203e+002
6.195991e+002, 1.210711e+002
6.200812e+002, 1.210593e+002
6.205634e+002, 1.214185e+002
6.210455e+002, 1.215963e+002
6.215276e+002, 1.214497e+002
6.220097e+002, 1.212882e+002
6.224918e+002, 1.212376e+002
6.229739e+002, 1.211688e+002
6.234561e+002, 1.209238e+002
6.239382e+002, 1.204832e+002
6.244203e+002, 1.199978e+002
6.249023e+002, 1.194633e+002
6.253845e+002, 1.189961e+002
6.258666e+002, 1.190063e+002
6.263487e+002, 1.195456e+002
6.268308e+002, 1.200499e+002
6.273129e+002, 1.203072e+002
6.277950e+002, 1.203405e+002
6.282772e+002, 1.201544e+002
6.287593e+002, 1.197276e+002
6.292414e+002, 1.192539e+002
6.297235e+002, 1.186355e+002
6.302056e+002, 1.180895e+002
6.306877e+002, 1.177947e+002
6.311699e+002, 1.176913e+002
6.316520e+002, 1.175963e+002
6.321341e+002, 1.174260e+002
6.326162e+002, 1.172972e+002
6.330983e+002, 1.174762e+002
6.335804e+002, 1.180833e+002
6.340626e+002, 1.183787e+002
6.345447e+002, 1.182173e+002
6.350268e+002, 1.179063e+002
6.355089e+002, 1.175103e+002
6.359910e+002, 1.170909e+002
6.364731e+002, 1.167469e+002
6.369553e+002, 1.165149e+002
6.374374e+002, 1.163051e+002
6.379195e+002, 1.160107e+002
6.384016e+002, 1.157094e+002
6.388837e+002, 1.155756e+002
6.393658e+002, 1.156232e+002
6.398480e+002, 1.156705e+002
6.403301e+002, 1.155875e+002
6.408122e+002, 1.154294e+002
6.412943e+002, 1.153839e+002
6.417764e+002, 1.156562e+002
6.422585e+002, 1.157323e+002
6.427407e+002, 1.153291e+002
6.432228e+002, 1.149806e+002
6.437049e+002, 1.151551e+002
6.441870e+002, 1.156665e+002
6.446691e+002, 1.159682e+002
6.451512e+002, 1.157444e+002
6.456334e+002, 1.153185e+002
6.461155e+002, 1.152617e+002
6.465976e+002, 1.155699e+002
6.470797e+002, 1.157077e+002
6.475618e+002, 1.155896e+002
6.480439e+002, 1.153007e+002
6.485261e+002, 1.147570e+002
6.490082e+002, 1.140908e+002
6.494903e+002, 1.137402e+002
6.499724e+002, 1.139151e+002
6.504545e+002, 1.141355e+002
6.509366e+002, 1.143472e+002
6.514188e+002, 1.144300e+002
6.519009e+002, 1.140648e+002
6.523830e+002, 1.133375e+002
6.528651e+002, 1.128703e+002
6.533472e+002, 1.131705e+002
6.538293e+002, 1.139848e+002
6.543115e+002, 1.143444e+002
6.547936e+002, 1.140283e+002
6.552757e+002, 1.137893e+002
6.557578e+002, 1.138680e+002
6.562399e+002, 1.139270e+002
6.567220e+002, 1.137529e+002
6.572042e+002, 1.134008e+002
6.576863e+002, 1.130507e+002
6.581684e+002, 1.127090e+002
6.586505e+002, 1.124908e+002
6.591326e+002, 1.126411e+002
6.596147e+002, 1.129985e+002
6.600969e+002, 1.130564e+002
6.605790e+002, 1.126980e+002
6.610611e+002, 1.123104e+002
6.615432e+002, 1.122445e+002
6.620253e+002, 1.124641e+002
6.625074e+002, 1.125792e+002
6.629896e+002, 1.125225e+002
6.634717e+002, 1.124489e+002
6.639538e+002, 1.122463e+002
6.644359e+002, 1.121279e+002
6.649180e+002, 1.123948e+002
6.654001e+002, 1.129321e+002
6.658823e+002, 1.132717e+002
6.663644e+002, 1.130796e+002
6.668465e+002, 1.126028e+002
6.673286e+002, 1.122760e+002
6.678107e+002, 1.120945e+002
6.682928e+002, 1.118684e+002
6.687750e+002, 1.114868e+002
6.692571e+002, 1.112273e+002
6.697392e+002, 1.114915e+002
6.702213e+002, 1.121916e+002
6.707034e+002, 1.124428e+002
6.711855e+002, 1.117779e+002
6.716677e+002, 1.112201e+002
6.721498e+002, 1.111925e+002
6.726319e+002, 1.113766e+002
6.731140e+002, 1.114456e+002
6.735961e+002, 1.113513e+002
6.740782e+002, 1.111865e+002
6.745604e+002, 1.109954e+002
6.750425e+002, 1.108300e+002
6.755246e+002, 1.108885e+002
6.760067e+002, 1.112302e+002
6.764888e+002, 1.115462e+002
6.769709e+002, 1.118783e+002
6.774531e+002, 1.120494e+002
6.779352e+002, 1.117845e+002
6.784173e+002, 1.112329e+002
6.788994e+002, 1.109438e+002
6.793815e+002, 1.113049e+002
6.798636e+002, 1.116214e+002
6.803458e+002, 1.113881e+002
6.808279e+002, 1.108838e+002
6.813100e+002, 1.105179e+002
6.817921e+002, 1.103711e+002
6.822742e+002, 1.103480e+002
6.827563e+002, 1.103721e+002
6.832385e+002, 1.104550e+002
6.837206e+002, 1.106995e+002
6.842027e+002, 1.113512e+002
6.846848e+002, 1.116238e+002
6.851669e+002, 1.109709e+002
6.856490e+002, 1.102966e+002
6.861312e+002, 1.101529e+002
6.866133e+002, 1.104258e+002
6.870954e+002, 1.106831e+002
6.875775e+002, 1.106760e+002
6.880596e+002, 1.107591e+002
6.885417e+002, 1.115726e+002
6.890239e+002, 1.126650e+002
6.895060e+002, 1.127608e+002
6.899881e+002, 1.116599e+002
6.904702e+002, 1.106602e+002
6.909523e+002, 1.108660e+002
6.914344e+002, 1.119509e+002
6.919166e+002, 1.122540e+002
6.923987e+002, 1.111542e+002
6.928808e+002, 1.102453e+002
6.933629e+002, 1.095172e+002
6.938450e+002, 1.090687e+002
6.943271e+002, 1.090369e+002
6.948093e+002, 1.093278e+002
6.952914e+002, 1.097615e+002
6.957735e+002, 1.103399e+002
6.962556e+002, 1.107779e+002
6.967377e+002, 1.106281e+002
6.972198e+002, 1.100633e+002
6.977020e+002, 1.097268e+002
6.981841e+002, 1.097314e+002
6.986662e+002, 1.097198e+002
6.991483e+002, 1.093984e+002
6.996304e+002, 1.088948e+002
7.001125e+002, 1.087048e+002
7.005947e+002, 1.092474e+002
7.010768e+002, 1.094621e+002
7.015589e+002, 1.089939e+002
7.020410e+002, 1.085137e+002
7.025231e+002, 1.084751e+002
7.030052e+002, 1.087434e+002
7.034874e+002, 1.089797e+002
7.039695e+002, 1.090437e+002
7.044516e+002, 1.089870e+002
7.049337e+002, 1.088325e+002
7.054158e+002, 1.086029e+002
7.058979e+002, 1.083870e+002
7.063801e+002, 1.081818e+002
7.068622e+002, 1.080816e+002
7.073442e+002, 1.081834e+002
7.078264e+002, 1.083953e+002
7.083085e+002, 1.084904e+002
7.087906e+002, 1.084663e+002
7.092727e+002, 1.083369e+002
7.097548e+002, 1.080119e+002
7.102369e+002, 1.076674e+002
7.107191e+002, 1.073054e+002
7.112012e+002, 1.070263e+002
7.116833e+002, 1.070655e+002
7.121654e+002, 1.074971e+002
7.126475e+002, 1.079329e+002
7.131296e+002, 1.078014e+002
7.136118e+002, 1.072470e+002
7.140939e+002, 1.071505e+002
7.145760e+002, 1.076277e+002
7.150581e+002, 1.079736e+002
7.155402e+002, 1.077886e+002
7.160223e+002, 1.073781e+002
7.165045e+002, 1.073054e+002
7.169866e+002, 1.076649e+002
7.174687e+002, 1.077659e+002
7.179508e+002, 1.073128e+002
7.184329e+002, 1.068426e+002
7.189150e+002, 1.065819e+002
7.193972e+002, 1.064895e+002
7.198793e+002, 1.065115e+002
7.203614e+002, 1.066196e+002
7.208435e+002, 1.067528e+002
7.213256e+002, 1.068820e+002
7.218077e+002, 1.069809e+002
7.222899e+002, 1.069081e+002
7.227720e+002, 1.066326e+002
7.232541e+002, 1.064392e+002
7.237362e+002, 1.064403e+002
7.242183e+002, 1.065271e+002
7.247004e+002, 1.065929e+002
7.251826e+002, 1.066379e+002
7.256647e+002, 1.066412e+002
7.261468e+002, 1.065646e+002
7.266289e+002, 1.064922e+002
7.271110e+002, 1.064528e+002
7.275931e+002, 1.064353e+002
7.280753e+002, 1.064152e+002
7.285574e+002, 1.063988e+002
7.290395e+002, 1.064473e+002
7.295216e+002, 1.066493e+002
7.300037e+002, 1.068657e+002
7.304858e+002, 1.067147e+002
7.309680e+002, 1.061802e+002
7.314501e+002, 1.057291e+002
7.319322e+002, 1.054032e+002
7.324143e+002, 1.052974e+002
7.328964e+002, 1.056325e+002
7.333785e+002, 1.062775e+002
7.338607e+002, 1.065506e+002
7.343428e+002, 1.063810e+002
7.348249e+002, 1.059531e+002
7.353070e+002, 1.048018e+002
7.357891e+002, 1.038069e+002
7.362712e+002, 1.038897e+002
7.367534e+002, 1.047708e+002
7.372355e+002, 1.055508e+002
7.377176e+002, 1.057969e+002
7.381997e+002, 1.056819e+002
7.386818e+002, 1.053230e+002
7.391639e+002, 1.047716e+002
7.396461e+002, 1.045829e+002
7.401282e+002, 1.048870e+002
7.406103e+002, 1.051552e+002
7.410924e+002, 1.050622e+002
7.415745e+002, 1.047695e+002
7.420566e+002, 1.046518e+002
7.425388e+002, 1.047939e+002
7.430209e+002, 1.048049e+002
7.435030e+002, 1.044691e+002
7.439851e+002, 1.041868e+002
7.444672e+002, 1.041919e+002
7.449493e+002, 1.043812e+002
7.454315e+002, 1.046468e+002
7.459136e+002, 1.049310e+002
7.463957e+002, 1.050656e+002
7.468778e+002, 1.047300e+002
7.473599e+002, 1.041441e+002
7.478420e+002, 1.040647e+002
7.483242e+002, 1.045062e+002
7.488063e+002, 1.048625e+002
7.492884e+002, 1.049454e+002
7.497705e+002, 1.048270e+002
7.502526e+002, 1.045269e+002
7.507347e+002, 1.040254e+002
7.512169e+002, 1.037667e+002
7.516990e+002, 1.039677e+002
7.521811e+002, 1.041083e+002
7.526632e+002, 1.039986e+002
7.531453e+002, 1.038356e+002
7.536274e+002, 1.038224e+002
7.541096e+002, 1.039407e+002
7.545917e+002, 1.040258e+002
7.550738e+002, 1.039901e+002
7.555559e+002, 1.038653e+002
7.560380e+002, 1.036261e+002
7.565201e+002, 1.033237e+002
7.570023e+002, 1.032106e+002
7.574844e+002, 1.033355e+002
7.579665e+002, 1.035248e+002
7.584486e+002, 1.036788e+002
7.589307e+002, 1.037827e+002
7.594128e+002, 1.037873e+002
7.598950e+002, 1.036445e+002
7.603771e+002, 1.034851e+002
7.608592e+002, 1.032001e+002
7.613413e+002, 1.030134e+002
7.618234e+002, 1.031295e+002
7.623055e+002, 1.033786e+002
7.627877e+002, 1.034709e+002
7.632698e+002, 1.033207e+002
7.637519e+002, 1.031627e+002
7.642340e+002, 1.032936e+002
7.647161e+002, 1.034626e+002
7.651982e+002, 1.031221e+002
7.656804e+002, 1.023851e+002
7.661625e+002, 1.019923e+002
7.666446e+002, 1.022412e+002
7.671267e+002, 1.027572e+002
7.676088e+002, 1.030817e+002
7.680909e+002, 1.032186e+002
7.685731e+002, 1.030856e+002
7.690552e+002, 1.023596e+002
7.695373e+002, 1.018940e+002
7.700194e+002, 1.020395e+002
7.705015e+002, 1.023709e+002
7.709836e+002, 1.025866e+002
7.714658e+002, 1.026878e+002
7.719479e+002, 1.028033e+002
7.724300e+002, 1.030564e+002
7.729121e+002, 1.032312e+002
7.733942e+002, 1.031119e+002
7.738763e+002, 1.028457e+002
7.743585e+002, 1.026848e+002
7.748406e+002, 1.026395e+002
7.753227e+002, 1.025127e+002
7.758048e+002, 1.021588e+002
7.762869e+002, 1.017133e+002
7.767690e+002, 1.015244e+002
7.772512e+002, 1.016430e+002
7.777333e+002, 1.016745e+002
7.782154e+002, 1.015648e+002
7.786975e+002, 1.014209e+002
7.791796e+002, 1.012934e+002
7.796617e+002, 1.011701e+002
7.801439e+002, 1.009938e+002
7.806260e+002, 1.007076e+002
7.811081e+002, 1.006373e+002
7.815902e+002, 1.012016e+002
7.820723e+002, 1.016646e+002
7.825544e+002, 1.013375e+002
7.830366e+002, 1.006582e+002
7.835187e+002, 1.004343e+002
7.840008e+002, 1.008379e+002
7.844829e+002, 1.013303e+002
7.849650e+002, 1.013870e+002
7.854471e+002, 1.011722e+002
7.859293e+002, 1.012360e+002
7.864114e+002, 1.015849e+002
7.868935e+002, 1.016894e+002
7.873756e+002, 1.013279e+002
7.878577e+002, 1.009713e+002
7.883398e+002, 1.011110e+002
7.888220e+002, 1.016649e+002
7.893040e+002, 1.019276e+002
7.897861e+002, 1.016238e+002
7.902682e+002, 1.014418e+002
7.907504e+002, 1.016262e+002
7.912325e+002, 1.017680e+002
7.917146e+002, 1.015231e+002
7.921967e+002, 1.010432e+002
7.926788e+002, 1.006547e+002
7.931609e+002, 1.004676e+002
7.936431e+002, 1.004599e+002
7.941252e+002, 1.007877e+002
7.946073e+002, 1.012099e+002
7.950894e+002, 1.011824e+002
7.955715e+002, 1.007539e+002
7.960536e+002, 1.004704e+002
7.965358e+002, 1.005680e+002
7.970179e+002, 1.007810e+002
7.975000e+002, 1.007399e+002
7.979821e+002, 1.004321e+002
7.984642e+002, 1.001384e+002
7.989464e+002, 9.972608e+001
7.994285e+002, 9.956585e+001
7.999106e+002, 1.000820e+002
8.003927e+002, 1.006220e+002
8.008748e+002, 1.006386e+002
8.013569e+002, 1.002214e+002
8.018391e+002, 9.987744e+001
8.023212e+002, 9.978325e+001
8.028033e+002, 9.972543e+001
8.032854e+002, 9.958176e+001
8.037675e+002, 9.942445e+001
8.042496e+002, 9.931629e+001
8.047318e+002, 9.927696e+001
8.052139e+002, 9.936570e+001
8.056960e+002, 9.962576e+001
8.061781e+002, 9.987589e+001
8.066602e+002, 9.971606e+001
8.071423e+002, 9.919872e+001
8.076245e+002, 9.913132e+001
8.081066e+002, 9.964786e+001
8.085887e+002, 1.000985e+002
8.090708e+002, 1.002140e+002
8.095529e+002, 1.000873e+002
8.100350e+002, 9.978496e+001
8.105172e+002, 9.923525e+001
8.109993e+002, 9.901488e+001
8.114814e+002, 9.953457e+001
8.119635e+002, 9.985711e+001
8.124456e+002, 9.950967e+001
8.129277e+002, 9.900870e+001
8.134099e+002, 9.885387e+001
8.138920e+002, 9.903723e+001
8.143741e+002, 9.926174e+001
8.148562e+002, 9.943196e+001
8.153383e+002, 9.947536e+001
8.158204e+002, 9.912423e+001
8.163026e+002, 9.863618e+001
8.167847e+002, 9.870851e+001
8.172668e+002, 9.934642e+001
8.177489e+002, 9.984334e+001
8.182310e+002, 9.978528e+001
8.187131e+002, 9.941837e+001
8.191953e+002, 9.922066e+001
8.196774e+002, 9.923090e+001
8.201595e+002, 9.915788e+001
8.206416e+002, 9.896086e+001
8.211237e+002, 9.875291e+001
8.216058e+002, 9.852142e+001
8.220880e+002, 9.833932e+001
8.225701e+002, 9.832372e+001
8.230522e+002, 9.846713e+001
8.235343e+002, 9.854354e+001
8.240164e+002, 9.846688e+001
8.244985e+002, 9.836451e+001
8.249807e+002, 9.824516e+001
8.254628e+002, 9.815959e+001
8.259449e+002, 9.812368e+001
8.264270e+002, 9.817192e+001
8.269091e+002, 9.845226e+001
8.273912e+002, 9.911512e+001
8.278734e+002, 9.972887e+001
8.283555e+002, 9.954678e+001
8.288376e+002, 9.877451e+001
8.293197e+002, 9.825684e+001
8.298018e+002, 9.807045e+001
8.302839e+002, 9.806518e+001
8.307661e+002, 9.821206e+001
8.312482e+002, 9.836698e+001
8.317303e+002, 9.825649e+001
8.322124e+002, 9.780469e+001
8.326945e+002, 9.765203e+001
8.331766e+002, 9.811572e+001
8.336588e+002, 9.842160e+001
8.341409e+002, 9.826302e+001
8.346230e+002, 9.799516e+001
8.351051e+002, 9.787939e+001
8.355872e+002, 9.791816e+001
8.360693e+002, 9.802551e+001
8.365515e+002, 9.822080e+001
8.370336e+002, 9.840760e+001
8.375157e+002, 9.867709e+001
8.379978e+002, 9.881548e+001
8.384799e+002, 9.840527e+001
8.389620e+002, 9.761959e+001
8.394442e+002, 9.707813e+001
8.399263e+002, 9.707441e+001
8.404084e+002, 9.731336e+001
8.408905e+002, 9.742355e+001
8.413726e+002, 9.742603e+001
8.418547e+002, 9.743627e+001
8.423369e+002, 9.745666e+001
8.428190e+002, 9.748156e+001
8.433011e+002, 9.751707e+001
8.437832e+002, 9.753305e+001
8.442653e+002, 9.749292e+001
8.447474e+002, 9.739735e+001
8.452296e+002, 9.728118e+001
8.457117e+002, 9.693822e+001
8.461938e+002, 9.688481e+001
8.466759e+002, 9.750591e+001
8.471580e+002, 9.809800e+001
8.476401e+002, 9.822515e+001
8.481223e+002, 9.798282e+001
8.486044e+002, 9.760132e+001
8.490865e+002, 9.708428e+001
8.495686e+002, 9.667844e+001
8.500507e+002, 9.660396e+001
8.505328e+002, 9.663464e+001
8.510150e+002, 9.652231e+001
8.514971e+002, 9.632582e+001
8.519792e+002, 9.621699e+001
8.524613e+002, 9.624604e+001
8.529434e+002, 9.633360e+001
8.534255e+002, 9.640412e+001
8.539077e+002, 9.647178e+001
8.543898e+002, 9.657579e+001
8.548719e+002, 9.671616e+001
8.553540e+002, 9.692555e+001
8.558361e+002, 9.724494e+001
8.563182e+002, 9.747411e+001
8.568004e+002, 9.744447e+001
8.572825e+002, 9.722246e+001
8.577646e+002, 9.701207e+001
8.582467e+002, 9.674529e+001
8.587288e+002, 9.664079e+001
8.592109e+002, 9.689512e+001
8.596931e+002, 9.707712e+001
8.601752e+002, 9.702546e+001
8.606573e+002, 9.682490e+001
8.611394e+002, 9.652436e+001
8.616215e+002, 9.614665e+001
8.621036e+002, 9.589432e+001
8.625858e+002, 9.592728e+001
8.630679e+002, 9.602535e+001
8.635500e+002, 9.598164e+001
8.640321e+002, 9.594025e+001
8.645142e+002, 9.623214e+001
8.649963e+002, 9.677172e+001
8.654785e+002, 9.702485e+001
8.659606e+002, 9.665678e+001
8.664427e+002, 9.605238e+001
8.669248e+002, 9.579660e+001
8.674069e+002, 9.583152e+001
8.678890e+002, 9.583841e+001
8.683712e+002, 9.579570e+001
8.688533e+002, 9.587007e+001
8.693354e+002, 9.617467e+001
8.698175e+002, 9.647157e+001
8.702996e+002, 9.642806e+001
8.707817e+002, 9.604099e+001
8.712639e+002, 9.566856e+001
8.717459e+002, 9.511146e+001
8.722280e+002, 9.492065e+001
8.727101e+002, 9.572203e+001
8.731923e+002, 9.641827e+001
8.736744e+002, 9.608299e+001
8.741565e+002, 9.516879e+001
8.746386e+002, 9.485331e+001
8.751207e+002, 9.555196e+001
8.756028e+002, 9.615653e+001
8.760850e+002, 9.625675e+001
8.765671e+002, 9.614786e+001
8.770492e+002, 9.597643e+001
8.775313e+002, 9.577719e+001
8.780134e+002, 9.553689e+001
8.784955e+002, 9.527602e+001
8.789777e+002, 9.513985e+001
8.794598e+002, 9.536303e+001
8.799419e+002, 9.563176e+001
8.804240e+002, 9.531548e+001
8.809061e+002, 9.459227e+001
8.813882e+002, 9.407664e+001
8.818704e+002, 9.387296e+001
8.823525e+002, 9.399592e+001
8.828346e+002, 9.450708e+001
8.833167e+002, 9.512841e+001
8.837988e+002, 9.520358e+001
8.842809e+002, 9.460807e+001
8.847631e+002, 9.444617e+001
8.852452e+002, 9.493182e+001
8.857273e+002, 9.532421e+001
8.862094e+002, 9.536003e+001
8.866915e+002, 9.519902e+001
8.871736e+002, 9.495473e+001
8.876558e+002, 9.464022e+001
8.881379e+002, 9.445035e+001
8.886200e+002, 9.448357e+001
8.891021e+002, 9.450986e+001
8.895842e+002, 9.442203e+001
8.900663e+002, 9.437843e+001
8.905485e+002, 9.458869e+001
8.910306e+002, 9.489829e+001
8.915127e+002, 9.497691e+001
8.919948e+002, 9.472702e+001
8.924769e+002, 9.444067e+001
8.929590e+002, 9.437424e+001
8.934412e+002, 9.430550e+001
8.939233e+002, 9.387847e+001
8.944054e+002, 9.329752e+001
8.948875e+002, 9.301221e+001
8.953696e+002, 9.310121e+001
8.958517e+002, 9.334959e+001
8.963339e+002, 9.361608e+001
8.968160e+002, 9.387929e+001
8.972981e+002, 9.414563e+001
8.977802e+002, 9.439223e+001
8.982623e+002, 9.432822e+001
8.987444e+002, 9.389426e+001
8.992266e+002, 9.357583e+001
8.997087e+002, 9.363137e+001
9.001908e+002, 9.382671e+001
9.006729e+002, 9.379420e+001
9.011550e+002, 9.351452e+001
9.016371e+002, 9.345651e+001
9.021193e+002, 9.385674e+001
9.026014e+002, 9.403312e+001
9.030835e+002, 9.356742e+001
9.035656e+002, 9.312710e+001
9.040477e+002, 9.330191e+001
9.045298e+002, 9.383457e+001
9.050120e+002, 9.404172e+001
9.054941e+002, 9.373607e+001
9.059762e+002, 9.343726e+001
9.064583e+002, 9.317355e+001
9.069404e+002, 9.305654e+001
9.074225e+002, 9.333342e+001
9.079047e+002, 9.370715e+001
9.083868e+002, 9.371534e+001
9.088689e+002, 9.333942e+001
9.093510e+002, 9.302314e+001
9.098331e+002, 9.307848e+001
9.103152e+002, 9.322288e+001
9.107974e+002, 9.316833e+001
9.112795e+002, 9.299626e+001
9.117616e+002, 9.283521e+001
9.122437e+002, 9.270730e+001
9.127258e+002, 9.260458e+001
9.132079e+002, 9.252303e+001
9.136901e+002, 9.250890e+001
9.141722e+002, 9.268884e+001
9.146543e+002, 9.299531e+001
9.151364e+002, 9.299247e+001
9.156185e+002, 9.266618e+001
9.161006e+002, 9.241991e+001
9.165828e+002, 9.234888e+001
9.170649e+002, 9.240816e+001
9.175470e+002, 9.258794e+001
9.180291e+002, 9.284496e+001
9.185112e+002, 9.302548e+001
9.189933e+002, 9.313557e+001
9.194755e+002, 9.314930e+001
9.199576e+002, 9.292790e+001
9.204397e+002, 9.281316e+001
9.209218e+002, 9.321485e+001
9.214039e+002, 9.361205e+001
9.218860e+002, 9.324368e+001
9.223682e+002, 9.215710e+001
9.228503e+002, 9.160645e+001
9.233324e+002, 9.227246e+001
9.238145e+002, 9.280537e+001
9.242966e+002, 9.272656e+001
9.247787e+002, 9.246561e+001
9.252609e+002, 9.227561e+001
9.257430e+002, 9.219621e+001
9.262251e+002, 9.228031e+001
9.267072e+002, 9.255003e+001
9.271893e+002, 9.273047e+001
9.276714e+002, 9.247823e+001
9.281536e+002, 9.219178e+001
9.286357e+002, 9.239053e+001
9.291178e+002, 9.281834e+001
9.295999e+002, 9.294584e+001
9.300820e+002, 9.272096e+001
9.305641e+002, 9.244376e+001
9.310463e+002, 9.229349e+001
9.315284e+002, 9.225810e+001
9.320105e+002, 9.238802e+001
9.324926e+002, 9.262119e+001
9.329747e+002, 9.270788e+001
9.334568e+002, 9.263632e+001
9.339390e+002, 9.236252e+001
9.344211e+002, 9.183571e+001
9.349032e+002, 9.150951e+001
9.353853e+002, 9.196774e+001
9.358674e+002, 9.300579e+001
9.363495e+002, 9.337107e+001
9.368317e+002, 9.290022e+001
9.373138e+002, 9.244018e+001
9.377959e+002, 9.198759e+001
9.382780e+002, 9.178372e+001
9.387601e+002, 9.207661e+001
9.392422e+002, 9.260646e+001
9.397244e+002, 9.293764e+001
9.402065e+002, 9.307008e+001
9.406886e+002, 9.299586e+001
9.411707e+002, 9.242220e+001
9.416528e+002, 9.204735e+001
9.421349e+002, 9.215197e+001
9.426171e+002, 9.236340e+001
9.430992e+002, 9.247633e+001
9.435813e+002, 9.246585e+001
9.440634e+002, 9.229732e+001
9.445455e+002, 9.192635e+001
9.450276e+002, 9.154366e+001
9.455098e+002, 9.095374e+001
9.459919e+002, 9.065067e+001
9.464740e+002, 9.127885e+001
9.469561e+002, 9.222320e+001
9.474382e+002, 9.261983e+001
9.479203e+002, 9.241673e+001
9.484025e+002, 9.217348e+001
9.488846e+002, 9.220445e+001
9.493667e+002, 9.225535e+001
9.498488e+002, 9.203226e+001
9.503309e+002, 9.170051e+001
9.508130e+002, 9.151747e+001
9.512952e+002, 9.146474e+001
9.517773e+002, 9.137716e+001
9.522594e+002, 9.121103e+001
9.527415e+002, 9.114980e+001
9.532236e+002, 9.140208e+001
9.537057e+002, 9.184315e+001
9.541878e+002, 9.224583e+001
9.546699e+002, 9.258070e+001
9.551520e+002, 9.255261e+001
9.556342e+002, 9.212309e+001
9.561163e+002, 9.189590e+001
9.565984e+002, 9.222886e+001
9.570805e+002, 9.274662e+001
9.575626e+002, 9.282567e+001
9.580447e+002, 9.247720e+001
9.585269e+002, 9.227522e+001
9.590090e+002, 9.221956e+001
9.594911e+002, 9.234023e+001
9.599732e+002, 9.274025e+001
9.604553e+002, 9.309021e+001
9.609374e+002, 9.309422e+001
9.614196e+002, 9.289333e+001
9.619017e+002, 9.290269e+001
9.623838e+002, 9.325750e+001
9.628659e+002, 9.339812e+001
9.633480e+002, 9.304450e+001
9.638301e+002, 9.285450e+001
9.643123e+002, 9.310203e+001
9.647944e+002, 9.349641e+001
9.652765e+002, 9.384267e+001
9.657586e+002, 9.412457e+001
9.662407e+002, 9.430184e+001
9.667228e+002, 9.430581e+001
9.672050e+002, 9.433608e+001
9.676871e+002, 9.429424e+001
9.681692e+002, 9.444285e+001
9.686513e+002, 9.502885e+001
9.691334e+002, 9.584257e+001
9.696155e+002, 9.657536e+001
9.700977e+002, 9.721535e+001
9.705798e+002, 9.800590e+001
9.710619e+002, 9.898441e+001
9.715440e+002, 1.002509e+002
9.720261e+002, 1.019984e+002
9.725082e+002, 1.039656e+002
9.729904e+002, 1.059101e+002
9.734725e+002, 1.078198e+002
9.739546e+002, 1.098393e+002
9.744367e+002, 1.119630e+002
9.749188e+002, 1.137457e+002
9.754009e+002, 1.146088e+002
9.758831e+002, 1.151717e+002
9.763652e+002, 1.161683e+002
9.768473e+002, 1.175272e+002
9.773294e+002, 1.190768e+002
9.778115e+002, 1.208344e+002
9.782936e+002, 1.229468e+002
9.787758e+002, 1.254947e+002
9.792579e+002, 1.283941e+002
9.797400e+002, 1.314676e+002
9.802221e+002, 1.348456e+002
9.807042e+002, 1.388269e+002
9.811863e+002, 1.434173e+002
9.816685e+002, 1.486973e+002
9.821506e+002, 1.546628e+002
9.826327e+002, 1.616379e+002
9.831148e+002, 1.698832e+002
9.835969e+002, 1.789268e+002
9.840790e+002, 1.883804e+002
9.845612e+002, 1.982564e+002
9.850433e+002, 2.055890e+002
9.855254e+002, 2.108692e+002
9.860075e+002, 2.101340e+002
9.864896e+002, 2.015608e+002
9.869717e+002, 1.889993e+002
9.874539e+002, 1.747354e+002
9.879360e+002, 1.596265e+002
9.884181e+002, 1.462624e+002
9.889002e+002, 1.346037e+002
9.893823e+002, 1.250525e+002
9.898644e+002, 1.179590e+002
9.903466e+002, 1.123242e+002
9.908287e+002, 1.081544e+002
9.913108e+002, 1.049439e+002
9.917929e+002, 1.023411e+002
9.922750e+002, 1.002937e+002
9.927571e+002, 9.852026e+001
9.932393e+002, 9.698103e+001
9.937214e+002, 9.579443e+001
9.942035e+002, 9.511884e+001
9.946856e+002, 9.460151e+001
9.951677e+002, 9.415775e+001
9.956498e+002, 9.377297e+001
9.961320e+002, 9.347731e+001
9.966141e+002, 9.324637e+001
9.970962e+002, 9.291821e+001
9.975783e+002, 9.225652e+001
9.980604e+002, 9.184029e+001
9.985425e+002, 9.214330e+001
9.990247e+002, 9.239204e+001
9.995068e+002, 9.189214e+001
9.999889e+002, 9.113982e+001
1.000471e+003, 9.097501e+001
1.000953e+003, 9.142873e+001
1.001435e+003, 9.164034e+001
1.001917e+003, 9.101974e+001
1.002399e+003, 9.043502e+001
1.002882e+003, 9.042557e+001
1.003364e+003, 9.060857e+001
1.003846e+003, 9.066695e+001
1.004328e+003, 9.062157e+001
1.004810e+003, 9.059714e+001
1.005292e+003, 9.061644e+001
1.005774e+003, 9.057182e+001
1.006256e+003, 9.038500e+001
1.006739e+003, 9.012035e+001
1.007221e+003, 8.967393e+001
1.007703e+003, 8.929168e+001
1.008185e+003, 8.946013e+001
1.008667e+003, 9.000745e+001
1.009149e+003, 9.036034e+001
1.009631e+003, 9.032040e+001
1.010113e+003, 9.012518e+001
1.010595e+003, 8.992251e+001
1.011078e+003, 8.975147e+001
1.011560e+003, 8.975243e+001
1.012042e+003, 8.980759e+001
1.012524e+003, 8.957248e+001
1.013006e+003, 8.908542e+001
1.013488e+003, 8.870452e+001
1.013970e+003, 8.858585e+001
1.014452e+003, 8.863162e+001
1.014935e+003, 8.879733e+001
1.015417e+003, 8.899368e+001
1.015899e+003, 8.893122e+001
1.016381e+003, 8.868584e+001
1.016863e+003, 8.863364e+001
1.017345e+003, 8.881750e+001
1.017827e+003, 8.904798e+001
1.018309e+003, 8.923139e+001
1.018791e+003, 8.936269e+001
1.019274e+003, 8.944451e+001
1.019756e+003, 8.946580e+001
1.020238e+003, 8.935474e+001
1.020720e+003, 8.911613e+001
1.021202e+003, 8.883477e+001
1.021684e+003, 8.851978e+001
1.022166e+003, 8.826189e+001
1.022648e+003, 8.810970e+001
1.023130e+003, 8.806069e+001
1.023613e+003, 8.812405e+001
1.024095e+003, 8.829274e+001
1.024577e+003, 8.846704e+001
1.025059e+003, 8.865772e+001
1.025541e+003, 8.874694e+001
1.026023e+003, 8.870284e+001
1.026505e+003, 8.857579e+001
1.026987e+003, 8.835001e+001
1.027469e+003, 8.816939e+001
1.027952e+003, 8.836051e+001
1.028434e+003, 8.895650e+001
1.028916e+003, 8.906080e+001
1.029398e+003, 8.847755e+001
1.029880e+003, 8.810521e+001
1.030362e+003, 8.817689e+001
1.030844e+003, 8.833402e+001
1.031326e+003, 8.834274e+001
1.031809e+003, 8.828719e+001
1.032291e+003, 8.834352e+001
1.032773e+003, 8.852989e+001
1.033255e+003, 8.867625e+001
1.033737e+003, 8.874168e+001
1.034219e+003, 8.887234e+001
1.034701e+003, 8.921197e+001
1.035183e+003, 8.944036e+001
1.035666e+003, 8.924165e+001
1.036148e+003, 8.885076e+001
1.036630e+003, 8.879971e+001
1.037112e+003, 8.919776e+001
1.037594e+003, 8.931552e+001
1.038076e+003, 8.897385e+001
1.038558e+003, 8.862959e+001
1.039040e+003, 8.813945e+001
1.039522e+003, 8.790942e+001
1.040005e+003, 8.841667e+001
1.040487e+003, 8.930173e+001
1.040969e+003, 8.980891e+001
1.041451e+003, 8.988857e+001
1.041933e+003, 8.986333e+001
1.042415e+003, 8.970036e+001
1.042897e+003, 8.948867e+001
1.043379e+003, 8.922104e+001
1.043861e+003, 8.893462e+001
1.044344e+003, 8.856410e+001
1.044826e+003, 8.822324e+001
1.045308e+003, 8.819904e+001
1.045790e+003, 8.859032e+001
1.046272e+003, 8.871990e+001
1.046754e+003, 8.810898e+001
1.047236e+003, 8.779356e+001
1.047718e+003, 8.837176e+001
1.048201e+003, 8.899011e+001
1.048683e+003, 8.901339e+001
1.049165e+003, 8.867289e+001
1.049647e+003, 8.844345e+001
1.050129e+003, 8.838874e+001
1.050611e+003, 8.830677e+001
1.051093e+003, 8.795330e+001
1.051575e+003, 8.784644e+001
1.052057e+003, 8.841735e+001
1.052540e+003, 8.901859e+001
1.053022e+003, 8.916067e+001
1.053504e+003, 8.900140e+001
1.053986e+003, 8.887319e+001
1.054468e+003, 8.882468e+001
1.054950e+003, 8.871349e+001
1.055432e+003, 8.829558e+001
1.055914e+003, 8.808913e+001
1.056396e+003, 8.842620e+001
1.056879e+003, 8.888904e+001
1.057361e+003, 8.928718e+001
1.057843e+003, 8.953451e+001
1.058325e+003, 8.946589e+001
1.058807e+003, 8.906862e+001
1.059289e+003, 8.877639e+001
1.059771e+003, 8.883659e+001
1.060253e+003, 8.888281e+001
1.060736e+003, 8.867354e+001
1.061218e+003, 8.849830e+001
1.061700e+003, 8.862943e+001
1.062182e+003, 8.892543e+001
1.062664e+003, 8.918066e+001
1.063146e+003, 8.934677e+001
1.063628e+003, 8.933346e+001
1.064110e+003, 8.880821e+001
1.064593e+003, 8.852404e+001
1.065075e+003, 8.910300e+001
1.065557e+003, 8.973079e+001
1.066039e+003, 8.964566e+001
1.066521e+003, 8.925753e+001
1.067003e+003, 8.933482e+001
1.067485e+003, 8.991909e+001
1.067967e+003, 9.027200e+001
1.068449e+003, 8.988242e+001
1.068932e+003, 8.962737e+001
1.069414e+003, 9.004105e+001
1.069896e+003, 9.059234e+001
1.070378e+003, 9.096772e+001
1.070860e+003, 9.117525e+001
1.071342e+003, 9.119240e+001
1.071824e+003, 9.107689e+001
1.072306e+003, 9.112138e+001
1.072788e+003, 9.152380e+001
1.073271e+003, 9.188956e+001
1.073753e+003, 9.209551e+001
1.074235e+003, 9.213448e+001
1.074717e+003, 9.184258e+001
1.075199e+003, 9.148030e+001
1.075681e+003, 9.138079e+001
1.076163e+003, 9.155213e+001
1.076645e+003, 9.181387e+001
1.077127e+003, 9.215679e+001
1.077610e+003, 9.241595e+001
1.078092e+003, 9.234235e+001
1.078574e+003, 9.235033e+001
1.079056e+003, 9.286854e+001
1.079538e+003, 9.352588e+001
1.080020e+003, 9.392619e+001
1.080502e+003, 9.403291e+001
1.080984e+003, 9.387937e+001
1.081467e+003, 9.338618e+001
1.081949e+003, 9.309141e+001
1.082431e+003, 9.335239e+001
1.082913e+003, 9.374910e+001
1.083395e+003, 9.423064e+001
1.083877e+003, 9.455482e+001
1.084359e+003, 9.431976e+001
1.084841e+003, 9.373830e+001
1.085323e+003, 9.339722e+001
1.085806e+003, 9.345702e+001
1.086288e+003, 9.368696e+001
1.086770e+003, 9.431035e+001
1.087252e+003, 9.468037e+001
1.087734e+003, 9.419679e+001
1.088216e+003, 9.353639e+001
1.088698e+003, 9.338701e+001
1.089180e+003, 9.355494e+001
1.089662e+003, 9.350551e+001
1.090145e+003, 9.312680e+001
1.090627e+003, 9.279353e+001
1.091109e+003, 9.268062e+001
1.091591e+003, 9.259392e+001
1.092073e+003, 9.246235e+001
1.092555e+003, 9.231345e+001
1.093037e+003, 9.220494e+001
1.093519e+003, 9.208033e+001
1.094002e+003, 9.181940e+001
1.094484e+003, 9.141846e+001
1.094966e+003, 9.105444e+001
1.095448e+003, 9.073441e+001
1.095930e+003, 9.053336e+001
1.096412e+003, 9.069582e+001
1.096894e+003, 9.074847e+001
1.097376e+003, 9.016158e+001
1.097859e+003, 8.942068e+001
1.098341e+003, 8.924885e+001
1.098823e+003, 8.962012e+001
1.099305e+003, 8.986592e+001
1.099787e+003, 8.980743e+001
1.100269e+003, 8.966831e+001
1.100751e+003, 8.939941e+001
1.101233e+003, 8.918952e+001
1.101715e+003, 8.914148e+001
1.102198e+003, 8.919066e+001
1.102680e+003, 8.934206e+001
1.103162e+003, 8.952916e+001
1.103644e+003, 8.952284e+001
1.104126e+003, 8.921574e+001
1.104608e+003, 8.895582e+001
1.105090e+003, 8.875944e+001
1.105572e+003, 8.867931e+001
1.106054e+003, 8.883394e+001
1.106537e+003, 8.901946e+001
1.107019e+003, 8.906847e+001
1.107501e+003, 8.902162e+001
1.107983e+003, 8.901528e+001
1.108465e+003, 8.909469e+001
1.108947e+003, 8.900817e+001
1.109429e+003, 8.848874e+001
1.109911e+003, 8.814964e+001
1.110394e+003, 8.813969e+001
1.110876e+003, 8.831580e+001
1.111358e+003, 8.882534e+001
1.111840e+003, 8.935580e+001
1.112322e+003, 8.931059e+001
1.112804e+003, 8.864518e+001
1.113286e+003, 8.822848e+001
1.113768e+003, 8.809172e+001
1.114250e+003, 8.816002e+001
1.114733e+003, 8.862174e+001
1.115215e+003, 8.902879e+001
1.115697e+003, 8.922881e+001
1.116179e+003, 8.924178e+001
1.116661e+003, 8.898579e+001
1.117143e+003, 8.853553e+001
1.117625e+003, 8.846743e+001
1.118107e+003, 8.907539e+001
1.118589e+003, 8.935085e+001
1.119072e+003, 8.909100e+001
1.119554e+003, 8.889150e+001
1.120036e+003, 8.895475e+001
1.120518e+003, 8.911550e+001
1.121000e+003, 8.924964e+001
1.121482e+003, 8.936132e+001
1.121964e+003, 8.946661e+001
1.122446e+003, 8.957541e+001
1.122929e+003, 8.960596e+001
1.123411e+003, 8.952673e+001
1.123893e+003, 8.947053e+001
1.124375e+003, 8.945634e+001
1.124857e+003, 8.949730e+001
1.125339e+003, 8.960622e+001
1.125821e+003, 8.976964e+001
1.126303e+003, 8.999343e+001
1.126786e+003, 9.026205e+001
1.127268e+003, 9.025144e+001
1.127750e+003, 8.991607e+001
1.128232e+003, 8.974804e+001
1.128714e+003, 8.984864e+001
1.129196e+003, 8.980200e+001
1.129678e+003, 8.938919e+001
1.130160e+003, 8.893383e+001
1.130642e+003, 8.879675e+001
1.131125e+003, 8.892808e+001
1.131607e+003, 8.924084e+001
1.132089e+003, 8.970940e+001
1.132571e+003, 8.980209e+001
1.133053e+003, 8.950210e+001
1.133535e+003, 8.932986e+001
1.134017e+003, 8.944424e+001
1.134499e+003, 8.955993e+001
1.134981e+003, 8.945215e+001
1.135464e+003, 8.923226e+001
1.135946e+003, 8.905741e+001
1.136428e+003, 8.894804e+001
1.136910e+003, 8.902927e+001
1.137392e+003, 8.925697e+001
1.137874e+003, 8.943103e+001
1.138356e+003, 8.951082e+001
1.138838e+003, 8.951763e+001
1.139321e+003, 8.946231e+001
1.139803e+003, 8.934295e+001
1.140285e+003, 8.907463e+001
1.140767e+003, 8.881747e+001
1.141249e+003, 8.897765e+001
1.141731e+003, 8.933103e+001
1.142213e+003, 8.934590e+001
1.142695e+003, 8.907055e+001
1.143177e+003, 8.884023e+001
1.143660e+003, 8.877197e+001
1.144142e+003, 8.884566e+001
1.144624e+003, 8.910172e+001
1.145106e+003, 8.936353e+001
1.145588e+003, 8.938392e+001
1.146070e+003, 8.935474e+001
1.146552e+003, 8.962732e+001
1.147034e+003, 8.998627e+001
1.147516e+003, 8.997243e+001
1.147999e+003, 8.959216e+001
1.148481e+003, 8.922719e+001
1.148963e+003, 8.903393e+001
1.149445e+003, 8.889427e+001
1.149927e+003, 8.871066e+001
1.150409e+003, 8.857895e+001
1.150891e+003, 8.856139e+001
1.151373e+003, 8.863638e+001
1.151856e+003, 8.882442e+001
1.152338e+003, 8.907004e+001
1.152820e+003, 8.928359e+001
1.153302e+003, 8.944522e+001
1.153784e+003, 8.949747e+001
1.154266e+003, 8.932266e+001
1.154748e+003, 8.917574e+001
1.155230e+003, 8.910690e+001
1.155713e+003, 8.912875e+001
1.156195e+003, 8.940382e+001
1.156677e+003, 8.967398e+001
1.157159e+003, 8.955050e+001
1.157641e+003, 8.908060e+001
1.158123e+003, 8.872156e+001
1.158605e+003, 8.842017e+001
1.159087e+003, 8.843313e+001
1.159569e+003, 8.901679e+001
1.160052e+003, 8.959309e+001
1.160534e+003, 9.019694e+001
1.161016e+003, 9.053012e+001
1.161498e+003, 9.022710e+001
1.161980e+003, 8.957690e+001
1.162462e+003, 8.919761e+001
1.162944e+003, 8.910312e+001
1.163426e+003, 8.913359e+001
1.163908e+003, 8.935676e+001
1.164391e+003, 8.951252e+001
1.164873e+003, 8.958308e+001
1.165355e+003, 8.952099e+001
1.165837e+003, 8.926546e+001
1.166319e+003, 8.894959e+001
1.166801e+003, 8.868712e+001
1.167283e+003, 8.854024e+001
1.167765e+003, 8.888409e+001
1.168247e+003, 8.975063e+001
1.168730e+003, 9.002724e+001
1.169212e+003, 8.964767e+001
1.169694e+003, 8.941030e+001
1.170176e+003, 8.953587e+001
1.170658e+003, 8.968774e+001
1.171140e+003, 8.963327e+001
1.171622e+003, 8.948204e+001
1.172104e+003, 8.936359e+001
1.172587e+003, 8.930917e+001
1.173069e+003, 8.950391e+001
1.173551e+003, 8.985323e+001
1.174033e+003, 8.996059e+001
1.174515e+003, 8.982997e+001
1.174997e+003, 8.975820e+001
1.175479e+003, 8.985640e+001
1.175961e+003, 9.002305e+001
1.176443e+003, 9.020800e+001
1.176926e+003, 9.034334e+001
1.177408e+003, 9.021917e+001
1.177890e+003, 9.008386e+001
1.178372e+003, 9.046784e+001
1.178854e+003, 9.105612e+001
1.179336e+003, 9.112880e+001
1.179818e+003, 9.069674e+001
1.180300e+003, 9.035327e+001
1.180782e+003, 9.034908e+001
1.181265e+003, 9.041001e+001
1.181747e+003, 9.026433e+001
1.182229e+003, 9.025814e+001
1.182711e+003, 9.099599e+001
1.183193e+003, 9.164306e+001
1.183675e+003, 9.117184e+001
1.184157e+003, 9.010436e+001
1.184639e+003, 8.948918e+001
1.185122e+003, 8.946420e+001
1.185604e+003, 8.949939e+001
1.186086e+003, 8.946701e+001
1.186568e+003, 8.949783e+001
1.187050e+003, 8.966331e+001
1.187532e+003, 8.983399e+001
1.188014e+003, 8.995988e+001
1.188496e+003, 9.006198e+001
1.188979e+003, 9.015620e+001
1.189461e+003, 9.024413e+001
1.189943e+003, 9.034109e+001
1.190425e+003, 9.047143e+001
1.190907e+003, 9.044728e+001
1.191389e+003, 9.016596e+001
1.191871e+003, 9.004202e+001
1.192353e+003, 9.022375e+001
1.192835e+003, 9.028530e+001
1.193318e+003, 8.992444e+001
1.193800e+003, 8.961937e+001
1.194282e+003, 9.000856e+001
1.194764e+003, 9.087766e+001
1.195246e+003, 9.143604e+001
1.195728e+003, 9.168350e+001
1.196210e+003, 9.144180e+001
1.196692e+003, 9.073926e+001
1.197174e+003, 9.027100e+001
1.197657e+003, 9.020973e+001
1.198139e+003, 9.038219e+001
1.198621e+003, 9.069777e+001
1.199103e+003, 9.095417e+001
1.199585e+003, 9.073239e+001
1.200067e+003, 9.037730e+001
1.200549e+003, 9.073969e+001
1.201031e+003, 9.144485e+001
1.201514e+003, 9.162452e+001
1.201996e+003, 9.136362e+001
1.202478e+003, 9.124074e+001
1.202960e+003, 9.138078e+001
1.203442e+003, 9.138232e+001
1.203924e+003, 9.094669e+001
1.204406e+003, 9.050540e+001
1.204888e+003, 9.038563e+001
1.205370e+003, 9.039722e+001
1.205853e+003, 9.042599e+001
1.206335e+003, 9.046414e+001
1.206817e+003, 9.047014e+001
1.207299e+003, 9.049625e+001
1.207781e+003, 9.072568e+001
1.208263e+003, 9.121620e+001
1.208745e+003, 9.149954e+001
1.209227e+003, 9.121777e+001
1.209709e+003, 9.108532e+001
1.210192e+003, 9.145866e+001
1.210674e+003, 9.176669e+001
1.211156e+003, 9.171089e+001
1.211638e+003, 9.145825e+001
1.212120e+003, 9.107798e+001
1.212602e+003, 9.065587e+001
1.213084e+003, 9.053831e+001
1.213566e+003, 9.078448e+001
1.214049e+003, 9.107040e+001
1.214531e+003, 9.147292e+001
1.215013e+003, 9.157264e+001
1.215495e+003, 9.123115e+001
1.215977e+003, 9.085509e+001
1.216459e+003, 9.064420e+001
1.216941e+003, 9.059514e+001
1.217423e+003, 9.073789e+001
1.217906e+003, 9.098471e+001
1.218388e+003, 9.103980e+001
1.218870e+003, 9.094850e+001
1.219352e+003, 9.092304e+001
1.219834e+003, 9.097527e+001
1.220316e+003, 9.113097e+001
1.220798e+003, 9.136636e+001
1.221280e+003, 9.149245e+001
1.221762e+003, 9.140269e+001
1.222245e+003, 9.129786e+001
1.222727e+003, 9.147044e+001
1.223209e+003, 9.164267e+001
1.223691e+003, 9.140024e+001
1.224173e+003, 9.103748e+001
1.224655e+003, 9.088008e+001
1.225137e+003, 9.094101e+001
1.225619e+003, 9.129802e+001
1.226101e+003, 9.185656e+001
1.226584e+003, 9.209426e+001
1.227066e+003, 9.173705e+001
1.227548e+003, 9.132244e+001
1.228030e+003, 9.078471e+001
1.228512e+003, 9.055678e+001
1.228994e+003, 9.109102e+001
1.229476e+003, 9.174137e+001
1.229958e+003, 9.206928e+001
1.230441e+003, 9.213002e+001
1.230923e+003, 9.195561e+001
1.231405e+003, 9.156421e+001
1.231887e+003, 9.166376e+001
1.232369e+003, 9.262707e+001
1.232851e+003, 9.285242e+001
1.233333e+003, 9.198106e+001
1.233815e+003, 9.142276e+001
1.234297e+003, 9.164110e+001
1.234780e+003, 9.213918e+001
1.235262e+003, 9.262830e+001
1.235744e+003, 9.287663e+001
1.236226e+003, 9.230019e+001
1.236708e+003, 9.123722e+001
1.237190e+003, 9.124015e+001
1.237672e+003, 9.205335e+001
1.238154e+003, 9.260526e+001
1.238636e+003, 9.280003e+001
1.239119e+003, 9.279337e+001
1.239601e+003, 9.265893e+001
1.240083e+003, 9.249785e+001
1.240565e+003, 9.235078e+001
1.241047e+003, 9.232549e+001
1.241529e+003, 9.270557e+001
1.242011e+003, 9.306972e+001
1.242493e+003, 9.280126e+001
1.242975e+003, 9.243481e+001
1.243458e+003, 9.282148e+001
1.243940e+003, 9.358791e+001
1.244422e+003, 9.374875e+001
1.244904e+003, 9.319752e+001
1.245386e+003, 9.284728e+001
1.245868e+003, 9.300918e+001
1.246350e+003, 9.324952e+001
1.246832e+003, 9.360838e+001
1.247315e+003, 9.388195e+001
1.247797e+003, 9.400361e+001
1.248279e+003, 9.401267e+001
1.248761e+003, 9.390234e+001
1.249243e+003, 9.372301e+001
1.249725e+003, 9.353520e+001
1.250207e+003, 9.335200e+001
1.250689e+003, 9.349845e+001
1.251172e+003, 9.404637e+001
1.251654e+003, 9.397897e+001
1.252136e+003, 9.318151e+001
1.252618e+003, 9.299111e+001
1.253100e+003, 9.380400e+001
1.253582e+003, 9.435715e+001
1.254064e+003, 9.373962e+001
1.254546e+003, 9.287583e+001
1.255028e+003, 9.321330e+001
1.255510e+003, 9.406762e+001
1.255993e+003, 9.413057e+001
1.256475e+003, 9.376453e+001
1.256957e+003, 9.350729e+001
1.257439e+003, 9.346220e+001
1.257921e+003, 9.377157e+001
1.258403e+003, 9.438022e+001
1.258885e+003, 9.488237e+001
1.259367e+003, 9.511703e+001
1.259850e+003, 9.518117e+001
1.260332e+003, 9.499824e+001
1.260814e+003, 9.481622e+001
1.261296e+003, 9.475730e+001
1.261778e+003, 9.473882e+001
1.262260e+003, 9.463492e+001
1.262742e+003, 9.456512e+001
1.263224e+003, 9.480733e+001
1.263707e+003, 9.529293e+001
1.264189e+003, 9.539503e+001
1.264671e+003, 9.487014e+001
1.265153e+003, 9.487083e+001
1.265635e+003, 9.561347e+001
1.266117e+003, 9.586478e+001
1.266599e+003, 9.527055e+001
1.267081e+003, 9.469170e+001
1.267563e+003, 9.459813e+001
1.268046e+003, 9.485014e+001
1.268528e+003, 9.539354e+001
1.269010e+003, 9.594941e+001
1.269492e+003, 9.573277e+001
1.269974e+003, 9.507742e+001
1.270456e+003, 9.474989e+001
1.270938e+003, 9.475394e+001
1.271420e+003, 9.508658e+001
1.271902e+003, 9.560425e+001
1.272385e+003, 9.581970e+001
1.272867e+003, 9.554554e+001
1.273349e+003, 9.533162e+001
1.273831e+003, 9.555000e+001
1.274313e+003, 9.584934e+001
1.274795e+003, 9.617735e+001
1.275277e+003, 9.638932e+001
1.275759e+003, 9.631462e+001
1.276242e+003, 9.613326e+001
1.276724e+003, 9.601168e+001
1.277206e+003, 9.596544e+001
1.277688e+003, 9.600258e+001
1.278170e+003, 9.612176e+001
1.278652e+003, 9.635358e+001
1.279134e+003, 9.677306e+001
1.279616e+003, 9.700615e+001
1.280099e+003, 9.696551e+001
1.280581e+003, 9.701125e+001
1.281063e+003, 9.728818e+001
1.281545e+003, 9.755978e+001
1.282027e+003, 9.765678e+001
1.282509e+003, 9.754334e+001
1.282991e+003, 9.690947e+001
1.283473e+003, 9.615305e+001
1.283955e+003, 9.614914e+001
##END=



