##NAMES=Rhodochrosite
##RRUFFID=R040133
##IDEAL CHEMISTRY=Mn^2+^CO_3_
##LOCALITY=Imuris, Sonora, Mexico
##OWNER=RRUFF
##SOURCE=University of Arizona Mineral Museum
##DESCRIPTION=Pink cleavage fragment
##STATUS=The identification of this mineral has been confirmed by X-ray diffraction and chemical analysis
##URL=rruff.info/R040133
##MEASURED CHEMISTRY=(Mn_0.92_Mg_0.02_Ca_0.01_)C_1.02_O_3_
164.6075, 385.2916
165.0896, 408.8951
165.5717, 433.9516
166.0538, 456.9611
166.5359, 479.9012
167.0180, 505.6095
167.5002, 535.9380
167.9823, 569.2543
168.4644, 605.0134
168.9465, 643.4980
169.4286, 682.1823
169.9107, 718.1300
170.3929, 752.7026
170.8750, 789.7284
171.3571, 831.0922
171.8392, 875.4836
172.3213, 920.6826
172.8034, 964.9009
173.2856, 1013.371
173.7677, 1069.799
174.2498, 1134.417
174.7319, 1206.803
175.2140, 1287.628
175.6961, 1375.830
176.1783, 1468.686
176.6604, 1562.383
177.1425, 1664.589
177.6246, 1782.824
178.1067, 1916.226
178.5888, 2067.545
179.0710, 2241.051
179.5531, 2431.647
180.0352, 2625.372
180.5173, 2814.512
180.9994, 3007.811
181.4815, 3226.352
181.9637, 3470.748
182.4458, 3699.751
182.9279, 3918.652
183.4100, 4105.025
183.8921, 4178.408
184.3742, 4102.993
184.8564, 3905.640
185.3385, 3628.493
185.8206, 3264.430
186.3027, 2878.147
186.7848, 2513.295
187.2669, 2173.305
187.7491, 1870.853
188.2312, 1611.301
188.7133, 1393.625
189.1954, 1212.390
189.6775, 1070.669
190.1596, 957.2402
190.6418, 860.2733
191.1239, 780.1653
191.6060, 712.8265
192.0881, 659.0800
192.5702, 617.9675
193.0524, 581.7104
193.5345, 550.8993
194.0166, 523.6074
194.4987, 497.4299
194.9808, 472.2844
195.4629, 449.4170
195.9451, 429.9222
196.4272, 413.5117
196.9093, 399.0340
197.3914, 386.8086
197.8735, 375.9536
198.3556, 364.8142
198.8378, 353.3397
199.3199, 342.1467
199.8020, 331.1270
200.2841, 320.2241
200.7662, 312.0294
201.2483, 307.3887
201.7305, 304.9038
202.2126, 300.9092
202.6947, 294.8878
203.1768, 289.2870
203.6589, 285.9627
204.1410, 285.3876
204.6232, 283.8906
205.1053, 280.9192
205.5874, 276.9211
206.0695, 273.0903
206.5516, 269.0540
207.0337, 266.1645
207.5159, 266.5700
207.9980, 271.8855
208.4801, 272.1632
208.9622, 263.6157
209.4443, 249.1490
209.9264, 244.2343
210.4086, 252.5966
210.8907, 263.0559
211.3728, 266.3355
211.8549, 259.9261
212.3370, 255.1813
212.8191, 254.6682
213.3013, 257.5794
213.7834, 256.5755
214.2655, 249.8799
214.7476, 242.1026
215.2297, 237.1505
215.7118, 235.3998
216.1940, 235.4202
216.6761, 237.4915
217.1582, 241.4919
217.6403, 244.5567
218.1224, 246.5778
218.6045, 247.7653
219.0867, 248.1464
219.5688, 247.2590
220.0509, 246.6415
220.5330, 246.5876
221.0151, 247.0991
221.4972, 248.0469
221.9794, 249.6165
222.4615, 251.4237
222.9436, 253.3949
223.4257, 256.6536
223.9078, 257.6377
224.3899, 254.7137
224.8721, 247.3556
225.3542, 242.5159
225.8363, 240.7037
226.3184, 240.8791
226.8005, 241.9205
227.2827, 244.1178
227.7648, 246.6534
228.2469, 249.5926
228.7290, 253.1355
229.2111, 255.3930
229.6932, 255.8001
230.1754, 255.3541
230.6575, 255.2791
231.1396, 255.4573
231.6217, 256.2403
232.1038, 257.9106
232.5859, 260.7356
233.0681, 263.0043
233.5502, 264.5804
234.0323, 265.6933
234.5144, 266.6665
234.9965, 267.4349
235.4786, 268.1676
235.9608, 268.9970
236.4429, 270.0513
236.9250, 270.4849
237.4071, 269.7494
237.8892, 268.7314
238.3713, 268.7796
238.8535, 269.8954
239.3356, 272.1010
239.8177, 275.7391
240.2998, 281.5188
240.7819, 285.9252
241.2640, 288.2202
241.7462, 289.6421
242.2283, 292.5368
242.7104, 298.2855
243.1925, 303.2169
243.6746, 305.7785
244.1567, 304.8394
244.6389, 305.4096
245.1210, 307.6459
245.6031, 311.2801
246.0852, 316.1419
246.5673, 323.5521
247.0494, 329.9160
247.5316, 333.5017
248.0137, 332.8401
248.4958, 334.4853
248.9779, 339.2581
249.4600, 345.8761
249.9421, 351.8436
250.4243, 356.8059
250.9064, 361.8269
251.3885, 367.3689
251.8706, 373.7362
252.3527, 379.5354
252.8348, 383.9810
253.3170, 388.3243
253.7991, 394.9142
254.2812, 403.9470
254.7633, 414.7498
255.2454, 428.2259
255.7275, 446.5527
256.2097, 458.3673
256.6918, 460.2412
257.1739, 457.8269
257.6560, 461.9566
258.1381, 475.1502
258.6202, 489.7323
259.1024, 502.4695
259.5845, 511.8362
260.0666, 525.1319
260.5487, 542.7185
261.0308, 563.9506
261.5129, 588.9623
261.9951, 618.6408
262.4772, 649.4770
262.9593, 679.6582
263.4414, 709.0475
263.9235, 739.5358
264.4056, 771.2032
264.8878, 804.2758
265.3699, 838.6296
265.8520, 872.4086
266.3341, 913.6141
266.8162, 966.6372
267.2983, 1032.221
267.7805, 1100.924
268.2626, 1169.505
268.7447, 1244.295
269.2268, 1337.945
269.7089, 1454.070
270.1910, 1575.512
270.6732, 1694.074
271.1553, 1807.022
271.6374, 1939.026
272.1195, 2090.081
272.6016, 2260.578
273.0837, 2446.739
273.5659, 2650.031
274.0480, 2865.038
274.5301, 3093.823
275.0122, 3335.776
275.4943, 3578.775
275.9764, 3818.407
276.4586, 4067.401
276.9407, 4348.328
277.4228, 4659.690
277.9049, 4983.896
278.3870, 5309.271
278.8691, 5636.610
279.3513, 5980.482
279.8334, 6336.748
280.3155, 6720.207
280.7976, 7163.415
281.2798, 7664.948
281.7619, 8169.773
282.2440, 8653.554
282.7261, 9120.519
283.2082, 9603.214
283.6903, 10102.92
284.1725, 10613.66
284.6546, 11141.70
285.1367, 11681.13
285.6188, 12196.84
286.1009, 12689.15
286.5830, 13148.34
287.0652, 13548.53
287.5473, 13893.16
288.0294, 14136.98
288.5115, 14235.71
288.9936, 14189.40
289.4757, 14002.11
289.9579, 13659.53
290.4400, 13181.24
290.9221, 12593.55
291.4042, 11892.44
291.8863, 11131.87
292.3684, 10334.30
292.8506, 9514.417
293.3327, 8722.489
293.8148, 7956.226
294.2969, 7232.735
294.7790, 6568.012
295.2611, 5959.615
295.7433, 5410.801
296.2254, 4923.751
296.7075, 4489.533
297.1896, 4101.055
297.6717, 3752.918
298.1538, 3441.052
298.6360, 3168.116
299.1181, 2930.850
299.6002, 2720.215
300.0823, 2528.597
300.5644, 2356.422
301.0465, 2203.766
301.5287, 2075.927
302.0108, 1961.064
302.4929, 1846.173
302.9750, 1732.269
303.4571, 1631.695
303.9392, 1558.836
304.4214, 1501.619
304.9035, 1441.636
305.3856, 1372.950
305.8677, 1305.217
306.3498, 1248.195
306.8319, 1200.470
307.3141, 1155.838
307.7962, 1110.406
308.2783, 1067.131
308.7604, 1028.398
309.2425, 995.9883
309.7246, 967.1706
310.2068, 940.7424
310.6889, 916.5356
311.1710, 893.7914
311.6531, 872.8943
312.1352, 852.8224
312.6173, 833.1043
313.0995, 814.0341
313.5816, 794.8768
314.0637, 773.7190
314.5458, 752.2366
315.0279, 733.3986
315.5100, 720.7533
315.9922, 709.2355
316.4743, 695.9856
316.9564, 680.1522
317.4385, 664.7510
317.9206, 649.0701
318.4027, 634.8021
318.8849, 624.3126
319.3670, 624.3147
319.8491, 622.8588
320.3312, 614.5082
320.8133, 597.4889
321.2954, 581.8120
321.7776, 568.8964
322.2597, 558.3542
322.7418, 549.7716
323.2239, 545.8007
323.7060, 541.0790
324.1881, 534.1209
324.6703, 524.7046
325.1524, 515.2874
325.6345, 504.6648
326.1166, 494.9385
326.5987, 487.7175
327.0808, 484.9560
327.5630, 482.4459
328.0451, 480.7720
328.5272, 479.7442
329.0093, 474.9111
329.4914, 462.6522
329.9735, 449.9955
330.4557, 441.8153
330.9378, 441.8890
331.4199, 439.8148
331.9020, 434.2068
332.3841, 425.7254
332.8662, 417.2170
333.3484, 407.4790
333.8305, 399.6645
334.3126, 396.3343
334.7947, 400.1944
335.2768, 399.9386
335.7589, 393.3337
336.2411, 383.2348
336.7232, 377.3336
337.2053, 377.4792
337.6874, 376.5371
338.1695, 369.4281
338.6516, 354.8015
339.1338, 347.1543
339.6159, 348.7077
340.0980, 354.2607
340.5801, 354.7203
341.0622, 349.5220
341.5443, 344.4516
342.0265, 342.5779
342.5086, 343.3537
342.9907, 341.3682
343.4728, 336.4269
343.9549, 329.5449
344.4370, 321.2914
344.9192, 311.8906
345.4013, 302.9221
345.8834, 293.7617
346.3655, 285.8699
346.8476, 285.0011
347.3297, 291.3660
347.8119, 298.5181
348.2940, 300.2114
348.7761, 297.7767
349.2582, 295.1515
349.7403, 293.3392
350.2225, 291.9147
350.7046, 290.1005
351.1867, 287.9787
351.6688, 286.3109
352.1509, 286.1956
352.6331, 286.7389
353.1152, 286.6776
353.5973, 285.8851
354.0794, 284.1317
354.5615, 280.7943
355.0436, 276.2373
355.5258, 271.5706
356.0079, 264.6731
356.4900, 259.4472
356.9721, 260.8679
357.4542, 272.4091
357.9363, 281.4020
358.4185, 277.9628
358.9006, 267.4595
359.3827, 259.1794
359.8648, 257.6814
360.3469, 258.5951
360.8290, 260.3179
361.3112, 262.9630
361.7933, 264.4712
362.2754, 264.5753
362.7575, 263.0847
363.2396, 259.7776
363.7217, 250.2279
364.2039, 243.2718
364.6860, 242.8168
365.1681, 248.9807
365.6502, 252.6197
366.1323, 250.1370
366.6144, 246.3829
367.0966, 244.7030
367.5787, 247.8652
368.0608, 249.8597
368.5429, 250.0183
369.0250, 248.6176
369.5071, 247.0907
369.9893, 245.5854
370.4714, 243.7936
370.9535, 241.2908
371.4356, 236.7350
371.9177, 234.7012
372.3998, 236.0764
372.8820, 239.5910
373.3641, 242.7192
373.8462, 245.8758
374.3283, 247.5438
374.8104, 246.6165
375.2925, 242.7750
375.7747, 240.0317
376.2568, 238.5417
376.7389, 237.7939
377.2210, 237.4011
377.7031, 237.4305
378.1852, 236.7985
378.6674, 234.7734
379.1495, 231.8420
379.6316, 230.1014
380.1137, 229.6464
380.5958, 229.6547
381.0779, 229.5656
381.5601, 229.3484
382.0422, 228.8849
382.5243, 228.1839
383.0064, 227.1672
383.4885, 225.2086
383.9706, 222.5016
384.4528, 220.6052
384.9349, 220.9738
385.4170, 222.7334
385.8991, 224.6005
386.3812, 226.5709
386.8633, 228.0783
387.3455, 228.4291
387.8276, 227.9110
388.3097, 227.1811
388.7918, 226.2272
389.2739, 225.4185
389.7560, 225.2507
390.2382, 225.8407
390.7203, 226.1065
391.2024, 225.0709
391.6845, 223.5262
392.1666, 222.3719
392.6487, 220.4130
393.1309, 220.3196
393.6130, 224.9630
394.0951, 233.7162
394.5772, 239.2774
395.0593, 237.9475
395.5414, 234.0151
396.0236, 230.1540
396.5057, 224.2885
396.9878, 221.4004
397.4699, 224.5704
397.9520, 231.4267
398.4341, 234.4465
398.9163, 230.0982
399.3984, 225.5672
399.8805, 223.5473
400.3626, 225.1373
400.8447, 225.9452
401.3268, 225.5270
401.8090, 224.6538
402.2911, 224.4057
402.7732, 224.9272
403.2553, 225.7910
403.7374, 227.4540
404.2195, 229.7367
404.7017, 228.7334
405.1838, 223.3377
405.6659, 217.6202
406.1480, 216.1659
406.6301, 219.0645
407.1122, 219.3036
407.5944, 214.4023
408.0765, 207.3762
408.5586, 205.6739
409.0407, 209.2069
409.5228, 214.4238
410.0049, 221.0825
410.4871, 227.6203
410.9692, 228.9854
411.4513, 223.8823
411.9334, 216.7418
412.4155, 211.2274
412.8976, 207.5182
413.3798, 206.2449
413.8619, 209.7918
414.3440, 214.6341
414.8261, 217.2699
415.3082, 217.6151
415.7903, 216.7570
416.2725, 214.1228
416.7546, 211.1688
417.2367, 209.5075
417.7188, 210.3682
418.2009, 211.8769
418.6830, 213.6711
419.1652, 215.5515
419.6473, 216.7148
420.1294, 216.5089
420.6115, 215.8139
421.0937, 215.0886
421.5758, 214.4489
422.0579, 213.6855
422.5400, 212.1749
423.0221, 210.6437
423.5042, 210.2543
423.9864, 211.0303
424.4685, 213.0042
424.9506, 217.3189
425.4327, 224.4178
425.9148, 227.0861
426.3969, 223.1290
426.8791, 217.2487
427.3612, 213.4854
427.8433, 212.4070
428.3254, 211.7326
428.8075, 211.3274
429.2896, 211.0555
429.7718, 210.2758
430.2539, 208.8029
430.7360, 207.7784
431.2181, 208.3515
431.7002, 210.3474
432.1823, 211.0063
432.6645, 209.9417
433.1466, 208.3717
433.6287, 207.7630
434.1108, 208.0567
434.5929, 209.0342
435.0750, 211.3982
435.5572, 214.0426
436.0393, 215.0025
436.5214, 214.3147
437.0035, 212.7537
437.4856, 210.1472
437.9677, 207.2846
438.4499, 205.2994
438.9320, 204.6488
439.4141, 204.6532
439.8962, 205.0012
440.3783, 205.6439
440.8604, 206.4663
441.3426, 207.7664
441.8247, 208.9574
442.3068, 209.6386
442.7889, 209.6554
443.2710, 209.6991
443.7531, 210.9666
444.2353, 211.9576
444.7174, 211.0337
445.1995, 204.3072
445.6816, 199.6669
446.1637, 199.4336
446.6458, 203.1093
447.1280, 205.3436
447.6101, 204.7369
448.0922, 204.2368
448.5743, 205.7639
449.0564, 210.9037
449.5385, 213.7610
450.0207, 213.5656
450.5028, 211.5909
450.9849, 209.7481
451.4670, 207.7523
451.9491, 207.5279
452.4312, 211.2703
452.9134, 217.9733
453.3955, 219.0267
453.8776, 213.8034
454.3597, 207.4433
454.8418, 204.8490
455.3239, 205.3968
455.8061, 206.7852
456.2882, 208.9707
456.7703, 211.0374
457.2524, 211.5843
457.7345, 210.8370
458.2166, 209.7134
458.6988, 208.7321
459.1809, 207.6763
459.6630, 206.1136
460.1451, 203.8503
460.6272, 202.0940
461.1093, 201.9609
461.5915, 202.6752
462.0736, 203.2798
462.5557, 203.1190
463.0378, 203.1264
463.5199, 204.0676
464.0020, 205.7154
464.4842, 206.3928
464.9663, 204.0975
465.4484, 201.9595
465.9305, 201.7073
466.4126, 204.9010
466.8947, 207.3792
467.3769, 209.4223
467.8590, 210.6282
468.3411, 210.0938
468.8232, 206.5848
469.3053, 203.8403
469.7874, 203.1979
470.2696, 204.4851
470.7517, 204.4168
471.2338, 202.7510
471.7159, 200.4863
472.1980, 198.2943
472.6801, 196.1757
473.1623, 194.4425
473.6444, 193.0665
474.1265, 192.2030
474.6086, 192.2756
475.0907, 193.1902
475.5728, 194.3389
476.0550, 195.5482
476.5371, 196.7401
477.0192, 197.5991
477.5013, 198.1091
477.9834, 198.9767
478.4655, 201.3439
478.9477, 204.2187
479.4298, 206.2996
479.9119, 207.3499
480.3940, 207.3659
480.8761, 205.0889
481.3582, 201.5955
481.8404, 200.0236
482.3225, 204.4279
482.8046, 208.4856
483.2867, 208.7849
483.7688, 203.4316
484.2509, 199.9071
484.7331, 199.5872
485.2152, 201.0080
485.6973, 202.9367
486.1794, 205.9428
486.6615, 208.5818
487.1436, 211.2241
487.6258, 213.3910
488.1079, 212.2351
488.5900, 206.5006
489.0721, 200.9295
489.5542, 198.5512
490.0363, 199.3869
490.5185, 198.6697
491.0006, 195.6801
491.4827, 193.1587
491.9648, 195.9221
492.4470, 202.8961
492.9291, 208.0726
493.4112, 208.3744
493.8933, 206.5644
494.3754, 206.9583
494.8575, 209.2224
495.3397, 211.2318
495.8218, 212.8943
496.3039, 212.9512
496.7860, 208.8833
497.2681, 198.5832
497.7502, 190.9005
498.2324, 193.3688
498.7145, 200.4427
499.1966, 204.6294
499.6787, 200.7625
500.1608, 196.6298
500.6429, 194.2941
501.1251, 193.7646
501.6072, 194.1790
502.0893, 195.6827
502.5714, 197.9356
503.0535, 201.1515
503.5356, 207.1248
504.0178, 209.4319
504.4999, 206.1927
504.9820, 200.9751
505.4641, 199.4070
505.9462, 202.1832
506.4283, 205.0718
506.9105, 207.1854
507.3926, 208.4020
507.8747, 207.7711
508.3568, 205.1858
508.8389, 202.6660
509.3210, 202.4319
509.8032, 203.3941
510.2853, 202.0188
510.7674, 197.2859
511.2495, 192.7026
511.7316, 192.6643
512.2137, 195.3951
512.6959, 197.2767
513.1780, 195.3669
513.6601, 193.3076
514.1422, 193.8885
514.6243, 196.7225
515.1064, 199.0078
515.5886, 198.9888
516.0707, 198.5474
516.5528, 198.9860
517.0349, 201.5801
517.5170, 202.7368
517.9991, 200.9151
518.4813, 197.9335
518.9634, 195.9929
519.4455, 195.0175
519.9276, 195.2985
520.4097, 197.4822
520.8918, 201.0952
521.3740, 203.3140
521.8561, 204.0779
522.3382, 203.6483
522.8203, 201.8475
523.3024, 198.7723
523.7845, 195.6431
524.2667, 192.3517
524.7488, 189.6239
525.2309, 188.3815
525.7130, 188.3996
526.1951, 188.9099
526.6772, 189.6572
527.1594, 190.7570
527.6415, 193.1959
528.1236, 196.4092
528.6057, 197.9456
529.0878, 194.1530
529.5699, 189.6048
530.0521, 188.1698
530.5342, 191.1455
531.0163, 193.4954
531.4984, 192.4779
531.9805, 190.5209
532.4626, 190.2018
532.9448, 194.3944
533.4269, 197.1773
533.9090, 197.2430
534.3911, 195.3491
534.8732, 194.5005
535.3553, 195.2547
535.8375, 196.0097
536.3196, 196.2493
536.8017, 196.0054
537.2838, 194.3022
537.7659, 190.6447
538.2480, 187.1095
538.7302, 185.8074
539.2123, 186.5974
539.6944, 189.1471
540.1765, 194.7351
540.6586, 199.5681
541.1407, 196.2879
541.6229, 187.1904
542.1050, 180.4821
542.5871, 182.2585
543.0692, 187.2819
543.5513, 191.1019
544.0334, 193.4494
544.5156, 195.9361
544.9977, 202.3082
545.4798, 207.4065
545.9619, 206.6545
546.4440, 191.5598
546.9261, 181.9689
547.4083, 184.8107
547.8904, 194.0353
548.3725, 198.5533
548.8546, 195.0553
549.3367, 192.4113
549.8188, 193.3983
550.3010, 197.5251
550.7831, 198.7783
551.2652, 196.5426
551.7473, 193.4761
552.2294, 191.3071
552.7115, 189.9725
553.1937, 189.0370
553.6758, 188.5296
554.1579, 188.1569
554.6400, 187.5318
555.1221, 186.7411
555.6042, 185.9970
556.0864, 184.7860
556.5685, 184.2400
557.0506, 186.4094
557.5327, 190.4428
558.0148, 193.1319
558.4969, 191.6546
558.9791, 189.2970
559.4612, 187.9892
559.9433, 188.0594
560.4254, 188.5438
560.9075, 189.5013
561.3896, 190.6757
561.8718, 191.8194
562.3539, 192.5780
562.8360, 193.9993
563.3181, 196.6807
563.8002, 199.8081
564.2823, 201.5601
564.7645, 201.9244
565.2466, 200.8353
565.7287, 197.6116
566.2108, 192.8661
566.6929, 189.6015
567.1750, 187.8633
567.6572, 187.1770
568.1393, 186.9790
568.6214, 187.5990
569.1035, 190.2458
569.5856, 195.7645
570.0677, 200.6929
570.5499, 201.8586
571.0320, 200.6434
571.5141, 199.2554
571.9962, 198.1782
572.4783, 197.4040
572.9604, 196.8383
573.4426, 196.5441
573.9247, 196.8362
574.4068, 199.0264
574.8889, 200.6312
575.3710, 200.2308
575.8531, 196.9899
576.3353, 196.5122
576.8174, 200.5112
577.2995, 204.7385
577.7816, 204.4916
578.2637, 199.2056
578.7458, 195.6013
579.2280, 194.9562
579.7101, 195.8416
580.1922, 195.4351
580.6743, 194.1060
581.1564, 193.9397
581.6385, 197.8557
582.1207, 202.4377
582.6028, 202.3569
583.0849, 198.1938
583.5670, 194.4946
584.0491, 193.2741
584.5313, 194.0181
585.0134, 196.9509
585.4955, 203.3245
585.9776, 207.8215
586.4597, 208.3850
586.9418, 206.6293
587.4240, 204.3081
587.9061, 200.8190
588.3882, 197.7947
588.8703, 195.1495
589.3524, 193.1507
589.8345, 192.7254
590.3167, 194.1334
590.7988, 196.1835
591.2809, 198.9282
591.7630, 201.9566
592.2451, 202.5893
592.7272, 200.7443
593.2094, 198.5105
593.6915, 197.9105
594.1736, 198.1005
594.6557, 197.1314
595.1378, 194.2846
595.6199, 192.0983
596.1021, 193.5304
596.5842, 196.5550
597.0663, 198.2891
597.5485, 195.6395
598.0306, 193.7754
598.5127, 195.2667
598.9948, 199.1579
599.4769, 201.2505
599.9590, 200.5371
600.4412, 198.9309
600.9233, 196.5546
601.4054, 193.2136
601.8875, 192.3912
602.3696, 195.0730
602.8517, 197.8684
603.3339, 197.1603
603.8160, 193.3249
604.2981, 191.5171
604.7802, 192.5434
605.2623, 194.9245
605.7444, 196.9855
606.2266, 198.8975
606.7087, 201.0526
607.1908, 204.3561
607.6729, 207.2222
608.1550, 208.6376
608.6371, 208.6300
609.1193, 207.3395
609.6014, 202.4730
610.0835, 198.3508
610.5656, 197.6846
611.0477, 201.2514
611.5298, 203.2825
612.0120, 202.3330
612.4941, 201.0363
612.9762, 201.3867
613.4583, 204.3007
613.9404, 205.5410
614.4225, 204.8108
614.9047, 202.5702
615.3868, 198.1654
615.8689, 191.9333
616.3510, 189.1159
616.8331, 192.5920
617.3152, 198.4776
617.7974, 200.8734
618.2795, 200.4552
618.7616, 199.9973
619.2437, 201.1308
619.7258, 202.7207
620.2079, 204.2407
620.6901, 205.6295
621.1722, 206.0836
621.6543, 203.0622
622.1364, 200.5998
622.6185, 201.6479
623.1006, 208.7249
623.5828, 214.0668
624.0649, 217.6209
624.5470, 219.4876
625.0291, 219.5231
625.5112, 217.4289
625.9933, 214.9105
626.4755, 211.8663
626.9576, 209.1501
627.4397, 209.2046
627.9218, 211.6469
628.4039, 213.5534
628.8860, 213.0041
629.3682, 211.3398
629.8503, 209.8974
630.3324, 208.7868
630.8145, 208.8091
631.2966, 212.3192
631.7787, 215.8132
632.2609, 216.4356
632.7430, 212.9258
633.2251, 210.1016
633.7072, 208.8256
634.1893, 208.6857
634.6714, 209.5497
635.1536, 212.6632
635.6357, 213.8368
636.1178, 211.9708
636.5999, 208.8613
637.0820, 207.9436
637.5641, 209.3120
638.0463, 210.6732
638.5284, 210.9533
639.0105, 211.0666
639.4926, 213.9396
639.9747, 218.8767
640.4568, 221.8023
640.9390, 217.8020
641.4211, 212.2781
641.9032, 211.0300
642.3853, 214.4578
642.8674, 216.3833
643.3495, 212.2114
643.8317, 207.0993
644.3138, 204.6467
644.7959, 206.8622
645.2780, 208.7736
645.7601, 210.4952
646.2422, 211.8093
646.7244, 212.1624
647.2065, 211.1445
647.6886, 211.5457
648.1707, 214.5555
648.6528, 218.2242
649.1349, 218.1302
649.6171, 214.7685
650.0992, 211.6628
650.5813, 210.4805
651.0634, 210.4360
651.5455, 210.8865
652.0276, 211.7350
652.5098, 212.4399
652.9919, 212.3904
653.4740, 212.3577
653.9561, 213.0657
654.4382, 214.8605
654.9203, 215.6532
655.4025, 213.8724
655.8846, 212.0864
656.3667, 212.3069
656.8488, 215.8782
657.3309, 216.8551
657.8130, 213.6566
658.2952, 210.3333
658.7773, 214.2760
659.2594, 224.6840
659.7415, 231.3474
660.2236, 230.7030
660.7057, 226.6037
661.1879, 223.3813
661.6700, 221.1070
662.1521, 220.0348
662.6342, 221.9904
663.1163, 223.7157
663.5984, 222.3355
664.0806, 218.3521
664.5627, 216.1464
665.0448, 219.1434
665.5269, 222.0106
666.0090, 222.1571
666.4911, 219.0128
666.9733, 217.3852
667.4554, 217.4877
667.9375, 218.6844
668.4196, 221.5425
668.9017, 225.9033
669.3839, 225.7713
669.8660, 219.7384
670.3481, 213.3510
670.8302, 213.7915
671.3123, 218.6990
671.7944, 223.1065
672.2766, 225.8281
672.7587, 227.0152
673.2408, 225.5841
673.7229, 222.8377
674.2050, 221.2990
674.6871, 222.8702
675.1693, 224.4358
675.6514, 225.2040
676.1335, 225.2818
676.6156, 225.0883
677.0977, 224.2615
677.5798, 224.0056
678.0620, 225.1468
678.5441, 227.4793
679.0262, 229.0270
679.5083, 229.8089
679.9904, 229.6931
680.4725, 227.6214
680.9547, 224.8706
681.4368, 223.9613
681.9189, 225.3764
682.4010, 226.8455
682.8831, 226.2212
683.3652, 225.1767
683.8474, 225.5242
684.3295, 229.6542
684.8116, 232.0159
685.2937, 229.3064
685.7758, 225.5240
686.2579, 226.4894
686.7401, 234.9986
687.2222, 240.2086
687.7043, 238.8317
688.1864, 234.2968
688.6685, 235.9992
689.1506, 243.4560
689.6328, 248.7903
690.1149, 245.8646
690.5970, 240.5067
691.0791, 241.7086
691.5612, 248.5809
692.0433, 256.4603
692.5255, 264.8507
693.0076, 271.9846
693.4897, 276.0749
693.9718, 276.6669
694.4539, 278.5312
694.9360, 283.1474
695.4182, 288.4087
695.9003, 293.0482
696.3824, 296.3450
696.8645, 301.8991
697.3466, 309.9548
697.8287, 319.6273
698.3109, 329.9898
698.7930, 341.1308
699.2751, 353.6928
699.7572, 367.8334
700.2393, 382.7823
700.7214, 395.7642
701.2036, 409.3660
701.6857, 427.8192
702.1678, 449.4023
702.6499, 479.8640
703.1320, 519.3231
703.6141, 569.3600
704.0963, 634.1308
704.5784, 709.1672
705.0605, 804.9332
705.5426, 924.3867
706.0247, 1066.844
706.5068, 1230.605
706.9890, 1419.121
707.4711, 1606.902
707.9532, 1785.052
708.4353, 1951.168
708.9174, 2087.096
709.3995, 2196.140
709.8817, 2305.413
710.3638, 2432.500
710.8459, 2567.796
711.3280, 2701.333
711.8101, 2832.962
712.2922, 2965.107
712.7744, 3088.600
713.2565, 3221.512
713.7386, 3375.690
714.2207, 3551.646
714.7028, 3748.170
715.1849, 3966.483
715.6671, 4206.737
716.1492, 4501.329
716.6313, 4838.762
717.1134, 5126.129
717.5955, 5363.504
718.0776, 5486.128
718.5598, 5409.284
719.0419, 5157.627
719.5240, 4776.496
720.0061, 4186.214
720.4882, 3583.570
720.9703, 3019.198
721.4525, 2506.794
721.9346, 2074.293
722.4167, 1734.124
722.8988, 1456.833
723.3809, 1245.589
723.8630, 1092.369
724.3452, 970.0737
724.8273, 881.5004
725.3094, 806.2093
725.7915, 736.4172
726.2736, 673.3441
726.7557, 622.1981
727.2379, 581.9816
727.7200, 544.8328
728.2021, 503.8419
728.6842, 465.1883
729.1663, 433.6337
729.6484, 409.8436
730.1306, 390.2924
730.6127, 377.3111
731.0948, 365.6147
731.5769, 351.6326
732.0590, 333.5208
732.5411, 320.6867
733.0233, 314.2324
733.5054, 310.5841
733.9875, 307.1068
734.4696, 303.6899
734.9517, 299.6889
735.4338, 295.0254
735.9160, 289.6992
736.3981, 282.7338
736.8802, 275.4125
737.3623, 269.5805
737.8444, 265.6362
738.3266, 263.4184
738.8087, 264.7609
739.2908, 267.1290
739.7729, 266.6601
740.2551, 260.8544
740.7372, 256.4860
741.2193, 254.2053
741.7014, 253.8644
742.1835, 256.6771
742.6656, 262.6949
743.1478, 264.4744
743.6299, 257.7797
744.1120, 247.9054
744.5941, 242.6191
745.0762, 241.1535
745.5583, 240.9585
746.0405, 242.5571
746.5226, 243.4495
747.0047, 241.2606
747.4868, 236.7317
747.9689, 234.3482
748.4510, 236.9440
748.9332, 238.6721
749.4153, 236.5348
749.8974, 231.2799
750.3795, 233.5465
750.8616, 244.7146
751.3438, 252.6985
751.8259, 245.9712
752.3080, 231.2358
752.7901, 224.6072
753.2722, 226.1967
753.7543, 229.7004
754.2365, 233.1819
754.7186, 235.2747
755.2007, 234.2526
755.6828, 229.2474
756.1649, 225.2780
756.6470, 223.4697
757.1292, 222.6331
757.6113, 222.0860
758.0934, 221.7419
758.5755, 222.0041
759.0576, 222.7962
759.5397, 224.4672
760.0219, 228.8096
760.5040, 234.4093
760.9861, 236.3951
761.4682, 233.6618
761.9503, 229.1552
762.4324, 223.0130
762.9146, 217.3254
763.3967, 214.6336
763.8788, 217.4539
764.3609, 220.2055
764.8430, 221.9663
765.3251, 223.2134
765.8073, 224.7878
766.2894, 227.3422
766.7715, 227.1793
767.2536, 222.7163
767.7357, 217.3470
768.2178, 217.0796
768.7000, 220.9959
769.1821, 225.5865
769.6642, 231.4236
770.1463, 234.7966
770.6284, 229.5088
771.1105, 219.8431
771.5927, 214.0794
772.0748, 219.3760
772.5569, 223.4852
773.0390, 222.4224
773.5211, 218.4016
774.0032, 217.1082
774.4854, 219.2166
774.9675, 221.5799
775.4496, 223.4392
775.9317, 224.7942
776.4138, 225.6916
776.8959, 226.0986
777.3781, 225.8809
777.8602, 224.5727
778.3423, 222.9248
778.8244, 220.8160
779.3065, 218.7052
779.7886, 218.4535
780.2708, 223.7310
780.7529, 227.6619
781.2350, 227.7924
781.7171, 224.4985
782.1992, 220.6966
782.6813, 215.7075
783.1635, 213.0708
783.6456, 215.8363
784.1277, 222.1669
784.6098, 226.9328
785.0919, 230.0045
785.5740, 230.4330
786.0562, 224.4634
786.5383, 217.8841
787.0204, 216.3046
787.5025, 220.0000
787.9846, 222.5577
788.4667, 220.6106
788.9489, 219.0081
789.4310, 220.3320
789.9131, 224.8797
790.3952, 225.8250
790.8773, 222.2475
791.3594, 219.3269
791.8416, 222.6759
792.3237, 229.4478
792.8058, 232.0413
793.2879, 230.1331
793.7700, 226.2254
794.2521, 218.4301
794.7343, 211.8138
795.2164, 211.7643
795.6985, 221.0382
796.1806, 226.8148
796.6627, 225.6711
797.1448, 223.1055
797.6270, 223.0386
798.1091, 226.1741
798.5912, 225.2000
799.0733, 219.2108
799.5554, 213.7079
800.0375, 215.3978
800.5197, 221.0318
801.0018, 224.3805
801.4839, 224.4106
801.9660, 223.6228
802.4481, 223.4230
802.9302, 223.1364
803.4124, 222.0721
803.8945, 219.2586
804.3766, 217.7251
804.8587, 217.9813
805.3408, 218.8471
805.8229, 219.4445
806.3051, 219.7710
806.7872, 219.3697
807.2693, 218.1516
807.7514, 216.4881
808.2335, 214.1259
808.7156, 211.7754
809.1978, 210.4134
809.6799, 210.1143
810.1620, 211.2500
810.6441, 215.6700
811.1262, 220.6515
811.6083, 223.3657
812.0905, 222.2770
812.5726, 222.5643
813.0547, 224.9073
813.5368, 227.5066
814.0189, 228.2928
814.5010, 227.4419
814.9832, 225.6167
815.4653, 222.5997
815.9474, 220.2570
816.4295, 221.0083
816.9116, 223.1365
817.3937, 224.5663
817.8759, 224.8682
818.3580, 224.2644
818.8401, 221.3973
819.3222, 218.5717
819.8043, 217.9669
820.2864, 219.8639
820.7686, 223.1313
821.2507, 228.2237
821.7328, 232.9170
822.2149, 234.2348
822.6970, 232.8324
823.1791, 229.7190
823.6613, 224.0835
824.1434, 220.3579
824.6255, 223.8110
825.1076, 229.7638
825.5897, 232.9610
826.0718, 229.5284
826.5540, 227.5224
827.0361, 227.2627
827.5182, 228.0705
828.0003, 229.3744
828.4824, 231.1554
828.9645, 232.7520
829.4467, 234.1426
829.9288, 234.9699
830.4109, 234.4726
830.8930, 233.2580
831.3751, 232.5079
831.8572, 233.6183
832.3394, 232.6997
832.8215, 223.7836
833.3036, 214.7302
833.7857, 214.7038
834.2678, 228.3355
834.7499, 237.2963
835.2321, 239.7743
835.7142, 238.9479
836.1963, 237.9723
836.6784, 236.9732
837.1605, 236.7150
837.6426, 237.6618
838.1248, 237.9056
838.6069, 235.2880
839.0890, 231.4766
839.5711, 228.2867
840.0532, 225.8758
840.5353, 224.5055
841.0175, 223.8262
841.4996, 224.4824
841.9817, 227.9176
842.4638, 234.3491
842.9459, 238.1358
843.4280, 238.4448
843.9102, 237.6575
844.3923, 238.4589
844.8744, 239.8957
845.3565, 240.3360
845.8386, 239.2092
846.3207, 238.0313
846.8029, 237.4609
847.2850, 237.0769
847.7671, 236.4932
848.2492, 235.5635
848.7313, 234.7873
849.2134, 234.1338
849.6956, 233.7281
850.1777, 233.6693
850.6598, 233.9575
851.1419, 234.6790
851.6240, 235.8845
852.1061, 237.1322
852.5883, 237.3154
853.0704, 237.8662
853.5525, 240.4886
854.0346, 246.6866
854.5167, 250.9359
854.9988, 252.9415
855.4810, 253.0038
855.9631, 250.4401
856.4452, 245.1656
856.9273, 242.4334
857.4094, 242.3645
857.8915, 244.8283
858.3737, 251.8696
858.8558, 260.2675
859.3379, 265.8096
859.8200, 267.8224
860.3021, 269.0605
860.7842, 270.1110
861.2664, 270.9742
861.7485, 271.5114
862.2306, 271.6244
862.7127, 272.3413
863.1948, 273.5630
863.6769, 275.8518
864.1591, 280.6930
864.6412, 286.6637
865.1233, 290.7272
865.6054, 292.8241
866.0875, 293.2260
866.5696, 290.6595
867.0518, 287.6738
867.5339, 286.6031
868.0160, 287.6806
868.4981, 285.0313
868.9802, 276.2707
869.4623, 268.8430
869.9445, 267.3153
870.4266, 269.9617
870.9087, 267.9893
871.3908, 261.8754
871.8729, 256.9355
872.3550, 257.0155
872.8372, 259.0832
873.3193, 261.3138
873.8014, 263.4751
874.2835, 264.6847
874.7656, 263.7079
875.2477, 262.9639
875.7299, 262.9730
876.2120, 263.6862
876.6941, 265.8019
877.1762, 269.3116
877.6583, 269.9489
878.1404, 263.1399
878.6226, 255.3078
879.1047, 256.9627
879.5869, 264.4936
880.0690, 268.6448
880.5511, 261.4529
881.0332, 255.5603
881.5153, 256.1421
881.9974, 259.9277
882.4796, 259.7560
882.9617, 254.5176
883.4438, 251.8935
883.9259, 254.4597
884.4080, 258.9108
884.8901, 259.9802
885.3723, 258.8275
885.8544, 258.0956
886.3365, 258.3437
886.8186, 259.7722
887.3007, 264.4298
887.7828, 269.4804
888.2650, 270.7449
888.7471, 266.2338
889.2292, 263.3766
889.7113, 263.3049
890.1934, 263.8210
890.6755, 261.3832
891.1577, 257.1493
891.6398, 254.7148
892.1219, 254.8971
892.6040, 256.2726
893.0861, 259.0826
893.5682, 261.8944
894.0504, 263.3063
894.5325, 262.6769
895.0146, 261.5012
895.4967, 259.0881
895.9788, 257.4045
896.4609, 258.4096
896.9431, 261.7261
897.4252, 265.5962
897.9073, 269.9461
898.3894, 272.8934
898.8715, 273.3732
899.3536, 271.6609
899.8358, 266.5317
900.3179, 257.3830
900.8000, 252.9936
901.2821, 255.7194
901.7642, 261.0143
902.2463, 268.4362
902.7285, 276.9895
903.2106, 279.3762
903.6927, 275.7264
904.1748, 270.1457
904.6569, 262.3642
905.1390, 255.9038
905.6212, 255.1922
906.1033, 259.1856
906.5854, 263.0635
907.0675, 265.5628
907.5496, 267.7182
908.0317, 269.8945
908.5139, 271.8478
908.9960, 273.0939
909.4781, 273.6248
909.9602, 272.1618
910.4423, 266.4580
910.9244, 261.4846
911.4066, 265.3268
911.8887, 273.8882
912.3708, 279.6804
912.8529, 277.5531
913.3350, 275.7430
913.8171, 276.6721
914.2993, 277.9782
914.7814, 275.7936
915.2635, 269.6676
915.7456, 266.5310
916.2277, 267.9367
916.7098, 270.0002
917.1920, 266.5576
917.6741, 261.4959
918.1562, 261.4079
918.6383, 269.7065
919.1204, 275.4030
919.6025, 271.3890
920.0847, 266.7632
920.5668, 268.4455
921.0489, 278.0586
921.5310, 281.5402
922.0131, 278.2052
922.4952, 274.4046
922.9774, 275.8919
923.4595, 279.8781
923.9416, 282.5692
924.4237, 283.7175
924.9058, 283.8373
925.3879, 282.2078
925.8701, 280.5234
926.3522, 279.3317
926.8343, 278.6588
927.3164, 278.9977
927.7985, 280.5155
928.2806, 281.4824
928.7628, 280.6191
929.2449, 279.1999
929.7270, 280.3828
930.2091, 282.6985
930.6912, 282.1952
931.1733, 270.1214
931.6555, 263.4247
932.1376, 272.1983
932.6197, 287.3440
933.1018, 293.3746
933.5839, 289.0291
934.0660, 285.4685
934.5482, 284.9624
935.0303, 284.9907
935.5124, 279.9662
935.9945, 273.8097
936.4766, 274.7021
936.9587, 289.1633
937.4409, 297.7865
937.9230, 286.8356
938.4051, 273.3811
938.8872, 271.1386
939.3693, 282.6307
939.8514, 290.5808
940.3336, 294.6723
940.8157, 296.7214
941.2978, 298.0835
941.7799, 298.4312
942.2620, 295.9632
942.7441, 290.9682
943.2263, 289.1669
943.7084, 296.2350
944.1905, 303.4938
944.6726, 308.2466
945.1547, 310.3300
945.6368, 307.2670
946.1190, 298.5856
946.6011, 292.5588
947.0832, 294.9679
947.5653, 299.7151
948.0474, 297.6332
948.5295, 291.5215
949.0117, 287.8916
949.4938, 290.6829
949.9759, 294.1763
950.4580, 298.2115
950.9401, 301.6458
951.4222, 302.4612
951.9044, 300.6267
952.3865, 298.2497
952.8686, 295.3963
953.3507, 293.3628
953.8328, 294.4745
954.3149, 296.7808
954.7971, 297.8554
955.2792, 297.0732
955.7613, 295.5430
956.2434, 292.5127
956.7255, 289.9213
957.2076, 288.7135
957.6898, 288.9076
958.1719, 292.1900
958.6540, 298.5079
959.1361, 302.5720
959.6182, 298.0436
960.1003, 291.7599
960.5825, 290.8566
961.0646, 294.3626
961.5467, 295.1448
962.0288, 289.1708
962.5109, 284.6076
962.9930, 283.7606
963.4752, 285.2214
963.9573, 285.7277
964.4394, 285.4088
964.9215, 284.9115
965.4036, 283.7716
965.8857, 283.9154
966.3679, 287.4438
966.8500, 292.9352
967.3321, 298.7001
967.8142, 306.3020
968.2963, 310.5066
968.7784, 310.3575
969.2606, 308.6258
969.7427, 307.6315
970.2248, 307.3748
970.7069, 308.3885
971.1890, 310.6787
971.6711, 311.9280
972.1533, 310.4005
972.6354, 307.4792
973.1175, 302.6568
973.5996, 296.2141
974.0817, 295.8814
974.5638, 303.8923
975.0460, 309.9873
975.5281, 309.0153
976.0102, 304.3068
976.4923, 302.4614
976.9744, 302.8739
977.4565, 303.7655
977.9387, 303.4630
978.4208, 304.5588
978.9029, 309.2195
979.3850, 315.2002
979.8671, 319.6744
980.3492, 322.5510
980.8314, 324.1479
981.3135, 324.3576
981.7956, 323.9374
982.2777, 323.5877
982.7598, 323.2064
983.2419, 322.4675
983.7241, 321.2023
984.2062, 320.6420
984.6883, 320.4756
985.1704, 321.9482
985.6525, 326.4535
986.1346, 333.4820
986.6168, 336.8190
987.0989, 336.6125
987.5810, 337.4968
988.0631, 342.7658
988.5452, 349.8362
989.0273, 358.8313
989.5095, 367.5803
989.9916, 370.2206
990.4737, 359.5163
990.9558, 352.0965
991.4379, 349.8810
991.9200, 351.8134
992.4022, 357.4077
992.8843, 365.9258
993.3664, 375.2639
993.8485, 385.5922
994.3306, 392.5732
994.8127, 389.2148
995.2949, 383.8829
995.7770, 384.3179
996.2591, 391.7275
996.7412, 398.1130
997.2233, 402.9260
997.7054, 408.5130
998.1876, 417.2227
998.6697, 427.3011
999.1518, 435.5477
999.6339, 441.9205
1000.116, 446.4096
1000.598, 446.3918
1001.080, 447.5922
1001.562, 453.0465
1002.044, 460.4735
1002.527, 465.5352
1003.009, 467.8953
1003.491, 472.2110
1003.973, 479.3134
1004.455, 488.2222
1004.937, 499.3737
1005.419, 510.8388
1005.901, 519.9252
1006.384, 525.7147
1006.866, 530.8355
1007.348, 535.0037
1007.830, 539.4764
1008.312, 544.4380
1008.794, 550.2153
1009.276, 561.1115
1009.758, 576.0842
1010.240, 586.8987
1010.723, 582.5760
1011.205, 578.6682
1011.687, 588.7407
1012.169, 606.4218
1012.651, 613.4322
1013.133, 604.0037
1013.615, 600.3763
1014.097, 606.8099
1014.580, 617.5245
1015.062, 626.7695
1015.544, 633.7590
1016.026, 635.9592
1016.508, 631.8245
1016.990, 629.2781
1017.472, 630.3210
1017.954, 635.2645
1018.436, 645.2960
1018.919, 659.9913
1019.401, 671.9572
1019.883, 681.1920
1020.365, 688.1690
1020.847, 694.5635
1021.329, 697.6642
1021.811, 689.1444
1022.293, 675.5791
1022.776, 673.4294
1023.258, 698.5565
1023.740, 713.7084
1024.222, 713.0420
1024.704, 704.9534
1025.186, 697.8628
1025.668, 692.9776
1026.150, 696.2009
1026.632, 708.9473
1027.115, 721.2408
1027.597, 728.1811
1028.079, 731.5638
1028.561, 731.6297
1029.043, 728.7128
1029.525, 728.0544
1030.007, 729.9103
1030.489, 731.9730
1030.972, 733.0178
1031.454, 733.8756
1031.936, 735.7408
1032.418, 738.3376
1032.900, 741.0392
1033.382, 745.3292
1033.864, 747.0120
1034.346, 743.8479
1034.828, 740.5029
1035.311, 743.5999
1035.793, 751.7892
1036.275, 753.8099
1036.757, 748.7250
1037.239, 748.6588
1037.721, 768.5716
1038.203, 791.1037
1038.685, 802.9431
1039.167, 804.8794
1039.650, 811.0044
1040.132, 822.8015
1040.614, 831.6319
1041.096, 832.6498
1041.578, 832.2296
1042.060, 840.1716
1042.542, 854.1097
1043.024, 870.1481
1043.507, 889.5364
1043.989, 905.7509
1044.471, 916.1685
1044.953, 925.0934
1045.435, 935.4719
1045.917, 947.2851
1046.399, 960.6476
1046.881, 975.5986
1047.364, 993.6729
1047.846, 1021.134
1048.328, 1047.247
1048.810, 1063.402
1049.292, 1071.444
1049.774, 1080.980
1050.256, 1091.650
1050.738, 1105.323
1051.220, 1122.330
1051.703, 1142.542
1052.185, 1168.731
1052.667, 1196.442
1053.149, 1216.392
1053.631, 1224.054
1054.113, 1237.015
1054.595, 1262.282
1055.077, 1291.411
1055.559, 1320.745
1056.042, 1350.273
1056.524, 1379.947
1057.006, 1410.466
1057.488, 1447.544
1057.970, 1503.738
1058.452, 1557.719
1058.934, 1588.369
1059.416, 1610.673
1059.899, 1653.181
1060.381, 1722.747
1060.863, 1789.981
1061.345, 1852.269
1061.827, 1913.953
1062.309, 1979.729
1062.791, 2048.904
1063.273, 2123.084
1063.755, 2202.467
1064.238, 2270.357
1064.720, 2329.159
1065.202, 2365.548
1065.684, 2367.102
1066.166, 2348.978
1066.648, 2348.696
1067.130, 2366.115
1067.612, 2400.574
1068.094, 2452.115
1068.577, 2520.460
1069.059, 2601.427
1069.541, 2703.314
1070.023, 2831.674
1070.505, 2985.357
1070.987, 3172.218
1071.469, 3392.936
1071.951, 3660.252
1072.434, 3963.011
1072.916, 4334.473
1073.398, 4793.192
1073.880, 5358.376
1074.362, 6081.628
1074.844, 6933.084
1075.326, 8029.159
1075.808, 9393.963
1076.291, 11017.29
1076.773, 12915.10
1077.255, 15068.55
1077.737, 17368.60
1078.219, 19767.61
1078.701, 22410.01
1079.183, 25346.69
1079.665, 28537.24
1080.147, 31955.34
1080.630, 35600.64
1081.112, 39502.66
1081.594, 43668.16
1082.076, 48288.33
1082.558, 53377.68
1083.040, 59059.34
1083.522, 65998.62
1084.004, 73349.62
1084.486, 80219.98
1084.969, 88146.11
1085.451, 91321.22
1085.933, 89444.07
1086.415, 83879.46
1086.897, 73916.56
1087.379, 61830.29
1087.861, 50980.22
1088.343, 41511.34
1088.826, 33576.68
1089.308, 27816.11
1089.790, 23103.68
1090.272, 19373.51
1090.754, 16372.30
1091.236, 13768.97
1091.718, 11555.29
1092.200, 9714.321
1092.682, 8268.258
1093.165, 7069.595
1093.647, 6091.548
1094.129, 5285.717
1094.611, 4628.789
1095.093, 4104.683
1095.575, 3649.292
1096.057, 3263.389
1096.539, 2925.410
1097.022, 2635.443
1097.504, 2389.214
1097.986, 2197.845
1098.468, 2043.117
1098.950, 1903.155
1099.432, 1772.206
1099.914, 1660.394
1100.396, 1573.060
1100.879, 1493.807
1101.361, 1409.434
1101.843, 1326.517
1102.325, 1256.585
1102.807, 1197.971
1103.289, 1145.394
1103.771, 1097.274
1104.253, 1054.279
1104.735, 1017.208
1105.218, 982.7795
1105.700, 944.4442
1106.182, 904.4330
1106.664, 877.5094
1107.146, 865.1527
1107.628, 851.9022
1108.110, 827.5100
1108.592, 799.8984
1109.074, 772.2336
1109.557, 745.2169
1110.039, 722.2387
1110.521, 703.1292
1111.003, 688.1150
1111.485, 678.1921
1111.967, 670.0069
1112.449, 662.6832
1112.931, 654.2690
1113.414, 641.0017
1113.896, 620.1331
1114.378, 609.6147
1114.860, 612.1462
1115.342, 613.1491
1115.824, 602.1750
1116.306, 586.6070
1116.788, 577.8645
1117.271, 573.8316
1117.753, 569.6675
1118.235, 563.9587
1118.717, 557.8985
1119.199, 551.1323
1119.681, 544.8031
1120.163, 540.8913
1120.645, 538.2015
1121.127, 532.0786
1121.609, 522.8956
1122.092, 516.3146
1122.574, 518.6081
1123.056, 519.8248
1123.538, 515.9366
1124.020, 509.6375
1124.502, 506.7214
1124.984, 506.6547
1125.466, 504.4405
1125.949, 498.9148
1126.431, 493.9545
1126.913, 495.4502
1127.395, 495.7584
1127.877, 486.7144
1128.359, 470.2899
1128.841, 464.3044
1129.323, 469.4674
1129.806, 471.4250
1130.288, 462.4155
1130.770, 453.5882
1131.252, 459.6035
1131.734, 471.0598
1132.216, 475.0033
1132.698, 467.1192
1133.180, 462.7386
1133.662, 462.6670
1134.145, 462.8199
1134.627, 460.6287
1135.109, 457.0155
1135.591, 452.5266
1136.073, 447.8528
1136.555, 444.8640
1137.037, 446.0453
1137.519, 445.6522
1138.001, 442.1886
1138.484, 439.5550
1138.966, 444.0403
1139.448, 451.9304
1139.930, 453.0148
1140.412, 447.5828
1140.894, 443.4051
1141.376, 445.2653
1141.858, 446.6740
1142.341, 445.3303
1142.823, 443.2168
1143.305, 445.3787
1143.787, 450.2337
1144.269, 449.0857
1144.751, 439.6240
1145.233, 433.9523
1145.715, 444.9789
1146.198, 455.6287
1146.680, 456.6664
1147.162, 449.6650
1147.644, 440.4294
1148.126, 429.2779
1148.608, 420.7895
1149.090, 415.9104
1149.572, 415.0365
1150.054, 421.5227
1150.536, 430.0185
1151.019, 435.7875
1151.501, 438.7213
1151.983, 438.3195
1152.465, 434.4354
1152.947, 430.8885
1153.429, 430.2767
1153.911, 430.3195
1154.393, 428.3119
1154.876, 425.6366
1155.358, 424.9544
1155.840, 427.5045
1156.322, 428.3495
1156.804, 427.0547
1157.286, 425.9501
1157.768, 427.9369
1158.250, 430.4758
1158.733, 429.2361
1159.215, 425.5829
1159.697, 425.1827
1160.179, 431.2412
1160.661, 435.3306
1161.143, 436.4402
1161.625, 435.4952
1162.107, 433.0653
1162.589, 429.5510
1163.072, 424.1714
1163.554, 417.3167
1164.036, 415.6743
1164.518, 424.9608
1165.000, 432.7714
1165.482, 436.1734
1165.964, 436.7084
1166.446, 437.0168
1166.928, 436.6408
1167.411, 433.9697
1167.893, 428.1926
1168.375, 423.9562
1168.857, 423.4479
1169.339, 423.8869
1169.821, 424.0214
1170.303, 424.5628
1170.785, 428.9220
1171.268, 435.5624
1171.750, 439.5657
1172.232, 439.1064
1172.714, 436.4605
1173.196, 428.7999
1173.678, 422.9289
1174.160, 423.7970
1174.642, 430.2458
1175.125, 435.5510
1175.607, 439.5692
1176.089, 441.2203
1176.571, 438.1585
1177.053, 435.1034
1177.535, 433.8261
1178.017, 433.7836
1178.499, 434.4331
1178.981, 435.7901
1179.464, 439.7070
1179.946, 445.8986
1180.428, 449.5814
1180.910, 445.0185
1181.392, 440.1362
1181.874, 438.7556
1182.356, 439.9671
1182.838, 443.0748
1183.320, 448.2527
1183.803, 450.3799
1184.285, 448.9928
1184.767, 446.8405
1185.249, 443.2238
1185.731, 442.1772
1186.213, 450.3409
1186.695, 462.7581
1187.177, 464.9891
1187.660, 456.3288
1188.142, 447.4768
1188.624, 439.8141
1189.106, 435.5002
1189.588, 438.4849
1190.070, 443.9582
1190.552, 449.0392
1191.034, 453.1901
1191.516, 453.9135
1191.999, 450.6818
1192.481, 449.3760
1192.963, 451.9528
1193.445, 455.0624
1193.927, 454.4080
1194.409, 453.2389
1194.891, 456.0171
1195.373, 463.1168
1195.855, 464.3532
1196.338, 459.0621
1196.820, 453.5913
1197.302, 449.9714
1197.784, 448.1810
1198.266, 449.7819
1198.748, 452.3916
1199.230, 453.3387
1199.712, 452.7094
1200.195, 446.5952
1200.677, 433.4962
1201.159, 425.7111
1201.641, 433.4411
1202.123, 445.2975
1202.605, 448.9312
1203.087, 447.4520
1203.569, 446.0011
1204.052, 445.5087
1204.534, 443.9928
1205.016, 441.2485
1205.498, 438.6383
1205.980, 435.3611
1206.462, 434.1053
1206.944, 440.3241
1207.426, 450.5795
1207.908, 456.6453
1208.391, 456.8281
1208.873, 455.6076
1209.355, 452.7123
1209.837, 450.8122
1210.319, 453.5568
1210.801, 457.4683
1211.283, 458.5040
1211.765, 457.2335
1212.247, 455.8237
1212.730, 453.6895
1213.212, 454.1804
1213.694, 458.0587
1214.176, 462.6077
1214.658, 465.8599
1215.140, 467.9379
1215.622, 467.7320
1216.104, 466.1377
1216.587, 469.0435
1217.069, 480.2035
1217.551, 482.9893
1218.033, 473.3582
1218.515, 460.6387
1218.997, 452.6938
1219.479, 449.1071
1219.961, 451.5314
1220.443, 459.2532
1220.926, 461.4851
1221.408, 455.6866
1221.890, 453.6329
1222.372, 459.1465
1222.854, 465.4435
1223.336, 463.7692
1223.818, 458.7291
1224.300, 455.0720
1224.782, 453.4764
1225.265, 454.1711
1225.747, 458.1220
1226.229, 459.1788
1226.711, 454.3798
1227.193, 448.9120
1227.675, 449.9458
1228.157, 453.3813
1228.639, 453.6299
1229.122, 449.5607
1229.604, 450.7203
1230.086, 458.1753
1230.568, 463.4994
1231.050, 462.2513
1231.532, 460.0176
1232.014, 465.0439
1232.496, 471.8221
1232.979, 472.6684
1233.461, 466.1052
1233.943, 463.3808
1234.425, 464.8232
1234.907, 467.1269
1235.389, 469.4007
1235.871, 470.8018
1236.353, 469.9180
1236.835, 468.0142
1237.318, 466.6809
1237.800, 465.9688
1238.282, 466.0428
1238.764, 466.9438
1239.246, 467.8143
1239.728, 468.6946
1240.210, 468.6855
1240.692, 464.8913
1241.175, 460.9370
1241.657, 462.5699
1242.139, 471.6172
1242.621, 473.3599
1243.103, 467.7429
1243.585, 462.9016
1244.067, 465.2645
1244.549, 468.5037
1245.031, 467.5490
1245.514, 465.3277
1245.996, 466.5631
1246.478, 471.8817
1246.960, 471.3795
1247.442, 465.3040
1247.924, 462.2334
1248.406, 472.2583
1248.888, 481.8024
1249.370, 482.1824
1249.853, 478.2261
1250.335, 475.6889
1250.817, 474.5961
1251.299, 475.9363
1251.781, 479.5228
1252.263, 482.0957
1252.745, 481.9209
1253.227, 479.8547
1253.710, 473.7002
1254.192, 467.9499
1254.674, 469.5250
1255.156, 477.1675
1255.638, 482.3291
1256.120, 484.4779
1256.602, 484.1448
1257.084, 478.3018
1257.567, 474.4230
1258.049, 476.1461
1258.531, 479.2807
1259.013, 476.2431
1259.495, 469.7183
1259.977, 471.2013
1260.459, 480.6499
1260.941, 487.5671
1261.423, 486.2426
1261.906, 482.1836
1262.388, 474.2337
1262.870, 468.2076
1263.352, 477.0427
1263.834, 492.9283
1264.316, 495.1277
1264.798, 483.2496
1265.280, 477.2960
1265.762, 490.9275
1266.245, 497.7692
1266.727, 491.1930
1267.209, 480.7938
1267.691, 479.4413
1268.173, 483.3825
1268.655, 486.8218
1269.137, 489.2485
1269.619, 491.9039
1270.102, 495.6433
1270.584, 497.8952
1271.066, 498.1378
1271.548, 496.6400
1272.030, 491.2893
1272.512, 486.0403
1272.994, 486.1800
1273.476, 491.9146
1273.958, 497.4041
1274.441, 502.4524
1274.923, 507.6072
1275.405, 513.5636
1275.887, 516.8174
1276.369, 510.6646
1276.851, 502.4268
1277.333, 499.3268
1277.815, 500.9143
1278.297, 502.3227
1278.780, 503.6121
1279.262, 502.9839
1279.744, 499.7942
1280.226, 496.1200
1280.708, 491.3383
1281.190, 488.9198
1281.672, 492.6112
1282.154, 500.3865
1282.637, 505.6467
1283.119, 508.4887
1283.601, 509.4792
1284.083, 508.5967
1284.565, 507.1902
1285.047, 506.1100
1285.529, 504.5579
1286.011, 501.6236
1286.494, 498.3730
1286.976, 497.9817
1287.458, 499.9292
1287.940, 503.2558
1288.422, 508.2719
1288.904, 510.2496
1289.386, 503.2538
1289.868, 498.8689
1290.350, 502.1780
1290.833, 508.3818
1291.315, 506.2266
1291.797, 500.2969
1292.279, 500.6315
1292.761, 510.1300
1293.243, 515.6273
1293.725, 514.0220
1294.207, 513.0416
1294.689, 515.6576
1295.172, 519.0416
1295.654, 518.8857
1296.136, 517.0574
1296.618, 515.4287
1297.100, 514.2443
1297.582, 516.9572
1298.064, 524.5930
1298.546, 529.3526
1299.029, 528.1109
1299.511, 525.4197
1299.993, 525.8707
1300.475, 527.3505
1300.957, 527.9237
1301.439, 527.6030
1301.921, 526.1398
1302.403, 523.6640
1302.885, 524.7897
1303.368, 532.1754
1303.850, 537.2921
1304.332, 529.8019
1304.814, 522.6708
1305.296, 525.0785
1305.778, 533.4193
1306.260, 534.1637
1306.742, 529.3127
1307.224, 527.3340
1307.707, 530.9998
1308.189, 533.5382
1308.671, 530.9105
1309.153, 528.4572
1309.635, 528.5530
1310.117, 529.3143
1310.599, 525.7411
1311.081, 520.1292
1311.564, 517.4015
1312.046, 518.9374
1312.528, 519.4675
1313.010, 516.6444
1313.492, 518.9699
1313.974, 531.9149
1314.456, 544.7720
1314.938, 538.6735
##END=



