##NAMES=Rhodonite
##RRUFFID=R060549
##IDEAL CHEMISTRY=CaMn^2+^_3_Mn^2+^Si_5_O_15_
##LOCALITY=unknown
##OWNER=RRUFF
##SOURCE=Gemological Institute of America
##DESCRIPTION=Pink cleavage fragment
##STATUS=The identification of this mineral has been confirmed by X-ray diffraction and chemical analysis
##URL=rruff.info/R060549
##MEASURED CHEMISTRY=(Mn_0.76_Ca_0.12_Fe_0.07_Mg_0.06_)Si_0.99_O_3_
112.362, 2174.443
112.844, 2304.015
113.326, 2433.951
113.808, 2565.242
114.290, 2698.813
114.772, 2832.189
115.254, 2965.911
115.736, 3099.005
116.218, 3230.696
116.701, 3370.159
117.183, 3500.551
117.665, 3616.574
118.147, 3717.715
118.629, 3802.906
119.111, 3865.298
119.593, 3911.476
120.075, 3950.612
120.558, 3986.801
121.040, 4017.734
121.522, 4041.093
122.004, 4055.676
122.486, 4065.289
122.968, 4076.561
123.450, 4086.027
123.932, 4083.729
124.414, 4046.595
124.897, 3998.328
125.379, 3972.095
125.861, 3977.029
126.343, 4004.365
126.825, 4045.228
127.307, 4099.715
127.789, 4168.618
128.271, 4252.238
128.753, 4350.401
129.236, 4461.605
129.718, 4584.049
130.200, 4719.735
130.682, 4876.979
131.164, 5055.803
131.646, 5245.217
132.128, 5427.458
132.610, 5602.953
133.093, 5797.492
133.575, 6036.822
134.057, 6311.641
134.539, 6560.951
135.021, 6784.309
135.503, 6982.582
135.985, 7164.758
136.467, 7338.375
136.949, 7455.032
137.432, 7486.958
137.914, 7431.376
138.396, 7323.938
138.878, 7165.409
139.360, 6958.668
139.842, 6706.450
140.324, 6398.290
140.806, 6071.763
141.288, 5746.713
141.771, 5411.527
142.253, 5106.803
142.735, 4843.005
143.217, 4616.620
143.699, 4409.173
144.181, 4216.050
144.663, 4044.629
145.145, 3896.224
145.628, 3771.124
146.110, 3670.750
146.592, 3600.149
147.074, 3562.996
147.556, 3529.359
148.038, 3490.104
148.520, 3457.660
149.002, 3448.864
149.484, 3478.965
149.967, 3516.784
150.449, 3554.244
150.931, 3589.206
151.413, 3629.140
151.895, 3677.581
152.377, 3731.331
152.859, 3782.126
153.342, 3817.689
153.824, 3860.381
154.306, 3919.312
154.788, 4010.995
155.270, 4096.740
155.752, 4168.457
156.234, 4230.354
156.716, 4298.332
157.198, 4374.712
157.680, 4458.306
158.163, 4547.624
158.645, 4665.062
159.127, 4765.670
159.609, 4836.234
160.091, 4878.114
160.573, 4905.294
161.055, 4922.148
161.538, 4925.725
162.020, 4913.012
162.502, 4876.955
162.984, 4828.872
163.466, 4772.267
163.948, 4707.098
164.430, 4635.044
164.912, 4548.042
165.394, 4457.229
165.876, 4377.278
166.359, 4327.178
166.841, 4281.167
167.323, 4221.294
167.805, 4144.480
168.287, 4065.159
168.769, 3993.587
169.251, 3927.072
169.733, 3859.548
170.216, 3785.164
170.698, 3710.218
171.180, 3639.387
171.662, 3571.849
172.144, 3512.558
172.626, 3464.459
173.108, 3427.436
173.590, 3399.634
174.072, 3380.028
174.555, 3369.145
175.037, 3368.706
175.519, 3382.512
176.001, 3400.765
176.483, 3411.374
176.965, 3415.896
177.447, 3422.692
177.929, 3442.300
178.412, 3467.892
178.894, 3486.462
179.376, 3493.761
179.858, 3493.161
180.340, 3488.447
180.822, 3479.644
181.304, 3467.605
181.786, 3451.743
182.268, 3432.996
182.751, 3414.130
183.233, 3395.790
183.715, 3378.064
184.197, 3363.590
184.679, 3352.679
185.161, 3338.550
185.643, 3314.654
186.125, 3281.717
186.607, 3241.026
187.090, 3190.938
187.572, 3133.876
188.054, 3074.854
188.536, 3013.662
189.018, 2953.945
189.500, 2902.150
189.982, 2858.377
190.464, 2815.316
190.947, 2769.004
191.429, 2720.258
191.911, 2676.206
192.393, 2636.513
192.875, 2602.861
193.357, 2579.105
193.839, 2565.811
194.321, 2554.587
194.803, 2543.064
195.286, 2531.056
195.768, 2512.514
196.250, 2484.730
196.732, 2454.440
197.214, 2434.413
197.696, 2425.566
198.178, 2421.232
198.661, 2419.138
199.143, 2419.423
199.625, 2416.879
200.107, 2409.771
200.589, 2400.788
201.071, 2396.786
201.553, 2398.192
202.035, 2402.850
202.517, 2409.554
202.999, 2418.283
203.482, 2428.738
203.964, 2440.117
204.446, 2453.394
204.928, 2472.590
205.410, 2498.518
205.892, 2527.869
206.374, 2558.195
206.857, 2589.635
207.339, 2621.187
207.821, 2651.005
208.303, 2680.572
208.785, 2720.497
209.267, 2775.126
209.749, 2831.477
210.231, 2878.475
210.713, 2914.439
211.195, 2948.903
211.678, 2982.809
212.160, 3016.619
212.642, 3054.758
213.124, 3102.342
213.606, 3146.687
214.088, 3173.775
214.570, 3178.731
215.052, 3182.098
215.535, 3189.108
216.017, 3199.713
216.499, 3202.251
216.981, 3192.973
217.463, 3180.377
217.945, 3175.625
218.427, 3185.699
218.909, 3185.404
219.391, 3164.621
219.874, 3121.164
220.356, 3090.595
220.838, 3077.586
221.320, 3072.838
221.802, 3064.933
222.284, 3051.087
222.766, 3040.303
223.248, 3035.000
223.731, 3035.411
224.213, 3040.084
224.695, 3050.138
225.177, 3063.697
225.659, 3078.621
226.141, 3095.432
226.623, 3112.369
227.105, 3126.140
227.587, 3132.668
228.070, 3158.240
228.552, 3210.912
229.034, 3276.893
229.516, 3333.787
229.998, 3377.959
230.480, 3419.133
230.962, 3459.550
231.444, 3498.119
231.926, 3539.146
232.409, 3580.771
232.891, 3625.409
233.373, 3678.287
233.855, 3741.520
234.337, 3809.300
234.819, 3880.486
235.301, 3957.030
235.783, 4033.367
236.266, 4111.503
236.748, 4188.523
237.230, 4257.514
237.712, 4312.444
238.194, 4370.471
238.676, 4440.218
239.158, 4532.210
239.640, 4604.790
240.122, 4649.194
240.605, 4678.029
241.087, 4717.246
241.569, 4771.924
242.051, 4830.418
242.533, 4888.922
243.015, 4950.633
243.497, 5004.220
243.980, 5045.779
244.462, 5080.523
244.944, 5120.417
245.426, 5167.574
245.908, 5216.295
246.390, 5263.699
246.872, 5305.843
247.354, 5356.453
247.836, 5424.150
248.318, 5496.476
248.801, 5541.189
249.283, 5542.272
249.765, 5541.022
250.247, 5556.424
250.729, 5599.191
251.211, 5629.934
251.693, 5641.912
252.176, 5644.508
252.658, 5661.068
253.140, 5699.010
253.622, 5739.271
254.104, 5771.961
254.586, 5787.396
255.068, 5822.802
255.550, 5886.101
256.032, 5966.026
256.514, 6032.937
256.997, 6077.127
257.479, 6126.182
257.961, 6193.433
258.443, 6285.301
258.925, 6379.254
259.407, 6478.599
259.889, 6578.964
260.371, 6673.335
260.854, 6763.427
261.336, 6843.767
261.818, 6914.284
262.300, 6977.484
262.782, 7019.943
263.264, 7040.328
263.746, 7040.337
264.228, 7024.087
264.711, 6992.306
265.193, 6941.956
265.675, 6868.580
266.157, 6768.394
266.639, 6661.373
267.121, 6546.257
267.603, 6428.197
268.085, 6318.751
268.567, 6223.003
269.050, 6124.578
269.532, 6012.295
270.014, 5880.532
270.496, 5768.870
270.978, 5683.021
271.460, 5615.077
271.942, 5550.126
272.424, 5488.513
272.906, 5430.567
273.389, 5379.996
273.871, 5340.092
274.353, 5279.844
274.835, 5191.022
275.317, 5093.730
275.799, 5027.562
276.281, 4999.448
276.763, 4969.851
277.246, 4917.318
277.728, 4840.380
278.210, 4775.510
278.692, 4727.404
279.174, 4684.580
279.656, 4625.345
280.138, 4547.870
280.620, 4469.146
281.103, 4393.055
281.585, 4319.805
282.067, 4261.396
282.549, 4219.663
283.031, 4188.265
283.513, 4157.809
283.995, 4128.228
284.477, 4101.959
284.959, 4078.034
285.441, 4057.307
285.924, 4047.095
286.406, 4047.579
286.888, 4058.222
287.370, 4078.646
287.852, 4108.827
288.334, 4147.205
288.816, 4190.167
289.298, 4239.991
289.781, 4311.604
290.263, 4407.229
290.745, 4513.183
291.227, 4610.021
291.709, 4700.786
292.191, 4799.922
292.673, 4918.367
293.155, 5049.206
293.638, 5172.808
294.120, 5287.334
294.602, 5401.951
295.084, 5527.197
295.566, 5660.620
296.048, 5794.153
296.530, 5929.118
297.012, 6062.507
297.494, 6188.104
297.977, 6307.229
298.459, 6415.256
298.941, 6508.271
299.423, 6588.006
299.905, 6655.871
300.387, 6714.051
300.869, 6760.311
301.351, 6790.654
301.833, 6805.393
302.316, 6810.741
302.798, 6806.183
303.280, 6796.124
303.762, 6789.709
304.244, 6801.310
304.726, 6805.456
305.208, 6765.923
305.690, 6688.585
306.173, 6611.032
306.655, 6568.019
307.137, 6537.882
307.619, 6491.313
308.101, 6411.056
308.583, 6325.666
309.065, 6260.418
309.547, 6210.887
310.030, 6161.403
310.512, 6103.211
310.994, 6040.758
311.476, 5976.896
311.958, 5907.231
312.440, 5845.814
312.922, 5792.444
313.404, 5752.206
313.886, 5738.517
314.369, 5771.024
314.851, 5824.256
315.333, 5880.644
315.815, 5938.709
316.297, 5996.855
316.779, 6045.395
317.261, 6093.564
317.743, 6160.666
318.225, 6260.256
318.708, 6375.621
319.190, 6499.419
319.672, 6634.799
320.154, 6768.236
320.636, 6889.846
321.118, 7008.574
321.600, 7137.924
322.082, 7311.010
322.565, 7469.560
323.047, 7589.989
323.529, 7666.648
324.011, 7726.438
324.493, 7770.928
324.975, 7800.909
325.457, 7817.314
325.939, 7805.054
326.422, 7794.085
326.904, 7798.036
327.386, 7823.230
327.868, 7818.461
328.350, 7746.228
328.832, 7664.530
329.314, 7623.196
329.796, 7657.603
330.278, 7686.973
330.760, 7696.138
331.243, 7686.032
331.725, 7689.531
332.207, 7718.337
332.689, 7749.492
333.171, 7766.415
333.653, 7765.525
334.135, 7758.348
334.617, 7747.346
335.100, 7731.273
335.582, 7703.769
336.064, 7663.902
336.546, 7615.015
337.028, 7559.001
337.510, 7496.826
337.992, 7426.003
338.474, 7346.333
338.957, 7257.393
339.439, 7153.522
339.921, 7030.237
340.403, 6910.157
340.885, 6806.027
341.367, 6717.307
341.849, 6639.323
342.331, 6574.680
342.813, 6514.244
343.296, 6439.451
343.778, 6350.139
344.260, 6263.792
344.742, 6184.908
345.224, 6114.604
345.706, 6070.761
346.188, 6058.258
346.670, 6049.674
347.152, 6007.329
347.635, 5936.331
348.117, 5867.753
348.599, 5817.249
349.081, 5775.664
349.563, 5724.914
350.045, 5665.064
350.527, 5596.580
351.009, 5515.163
351.491, 5426.192
351.974, 5343.481
352.456, 5270.862
352.938, 5205.434
353.420, 5144.517
353.902, 5088.022
354.384, 5033.499
354.866, 4973.379
355.349, 4917.068
355.831, 4877.269
356.313, 4863.336
356.795, 4855.682
357.277, 4843.958
357.759, 4827.467
358.241, 4804.207
358.723, 4758.438
359.205, 4714.645
359.688, 4695.935
360.170, 4716.369
360.652, 4729.033
361.134, 4705.942
361.616, 4661.460
362.098, 4619.902
362.580, 4587.943
363.062, 4561.968
363.544, 4542.726
364.027, 4532.264
364.509, 4515.693
364.991, 4488.711
365.473, 4453.930
365.955, 4414.567
366.437, 4368.553
366.919, 4320.175
367.401, 4270.135
367.884, 4218.240
368.366, 4166.919
368.848, 4114.797
369.330, 4064.402
369.812, 4016.846
370.294, 3972.141
370.776, 3930.160
371.258, 3893.381
371.741, 3860.024
372.223, 3823.617
372.705, 3784.414
373.187, 3741.639
373.669, 3691.691
374.151, 3625.659
374.633, 3579.342
375.115, 3560.451
375.597, 3555.965
376.079, 3535.898
376.562, 3494.025
377.044, 3458.536
377.526, 3445.267
378.008, 3454.816
378.490, 3451.607
378.972, 3430.457
379.454, 3410.042
379.936, 3417.496
380.419, 3452.203
380.901, 3485.731
381.383, 3506.780
381.865, 3520.467
382.347, 3540.403
382.829, 3566.776
383.311, 3600.888
383.793, 3647.497
384.276, 3703.129
384.758, 3758.649
385.240, 3812.658
385.722, 3863.483
386.204, 3910.327
386.686, 3952.811
387.168, 3989.032
387.650, 4016.522
388.132, 4038.099
388.615, 4061.435
389.097, 4093.241
389.579, 4107.994
390.061, 4076.040
390.543, 4012.659
391.025, 3948.723
391.507, 3903.871
391.989, 3859.133
392.471, 3803.818
392.954, 3736.681
393.436, 3659.625
393.918, 3569.657
394.400, 3471.868
394.882, 3371.156
395.364, 3257.992
395.846, 3155.041
396.328, 3067.963
396.810, 2996.866
397.293, 2935.605
397.775, 2889.500
398.257, 2848.594
398.739, 2807.008
399.221, 2761.146
399.703, 2719.055
400.185, 2678.894
400.668, 2642.521
401.150, 2615.282
401.632, 2601.532
402.114, 2591.097
402.596, 2580.758
403.078, 2570.674
403.560, 2559.291
404.042, 2543.830
404.524, 2530.087
405.007, 2527.352
405.489, 2538.852
405.971, 2548.222
406.453, 2548.156
406.935, 2541.154
407.417, 2550.176
407.899, 2578.390
408.381, 2607.341
408.863, 2617.589
409.346, 2610.977
409.828, 2610.031
410.310, 2620.086
410.792, 2635.804
411.274, 2647.504
411.756, 2655.462
412.238, 2662.435
412.720, 2668.985
413.203, 2675.927
413.685, 2684.957
414.167, 2696.339
414.649, 2709.539
415.131, 2724.364
415.613, 2740.674
416.095, 2757.810
416.577, 2780.507
417.060, 2800.490
417.542, 2808.323
418.024, 2804.366
418.506, 2802.945
418.988, 2815.800
419.470, 2832.972
419.952, 2844.958
420.434, 2842.031
420.916, 2842.467
421.398, 2852.891
421.881, 2871.446
422.363, 2892.238
422.845, 2924.362
423.327, 2949.990
423.809, 2956.988
424.291, 2924.494
424.773, 2920.313
425.255, 2965.381
425.738, 3032.311
426.220, 3084.605
426.702, 3105.976
427.184, 3136.255
427.666, 3184.617
428.148, 3250.895
428.630, 3327.349
429.112, 3418.352
429.595, 3511.747
430.077, 3594.430
430.559, 3663.232
431.041, 3740.772
431.523, 3833.107
432.005, 3934.565
432.487, 4033.830
432.969, 4131.136
433.451, 4222.490
433.934, 4303.206
434.416, 4375.441
434.898, 4455.049
435.380, 4546.831
435.862, 4624.016
436.344, 4655.742
436.826, 4647.388
437.308, 4615.000
437.790, 4555.396
438.273, 4481.033
438.755, 4406.310
439.237, 4330.822
439.719, 4253.851
440.201, 4184.660
440.683, 4109.348
441.165, 4009.384
441.647, 3863.899
442.129, 3725.133
442.612, 3623.292
443.094, 3549.026
443.576, 3481.592
444.058, 3418.731
444.540, 3357.498
445.022, 3293.407
445.504, 3222.553
445.987, 3167.990
446.469, 3139.991
446.951, 3125.960
447.433, 3113.692
447.915, 3099.166
448.397, 3092.007
448.879, 3096.694
449.361, 3110.741
449.843, 3117.777
450.326, 3110.925
450.808, 3108.755
451.290, 3125.240
451.772, 3167.796
452.254, 3189.658
452.736, 3183.584
453.218, 3166.549
453.700, 3167.257
454.182, 3186.638
454.665, 3202.538
455.147, 3204.921
455.629, 3198.061
456.111, 3193.913
456.593, 3192.438
457.075, 3196.006
457.557, 3181.197
458.039, 3177.394
458.522, 3182.646
459.004, 3185.701
459.486, 3186.675
459.968, 3179.339
460.450, 3182.734
460.932, 3181.829
461.414, 3180.747
461.896, 3185.652
462.379, 3179.525
462.861, 3183.748
463.343, 3165.518
463.825, 3133.216
464.307, 3098.284
464.789, 3072.135
465.271, 3056.727
465.753, 3050.790
466.235, 3060.770
466.717, 3082.529
467.200, 3094.631
467.682, 3079.131
468.164, 3069.137
468.646, 3078.985
469.128, 3117.766
469.610, 3152.493
470.092, 3184.236
470.574, 3210.960
471.057, 3228.466
471.539, 3234.639
472.021, 3240.303
472.503, 3251.411
472.985, 3264.175
473.467, 3256.178
473.949, 3225.230
474.431, 3188.656
474.914, 3162.568
475.396, 3143.294
475.878, 3112.381
476.360, 3065.541
476.842, 3013.458
477.324, 2970.483
477.806, 2933.773
478.288, 2895.020
478.770, 2841.496
479.253, 2789.046
479.735, 2757.389
480.217, 2745.843
480.699, 2734.924
481.181, 2705.267
481.663, 2674.444
482.145, 2659.633
482.627, 2677.157
483.109, 2691.943
483.592, 2687.191
484.074, 2671.514
484.556, 2664.579
485.038, 2671.388
485.520, 2685.774
486.002, 2708.011
486.484, 2738.941
486.966, 2766.854
487.448, 2787.334
487.931, 2808.974
488.413, 2837.617
488.895, 2871.553
489.377, 2919.523
489.859, 2987.384
490.341, 3066.738
490.823, 3130.220
491.306, 3175.136
491.788, 3223.723
492.270, 3294.103
492.752, 3380.357
493.234, 3445.888
493.716, 3489.171
494.198, 3518.167
494.680, 3540.623
495.162, 3554.664
495.645, 3554.055
496.127, 3533.898
496.609, 3502.640
497.091, 3468.322
497.573, 3429.951
498.055, 3383.854
498.537, 3318.306
499.019, 3251.357
499.501, 3196.108
499.984, 3156.321
500.466, 3117.623
500.948, 3064.818
501.430, 3015.756
501.912, 2987.755
502.394, 3011.006
502.876, 3025.219
503.358, 3013.514
503.841, 2984.191
504.323, 2972.577
504.805, 2982.723
505.287, 3004.914
505.769, 3038.274
506.251, 3085.791
506.733, 3123.071
507.215, 3147.855
507.698, 3167.272
508.180, 3192.375
508.662, 3223.269
509.144, 3245.501
509.626, 3257.568
510.108, 3256.954
510.590, 3231.474
511.072, 3183.726
511.554, 3136.710
512.036, 3109.829
512.519, 3091.321
513.001, 3062.270
513.483, 3019.826
513.965, 2976.290
514.447, 2944.637
514.929, 2915.715
515.411, 2877.710
515.893, 2819.491
516.375, 2758.487
516.858, 2698.742
517.340, 2640.761
517.822, 2587.955
518.304, 2537.487
518.786, 2494.742
519.268, 2464.345
519.750, 2451.495
520.232, 2432.211
520.715, 2404.644
521.197, 2372.255
521.679, 2337.011
522.161, 2296.269
522.643, 2261.715
523.125, 2234.138
523.607, 2214.348
524.089, 2209.028
524.571, 2219.642
525.054, 2226.001
525.536, 2212.176
526.018, 2184.608
526.500, 2166.285
526.982, 2158.044
527.464, 2154.076
527.946, 2145.231
528.429, 2137.396
528.911, 2142.776
529.393, 2174.510
529.875, 2205.983
530.357, 2213.943
530.839, 2206.207
531.321, 2202.176
531.803, 2211.246
532.286, 2224.468
532.768, 2238.662
533.250, 2254.240
533.732, 2266.822
534.214, 2267.570
534.696, 2270.816
535.178, 2287.226
535.660, 2323.772
536.142, 2360.756
536.625, 2397.982
537.107, 2434.921
537.589, 2469.964
538.071, 2502.138
538.553, 2536.612
539.035, 2575.339
539.517, 2618.162
539.999, 2667.438
540.481, 2724.316
540.964, 2777.557
541.446, 2815.656
541.928, 2842.978
542.410, 2872.056
542.892, 2907.673
543.374, 2935.899
543.856, 2939.372
544.338, 2926.284
544.820, 2912.899
545.303, 2917.603
545.785, 2913.823
546.267, 2882.413
546.749, 2826.106
547.231, 2772.419
547.713, 2727.444
548.195, 2688.302
548.677, 2652.647
549.159, 2615.030
549.642, 2593.769
550.124, 2597.968
550.606, 2611.366
551.088, 2611.782
551.570, 2590.705
552.052, 2583.870
552.534, 2601.060
553.016, 2636.203
553.499, 2671.006
553.981, 2705.536
554.463, 2735.361
554.945, 2754.435
555.427, 2766.910
555.909, 2786.922
556.391, 2815.704
556.873, 2840.030
557.356, 2846.927
557.838, 2841.894
558.320, 2832.562
558.802, 2820.001
559.284, 2805.625
559.766, 2787.203
560.248, 2767.681
560.730, 2753.334
561.213, 2750.209
561.695, 2749.053
562.177, 2745.122
562.659, 2737.573
563.141, 2738.741
563.623, 2755.618
564.105, 2773.806
564.587, 2782.241
565.069, 2774.204
565.552, 2780.428
566.034, 2803.530
566.516, 2838.415
566.998, 2881.942
567.480, 2933.559
567.962, 2977.335
568.444, 3003.772
568.926, 3022.592
569.408, 3054.564
569.891, 3097.827
570.373, 3137.932
570.855, 3168.812
571.337, 3190.448
571.819, 3204.758
572.301, 3212.434
572.783, 3205.994
573.265, 3177.649
573.747, 3135.069
574.230, 3086.097
574.712, 3024.244
575.194, 2965.149
575.676, 2916.026
576.158, 2870.693
576.640, 2814.682
577.122, 2737.199
577.604, 2668.652
578.086, 2621.375
578.569, 2593.856
579.051, 2557.696
579.533, 2511.014
580.015, 2463.597
580.497, 2422.741
580.979, 2387.739
581.461, 2352.254
581.943, 2314.237
582.426, 2283.034
582.908, 2276.971
583.390, 2285.275
583.872, 2283.104
584.354, 2251.047
584.836, 2217.156
585.318, 2202.646
585.800, 2203.035
586.282, 2204.383
586.765, 2206.813
587.247, 2204.247
587.729, 2190.231
588.211, 2160.771
588.693, 2143.904
589.175, 2150.163
589.657, 2160.214
590.140, 2160.276
590.622, 2145.733
591.104, 2135.557
591.586, 2131.502
592.068, 2131.136
592.550, 2130.743
593.032, 2130.338
593.514, 2130.313
593.996, 2129.540
594.479, 2130.324
594.961, 2141.315
595.443, 2160.149
595.925, 2172.310
596.407, 2161.766
596.889, 2143.930
597.371, 2131.663
597.853, 2125.934
598.335, 2129.490
598.818, 2154.639
599.300, 2183.594
599.782, 2201.538
600.264, 2196.133
600.746, 2192.038
601.228, 2190.601
601.710, 2191.402
602.192, 2193.686
602.674, 2197.271
603.157, 2202.930
603.639, 2211.710
604.121, 2222.547
604.603, 2230.111
605.085, 2234.018
605.567, 2238.664
606.049, 2248.060
606.531, 2260.262
607.013, 2269.148
607.496, 2274.267
607.978, 2279.719
608.460, 2293.948
608.942, 2308.739
609.424, 2312.316
609.906, 2293.431
610.388, 2278.051
610.870, 2276.468
611.353, 2286.193
611.835, 2302.812
612.317, 2337.225
612.799, 2365.508
613.281, 2381.302
613.763, 2386.340
614.245, 2392.591
614.727, 2401.729
615.209, 2408.372
615.692, 2406.081
616.174, 2395.278
616.656, 2400.757
617.138, 2424.554
617.620, 2452.544
618.102, 2468.968
618.584, 2478.710
619.067, 2495.317
619.549, 2523.875
620.031, 2552.605
620.513, 2568.596
620.995, 2577.926
621.477, 2590.777
621.959, 2617.708
622.441, 2642.085
622.923, 2655.171
623.406, 2658.993
623.888, 2666.419
624.370, 2679.939
624.852, 2695.523
625.334, 2710.557
625.816, 2724.302
626.298, 2748.709
626.780, 2786.884
627.263, 2827.959
627.745, 2863.164
628.227, 2892.890
628.709, 2918.208
629.191, 2938.207
629.673, 2958.131
630.155, 2984.129
630.637, 3015.049
631.119, 3047.845
631.602, 3082.912
632.084, 3118.207
632.566, 3152.351
633.048, 3185.498
633.530, 3218.908
634.012, 3241.180
634.494, 3275.031
634.976, 3339.346
635.458, 3434.289
635.941, 3500.352
636.423, 3515.051
636.905, 3532.807
637.387, 3589.021
637.869, 3690.494
638.351, 3776.545
638.833, 3843.247
639.315, 3903.554
639.797, 3968.803
640.280, 4039.446
640.762, 4119.588
641.244, 4210.542
641.726, 4310.766
642.208, 4420.525
642.690, 4538.497
643.172, 4666.378
643.654, 4810.482
644.137, 4959.054
644.619, 5103.853
645.101, 5246.980
645.583, 5408.999
646.065, 5600.628
646.547, 5804.259
647.029, 6009.125
647.511, 6216.707
647.994, 6437.271
648.476, 6664.604
648.958, 6919.023
649.440, 7216.003
649.922, 7555.906
650.404, 7915.104
650.886, 8284.609
651.368, 8682.814
651.851, 9120.846
652.333, 9595.978
652.815, 10110.700
653.297, 10661.700
653.779, 11251.510
654.261, 11880.330
654.743, 12549.210
655.225, 13260.400
655.707, 14028.490
656.190, 14821.240
656.672, 15617.860
657.154, 16425.029
657.636, 17353.109
658.118, 18489.789
658.600, 19577.051
659.082, 20466.740
659.564, 21172.859
660.046, 21979.420
660.529, 22897.170
661.011, 23828.080
661.493, 24665.311
661.975, 25454.561
662.457, 26287.029
662.939, 27185.439
663.421, 28111.369
663.903, 29019.711
664.385, 29944.250
664.868, 30928.320
665.350, 32061.090
665.832, 33174.230
666.314, 34281.461
666.796, 35329.898
667.278, 36201.531
667.760, 36936.230
668.242, 37425.211
668.724, 37648.578
669.207, 37599.949
669.689, 37225.809
670.171, 36520.660
670.653, 35562.449
671.135, 34324.301
671.617, 32881.699
672.099, 31357.080
672.581, 29756.820
673.064, 28163.580
673.546, 26603.131
674.028, 25123.891
674.510, 23759.369
674.992, 22512.869
675.474, 21386.029
675.956, 20377.240
676.438, 19477.840
676.920, 18697.301
677.403, 18133.980
677.885, 17487.090
678.367, 16704.000
678.849, 15860.060
679.331, 15111.300
679.813, 14456.630
680.295, 13812.620
680.778, 13141.460
681.260, 12465.680
681.742, 11853.930
682.224, 11291.080
682.706, 10751.190
683.188, 10206.980
683.670, 9680.641
684.152, 9188.988
684.634, 8728.377
685.117, 8297.604
685.599, 7895.561
686.081, 7525.253
686.563, 7183.359
687.045, 6867.915
687.527, 6599.175
688.009, 6390.880
688.491, 6204.363
688.973, 6003.469
689.456, 5787.508
689.938, 5598.666
690.420, 5442.599
690.902, 5306.052
691.384, 5172.669
691.866, 5045.096
692.348, 4927.902
692.830, 4820.490
693.312, 4727.076
693.795, 4661.876
694.277, 4610.898
694.759, 4548.989
695.241, 4451.730
695.723, 4362.147
696.205, 4292.237
696.687, 4237.841
697.169, 4183.016
697.652, 4122.977
698.134, 4074.350
698.616, 4048.698
699.098, 4040.170
699.580, 4013.667
700.062, 3969.197
700.544, 3925.484
701.026, 3889.715
701.508, 3866.030
701.991, 3866.731
702.473, 3892.901
702.955, 3916.929
703.437, 3918.979
703.919, 3914.415
704.401, 3914.850
704.883, 3921.612
705.365, 3934.722
705.847, 3955.261
706.330, 3980.665
706.812, 4008.489
707.294, 4038.418
707.776, 4073.035
708.258, 4114.459
708.740, 4156.289
709.222, 4188.966
709.705, 4213.611
710.187, 4234.490
710.669, 4251.789
711.151, 4268.190
711.633, 4287.600
712.115, 4308.304
712.597, 4326.271
713.079, 4340.326
713.561, 4351.180
714.044, 4358.107
714.526, 4361.571
715.008, 4366.047
715.490, 4375.359
715.972, 4379.214
716.454, 4372.643
716.936, 4356.388
717.418, 4341.124
717.901, 4327.024
718.383, 4309.789
718.865, 4286.651
719.347, 4258.015
719.829, 4224.621
720.311, 4187.103
720.793, 4142.124
721.275, 4064.119
721.757, 3992.683
722.240, 3931.439
722.722, 3881.308
723.204, 3828.487
723.686, 3773.092
724.168, 3707.516
724.650, 3655.113
725.132, 3597.427
725.614, 3539.516
726.096, 3486.056
726.579, 3402.762
727.061, 3356.424
727.543, 3340.808
728.025, 3325.583
728.507, 3302.488
728.989, 3275.989
729.471, 3247.839
729.953, 3219.849
730.435, 3196.209
730.918, 3177.451
731.400, 3164.397
731.882, 3159.061
732.364, 3160.138
732.846, 3163.469
733.328, 3173.914
733.810, 3176.248
734.292, 3159.406
734.775, 3131.297
735.257, 3136.136
735.739, 3174.119
736.221, 3210.959
736.703, 3228.579
737.185, 3231.071
737.667, 3220.300
738.149, 3197.760
738.631, 3177.244
739.114, 3170.345
739.596, 3165.385
740.078, 3156.060
740.560, 3142.538
741.042, 3119.326
741.524, 3078.316
742.006, 3037.163
742.489, 3008.592
742.971, 2995.631
743.453, 2968.043
743.935, 2919.976
744.417, 2880.430
744.899, 2842.415
745.381, 2810.230
745.863, 2776.642
746.345, 2741.708
746.828, 2701.414
747.310, 2668.046
747.792, 2631.899
748.274, 2597.117
748.756, 2571.596
749.238, 2554.566
749.720, 2542.740
750.202, 2531.729
750.684, 2515.083
751.167, 2492.330
751.649, 2466.797
752.131, 2436.633
752.613, 2408.206
753.095, 2395.901
753.577, 2396.351
754.059, 2393.287
754.541, 2372.833
755.023, 2355.381
755.506, 2365.868
755.988, 2393.661
756.470, 2412.279
756.952, 2402.335
757.434, 2393.352
757.916, 2400.119
758.398, 2416.181
758.880, 2412.024
759.362, 2380.401
759.845, 2349.201
760.327, 2326.685
760.809, 2313.294
761.291, 2313.487
761.773, 2326.343
762.255, 2339.378
762.737, 2347.368
763.219, 2350.234
763.702, 2346.757
764.184, 2337.309
764.666, 2325.949
765.148, 2307.051
765.630, 2292.765
766.112, 2292.380
766.594, 2307.646
767.076, 2313.867
767.558, 2307.885
768.041, 2299.704
768.523, 2295.727
769.005, 2295.501
769.487, 2295.349
769.969, 2294.993
770.451, 2296.972
770.933, 2307.595
771.416, 2319.656
771.898, 2322.941
772.380, 2313.704
772.862, 2307.910
773.344, 2317.653
773.826, 2329.426
774.308, 2332.294
774.790, 2322.980
775.272, 2303.061
775.755, 2296.368
776.237, 2303.085
776.719, 2306.547
777.201, 2306.929
777.683, 2295.004
778.165, 2298.971
778.647, 2296.569
779.129, 2293.906
779.612, 2296.602
780.094, 2294.551
780.576, 2278.151
781.058, 2268.635
781.540, 2282.204
782.022, 2302.338
782.504, 2305.866
782.986, 2279.314
783.468, 2270.800
783.951, 2292.657
784.433, 2323.939
784.915, 2323.993
785.397, 2297.955
785.879, 2283.027
786.361, 2294.604
786.843, 2311.069
787.325, 2307.102
787.807, 2292.343
788.290, 2284.886
788.772, 2300.533
789.254, 2313.405
789.736, 2314.213
790.218, 2308.159
790.700, 2305.880
791.182, 2309.094
791.664, 2310.188
792.146, 2304.855
792.629, 2299.029
793.111, 2311.592
793.593, 2338.397
794.075, 2356.609
794.557, 2349.182
795.039, 2336.007
795.521, 2333.928
796.003, 2340.372
796.485, 2348.115
796.968, 2358.968
797.450, 2366.178
797.932, 2367.687
798.414, 2364.387
798.896, 2357.975
799.378, 2346.719
799.860, 2340.843
800.343, 2348.080
800.825, 2360.694
801.307, 2354.595
801.789, 2334.654
802.271, 2323.921
802.753, 2346.673
803.235, 2373.832
803.717, 2383.764
804.199, 2378.684
804.682, 2374.345
805.164, 2376.485
805.646, 2376.916
806.128, 2372.672
806.610, 2364.598
807.092, 2356.710
807.574, 2348.160
808.056, 2347.478
808.539, 2368.215
809.021, 2396.254
809.503, 2399.224
809.985, 2381.588
810.467, 2367.849
810.949, 2367.907
811.431, 2359.059
811.913, 2373.333
812.395, 2381.994
812.878, 2385.344
813.360, 2367.476
813.842, 2377.007
814.324, 2375.558
814.806, 2373.658
815.288, 2380.999
815.770, 2371.906
816.252, 2372.995
816.734, 2379.605
817.217, 2386.814
817.699, 2388.617
818.181, 2385.057
818.663, 2378.468
819.145, 2364.952
819.627, 2353.179
820.109, 2346.005
820.591, 2343.401
821.073, 2352.105
821.556, 2377.892
822.038, 2399.145
822.520, 2403.744
823.002, 2393.917
823.484, 2372.615
823.966, 2341.720
824.448, 2320.748
824.930, 2331.225
825.413, 2351.715
825.895, 2364.861
826.377, 2369.728
826.859, 2373.503
827.341, 2374.835
827.823, 2378.365
828.305, 2386.958
828.787, 2400.248
829.269, 2409.513
829.752, 2414.595
830.234, 2416.178
830.716, 2415.384
831.198, 2411.126
831.680, 2396.229
832.162, 2372.929
832.644, 2359.571
833.127, 2374.388
833.609, 2395.568
834.091, 2414.636
834.573, 2430.710
835.055, 2429.982
835.537, 2401.422
836.019, 2377.637
836.501, 2376.369
836.983, 2393.577
837.466, 2406.014
837.948, 2413.718
838.430, 2418.688
838.912, 2420.162
839.394, 2421.083
839.876, 2426.112
840.358, 2434.562
840.840, 2438.357
841.322, 2428.960
841.805, 2420.576
842.287, 2419.176
842.769, 2424.140
843.251, 2427.432
843.733, 2428.900
844.215, 2429.525
844.697, 2429.395
845.179, 2428.919
845.661, 2429.296
846.144, 2430.285
846.626, 2430.657
847.108, 2427.333
847.590, 2425.342
848.072, 2426.802
848.554, 2432.055
849.036, 2442.538
849.518, 2463.085
850.000, 2479.270
850.483, 2483.993
850.965, 2480.795
851.447, 2486.738
851.929, 2500.357
852.411, 2506.445
852.893, 2487.087
853.375, 2463.369
853.857, 2457.433
854.340, 2465.451
854.822, 2472.971
855.304, 2477.892
855.786, 2479.008
856.268, 2474.322
856.750, 2465.874
857.232, 2460.870
857.714, 2458.963
858.196, 2464.354
858.679, 2482.962
859.161, 2505.120
859.643, 2511.044
860.125, 2506.069
860.607, 2505.575
861.089, 2519.161
861.571, 2536.044
862.054, 2556.861
862.536, 2577.137
863.018, 2583.460
863.500, 2567.680
863.982, 2558.879
864.464, 2563.992
864.946, 2578.921
865.428, 2598.410
865.910, 2620.666
866.393, 2638.146
866.875, 2643.964
867.357, 2649.828
867.839, 2667.701
868.321, 2691.052
868.803, 2708.442
869.285, 2713.535
869.767, 2717.130
870.250, 2716.700
870.732, 2718.445
871.214, 2736.328
871.696, 2769.408
872.178, 2794.537
872.660, 2804.334
873.142, 2810.912
873.624, 2826.865
874.106, 2848.559
874.589, 2871.365
875.071, 2897.858
875.553, 2918.217
876.035, 2920.588
876.517, 2921.911
876.999, 2932.571
877.481, 2946.546
877.963, 2950.067
878.445, 2964.033
878.928, 2975.466
879.410, 2984.498
879.892, 2983.943
880.374, 2995.767
880.856, 3002.631
881.338, 3011.949
881.820, 3010.499
882.302, 3040.189
882.784, 3042.161
883.267, 3007.250
883.749, 2970.333
884.231, 2927.112
884.713, 2894.653
885.195, 2892.376
885.677, 2911.898
886.159, 2928.495
886.641, 2940.609
887.123, 2947.565
887.606, 2942.263
888.088, 2936.714
888.570, 2921.583
889.052, 2918.143
889.534, 2932.281
890.016, 2942.151
890.498, 2947.986
890.981, 2937.688
891.463, 2948.220
891.945, 2950.405
892.427, 2952.247
892.909, 2965.711
893.391, 2965.508
893.873, 2972.899
894.355, 2996.352
894.837, 3028.390
895.320, 3048.103
895.802, 3044.281
896.284, 3035.846
896.766, 3021.902
897.248, 3008.591
897.730, 3022.250
898.212, 3061.769
898.694, 3099.314
899.177, 3125.085
899.659, 3140.184
900.141, 3138.051
900.623, 3126.586
901.105, 3122.681
901.587, 3134.647
902.069, 3151.746
902.551, 3173.304
903.033, 3197.685
903.516, 3221.651
903.998, 3244.881
904.480, 3272.000
904.962, 3304.127
905.444, 3338.909
905.926, 3377.085
906.408, 3415.316
906.890, 3446.107
907.372, 3460.311
907.855, 3484.654
908.337, 3539.470
908.819, 3599.299
909.301, 3641.921
909.783, 3664.380
910.265, 3687.124
910.747, 3711.243
911.229, 3732.900
911.711, 3745.630
912.194, 3754.213
912.676, 3768.981
913.158, 3791.715
913.640, 3807.750
914.122, 3802.494
914.604, 3795.039
915.086, 3799.096
915.568, 3815.802
916.050, 3815.814
916.533, 3795.412
917.015, 3776.708
917.497, 3779.471
917.979, 3791.283
918.461, 3784.263
918.943, 3761.422
919.425, 3738.697
919.907, 3721.176
920.390, 3708.749
920.872, 3701.332
921.354, 3698.953
921.836, 3705.336
922.318, 3726.380
922.800, 3730.924
923.282, 3703.168
923.765, 3662.848
924.247, 3638.220
924.729, 3630.817
925.211, 3645.974
925.693, 3702.560
926.175, 3758.136
926.657, 3795.288
927.139, 3819.816
927.621, 3839.687
928.104, 3850.396
928.586, 3871.943
929.068, 3907.752
929.550, 3949.778
930.032, 3990.536
930.514, 4029.836
930.996, 4065.680
931.478, 4095.580
931.960, 4135.570
932.443, 4192.896
932.925, 4265.231
933.407, 4352.903
933.889, 4460.353
934.371, 4559.419
934.853, 4654.209
935.335, 4728.598
935.817, 4761.776
936.299, 4769.335
936.782, 4787.268
937.264, 4815.864
937.746, 4852.374
938.228, 4919.972
938.710, 4970.717
939.192, 4972.153
939.674, 4932.957
940.156, 4898.428
940.638, 4871.531
941.121, 4837.543
941.603, 4790.706
942.085, 4735.719
942.567, 4680.375
943.049, 4625.048
943.531, 4570.877
944.013, 4516.630
944.495, 4464.887
944.978, 4405.980
945.460, 4355.160
945.942, 4335.266
946.424, 4357.413
946.906, 4366.025
947.388, 4352.558
947.870, 4338.219
948.352, 4353.787
948.834, 4384.592
949.317, 4396.894
949.799, 4381.359
950.281, 4386.234
950.763, 4450.914
951.245, 4528.580
951.727, 4586.209
952.209, 4620.831
952.692, 4682.488
953.174, 4774.119
953.656, 4872.382
954.138, 4961.472
954.620, 5048.055
955.102, 5146.371
955.584, 5252.667
956.066, 5354.368
956.548, 5410.580
957.031, 5503.369
957.513, 5671.622
957.995, 5889.677
958.477, 6095.755
958.959, 6288.801
959.441, 6490.645
959.923, 6701.702
960.405, 6935.207
960.888, 7214.839
961.370, 7526.639
961.852, 7842.355
962.334, 8144.436
962.816, 8477.522
963.298, 8833.545
963.780, 9230.519
964.262, 9694.728
964.744, 10224.490
965.227, 10741.440
965.709, 11242.730
966.191, 11761.310
966.673, 12325.680
967.155, 12920.770
967.637, 13542.730
968.119, 14185.460
968.601, 14840.990
969.083, 15507.640
969.566, 16180.680
970.048, 16855.391
970.530, 17535.801
971.012, 18206.359
971.494, 18870.930
971.976, 19492.840
972.458, 20090.240
972.940, 20606.980
973.422, 21001.939
973.905, 21288.320
974.387, 21473.881
974.869, 21569.721
975.351, 21556.131
975.833, 21422.641
976.315, 21195.289
976.797, 20879.971
977.279, 20492.131
977.761, 20080.359
978.244, 19645.850
978.726, 19250.391
979.208, 18925.811
979.690, 18668.811
980.172, 18481.881
980.654, 18361.750
981.136, 18306.811
981.619, 18326.311
982.101, 18378.539
982.583, 18433.609
983.065, 18511.650
983.547, 18668.051
984.029, 18888.980
984.511, 19124.539
984.993, 19343.199
985.475, 19586.311
985.958, 19881.430
986.440, 20209.381
986.922, 20537.510
987.404, 20861.750
987.886, 21218.770
988.368, 21617.109
988.850, 22044.820
989.332, 22492.961
989.815, 22960.141
990.297, 23443.660
990.779, 23944.920
991.261, 24452.430
991.743, 24940.539
992.225, 25461.590
992.707, 26055.320
993.189, 26707.750
993.671, 27354.260
994.154, 27997.510
994.636, 28690.330
995.118, 29534.189
995.600, 30382.381
996.082, 31136.631
996.564, 31800.090
997.046, 32399.020
997.528, 32976.551
998.010, 33439.762
998.493, 33781.031
998.975, 33981.648
999.457, 34005.680
999.939, 33858.309
1000.421, 33559.969
1000.903, 33109.238
1001.385, 32522.240
1001.867, 31780.400
1002.349, 30919.301
1002.832, 29938.551
1003.314, 28834.711
1003.796, 27734.801
1004.278, 26659.100
1004.760, 25575.080
1005.242, 24451.449
1005.724, 23324.789
1006.206, 22284.330
1006.689, 21312.340
1007.171, 20375.311
1007.653, 19446.961
1008.135, 18552.961
1008.617, 17691.480
1009.099, 16858.340
1009.581, 16056.820
1010.063, 15290.360
1010.545, 14575.930
1011.028, 13922.990
1011.510, 13311.930
1011.992, 12705.960
1012.474, 12124.350
1012.956, 11587.040
1013.438, 11106.560
1013.920, 10646.210
1014.402, 10203.480
1014.885, 9787.519
1015.367, 9398.723
1015.849, 9044.411
1016.331, 8738.678
1016.813, 8477.887
1017.295, 8234.832
1017.777, 7992.905
1018.259, 7767.440
1018.741, 7567.539
1019.224, 7390.521
1019.706, 7225.258
1020.188, 7070.363
1020.670, 6937.342
1021.152, 6830.952
1021.634, 6735.588
1022.116, 6628.641
1022.598, 6522.463
1023.081, 6435.368
1023.563, 6373.283
1024.045, 6312.390
1024.527, 6247.817
1025.009, 6181.503
1025.491, 6108.122
1025.973, 6032.560
1026.455, 5999.035
1026.938, 6002.827
1027.420, 5996.100
1027.902, 5948.508
1028.384, 5885.557
1028.866, 5810.515
1029.348, 5735.910
1029.830, 5688.000
1030.312, 5679.231
1030.794, 5665.485
1031.276, 5641.829
1031.759, 5615.534
1032.241, 5598.100
1032.723, 5583.619
1033.205, 5558.361
1033.687, 5520.019
1034.169, 5484.779
1034.651, 5446.009
1035.133, 5427.731
1035.616, 5447.842
1036.098, 5497.440
1036.580, 5521.780
1037.062, 5521.274
1037.544, 5517.609
1038.026, 5516.336
1038.508, 5520.743
1038.990, 5537.068
1039.473, 5559.991
1039.955, 5580.555
1040.437, 5589.510
1040.919, 5610.136
1041.401, 5641.602
1041.883, 5687.827
1042.365, 5759.860
1042.847, 5848.481
1043.329, 5926.144
1043.812, 5992.252
1044.294, 6064.815
1044.776, 6154.972
1045.258, 6251.264
1045.740, 6357.810
1046.222, 6466.174
1046.704, 6548.605
1047.186, 6605.514
1047.668, 6651.781
1048.151, 6693.156
1048.633, 6721.572
1049.115, 6740.587
1049.597, 6736.781
1050.079, 6689.219
1050.561, 6568.486
1051.043, 6471.375
1051.525, 6411.219
1052.008, 6347.134
1052.490, 6247.578
1052.972, 6122.921
1053.454, 5999.906
1053.936, 5878.148
1054.418, 5755.276
1054.900, 5618.145
1055.382, 5493.315
1055.865, 5394.488
1056.347, 5312.302
1056.829, 5230.977
1057.311, 5150.251
1057.793, 5077.925
1058.275, 5016.628
1058.757, 4954.625
1059.239, 4873.347
1059.721, 4790.474
1060.203, 4724.209
1060.686, 4679.569
1061.168, 4631.501
1061.650, 4573.351
1062.132, 4528.611
1062.614, 4489.544
1063.096, 4468.435
1063.578, 4442.959
1064.060, 4413.361
1064.543, 4367.235
1065.025, 4342.435
1065.507, 4309.119
1065.989, 4275.445
1066.471, 4253.646
1066.953, 4209.971
1067.435, 4187.977
1067.917, 4157.336
1068.400, 4130.585
1068.882, 4095.328
1069.364, 4062.484
1069.846, 4045.868
1070.328, 4019.426
1070.810, 3984.460
1071.292, 3957.239
1071.774, 3939.789
1072.256, 3924.297
1072.739, 3910.532
1073.221, 3893.688
1073.703, 3862.460
1074.185, 3824.068
1074.667, 3791.442
1075.149, 3768.211
1075.631, 3746.436
1076.113, 3721.169
1076.596, 3701.041
1077.078, 3692.181
1077.560, 3692.357
1078.042, 3688.943
1078.524, 3681.979
1079.006, 3671.047
1079.488, 3652.146
1079.970, 3633.555
1080.453, 3618.463
1080.935, 3607.381
1081.417, 3601.576
1081.899, 3603.066
1082.381, 3598.537
1082.863, 3585.907
1083.345, 3576.257
1083.827, 3588.253
1084.309, 3603.107
1084.792, 3592.445
1085.274, 3558.139
1085.756, 3536.214
1086.238, 3522.750
1086.720, 3530.346
1087.202, 3532.828
1087.684, 3530.475
1088.166, 3508.797
1088.648, 3512.073
1089.131, 3505.339
1089.613, 3498.203
1090.095, 3504.991
1090.577, 3486.124
1091.059, 3492.690
1091.541, 3489.104
1092.023, 3490.165
1092.505, 3481.163
1092.988, 3475.260
1093.470, 3479.432
1093.952, 3478.030
1094.434, 3467.871
1094.916, 3469.226
1095.398, 3450.008
1095.880, 3448.843
1096.362, 3455.468
1096.844, 3445.815
1097.327, 3447.346
1097.809, 3444.623
1098.291, 3422.525
1098.773, 3426.027
1099.255, 3456.022
1099.737, 3444.745
1100.219, 3435.266
1100.701, 3441.560
1101.183, 3443.160
1101.666, 3431.331
1102.148, 3419.417
1102.630, 3439.959
1103.112, 3480.060
1103.594, 3501.162
1104.076, 3493.510
1104.558, 3477.276
1105.040, 3448.421
1105.523, 3426.830
1106.005, 3426.268
1106.487, 3443.458
1106.969, 3449.189
1107.451, 3444.485
1107.933, 3443.518
1108.415, 3458.339
1108.897, 3470.359
1109.380, 3461.986
1109.862, 3444.654
1110.344, 3434.331
1110.826, 3434.494
1111.308, 3431.362
1111.790, 3424.202
1112.272, 3418.242
1112.754, 3420.135
1113.236, 3423.850
1113.719, 3420.017
1114.201, 3410.974
1114.683, 3407.526
1115.165, 3417.838
1115.647, 3421.254
1116.129, 3412.081
1116.611, 3400.971
1117.093, 3405.751
1117.575, 3418.993
1118.058, 3424.862
1118.540, 3421.151
1119.022, 3412.691
1119.504, 3394.738
1119.986, 3380.270
1120.468, 3375.191
1120.950, 3376.255
1121.432, 3372.484
1121.915, 3365.197
1122.397, 3361.914
1122.879, 3366.690
1123.361, 3371.186
1123.843, 3372.703
1124.325, 3369.906
1124.807, 3359.924
1125.289, 3342.063
1125.771, 3337.684
1126.254, 3346.950
1126.736, 3355.617
1127.218, 3349.184
1127.700, 3344.845
1128.182, 3365.185
1128.664, 3395.591
1129.146, 3408.027
1129.628, 3396.014
1130.110, 3379.674
1130.593, 3357.406
1131.075, 3342.496
1131.557, 3353.921
1132.039, 3375.616
1132.521, 3388.673
1133.003, 3392.488
1133.485, 3389.938
1133.967, 3377.477
1134.450, 3367.569
1134.932, 3363.625
1135.414, 3360.804
1135.896, 3349.297
1136.378, 3334.158
1136.860, 3327.498
1137.342, 3331.817
1137.824, 3335.401
1138.307, 3327.677
1138.789, 3327.088
1139.271, 3343.966
1139.753, 3369.967
1140.235, 3377.837
1140.717, 3371.517
1141.199, 3367.808
1141.681, 3373.367
1142.163, 3378.088
1142.646, 3381.219
1143.128, 3377.119
1143.610, 3358.823
1144.092, 3327.403
1144.574, 3309.390
1145.056, 3304.464
1145.538, 3304.557
1146.020, 3305.766
1146.502, 3310.470
1146.985, 3328.613
1147.467, 3347.196
1147.949, 3346.281
1148.431, 3321.621
1148.913, 3299.618
1149.395, 3280.660
1149.877, 3272.757
1150.359, 3288.160
1150.842, 3312.788
1151.324, 3340.848
1151.806, 3367.258
1152.288, 3373.441
1152.770, 3351.876
1153.252, 3333.734
1153.734, 3322.436
1154.216, 3318.402
1154.698, 3324.795
1155.181, 3337.165
1155.663, 3351.743
1156.145, 3367.907
1156.627, 3377.301
1157.109, 3376.584
1157.591, 3377.429
1158.073, 3386.236
1158.555, 3392.117
1159.037, 3367.224
1159.520, 3329.301
1160.002, 3313.117
1160.484, 3331.337
1160.966, 3341.141
1161.448, 3326.354
1161.930, 3316.324
1162.412, 3327.962
1162.894, 3351.060
1163.377, 3355.993
1163.859, 3347.546
1164.341, 3338.410
1164.823, 3332.993
1165.305, 3327.275
1165.787, 3322.615
1166.269, 3314.536
1166.751, 3296.949
1167.234, 3272.737
1167.716, 3258.189
1168.198, 3253.435
1168.680, 3258.216
1169.162, 3287.618
1169.644, 3308.084
1170.126, 3300.397
1170.608, 3282.807
1171.090, 3272.697
1171.573, 3269.644
1172.055, 3268.608
1172.537, 3269.413
1173.019, 3274.496
1173.501, 3290.903
1173.983, 3306.083
1174.465, 3315.729
1174.947, 3318.299
1175.430, 3304.704
1175.912, 3274.981
1176.394, 3263.619
1176.876, 3274.750
1177.358, 3248.521
1177.840, 3282.703
1178.322, 3302.220
1178.804, 3307.861
1179.286, 3258.066
1179.769, 3279.857
1180.251, 3279.575
1180.733, 3273.298
1181.215, 3271.444
1181.697, 3271.625
1182.179, 3270.625
1182.661, 3271.266
1183.143, 3279.103
1183.625, 3293.634
1184.108, 3295.383
1184.590, 3282.613
1185.072, 3270.690
1185.554, 3262.677
1186.036, 3263.049
1186.518, 3288.600
1187.000, 3318.956
1187.482, 3326.620
1187.965, 3304.769
1188.447, 3284.017
1188.929, 3262.341
1189.411, 3257.057
1189.893, 3290.420
1190.375, 3329.204
1190.857, 3323.690
1191.339, 3297.517
1191.822, 3292.444
1192.304, 3328.434
1192.786, 3350.221
1193.268, 3357.314
1193.750, 3352.611
1194.232, 3322.490
1194.714, 3292.960
1195.196, 3312.546
1195.678, 3360.074
1196.161, 3379.194
1196.643, 3343.474
1197.125, 3320.843
1197.607, 3316.033
1198.089, 3319.767
1198.571, 3329.637
1199.053, 3338.839
1199.535, 3334.049
1200.017, 3318.986
1200.500, 3311.471
1200.982, 3313.953
1201.464, 3325.771
1201.946, 3348.906
1202.428, 3375.335
1202.910, 3399.256
1203.392, 3417.921
1203.874, 3427.704
1204.357, 3428.084
1204.839, 3416.251
1205.321, 3380.047
1205.803, 3360.167
1206.285, 3368.694
1206.767, 3386.583
1207.249, 3387.370
1207.731, 3378.621
1208.214, 3370.563
1208.696, 3364.374
1209.178, 3363.594
1209.660, 3370.747
1210.142, 3377.707
1210.624, 3382.274
1211.106, 3385.102
1211.588, 3384.235
1212.070, 3383.580
1212.552, 3391.738
1213.035, 3412.847
1213.517, 3425.611
1213.999, 3427.892
1214.481, 3422.328
1214.963, 3407.345
1215.445, 3389.106
1215.927, 3376.007
1216.409, 3369.236
1216.892, 3371.707
1217.374, 3387.163
1217.856, 3403.437
1218.338, 3422.475
1218.820, 3435.199
1219.302, 3437.444
1219.784, 3429.674
1220.266, 3399.673
1220.749, 3363.142
1221.231, 3354.539
1221.713, 3409.272
1222.195, 3430.326
1222.677, 3401.504
1223.159, 3372.297
1223.641, 3380.648
1224.123, 3405.951
1224.605, 3406.207
1225.088, 3392.153
1225.570, 3388.481
1226.052, 3416.197
1226.534, 3431.563
1227.016, 3431.954
1227.498, 3426.683
1227.980, 3419.613
1228.462, 3413.782
1228.944, 3413.856
1229.427, 3419.412
1229.909, 3429.417
1230.391, 3450.219
1230.873, 3462.371
1231.355, 3463.244
1231.837, 3460.753
1232.319, 3464.648
1232.801, 3468.084
1233.284, 3451.790
1233.766, 3425.005
1234.248, 3427.205
1234.730, 3490.900
1235.212, 3513.987
1235.694, 3478.742
1236.176, 3432.641
1236.658, 3419.061
1237.141, 3424.479
1237.623, 3435.068
1238.105, 3449.279
1238.587, 3464.615
1239.069, 3481.132
1239.551, 3498.694
1240.033, 3518.996
1240.515, 3532.136
1240.997, 3519.289
1241.479, 3499.520
1241.962, 3496.552
1242.444, 3508.820
1242.926, 3510.245
1243.408, 3495.639
1243.890, 3491.614
1244.372, 3505.319
1244.854, 3519.124
1245.336, 3507.677
1245.819, 3491.673
1246.301, 3494.154
1246.783, 3513.781
1247.265, 3522.239
1247.747, 3517.076
1248.229, 3518.238
1248.711, 3531.875
1249.193, 3543.680
1249.676, 3538.241
1250.158, 3525.390
1250.640, 3511.728
1251.122, 3498.749
1251.604, 3492.443
1252.086, 3492.946
1252.568, 3502.263
1253.050, 3525.713
1253.532, 3536.549
1254.015, 3486.035
1254.497, 3435.377
1254.979, 3444.354
1255.461, 3499.805
1255.943, 3527.411
1256.425, 3528.402
1256.907, 3526.731
1257.389, 3529.170
1257.871, 3530.515
1258.354, 3520.688
1258.836, 3514.902
1259.318, 3526.263
1259.800, 3549.873
1260.282, 3558.731
1260.764, 3554.695
1261.246, 3550.478
1261.728, 3551.665
1262.211, 3547.843
1262.693, 3520.969
1263.175, 3501.567
1263.657, 3511.790
1264.139, 3542.117
1264.621, 3551.245
1265.103, 3542.898
1265.585, 3529.812
1266.068, 3511.427
1266.550, 3502.143
1267.032, 3512.947
1267.514, 3526.542
1267.996, 3532.983
1268.478, 3536.504
1268.960, 3556.887
1269.442, 3584.880
1269.924, 3594.137
1270.407, 3563.367
1270.889, 3548.331
1271.371, 3562.120
1271.853, 3579.577
1272.335, 3584.277
1272.817, 3584.483
1273.299, 3600.214
1273.781, 3624.589
1274.264, 3644.266
1274.746, 3656.862
1275.228, 3659.124
1275.710, 3648.923
1276.192, 3635.713
1276.674, 3621.796
1277.156, 3611.712
1277.638, 3618.231
1278.120, 3631.715
1278.603, 3633.605
1279.085, 3612.828
1279.567, 3612.316
1280.049, 3635.197
1280.531, 3654.099
1281.013, 3646.372
1281.495, 3634.608
1281.977, 3647.202
1282.459, 3668.094
1282.942, 3670.814
1283.424, 3649.510
1283.906, 3650.638
1284.388, 3674.069
1284.870, 3690.760
1285.352, 3672.656
1285.834, 3655.865
1286.316, 3675.191
1286.799, 3701.274
1287.281, 3699.211
1287.763, 3668.707
1288.245, 3656.281
1288.727, 3660.481
1289.209, 3669.318
1289.691, 3682.965
1290.173, 3691.493
1290.656, 3691.026
##END=



