##NAMES=Rhodostannite
##RRUFFID=R120139
##IDEAL CHEMISTRY=Cu^1+^(Fe^2+^_0.5_Sn^4+^_1.5_)S^2-^_4_
##LOCALITY=Pirquitas, Jujuy Province, Argentina
##OWNER=RRUFF
##SOURCE=Michael Scott 
##DESCRIPTION=Steel gray metallic massive, associated with pirquitasite, R061016 
##STATUS=The identification of this mineral is confirmed by single-crystal X-ray diffraction and chemical analysis.
##URL=rruff.info/R120139
##MEASURED CHEMISTRY=(Cu_1.45_Ag_0.60_)Fe_1.00_Sn_3.02_S_8_
8.936163e+001, 0.000000e+000
8.984375e+001, 1.010760e+001
9.032587e+001, 1.117162e+001
9.080798e+001, 1.135095e+001
9.129010e+001, 1.022595e+001
9.177222e+001, 8.705832e+000
9.225433e+001, 7.884055e+000
9.273645e+001, 7.717347e+000
9.321857e+001, 7.797038e+000
9.370068e+001, 7.936482e+000
9.418280e+001, 8.080744e+000
9.466492e+001, 8.034747e+000
9.514703e+001, 7.595285e+000
9.562915e+001, 6.946292e+000
9.611127e+001, 6.631449e+000
9.659338e+001, 6.693331e+000
9.707550e+001, 6.888141e+000
9.755762e+001, 6.918854e+000
9.803973e+001, 6.781995e+000
9.852185e+001, 6.664813e+000
9.900397e+001, 6.657651e+000
9.948608e+001, 6.763608e+000
9.996820e+001, 6.850071e+000
1.004503e+002, 6.928792e+000
1.009324e+002, 6.974693e+000
1.014146e+002, 6.921234e+000
1.018967e+002, 6.736642e+000
1.023788e+002, 6.542079e+000
1.028609e+002, 6.388634e+000
1.033430e+002, 6.268090e+000
1.038251e+002, 6.232566e+000
1.043073e+002, 6.350885e+000
1.047894e+002, 6.567413e+000
1.052715e+002, 6.584391e+000
1.057536e+002, 6.318116e+000
1.062357e+002, 5.945062e+000
1.067178e+002, 5.556614e+000
1.072000e+002, 4.934129e+000
1.076821e+002, 4.625982e+000
1.081642e+002, 4.856678e+000
1.086463e+002, 5.687993e+000
1.091284e+002, 6.198858e+000
1.096105e+002, 6.202505e+000
1.100927e+002, 5.965819e+000
1.105748e+002, 5.737378e+000
1.110569e+002, 5.501088e+000
1.115390e+002, 5.292290e+000
1.120211e+002, 5.133263e+000
1.125032e+002, 5.046220e+000
1.129854e+002, 4.927979e+000
1.134675e+002, 4.691177e+000
1.139496e+002, 4.428992e+000
1.144317e+002, 4.273506e+000
1.149138e+002, 4.279663e+000
1.153959e+002, 4.383412e+000
1.158781e+002, 4.596237e+000
1.163602e+002, 5.056363e+000
1.168423e+002, 5.343233e+000
1.173244e+002, 5.171952e+000
1.178065e+002, 4.699865e+000
1.182886e+002, 4.327410e+000
1.187708e+002, 4.266798e+000
1.192529e+002, 4.350465e+000
1.197350e+002, 4.456780e+000
1.202171e+002, 4.595652e+000
1.206992e+002, 4.700325e+000
1.211813e+002, 4.669866e+000
1.216635e+002, 4.536558e+000
1.221456e+002, 4.480645e+000
1.226277e+002, 4.691823e+000
1.231098e+002, 5.029823e+000
1.235919e+002, 5.310493e+000
1.240740e+002, 5.485000e+000
1.245562e+002, 5.563517e+000
1.250383e+002, 5.556900e+000
1.255204e+002, 5.465683e+000
1.260025e+002, 5.281905e+000
1.264846e+002, 4.907718e+000
1.269667e+002, 4.423875e+000
1.274489e+002, 4.032249e+000
1.279310e+002, 3.801978e+000
1.284131e+002, 3.725703e+000
1.288952e+002, 3.864075e+000
1.293773e+002, 4.266877e+000
1.298594e+002, 4.651832e+000
1.303416e+002, 4.573873e+000
1.308237e+002, 4.099021e+000
1.313058e+002, 3.703165e+000
1.317879e+002, 3.734187e+000
1.322700e+002, 4.092176e+000
1.327521e+002, 4.257026e+000
1.332343e+002, 4.129156e+000
1.337164e+002, 3.901897e+000
1.341985e+002, 3.984493e+000
1.346806e+002, 4.402436e+000
1.351627e+002, 4.794257e+000
1.356448e+002, 4.906598e+000
1.361270e+002, 4.736969e+000
1.366091e+002, 4.536880e+000
1.370912e+002, 4.321107e+000
1.375733e+002, 4.103208e+000
1.380554e+002, 3.929204e+000
1.385375e+002, 3.819814e+000
1.390197e+002, 3.692212e+000
1.395018e+002, 3.437060e+000
1.399839e+002, 2.993491e+000
1.404660e+002, 2.702924e+000
1.409481e+002, 2.648688e+000
1.414302e+002, 2.815621e+000
1.419124e+002, 3.017670e+000
1.423945e+002, 3.315326e+000
1.428766e+002, 3.564546e+000
1.433587e+002, 3.602291e+000
1.438408e+002, 3.323558e+000
1.443229e+002, 3.043741e+000
1.448051e+002, 2.807525e+000
1.452872e+002, 2.601407e+000
1.457693e+002, 2.532386e+000
1.462514e+002, 2.656137e+000
1.467335e+002, 2.880280e+000
1.472156e+002, 3.101160e+000
1.476978e+002, 3.421795e+000
1.481799e+002, 3.607465e+000
1.486620e+002, 3.557304e+000
1.491441e+002, 3.122605e+000
1.496262e+002, 2.858576e+000
1.501083e+002, 2.898168e+000
1.505905e+002, 3.090126e+000
1.510726e+002, 3.169820e+000
1.515547e+002, 3.050657e+000
1.520368e+002, 2.894218e+000
1.525189e+002, 2.729192e+000
1.530010e+002, 2.452590e+000
1.534832e+002, 2.353749e+000
1.539653e+002, 2.638161e+000
1.544474e+002, 3.123865e+000
1.549295e+002, 3.374043e+000
1.554116e+002, 3.012367e+000
1.558937e+002, 2.636681e+000
1.563759e+002, 2.525509e+000
1.568580e+002, 2.906889e+000
1.573401e+002, 3.298619e+000
1.578222e+002, 3.653102e+000
1.583043e+002, 3.958539e+000
1.587864e+002, 4.171466e+000
1.592686e+002, 4.225063e+000
1.597507e+002, 4.214492e+000
1.602328e+002, 4.198411e+000
1.607149e+002, 4.032339e+000
1.611970e+002, 4.021982e+000
1.616791e+002, 4.350302e+000
1.621613e+002, 4.964965e+000
1.626434e+002, 5.552544e+000
1.631255e+002, 5.945597e+000
1.636076e+002, 6.268016e+000
1.640897e+002, 6.630167e+000
1.645718e+002, 6.964170e+000
1.650540e+002, 7.431569e+000
1.655361e+002, 8.174703e+000
1.660182e+002, 9.186935e+000
1.665003e+002, 1.020308e+001
1.669824e+002, 1.110616e+001
1.674645e+002, 1.193676e+001
1.679467e+002, 1.273312e+001
1.684288e+002, 1.332193e+001
1.689109e+002, 1.401847e+001
1.693930e+002, 1.511940e+001
1.698751e+002, 1.665426e+001
1.703572e+002, 1.822225e+001
1.708394e+002, 1.960174e+001
1.713215e+002, 2.084214e+001
1.718036e+002, 2.200672e+001
1.722857e+002, 2.309405e+001
1.727678e+002, 2.414693e+001
1.732499e+002, 2.520556e+001
1.737321e+002, 2.628207e+001
1.742142e+002, 2.735061e+001
1.746963e+002, 2.840792e+001
1.751784e+002, 2.946082e+001
1.756605e+002, 3.053008e+001
1.761426e+002, 3.164244e+001
1.766248e+002, 3.276223e+001
1.771069e+002, 3.378431e+001
1.775890e+002, 3.466097e+001
1.780711e+002, 3.562690e+001
1.785532e+002, 3.720992e+001
1.790353e+002, 3.919656e+001
1.795175e+002, 4.076123e+001
1.799996e+002, 4.120271e+001
1.804817e+002, 4.094811e+001
1.809638e+002, 4.072828e+001
1.814459e+002, 4.052216e+001
1.819280e+002, 4.065549e+001
1.824102e+002, 4.174075e+001
1.828923e+002, 4.365125e+001
1.833744e+002, 4.571674e+001
1.838565e+002, 4.739027e+001
1.843386e+002, 4.887096e+001
1.848207e+002, 5.077423e+001
1.853029e+002, 5.338560e+001
1.857850e+002, 5.610924e+001
1.862671e+002, 5.788343e+001
1.867492e+002, 5.873887e+001
1.872313e+002, 5.951522e+001
1.877134e+002, 6.079338e+001
1.881956e+002, 6.250069e+001
1.886777e+002, 6.425053e+001
1.891598e+002, 6.604412e+001
1.896419e+002, 6.780209e+001
1.901240e+002, 6.936910e+001
1.906061e+002, 7.076217e+001
1.910883e+002, 7.200697e+001
1.915704e+002, 7.310479e+001
1.920525e+002, 7.407515e+001
1.925346e+002, 7.500554e+001
1.930167e+002, 7.588693e+001
1.934988e+002, 7.670155e+001
1.939810e+002, 7.733809e+001
1.944631e+002, 7.775316e+001
1.949452e+002, 7.805903e+001
1.954273e+002, 7.794169e+001
1.959094e+002, 7.741527e+001
1.963915e+002, 7.704700e+001
1.968737e+002, 7.699167e+001
1.973558e+002, 7.714960e+001
1.978379e+002, 7.715147e+001
1.983200e+002, 7.696822e+001
1.988021e+002, 7.677577e+001
1.992842e+002, 7.669663e+001
1.997664e+002, 7.672427e+001
2.002485e+002, 7.694872e+001
2.007306e+002, 7.751140e+001
2.012127e+002, 7.829445e+001
2.016948e+002, 7.856408e+001
2.021769e+002, 7.820781e+001
2.026591e+002, 7.771622e+001
2.031412e+002, 7.758607e+001
2.036233e+002, 7.786822e+001
2.041054e+002, 7.809563e+001
2.045875e+002, 7.814432e+001
2.050696e+002, 7.803905e+001
2.055518e+002, 7.799791e+001
2.060339e+002, 7.802318e+001
2.065160e+002, 7.810057e+001
2.069981e+002, 7.820764e+001
2.074802e+002, 7.833055e+001
2.079623e+002, 7.854164e+001
2.084445e+002, 7.891640e+001
2.089266e+002, 7.944062e+001
2.094087e+002, 7.972110e+001
2.098908e+002, 7.972417e+001
2.103729e+002, 7.955648e+001
2.108550e+002, 7.925367e+001
2.113372e+002, 7.870103e+001
2.118193e+002, 7.843513e+001
2.123014e+002, 7.870830e+001
2.127835e+002, 7.951929e+001
2.132656e+002, 7.991457e+001
2.137477e+002, 7.973410e+001
2.142299e+002, 7.936784e+001
2.147120e+002, 7.933292e+001
2.151941e+002, 7.982943e+001
2.156762e+002, 8.008784e+001
2.161583e+002, 7.985677e+001
2.166404e+002, 7.910947e+001
2.171226e+002, 7.838772e+001
2.176047e+002, 7.750765e+001
2.180868e+002, 7.686317e+001
2.185689e+002, 7.707922e+001
2.190510e+002, 7.870985e+001
2.195331e+002, 7.987953e+001
2.200153e+002, 7.995217e+001
2.204974e+002, 7.877406e+001
2.209795e+002, 7.828715e+001
2.214616e+002, 7.884702e+001
2.219437e+002, 7.971839e+001
2.224258e+002, 7.990855e+001
2.229080e+002, 7.896429e+001
2.233901e+002, 7.832389e+001
2.238722e+002, 7.849705e+001
2.243543e+002, 7.962547e+001
2.248364e+002, 8.031228e+001
2.253185e+002, 8.042500e+001
2.258007e+002, 8.021436e+001
2.262828e+002, 7.994962e+001
2.267649e+002, 7.951405e+001
2.272470e+002, 7.925053e+001
2.277291e+002, 7.925172e+001
2.282112e+002, 7.952734e+001
2.286934e+002, 8.001175e+001
2.291755e+002, 8.090322e+001
2.296576e+002, 8.182996e+001
2.301397e+002, 8.224737e+001
2.306218e+002, 8.182301e+001
2.311039e+002, 8.151802e+001
2.315861e+002, 8.165598e+001
2.320682e+002, 8.235134e+001
2.325503e+002, 8.269183e+001
2.330324e+002, 8.251708e+001
2.335145e+002, 8.212988e+001
2.339966e+002, 8.190066e+001
2.344788e+002, 8.187537e+001
2.349609e+002, 8.193225e+001
2.354430e+002, 8.204308e+001
2.359251e+002, 8.220641e+001
2.364072e+002, 8.244374e+001
2.368893e+002, 8.280752e+001
2.373715e+002, 8.320100e+001
2.378536e+002, 8.347871e+001
2.383357e+002, 8.349121e+001
2.388178e+002, 8.365816e+001
2.392999e+002, 8.416127e+001
2.397820e+002, 8.507504e+001
2.402642e+002, 8.570482e+001
2.407463e+002, 8.594722e+001
2.412284e+002, 8.598997e+001
2.417105e+002, 8.604839e+001
2.421926e+002, 8.610476e+001
2.426747e+002, 8.620377e+001
2.431569e+002, 8.635136e+001
2.436390e+002, 8.654605e+001
2.441211e+002, 8.680372e+001
2.446032e+002, 8.713461e+001
2.450853e+002, 8.752005e+001
2.455674e+002, 8.797137e+001
2.460496e+002, 8.864680e+001
2.465317e+002, 8.908878e+001
2.470138e+002, 8.909656e+001
2.474959e+002, 8.860400e+001
2.479780e+002, 8.846194e+001
2.484601e+002, 8.875768e+001
2.489423e+002, 8.931516e+001
2.494244e+002, 8.995614e+001
2.499065e+002, 9.070622e+001
2.503886e+002, 9.150745e+001
2.508707e+002, 9.245803e+001
2.513528e+002, 9.358056e+001
2.518350e+002, 9.415913e+001
2.523171e+002, 9.394090e+001
2.527992e+002, 9.344949e+001
2.532813e+002, 9.323136e+001
2.537634e+002, 9.345145e+001
2.542455e+002, 9.358038e+001
2.547277e+002, 9.345026e+001
2.552098e+002, 9.305164e+001
2.556919e+002, 9.291931e+001
2.561740e+002, 9.320790e+001
2.566561e+002, 9.356563e+001
2.571382e+002, 9.364242e+001
2.576204e+002, 9.332970e+001
2.581025e+002, 9.299944e+001
2.585846e+002, 9.272971e+001
2.590667e+002, 9.251405e+001
2.595488e+002, 9.221495e+001
2.600309e+002, 9.176173e+001
2.605131e+002, 9.133801e+001
2.609952e+002, 9.112543e+001
2.614773e+002, 9.118800e+001
2.619594e+002, 9.128175e+001
2.624415e+002, 9.137141e+001
2.629236e+002, 9.146035e+001
2.634058e+002, 9.154842e+001
2.638879e+002, 9.158376e+001
2.643700e+002, 9.170950e+001
2.648521e+002, 9.209372e+001
2.653342e+002, 9.285237e+001
2.658163e+002, 9.346936e+001
2.662985e+002, 9.386166e+001
2.667806e+002, 9.404780e+001
2.672627e+002, 9.410679e+001
2.677448e+002, 9.397492e+001
2.682269e+002, 9.384710e+001
2.687090e+002, 9.385231e+001
2.691912e+002, 9.399182e+001
2.696733e+002, 9.426193e+001
2.701554e+002, 9.468252e+001
2.706375e+002, 9.522802e+001
2.711196e+002, 9.583447e+001
2.716017e+002, 9.657678e+001
2.720839e+002, 9.716969e+001
2.725660e+002, 9.733293e+001
2.730481e+002, 9.698066e+001
2.735302e+002, 9.677482e+001
2.740123e+002, 9.679077e+001
2.744944e+002, 9.698417e+001
2.749766e+002, 9.723907e+001
2.754587e+002, 9.756336e+001
2.759408e+002, 9.791953e+001
2.764229e+002, 9.833331e+001
2.769050e+002, 9.882938e+001
2.773871e+002, 9.907450e+001
2.778693e+002, 9.895410e+001
2.783514e+002, 9.867628e+001
2.788335e+002, 9.875829e+001
2.793156e+002, 9.926721e+001
2.797977e+002, 9.974459e+001
2.802798e+002, 9.987603e+001
2.807620e+002, 9.965755e+001
2.812441e+002, 9.963008e+001
2.817262e+002, 9.986810e+001
2.822083e+002, 1.002157e+002
2.826904e+002, 1.004436e+002
2.831725e+002, 1.005557e+002
2.836547e+002, 1.004814e+002
2.841368e+002, 1.000261e+002
2.846189e+002, 9.925039e+001
2.851010e+002, 9.889473e+001
2.855831e+002, 9.904888e+001
2.860652e+002, 9.941456e+001
2.865474e+002, 9.955929e+001
2.870295e+002, 9.948770e+001
2.875116e+002, 9.942227e+001
2.879937e+002, 9.948342e+001
2.884758e+002, 9.964356e+001
2.889579e+002, 9.980154e+001
2.894401e+002, 9.999856e+001
2.899222e+002, 1.000072e+002
2.904043e+002, 9.928744e+001
2.908864e+002, 9.796496e+001
2.913685e+002, 9.705922e+001
2.918506e+002, 9.715683e+001
2.923328e+002, 9.793858e+001
2.928149e+002, 9.852852e+001
2.932970e+002, 9.893103e+001
2.937791e+002, 9.913898e+001
2.942612e+002, 9.904327e+001
2.947433e+002, 9.871512e+001
2.952255e+002, 9.843508e+001
2.957076e+002, 9.829146e+001
2.961897e+002, 9.825713e+001
2.966718e+002, 9.829788e+001
2.971539e+002, 9.841224e+001
2.976360e+002, 9.856765e+001
2.981182e+002, 9.872234e+001
2.986003e+002, 9.889502e+001
2.990824e+002, 9.914315e+001
2.995645e+002, 9.951391e+001
3.000466e+002, 9.993384e+001
3.005287e+002, 1.003490e+002
3.010109e+002, 1.007452e+002
3.014930e+002, 1.010310e+002
3.019751e+002, 1.009278e+002
3.024572e+002, 1.007057e+002
3.029393e+002, 1.008809e+002
3.034214e+002, 1.017420e+002
3.039036e+002, 1.027086e+002
3.043857e+002, 1.031360e+002
3.048678e+002, 1.031274e+002
3.053499e+002, 1.030642e+002
3.058320e+002, 1.030335e+002
3.063141e+002, 1.031351e+002
3.067963e+002, 1.035697e+002
3.072784e+002, 1.045091e+002
3.077605e+002, 1.053844e+002
3.082426e+002, 1.055534e+002
3.087247e+002, 1.052780e+002
3.092068e+002, 1.051874e+002
3.096890e+002, 1.056837e+002
3.101711e+002, 1.064554e+002
3.106532e+002, 1.072716e+002
3.111353e+002, 1.081202e+002
3.116174e+002, 1.089115e+002
3.120995e+002, 1.094999e+002
3.125817e+002, 1.099931e+002
3.130638e+002, 1.105735e+002
3.135459e+002, 1.115436e+002
3.140280e+002, 1.124595e+002
3.145101e+002, 1.129275e+002
3.149922e+002, 1.128833e+002
3.154744e+002, 1.130503e+002
3.159565e+002, 1.138242e+002
3.164386e+002, 1.149833e+002
3.169207e+002, 1.162616e+002
3.174028e+002, 1.182806e+002
3.178849e+002, 1.197743e+002
3.183671e+002, 1.200219e+002
3.188492e+002, 1.190749e+002
3.193313e+002, 1.180702e+002
3.198134e+002, 1.174084e+002
3.202955e+002, 1.168283e+002
3.207776e+002, 1.161292e+002
3.212598e+002, 1.151103e+002
3.217419e+002, 1.141249e+002
3.222240e+002, 1.133185e+002
3.227061e+002, 1.126397e+002
3.231882e+002, 1.118241e+002
3.236703e+002, 1.106703e+002
3.241525e+002, 1.094631e+002
3.246346e+002, 1.083616e+002
3.251167e+002, 1.072445e+002
3.255988e+002, 1.064084e+002
3.260809e+002, 1.062459e+002
3.265630e+002, 1.064188e+002
3.270452e+002, 1.059965e+002
3.275273e+002, 1.041524e+002
3.280094e+002, 1.023789e+002
3.284915e+002, 1.012133e+002
3.289736e+002, 1.009581e+002
3.294557e+002, 1.006701e+002
3.299379e+002, 1.003842e+002
3.304200e+002, 1.000523e+002
3.309021e+002, 9.957829e+001
3.313842e+002, 9.864488e+001
3.318663e+002, 9.798829e+001
3.323484e+002, 9.791887e+001
3.328306e+002, 9.858312e+001
3.333127e+002, 9.885432e+001
3.337948e+002, 9.852617e+001
3.342769e+002, 9.798727e+001
3.347590e+002, 9.768991e+001
3.352411e+002, 9.778809e+001
3.357233e+002, 9.776243e+001
3.362054e+002, 9.739957e+001
3.366875e+002, 9.674350e+001
3.371696e+002, 9.662173e+001
3.376517e+002, 9.726284e+001
3.381339e+002, 9.800147e+001
3.386160e+002, 9.821455e+001
3.390981e+002, 9.775422e+001
3.395802e+002, 9.753609e+001
3.400623e+002, 9.776292e+001
3.405444e+002, 9.828871e+001
3.410266e+002, 9.856302e+001
3.415087e+002, 9.852204e+001
3.419908e+002, 9.854626e+001
3.424729e+002, 9.892300e+001
3.429550e+002, 9.964548e+001
3.434371e+002, 1.003410e+002
3.439193e+002, 1.010023e+002
3.444014e+002, 1.015688e+002
3.448835e+002, 1.018820e+002
3.453656e+002, 1.019435e+002
3.458477e+002, 1.019538e+002
3.463298e+002, 1.019375e+002
3.468120e+002, 1.019376e+002
3.472941e+002, 1.021722e+002
3.477762e+002, 1.026756e+002
3.482583e+002, 1.032744e+002
3.487404e+002, 1.038747e+002
3.492225e+002, 1.044309e+002
3.497047e+002, 1.047350e+002
3.501868e+002, 1.045174e+002
3.506689e+002, 1.040840e+002
3.511510e+002, 1.040210e+002
3.516331e+002, 1.043216e+002
3.521152e+002, 1.046492e+002
3.525974e+002, 1.046420e+002
3.530795e+002, 1.044721e+002
3.535616e+002, 1.044998e+002
3.540437e+002, 1.050541e+002
3.545258e+002, 1.055478e+002
3.550079e+002, 1.052993e+002
3.554901e+002, 1.044285e+002
3.559722e+002, 1.034743e+002
3.564543e+002, 1.027128e+002
3.569364e+002, 1.020653e+002
3.574185e+002, 1.014599e+002
3.579006e+002, 1.009152e+002
3.583828e+002, 1.003304e+002
3.588649e+002, 9.961934e+001
3.593470e+002, 9.881930e+001
3.598291e+002, 9.799998e+001
3.603112e+002, 9.708903e+001
3.607933e+002, 9.624535e+001
3.612755e+002, 9.557493e+001
3.617576e+002, 9.510611e+001
3.622397e+002, 9.466775e+001
3.627218e+002, 9.422914e+001
3.632039e+002, 9.377336e+001
3.636860e+002, 9.328175e+001
3.641682e+002, 9.267334e+001
3.646503e+002, 9.209746e+001
3.651324e+002, 9.158829e+001
3.656145e+002, 9.114397e+001
3.660966e+002, 9.081718e+001
3.665787e+002, 9.086050e+001
3.670609e+002, 9.087194e+001
3.675430e+002, 9.059399e+001
3.680251e+002, 8.964298e+001
3.685072e+002, 8.882665e+001
3.689893e+002, 8.825671e+001
3.694714e+002, 8.787288e+001
3.699536e+002, 8.749311e+001
3.704357e+002, 8.698963e+001
3.709178e+002, 8.662575e+001
3.713999e+002, 8.653974e+001
3.718820e+002, 8.689352e+001
3.723641e+002, 8.711608e+001
3.728463e+002, 8.724426e+001
3.733284e+002, 8.721502e+001
3.738105e+002, 8.685531e+001
3.742926e+002, 8.590149e+001
3.747747e+002, 8.522251e+001
3.752568e+002, 8.518871e+001
3.757390e+002, 8.581017e+001
3.762211e+002, 8.596192e+001
3.767032e+002, 8.551891e+001
3.771853e+002, 8.486674e+001
3.776674e+002, 8.431464e+001
3.781495e+002, 8.385229e+001
3.786317e+002, 8.359089e+001
3.791138e+002, 8.361775e+001
3.795959e+002, 8.381678e+001
3.800780e+002, 8.379017e+001
3.805601e+002, 8.351584e+001
3.810422e+002, 8.326793e+001
3.815244e+002, 8.329785e+001
3.820065e+002, 8.354383e+001
3.824886e+002, 8.366366e+001
3.829707e+002, 8.362340e+001
3.834528e+002, 8.345487e+001
3.839349e+002, 8.314883e+001
3.844171e+002, 8.272959e+001
3.848992e+002, 8.233199e+001
3.853813e+002, 8.197088e+001
3.858634e+002, 8.168400e+001
3.863455e+002, 8.160392e+001
3.868276e+002, 8.174610e+001
3.873098e+002, 8.181006e+001
3.877919e+002, 8.129626e+001
3.882740e+002, 8.055289e+001
3.887561e+002, 8.021952e+001
3.892382e+002, 8.082852e+001
3.897203e+002, 8.160698e+001
3.902025e+002, 8.191130e+001
3.906846e+002, 8.181055e+001
3.911667e+002, 8.163786e+001
3.916488e+002, 8.156221e+001
3.921309e+002, 8.150327e+001
3.926130e+002, 8.139529e+001
3.930952e+002, 8.122587e+001
3.935773e+002, 8.100935e+001
3.940594e+002, 8.057774e+001
3.945415e+002, 8.012072e+001
3.950236e+002, 7.999001e+001
3.955057e+002, 8.075662e+001
3.959879e+002, 8.146442e+001
3.964700e+002, 8.165995e+001
3.969521e+002, 8.121619e+001
3.974342e+002, 8.089260e+001
3.979163e+002, 8.093839e+001
3.983984e+002, 8.109329e+001
3.988806e+002, 8.111974e+001
3.993627e+002, 8.077562e+001
3.998448e+002, 8.056184e+001
4.003269e+002, 8.053326e+001
4.008090e+002, 8.068275e+001
4.012911e+002, 8.097338e+001
4.017733e+002, 8.161739e+001
4.022554e+002, 8.215470e+001
4.027375e+002, 8.232346e+001
4.032196e+002, 8.196105e+001
4.037017e+002, 8.162391e+001
4.041838e+002, 8.128825e+001
4.046660e+002, 8.100716e+001
4.051481e+002, 8.091275e+001
4.056302e+002, 8.105224e+001
4.061123e+002, 8.119938e+001
4.065944e+002, 8.124413e+001
4.070765e+002, 8.119830e+001
4.075587e+002, 8.135827e+001
4.080408e+002, 8.178316e+001
4.085229e+002, 8.219032e+001
4.090050e+002, 8.227149e+001
4.094871e+002, 8.204150e+001
4.099692e+002, 8.171650e+001
4.104514e+002, 8.127309e+001
4.109335e+002, 8.083606e+001
4.114156e+002, 8.070666e+001
4.118977e+002, 8.086463e+001
4.123798e+002, 8.106563e+001
4.128619e+002, 8.115789e+001
4.133441e+002, 8.117598e+001
4.138262e+002, 8.118345e+001
4.143083e+002, 8.118623e+001
4.147904e+002, 8.118690e+001
4.152725e+002, 8.118445e+001
4.157546e+002, 8.118250e+001
4.162368e+002, 8.118797e+001
4.167189e+002, 8.125693e+001
4.172010e+002, 8.129768e+001
4.176831e+002, 8.117449e+001
4.181652e+002, 8.090357e+001
4.186473e+002, 8.073985e+001
4.191295e+002, 8.094312e+001
4.196116e+002, 8.125642e+001
4.200937e+002, 8.144740e+001
4.205758e+002, 8.140315e+001
4.210579e+002, 8.131580e+001
4.215400e+002, 8.114391e+001
4.220222e+002, 8.097129e+001
4.225043e+002, 8.099966e+001
4.229864e+002, 8.164207e+001
4.234685e+002, 8.217547e+001
4.239506e+002, 8.229219e+001
4.244327e+002, 8.183946e+001
4.249149e+002, 8.141625e+001
4.253970e+002, 8.078732e+001
4.258791e+002, 8.033688e+001
4.263612e+002, 8.050345e+001
4.268433e+002, 8.198354e+001
4.273254e+002, 8.295463e+001
4.278076e+002, 8.300566e+001
4.282897e+002, 8.227199e+001
4.287718e+002, 8.169173e+001
4.292539e+002, 8.125927e+001
4.297360e+002, 8.099902e+001
4.302181e+002, 8.100106e+001
4.307003e+002, 8.133288e+001
4.311824e+002, 8.143435e+001
4.316645e+002, 8.119797e+001
4.321466e+002, 8.086776e+001
4.326287e+002, 8.090595e+001
4.331108e+002, 8.132032e+001
4.335930e+002, 8.170960e+001
4.340751e+002, 8.192471e+001
4.345572e+002, 8.199899e+001
4.350393e+002, 8.200681e+001
4.355214e+002, 8.194657e+001
4.360035e+002, 8.191267e+001
4.364857e+002, 8.202566e+001
4.369678e+002, 8.222890e+001
4.374499e+002, 8.240298e+001
4.379320e+002, 8.255489e+001
4.384141e+002, 8.260052e+001
4.388962e+002, 8.235442e+001
4.393784e+002, 8.190842e+001
4.398605e+002, 8.153328e+001
4.403426e+002, 8.139007e+001
4.408247e+002, 8.136906e+001
4.413068e+002, 8.137601e+001
4.417889e+002, 8.139970e+001
4.422711e+002, 8.148814e+001
4.427532e+002, 8.178579e+001
4.432353e+002, 8.211098e+001
4.437174e+002, 8.227510e+001
4.441995e+002, 8.206135e+001
4.446816e+002, 8.185166e+001
4.451638e+002, 8.175935e+001
4.456459e+002, 8.176305e+001
4.461280e+002, 8.175607e+001
4.466101e+002, 8.149680e+001
4.470922e+002, 8.141105e+001
4.475743e+002, 8.177483e+001
4.480565e+002, 8.298943e+001
4.485386e+002, 8.362264e+001
4.490207e+002, 8.340878e+001
4.495028e+002, 8.277662e+001
4.499849e+002, 8.224191e+001
4.504670e+002, 8.173502e+001
4.509492e+002, 8.149675e+001
4.514313e+002, 8.171453e+001
4.519134e+002, 8.228312e+001
4.523955e+002, 8.231100e+001
4.528776e+002, 8.161781e+001
4.533597e+002, 8.101070e+001
4.538419e+002, 8.123397e+001
4.543240e+002, 8.225581e+001
4.548061e+002, 8.275075e+001
4.552882e+002, 8.250678e+001
4.557703e+002, 8.196439e+001
4.562524e+002, 8.168618e+001
4.567346e+002, 8.167102e+001
4.572167e+002, 8.193834e+001
4.576988e+002, 8.294245e+001
4.581809e+002, 8.403818e+001
4.586630e+002, 8.381844e+001
4.591451e+002, 8.237150e+001
4.596273e+002, 8.109142e+001
4.601094e+002, 8.122349e+001
4.605915e+002, 8.209911e+001
4.610736e+002, 8.289849e+001
4.615557e+002, 8.352426e+001
4.620378e+002, 8.387661e+001
4.625200e+002, 8.368125e+001
4.630021e+002, 8.318247e+001
4.634842e+002, 8.285918e+001
4.639663e+002, 8.310760e+001
4.644484e+002, 8.339211e+001
4.649305e+002, 8.343710e+001
4.654127e+002, 8.321448e+001
4.658948e+002, 8.302400e+001
4.663769e+002, 8.287740e+001
4.668590e+002, 8.281584e+001
4.673411e+002, 8.287126e+001
4.678232e+002, 8.326018e+001
4.683054e+002, 8.347875e+001
4.687875e+002, 8.339493e+001
4.692696e+002, 8.314951e+001
4.697517e+002, 8.312255e+001
4.702338e+002, 8.350795e+001
4.707159e+002, 8.374299e+001
4.711981e+002, 8.355122e+001
4.716802e+002, 8.290534e+001
4.721623e+002, 8.255549e+001
4.726444e+002, 8.255885e+001
4.731265e+002, 8.271011e+001
4.736086e+002, 8.284270e+001
4.740908e+002, 8.295580e+001
4.745729e+002, 8.301257e+001
4.750550e+002, 8.299871e+001
4.755371e+002, 8.293564e+001
4.760192e+002, 8.278495e+001
4.765013e+002, 8.257579e+001
4.769835e+002, 8.253947e+001
4.774656e+002, 8.301036e+001
4.779477e+002, 8.366273e+001
4.784298e+002, 8.393421e+001
4.789119e+002, 8.379323e+001
4.793940e+002, 8.355025e+001
4.798762e+002, 8.344608e+001
4.803583e+002, 8.338770e+001
4.808404e+002, 8.324064e+001
4.813225e+002, 8.283443e+001
4.818046e+002, 8.251112e+001
4.822867e+002, 8.249526e+001
4.827689e+002, 8.270338e+001
4.832510e+002, 8.291904e+001
4.837331e+002, 8.319492e+001
4.842152e+002, 8.336083e+001
4.846973e+002, 8.329852e+001
4.851794e+002, 8.294039e+001
4.856616e+002, 8.267324e+001
4.861437e+002, 8.242456e+001
4.866258e+002, 8.234577e+001
4.871079e+002, 8.260183e+001
4.875900e+002, 8.366878e+001
4.880721e+002, 8.419602e+001
4.885543e+002, 8.381985e+001
4.890364e+002, 8.290413e+001
4.895185e+002, 8.254238e+001
4.900006e+002, 8.290061e+001
4.904827e+002, 8.329072e+001
4.909648e+002, 8.340446e+001
4.914470e+002, 8.325624e+001
4.919291e+002, 8.309294e+001
4.924112e+002, 8.289004e+001
4.928933e+002, 8.279774e+001
4.933754e+002, 8.310102e+001
4.938575e+002, 8.368686e+001
4.943397e+002, 8.403716e+001
4.948218e+002, 8.399827e+001
4.953039e+002, 8.375123e+001
4.957860e+002, 8.343632e+001
4.962681e+002, 8.309855e+001
4.967502e+002, 8.289072e+001
4.972324e+002, 8.305214e+001
4.977145e+002, 8.328036e+001
4.981966e+002, 8.321480e+001
4.986787e+002, 8.283531e+001
4.991608e+002, 8.260498e+001
4.996429e+002, 8.289774e+001
5.001251e+002, 8.337817e+001
5.006072e+002, 8.375557e+001
5.010893e+002, 8.389416e+001
5.015714e+002, 8.401270e+001
5.020535e+002, 8.426693e+001
5.025356e+002, 8.452994e+001
5.030178e+002, 8.451408e+001
5.034999e+002, 8.382979e+001
5.039820e+002, 8.326607e+001
5.044641e+002, 8.306859e+001
5.049462e+002, 8.325512e+001
5.054283e+002, 8.330925e+001
5.059105e+002, 8.311497e+001
5.063926e+002, 8.297118e+001
5.068747e+002, 8.318150e+001
5.073568e+002, 8.383657e+001
5.078389e+002, 8.419530e+001
5.083210e+002, 8.410921e+001
5.088032e+002, 8.383291e+001
5.092853e+002, 8.387643e+001
5.097674e+002, 8.421121e+001
5.102495e+002, 8.436103e+001
5.107316e+002, 8.398425e+001
5.112137e+002, 8.335352e+001
5.116959e+002, 8.307154e+001
5.121780e+002, 8.311985e+001
5.126601e+002, 8.323762e+001
5.131422e+002, 8.332529e+001
5.136243e+002, 8.333335e+001
5.141064e+002, 8.311742e+001
5.145886e+002, 8.253342e+001
5.150707e+002, 8.216577e+001
5.155528e+002, 8.273595e+001
5.160349e+002, 8.366209e+001
5.165170e+002, 8.411172e+001
5.169991e+002, 8.304262e+001
5.174813e+002, 8.224725e+001
5.179634e+002, 8.262602e+001
5.184455e+002, 8.399474e+001
5.189276e+002, 8.476468e+001
5.194097e+002, 8.408575e+001
5.198918e+002, 8.335002e+001
5.203740e+002, 8.313041e+001
5.208561e+002, 8.360558e+001
5.213382e+002, 8.402967e+001
5.218203e+002, 8.449101e+001
5.223024e+002, 8.479577e+001
5.227845e+002, 8.463181e+001
5.232667e+002, 8.388126e+001
5.237488e+002, 8.331145e+001
5.242309e+002, 8.307700e+001
5.247130e+002, 8.311465e+001
5.251951e+002, 8.334953e+001
5.256772e+002, 8.377717e+001
5.261594e+002, 8.413923e+001
5.266415e+002, 8.422655e+001
5.271236e+002, 8.415968e+001
5.276057e+002, 8.422937e+001
5.280878e+002, 8.444732e+001
5.285699e+002, 8.464967e+001
5.290521e+002, 8.472102e+001
5.295342e+002, 8.468806e+001
5.300163e+002, 8.458251e+001
5.304984e+002, 8.441100e+001
5.309805e+002, 8.417388e+001
5.314626e+002, 8.370383e+001
5.319448e+002, 8.318441e+001
5.324269e+002, 8.297205e+001
5.329090e+002, 8.343071e+001
5.333911e+002, 8.395372e+001
5.338732e+002, 8.442548e+001
5.343553e+002, 8.483784e+001
5.348375e+002, 8.493013e+001
5.353196e+002, 8.435744e+001
5.358017e+002, 8.380112e+001
5.362838e+002, 8.365990e+001
5.367659e+002, 8.411916e+001
5.372480e+002, 8.446294e+001
5.377302e+002, 8.464854e+001
5.382123e+002, 8.476637e+001
5.386944e+002, 8.498763e+001
5.391765e+002, 8.533320e+001
5.396586e+002, 8.550361e+001
5.401407e+002, 8.537332e+001
5.406229e+002, 8.505789e+001
5.411050e+002, 8.478709e+001
5.415871e+002, 8.456647e+001
5.420692e+002, 8.444140e+001
5.425513e+002, 8.446986e+001
5.430334e+002, 8.460261e+001
5.435156e+002, 8.483684e+001
5.439977e+002, 8.518420e+001
5.444798e+002, 8.535832e+001
5.449619e+002, 8.492182e+001
5.454440e+002, 8.430014e+001
5.459261e+002, 8.396714e+001
5.464083e+002, 8.423092e+001
5.468904e+002, 8.453391e+001
5.473725e+002, 8.466330e+001
5.478546e+002, 8.469943e+001
5.483367e+002, 8.481835e+001
5.488188e+002, 8.528979e+001
5.493010e+002, 8.557859e+001
5.497831e+002, 8.546339e+001
5.502652e+002, 8.495215e+001
5.507473e+002, 8.468942e+001
5.512294e+002, 8.476392e+001
5.517115e+002, 8.493746e+001
5.521937e+002, 8.508910e+001
5.526758e+002, 8.522631e+001
5.531579e+002, 8.526112e+001
5.536400e+002, 8.516132e+001
5.541221e+002, 8.504346e+001
5.546042e+002, 8.511609e+001
5.550864e+002, 8.533754e+001
5.555685e+002, 8.543106e+001
5.560506e+002, 8.525146e+001
5.565327e+002, 8.498314e+001
5.570148e+002, 8.483237e+001
5.574969e+002, 8.480432e+001
5.579791e+002, 8.492136e+001
5.584612e+002, 8.540010e+001
5.589433e+002, 8.588684e+001
5.594254e+002, 8.602175e+001
5.599075e+002, 8.577542e+001
5.603896e+002, 8.560838e+001
5.608718e+002, 8.587357e+001
5.613539e+002, 8.618977e+001
5.618360e+002, 8.627100e+001
5.623181e+002, 8.590688e+001
5.628002e+002, 8.555975e+001
5.632823e+002, 8.520114e+001
5.637645e+002, 8.489961e+001
5.642466e+002, 8.477198e+001
5.647287e+002, 8.487974e+001
5.652108e+002, 8.502891e+001
5.656929e+002, 8.517653e+001
5.661750e+002, 8.533163e+001
5.666572e+002, 8.557533e+001
5.671393e+002, 8.592809e+001
5.676214e+002, 8.620720e+001
5.681035e+002, 8.625266e+001
5.685856e+002, 8.612820e+001
5.690677e+002, 8.608599e+001
5.695499e+002, 8.613713e+001
5.700320e+002, 8.621738e+001
5.705141e+002, 8.635013e+001
5.709962e+002, 8.645036e+001
5.714783e+002, 8.635718e+001
5.719604e+002, 8.594139e+001
5.724426e+002, 8.551118e+001
5.729247e+002, 8.521831e+001
5.734068e+002, 8.505354e+001
5.738889e+002, 8.499381e+001
5.743710e+002, 8.508313e+001
5.748531e+002, 8.522901e+001
5.753353e+002, 8.547469e+001
5.758174e+002, 8.579804e+001
5.762995e+002, 8.591274e+001
5.767816e+002, 8.557195e+001
5.772637e+002, 8.530889e+001
5.777458e+002, 8.543808e+001
5.782280e+002, 8.611709e+001
5.787101e+002, 8.628030e+001
5.791922e+002, 8.576420e+001
5.796743e+002, 8.509128e+001
5.801564e+002, 8.481925e+001
5.806385e+002, 8.492871e+001
5.811207e+002, 8.506690e+001
5.816028e+002, 8.517312e+001
5.820849e+002, 8.528047e+001
5.825670e+002, 8.554441e+001
5.830491e+002, 8.587025e+001
5.835313e+002, 8.596154e+001
5.840134e+002, 8.537901e+001
5.844955e+002, 8.471019e+001
5.849776e+002, 8.454603e+001
5.854597e+002, 8.481015e+001
5.859418e+002, 8.505610e+001
5.864240e+002, 8.501291e+001
5.869061e+002, 8.493550e+001
5.873882e+002, 8.498692e+001
5.878703e+002, 8.522779e+001
5.883524e+002, 8.542549e+001
5.888345e+002, 8.557270e+001
5.893167e+002, 8.565194e+001
5.897988e+002, 8.564089e+001
5.902809e+002, 8.549804e+001
5.907630e+002, 8.536165e+001
5.912451e+002, 8.525237e+001
5.917272e+002, 8.514278e+001
5.922094e+002, 8.490485e+001
5.926915e+002, 8.451653e+001
5.931736e+002, 8.440308e+001
5.936557e+002, 8.483817e+001
5.941378e+002, 8.555596e+001
5.946199e+002, 8.595016e+001
5.951021e+002, 8.603517e+001
5.955842e+002, 8.595401e+001
5.960663e+002, 8.561996e+001
5.965484e+002, 8.526405e+001
5.970305e+002, 8.520927e+001
5.975126e+002, 8.549216e+001
5.979948e+002, 8.573143e+001
5.984769e+002, 8.572334e+001
5.989590e+002, 8.557077e+001
5.994411e+002, 8.534485e+001
5.999232e+002, 8.490144e+001
6.004053e+002, 8.464460e+001
6.008875e+002, 8.476344e+001
6.013696e+002, 8.505946e+001
6.018517e+002, 8.526421e+001
6.023338e+002, 8.534887e+001
6.028159e+002, 8.539623e+001
6.032980e+002, 8.542020e+001
6.037802e+002, 8.541866e+001
6.042623e+002, 8.536062e+001
6.047444e+002, 8.523342e+001
6.052265e+002, 8.515836e+001
6.057086e+002, 8.524002e+001
6.061907e+002, 8.542342e+001
6.066729e+002, 8.556685e+001
6.071550e+002, 8.566734e+001
6.076371e+002, 8.560306e+001
6.081192e+002, 8.505933e+001
6.086013e+002, 8.437926e+001
6.090834e+002, 8.408146e+001
6.095656e+002, 8.435146e+001
6.100477e+002, 8.456020e+001
6.105298e+002, 8.408778e+001
6.110119e+002, 8.348185e+001
6.114940e+002, 8.335399e+001
6.119761e+002, 8.463627e+001
6.124583e+002, 8.546445e+001
6.129404e+002, 8.521671e+001
6.134225e+002, 8.439243e+001
6.139046e+002, 8.410439e+001
6.143867e+002, 8.461640e+001
6.148688e+002, 8.512959e+001
6.153510e+002, 8.544056e+001
6.158331e+002, 8.556346e+001
6.163152e+002, 8.557284e+001
6.167973e+002, 8.545755e+001
6.172794e+002, 8.532484e+001
6.177615e+002, 8.527177e+001
6.182437e+002, 8.525365e+001
6.187258e+002, 8.513022e+001
6.192079e+002, 8.488824e+001
6.196900e+002, 8.462839e+001
6.201721e+002, 8.433974e+001
6.206542e+002, 8.411966e+001
6.211364e+002, 8.412489e+001
6.216185e+002, 8.452119e+001
6.221006e+002, 8.484985e+001
6.225827e+002, 8.481911e+001
6.230648e+002, 8.463125e+001
6.235469e+002, 8.456865e+001
6.240291e+002, 8.502934e+001
6.245112e+002, 8.518960e+001
6.249933e+002, 8.478742e+001
6.254754e+002, 8.401517e+001
6.259575e+002, 8.354453e+001
6.264396e+002, 8.346612e+001
6.269218e+002, 8.341227e+001
6.274039e+002, 8.318174e+001
6.278860e+002, 8.284657e+001
6.283681e+002, 8.293828e+001
6.288502e+002, 8.347389e+001
6.293323e+002, 8.397571e+001
6.298145e+002, 8.402993e+001
6.302966e+002, 8.381169e+001
6.307787e+002, 8.366869e+001
6.312608e+002, 8.364124e+001
6.317429e+002, 8.357491e+001
6.322250e+002, 8.327100e+001
6.327072e+002, 8.290473e+001
6.331893e+002, 8.265051e+001
6.336714e+002, 8.249773e+001
6.341535e+002, 8.255421e+001
6.346356e+002, 8.312537e+001
6.351177e+002, 8.384508e+001
6.355999e+002, 8.412485e+001
6.360820e+002, 8.362514e+001
6.365641e+002, 8.322367e+001
6.370462e+002, 8.308170e+001
6.375283e+002, 8.312976e+001
6.380104e+002, 8.313882e+001
6.384926e+002, 8.310380e+001
6.389747e+002, 8.306773e+001
6.394568e+002, 8.307912e+001
6.399389e+002, 8.310082e+001
6.404210e+002, 8.297426e+001
6.409031e+002, 8.270825e+001
6.413853e+002, 8.245840e+001
6.418674e+002, 8.237745e+001
6.423495e+002, 8.235678e+001
6.428316e+002, 8.223391e+001
6.433137e+002, 8.197142e+001
6.437958e+002, 8.180987e+001
6.442780e+002, 8.194563e+001
6.447601e+002, 8.219204e+001
6.452422e+002, 8.239157e+001
6.457243e+002, 8.260257e+001
6.462064e+002, 8.261303e+001
6.466885e+002, 8.216289e+001
6.471707e+002, 8.166220e+001
6.476528e+002, 8.175410e+001
6.481349e+002, 8.274177e+001
6.486170e+002, 8.330592e+001
6.490991e+002, 8.307982e+001
6.495812e+002, 8.242359e+001
6.500634e+002, 8.218964e+001
6.505455e+002, 8.235104e+001
6.510276e+002, 8.254681e+001
6.515097e+002, 8.265421e+001
6.519918e+002, 8.267094e+001
6.524739e+002, 8.248579e+001
6.529561e+002, 8.216299e+001
6.534382e+002, 8.202747e+001
6.539203e+002, 8.263030e+001
6.544024e+002, 8.321626e+001
6.548845e+002, 8.312405e+001
6.553666e+002, 8.220884e+001
6.558488e+002, 8.164307e+001
6.563309e+002, 8.210253e+001
6.568130e+002, 8.267577e+001
6.572951e+002, 8.277718e+001
6.577772e+002, 8.210782e+001
6.582593e+002, 8.180606e+001
6.587415e+002, 8.201828e+001
6.592236e+002, 8.236237e+001
6.597057e+002, 8.230980e+001
6.601878e+002, 8.187444e+001
6.606699e+002, 8.178605e+001
6.611520e+002, 8.228460e+001
6.616342e+002, 8.290018e+001
6.621163e+002, 8.293721e+001
6.625984e+002, 8.255273e+001
6.630805e+002, 8.215877e+001
6.635626e+002, 8.189892e+001
6.640447e+002, 8.171046e+001
6.645269e+002, 8.159354e+001
6.650090e+002, 8.151770e+001
6.654911e+002, 8.139114e+001
6.659732e+002, 8.103353e+001
6.664553e+002, 8.077084e+001
6.669374e+002, 8.072617e+001
6.674196e+002, 8.089030e+001
6.679017e+002, 8.119555e+001
6.683838e+002, 8.175960e+001
6.688659e+002, 8.225281e+001
6.693480e+002, 8.251922e+001
6.698301e+002, 8.256081e+001
6.703123e+002, 8.243681e+001
6.707944e+002, 8.212486e+001
6.712765e+002, 8.181458e+001
6.717586e+002, 8.162373e+001
6.722407e+002, 8.156301e+001
6.727228e+002, 8.171861e+001
6.732050e+002, 8.214583e+001
6.736871e+002, 8.250018e+001
6.741692e+002, 8.248244e+001
6.746513e+002, 8.226550e+001
6.751334e+002, 8.205191e+001
6.756155e+002, 8.192788e+001
6.760977e+002, 8.175183e+001
6.765798e+002, 8.138969e+001
6.770619e+002, 8.099425e+001
6.775440e+002, 8.079893e+001
6.780261e+002, 8.087337e+001
6.785082e+002, 8.101025e+001
6.789904e+002, 8.119201e+001
6.794725e+002, 8.140451e+001
6.799546e+002, 8.168361e+001
6.804367e+002, 8.202879e+001
6.809188e+002, 8.213944e+001
6.814009e+002, 8.168918e+001
6.818831e+002, 8.105531e+001
6.823652e+002, 8.101074e+001
6.828473e+002, 8.145654e+001
6.833294e+002, 8.189965e+001
6.838115e+002, 8.218037e+001
6.842936e+002, 8.225364e+001
6.847758e+002, 8.199629e+001
6.852579e+002, 8.140889e+001
6.857400e+002, 8.093643e+001
6.862221e+002, 8.062327e+001
6.867042e+002, 8.052836e+001
6.871863e+002, 8.075179e+001
6.876685e+002, 8.145924e+001
6.881506e+002, 8.169516e+001
6.886327e+002, 8.126311e+001
6.891148e+002, 8.076386e+001
6.895969e+002, 8.083696e+001
6.900790e+002, 8.142953e+001
6.905612e+002, 8.167640e+001
6.910433e+002, 8.143652e+001
6.915254e+002, 8.111382e+001
6.920075e+002, 8.125794e+001
6.924896e+002, 8.163918e+001
6.929717e+002, 8.182114e+001
6.934539e+002, 8.159939e+001
6.939360e+002, 8.132150e+001
6.944181e+002, 8.110224e+001
6.949002e+002, 8.097824e+001
6.953823e+002, 8.100659e+001
6.958644e+002, 8.144315e+001
6.963466e+002, 8.173514e+001
6.968287e+002, 8.176980e+001
6.973108e+002, 8.162440e+001
6.977929e+002, 8.146988e+001
6.982750e+002, 8.127564e+001
6.987571e+002, 8.121357e+001
6.992393e+002, 8.142866e+001
6.997214e+002, 8.176531e+001
7.002035e+002, 8.162136e+001
7.006856e+002, 8.106449e+001
7.011677e+002, 8.069086e+001
7.016498e+002, 8.116475e+001
7.021320e+002, 8.181290e+001
7.026141e+002, 8.173476e+001
7.030962e+002, 8.100321e+001
7.035783e+002, 8.044991e+001
7.040604e+002, 8.069086e+001
7.045425e+002, 8.102477e+001
7.050247e+002, 8.102149e+001
7.055068e+002, 8.056239e+001
7.059889e+002, 8.023185e+001
7.064710e+002, 7.999973e+001
7.069531e+002, 7.993858e+001
7.074352e+002, 8.018523e+001
7.079174e+002, 8.079261e+001
7.083995e+002, 8.104932e+001
7.088816e+002, 8.089232e+001
7.093637e+002, 8.063509e+001
7.098458e+002, 8.060405e+001
7.103279e+002, 8.072828e+001
7.108101e+002, 8.084705e+001
7.112922e+002, 8.094756e+001
7.117743e+002, 8.097258e+001
7.122564e+002, 8.074208e+001
7.127385e+002, 8.046847e+001
7.132206e+002, 8.041230e+001
7.137028e+002, 8.087027e+001
7.141849e+002, 8.123604e+001
7.146670e+002, 8.142110e+001
7.151491e+002, 8.144162e+001
7.156312e+002, 8.126424e+001
7.161133e+002, 8.074355e+001
7.165955e+002, 8.045642e+001
7.170776e+002, 8.057587e+001
7.175597e+002, 8.089277e+001
7.180418e+002, 8.091068e+001
7.185239e+002, 8.066711e+001
7.190060e+002, 8.054400e+001
7.194882e+002, 8.076672e+001
7.199703e+002, 8.109866e+001
7.204524e+002, 8.128446e+001
7.209345e+002, 8.133894e+001
7.214166e+002, 8.131392e+001
7.218987e+002, 8.123377e+001
7.223809e+002, 8.107636e+001
7.228630e+002, 8.060330e+001
7.233451e+002, 7.992493e+001
7.238272e+002, 8.001218e+001
7.243093e+002, 8.173508e+001
7.247914e+002, 8.295324e+001
7.252736e+002, 8.263740e+001
7.257557e+002, 8.096762e+001
7.262378e+002, 8.026933e+001
7.267199e+002, 8.062952e+001
7.272020e+002, 8.117398e+001
7.276841e+002, 8.134742e+001
7.281663e+002, 8.128144e+001
7.286484e+002, 8.127763e+001
7.291305e+002, 8.134132e+001
7.296126e+002, 8.131437e+001
7.300947e+002, 8.093511e+001
7.305768e+002, 8.052437e+001
7.310590e+002, 8.035484e+001
7.315411e+002, 8.049888e+001
7.320232e+002, 8.067665e+001
7.325053e+002, 8.088631e+001
7.329874e+002, 8.107294e+001
7.334695e+002, 8.119966e+001
7.339517e+002, 8.124669e+001
7.344338e+002, 8.130161e+001
7.349159e+002, 8.137418e+001
7.353980e+002, 8.142588e+001
7.358801e+002, 8.147414e+001
7.363622e+002, 8.147778e+001
7.368444e+002, 8.117372e+001
7.373265e+002, 8.044030e+001
7.378086e+002, 7.982146e+001
7.382907e+002, 7.994547e+001
7.387728e+002, 8.045412e+001
7.392549e+002, 8.089769e+001
7.397371e+002, 8.123213e+001
7.402192e+002, 8.136251e+001
7.407013e+002, 8.104932e+001
7.411834e+002, 8.060567e+001
7.416655e+002, 8.044923e+001
7.421476e+002, 8.069341e+001
7.426298e+002, 8.097543e+001
7.431119e+002, 8.130376e+001
7.435940e+002, 8.158045e+001
7.440761e+002, 8.149020e+001
7.445582e+002, 8.109338e+001
7.450403e+002, 8.105740e+001
7.455225e+002, 8.174507e+001
7.460046e+002, 8.259520e+001
7.464867e+002, 8.300034e+001
7.469688e+002, 8.303567e+001
7.474509e+002, 8.285728e+001
7.479330e+002, 8.235569e+001
7.484152e+002, 8.183572e+001
7.488973e+002, 8.133163e+001
7.493794e+002, 8.089455e+001
7.498615e+002, 8.070102e+001
7.503436e+002, 8.092381e+001
7.508257e+002, 8.106733e+001
7.513079e+002, 8.097229e+001
7.517900e+002, 8.072620e+001
7.522721e+002, 8.066160e+001
7.527542e+002, 8.077865e+001
7.532363e+002, 8.089022e+001
7.537184e+002, 8.085369e+001
7.542006e+002, 8.079111e+001
7.546827e+002, 8.092941e+001
7.551648e+002, 8.122520e+001
7.556469e+002, 8.149087e+001
7.561290e+002, 8.172294e+001
7.566111e+002, 8.181728e+001
7.570933e+002, 8.164711e+001
7.575754e+002, 8.123112e+001
7.580575e+002, 8.091679e+001
7.585396e+002, 8.070222e+001
7.590217e+002, 8.062158e+001
7.595038e+002, 8.072099e+001
7.599860e+002, 8.098087e+001
7.604681e+002, 8.119639e+001
7.609502e+002, 8.136517e+001
7.614323e+002, 8.149834e+001
7.619144e+002, 8.160513e+001
7.623965e+002, 8.168015e+001
7.628787e+002, 8.176336e+001
7.633608e+002, 8.183949e+001
7.638429e+002, 8.173466e+001
7.643250e+002, 8.107548e+001
7.648071e+002, 8.040443e+001
7.652892e+002, 8.010413e+001
7.657714e+002, 8.023721e+001
7.662535e+002, 8.048107e+001
7.667356e+002, 8.089746e+001
7.672177e+002, 8.130734e+001
7.676998e+002, 8.164584e+001
7.681819e+002, 8.192482e+001
7.686641e+002, 8.191093e+001
7.691462e+002, 8.156627e+001
7.696283e+002, 8.122202e+001
7.701104e+002, 8.117200e+001
7.705925e+002, 8.131523e+001
7.710746e+002, 8.149902e+001
7.715568e+002, 8.171240e+001
7.720389e+002, 8.183651e+001
7.725210e+002, 8.175047e+001
7.730031e+002, 8.157539e+001
7.734852e+002, 8.138985e+001
7.739673e+002, 8.117636e+001
7.744495e+002, 8.105007e+001
7.749316e+002, 8.109189e+001
7.754137e+002, 8.112455e+001
7.758958e+002, 8.095089e+001
7.763779e+002, 8.053236e+001
7.768600e+002, 8.046548e+001
7.773422e+002, 8.081280e+001
7.778243e+002, 8.124696e+001
7.783064e+002, 8.148627e+001
7.787885e+002, 8.156669e+001
7.792706e+002, 8.150064e+001
7.797527e+002, 8.125064e+001
7.802349e+002, 8.112054e+001
7.807170e+002, 8.148669e+001
7.811991e+002, 8.194130e+001
7.816812e+002, 8.211935e+001
7.821633e+002, 8.182661e+001
7.826454e+002, 8.150341e+001
7.831276e+002, 8.107524e+001
7.836097e+002, 8.070605e+001
7.840918e+002, 8.061868e+001
7.845739e+002, 8.082031e+001
7.850560e+002, 8.081654e+001
7.855381e+002, 8.050972e+001
7.860203e+002, 8.026350e+001
7.865024e+002, 8.070020e+001
7.869845e+002, 8.141757e+001
7.874666e+002, 8.166682e+001
7.879487e+002, 8.112659e+001
7.884308e+002, 8.062167e+001
7.889130e+002, 8.060570e+001
7.893951e+002, 8.079686e+001
7.898772e+002, 8.090687e+001
7.903593e+002, 8.087215e+001
7.908414e+002, 8.080716e+001
7.913235e+002, 8.064750e+001
7.918057e+002, 8.054818e+001
7.922878e+002, 8.072594e+001
7.927699e+002, 8.116585e+001
7.932520e+002, 8.165984e+001
7.937341e+002, 8.222447e+001
7.942162e+002, 8.263478e+001
7.946984e+002, 8.251323e+001
7.951805e+002, 8.212063e+001
7.956626e+002, 8.189365e+001
7.961447e+002, 8.206485e+001
7.966268e+002, 8.211122e+001
7.971089e+002, 8.154607e+001
7.975911e+002, 8.092075e+001
7.980732e+002, 8.088829e+001
7.985553e+002, 8.189524e+001
7.990374e+002, 8.240709e+001
7.995195e+002, 8.218539e+001
8.000016e+002, 8.175404e+001
8.004838e+002, 8.188340e+001
8.009659e+002, 8.244764e+001
8.014480e+002, 8.267826e+001
8.019301e+002, 8.237205e+001
8.024122e+002, 8.197303e+001
8.028943e+002, 8.189108e+001
8.033765e+002, 8.198735e+001
8.038586e+002, 8.207799e+001
8.043407e+002, 8.209517e+001
8.048228e+002, 8.214322e+001
8.053049e+002, 8.229682e+001
8.057870e+002, 8.245886e+001
8.062692e+002, 8.252351e+001
8.067513e+002, 8.245592e+001
8.072334e+002, 8.242610e+001
8.077155e+002, 8.245321e+001
8.081976e+002, 8.250430e+001
8.086797e+002, 8.260953e+001
8.091619e+002, 8.270399e+001
8.096440e+002, 8.253232e+001
8.101261e+002, 8.193929e+001
8.106082e+002, 8.146806e+001
8.110903e+002, 8.170472e+001
8.115724e+002, 8.219640e+001
8.120546e+002, 8.244193e+001
8.125367e+002, 8.210955e+001
8.130188e+002, 8.191390e+001
8.135009e+002, 8.192069e+001
8.139830e+002, 8.204465e+001
8.144651e+002, 8.225220e+001
8.149473e+002, 8.256387e+001
8.154294e+002, 8.259902e+001
8.159115e+002, 8.226598e+001
8.163936e+002, 8.191178e+001
8.168757e+002, 8.202049e+001
8.173578e+002, 8.236457e+001
8.178400e+002, 8.255772e+001
8.183221e+002, 8.251431e+001
8.188042e+002, 8.232053e+001
8.192863e+002, 8.181187e+001
8.197684e+002, 8.128828e+001
8.202505e+002, 8.104780e+001
8.207327e+002, 8.117931e+001
8.212148e+002, 8.143519e+001
8.216969e+002, 8.191853e+001
8.221790e+002, 8.233471e+001
8.226611e+002, 8.228755e+001
8.231432e+002, 8.185471e+001
8.236254e+002, 8.152257e+001
8.241075e+002, 8.134045e+001
8.245896e+002, 8.126682e+001
8.250717e+002, 8.127407e+001
8.255538e+002, 8.136522e+001
8.260359e+002, 8.158125e+001
8.265181e+002, 8.200504e+001
8.270002e+002, 8.228336e+001
8.274823e+002, 8.227531e+001
8.279644e+002, 8.214645e+001
8.284465e+002, 8.196182e+001
8.289286e+002, 8.167059e+001
8.294108e+002, 8.164619e+001
8.298929e+002, 8.195632e+001
8.303750e+002, 8.224659e+001
8.308571e+002, 8.206098e+001
8.313392e+002, 8.164188e+001
8.318214e+002, 8.159217e+001
8.323035e+002, 8.198904e+001
8.327856e+002, 8.225094e+001
8.332677e+002, 8.170461e+001
8.337498e+002, 8.109740e+001
8.342319e+002, 8.103897e+001
8.347141e+002, 8.177310e+001
8.351962e+002, 8.234183e+001
8.356783e+002, 8.277583e+001
8.361604e+002, 8.298671e+001
8.366425e+002, 8.281707e+001
8.371246e+002, 8.230166e+001
8.376068e+002, 8.195039e+001
8.380889e+002, 8.176569e+001
8.385710e+002, 8.177625e+001
8.390531e+002, 8.221374e+001
8.395352e+002, 8.272888e+001
8.400173e+002, 8.294117e+001
8.404995e+002, 8.282785e+001
8.409816e+002, 8.260017e+001
8.414637e+002, 8.207162e+001
8.419458e+002, 8.170412e+001
8.424279e+002, 8.177395e+001
8.429100e+002, 8.226836e+001
8.433922e+002, 8.244138e+001
8.438743e+002, 8.223597e+001
8.443564e+002, 8.201730e+001
8.448385e+002, 8.204617e+001
8.453206e+002, 8.220535e+001
8.458027e+002, 8.214064e+001
8.462849e+002, 8.191456e+001
8.467670e+002, 8.188427e+001
8.472491e+002, 8.262663e+001
8.477312e+002, 8.327634e+001
8.482133e+002, 8.320800e+001
8.486954e+002, 8.249898e+001
8.491776e+002, 8.211572e+001
8.496597e+002, 8.229311e+001
8.501418e+002, 8.236182e+001
8.506239e+002, 8.203087e+001
8.511060e+002, 8.146803e+001
8.515881e+002, 8.120362e+001
8.520703e+002, 8.122978e+001
8.525524e+002, 8.148657e+001
8.530345e+002, 8.225894e+001
8.535166e+002, 8.295191e+001
8.539987e+002, 8.284872e+001
8.544808e+002, 8.223675e+001
8.549630e+002, 8.184604e+001
8.554451e+002, 8.203064e+001
8.559272e+002, 8.230446e+001
8.564093e+002, 8.265755e+001
8.568914e+002, 8.298934e+001
8.573735e+002, 8.303294e+001
8.578557e+002, 8.275715e+001
8.583378e+002, 8.257518e+001
8.588199e+002, 8.263167e+001
8.593020e+002, 8.275756e+001
8.597841e+002, 8.264316e+001
8.602662e+002, 8.241655e+001
8.607484e+002, 8.236097e+001
8.612305e+002, 8.283464e+001
8.617126e+002, 8.310509e+001
8.621947e+002, 8.261510e+001
8.626768e+002, 8.188544e+001
8.631589e+002, 8.169617e+001
8.636411e+002, 8.235841e+001
8.641232e+002, 8.262162e+001
8.646053e+002, 8.225703e+001
8.650874e+002, 8.174891e+001
8.655695e+002, 8.178014e+001
8.660516e+002, 8.219653e+001
8.665338e+002, 8.252306e+001
8.670159e+002, 8.267517e+001
8.674980e+002, 8.272359e+001
8.679801e+002, 8.266926e+001
8.684622e+002, 8.256575e+001
8.689443e+002, 8.245737e+001
8.694265e+002, 8.231690e+001
8.699086e+002, 8.226423e+001
8.703907e+002, 8.234435e+001
8.708728e+002, 8.244254e+001
8.713549e+002, 8.241768e+001
8.718370e+002, 8.229489e+001
8.723192e+002, 8.247359e+001
8.728013e+002, 8.298082e+001
8.732834e+002, 8.329704e+001
8.737655e+002, 8.272873e+001
8.742476e+002, 8.193110e+001
8.747297e+002, 8.157585e+001
8.752119e+002, 8.173165e+001
8.756940e+002, 8.193975e+001
8.761761e+002, 8.212125e+001
8.766582e+002, 8.230034e+001
8.771403e+002, 8.251330e+001
8.776224e+002, 8.274705e+001
8.781046e+002, 8.278944e+001
8.785867e+002, 8.263217e+001
8.790688e+002, 8.247457e+001
8.795509e+002, 8.244842e+001
8.800330e+002, 8.248943e+001
8.805151e+002, 8.256328e+001
8.809973e+002, 8.263763e+001
8.814794e+002, 8.258805e+001
8.819615e+002, 8.203582e+001
8.824436e+002, 8.170844e+001
8.829257e+002, 8.212946e+001
8.834078e+002, 8.295124e+001
8.838900e+002, 8.315165e+001
8.843721e+002, 8.260786e+001
8.848542e+002, 8.206155e+001
8.853363e+002, 8.165444e+001
8.858184e+002, 8.147194e+001
8.863005e+002, 8.185865e+001
8.867827e+002, 8.258920e+001
8.872648e+002, 8.308241e+001
8.877469e+002, 8.305614e+001
8.882290e+002, 8.285627e+001
8.887111e+002, 8.243021e+001
8.891932e+002, 8.200134e+001
8.896754e+002, 8.192133e+001
8.901575e+002, 8.241649e+001
8.906396e+002, 8.264632e+001
8.911217e+002, 8.248010e+001
8.916038e+002, 8.218945e+001
8.920859e+002, 8.205782e+001
8.925681e+002, 8.207925e+001
8.930502e+002, 8.227003e+001
8.935323e+002, 8.265343e+001
8.940144e+002, 8.303983e+001
8.944965e+002, 8.341505e+001
8.949786e+002, 8.365362e+001
8.954608e+002, 8.360217e+001
8.959429e+002, 8.312205e+001
8.964250e+002, 8.282011e+001
8.969071e+002, 8.273927e+001
8.973892e+002, 8.275416e+001
8.978713e+002, 8.278617e+001
8.983535e+002, 8.284109e+001
8.988356e+002, 8.295360e+001
8.993177e+002, 8.312302e+001
8.997998e+002, 8.333549e+001
9.002819e+002, 8.378551e+001
9.007640e+002, 8.410927e+001
9.012462e+002, 8.394366e+001
9.017283e+002, 8.333184e+001
9.022104e+002, 8.280697e+001
9.026925e+002, 8.233633e+001
9.031746e+002, 8.212540e+001
9.036567e+002, 8.229176e+001
9.041389e+002, 8.272867e+001
9.046210e+002, 8.319394e+001
9.051031e+002, 8.365868e+001
9.055852e+002, 8.387497e+001
9.060673e+002, 8.362497e+001
9.065494e+002, 8.324630e+001
9.070316e+002, 8.293375e+001
9.075137e+002, 8.273333e+001
9.079958e+002, 8.272432e+001
9.084779e+002, 8.324722e+001
9.089600e+002, 8.351064e+001
9.094421e+002, 8.333733e+001
9.099243e+002, 8.299733e+001
9.104064e+002, 8.285323e+001
9.108885e+002, 8.289547e+001
9.113706e+002, 8.296917e+001
9.118527e+002, 8.307497e+001
9.123348e+002, 8.305965e+001
9.128170e+002, 8.246383e+001
9.132991e+002, 8.183206e+001
9.137812e+002, 8.190369e+001
9.142633e+002, 8.306224e+001
9.147454e+002, 8.378142e+001
9.152275e+002, 8.350667e+001
9.157097e+002, 8.313499e+001
9.161918e+002, 8.324512e+001
9.166739e+002, 8.382458e+001
9.171560e+002, 8.399289e+001
9.176381e+002, 8.374593e+001
9.181202e+002, 8.343433e+001
9.186024e+002, 8.329061e+001
9.190845e+002, 8.321645e+001
9.195666e+002, 8.304448e+001
9.200487e+002, 8.281990e+001
9.205308e+002, 8.280391e+001
9.210129e+002, 8.335349e+001
9.214951e+002, 8.378316e+001
9.219772e+002, 8.389882e+001
9.224593e+002, 8.378557e+001
9.229414e+002, 8.367409e+001
9.234235e+002, 8.356509e+001
9.239056e+002, 8.348850e+001
9.243878e+002, 8.346165e+001
9.248699e+002, 8.345479e+001
9.253520e+002, 8.334929e+001
9.258341e+002, 8.326488e+001
9.263162e+002, 8.340266e+001
9.267983e+002, 8.426369e+001
9.272805e+002, 8.464820e+001
9.277626e+002, 8.415582e+001
9.282447e+002, 8.344061e+001
9.287268e+002, 8.322136e+001
9.292089e+002, 8.350419e+001
9.296910e+002, 8.353760e+001
9.301732e+002, 8.324963e+001
9.306553e+002, 8.295560e+001
9.311374e+002, 8.302866e+001
9.316195e+002, 8.320305e+001
9.321016e+002, 8.308155e+001
9.325837e+002, 8.260008e+001
9.330659e+002, 8.246612e+001
9.335480e+002, 8.325169e+001
9.340301e+002, 8.392921e+001
9.345122e+002, 8.407171e+001
9.349943e+002, 8.375300e+001
9.354764e+002, 8.336956e+001
9.359586e+002, 8.292631e+001
9.364407e+002, 8.278608e+001
9.369228e+002, 8.345057e+001
9.374049e+002, 8.419714e+001
9.378870e+002, 8.421443e+001
9.383691e+002, 8.373633e+001
9.388513e+002, 8.330299e+001
9.393334e+002, 8.299523e+001
9.398155e+002, 8.283949e+001
9.402976e+002, 8.286366e+001
9.407797e+002, 8.301333e+001
9.412618e+002, 8.330894e+001
9.417440e+002, 8.371904e+001
9.422261e+002, 8.371281e+001
9.427082e+002, 8.312432e+001
9.431903e+002, 8.254760e+001
9.436724e+002, 8.261993e+001
9.441545e+002, 8.296687e+001
9.446367e+002, 8.318478e+001
9.451188e+002, 8.313860e+001
9.456009e+002, 8.326345e+001
9.460830e+002, 8.371966e+001
9.465651e+002, 8.414316e+001
9.470472e+002, 8.433714e+001
9.475294e+002, 8.431017e+001
9.480115e+002, 8.403586e+001
9.484936e+002, 8.354369e+001
9.489757e+002, 8.319664e+001
9.494578e+002, 8.334781e+001
9.499399e+002, 8.362505e+001
9.504221e+002, 8.379722e+001
9.509042e+002, 8.386053e+001
9.513863e+002, 8.381826e+001
9.518684e+002, 8.366462e+001
9.523505e+002, 8.342459e+001
9.528326e+002, 8.304107e+001
9.533148e+002, 8.266293e+001
9.537969e+002, 8.262395e+001
9.542790e+002, 8.285013e+001
9.547611e+002, 8.298792e+001
9.552432e+002, 8.289137e+001
9.557253e+002, 8.290360e+001
9.562075e+002, 8.347743e+001
9.566896e+002, 8.415932e+001
9.571717e+002, 8.446400e+001
9.576538e+002, 8.418279e+001
9.581359e+002, 8.407813e+001
9.586180e+002, 8.420625e+001
9.591002e+002, 8.436306e+001
9.595823e+002, 8.434229e+001
9.600644e+002, 8.423610e+001
9.605465e+002, 8.442106e+001
9.610286e+002, 8.484829e+001
9.615107e+002, 8.510127e+001
9.619929e+002, 8.482284e+001
9.624750e+002, 8.443107e+001
9.629571e+002, 8.399671e+001
9.634392e+002, 8.362798e+001
9.639213e+002, 8.372537e+001
9.644034e+002, 8.445345e+001
9.648856e+002, 8.499593e+001
9.653677e+002, 8.516191e+001
9.658498e+002, 8.503693e+001
9.663319e+002, 8.454158e+001
9.668140e+002, 8.390047e+001
9.672961e+002, 8.361559e+001
9.677783e+002, 8.392276e+001
9.682604e+002, 8.430869e+001
9.687425e+002, 8.479580e+001
9.692246e+002, 8.511311e+001
9.697067e+002, 8.498672e+001
9.701888e+002, 8.431416e+001
9.706710e+002, 8.398599e+001
9.711531e+002, 8.403175e+001
9.716352e+002, 8.415929e+001
9.721173e+002, 8.407023e+001
9.725994e+002, 8.397562e+001
9.730815e+002, 8.427036e+001
9.735637e+002, 8.486794e+001
9.740458e+002, 8.523081e+001
9.745279e+002, 8.493656e+001
9.750100e+002, 8.467484e+001
9.754921e+002, 8.461599e+001
9.759742e+002, 8.470056e+001
9.764564e+002, 8.482088e+001
9.769385e+002, 8.497183e+001
9.774206e+002, 8.500167e+001
9.779027e+002, 8.483017e+001
9.783848e+002, 8.466137e+001
9.788669e+002, 8.474516e+001
9.793491e+002, 8.491942e+001
9.798312e+002, 8.496487e+001
9.803133e+002, 8.470375e+001
9.807954e+002, 8.471567e+001
9.812775e+002, 8.518682e+001
9.817596e+002, 8.563607e+001
9.822418e+002, 8.571632e+001
9.827239e+002, 8.547840e+001
9.832060e+002, 8.509898e+001
9.836881e+002, 8.461093e+001
9.841702e+002, 8.429414e+001
9.846523e+002, 8.441878e+001
9.851345e+002, 8.466927e+001
9.856166e+002, 8.492411e+001
9.860987e+002, 8.514866e+001
9.865808e+002, 8.525240e+001
9.870629e+002, 8.518970e+001
9.875450e+002, 8.515527e+001
9.880272e+002, 8.519889e+001
9.885093e+002, 8.525870e+001
9.889914e+002, 8.520618e+001
9.894735e+002, 8.510780e+001
9.899556e+002, 8.512101e+001
9.904377e+002, 8.531958e+001
9.909199e+002, 8.546224e+001
9.914020e+002, 8.541499e+001
9.918841e+002, 8.530386e+001
9.923662e+002, 8.518178e+001
9.928483e+002, 8.504534e+001
9.933304e+002, 8.515654e+001
9.938126e+002, 8.553764e+001
9.942947e+002, 8.577857e+001
9.947768e+002, 8.535542e+001
9.952589e+002, 8.484335e+001
9.957410e+002, 8.506249e+001
9.962231e+002, 8.577061e+001
9.967053e+002, 8.626538e+001
9.971874e+002, 8.614707e+001
9.976695e+002, 8.604606e+001
9.981516e+002, 8.602699e+001
9.986337e+002, 8.608343e+001
9.991158e+002, 8.622419e+001
9.995980e+002, 8.644019e+001
1.000080e+003, 8.668509e+001
1.000562e+003, 8.696927e+001
1.001044e+003, 8.715105e+001
1.001526e+003, 8.712733e+001
1.002009e+003, 8.695496e+001
1.002491e+003, 8.664899e+001
1.002973e+003, 8.619450e+001
1.003455e+003, 8.577518e+001
1.003937e+003, 8.536729e+001
1.004419e+003, 8.507987e+001
1.004901e+003, 8.500777e+001
1.005383e+003, 8.504684e+001
1.005865e+003, 8.500346e+001
1.006348e+003, 8.487865e+001
1.006830e+003, 8.467310e+001
1.007312e+003, 8.417809e+001
1.007794e+003, 8.386125e+001
1.008276e+003, 8.400262e+001
1.008758e+003, 8.430413e+001
1.009240e+003, 8.442833e+001
1.009722e+003, 8.433812e+001
1.010205e+003, 8.450422e+001
1.010687e+003, 8.499169e+001
1.011169e+003, 8.540633e+001
1.011651e+003, 8.536476e+001
1.012133e+003, 8.509358e+001
1.012615e+003, 8.475632e+001
1.013097e+003, 8.438294e+001
1.013579e+003, 8.418215e+001
1.014061e+003, 8.424324e+001
1.014544e+003, 8.439085e+001
1.015026e+003, 8.463071e+001
1.015508e+003, 8.487456e+001
1.015990e+003, 8.484943e+001
1.016472e+003, 8.462693e+001
1.016954e+003, 8.452148e+001
1.017436e+003, 8.470577e+001
1.017918e+003, 8.483012e+001
1.018401e+003, 8.446342e+001
1.018883e+003, 8.406815e+001
1.019365e+003, 8.419901e+001
1.019847e+003, 8.510616e+001
1.020329e+003, 8.522929e+001
1.020811e+003, 8.441776e+001
1.021293e+003, 8.364901e+001
1.021775e+003, 8.369018e+001
1.022257e+003, 8.418201e+001
1.022740e+003, 8.472736e+001
1.023222e+003, 8.524609e+001
1.023704e+003, 8.548215e+001
1.024186e+003, 8.505892e+001
1.024668e+003, 8.469742e+001
1.025150e+003, 8.451815e+001
1.025632e+003, 8.450240e+001
1.026114e+003, 8.472888e+001
1.026596e+003, 8.514269e+001
1.027079e+003, 8.521244e+001
1.027561e+003, 8.480779e+001
1.028043e+003, 8.443700e+001
1.028525e+003, 8.452915e+001
1.029007e+003, 8.482491e+001
1.029489e+003, 8.518880e+001
1.029971e+003, 8.561767e+001
1.030453e+003, 8.562584e+001
1.030936e+003, 8.499183e+001
1.031418e+003, 8.471191e+001
1.031900e+003, 8.540543e+001
1.032382e+003, 8.649265e+001
1.032864e+003, 8.686404e+001
1.033346e+003, 8.670052e+001
1.033828e+003, 8.641115e+001
1.034310e+003, 8.599065e+001
1.034792e+003, 8.569650e+001
1.035275e+003, 8.556432e+001
1.035757e+003, 8.560764e+001
1.036239e+003, 8.598164e+001
1.036721e+003, 8.668406e+001
1.037203e+003, 8.679102e+001
1.037685e+003, 8.627625e+001
1.038167e+003, 8.560667e+001
1.038649e+003, 8.479227e+001
1.039132e+003, 8.424859e+001
1.039614e+003, 8.455858e+001
1.040096e+003, 8.550517e+001
1.040578e+003, 8.590787e+001
1.041060e+003, 8.547859e+001
1.041542e+003, 8.514098e+001
1.042024e+003, 8.509056e+001
1.042506e+003, 8.514937e+001
1.042989e+003, 8.509847e+001
1.043471e+003, 8.493947e+001
1.043953e+003, 8.458089e+001
1.044435e+003, 8.390414e+001
1.044917e+003, 8.362646e+001
1.045399e+003, 8.457780e+001
1.045881e+003, 8.542406e+001
1.046363e+003, 8.537887e+001
1.046845e+003, 8.460178e+001
1.047328e+003, 8.442752e+001
1.047810e+003, 8.482111e+001
1.048292e+003, 8.519404e+001
1.048774e+003, 8.524654e+001
1.049256e+003, 8.521690e+001
1.049738e+003, 8.529418e+001
1.050220e+003, 8.541875e+001
1.050702e+003, 8.550334e+001
1.051184e+003, 8.561783e+001
1.051667e+003, 8.547536e+001
1.052149e+003, 8.499379e+001
1.052631e+003, 8.450276e+001
1.053113e+003, 8.425596e+001
1.053595e+003, 8.420951e+001
1.054077e+003, 8.431749e+001
1.054559e+003, 8.455735e+001
1.055041e+003, 8.481284e+001
1.055523e+003, 8.512878e+001
1.056006e+003, 8.533461e+001
1.056488e+003, 8.537482e+001
1.056970e+003, 8.529983e+001
1.057452e+003, 8.518363e+001
1.057934e+003, 8.503519e+001
1.058416e+003, 8.492964e+001
1.058898e+003, 8.488204e+001
1.059380e+003, 8.487906e+001
1.059863e+003, 8.492036e+001
1.060345e+003, 8.499452e+001
1.060827e+003, 8.516174e+001
1.061309e+003, 8.543137e+001
1.061791e+003, 8.524606e+001
1.062273e+003, 8.442152e+001
1.062755e+003, 8.405907e+001
1.063237e+003, 8.493245e+001
1.063719e+003, 8.614358e+001
1.064202e+003, 8.620473e+001
1.064684e+003, 8.558918e+001
1.065166e+003, 8.521422e+001
1.065648e+003, 8.570107e+001
1.066130e+003, 8.579310e+001
1.066612e+003, 8.509068e+001
1.067094e+003, 8.438403e+001
1.067576e+003, 8.437627e+001
1.068059e+003, 8.494636e+001
1.068541e+003, 8.547157e+001
1.069023e+003, 8.593092e+001
1.069505e+003, 8.623684e+001
1.069987e+003, 8.640881e+001
1.070469e+003, 8.633334e+001
1.070951e+003, 8.563808e+001
1.071433e+003, 8.475879e+001
1.071916e+003, 8.460025e+001
1.072398e+003, 8.527714e+001
1.072880e+003, 8.561599e+001
1.073362e+003, 8.541344e+001
1.073844e+003, 8.515192e+001
1.074326e+003, 8.542704e+001
1.074808e+003, 8.582963e+001
1.075290e+003, 8.584263e+001
1.075772e+003, 8.542241e+001
1.076255e+003, 8.533385e+001
1.076737e+003, 8.579183e+001
1.077219e+003, 8.619494e+001
1.077701e+003, 8.637846e+001
1.078183e+003, 8.635072e+001
1.078665e+003, 8.580187e+001
1.079147e+003, 8.510126e+001
1.079629e+003, 8.525972e+001
1.080111e+003, 8.703025e+001
1.080594e+003, 8.820433e+001
1.081076e+003, 8.735894e+001
1.081558e+003, 8.630610e+001
1.082040e+003, 8.611987e+001
1.082522e+003, 8.669353e+001
1.083004e+003, 8.695742e+001
1.083486e+003, 8.693523e+001
1.083968e+003, 8.683876e+001
1.084450e+003, 8.686089e+001
1.084933e+003, 8.676170e+001
1.085415e+003, 8.615423e+001
1.085897e+003, 8.542876e+001
1.086379e+003, 8.521445e+001
1.086861e+003, 8.567223e+001
1.087343e+003, 8.608144e+001
1.087825e+003, 8.643626e+001
1.088307e+003, 8.657696e+001
1.088790e+003, 8.610085e+001
1.089272e+003, 8.551032e+001
1.089754e+003, 8.550667e+001
1.090236e+003, 8.599484e+001
1.090718e+003, 8.628567e+001
1.091200e+003, 8.609494e+001
1.091682e+003, 8.599303e+001
1.092164e+003, 8.609286e+001
1.092646e+003, 8.628928e+001
1.093129e+003, 8.648662e+001
1.093611e+003, 8.664059e+001
1.094093e+003, 8.658049e+001
1.094575e+003, 8.625745e+001
1.095057e+003, 8.609263e+001
1.095539e+003, 8.648972e+001
1.096021e+003, 8.684995e+001
1.096503e+003, 8.688180e+001
1.096986e+003, 8.668755e+001
1.097468e+003, 8.666766e+001
1.097950e+003, 8.680202e+001
1.098432e+003, 8.693324e+001
1.098914e+003, 8.705262e+001
1.099396e+003, 8.704682e+001
1.099878e+003, 8.661013e+001
1.100360e+003, 8.616003e+001
1.100843e+003, 8.616516e+001
1.101325e+003, 8.669505e+001
1.101807e+003, 8.701798e+001
1.102289e+003, 8.713794e+001
1.102771e+003, 8.702541e+001
1.103253e+003, 8.640427e+001
1.103735e+003, 8.579827e+001
1.104217e+003, 8.598941e+001
1.104699e+003, 8.661823e+001
1.105182e+003, 8.700412e+001
1.105664e+003, 8.688914e+001
1.106146e+003, 8.673665e+001
1.106628e+003, 8.652536e+001
1.107110e+003, 8.635942e+001
1.107592e+003, 8.633938e+001
1.108074e+003, 8.642726e+001
1.108556e+003, 8.656055e+001
1.109038e+003, 8.673050e+001
1.109521e+003, 8.690986e+001
1.110003e+003, 8.711880e+001
1.110485e+003, 8.729987e+001
1.110967e+003, 8.746940e+001
1.111449e+003, 8.757634e+001
1.111931e+003, 8.751065e+001
1.112413e+003, 8.731022e+001
1.112895e+003, 8.713591e+001
1.113377e+003, 8.700522e+001
1.113860e+003, 8.692747e+001
1.114342e+003, 8.692384e+001
1.114824e+003, 8.696265e+001
1.115306e+003, 8.705941e+001
1.115788e+003, 8.717758e+001
1.116270e+003, 8.714329e+001
1.116752e+003, 8.696252e+001
1.117234e+003, 8.697721e+001
1.117717e+003, 8.730480e+001
1.118199e+003, 8.771939e+001
1.118681e+003, 8.825514e+001
1.119163e+003, 8.861852e+001
1.119645e+003, 8.836181e+001
1.120127e+003, 8.743840e+001
1.120609e+003, 8.712651e+001
1.121091e+003, 8.752338e+001
1.121573e+003, 8.791450e+001
1.122056e+003, 8.798416e+001
1.122538e+003, 8.791885e+001
1.123020e+003, 8.792112e+001
1.123502e+003, 8.796901e+001
1.123984e+003, 8.805425e+001
1.124466e+003, 8.834262e+001
1.124948e+003, 8.817780e+001
1.125430e+003, 8.735242e+001
1.125913e+003, 8.659946e+001
1.126395e+003, 8.639262e+001
1.126877e+003, 8.661335e+001
1.127359e+003, 8.722976e+001
1.127841e+003, 8.804273e+001
1.128323e+003, 8.848795e+001
1.128805e+003, 8.803188e+001
1.129287e+003, 8.763828e+001
1.129770e+003, 8.741432e+001
1.130252e+003, 8.732143e+001
1.130734e+003, 8.734753e+001
1.131216e+003, 8.747004e+001
1.131698e+003, 8.764482e+001
1.132180e+003, 8.784938e+001
1.132662e+003, 8.794431e+001
1.133144e+003, 8.771561e+001
1.133626e+003, 8.752660e+001
1.134109e+003, 8.750755e+001
1.134591e+003, 8.759609e+001
1.135073e+003, 8.772921e+001
1.135555e+003, 8.789785e+001
1.136037e+003, 8.800529e+001
1.136519e+003, 8.804041e+001
1.137001e+003, 8.804754e+001
1.137483e+003, 8.796821e+001
1.137965e+003, 8.795967e+001
1.138448e+003, 8.828574e+001
1.138930e+003, 8.875420e+001
1.139412e+003, 8.864650e+001
1.139894e+003, 8.791689e+001
1.140376e+003, 8.760970e+001
1.140858e+003, 8.800914e+001
1.141340e+003, 8.852045e+001
1.141822e+003, 8.856622e+001
1.142304e+003, 8.848335e+001
1.142787e+003, 8.865484e+001
1.143269e+003, 8.909175e+001
1.143751e+003, 8.907195e+001
1.144233e+003, 8.843998e+001
1.144715e+003, 8.829424e+001
1.145197e+003, 8.926080e+001
1.145679e+003, 9.027551e+001
1.146161e+003, 8.967302e+001
1.146644e+003, 8.841179e+001
1.147126e+003, 8.778154e+001
1.147608e+003, 8.823853e+001
1.148090e+003, 8.842721e+001
1.148572e+003, 8.823495e+001
1.149054e+003, 8.805397e+001
1.149536e+003, 8.807750e+001
1.150018e+003, 8.822617e+001
1.150500e+003, 8.846020e+001
1.150983e+003, 8.869314e+001
1.151465e+003, 8.874227e+001
1.151947e+003, 8.841837e+001
1.152429e+003, 8.819999e+001
1.152911e+003, 8.812242e+001
1.153393e+003, 8.814692e+001
1.153875e+003, 8.828239e+001
1.154357e+003, 8.848689e+001
1.154840e+003, 8.871172e+001
1.155322e+003, 8.891227e+001
1.155804e+003, 8.893720e+001
1.156286e+003, 8.848738e+001
1.156768e+003, 8.821350e+001
1.157250e+003, 8.829919e+001
1.157732e+003, 8.843864e+001
1.158214e+003, 8.830630e+001
1.158697e+003, 8.798277e+001
1.159179e+003, 8.771755e+001
1.159661e+003, 8.756139e+001
1.160143e+003, 8.776128e+001
1.160625e+003, 8.908405e+001
1.161107e+003, 8.993983e+001
1.161589e+003, 8.960686e+001
1.162071e+003, 8.884136e+001
1.162553e+003, 8.860854e+001
1.163036e+003, 8.882492e+001
1.163518e+003, 8.884721e+001
1.164000e+003, 8.864597e+001
1.164482e+003, 8.854878e+001
1.164964e+003, 8.894768e+001
1.165446e+003, 8.928252e+001
1.165928e+003, 8.918828e+001
1.166410e+003, 8.891416e+001
1.166892e+003, 8.898027e+001
1.167375e+003, 8.935019e+001
1.167857e+003, 8.943281e+001
1.168339e+003, 8.914048e+001
1.168821e+003, 8.883167e+001
1.169303e+003, 8.858354e+001
1.169785e+003, 8.857922e+001
1.170267e+003, 8.923460e+001
1.170749e+003, 9.017612e+001
1.171231e+003, 9.017728e+001
1.171714e+003, 8.924781e+001
1.172196e+003, 8.892603e+001
1.172678e+003, 8.963091e+001
1.173160e+003, 9.031593e+001
1.173642e+003, 8.980447e+001
1.174124e+003, 8.914213e+001
1.174606e+003, 8.937264e+001
1.175088e+003, 9.029487e+001
1.175571e+003, 9.048605e+001
1.176053e+003, 8.989175e+001
1.176535e+003, 8.980328e+001
1.177017e+003, 9.078799e+001
1.177499e+003, 9.167878e+001
1.177981e+003, 9.103104e+001
1.178463e+003, 8.996354e+001
1.178945e+003, 8.964787e+001
1.179427e+003, 9.013822e+001
1.179910e+003, 9.025266e+001
1.180392e+003, 8.995061e+001
1.180874e+003, 8.968163e+001
1.181356e+003, 8.962340e+001
1.181838e+003, 8.963992e+001
1.182320e+003, 8.953599e+001
1.182802e+003, 8.945322e+001
1.183284e+003, 8.962025e+001
1.183767e+003, 9.011608e+001
1.184249e+003, 9.031396e+001
1.184731e+003, 9.018317e+001
1.185213e+003, 8.996563e+001
1.185695e+003, 8.971132e+001
1.186177e+003, 8.952949e+001
1.186659e+003, 8.972504e+001
1.187141e+003, 8.999986e+001
1.187624e+003, 8.984416e+001
1.188106e+003, 8.895390e+001
1.188588e+003, 8.868665e+001
1.189070e+003, 8.916279e+001
1.189552e+003, 8.957716e+001
1.190034e+003, 8.925480e+001
1.190516e+003, 8.885214e+001
1.190998e+003, 8.933884e+001
1.191480e+003, 9.028072e+001
1.191963e+003, 9.095166e+001
1.192445e+003, 9.125083e+001
1.192927e+003, 9.114384e+001
1.193409e+003, 9.053002e+001
1.193891e+003, 8.996275e+001
1.194373e+003, 8.989117e+001
1.194855e+003, 9.002617e+001
1.195337e+003, 8.998921e+001
1.195819e+003, 8.986134e+001
1.196302e+003, 8.982639e+001
1.196784e+003, 8.993282e+001
1.197266e+003, 9.009966e+001
1.197748e+003, 9.035085e+001
1.198230e+003, 9.055309e+001
1.198712e+003, 9.053354e+001
1.199194e+003, 9.044779e+001
1.199676e+003, 9.051928e+001
1.200158e+003, 9.069901e+001
1.200641e+003, 9.085020e+001
1.201123e+003, 9.099796e+001
1.201605e+003, 9.097776e+001
1.202087e+003, 9.073239e+001
1.202569e+003, 9.052041e+001
1.203051e+003, 9.077137e+001
1.203533e+003, 9.106255e+001
1.204015e+003, 9.057616e+001
1.204498e+003, 8.961553e+001
1.204980e+003, 8.934507e+001
1.205462e+003, 9.034777e+001
1.205944e+003, 9.098956e+001
1.206426e+003, 9.110841e+001
1.206908e+003, 9.096465e+001
1.207390e+003, 9.064159e+001
1.207872e+003, 9.032942e+001
1.208354e+003, 9.030289e+001
1.208837e+003, 9.052048e+001
1.209319e+003, 9.076260e+001
1.209801e+003, 9.111183e+001
1.210283e+003, 9.114668e+001
1.210765e+003, 9.073209e+001
1.211247e+003, 9.032450e+001
1.211729e+003, 9.047804e+001
1.212211e+003, 9.086247e+001
1.212694e+003, 9.104201e+001
1.213176e+003, 9.104355e+001
1.213658e+003, 9.120663e+001
1.214140e+003, 9.172849e+001
1.214622e+003, 9.186027e+001
1.215104e+003, 9.141275e+001
1.215586e+003, 9.091177e+001
1.216068e+003, 9.114751e+001
1.216551e+003, 9.150449e+001
1.217033e+003, 9.103330e+001
1.217515e+003, 8.985415e+001
1.217997e+003, 8.934904e+001
1.218479e+003, 8.981116e+001
1.218961e+003, 9.015527e+001
1.219443e+003, 9.017970e+001
1.219925e+003, 9.012622e+001
1.220407e+003, 9.023705e+001
1.220890e+003, 9.043998e+001
1.221372e+003, 9.072704e+001
1.221854e+003, 9.105293e+001
1.222336e+003, 9.110232e+001
1.222818e+003, 9.076083e+001
1.223300e+003, 9.057973e+001
1.223782e+003, 9.068060e+001
1.224264e+003, 9.089516e+001
1.224746e+003, 9.111021e+001
1.225229e+003, 9.128955e+001
1.225711e+003, 9.141546e+001
1.226193e+003, 9.147261e+001
1.226675e+003, 9.137138e+001
1.227157e+003, 9.105267e+001
1.227639e+003, 9.091935e+001
1.228121e+003, 9.108430e+001
1.228603e+003, 9.132497e+001
1.229085e+003, 9.145139e+001
1.229568e+003, 9.150240e+001
1.230050e+003, 9.147815e+001
1.230532e+003, 9.139751e+001
1.231014e+003, 9.140038e+001
1.231496e+003, 9.148959e+001
1.231978e+003, 9.166284e+001
1.232460e+003, 9.195544e+001
1.232942e+003, 9.215014e+001
1.233425e+003, 9.194109e+001
1.233907e+003, 9.162096e+001
1.234389e+003, 9.144832e+001
1.234871e+003, 9.140899e+001
1.235353e+003, 9.134166e+001
1.235835e+003, 9.124602e+001
1.236317e+003, 9.114243e+001
1.236799e+003, 9.102701e+001
1.237281e+003, 9.096014e+001
1.237764e+003, 9.103625e+001
1.238246e+003, 9.114455e+001
1.238728e+003, 9.113081e+001
1.239210e+003, 9.106760e+001
1.239692e+003, 9.142607e+001
1.240174e+003, 9.216932e+001
1.240656e+003, 9.238614e+001
1.241138e+003, 9.177291e+001
1.241621e+003, 9.111845e+001
1.242103e+003, 9.086495e+001
1.242585e+003, 9.093333e+001
1.243067e+003, 9.140390e+001
1.243549e+003, 9.210047e+001
1.244031e+003, 9.234753e+001
1.244513e+003, 9.220748e+001
1.244995e+003, 9.218545e+001
1.245478e+003, 9.242434e+001
1.245960e+003, 9.262769e+001
1.246442e+003, 9.263470e+001
1.246924e+003, 9.251689e+001
1.247406e+003, 9.225159e+001
1.247888e+003, 9.194780e+001
1.248370e+003, 9.208579e+001
1.248852e+003, 9.251457e+001
1.249334e+003, 9.249740e+001
1.249817e+003, 9.177278e+001
1.250299e+003, 9.127242e+001
1.250781e+003, 9.167078e+001
1.251263e+003, 9.213563e+001
1.251745e+003, 9.233740e+001
1.252227e+003, 9.237855e+001
1.252709e+003, 9.257166e+001
1.253191e+003, 9.281152e+001
1.253673e+003, 9.275655e+001
1.254156e+003, 9.229858e+001
1.254638e+003, 9.185830e+001
1.255120e+003, 9.147190e+001
1.255602e+003, 9.127048e+001
1.256084e+003, 9.132039e+001
1.256566e+003, 9.155727e+001
1.257048e+003, 9.195975e+001
1.257530e+003, 9.241958e+001
1.258012e+003, 9.269836e+001
1.258495e+003, 9.274220e+001
1.258977e+003, 9.275369e+001
1.259459e+003, 9.276859e+001
1.259941e+003, 9.274294e+001
1.260423e+003, 9.263573e+001
1.260905e+003, 9.253744e+001
1.261387e+003, 9.263030e+001
1.261869e+003, 9.280825e+001
1.262352e+003, 9.296949e+001
1.262834e+003, 9.310417e+001
1.263316e+003, 9.287354e+001
1.263798e+003, 9.208898e+001
1.264280e+003, 9.161600e+001
1.264762e+003, 9.175632e+001
1.265244e+003, 9.216434e+001
1.265726e+003, 9.264748e+001
1.266208e+003, 9.301498e+001
1.266691e+003, 9.294186e+001
1.267173e+003, 9.242149e+001
1.267655e+003, 9.226456e+001
1.268137e+003, 9.252024e+001
1.268619e+003, 9.270303e+001
1.269101e+003, 9.265344e+001
1.269583e+003, 9.263716e+001
1.270065e+003, 9.301246e+001
1.270548e+003, 9.344933e+001
1.271030e+003, 9.362820e+001
1.271512e+003, 9.360051e+001
1.271994e+003, 9.361563e+001
1.272476e+003, 9.366992e+001
1.272958e+003, 9.351821e+001
1.273440e+003, 9.305066e+001
1.273922e+003, 9.280086e+001
1.274405e+003, 9.354762e+001
1.274887e+003, 9.421796e+001
1.275369e+003, 9.409409e+001
1.275851e+003, 9.347710e+001
1.276333e+003, 9.316161e+001
1.276815e+003, 9.311672e+001
1.277297e+003, 9.325459e+001
1.277779e+003, 9.358118e+001
1.278261e+003, 9.371553e+001
1.278744e+003, 9.318925e+001
1.279226e+003, 9.275869e+001
1.279708e+003, 9.268712e+001
1.280190e+003, 9.287012e+001
1.280672e+003, 9.323721e+001
1.281154e+003, 9.366605e+001
1.281636e+003, 9.380428e+001
1.282118e+003, 9.360429e+001
1.282600e+003, 9.343943e+001
1.283083e+003, 9.341641e+001
1.283565e+003, 9.345891e+001
1.284047e+003, 9.358651e+001
1.284529e+003, 9.369005e+001
1.285011e+003, 9.361613e+001
1.285493e+003, 9.341496e+001
1.285975e+003, 9.304752e+001
1.286457e+003, 9.255601e+001
1.286939e+003, 9.252854e+001
1.287422e+003, 9.316113e+001
1.287904e+003, 9.367874e+001
1.288386e+003, 9.393618e+001
1.288868e+003, 9.403741e+001
1.289350e+003, 9.406493e+001
1.289832e+003, 9.401635e+001
1.290314e+003, 9.379704e+001
1.290796e+003, 9.349035e+001
1.291279e+003, 9.350009e+001
1.291761e+003, 9.387348e+001
1.292243e+003, 9.400159e+001
1.292725e+003, 9.378026e+001
1.293207e+003, 9.359988e+001
1.293689e+003, 9.383858e+001
1.294171e+003, 9.415782e+001
1.294653e+003, 9.442171e+001
1.295135e+003, 9.455958e+001
1.295618e+003, 9.432627e+001
1.296100e+003, 9.378742e+001
1.296582e+003, 9.363589e+001
1.297064e+003, 9.392674e+001
1.297546e+003, 9.424740e+001
1.298028e+003, 9.432902e+001
1.298510e+003, 9.440687e+001
1.298992e+003, 9.462009e+001
1.299475e+003, 9.479735e+001
1.299957e+003, 9.461411e+001
1.300439e+003, 9.423563e+001
1.300921e+003, 9.417642e+001
1.301403e+003, 9.441189e+001
1.301885e+003, 9.457967e+001
##END=



