##NAMES=Rhodonite
##RRUFFID=R060549
##IDEAL CHEMISTRY=CaMn^2+^_3_Mn^2+^Si_5_O_15_
##LOCALITY=unknown
##OWNER=RRUFF
##SOURCE=Gemological Institute of America
##DESCRIPTION=Pink cleavage fragment
##STATUS=The identification of this mineral has been confirmed by X-ray diffraction and chemical analysis
##URL=rruff.info/R060549
##MEASURED CHEMISTRY=(Mn_0.76_Ca_0.12_Fe_0.07_Mg_0.06_)Si_0.99_O_3_
7.687793e+001, 9.840833e+002
7.880640e+001, 9.338691e+002
8.073486e+001, 9.151688e+002
8.266333e+001, 9.349500e+002
8.459180e+001, 9.812146e+002
8.652026e+001, 1.038365e+003
8.844873e+001, 1.105498e+003
9.037720e+001, 1.182227e+003
9.230566e+001, 1.278291e+003
9.423413e+001, 1.299429e+003
9.616260e+001, 1.269120e+003
9.809106e+001, 1.242120e+003
1.000195e+002, 1.212243e+003
1.019480e+002, 1.180191e+003
1.038765e+002, 1.150792e+003
1.058049e+002, 1.122705e+003
1.077334e+002, 1.096760e+003
1.096619e+002, 1.072443e+003
1.115903e+002, 1.048884e+003
1.135188e+002, 1.023251e+003
1.154473e+002, 9.948076e+002
1.173757e+002, 9.730230e+002
1.193042e+002, 9.615096e+002
1.212327e+002, 9.520468e+002
1.231611e+002, 9.429763e+002
1.250896e+002, 9.340546e+002
1.270181e+002, 9.252913e+002
1.289465e+002, 9.165031e+002
1.308750e+002, 9.062278e+002
1.328035e+002, 8.931735e+002
1.347319e+002, 8.796439e+002
1.366604e+002, 8.651339e+002
1.385889e+002, 8.509061e+002
1.405173e+002, 8.383542e+002
1.424458e+002, 8.273649e+002
1.443743e+002, 8.159195e+002
1.463027e+002, 8.027165e+002
1.482312e+002, 7.906036e+002
1.501597e+002, 7.802216e+002
1.520881e+002, 7.709691e+002
1.540166e+002, 7.621678e+002
1.559451e+002, 7.538909e+002
1.578735e+002, 7.469180e+002
1.598020e+002, 7.426655e+002
1.617305e+002, 7.377850e+002
1.636589e+002, 7.318900e+002
1.655874e+002, 7.255190e+002
1.675159e+002, 7.183748e+002
1.694443e+002, 7.109918e+002
1.713728e+002, 7.054867e+002
1.733013e+002, 7.033557e+002
1.752297e+002, 7.003622e+002
1.771582e+002, 6.954444e+002
1.790867e+002, 6.909329e+002
1.810151e+002, 6.883785e+002
1.829436e+002, 6.868428e+002
1.848721e+002, 6.847357e+002
1.868005e+002, 6.817333e+002
1.887290e+002, 6.794429e+002
1.906575e+002, 6.781711e+002
1.925859e+002, 6.770648e+002
1.945144e+002, 6.756834e+002
1.964429e+002, 6.743798e+002
1.983713e+002, 6.736783e+002
2.002998e+002, 6.735866e+002
2.022283e+002, 6.726487e+002
2.041567e+002, 6.705088e+002
2.060852e+002, 6.686023e+002
2.080137e+002, 6.673188e+002
2.099421e+002, 6.664130e+002
2.118706e+002, 6.662575e+002
2.137991e+002, 6.663897e+002
2.157275e+002, 6.647137e+002
2.176560e+002, 6.609096e+002
2.195845e+002, 6.578534e+002
2.215129e+002, 6.559991e+002
2.234414e+002, 6.549283e+002
2.253699e+002, 6.549146e+002
2.272983e+002, 6.551854e+002
2.292268e+002, 6.547653e+002
2.311553e+002, 6.535988e+002
2.330837e+002, 6.517517e+002
2.350122e+002, 6.489644e+002
2.369407e+002, 6.462321e+002
2.388691e+002, 6.438131e+002
2.407976e+002, 6.416224e+002
2.427261e+002, 6.396100e+002
2.446545e+002, 6.378157e+002
2.465830e+002, 6.364012e+002
2.485115e+002, 6.353906e+002
2.504399e+002, 6.343416e+002
2.523684e+002, 6.332672e+002
2.542969e+002, 6.320067e+002
2.562253e+002, 6.301894e+002
2.581538e+002, 6.283943e+002
2.600823e+002, 6.275136e+002
2.620107e+002, 6.273076e+002
2.639392e+002, 6.265775e+002
2.658677e+002, 6.250585e+002
2.677961e+002, 6.237336e+002
2.697246e+002, 6.232518e+002
2.716531e+002, 6.225273e+002
2.735815e+002, 6.207097e+002
2.755100e+002, 6.184700e+002
2.774385e+002, 6.171306e+002
2.793669e+002, 6.165921e+002
2.812954e+002, 6.155156e+002
2.832239e+002, 6.134859e+002
2.851523e+002, 6.113871e+002
2.870808e+002, 6.090204e+002
2.890093e+002, 6.070168e+002
2.909377e+002, 6.064437e+002
2.928662e+002, 6.063141e+002
2.947947e+002, 6.045228e+002
2.967231e+002, 6.008114e+002
2.986516e+002, 5.977834e+002
3.005801e+002, 5.963781e+002
3.025085e+002, 5.948637e+002
3.044370e+002, 5.929891e+002
3.063655e+002, 5.908060e+002
3.082939e+002, 5.881547e+002
3.102224e+002, 5.852594e+002
3.121509e+002, 5.827396e+002
3.140793e+002, 5.809222e+002
3.160078e+002, 5.781368e+002
3.179363e+002, 5.731855e+002
3.198647e+002, 5.688194e+002
3.217932e+002, 5.659385e+002
3.237217e+002, 5.638181e+002
3.256501e+002, 5.622269e+002
3.275786e+002, 5.608923e+002
3.295071e+002, 5.587859e+002
3.314355e+002, 5.552123e+002
3.333640e+002, 5.528126e+002
3.352925e+002, 5.528323e+002
3.372209e+002, 5.522275e+002
3.391494e+002, 5.496168e+002
3.410779e+002, 5.465432e+002
3.430063e+002, 5.440389e+002
3.449348e+002, 5.420080e+002
3.468633e+002, 5.402888e+002
3.487917e+002, 5.392125e+002
3.507202e+002, 5.372279e+002
3.526487e+002, 5.334149e+002
3.545771e+002, 5.305377e+002
3.565056e+002, 5.303977e+002
3.584341e+002, 5.304231e+002
3.603625e+002, 5.287888e+002
3.622910e+002, 5.260835e+002
3.642195e+002, 5.235699e+002
3.661479e+002, 5.211774e+002
3.680764e+002, 5.195656e+002
3.700049e+002, 5.188550e+002
3.719333e+002, 5.185289e+002
3.738618e+002, 5.189174e+002
3.757903e+002, 5.189594e+002
3.777188e+002, 5.174920e+002
3.796472e+002, 5.156235e+002
3.815757e+002, 5.153116e+002
3.835042e+002, 5.165553e+002
3.854326e+002, 5.171779e+002
3.873611e+002, 5.170952e+002
3.892896e+002, 5.168704e+002
3.912180e+002, 5.163162e+002
3.931465e+002, 5.162394e+002
3.950750e+002, 5.172118e+002
3.970034e+002, 5.186278e+002
3.989319e+002, 5.199324e+002
4.008604e+002, 5.211664e+002
4.027888e+002, 5.221030e+002
4.047173e+002, 5.226078e+002
4.066458e+002, 5.252769e+002
4.085742e+002, 5.310502e+002
4.105027e+002, 5.373940e+002
4.124312e+002, 5.434100e+002
4.143596e+002, 5.497261e+002
4.162881e+002, 5.574008e+002
4.182166e+002, 5.653043e+002
4.201450e+002, 5.720548e+002
4.220735e+002, 5.774155e+002
4.240020e+002, 5.795107e+002
4.259304e+002, 5.779949e+002
4.278589e+002, 5.747764e+002
4.297874e+002, 5.699344e+002
4.317158e+002, 5.638369e+002
4.336443e+002, 5.561716e+002
4.355728e+002, 5.477049e+002
4.375012e+002, 5.382692e+002
4.394297e+002, 5.288044e+002
4.413582e+002, 5.215426e+002
4.432866e+002, 5.162899e+002
4.452151e+002, 5.107042e+002
4.471436e+002, 5.041159e+002
4.490720e+002, 4.984371e+002
4.510005e+002, 4.935273e+002
4.529290e+002, 4.901407e+002
4.548574e+002, 4.894559e+002
4.567859e+002, 4.896947e+002
4.587144e+002, 4.889013e+002
4.606428e+002, 4.877729e+002
4.625713e+002, 4.880577e+002
4.644998e+002, 4.898382e+002
4.664282e+002, 4.906297e+002
4.683567e+002, 4.900677e+002
4.702852e+002, 4.887137e+002
4.722136e+002, 4.861630e+002
4.741421e+002, 4.834698e+002
4.760706e+002, 4.816701e+002
4.779990e+002, 4.793566e+002
4.799275e+002, 4.744466e+002
4.818560e+002, 4.683149e+002
4.837844e+002, 4.640223e+002
4.857129e+002, 4.617950e+002
4.876414e+002, 4.589325e+002
4.895698e+002, 4.544696e+002
4.914983e+002, 4.507849e+002
4.934268e+002, 4.484712e+002
4.953552e+002, 4.462488e+002
4.972837e+002, 4.438168e+002
4.992122e+002, 4.412276e+002
5.011406e+002, 4.385248e+002
5.030691e+002, 4.357266e+002
5.049976e+002, 4.326778e+002
5.069260e+002, 4.293850e+002
5.088545e+002, 4.268958e+002
5.107830e+002, 4.256805e+002
5.127114e+002, 4.240090e+002
5.146399e+002, 4.214432e+002
5.165684e+002, 4.192257e+002
5.184968e+002, 4.179320e+002
5.204253e+002, 4.167795e+002
5.223538e+002, 4.150336e+002
5.242822e+002, 4.134193e+002
5.262107e+002, 4.132932e+002
5.281392e+002, 4.140157e+002
5.300676e+002, 4.126021e+002
5.319961e+002, 4.085460e+002
5.339246e+002, 4.064493e+002
5.358530e+002, 4.066068e+002
5.377815e+002, 4.076465e+002
5.397100e+002, 4.101202e+002
5.416384e+002, 4.117496e+002
5.435669e+002, 4.105509e+002
5.454954e+002, 4.092056e+002
5.474238e+002, 4.091858e+002
5.493523e+002, 4.101138e+002
5.512808e+002, 4.115762e+002
5.532092e+002, 4.135094e+002
5.551377e+002, 4.154328e+002
5.570662e+002, 4.173162e+002
5.589946e+002, 4.204442e+002
5.609231e+002, 4.253329e+002
5.628516e+002, 4.295513e+002
5.647800e+002, 4.321508e+002
5.667085e+002, 4.345904e+002
5.686370e+002, 4.372143e+002
5.705654e+002, 4.400770e+002
5.724939e+002, 4.434791e+002
5.744224e+002, 4.469584e+002
5.763508e+002, 4.497114e+002
5.782793e+002, 4.519875e+002
5.802078e+002, 4.548658e+002
5.821362e+002, 4.582736e+002
5.840647e+002, 4.609170e+002
5.859932e+002, 4.624185e+002
5.879216e+002, 4.645732e+002
5.898501e+002, 4.689957e+002
5.917786e+002, 4.719335e+002
5.937070e+002, 4.720996e+002
5.956355e+002, 4.710599e+002
5.975640e+002, 4.689943e+002
5.994924e+002, 4.667322e+002
6.014209e+002, 4.660485e+002
6.033494e+002, 4.653996e+002
6.052778e+002, 4.609374e+002
6.072063e+002, 4.536779e+002
6.091348e+002, 4.490377e+002
6.110632e+002, 4.476096e+002
6.129917e+002, 4.461278e+002
6.149202e+002, 4.451349e+002
6.168486e+002, 4.421044e+002
6.187771e+002, 4.356217e+002
6.207056e+002, 4.287729e+002
6.226340e+002, 4.217728e+002
6.245625e+002, 4.155976e+002
6.264910e+002, 4.111626e+002
6.284194e+002, 4.076713e+002
6.303479e+002, 4.046046e+002
6.322764e+002, 4.016465e+002
6.342048e+002, 3.978712e+002
6.361333e+002, 3.934181e+002
6.380618e+002, 3.901569e+002
6.399902e+002, 3.883515e+002
6.419187e+002, 3.870214e+002
6.438472e+002, 3.864955e+002
6.457756e+002, 3.858542e+002
6.477041e+002, 3.849941e+002
6.496326e+002, 3.840853e+002
6.515610e+002, 3.831998e+002
6.534895e+002, 3.822299e+002
6.554180e+002, 3.809428e+002
6.573464e+002, 3.797127e+002
6.592749e+002, 3.787100e+002
6.612034e+002, 3.780708e+002
6.631318e+002, 3.780587e+002
6.650603e+002, 3.786354e+002
6.669888e+002, 3.798365e+002
6.689172e+002, 3.818884e+002
6.708457e+002, 3.821151e+002
6.727742e+002, 3.798522e+002
6.747026e+002, 3.783768e+002
6.766311e+002, 3.779459e+002
6.785596e+002, 3.780987e+002
6.804880e+002, 3.790843e+002
6.824165e+002, 3.798727e+002
6.843450e+002, 3.799637e+002
6.862734e+002, 3.798362e+002
6.882019e+002, 3.795482e+002
6.901304e+002, 3.794219e+002
6.920588e+002, 3.800302e+002
6.939873e+002, 3.808288e+002
6.959158e+002, 3.805611e+002
6.978442e+002, 3.796742e+002
6.997727e+002, 3.801612e+002
7.017012e+002, 3.819727e+002
7.036296e+002, 3.831190e+002
7.055581e+002, 3.835742e+002
7.074866e+002, 3.836826e+002
7.094150e+002, 3.834599e+002
7.113435e+002, 3.829536e+002
7.132720e+002, 3.819572e+002
7.152004e+002, 3.812601e+002
7.171289e+002, 3.812134e+002
7.190574e+002, 3.813998e+002
7.209858e+002, 3.819724e+002
7.229143e+002, 3.823708e+002
7.248428e+002, 3.823050e+002
7.267712e+002, 3.818440e+002
7.286997e+002, 3.804737e+002
7.306282e+002, 3.791150e+002
7.325566e+002, 3.796032e+002
7.344851e+002, 3.813752e+002
7.364136e+002, 3.830223e+002
7.383420e+002, 3.843893e+002
7.402705e+002, 3.842780e+002
7.421990e+002, 3.826439e+002
7.441274e+002, 3.827693e+002
7.460559e+002, 3.855599e+002
7.479844e+002, 3.868087e+002
7.499128e+002, 3.846694e+002
7.518413e+002, 3.837673e+002
7.537698e+002, 3.857521e+002
7.556982e+002, 3.876495e+002
7.576267e+002, 3.891087e+002
7.595552e+002, 3.898704e+002
7.614836e+002, 3.894292e+002
7.634121e+002, 3.887277e+002
7.653406e+002, 3.882202e+002
7.672690e+002, 3.879534e+002
7.691975e+002, 3.878885e+002
7.711260e+002, 3.881426e+002
7.730544e+002, 3.891856e+002
7.749829e+002, 3.904827e+002
7.769114e+002, 3.906081e+002
7.788398e+002, 3.898633e+002
7.807683e+002, 3.901587e+002
7.826968e+002, 3.915678e+002
7.846252e+002, 3.923007e+002
7.865537e+002, 3.921092e+002
7.884822e+002, 3.920942e+002
7.904106e+002, 3.921392e+002
7.923391e+002, 3.927281e+002
7.942676e+002, 3.944398e+002
7.961960e+002, 3.956141e+002
7.981245e+002, 3.959213e+002
8.000530e+002, 3.959611e+002
8.019814e+002, 3.956183e+002
8.039099e+002, 3.955503e+002
8.058384e+002, 3.961346e+002
8.077668e+002, 3.968959e+002
8.096953e+002, 3.973507e+002
8.116238e+002, 3.981138e+002
8.135522e+002, 4.000181e+002
8.154807e+002, 4.019828e+002
8.174092e+002, 4.033071e+002
8.193376e+002, 4.037497e+002
8.212661e+002, 4.020356e+002
8.231946e+002, 3.996270e+002
8.251230e+002, 4.002321e+002
8.270515e+002, 4.029965e+002
8.289800e+002, 4.046190e+002
8.309084e+002, 4.051942e+002
8.328369e+002, 4.053107e+002
8.347654e+002, 4.049655e+002
8.366938e+002, 4.056025e+002
8.386223e+002, 4.073367e+002
8.405508e+002, 4.077009e+002
8.424792e+002, 4.063408e+002
8.444077e+002, 4.055358e+002
8.463362e+002, 4.055965e+002
8.482646e+002, 4.059824e+002
8.501931e+002, 4.067137e+002
8.521216e+002, 4.072413e+002
8.540500e+002, 4.073112e+002
8.559785e+002, 4.075043e+002
8.579070e+002, 4.087199e+002
8.598354e+002, 4.088711e+002
8.617639e+002, 4.063309e+002
8.636924e+002, 4.040140e+002
8.656208e+002, 4.032049e+002
8.675493e+002, 4.028241e+002
8.694778e+002, 4.026652e+002
8.714063e+002, 4.021742e+002
8.733347e+002, 4.006909e+002
8.752632e+002, 3.989226e+002
8.771917e+002, 3.977899e+002
8.791201e+002, 3.965198e+002
8.810486e+002, 3.939969e+002
8.829771e+002, 3.909173e+002
8.849055e+002, 3.880899e+002
8.868340e+002, 3.855874e+002
8.887625e+002, 3.838097e+002
8.906909e+002, 3.823208e+002
8.926194e+002, 3.801364e+002
8.945479e+002, 3.774485e+002
8.964763e+002, 3.748675e+002
8.984048e+002, 3.723426e+002
9.003333e+002, 3.694073e+002
9.022617e+002, 3.661746e+002
9.041902e+002, 3.638568e+002
9.061187e+002, 3.624874e+002
9.080471e+002, 3.598839e+002
9.099756e+002, 3.556513e+002
9.119041e+002, 3.533850e+002
9.138325e+002, 3.538462e+002
9.157610e+002, 3.533406e+002
9.176895e+002, 3.509968e+002
9.196179e+002, 3.497044e+002
9.215464e+002, 3.497680e+002
9.234749e+002, 3.504254e+002
9.254033e+002, 3.516385e+002
9.273318e+002, 3.535558e+002
9.292603e+002, 3.560661e+002
9.311887e+002, 3.596010e+002
9.331172e+002, 3.644901e+002
9.350457e+002, 3.697509e+002
9.369741e+002, 3.746504e+002
9.389026e+002, 3.810706e+002
9.408311e+002, 3.890146e+002
9.427595e+002, 3.995633e+002
9.446880e+002, 4.125091e+002
9.466165e+002, 4.293265e+002
9.485449e+002, 4.504320e+002
9.504734e+002, 4.758615e+002
9.524019e+002, 5.066044e+002
9.543303e+002, 5.399947e+002
9.562588e+002, 5.773367e+002
9.581873e+002, 6.126733e+002
9.601157e+002, 6.447006e+002
9.620442e+002, 6.711815e+002
9.639727e+002, 6.895858e+002
9.659011e+002, 7.038456e+002
9.678296e+002, 7.142110e+002
9.697581e+002, 7.236554e+002
9.716865e+002, 7.348364e+002
9.736150e+002, 7.446120e+002
9.755435e+002, 7.552853e+002
9.774719e+002, 7.581592e+002
9.794004e+002, 7.479548e+002
9.813289e+002, 7.254875e+002
9.832573e+002, 6.869338e+002
9.851858e+002, 6.416124e+002
9.871143e+002, 5.932898e+002
9.890427e+002, 5.474559e+002
9.909712e+002, 5.088860e+002
9.928997e+002, 4.761350e+002
9.948281e+002, 4.481837e+002
9.967566e+002, 4.248627e+002
9.986851e+002, 4.069554e+002
1.000614e+003, 3.926600e+002
1.002542e+003, 3.800324e+002
1.004470e+003, 3.696740e+002
1.006399e+003, 3.626796e+002
1.008327e+003, 3.580831e+002
1.010256e+003, 3.554550e+002
1.012184e+003, 3.537556e+002
1.014113e+003, 3.513562e+002
1.016041e+003, 3.493152e+002
1.017970e+003, 3.492841e+002
1.019898e+003, 3.502765e+002
1.021827e+003, 3.515390e+002
1.023755e+003, 3.525090e+002
1.025684e+003, 3.520190e+002
1.027612e+003, 3.511066e+002
1.029541e+003, 3.514861e+002
1.031469e+003, 3.520053e+002
1.033397e+003, 3.509493e+002
1.035326e+003, 3.491939e+002
1.037254e+003, 3.481680e+002
1.039183e+003, 3.469142e+002
1.041111e+003, 3.441438e+002
1.043040e+003, 3.404628e+002
1.044968e+003, 3.360286e+002
1.046897e+003, 3.317218e+002
1.048825e+003, 3.288929e+002
1.050754e+003, 3.266183e+002
1.052682e+003, 3.238213e+002
1.054611e+003, 3.208418e+002
1.056539e+003, 3.180895e+002
1.058468e+003, 3.153788e+002
1.060396e+003, 3.120379e+002
1.062324e+003, 3.090610e+002
1.064253e+003, 3.081678e+002
1.066181e+003, 3.076219e+002
1.068110e+003, 3.053965e+002
1.070038e+003, 3.026828e+002
1.071967e+003, 3.004598e+002
1.073895e+003, 2.986618e+002
1.075824e+003, 2.973391e+002
1.077752e+003, 2.962815e+002
1.079681e+003, 2.955255e+002
1.081609e+003, 2.946715e+002
1.083538e+003, 2.929520e+002
1.085466e+003, 2.914976e+002
1.087395e+003, 2.914481e+002
1.089323e+003, 2.917206e+002
1.091251e+003, 2.916620e+002
1.093180e+003, 2.914355e+002
1.095108e+003, 2.909825e+002
1.097037e+003, 2.906324e+002
1.098965e+003, 2.916644e+002
1.100894e+003, 2.913644e+002
1.102822e+003, 2.864437e+002
1.104751e+003, 2.823790e+002
1.106679e+003, 2.828436e+002
1.108608e+003, 2.833738e+002
1.110536e+003, 2.819938e+002
1.112465e+003, 2.803139e+002
1.114393e+003, 2.785507e+002
1.116322e+003, 2.772103e+002
1.118250e+003, 2.773142e+002
1.120178e+003, 2.762899e+002
1.122107e+003, 2.726074e+002
1.124035e+003, 2.693151e+002
1.125964e+003, 2.675365e+002
1.127892e+003, 2.653604e+002
1.129821e+003, 2.618716e+002
1.131749e+003, 2.592940e+002
1.133678e+003, 2.583388e+002
1.135606e+003, 2.574550e+002
1.137535e+003, 2.566036e+002
1.139463e+003, 2.550046e+002
1.141392e+003, 2.521035e+002
1.143320e+003, 2.505917e+002
1.145249e+003, 2.512243e+002
1.147177e+003, 2.503320e+002
1.149105e+003, 2.473915e+002
1.151034e+003, 2.448302e+002
1.152962e+003, 2.426976e+002
1.154891e+003, 2.432442e+002
1.156819e+003, 2.465376e+002
1.158748e+003, 2.473499e+002
1.160676e+003, 2.457389e+002
1.162605e+003, 2.452207e+002
1.164533e+003, 2.456192e+002
1.166462e+003, 2.452494e+002
1.168390e+003, 2.441934e+002
1.170319e+003, 2.427506e+002
1.172247e+003, 2.410841e+002
1.174176e+003, 2.395967e+002
1.176104e+003, 2.382872e+002
1.178032e+003, 2.370874e+002
1.179961e+003, 2.361054e+002
1.181889e+003, 2.355750e+002
1.183818e+003, 2.353026e+002
1.185746e+003, 2.349437e+002
1.187675e+003, 2.348380e+002
1.189603e+003, 2.361301e+002
1.191532e+003, 2.367484e+002
1.193460e+003, 2.343039e+002
1.195389e+003, 2.320139e+002
1.197317e+003, 2.321634e+002
1.199246e+003, 2.323576e+002
1.201174e+003, 2.312443e+002
1.203103e+003, 2.302975e+002
1.205031e+003, 2.301262e+002
1.206959e+003, 2.302120e+002
1.208888e+003, 2.306511e+002
1.210816e+003, 2.303504e+002
1.212745e+003, 2.287416e+002
1.214673e+003, 2.280295e+002
1.216602e+003, 2.288161e+002
1.218530e+003, 2.288084e+002
1.220459e+003, 2.276367e+002
1.222387e+003, 2.268673e+002
1.224316e+003, 2.266239e+002
1.226244e+003, 2.266595e+002
1.228173e+003, 2.269304e+002
1.230101e+003, 2.273052e+002
1.232030e+003, 2.276353e+002
1.233958e+003, 2.269918e+002
1.235886e+003, 2.257779e+002
1.237815e+003, 2.251137e+002
1.239743e+003, 2.248364e+002
1.241672e+003, 2.246776e+002
1.243600e+003, 2.246534e+002
1.245529e+003, 2.251128e+002
1.247457e+003, 2.253385e+002
1.249386e+003, 2.242175e+002
1.251314e+003, 2.230899e+002
1.253243e+003, 2.229071e+002
1.255171e+003, 2.231138e+002
1.257100e+003, 2.236603e+002
1.259028e+003, 2.240982e+002
1.260957e+003, 2.240220e+002
1.262885e+003, 2.242341e+002
1.264813e+003, 2.252219e+002
1.266742e+003, 2.257798e+002
1.268670e+003, 2.257120e+002
1.270599e+003, 2.254651e+002
1.272527e+003, 2.250335e+002
1.274456e+003, 2.247792e+002
1.276384e+003, 2.247226e+002
1.278313e+003, 2.242543e+002
1.280241e+003, 2.235368e+002
1.282170e+003, 2.237356e+002
1.284098e+003, 2.246381e+002
1.286027e+003, 2.256636e+002
1.287955e+003, 2.267936e+002
1.289884e+003, 2.284174e+002
1.291812e+003, 2.296526e+002
1.293740e+003, 2.291835e+002
1.295669e+003, 2.284689e+002
1.297597e+003, 2.284516e+002
1.299526e+003, 2.288109e+002
1.301454e+003, 2.293814e+002
1.303383e+003, 2.303213e+002
1.305311e+003, 2.320175e+002
1.307240e+003, 2.331712e+002
1.309168e+003, 2.334868e+002
1.311097e+003, 2.330741e+002
1.313025e+003, 2.316414e+002
1.314954e+003, 2.314512e+002
1.316882e+003, 2.327231e+002
1.318811e+003, 2.332577e+002
1.320739e+003, 2.331653e+002
1.322667e+003, 2.330320e+002
1.324596e+003, 2.330236e+002
1.326524e+003, 2.338549e+002
1.328453e+003, 2.349040e+002
1.330381e+003, 2.350905e+002
1.332310e+003, 2.350085e+002
1.334238e+003, 2.349797e+002
1.336167e+003, 2.353056e+002
1.338095e+003, 2.367042e+002
1.340024e+003, 2.375426e+002
1.341952e+003, 2.371125e+002
1.343881e+003, 2.365468e+002
1.345809e+003, 2.360597e+002
1.347738e+003, 2.357179e+002
1.349666e+003, 2.355431e+002
1.351594e+003, 2.353089e+002
1.353523e+003, 2.350049e+002
1.355451e+003, 2.346180e+002
1.357380e+003, 2.342137e+002
1.359308e+003, 2.339857e+002
1.361237e+003, 2.339196e+002
1.363165e+003, 2.341254e+002
1.365094e+003, 2.342961e+002
1.367022e+003, 2.339520e+002
1.368951e+003, 2.335644e+002
1.370879e+003, 2.334982e+002
1.372808e+003, 2.334293e+002
1.374736e+003, 2.333887e+002
1.376665e+003, 2.329580e+002
1.378593e+003, 2.316549e+002
1.380521e+003, 2.312589e+002
1.382450e+003, 2.320709e+002
1.384378e+003, 2.323913e+002
1.386307e+003, 2.322084e+002
1.388235e+003, 2.321036e+002
1.390164e+003, 2.320361e+002
1.392092e+003, 2.318029e+002
1.394021e+003, 2.314964e+002
1.395949e+003, 2.311763e+002
1.397878e+003, 2.309453e+002
1.399806e+003, 2.312732e+002
1.401735e+003, 2.310432e+002
1.403663e+003, 2.287320e+002
1.405592e+003, 2.278242e+002
1.407520e+003, 2.303355e+002
1.409448e+003, 2.315519e+002
1.411377e+003, 2.303298e+002
1.413305e+003, 2.303500e+002
1.415234e+003, 2.315716e+002
1.417162e+003, 2.317306e+002
1.419091e+003, 2.311396e+002
1.421019e+003, 2.306372e+002
1.422948e+003, 2.303896e+002
1.424876e+003, 2.309761e+002
1.426805e+003, 2.314950e+002
1.428733e+003, 2.313537e+002
1.430662e+003, 2.308272e+002
1.432590e+003, 2.299226e+002
1.434519e+003, 2.289135e+002
1.436447e+003, 2.277187e+002
1.438375e+003, 2.275093e+002
1.440304e+003, 2.284293e+002
1.442232e+003, 2.295867e+002
1.444161e+003, 2.307085e+002
1.446089e+003, 2.305099e+002
1.448018e+003, 2.294484e+002
1.449946e+003, 2.278835e+002
1.451875e+003, 2.266330e+002
1.453803e+003, 2.268794e+002
1.455732e+003, 2.271198e+002
1.457660e+003, 2.263127e+002
1.459589e+003, 2.261414e+002
1.461517e+003, 2.272103e+002
1.463446e+003, 2.273102e+002
1.465374e+003, 2.262325e+002
1.467302e+003, 2.254041e+002
1.469231e+003, 2.248770e+002
1.471159e+003, 2.244905e+002
1.473088e+003, 2.242042e+002
1.475016e+003, 2.240442e+002
1.476945e+003, 2.238258e+002
1.478873e+003, 2.234596e+002
1.480802e+003, 2.228379e+002
1.482730e+003, 2.212844e+002
1.484659e+003, 2.209109e+002
1.486587e+003, 2.227067e+002
1.488516e+003, 2.224090e+002
1.490444e+003, 2.199354e+002
1.492373e+003, 2.188003e+002
1.494301e+003, 2.187593e+002
1.496229e+003, 2.192628e+002
1.498158e+003, 2.195974e+002
1.500086e+003, 2.184602e+002
1.502015e+003, 2.175341e+002
1.503943e+003, 2.185059e+002
1.505872e+003, 2.188574e+002
1.507800e+003, 2.174427e+002
1.509729e+003, 2.161721e+002
1.511657e+003, 2.149768e+002
1.513586e+003, 2.157154e+002
1.515514e+003, 2.178018e+002
1.517443e+003, 2.178063e+002
1.519371e+003, 2.168246e+002
1.521300e+003, 2.163434e+002
1.523228e+003, 2.162525e+002
1.525156e+003, 2.168413e+002
1.527085e+003, 2.168350e+002
1.529013e+003, 2.154517e+002
1.530942e+003, 2.149926e+002
1.532870e+003, 2.159772e+002
1.534799e+003, 2.161098e+002
1.536727e+003, 2.155103e+002
1.538656e+003, 2.147259e+002
1.540584e+003, 2.140822e+002
1.542513e+003, 2.143914e+002
1.544441e+003, 2.146872e+002
1.546370e+003, 2.143217e+002
1.548298e+003, 2.136641e+002
1.550227e+003, 2.126391e+002
1.552155e+003, 2.122863e+002
1.554083e+003, 2.127308e+002
1.556012e+003, 2.142131e+002
1.557940e+003, 2.159643e+002
1.559869e+003, 2.149642e+002
1.561797e+003, 2.131537e+002
1.563726e+003, 2.131391e+002
1.565654e+003, 2.133759e+002
1.567583e+003, 2.130248e+002
1.569511e+003, 2.125822e+002
1.571440e+003, 2.120644e+002
1.573368e+003, 2.124111e+002
1.575297e+003, 2.133497e+002
1.577225e+003, 2.116678e+002
1.579154e+003, 2.090638e+002
1.581082e+003, 2.092548e+002
1.583010e+003, 2.101706e+002
1.584939e+003, 2.100049e+002
1.586867e+003, 2.098953e+002
1.588796e+003, 2.106350e+002
1.590724e+003, 2.104932e+002
1.592653e+003, 2.093044e+002
1.594581e+003, 2.090431e+002
1.596510e+003, 2.094424e+002
1.598438e+003, 2.096555e+002
1.600367e+003, 2.095247e+002
1.602295e+003, 2.081980e+002
1.604224e+003, 2.076853e+002
1.606152e+003, 2.102959e+002
1.608081e+003, 2.110593e+002
1.610009e+003, 2.086227e+002
1.611938e+003, 2.070925e+002
1.613866e+003, 2.063756e+002
1.615794e+003, 2.061342e+002
1.617723e+003, 2.060829e+002
1.619651e+003, 2.058398e+002
1.621580e+003, 2.056279e+002
1.623508e+003, 2.057891e+002
1.625437e+003, 2.051818e+002
1.627365e+003, 2.032324e+002
1.629294e+003, 2.024500e+002
1.631222e+003, 2.028285e+002
1.633151e+003, 2.048327e+002
1.635079e+003, 2.066479e+002
1.637008e+003, 2.048366e+002
1.638936e+003, 2.027716e+002
1.640865e+003, 2.020341e+002
1.642793e+003, 2.016150e+002
1.644721e+003, 2.013256e+002
1.646650e+003, 2.010680e+002
1.648578e+003, 2.007753e+002
1.650507e+003, 2.001356e+002
1.652435e+003, 1.992856e+002
1.654364e+003, 1.981187e+002
1.656292e+003, 1.973149e+002
1.658221e+003, 1.971529e+002
1.660149e+003, 1.974517e+002
1.662078e+003, 1.981591e+002
1.664006e+003, 1.981906e+002
1.665935e+003, 1.976526e+002
1.667863e+003, 1.967478e+002
1.669792e+003, 1.961975e+002
1.671720e+003, 1.975763e+002
1.673648e+003, 1.980523e+002
1.675577e+003, 1.962468e+002
1.677505e+003, 1.950716e+002
1.679434e+003, 1.947108e+002
1.681362e+003, 1.941269e+002
1.683291e+003, 1.933674e+002
1.685219e+003, 1.921493e+002
1.687148e+003, 1.916064e+002
1.689076e+003, 1.931107e+002
1.691005e+003, 1.945373e+002
1.692933e+003, 1.957017e+002
1.694862e+003, 1.949974e+002
1.696790e+003, 1.929002e+002
1.698719e+003, 1.923461e+002
1.700647e+003, 1.922794e+002
1.702575e+003, 1.912924e+002
1.704504e+003, 1.905050e+002
1.706432e+003, 1.906684e+002
1.708361e+003, 1.906602e+002
1.710289e+003, 1.904287e+002
1.712218e+003, 1.892397e+002
1.714146e+003, 1.878834e+002
1.716075e+003, 1.884980e+002
1.718003e+003, 1.893996e+002
1.719932e+003, 1.896177e+002
1.721860e+003, 1.895689e+002
1.723789e+003, 1.893504e+002
1.725717e+003, 1.886647e+002
1.727646e+003, 1.876940e+002
1.729574e+003, 1.872472e+002
1.731502e+003, 1.869538e+002
1.733431e+003, 1.864415e+002
1.735359e+003, 1.859292e+002
1.737288e+003, 1.853965e+002
1.739216e+003, 1.857587e+002
1.741145e+003, 1.868359e+002
1.743073e+003, 1.866517e+002
1.745002e+003, 1.857937e+002
1.746930e+003, 1.848833e+002
1.748859e+003, 1.840382e+002
1.750787e+003, 1.832722e+002
1.752716e+003, 1.829266e+002
1.754644e+003, 1.829405e+002
1.756573e+003, 1.818616e+002
1.758501e+003, 1.806144e+002
1.760429e+003, 1.813287e+002
1.762358e+003, 1.816053e+002
1.764286e+003, 1.795612e+002
1.766215e+003, 1.789061e+002
1.768143e+003, 1.799412e+002
1.770072e+003, 1.812099e+002
1.772000e+003, 1.818609e+002
1.773929e+003, 1.798343e+002
1.775857e+003, 1.777142e+002
1.777786e+003, 1.771002e+002
1.779714e+003, 1.771687e+002
1.781643e+003, 1.778152e+002
1.783571e+003, 1.768548e+002
1.785500e+003, 1.753212e+002
1.787428e+003, 1.753854e+002
1.789356e+003, 1.757727e+002
1.791285e+003, 1.760258e+002
1.793213e+003, 1.754303e+002
1.795142e+003, 1.738569e+002
1.797070e+003, 1.726983e+002
1.798999e+003, 1.719632e+002
1.800927e+003, 1.716278e+002
1.802856e+003, 1.717280e+002
1.804784e+003, 1.727659e+002
1.806713e+003, 1.727975e+002
1.808641e+003, 1.715896e+002
1.810570e+003, 1.712437e+002
1.812498e+003, 1.712973e+002
1.814427e+003, 1.710999e+002
1.816355e+003, 1.705442e+002
1.818283e+003, 1.694621e+002
1.820212e+003, 1.684194e+002
1.822140e+003, 1.675520e+002
1.824069e+003, 1.682221e+002
1.825997e+003, 1.691490e+002
1.827926e+003, 1.681319e+002
1.829854e+003, 1.672063e+002
1.831783e+003, 1.670776e+002
1.833711e+003, 1.664662e+002
1.835640e+003, 1.654299e+002
1.837568e+003, 1.650511e+002
1.839497e+003, 1.648796e+002
1.841425e+003, 1.648226e+002
1.843354e+003, 1.637795e+002
1.845282e+003, 1.614321e+002
1.847210e+003, 1.602850e+002
1.849139e+003, 1.602180e+002
1.851067e+003, 1.607027e+002
1.852996e+003, 1.611290e+002
1.854924e+003, 1.610641e+002
1.856853e+003, 1.606635e+002
1.858781e+003, 1.599626e+002
1.860710e+003, 1.592628e+002
1.862638e+003, 1.586135e+002
1.864567e+003, 1.582596e+002
1.866495e+003, 1.575598e+002
1.868424e+003, 1.556430e+002
1.870352e+003, 1.560936e+002
1.872281e+003, 1.582600e+002
1.874209e+003, 1.569618e+002
1.876137e+003, 1.549189e+002
1.878066e+003, 1.547500e+002
1.879994e+003, 1.549890e+002
1.881923e+003, 1.554329e+002
1.883851e+003, 1.547600e+002
1.885780e+003, 1.535418e+002
1.887708e+003, 1.530241e+002
1.889637e+003, 1.529723e+002
1.891565e+003, 1.538318e+002
1.893494e+003, 1.532742e+002
1.895422e+003, 1.513987e+002
1.897351e+003, 1.520320e+002
1.899279e+003, 1.531648e+002
1.901208e+003, 1.527476e+002
1.903136e+003, 1.520012e+002
1.905064e+003, 1.512250e+002
1.906993e+003, 1.505803e+002
1.908921e+003, 1.499561e+002
1.910850e+003, 1.489551e+002
1.912778e+003, 1.480606e+002
1.914707e+003, 1.475039e+002
1.916635e+003, 1.471887e+002
1.918564e+003, 1.470630e+002
1.920492e+003, 1.467950e+002
1.922421e+003, 1.465424e+002
1.924349e+003, 1.464267e+002
1.926278e+003, 1.466016e+002
1.928206e+003, 1.470598e+002
1.930135e+003, 1.457090e+002
1.932063e+003, 1.438142e+002
1.933991e+003, 1.441733e+002
1.935920e+003, 1.439668e+002
1.937848e+003, 1.420294e+002
1.939777e+003, 1.417776e+002
1.941705e+003, 1.429187e+002
1.943634e+003, 1.439816e+002
1.945562e+003, 1.441629e+002
1.947491e+003, 1.424520e+002
1.949419e+003, 1.410010e+002
1.951348e+003, 1.400278e+002
1.953276e+003, 1.394777e+002
1.955205e+003, 1.392613e+002
1.957133e+003, 1.396764e+002
1.959062e+003, 1.394654e+002
1.960990e+003, 1.384180e+002
1.962918e+003, 1.372890e+002
1.964847e+003, 1.365856e+002
1.966775e+003, 1.373127e+002
1.968704e+003, 1.380558e+002
1.970632e+003, 1.384516e+002
1.972561e+003, 1.380354e+002
1.974489e+003, 1.370590e+002
1.976418e+003, 1.356566e+002
1.978346e+003, 1.350024e+002
1.980275e+003, 1.362755e+002
1.982203e+003, 1.366958e+002
1.984132e+003, 1.361995e+002
1.986060e+003, 1.344676e+002
1.987989e+003, 1.331562e+002
1.989917e+003, 1.335783e+002
1.991845e+003, 1.336113e+002
1.993774e+003, 1.330783e+002
1.995702e+003, 1.323230e+002
1.997631e+003, 1.317775e+002
1.999559e+003, 1.318613e+002
2.001488e+003, 1.318319e+002
2.003416e+003, 1.315370e+002
2.005345e+003, 1.306870e+002
2.007273e+003, 1.299541e+002
2.009202e+003, 1.303470e+002
2.011130e+003, 1.300019e+002
2.013059e+003, 1.286254e+002
2.014987e+003, 1.286336e+002
2.016916e+003, 1.291077e+002
2.018844e+003, 1.289424e+002
2.020772e+003, 1.281325e+002
2.022701e+003, 1.267301e+002
2.024629e+003, 1.263690e+002
2.026558e+003, 1.265082e+002
2.028486e+003, 1.262634e+002
2.030415e+003, 1.264454e+002
2.032343e+003, 1.272158e+002
2.034272e+003, 1.259109e+002
2.036200e+003, 1.237808e+002
2.038129e+003, 1.225204e+002
2.040057e+003, 1.223512e+002
2.041986e+003, 1.233289e+002
2.043914e+003, 1.229326e+002
2.045843e+003, 1.220487e+002
2.047771e+003, 1.224504e+002
2.049699e+003, 1.225295e+002
2.051628e+003, 1.217417e+002
2.053556e+003, 1.220159e+002
2.055485e+003, 1.222337e+002
2.057413e+003, 1.200510e+002
2.059342e+003, 1.185134e+002
2.061270e+003, 1.186717e+002
2.063199e+003, 1.192089e+002
2.065127e+003, 1.193941e+002
2.067056e+003, 1.178457e+002
2.068984e+003, 1.165490e+002
2.070913e+003, 1.160708e+002
2.072841e+003, 1.168972e+002
2.074770e+003, 1.178718e+002
2.076698e+003, 1.172363e+002
2.078626e+003, 1.169125e+002
2.080555e+003, 1.174505e+002
2.082483e+003, 1.164910e+002
2.084412e+003, 1.152534e+002
2.086340e+003, 1.151851e+002
2.088269e+003, 1.153772e+002
2.090197e+003, 1.156013e+002
2.092126e+003, 1.150869e+002
2.094054e+003, 1.144746e+002
2.095983e+003, 1.144845e+002
2.097911e+003, 1.141997e+002
2.099840e+003, 1.135171e+002
2.101768e+003, 1.127649e+002
2.103697e+003, 1.123904e+002
2.105625e+003, 1.129376e+002
2.107553e+003, 1.130032e+002
2.109482e+003, 1.124692e+002
2.111410e+003, 1.116095e+002
2.113339e+003, 1.107380e+002
2.115267e+003, 1.100427e+002
2.117196e+003, 1.093573e+002
2.119124e+003, 1.087403e+002
2.121053e+003, 1.080758e+002
2.122981e+003, 1.082802e+002
2.124910e+003, 1.100032e+002
2.126838e+003, 1.093505e+002
2.128767e+003, 1.077679e+002
2.130695e+003, 1.084516e+002
2.132624e+003, 1.085829e+002
2.134552e+003, 1.073763e+002
2.136480e+003, 1.071871e+002
2.138409e+003, 1.072678e+002
2.140337e+003, 1.064109e+002
2.142266e+003, 1.062673e+002
2.144194e+003, 1.069685e+002
2.146123e+003, 1.073619e+002
2.148051e+003, 1.068641e+002
2.149980e+003, 1.044700e+002
2.151908e+003, 1.031338e+002
2.153837e+003, 1.028997e+002
2.155765e+003, 1.033773e+002
2.157694e+003, 1.037879e+002
2.159622e+003, 1.037849e+002
2.161551e+003, 1.036016e+002
2.163479e+003, 1.034240e+002
2.165407e+003, 1.036928e+002
2.167336e+003, 1.037662e+002
2.169264e+003, 1.034380e+002
2.171193e+003, 1.020361e+002
2.173121e+003, 1.009602e+002
2.175050e+003, 1.019055e+002
2.176978e+003, 1.019347e+002
2.178907e+003, 1.009492e+002
2.180835e+003, 1.008310e+002
2.182764e+003, 1.009507e+002
2.184692e+003, 1.010029e+002
2.186621e+003, 1.010479e+002
2.188549e+003, 1.009739e+002
2.190478e+003, 1.002630e+002
2.192406e+003, 1.001539e+002
2.194334e+003, 1.008143e+002
2.196263e+003, 1.000604e+002
2.198191e+003, 9.906103e+001
2.200120e+003, 9.914704e+001
2.202048e+003, 9.932045e+001
2.203977e+003, 9.934412e+001
2.205905e+003, 9.872183e+001
2.207834e+003, 9.785019e+001
2.209762e+003, 9.684383e+001
2.211691e+003, 9.639432e+001
2.213619e+003, 9.606037e+001
2.215548e+003, 9.488436e+001
2.217476e+003, 9.429922e+001
2.219405e+003, 9.446384e+001
2.221333e+003, 9.446638e+001
2.223261e+003, 9.465768e+001
2.225190e+003, 9.579734e+001
2.227118e+003, 9.497655e+001
2.229047e+003, 9.321677e+001
2.230975e+003, 9.319218e+001
2.232904e+003, 9.331926e+001
2.234832e+003, 9.312457e+001
2.236761e+003, 9.280583e+001
2.238689e+003, 9.267482e+001
2.240618e+003, 9.309898e+001
2.242546e+003, 9.293941e+001
2.244475e+003, 9.236901e+001
2.246403e+003, 9.240234e+001
2.248332e+003, 9.199688e+001
2.250260e+003, 9.084600e+001
2.252188e+003, 9.234483e+001
2.254117e+003, 9.356160e+001
2.256045e+003, 9.087267e+001
2.257974e+003, 9.086390e+001
2.259902e+003, 9.321613e+001
2.261831e+003, 9.473259e+001
2.263759e+003, 9.368124e+001
2.265688e+003, 8.975230e+001
2.267616e+003, 8.950535e+001
2.269545e+003, 9.040825e+001
2.271473e+003, 8.934816e+001
2.273402e+003, 8.933922e+001
2.275330e+003, 9.000309e+001
2.277259e+003, 8.899987e+001
2.279187e+003, 8.831342e+001
2.281115e+003, 8.854086e+001
2.283044e+003, 8.873470e+001
2.284972e+003, 8.853214e+001
2.286901e+003, 8.719930e+001
2.288829e+003, 8.673640e+001
2.290758e+003, 8.681725e+001
2.292686e+003, 8.624367e+001
2.294615e+003, 8.570084e+001
2.296543e+003, 8.538504e+001
2.298472e+003, 8.557120e+001
2.300400e+003, 8.571460e+001
2.302329e+003, 8.535217e+001
2.304257e+003, 8.484844e+001
2.306186e+003, 8.455175e+001
2.308114e+003, 8.537229e+001
2.310042e+003, 8.540605e+001
2.311971e+003, 8.440293e+001
2.313899e+003, 8.363742e+001
2.315828e+003, 8.332603e+001
2.317756e+003, 8.365368e+001
2.319685e+003, 8.348552e+001
2.321613e+003, 8.286790e+001
2.323542e+003, 8.151431e+001
2.325470e+003, 8.225100e+001
2.327399e+003, 8.457800e+001
2.329327e+003, 8.592656e+001
2.331256e+003, 8.610361e+001
2.333184e+003, 8.512971e+001
2.335113e+003, 8.420915e+001
2.337041e+003, 8.342760e+001
2.338969e+003, 8.289278e+001
2.340898e+003, 8.145682e+001
2.342826e+003, 7.976327e+001
2.344755e+003, 7.891414e+001
2.346683e+003, 7.880542e+001
2.348612e+003, 7.908138e+001
2.350540e+003, 7.809644e+001
2.352469e+003, 7.797838e+001
2.354397e+003, 7.936829e+001
2.356326e+003, 7.768743e+001
2.358254e+003, 7.622896e+001
2.360183e+003, 7.885236e+001
2.362111e+003, 7.915732e+001
2.364040e+003, 7.803793e+001
2.365968e+003, 7.732491e+001
2.367896e+003, 7.686769e+001
2.369825e+003, 7.657493e+001
2.371753e+003, 7.616816e+001
2.373682e+003, 7.598482e+001
2.375610e+003, 7.616020e+001
2.377539e+003, 7.714059e+001
2.379467e+003, 7.738128e+001
2.381396e+003, 7.524062e+001
2.383324e+003, 7.518461e+001
2.385253e+003, 7.576974e+001
2.387181e+003, 7.459641e+001
2.389110e+003, 7.434010e+001
2.391038e+003, 7.483730e+001
2.392967e+003, 7.428566e+001
2.394895e+003, 7.400614e+001
2.396823e+003, 7.417638e+001
2.398752e+003, 7.247239e+001
2.400680e+003, 7.138194e+001
2.402609e+003, 7.204787e+001
2.404537e+003, 7.183989e+001
2.406466e+003, 7.155307e+001
2.408394e+003, 7.204855e+001
2.410323e+003, 7.213618e+001
2.412251e+003, 7.207653e+001
2.414180e+003, 7.292083e+001
2.416108e+003, 7.242072e+001
2.418037e+003, 7.081307e+001
2.419965e+003, 6.943762e+001
2.421894e+003, 6.933031e+001
2.423822e+003, 7.044102e+001
2.425750e+003, 7.174052e+001
2.427679e+003, 7.126893e+001
2.429607e+003, 6.818581e+001
2.431536e+003, 6.702664e+001
2.433464e+003, 6.720677e+001
2.435393e+003, 6.875061e+001
2.437321e+003, 6.892532e+001
2.439250e+003, 6.856713e+001
2.441178e+003, 6.901324e+001
2.443107e+003, 6.896660e+001
2.445035e+003, 6.851492e+001
2.446964e+003, 6.802505e+001
2.448892e+003, 6.782636e+001
2.450821e+003, 6.779523e+001
2.452749e+003, 6.703432e+001
2.454677e+003, 6.636657e+001
2.456606e+003, 6.601003e+001
2.458534e+003, 6.523972e+001
2.460463e+003, 6.502048e+001
2.462391e+003, 6.587031e+001
2.464320e+003, 6.696225e+001
2.466248e+003, 6.692594e+001
2.468177e+003, 6.481453e+001
2.470105e+003, 6.415961e+001
2.472034e+003, 6.437025e+001
2.473962e+003, 6.470840e+001
2.475891e+003, 6.496524e+001
2.477819e+003, 6.492958e+001
2.479748e+003, 6.416972e+001
2.481676e+003, 6.347795e+001
2.483604e+003, 6.302645e+001
2.485533e+003, 6.296267e+001
2.487461e+003, 6.347900e+001
2.489390e+003, 6.393403e+001
2.491318e+003, 6.139564e+001
2.493247e+003, 6.070099e+001
2.495175e+003, 6.225187e+001
2.497104e+003, 6.213295e+001
2.499032e+003, 6.187627e+001
2.500961e+003, 6.202657e+001
2.502889e+003, 6.286857e+001
2.504818e+003, 6.270123e+001
2.506746e+003, 6.070787e+001
2.508675e+003, 6.018310e+001
2.510603e+003, 6.031598e+001
2.512531e+003, 6.075233e+001
2.514460e+003, 6.032866e+001
2.516388e+003, 5.963002e+001
2.518317e+003, 5.905604e+001
2.520245e+003, 5.888542e+001
2.522174e+003, 5.911415e+001
2.524102e+003, 6.004486e+001
2.526031e+003, 5.864323e+001
2.527959e+003, 5.703453e+001
2.529888e+003, 5.820616e+001
2.531816e+003, 5.804367e+001
2.533745e+003, 5.724306e+001
2.535673e+003, 5.749298e+001
2.537602e+003, 5.786763e+001
2.539530e+003, 5.795951e+001
2.541458e+003, 5.702017e+001
2.543387e+003, 5.671969e+001
2.545315e+003, 5.704342e+001
2.547244e+003, 5.755496e+001
2.549172e+003, 5.769536e+001
2.551101e+003, 5.756668e+001
2.553029e+003, 5.763467e+001
2.554958e+003, 5.806839e+001
2.556886e+003, 5.856237e+001
2.558815e+003, 5.754469e+001
2.560743e+003, 5.829124e+001
2.562672e+003, 6.030098e+001
2.564600e+003, 5.893869e+001
2.566529e+003, 5.869571e+001
2.568457e+003, 5.985571e+001
2.570385e+003, 5.932964e+001
2.572314e+003, 5.837595e+001
2.574242e+003, 5.752807e+001
2.576171e+003, 5.762969e+001
2.578099e+003, 5.762699e+001
2.580028e+003, 5.717883e+001
2.581956e+003, 5.576448e+001
2.583885e+003, 5.464700e+001
2.585813e+003, 5.414857e+001
2.587742e+003, 5.425001e+001
2.589670e+003, 5.365045e+001
2.591599e+003, 5.218395e+001
2.593527e+003, 5.183523e+001
2.595456e+003, 5.125271e+001
2.597384e+003, 5.024774e+001
2.599313e+003, 5.059474e+001
2.601241e+003, 5.131314e+001
2.603169e+003, 5.188098e+001
2.605098e+003, 5.033984e+001
2.607026e+003, 4.956354e+001
2.608955e+003, 5.014631e+001
2.610883e+003, 5.032417e+001
2.612812e+003, 5.051440e+001
2.614740e+003, 5.065570e+001
2.616669e+003, 4.961297e+001
2.618597e+003, 4.907256e+001
2.620526e+003, 4.928334e+001
2.622454e+003, 4.948972e+001
2.624383e+003, 4.862662e+001
2.626311e+003, 4.720456e+001
2.628240e+003, 4.835347e+001
2.630168e+003, 4.822233e+001
2.632096e+003, 4.681643e+001
2.634025e+003, 4.685709e+001
2.635953e+003, 4.689230e+001
2.637882e+003, 4.684747e+001
2.639810e+003, 4.763362e+001
2.641739e+003, 4.734257e+001
2.643667e+003, 4.629370e+001
2.645596e+003, 4.556099e+001
2.647524e+003, 4.604173e+001
2.649453e+003, 4.701575e+001
2.651381e+003, 4.704199e+001
2.653310e+003, 4.658859e+001
2.655238e+003, 4.609942e+001
2.657167e+003, 4.613874e+001
2.659095e+003, 4.634097e+001
2.661023e+003, 4.630408e+001
2.662952e+003, 4.552976e+001
2.664880e+003, 4.542230e+001
2.666809e+003, 4.536754e+001
2.668737e+003, 4.466256e+001
2.670666e+003, 4.394215e+001
2.672594e+003, 4.347723e+001
2.674523e+003, 4.340308e+001
2.676451e+003, 4.373171e+001
2.678380e+003, 4.391699e+001
2.680308e+003, 4.367379e+001
2.682237e+003, 4.317293e+001
2.684165e+003, 4.279587e+001
2.686094e+003, 4.266816e+001
2.688022e+003, 4.246471e+001
2.689950e+003, 4.213265e+001
2.691879e+003, 4.172055e+001
2.693807e+003, 4.149868e+001
2.695736e+003, 4.147638e+001
2.697664e+003, 4.155650e+001
2.699593e+003, 4.139442e+001
2.701521e+003, 4.148420e+001
2.703450e+003, 4.163145e+001
2.705378e+003, 4.104352e+001
2.707307e+003, 4.081918e+001
2.709235e+003, 4.085325e+001
2.711164e+003, 4.079958e+001
2.713092e+003, 4.024575e+001
2.715021e+003, 3.976866e+001
2.716949e+003, 4.015810e+001
2.718877e+003, 4.049006e+001
2.720806e+003, 4.042106e+001
2.722734e+003, 3.965159e+001
2.724663e+003, 3.876397e+001
2.726591e+003, 3.831803e+001
2.728520e+003, 3.859206e+001
2.730448e+003, 3.847707e+001
2.732377e+003, 3.817249e+001
2.734305e+003, 3.785607e+001
2.736234e+003, 3.837191e+001
2.738162e+003, 3.830930e+001
2.740091e+003, 3.760146e+001
2.742019e+003, 3.676773e+001
2.743948e+003, 3.670669e+001
2.745876e+003, 3.710195e+001
2.747804e+003, 3.734432e+001
2.749733e+003, 3.709023e+001
2.751661e+003, 3.694482e+001
2.753590e+003, 3.749238e+001
2.755518e+003, 3.695174e+001
2.757447e+003, 3.622062e+001
2.759375e+003, 3.584364e+001
2.761304e+003, 3.561606e+001
2.763232e+003, 3.581190e+001
2.765161e+003, 3.614384e+001
2.767089e+003, 3.442187e+001
2.769018e+003, 3.503054e+001
2.770946e+003, 3.697670e+001
2.772875e+003, 3.612811e+001
2.774803e+003, 3.446773e+001
2.776731e+003, 3.316600e+001
2.778660e+003, 3.357369e+001
2.780588e+003, 3.347773e+001
2.782517e+003, 3.318980e+001
2.784445e+003, 3.305097e+001
2.786374e+003, 3.167724e+001
2.788302e+003, 3.143015e+001
2.790231e+003, 3.286027e+001
2.792159e+003, 3.299743e+001
2.794088e+003, 3.248989e+001
2.796016e+003, 3.176465e+001
2.797945e+003, 3.122718e+001
2.799873e+003, 3.273389e+001
2.801802e+003, 3.417385e+001
2.803730e+003, 3.314596e+001
2.805658e+003, 3.190507e+001
2.807587e+003, 3.116739e+001
2.809515e+003, 3.108112e+001
2.811444e+003, 3.040520e+001
2.813372e+003, 3.064608e+001
2.815301e+003, 3.173832e+001
2.817229e+003, 3.182077e+001
2.819158e+003, 3.120928e+001
2.821086e+003, 3.026557e+001
2.823015e+003, 2.923584e+001
2.824943e+003, 2.932489e+001
2.826872e+003, 2.978312e+001
2.828800e+003, 3.000013e+001
2.830729e+003, 2.955734e+001
2.832657e+003, 2.949622e+001
2.834585e+003, 2.989163e+001
2.836514e+003, 2.924666e+001
2.838442e+003, 2.900976e+001
2.840371e+003, 2.888257e+001
2.842299e+003, 2.763266e+001
2.844228e+003, 2.829676e+001
2.846156e+003, 2.916253e+001
2.848085e+003, 2.865439e+001
2.850013e+003, 2.734593e+001
2.851942e+003, 2.719403e+001
2.853870e+003, 2.836855e+001
2.855799e+003, 2.828860e+001
2.857727e+003, 2.834024e+001
2.859656e+003, 2.848016e+001
2.861584e+003, 2.832154e+001
2.863512e+003, 2.759788e+001
2.865441e+003, 2.679618e+001
2.867369e+003, 2.627649e+001
2.869298e+003, 2.675275e+001
2.871226e+003, 2.682174e+001
2.873155e+003, 2.628207e+001
2.875083e+003, 2.558365e+001
2.877012e+003, 2.581586e+001
2.878940e+003, 2.614922e+001
2.880869e+003, 2.558991e+001
2.882797e+003, 2.568636e+001
2.884726e+003, 2.630025e+001
2.886654e+003, 2.693319e+001
2.888583e+003, 2.550086e+001
2.890511e+003, 2.515003e+001
2.892439e+003, 2.550465e+001
2.894368e+003, 2.465685e+001
2.896296e+003, 2.609641e+001
2.898225e+003, 2.661841e+001
2.900153e+003, 2.420710e+001
2.902082e+003, 2.348811e+001
2.904010e+003, 2.356988e+001
2.905939e+003, 2.381347e+001
2.907867e+003, 2.339863e+001
2.909796e+003, 2.317850e+001
2.911724e+003, 2.311659e+001
2.913653e+003, 2.311808e+001
2.915581e+003, 2.413765e+001
2.917510e+003, 2.386211e+001
2.919438e+003, 2.244260e+001
2.921366e+003, 2.245572e+001
2.923295e+003, 2.165699e+001
2.925223e+003, 2.139723e+001
2.927152e+003, 2.284104e+001
2.929080e+003, 2.327834e+001
2.931009e+003, 2.291853e+001
2.932937e+003, 2.229725e+001
2.934866e+003, 2.280665e+001
2.936794e+003, 2.235906e+001
2.938723e+003, 2.134825e+001
2.940651e+003, 2.040728e+001
2.942580e+003, 2.107512e+001
2.944508e+003, 2.202020e+001
2.946437e+003, 2.248373e+001
2.948365e+003, 2.163428e+001
2.950293e+003, 2.099764e+001
2.952222e+003, 2.043549e+001
2.954150e+003, 1.957757e+001
2.956079e+003, 2.042250e+001
2.958007e+003, 2.117097e+001
2.959936e+003, 2.125010e+001
2.961864e+003, 2.041617e+001
2.963793e+003, 2.116383e+001
2.965721e+003, 2.180991e+001
2.967650e+003, 2.090259e+001
2.969578e+003, 2.074770e+001
2.971507e+003, 2.057873e+001
2.973435e+003, 2.015957e+001
2.975364e+003, 1.940768e+001
2.977292e+003, 1.905078e+001
2.979220e+003, 1.935890e+001
2.981149e+003, 2.022563e+001
2.983077e+003, 2.018980e+001
2.985006e+003, 2.045700e+001
2.986934e+003, 2.040275e+001
2.988863e+003, 1.890211e+001
2.990791e+003, 1.933709e+001
2.992720e+003, 1.976374e+001
2.994648e+003, 1.938654e+001
2.996577e+003, 1.838331e+001
2.998505e+003, 1.859503e+001
3.000434e+003, 1.859946e+001
3.002362e+003, 1.711497e+001
3.004291e+003, 1.740606e+001
3.006219e+003, 1.752723e+001
3.008147e+003, 1.729782e+001
3.010076e+003, 1.752288e+001
3.012004e+003, 1.751336e+001
3.013933e+003, 1.742050e+001
3.015861e+003, 1.738788e+001
3.017790e+003, 1.758013e+001
3.019718e+003, 1.844663e+001
3.021647e+003, 1.861060e+001
3.023575e+003, 1.658615e+001
3.025504e+003, 1.739924e+001
3.027432e+003, 1.822351e+001
3.029361e+003, 1.810019e+001
3.031289e+003, 1.696678e+001
3.033218e+003, 1.687076e+001
3.035146e+003, 1.728249e+001
3.037074e+003, 1.753630e+001
3.039003e+003, 1.585750e+001
3.040931e+003, 1.621750e+001
3.042860e+003, 1.706112e+001
3.044788e+003, 1.661160e+001
3.046717e+003, 1.659102e+001
3.048645e+003, 1.707114e+001
3.050574e+003, 1.727550e+001
3.052502e+003, 1.575012e+001
3.054431e+003, 1.590250e+001
3.056359e+003, 1.668420e+001
3.058288e+003, 1.710900e+001
3.060216e+003, 1.556217e+001
3.062145e+003, 1.546691e+001
3.064073e+003, 1.554898e+001
3.066001e+003, 1.490547e+001
3.067930e+003, 1.602034e+001
3.069858e+003, 1.600625e+001
3.071787e+003, 1.523134e+001
3.073715e+003, 1.464491e+001
3.075644e+003, 1.440725e+001
3.077572e+003, 1.462104e+001
3.079501e+003, 1.495466e+001
3.081429e+003, 1.486071e+001
3.083358e+003, 1.453611e+001
3.085286e+003, 1.405852e+001
3.087215e+003, 1.389203e+001
3.089143e+003, 1.532094e+001
3.091072e+003, 1.489314e+001
3.093000e+003, 1.398120e+001
3.094928e+003, 1.371668e+001
3.096857e+003, 1.501428e+001
3.098785e+003, 1.515290e+001
3.100714e+003, 1.489069e+001
3.102642e+003, 1.490845e+001
3.104571e+003, 1.409828e+001
3.106499e+003, 1.417239e+001
3.108428e+003, 1.460245e+001
3.110356e+003, 1.456580e+001
3.112285e+003, 1.513461e+001
3.114213e+003, 1.468167e+001
3.116142e+003, 1.367282e+001
3.118070e+003, 1.324960e+001
3.119999e+003, 1.319193e+001
3.121927e+003, 1.322366e+001
3.123855e+003, 1.309199e+001
3.125784e+003, 1.235312e+001
3.127712e+003, 1.289556e+001
3.129641e+003, 1.335458e+001
3.131569e+003, 1.304582e+001
3.133498e+003, 1.160814e+001
3.135426e+003, 1.158339e+001
3.137355e+003, 1.193937e+001
3.139283e+003, 1.209576e+001
3.141212e+003, 1.201736e+001
3.143140e+003, 1.309030e+001
3.145069e+003, 1.270952e+001
3.146997e+003, 1.105186e+001
3.148926e+003, 1.312174e+001
3.150854e+003, 1.218393e+001
3.152782e+003, 1.166663e+001
3.154711e+003, 1.294005e+001
3.156639e+003, 1.341010e+001
3.158568e+003, 1.323331e+001
3.160496e+003, 1.329733e+001
3.162425e+003, 1.364459e+001
3.164353e+003, 1.279134e+001
3.166282e+003, 1.150967e+001
3.168210e+003, 1.085976e+001
3.170139e+003, 1.123632e+001
3.172067e+003, 1.209214e+001
3.173996e+003, 1.358658e+001
3.175924e+003, 1.340851e+001
3.177853e+003, 1.116399e+001
3.179781e+003, 1.106817e+001
3.181709e+003, 1.146648e+001
3.183638e+003, 1.209878e+001
3.185566e+003, 1.257776e+001
3.187495e+003, 1.138786e+001
3.189423e+003, 1.211788e+001
3.191352e+003, 1.267536e+001
3.193280e+003, 1.202409e+001
3.195209e+003, 1.136526e+001
3.197137e+003, 1.140666e+001
3.199066e+003, 1.198107e+001
3.200994e+003, 1.265048e+001
3.202923e+003, 1.261764e+001
3.204851e+003, 1.196233e+001
3.206780e+003, 1.168368e+001
3.208708e+003, 1.189168e+001
3.210636e+003, 1.190416e+001
3.212565e+003, 1.102169e+001
3.214493e+003, 1.082221e+001
3.216422e+003, 1.119434e+001
3.218350e+003, 1.070070e+001
3.220279e+003, 1.126336e+001
3.222207e+003, 1.090167e+001
3.224136e+003, 1.003610e+001
3.226064e+003, 1.030694e+001
3.227993e+003, 1.008818e+001
3.229921e+003, 9.986650e+000
3.231850e+003, 1.007382e+001
3.233778e+003, 1.022694e+001
3.235707e+003, 1.143723e+001
3.237635e+003, 1.137451e+001
3.239563e+003, 1.051265e+001
3.241492e+003, 9.771663e+000
3.243420e+003, 1.011020e+001
3.245349e+003, 1.060653e+001
3.247277e+003, 1.065683e+001
3.249206e+003, 1.023911e+001
3.251134e+003, 1.040822e+001
3.253063e+003, 1.151208e+001
3.254991e+003, 1.100033e+001
3.256920e+003, 9.340424e+000
3.258848e+003, 1.077389e+001
3.260777e+003, 1.231162e+001
3.262705e+003, 1.177242e+001
3.264634e+003, 1.028168e+001
3.266562e+003, 1.054181e+001
3.268490e+003, 1.049648e+001
3.270419e+003, 1.102289e+001
3.272347e+003, 1.115534e+001
3.274276e+003, 9.884067e+000
3.276204e+003, 9.810705e+000
3.278133e+003, 9.912017e+000
3.280061e+003, 1.047926e+001
3.281990e+003, 1.151483e+001
3.283918e+003, 1.161428e+001
3.285847e+003, 1.102148e+001
3.287775e+003, 1.084093e+001
3.289704e+003, 1.092482e+001
3.291632e+003, 1.000098e+001
3.293561e+003, 1.181690e+001
3.295489e+003, 1.213148e+001
3.297417e+003, 1.102284e+001
3.299346e+003, 1.027974e+001
3.301274e+003, 1.150425e+001
3.303203e+003, 1.130770e+001
3.305131e+003, 1.051856e+001
3.307060e+003, 1.034789e+001
3.308988e+003, 1.191978e+001
3.310917e+003, 1.209196e+001
3.312845e+003, 1.160741e+001
3.314774e+003, 1.078414e+001
3.316702e+003, 9.440270e+000
3.318631e+003, 1.008672e+001
3.320559e+003, 1.044507e+001
3.322488e+003, 1.081450e+001
3.324416e+003, 1.182028e+001
3.326344e+003, 1.266176e+001
3.328273e+003, 1.105384e+001
3.330201e+003, 1.055246e+001
3.332130e+003, 1.154283e+001
3.334058e+003, 1.054214e+001
3.335987e+003, 9.707053e+000
3.337915e+003, 9.490186e+000
3.339844e+003, 9.802816e+000
3.341772e+003, 1.036498e+001
3.343701e+003, 1.019623e+001
3.345629e+003, 1.078596e+001
3.347558e+003, 1.109113e+001
3.349486e+003, 1.097433e+001
3.351415e+003, 1.153381e+001
3.353343e+003, 1.119685e+001
3.355271e+003, 1.049066e+001
3.357200e+003, 1.042728e+001
3.359128e+003, 1.134523e+001
3.361057e+003, 1.118821e+001
3.362985e+003, 1.060968e+001
3.364914e+003, 1.053387e+001
3.366842e+003, 1.081245e+001
3.368771e+003, 1.053049e+001
3.370699e+003, 9.694174e+000
3.372628e+003, 1.009922e+001
3.374556e+003, 9.898986e+000
3.376485e+003, 8.352973e+000
3.378413e+003, 1.059179e+001
3.380342e+003, 1.074716e+001
3.382270e+003, 1.047432e+001
3.384198e+003, 1.007962e+001
3.386127e+003, 8.901632e+000
3.388055e+003, 1.076383e+001
3.389984e+003, 1.058140e+001
3.391912e+003, 1.032610e+001
3.393841e+003, 1.069178e+001
3.395769e+003, 9.623639e+000
3.397698e+003, 9.740747e+000
3.399626e+003, 8.895029e+000
3.401555e+003, 8.748962e+000
3.403483e+003, 1.023943e+001
3.405412e+003, 9.744182e+000
3.407340e+003, 8.983484e+000
3.409269e+003, 9.282208e+000
3.411197e+003, 1.011359e+001
3.413125e+003, 1.048465e+001
3.415054e+003, 1.123709e+001
3.416982e+003, 1.228982e+001
3.418911e+003, 1.266105e+001
3.420839e+003, 1.223391e+001
3.422768e+003, 1.157066e+001
3.424696e+003, 1.045354e+001
3.426625e+003, 1.034984e+001
3.428553e+003, 9.876089e+000
3.430482e+003, 9.285650e+000
3.432410e+003, 1.174669e+001
3.434339e+003, 1.014789e+001
3.436267e+003, 9.745057e+000
3.438196e+003, 1.071589e+001
3.440124e+003, 1.162029e+001
3.442052e+003, 1.075481e+001
3.443981e+003, 9.638120e+000
3.445909e+003, 8.896659e+000
3.447838e+003, 9.021519e+000
3.449766e+003, 9.614415e+000
3.451695e+003, 8.046751e+000
3.453623e+003, 7.696323e+000
3.455552e+003, 7.928953e+000
##END=



