##NAMES=Rhodizite
##RRUFFID=R050099
##IDEAL CHEMISTRY=KAl_4_Be_5_B_11_O_28_
##LOCALITY=Mont Ibity, Antsirabe, Madagascar
##OWNER=RRUFF
##SOURCE=Rock Currier
##DESCRIPTION=Pale green single crystals
##STATUS=The identification of this mineral has been confirmed by X-ray diffraction and chemical analysis
##URL=rruff.info/R050099
##MEASURED CHEMISTRY=([box]_0.49_K_0.32_Rb_0.17_Na_0.02_)(Al_3.96_Si_0.04_)_Σ=4_Be_4.00_(B_11.45_Be_0.55_)_Σ=12_O_28_
145.1974, 22498.81
145.6795, 22404.48
146.1616, 22382.18
146.6437, 22463.51
147.1258, 22537.27
147.6079, 22606.46
148.0901, 22668.00
148.5722, 22710.59
149.0543, 22723.30
149.5364, 22726.76
150.0185, 22729.26
150.5006, 22687.93
150.9828, 22695.36
151.4649, 22780.28
151.9470, 22933.85
152.4291, 23057.19
152.9112, 23127.99
153.3933, 23176.52
153.8755, 23224.84
154.3576, 23282.11
154.8397, 23331.04
155.3218, 23360.90
155.8039, 23366.17
156.2860, 23387.74
156.7682, 23455.48
157.2503, 23536.78
157.7324, 23591.55
158.2145, 23586.28
158.6966, 23571.13
159.1787, 23568.05
159.6609, 23587.55
160.1430, 23602.36
160.6251, 23604.25
161.1072, 23596.10
161.5893, 23583.85
162.0714, 23564.25
162.5536, 23545.52
163.0357, 23533.13
163.5178, 23526.80
163.9999, 23529.73
164.4820, 23552.32
164.9641, 23590.66
165.4463, 23618.12
165.9284, 23612.01
166.4105, 23591.05
166.8926, 23575.31
167.3747, 23564.09
167.8568, 23565.19
168.3390, 23594.44
168.8211, 23653.93
169.3032, 23699.59
169.7853, 23684.22
170.2674, 23635.86
170.7495, 23603.71
171.2317, 23623.92
171.7138, 23665.23
172.1959, 23692.32
172.6780, 23694.69
173.1601, 23707.18
173.6422, 23781.06
174.1244, 23896.85
174.6065, 23988.79
175.0886, 23995.66
175.5707, 23961.19
176.0528, 23948.95
176.5349, 23975.08
177.0171, 24023.04
177.4992, 24086.71
177.9813, 24162.14
178.4634, 24222.57
178.9455, 24231.99
179.4276, 24209.35
179.9098, 24198.79
180.3919, 24214.14
180.8740, 24248.29
181.3561, 24300.63
181.8382, 24371.93
182.3203, 24431.64
182.8025, 24433.67
183.2846, 24392.60
183.7667, 24366.93
184.2488, 24386.75
184.7309, 24442.11
185.2130, 24512.80
185.6951, 24607.27
186.1773, 24690.04
186.6594, 24703.28
187.1415, 24652.92
187.6236, 24600.46
188.1057, 24586.71
188.5878, 24601.49
189.0700, 24587.12
189.5521, 24524.15
190.0342, 24452.85
190.5163, 24457.33
190.9984, 24538.98
191.4805, 24631.14
191.9627, 24686.33
192.4448, 24706.30
192.9269, 24719.02
193.4090, 24726.04
193.8911, 24729.75
194.3732, 24736.96
194.8554, 24747.61
195.3375, 24763.59
195.8196, 24795.12
196.3017, 24843.55
196.7838, 24872.32
197.2659, 24870.11
197.7481, 24841.01
198.2302, 24799.56
198.7123, 24737.38
199.1944, 24689.19
199.6765, 24711.04
200.1586, 24814.55
200.6408, 24902.51
201.1229, 24932.73
201.6050, 24903.81
202.0871, 24895.22
202.5692, 24907.06
203.0513, 24937.98
203.5335, 24994.91
204.0156, 25086.77
204.4977, 25164.38
204.9798, 25198.37
205.4619, 25180.23
205.9440, 25173.96
206.4262, 25181.87
206.9083, 25201.33
207.3904, 25232.42
207.8725, 25284.36
208.3546, 25320.96
208.8367, 25310.69
209.3189, 25234.87
209.8010, 25191.37
210.2831, 25195.84
210.7652, 25237.80
211.2473, 25273.44
211.7294, 25305.97
212.2116, 25327.53
212.6937, 25327.41
213.1758, 25295.59
213.6579, 25278.95
214.1400, 25289.96
214.6221, 25327.01
215.1043, 25355.57
215.5864, 25375.99
216.0685, 25389.91
216.5506, 25396.29
217.0327, 25389.26
217.5148, 25390.90
217.9970, 25407.20
218.4791, 25438.39
218.9612, 25469.50
219.4433, 25492.31
219.9254, 25521.30
220.4075, 25583.63
220.8897, 25708.06
221.3718, 25802.31
221.8539, 25829.50
222.3360, 25772.86
222.8181, 25726.87
223.3002, 25687.53
223.7824, 25661.15
224.2645, 25660.75
224.7466, 25692.03
225.2287, 25740.29
225.7108, 25807.45
226.1929, 25915.17
226.6750, 25980.02
227.1572, 25982.69
227.6393, 25948.41
228.1214, 25943.36
228.6035, 25984.29
229.0856, 26029.96
229.5677, 26057.75
230.0499, 26050.54
230.5320, 26065.03
231.0141, 26115.23
231.4962, 26188.84
231.9783, 26236.91
232.4604, 26253.01
232.9426, 26250.70
233.4247, 26231.38
233.9068, 26166.43
234.3889, 26145.80
234.8710, 26192.33
235.3531, 26297.82
235.8353, 26387.32
236.3174, 26482.50
236.7995, 26538.21
237.2816, 26506.69
237.7637, 26307.68
238.2458, 26178.66
238.7280, 26172.61
239.2101, 26287.36
239.6922, 26376.91
240.1743, 26443.04
240.6564, 26482.14
241.1385, 26484.70
241.6207, 26415.79
242.1028, 26372.54
242.5849, 26380.76
243.0670, 26445.76
243.5491, 26492.05
244.0313, 26510.02
244.5134, 26517.32
244.9955, 26532.82
245.4776, 26552.75
245.9597, 26588.86
246.4418, 26655.39
246.9240, 26766.54
247.4061, 26823.73
247.8882, 26802.83
248.3703, 26745.39
248.8524, 26709.34
249.3345, 26697.54
249.8167, 26702.35
250.2988, 26722.28
250.7809, 26758.59
251.2630, 26805.74
251.7451, 26868.96
252.2272, 26938.95
252.7094, 26996.40
253.1915, 27028.48
253.6736, 27069.97
254.1557, 27144.80
254.6378, 27288.12
255.1199, 27349.90
255.6021, 27292.73
256.0842, 27171.80
256.5663, 27109.06
257.0484, 27127.36
257.5305, 27164.54
258.0126, 27195.21
258.4948, 27217.84
258.9769, 27242.08
259.4590, 27276.66
259.9411, 27310.70
260.4232, 27306.87
260.9053, 27236.42
261.3875, 27181.62
261.8696, 27193.21
262.3517, 27300.81
262.8338, 27379.35
263.3159, 27414.13
263.7980, 27417.38
264.2802, 27429.28
264.7623, 27452.35
265.2444, 27478.16
265.7265, 27503.16
266.2086, 27527.92
266.6907, 27542.24
267.1729, 27531.06
267.6550, 27510.21
268.1371, 27554.27
268.6192, 27692.06
269.1013, 27828.04
269.5834, 27891.74
270.0656, 27868.24
270.5477, 27836.05
271.0298, 27795.96
271.5119, 27755.60
271.9940, 27756.46
272.4761, 27816.72
272.9583, 27873.16
273.4404, 27866.46
273.9225, 27779.45
274.4046, 27730.28
274.8867, 27747.95
275.3688, 27815.50
275.8510, 27854.86
276.3331, 27860.16
276.8152, 27854.84
277.2973, 27856.39
277.7794, 27865.00
278.2615, 27879.80
278.7437, 27904.72
279.2258, 27935.29
279.7079, 27949.42
280.1900, 27944.66
280.6721, 27933.60
281.1542, 27925.94
281.6364, 27921.82
282.1185, 27921.71
282.6006, 27925.75
283.0827, 27934.20
283.5648, 27947.58
284.0469, 27966.09
284.5291, 27989.61
285.0112, 28012.76
285.4933, 28036.09
285.9754, 28082.61
286.4575, 28169.11
286.9396, 28279.30
287.4217, 28352.36
287.9038, 28384.06
288.3860, 28404.60
288.8681, 28440.21
289.3502, 28489.32
289.8323, 28546.60
290.3144, 28618.21
290.7965, 28693.12
291.2787, 28735.83
291.7608, 28744.31
292.2429, 28743.43
292.7250, 28747.30
293.2071, 28759.41
293.6892, 28797.77
294.1714, 28881.91
294.6535, 28990.78
295.1356, 29089.92
295.6177, 29181.37
296.0998, 29240.68
296.5819, 29229.21
297.0641, 29164.35
297.5462, 29103.07
298.0283, 29066.45
298.5104, 29044.23
298.9925, 29020.88
299.4746, 28996.22
299.9568, 28969.06
300.4389, 28930.27
300.9210, 28887.12
301.4031, 28856.18
301.8852, 28850.10
302.3673, 28854.68
302.8495, 28848.44
303.3316, 28831.25
303.8137, 28819.97
304.2958, 28836.17
304.7779, 28866.79
305.2600, 28888.58
305.7422, 28891.03
306.2243, 28881.74
306.7064, 28861.66
307.1885, 28831.60
307.6706, 28810.27
308.1527, 28825.81
308.6349, 28855.38
309.1170, 28867.01
309.5991, 28835.71
310.0812, 28792.84
310.5633, 28755.74
311.0454, 28724.88
311.5276, 28708.21
312.0097, 28719.76
312.4918, 28745.07
312.9739, 28768.22
313.4560, 28791.01
313.9381, 28804.13
314.4203, 28792.69
314.9024, 28759.39
315.3845, 28740.08
315.8666, 28765.88
316.3487, 28807.23
316.8308, 28836.19
317.3130, 28826.08
317.7951, 28818.50
318.2772, 28832.20
318.7593, 28865.36
319.2414, 28897.35
319.7235, 28922.12
320.2057, 28942.64
320.6878, 28961.33
321.1699, 28996.01
321.6520, 29011.91
322.1341, 28984.18
322.6162, 28919.25
323.0984, 28881.04
323.5805, 28907.94
324.0626, 28950.97
324.5447, 28977.16
325.0268, 28947.81
325.5089, 28939.65
325.9911, 28974.80
326.4732, 29048.09
326.9553, 29107.55
327.4374, 29142.63
327.9195, 29166.95
328.4016, 29188.44
328.8838, 29200.09
329.3659, 29215.61
329.8480, 29232.82
330.3301, 29252.49
330.8122, 29283.55
331.2943, 29343.73
331.7765, 29397.21
332.2586, 29423.18
332.7407, 29407.32
333.2228, 29388.88
333.7049, 29362.42
334.1870, 29335.22
334.6692, 29338.90
335.1513, 29391.59
335.6334, 29447.61
336.1155, 29481.51
336.5976, 29488.62
337.0797, 29488.86
337.5619, 29478.00
338.0440, 29463.18
338.5261, 29469.60
339.0082, 29505.64
339.4903, 29536.41
339.9724, 29533.82
340.4546, 29490.53
340.9367, 29478.20
341.4188, 29507.75
341.9009, 29561.19
342.3830, 29606.75
342.8651, 29645.78
343.3473, 29668.93
343.8294, 29667.31
344.3115, 29643.27
344.7936, 29614.70
345.2757, 29578.28
345.7578, 29549.80
346.2400, 29564.12
346.7221, 29618.46
347.2042, 29663.79
347.6863, 29662.74
348.1684, 29631.64
348.6505, 29620.27
349.1327, 29628.37
349.6148, 29662.58
350.0969, 29759.93
350.5790, 29898.59
351.0611, 29996.65
351.5432, 29985.23
352.0254, 29917.13
352.5075, 29871.77
352.9896, 29852.55
353.4717, 29848.88
353.9538, 29860.25
354.4359, 29880.34
354.9181, 29896.33
355.4002, 29918.96
355.8823, 29926.44
356.3644, 29883.45
356.8465, 29789.88
357.3286, 29712.33
357.8108, 29692.53
358.2929, 29715.40
358.7750, 29760.13
359.2571, 29855.59
359.7392, 29940.99
360.2213, 29976.77
360.7035, 29965.40
361.1856, 29948.64
361.6677, 29942.95
362.1498, 29940.30
362.6319, 29933.56
363.1140, 29904.43
363.5962, 29886.71
364.0783, 29904.04
364.5604, 29948.74
365.0425, 29967.70
365.5246, 29907.71
366.0067, 29844.23
366.4889, 29823.69
366.9710, 29894.68
367.4531, 29958.51
367.9352, 30011.59
368.4173, 30052.85
368.8994, 30076.20
369.3815, 30058.14
369.8636, 30043.05
370.3458, 30051.78
370.8279, 30112.22
371.3100, 30148.02
371.7921, 30146.84
372.2742, 30123.75
372.7563, 30116.85
373.2385, 30135.38
373.7206, 30154.32
374.2027, 30161.67
374.6848, 30152.02
375.1669, 30155.10
375.6490, 30181.18
376.1312, 30209.06
376.6133, 30190.93
377.0954, 30106.83
377.5775, 30058.91
378.0596, 30108.43
378.5417, 30250.20
379.0239, 30319.59
379.5060, 30301.82
379.9881, 30254.84
380.4702, 30252.53
380.9523, 30293.22
381.4344, 30328.36
381.9166, 30336.80
382.3987, 30328.47
382.8808, 30336.30
383.3629, 30360.76
383.8450, 30387.10
384.3271, 30395.96
384.8093, 30393.82
385.2914, 30402.29
385.7735, 30434.49
386.2556, 30473.16
386.7377, 30491.56
387.2198, 30491.99
387.7020, 30492.72
388.1841, 30516.33
388.6662, 30545.73
389.1483, 30555.11
389.6304, 30523.73
390.1125, 30496.40
390.5947, 30523.57
391.0768, 30587.00
391.5589, 30620.58
392.0410, 30656.37
392.5231, 30682.47
393.0052, 30699.39
393.4874, 30679.65
393.9695, 30707.25
394.4516, 30715.88
394.9337, 30723.73
395.4158, 30758.00
395.8979, 30743.58
396.3801, 30777.43
396.8622, 30792.02
397.3443, 30815.42
397.8264, 30819.72
398.3085, 30829.93
398.7906, 30859.23
399.2728, 30877.96
399.7549, 30880.08
400.2370, 30904.04
400.7191, 30888.96
401.2012, 30892.86
401.6833, 30903.05
402.1655, 30911.38
402.6476, 30929.29
403.1297, 30973.74
403.6118, 31071.72
404.0939, 31128.87
404.5760, 31113.67
405.0582, 31045.13
405.5403, 31031.55
406.0224, 31088.05
406.5045, 31155.20
406.9866, 31187.20
407.4688, 31181.03
407.9509, 31191.11
408.4330, 31226.62
408.9151, 31275.39
409.3972, 31312.02
409.8793, 31336.14
410.3615, 31359.79
410.8436, 31388.07
411.3257, 31421.48
411.8078, 31462.82
412.2899, 31514.07
412.7720, 31567.18
413.2542, 31604.09
413.7363, 31633.24
414.2184, 31680.14
414.7005, 31778.82
415.1826, 31890.04
415.6647, 31960.84
416.1469, 31988.49
416.6290, 32017.56
417.1111, 32077.23
417.5932, 32157.54
418.0753, 32243.44
418.5574, 32322.55
419.0396, 32412.71
419.5217, 32529.13
420.0038, 32667.31
420.4859, 32806.14
420.9680, 32931.07
421.4501, 33057.41
421.9323, 33193.62
422.4144, 33364.29
422.8965, 33518.45
423.3786, 33628.59
423.8607, 33716.07
424.3428, 33841.14
424.8250, 34053.42
425.3071, 34269.02
425.7892, 34450.09
426.2713, 34565.29
426.7534, 34741.87
427.2355, 35007.78
427.7177, 35317.69
428.1998, 35606.47
428.6819, 35881.17
429.1640, 36113.71
429.6461, 36290.44
430.1282, 36409.07
430.6104, 36532.08
431.0925, 36672.23
431.5746, 36779.02
432.0567, 36808.54
432.5388, 36760.35
433.0209, 36622.24
433.5031, 36371.48
433.9852, 36045.95
434.4673, 35725.30
434.9494, 35411.44
435.4315, 35098.09
435.9136, 34779.12
436.3958, 34461.30
436.8779, 34155.92
437.3600, 33863.50
437.8421, 33599.02
438.3242, 33381.29
438.8063, 33206.51
439.2885, 33063.32
439.7706, 32954.09
440.2527, 32868.68
440.7348, 32796.56
441.2169, 32735.66
441.6990, 32696.11
442.1812, 32695.46
442.6633, 32713.94
443.1454, 32728.03
443.6275, 32741.57
444.1096, 32737.44
444.5917, 32698.29
445.0739, 32626.98
445.5560, 32569.48
446.0381, 32556.56
446.5202, 32545.54
447.0023, 32511.30
447.4844, 32378.40
447.9666, 32320.32
448.4487, 32392.45
448.9308, 32536.59
449.4129, 32586.54
449.8950, 32475.55
450.3771, 32379.94
450.8593, 32376.04
451.3413, 32483.15
451.8235, 32569.28
452.3056, 32627.89
452.7877, 32676.49
453.2698, 32742.65
453.7519, 32828.29
454.2340, 32904.16
454.7162, 32954.21
455.1983, 32989.56
455.6804, 33056.52
456.1625, 33156.82
456.6446, 33260.93
457.1267, 33334.56
457.6089, 33391.69
458.0910, 33478.55
458.5731, 33612.36
459.0552, 33763.67
459.5373, 33894.50
460.0194, 34011.09
460.5016, 34137.01
460.9837, 34284.65
461.4658, 34446.99
461.9479, 34612.57
462.4300, 34774.58
462.9121, 34967.88
463.3943, 35220.64
463.8764, 35511.50
464.3585, 35809.17
464.8406, 36109.69
465.3227, 36410.92
465.8048, 36692.75
466.2870, 36955.79
466.7691, 37283.60
467.2512, 37763.43
467.7333, 38260.23
468.2154, 38692.41
468.6975, 39027.94
469.1797, 39355.84
469.6618, 39718.15
470.1439, 40060.47
470.6260, 40229.09
471.1081, 40191.26
471.5902, 40057.16
472.0724, 39863.05
472.5545, 39605.50
473.0366, 39303.71
473.5187, 38950.76
474.0008, 38581.45
474.4829, 38243.32
474.9651, 37933.59
475.4472, 37615.82
475.9293, 37279.35
476.4114, 36928.85
476.8935, 36548.66
477.3756, 36148.16
477.8578, 35797.25
478.3399, 35579.67
478.8220, 35436.52
479.3041, 35277.62
479.7862, 35075.22
480.2683, 34881.85
480.7505, 34742.07
481.2326, 34640.30
481.7147, 34542.69
482.1968, 34431.77
482.6789, 34321.80
483.1610, 34218.45
483.6432, 34121.33
484.1253, 34030.95
484.6074, 33946.72
485.0895, 33869.11
485.5716, 33797.85
486.0537, 33736.09
486.5359, 33675.52
487.0180, 33613.36
487.5001, 33550.98
487.9822, 33494.86
488.4643, 33445.55
488.9464, 33403.08
489.4286, 33373.18
489.9107, 33364.19
490.3928, 33321.79
490.8749, 33232.11
491.3570, 33135.08
491.8391, 33095.49
492.3213, 33113.91
492.8034, 33129.80
493.2855, 33122.33
493.7676, 33098.60
494.2497, 33069.22
494.7318, 33035.18
495.2140, 33012.57
495.6961, 33033.22
496.1782, 33070.76
496.6603, 33072.46
497.1424, 33007.62
497.6245, 32947.73
498.1067, 32958.60
498.5888, 33016.64
499.0709, 33067.39
499.5530, 33066.75
500.0351, 33067.04
500.5172, 33103.39
500.9994, 33183.85
501.4815, 33247.15
501.9636, 33273.71
502.4457, 33279.09
502.9278, 33277.51
503.4099, 33263.33
503.8921, 33251.57
504.3742, 33252.90
504.8563, 33260.01
505.3384, 33237.04
505.8205, 33170.68
506.3026, 33103.79
506.7848, 33052.45
507.2669, 33014.86
507.7490, 33019.49
508.2311, 33079.65
508.7132, 33153.93
509.1953, 33184.96
509.6775, 33176.01
510.1596, 33164.77
510.6417, 33157.16
511.1238, 33157.52
511.6059, 33167.82
512.0880, 33189.02
512.5701, 33239.02
513.0522, 33384.05
513.5344, 33543.27
514.0165, 33601.82
514.4986, 33508.30
514.9807, 33403.80
515.4628, 33375.70
515.9449, 33396.09
516.4271, 33417.75
516.9092, 33443.85
517.3913, 33452.23
517.8734, 33421.98
518.3555, 33351.04
518.8376, 33310.34
519.3198, 33330.15
519.8019, 33368.23
520.2840, 33399.28
520.7661, 33413.37
521.2482, 33442.98
521.7303, 33506.13
522.2125, 33575.92
522.6946, 33580.77
523.1767, 33502.05
523.6588, 33436.23
524.1409, 33430.30
524.6230, 33474.49
525.1052, 33494.09
525.5873, 33486.94
526.0694, 33472.71
526.5515, 33458.80
527.0336, 33452.48
527.5157, 33480.27
527.9979, 33564.64
528.4800, 33655.90
528.9621, 33692.96
529.4442, 33691.38
529.9263, 33698.27
530.4084, 33740.70
530.8906, 33797.86
531.3727, 33866.24
531.8548, 33951.06
532.3369, 33997.59
532.8190, 33936.79
533.3011, 33853.49
533.7833, 33825.75
534.2654, 33928.24
534.7475, 34007.79
535.2296, 34046.23
535.7117, 34051.29
536.1938, 34051.30
536.6760, 34050.47
537.1581, 34036.26
537.6402, 33983.23
538.1223, 33881.64
538.6044, 33897.63
539.0865, 34064.03
539.5687, 34254.27
540.0508, 34311.36
540.5329, 34252.60
541.0150, 34193.02
541.4971, 34158.88
541.9792, 34143.31
542.4614, 34132.26
542.9435, 34129.09
543.4256, 34149.11
543.9077, 34235.46
544.3898, 34329.87
544.8719, 34374.43
545.3541, 34359.59
545.8362, 34321.91
546.3183, 34247.68
546.8004, 34171.86
547.2825, 34131.96
547.7646, 34175.22
548.2468, 34212.00
548.7289, 34221.74
549.2110, 34210.04
549.6931, 34201.89
550.1752, 34197.40
550.6573, 34196.28
551.1395, 34202.17
551.6216, 34219.73
552.1037, 34212.17
552.5858, 34169.66
553.0679, 34124.09
553.5500, 34122.99
554.0322, 34163.96
554.5143, 34177.13
554.9964, 34131.77
555.4785, 34068.46
555.9606, 34064.57
556.4427, 34112.29
556.9249, 34169.26
557.4070, 34229.91
557.8891, 34275.52
558.3712, 34272.38
558.8533, 34210.91
559.3354, 34163.27
559.8176, 34170.62
560.2997, 34210.34
560.7818, 34259.39
561.2639, 34339.33
561.7460, 34395.32
562.2281, 34410.95
562.7103, 34391.78
563.1924, 34360.38
563.6745, 34296.38
564.1566, 34247.97
564.6387, 34237.07
565.1208, 34268.70
565.6030, 34292.75
566.0851, 34311.20
566.5672, 34319.14
567.0493, 34306.77
567.5314, 34275.88
568.0135, 34250.36
568.4957, 34236.22
568.9778, 34228.16
569.4599, 34212.64
569.9420, 34193.92
570.4241, 34190.10
570.9063, 34226.36
571.3884, 34255.48
571.8705, 34292.82
572.3526, 34320.48
572.8347, 34338.95
573.3168, 34320.75
573.7990, 34349.91
574.2811, 34360.09
574.7632, 34369.49
575.2453, 34405.30
575.7274, 34392.45
576.2095, 34427.84
576.6917, 34443.98
577.1738, 34493.39
577.6559, 34536.44
578.1380, 34531.65
578.6201, 34483.01
579.1022, 34458.85
579.5844, 34461.99
580.0665, 34478.13
580.5486, 34506.59
581.0307, 34542.88
581.5128, 34547.04
581.9949, 34506.36
582.4771, 34462.40
582.9592, 34487.06
583.4413, 34549.82
583.9234, 34575.13
584.4055, 34467.05
584.8876, 34360.79
585.3698, 34379.16
585.8519, 34500.04
586.3340, 34601.43
586.8161, 34638.88
587.2982, 34636.85
587.7803, 34597.91
588.2625, 34487.07
588.7446, 34434.50
589.2267, 34482.37
589.7088, 34565.14
590.1909, 34612.83
590.6730, 34613.50
591.1552, 34608.76
591.6373, 34600.36
592.1194, 34593.57
592.6015, 34604.16
593.0836, 34632.31
593.5657, 34672.32
594.0479, 34737.34
594.5300, 34810.35
595.0121, 34836.33
595.4942, 34812.62
595.9763, 34786.51
596.4584, 34813.40
596.9406, 34855.72
597.4227, 34862.08
597.9048, 34799.42
598.3869, 34733.36
598.8690, 34690.44
599.3511, 34665.62
599.8333, 34648.29
600.3154, 34643.24
600.7975, 34639.16
601.2796, 34640.10
601.7617, 34645.91
602.2438, 34620.29
602.7260, 34540.08
603.2081, 34470.94
603.6902, 34464.23
604.1723, 34526.76
604.6544, 34570.56
605.1365, 34591.80
605.6187, 34594.22
606.1008, 34574.41
606.5829, 34537.61
607.0650, 34505.12
607.5471, 34483.95
608.0292, 34469.27
608.5114, 34457.63
608.9935, 34447.96
609.4756, 34437.06
609.9577, 34390.87
610.4398, 34367.39
610.9219, 34417.94
611.4041, 34560.54
611.8862, 34672.45
612.3683, 34727.51
612.8504, 34743.63
613.3325, 34732.80
613.8146, 34669.16
614.2968, 34627.88
614.7789, 34613.07
615.2610, 34621.22
615.7431, 34655.97
616.2252, 34721.85
616.7073, 34766.59
617.1895, 34762.23
617.6716, 34726.99
618.1537, 34708.22
618.6358, 34705.19
619.1179, 34711.77
619.6000, 34741.90
620.0822, 34771.16
620.5643, 34763.91
621.0464, 34709.86
621.5285, 34655.79
622.0106, 34616.81
622.4927, 34596.23
622.9749, 34597.88
623.4570, 34651.73
623.9391, 34693.13
624.4212, 34696.45
624.9033, 34682.78
625.3854, 34713.75
625.8676, 34823.40
626.3497, 34900.01
626.8318, 34889.00
627.3139, 34803.01
627.7960, 34769.16
628.2781, 34790.83
628.7603, 34834.26
629.2424, 34890.01
629.7245, 34945.20
630.2066, 34967.68
630.6887, 34952.39
631.1708, 34908.59
631.6530, 34813.84
632.1351, 34703.34
632.6172, 34630.16
633.0993, 34640.92
633.5814, 34665.09
634.0635, 34676.14
634.5457, 34680.30
635.0278, 34701.77
635.5099, 34768.71
635.9920, 34824.03
636.4741, 34844.02
636.9562, 34825.53
637.4384, 34833.02
637.9205, 34873.51
638.4026, 34920.08
638.8847, 34954.39
639.3668, 34976.13
639.8489, 34975.58
640.3311, 34944.86
640.8132, 34916.71
641.2953, 34952.66
641.7774, 35019.18
642.2595, 35041.99
642.7416, 34925.96
643.2238, 34824.74
643.7059, 34863.72
644.1880, 35003.53
644.6701, 35111.96
645.1522, 35129.58
645.6343, 35123.07
646.1165, 35110.43
646.5986, 35089.72
647.0807, 35091.42
647.5628, 35122.96
648.0449, 35166.93
648.5270, 35217.63
649.0092, 35277.89
649.4913, 35308.21
649.9734, 35300.18
650.4555, 35280.07
650.9376, 35279.53
651.4197, 35296.54
651.9019, 35326.43
652.3840, 35387.61
652.8661, 35435.94
653.3482, 35423.73
653.8303, 35362.34
654.3124, 35287.55
654.7946, 35171.97
655.2767, 35081.84
655.7588, 35057.41
656.2409, 35106.65
656.7230, 35151.24
657.2051, 35204.73
657.6872, 35233.52
658.1693, 35213.05
658.6514, 35132.14
659.1335, 35051.28
659.6157, 34966.86
660.0978, 34895.41
660.5799, 34862.86
661.0620, 34865.33
661.5441, 34882.25
662.0262, 34920.71
662.5084, 34952.68
662.9905, 34920.68
663.4726, 34852.23
663.9547, 34821.63
664.4368, 34910.69
664.9189, 35005.36
665.4011, 35037.83
665.8832, 35007.34
666.3653, 34986.96
666.8474, 34987.38
667.3295, 34998.87
667.8116, 35017.55
668.2938, 35042.97
668.7759, 35079.59
669.2580, 35139.80
669.7401, 35184.63
670.2222, 35160.56
670.7043, 35075.48
671.1865, 35004.25
671.6686, 34964.86
672.1507, 34938.13
672.6328, 34890.48
673.1149, 34836.95
673.5970, 34812.52
674.0792, 34867.27
674.5613, 34924.19
675.0434, 34928.46
675.5255, 34891.89
676.0076, 34879.61
676.4897, 34935.70
676.9719, 34988.09
677.4540, 35006.32
677.9361, 34984.34
678.4182, 34975.80
678.9003, 34980.46
679.3824, 34995.62
679.8646, 35026.79
680.3467, 35070.57
680.8288, 35092.33
681.3109, 35086.93
681.7930, 35066.30
682.2751, 35036.13
682.7573, 35002.32
683.2394, 34976.34
683.7215, 34968.50
684.2036, 34962.92
684.6857, 34951.81
685.1678, 34937.13
685.6500, 34922.41
686.1321, 34918.03
686.6142, 34904.14
687.0963, 34864.17
687.5784, 34804.77
688.0605, 34792.89
688.5427, 34849.17
689.0248, 34899.86
689.5069, 34895.32
689.9890, 34841.91
690.4711, 34815.83
690.9532, 34819.46
691.4354, 34827.51
691.9175, 34810.88
692.3996, 34784.43
692.8817, 34773.87
693.3638, 34788.66
693.8459, 34805.82
694.3281, 34819.98
694.8102, 34826.48
695.2923, 34819.15
695.7744, 34770.36
696.2565, 34741.65
696.7386, 34745.68
697.2208, 34773.84
697.7029, 34806.00
698.1850, 34845.30
698.6671, 34877.64
699.1492, 34896.83
699.6313, 34905.29
700.1135, 34905.97
700.5956, 34899.54
701.0777, 34901.96
701.5598, 34934.85
702.0419, 34976.52
702.5240, 34992.30
703.0062, 34977.21
703.4883, 34981.06
703.9704, 35065.98
704.4525, 35155.68
704.9346, 35188.84
705.4167, 35103.68
705.8989, 35055.98
706.3810, 35060.36
706.8631, 35091.49
707.3452, 35124.58
707.8273, 35163.29
708.3094, 35179.37
708.7916, 35162.12
709.2737, 35130.73
709.7558, 35125.59
710.2379, 35138.88
710.7200, 35137.71
711.2021, 35074.02
711.6843, 35014.69
712.1664, 35039.55
712.6485, 35126.05
713.1306, 35178.78
713.6127, 35095.98
714.0948, 35029.16
714.5770, 35075.65
715.0591, 35247.92
715.5412, 35313.56
716.0233, 35219.37
716.5054, 35111.71
716.9875, 35106.36
717.4697, 35202.24
717.9518, 35208.95
718.4339, 35104.67
718.9160, 34999.98
719.3981, 35049.32
719.8802, 35177.66
720.3624, 35232.36
720.8445, 35151.73
721.3266, 35057.85
721.8087, 35024.09
722.2908, 35025.91
722.7729, 35028.63
723.2551, 35017.34
723.7372, 35015.19
724.2193, 35022.68
724.7014, 35040.84
725.1835, 35084.10
725.6656, 35168.48
726.1478, 35205.71
726.6299, 35147.43
727.1120, 35025.05
727.5941, 34908.64
728.0762, 34802.66
728.5583, 34764.54
729.0405, 34904.46
729.5226, 35083.44
730.0047, 35169.99
730.4868, 35154.92
730.9689, 35098.28
731.4510, 34966.00
731.9332, 34843.90
732.4153, 34797.21
732.8974, 34865.63
733.3795, 34891.79
733.8616, 34860.17
734.3438, 34811.86
734.8259, 34787.98
735.3080, 34788.13
735.7901, 34781.64
736.2722, 34758.93
736.7543, 34746.07
737.2365, 34786.22
737.7186, 34858.92
738.2007, 34923.88
738.6828, 34977.21
739.1649, 35004.52
739.6470, 34970.73
740.1292, 34906.07
740.6113, 34880.68
741.0934, 34954.94
741.5755, 35009.36
742.0576, 35012.16
742.5397, 34978.00
743.0219, 34971.43
743.5040, 34995.52
743.9861, 35029.09
744.4682, 35071.38
744.9503, 35113.34
745.4324, 35118.03
745.9146, 35090.37
746.3967, 35080.54
746.8788, 35171.62
747.3609, 35262.04
747.8430, 35239.53
748.3251, 35069.93
748.8073, 34972.21
749.2894, 35084.13
749.7715, 35216.70
750.2536, 35243.75
750.7357, 35109.25
751.2178, 35054.07
751.7000, 35101.67
752.1821, 35173.48
752.6642, 35171.74
753.1463, 35111.38
753.6284, 35065.94
754.1105, 35047.38
754.5927, 35050.52
755.0748, 35089.36
755.5569, 35141.49
756.0390, 35172.27
756.5211, 35145.13
757.0032, 35122.39
757.4854, 35131.13
757.9675, 35155.09
758.4496, 35155.95
758.9317, 35121.46
759.4138, 35092.08
759.8959, 35078.86
760.3781, 35077.05
760.8602, 35064.43
761.3423, 35043.23
761.8244, 35044.46
762.3065, 35107.46
762.7886, 35188.71
763.2708, 35225.11
763.7529, 35224.13
764.2350, 35238.00
764.7171, 35315.52
765.1992, 35392.68
765.6813, 35428.30
766.1635, 35412.75
766.6456, 35421.34
767.1277, 35472.11
767.6098, 35516.29
768.0919, 35512.86
768.5740, 35462.60
769.0562, 35454.06
769.5383, 35492.76
770.0204, 35534.76
770.5025, 35526.10
770.9846, 35498.07
771.4667, 35508.66
771.9489, 35579.19
772.4310, 35633.17
772.9131, 35612.34
773.3952, 35565.57
773.8773, 35542.56
774.3594, 35571.17
774.8416, 35589.61
775.3237, 35598.07
775.8058, 35595.36
776.2879, 35572.70
776.7700, 35530.23
777.2521, 35509.49
777.7343, 35526.90
778.2164, 35553.95
778.6985, 35549.36
779.1806, 35523.86
779.6627, 35501.06
780.1448, 35472.51
780.6270, 35468.24
781.1091, 35524.38
781.5912, 35616.41
782.0733, 35668.94
782.5554, 35648.39
783.0375, 35633.93
783.5197, 35641.52
784.0018, 35667.41
784.4839, 35706.27
784.9660, 35758.38
785.4481, 35798.26
785.9302, 35805.88
786.4124, 35796.95
786.8945, 35791.62
787.3766, 35791.61
787.8587, 35805.84
788.3408, 35865.46
788.8229, 35919.25
789.3051, 35932.89
789.7872, 35901.85
790.2693, 35884.54
790.7514, 35889.18
791.2335, 35898.79
791.7156, 35901.50
792.1978, 35898.04
792.6799, 35917.09
793.1620, 35959.36
793.6441, 36010.77
794.1262, 36065.61
794.6083, 36118.50
795.0905, 36157.45
795.5726, 36178.99
796.0547, 36206.51
796.5368, 36269.09
797.0189, 36329.82
797.5010, 36353.09
797.9832, 36305.88
798.4653, 36304.75
798.9474, 36375.53
799.4295, 36450.45
799.9116, 36452.59
800.3937, 36387.53
800.8759, 36332.52
801.3580, 36295.39
801.8401, 36282.01
802.3222, 36315.18
802.8043, 36371.91
803.2864, 36419.85
803.7686, 36463.36
804.2507, 36474.56
804.7328, 36421.82
805.2149, 36340.30
805.6970, 36276.74
806.1791, 36227.20
806.6613, 36206.96
807.1434, 36220.26
807.6255, 36258.45
808.1076, 36327.54
808.5897, 36415.83
809.0718, 36450.99
809.5540, 36380.70
810.0361, 36296.00
810.5182, 36293.29
811.0003, 36339.21
811.4824, 36369.16
811.9645, 36348.30
812.4467, 36325.73
812.9288, 36313.89
813.4109, 36309.68
813.8930, 36306.92
814.3751, 36308.97
814.8572, 36300.52
815.3394, 36270.14
815.8215, 36234.70
816.3036, 36244.49
816.7857, 36288.20
817.2678, 36310.96
817.7499, 36272.58
818.2321, 36215.71
818.7142, 36154.16
819.1963, 36094.68
819.6784, 36066.93
820.1605, 36108.20
820.6426, 36143.25
821.1248, 36143.85
821.6068, 36119.93
822.0889, 36142.07
822.5710, 36214.63
823.0532, 36274.34
823.5353, 36272.29
824.0174, 36240.12
824.4995, 36246.35
824.9816, 36281.64
825.4637, 36291.10
825.9459, 36205.73
826.4280, 36121.44
826.9101, 36100.71
827.3922, 36150.11
827.8743, 36169.47
828.3564, 36138.14
828.8386, 36114.45
829.3207, 36131.36
829.8028, 36181.92
830.2849, 36216.99
830.7670, 36236.30
831.2491, 36239.46
831.7313, 36215.91
832.2134, 36182.19
832.6955, 36151.01
833.1776, 36123.68
833.6597, 36115.48
834.1418, 36159.54
834.6240, 36198.64
835.1061, 36199.82
835.5882, 36157.86
836.0703, 36136.31
836.5524, 36140.52
837.0345, 36147.87
837.5167, 36134.71
837.9988, 36112.64
838.4809, 36117.38
838.9630, 36150.58
839.4451, 36192.23
839.9272, 36249.54
840.4094, 36294.70
840.8915, 36296.23
841.3736, 36233.82
841.8557, 36206.71
842.3378, 36235.00
842.8199, 36278.40
843.3021, 36312.28
843.7842, 36335.78
844.2663, 36357.04
844.7484, 36374.98
845.2305, 36397.79
845.7126, 36444.80
846.1948, 36495.59
846.6769, 36518.86
847.1590, 36507.96
847.6411, 36494.90
848.1232, 36504.80
848.6053, 36508.34
849.0875, 36476.80
849.5696, 36385.77
850.0517, 36371.11
850.5338, 36458.71
851.0159, 36554.13
851.4980, 36557.69
851.9802, 36498.51
852.4623, 36476.30
852.9444, 36502.68
853.4265, 36531.70
853.9086, 36521.90
854.3907, 36501.93
854.8729, 36498.05
855.3550, 36520.23
855.8371, 36536.81
856.3192, 36530.05
856.8013, 36535.20
857.2834, 36594.40
857.7656, 36709.58
858.2477, 36759.01
858.7298, 36731.18
859.2119, 36686.51
859.6940, 36678.74
860.1761, 36691.23
860.6583, 36705.33
861.1404, 36720.82
861.6225, 36724.53
862.1046, 36702.63
862.5867, 36673.70
863.0688, 36651.61
863.5510, 36636.94
864.0331, 36627.86
864.5152, 36628.19
864.9973, 36619.54
865.4794, 36568.19
865.9615, 36495.05
866.4437, 36464.65
866.9258, 36486.88
867.4079, 36507.46
867.8900, 36475.57
868.3721, 36436.59
868.8542, 36435.46
869.3364, 36507.66
869.8185, 36525.07
870.3006, 36459.74
870.7827, 36386.72
871.2648, 36376.25
871.7469, 36420.75
872.2291, 36428.05
872.7112, 36392.33
873.1933, 36346.00
873.6754, 36305.71
874.1575, 36276.23
874.6396, 36261.07
875.1218, 36260.42
875.6039, 36275.24
876.0860, 36323.70
876.5681, 36370.47
877.0502, 36394.15
877.5323, 36391.23
878.0145, 36391.13
878.4966, 36393.60
878.9787, 36396.39
879.4608, 36388.16
879.9429, 36382.29
880.4250, 36416.05
880.9072, 36494.04
881.3893, 36537.05
881.8714, 36468.42
882.3535, 36382.95
882.8356, 36341.07
883.3177, 36348.29
883.7999, 36358.17
884.2820, 36371.62
884.7641, 36385.27
885.2462, 36400.30
885.7283, 36413.47
886.2104, 36415.57
886.6926, 36406.41
887.1747, 36387.82
887.6568, 36338.43
888.1389, 36298.09
888.6210, 36302.01
889.1031, 36357.89
889.5853, 36396.77
890.0674, 36423.70
890.5495, 36421.43
891.0316, 36364.32
891.5137, 36267.73
891.9958, 36235.65
892.4780, 36264.71
892.9601, 36300.23
893.4422, 36305.47
893.9243, 36301.39
894.4064, 36298.56
894.8885, 36299.26
895.3707, 36321.29
895.8528, 36403.72
896.3349, 36461.87
896.8170, 36459.43
897.2991, 36408.31
897.7813, 36376.38
898.2634, 36363.46
898.7455, 36360.99
899.2276, 36376.84
899.7097, 36392.63
900.1918, 36385.30
900.6740, 36358.53
901.1561, 36325.11
901.6382, 36276.29
902.1203, 36238.99
902.6024, 36226.15
903.0845, 36231.07
903.5667, 36228.52
904.0488, 36217.91
904.5309, 36205.53
905.0130, 36182.22
905.4951, 36172.17
905.9772, 36244.13
906.4594, 36360.90
906.9415, 36426.07
907.4236, 36344.59
907.9057, 36265.07
908.3878, 36248.33
908.8699, 36265.01
909.3521, 36253.50
909.8342, 36200.29
910.3163, 36175.26
910.7984, 36199.04
911.2805, 36246.71
911.7626, 36286.57
912.2448, 36317.02
912.7269, 36334.07
913.2090, 36341.79
913.6911, 36327.63
914.1732, 36251.09
914.6553, 36163.98
915.1375, 36142.26
915.6196, 36217.96
916.1017, 36274.04
916.5838, 36299.17
917.0659, 36305.55
917.5480, 36298.81
918.0302, 36285.85
918.5123, 36294.48
918.9944, 36338.67
919.4765, 36365.27
919.9586, 36305.72
920.4407, 36232.06
920.9229, 36220.71
921.4050, 36318.91
921.8871, 36366.04
922.3692, 36348.59
922.8513, 36310.07
923.3334, 36291.84
923.8156, 36287.00
924.2977, 36263.43
924.7798, 36218.22
925.2619, 36181.01
925.7440, 36184.05
926.2261, 36196.21
926.7083, 36185.90
927.1904, 36141.12
927.6725, 36147.47
928.1546, 36239.71
928.6367, 36315.41
929.1188, 36300.79
929.6010, 36217.84
930.0831, 36185.72
930.5652, 36199.91
931.0473, 36203.20
931.5294, 36127.34
932.0115, 36053.81
932.4937, 36045.61
932.9758, 36100.02
933.4579, 36162.27
933.9400, 36245.29
934.4221, 36300.53
934.9042, 36301.17
935.3864, 36270.09
935.8685, 36289.73
936.3506, 36349.55
936.8327, 36389.64
937.3148, 36369.64
937.7969, 36329.59
938.2791, 36284.85
938.7612, 36242.97
939.2433, 36223.00
939.7254, 36247.55
940.2075, 36259.68
940.6896, 36249.89
941.1718, 36227.69
941.6539, 36199.98
942.1360, 36172.43
942.6181, 36178.54
943.1002, 36240.56
943.5823, 36301.81
944.0645, 36310.40
944.5466, 36295.32
945.0287, 36292.42
945.5108, 36318.96
945.9929, 36339.46
946.4750, 36358.73
946.9572, 36362.91
947.4393, 36319.53
947.9214, 36243.27
948.4035, 36221.85
948.8856, 36266.99
949.3677, 36317.13
949.8499, 36336.13
950.3320, 36333.07
950.8141, 36307.48
951.2962, 36250.14
951.7783, 36228.63
952.2604, 36258.00
952.7426, 36295.60
953.2247, 36319.55
953.7068, 36331.27
954.1889, 36331.74
954.6710, 36322.54
955.1531, 36318.48
955.6353, 36348.98
956.1174, 36369.52
956.5995, 36336.60
957.0816, 36259.98
957.5637, 36216.12
958.0458, 36223.11
958.5280, 36225.52
959.0101, 36206.55
959.4922, 36174.38
959.9743, 36140.75
960.4564, 36110.29
960.9385, 36099.95
961.4207, 36140.64
961.9028, 36171.90
962.3849, 36138.42
962.8670, 36080.91
963.3491, 36071.47
963.8312, 36126.96
964.3134, 36196.25
964.7955, 36284.35
965.2776, 36359.11
965.7597, 36371.48
966.2418, 36336.41
966.7239, 36281.01
967.2061, 36199.36
967.6882, 36155.70
968.1703, 36236.07
968.6524, 36330.89
969.1345, 36341.09
969.6166, 36238.70
970.0988, 36202.59
970.5809, 36244.71
971.0630, 36300.86
971.5451, 36334.64
972.0272, 36344.61
972.5093, 36319.70
972.9915, 36263.95
973.4736, 36213.24
973.9557, 36182.66
974.4378, 36163.12
974.9199, 36148.53
975.4020, 36141.46
975.8842, 36161.73
976.3663, 36214.54
976.8484, 36249.90
977.3305, 36242.40
977.8126, 36216.09
978.2947, 36207.06
978.7769, 36206.24
979.2590, 36193.65
979.7411, 36120.12
980.2232, 36089.96
980.7053, 36149.27
981.1874, 36238.06
981.6696, 36271.48
982.1517, 36247.55
982.6338, 36231.21
983.1159, 36230.99
983.5980, 36238.72
984.0801, 36252.66
984.5623, 36265.97
985.0444, 36270.00
985.5265, 36260.17
986.0085, 36252.60
986.4907, 36253.88
986.9728, 36251.79
987.4549, 36234.00
987.9370, 36204.06
988.4191, 36198.41
988.9012, 36216.39
989.3834, 36240.25
989.8655, 36272.63
990.3476, 36294.84
990.8297, 36287.80
991.3118, 36256.16
991.7939, 36231.52
992.2761, 36222.82
992.7582, 36204.60
993.2403, 36162.35
993.7224, 36117.08
994.2045, 36121.86
994.6866, 36163.89
995.1688, 36202.39
995.6509, 36222.94
996.1330, 36236.84
996.6151, 36240.27
997.0972, 36245.06
997.5793, 36268.90
998.0615, 36325.21
998.5436, 36346.54
999.0257, 36320.79
999.5078, 36294.69
999.9899, 36320.89
1000.472, 36376.77
1000.954, 36428.04
1001.436, 36469.61
1001.918, 36498.44
1002.401, 36521.47
1002.883, 36518.86
1003.365, 36469.42
1003.847, 36382.06
1004.329, 36349.74
1004.811, 36373.83
1005.293, 36409.65
1005.775, 36461.06
1006.257, 36490.99
1006.740, 36432.73
1007.222, 36324.20
1007.704, 36255.27
1008.186, 36275.47
1008.668, 36310.42
1009.150, 36367.39
1009.632, 36416.89
1010.114, 36398.30
1010.596, 36326.04
1011.079, 36284.01
1011.561, 36291.32
1012.043, 36303.57
1012.525, 36272.31
1013.007, 36238.92
1013.489, 36249.93
1013.971, 36324.78
1014.453, 36346.31
1014.936, 36294.70
1015.418, 36253.33
1015.900, 36306.41
1016.382, 36400.79
1016.864, 36402.22
1017.346, 36326.12
1017.828, 36255.69
1018.310, 36217.18
1018.792, 36207.82
1019.275, 36242.51
1019.757, 36300.08
1020.239, 36329.37
1020.721, 36329.57
1021.203, 36322.77
1021.685, 36311.49
1022.167, 36303.21
1022.649, 36320.91
1023.132, 36341.32
1023.614, 36327.10
1024.096, 36233.94
1024.578, 36195.73
1025.060, 36247.74
1025.542, 36313.23
1026.024, 36327.01
1026.506, 36299.75
1026.989, 36304.16
1027.471, 36339.20
1027.953, 36368.38
1028.435, 36356.46
1028.917, 36341.18
1029.399, 36349.41
1029.881, 36376.51
1030.363, 36389.98
1030.845, 36381.86
1031.328, 36390.49
1031.810, 36431.14
1032.292, 36484.91
1032.774, 36534.86
1033.256, 36572.50
1033.738, 36579.40
1034.220, 36527.92
1034.702, 36488.33
1035.184, 36490.63
1035.667, 36498.92
1036.149, 36476.11
1036.631, 36422.04
1037.113, 36416.63
1037.595, 36463.55
1038.077, 36507.79
1038.559, 36494.04
1039.041, 36468.92
1039.524, 36472.20
1040.006, 36504.16
1040.488, 36533.78
1040.970, 36559.73
1041.452, 36578.74
1041.934, 36582.05
1042.416, 36586.99
1042.898, 36653.13
1043.380, 36750.02
1043.863, 36793.00
1044.345, 36725.85
1044.827, 36652.27
1045.309, 36598.18
1045.791, 36566.83
1046.273, 36568.55
1046.755, 36608.99
1047.237, 36622.06
1047.719, 36604.19
1048.202, 36579.52
1048.684, 36562.54
1049.166, 36552.88
1049.648, 36553.78
1050.130, 36564.35
1050.612, 36569.93
1051.094, 36563.02
1051.576, 36563.30
1052.059, 36577.86
1052.541, 36601.64
1053.023, 36625.93
1053.505, 36649.49
1053.987, 36670.13
1054.469, 36694.21
1054.951, 36661.83
1055.433, 36736.79
1055.916, 36779.41
1056.398, 36791.45
1056.880, 36681.27
1057.362, 36728.91
1057.844, 36713.30
1058.326, 36695.10
1058.808, 36764.95
1059.290, 36672.55
1059.772, 36741.00
1060.255, 36745.25
1060.737, 36778.88
1061.219, 36748.87
1061.701, 36738.52
1062.183, 36791.82
1062.665, 36809.88
1063.147, 36772.55
1063.629, 36808.05
1064.111, 36713.43
1064.594, 36732.99
1065.076, 36801.82
1065.558, 36767.68
1066.040, 36804.35
1066.522, 36814.05
1067.004, 36701.21
1067.486, 36801.48
1067.968, 36809.59
1068.450, 36723.07
1068.933, 36816.03
1069.415, 36742.56
1069.897, 36728.49
1070.379, 36759.13
1070.861, 36743.17
1071.343, 36800.69
1071.825, 36787.41
1072.307, 36767.82
1072.790, 36775.82
1073.272, 36705.61
1073.754, 36780.50
1074.236, 36756.28
1074.718, 36781.32
1075.200, 36731.82
1075.682, 36729.95
1076.164, 36749.19
1076.646, 36806.54
1077.129, 36901.43
1077.611, 36921.04
1078.093, 36864.89
1078.575, 36814.63
1079.057, 36830.12
1079.539, 36864.80
1080.021, 36890.30
1080.503, 36902.94
1080.985, 36888.27
1081.468, 36814.96
1081.950, 36799.31
1082.432, 36873.32
1082.914, 36960.71
1083.396, 36951.70
1083.878, 36890.55
1084.360, 36869.29
1084.842, 36904.29
1085.325, 36924.20
1085.807, 36880.11
1086.289, 36838.46
1086.771, 36829.68
1087.253, 36845.78
1087.735, 36842.68
1088.217, 36824.48
1088.699, 36827.93
1089.182, 36886.89
1089.664, 36946.54
1090.146, 36973.80
1090.628, 36976.12
1091.110, 36959.69
1091.592, 36909.09
1092.074, 36907.54
1092.556, 36966.63
1093.038, 37028.09
1093.521, 37041.32
1094.003, 37024.02
1094.485, 36986.30
1094.967, 36933.41
1095.449, 36905.05
1095.931, 36922.70
1096.413, 36944.66
1096.895, 36958.87
1097.377, 36974.17
1097.860, 37021.86
1098.342, 37087.04
1098.824, 37117.20
1099.306, 37086.07
1099.788, 37058.09
1100.270, 37070.85
1100.752, 37092.05
1101.234, 37099.43
1101.717, 37092.79
1102.199, 37065.18
1102.681, 37017.17
1103.163, 36999.91
1103.645, 37075.17
1104.127, 37168.66
1104.609, 37235.68
1105.091, 37271.57
1105.573, 37259.37
1106.056, 37163.59
1106.538, 37143.32
1107.020, 37236.73
1107.502, 37344.64
1107.984, 37313.93
1108.466, 37233.87
1108.948, 37260.93
1109.430, 37419.82
1109.912, 37528.66
1110.395, 37515.83
1110.877, 37487.25
1111.359, 37472.93
1111.841, 37472.57
1112.323, 37494.43
1112.805, 37531.13
1113.287, 37558.92
1113.769, 37573.52
1114.252, 37568.32
1114.734, 37501.47
1115.216, 37443.19
1115.698, 37474.38
1116.180, 37607.95
1116.662, 37649.69
1117.144, 37597.78
1117.626, 37536.38
1118.109, 37523.72
1118.591, 37528.16
1119.073, 37522.45
1119.555, 37513.47
1120.037, 37531.46
1120.519, 37591.50
1121.001, 37624.89
1121.483, 37618.54
1121.965, 37586.77
1122.448, 37519.38
1122.930, 37450.74
1123.412, 37438.02
1123.894, 37496.68
1124.376, 37544.32
1124.858, 37561.75
1125.340, 37582.82
1125.822, 37629.14
1126.304, 37683.85
1126.787, 37691.70
1127.269, 37667.32
1127.751, 37654.57
1128.233, 37684.13
1128.715, 37706.17
1129.197, 37689.18
1129.679, 37674.36
1130.161, 37705.16
1130.644, 37777.79
1131.126, 37826.61
1131.608, 37849.71
1132.090, 37857.58
1132.572, 37831.82
1133.054, 37817.05
1133.536, 37856.16
1134.018, 37924.80
1134.500, 37958.89
1134.983, 37955.91
1135.465, 37936.52
1135.947, 37901.11
1136.429, 37865.84
1136.911, 37849.56
1137.393, 37841.68
1137.875, 37831.91
1138.357, 37819.13
1138.839, 37810.48
1139.322, 37809.03
1139.804, 37804.47
1140.286, 37792.44
1140.768, 37776.14
1141.250, 37760.35
1141.732, 37744.89
1142.214, 37727.97
1142.696, 37698.10
1143.179, 37690.31
1143.661, 37715.31
1144.143, 37745.71
1144.625, 37753.04
1145.107, 37748.30
1145.589, 37781.00
1146.071, 37841.63
1146.553, 37872.51
1147.036, 37802.84
1147.518, 37753.82
1148.000, 37766.64
1148.482, 37810.34
1148.964, 37838.47
1149.446, 37851.55
1149.928, 37856.59
1150.410, 37855.37
1150.892, 37833.83
1151.375, 37727.30
1151.857, 37651.66
1152.339, 37714.18
1152.821, 37876.07
1153.303, 37921.71
1153.785, 37852.99
1154.267, 37801.43
1154.749, 37820.64
1155.231, 37849.13
1155.714, 37814.09
1156.196, 37767.75
1156.678, 37779.04
1157.160, 37864.09
1157.642, 37917.25
1158.124, 37936.05
1158.606, 37936.73
1159.088, 37919.07
1159.571, 37896.37
1160.053, 37880.62
1160.535, 37872.16
1161.017, 37873.99
1161.499, 37903.61
1161.981, 37902.79
1162.463, 37861.66
1162.945, 37810.29
1163.427, 37775.68
1163.910, 37755.82
1164.392, 37759.41
1164.874, 37782.59
1165.356, 37777.16
1165.838, 37686.28
1166.320, 37643.30
1166.802, 37686.94
1167.284, 37775.78
1167.766, 37856.72
1168.249, 37922.51
1168.731, 37953.86
1169.213, 37940.71
1169.695, 37927.59
1170.177, 37916.83
1170.659, 37926.39
1171.141, 37983.11
1171.623, 38057.61
1172.106, 38012.73
1172.588, 37885.66
1173.070, 37821.68
1173.552, 37923.91
1174.034, 38017.62
1174.516, 38022.50
1174.998, 37999.80
1175.480, 37999.93
1175.963, 38020.14
1176.445, 37978.38
1176.927, 37882.68
1177.409, 37817.82
1177.891, 37869.97
1178.373, 37929.04
1178.855, 37934.04
1179.337, 37914.16
1179.819, 37915.26
1180.302, 37938.45
1180.784, 37951.43
1181.266, 37951.68
1181.748, 37942.32
1182.230, 37909.54
1182.712, 37883.40
1183.194, 37894.61
1183.676, 37932.71
1184.158, 37949.57
1184.641, 37941.75
1185.123, 37956.69
1185.605, 38007.86
1186.087, 38071.96
1186.569, 38155.04
1187.051, 38220.12
1187.533, 38211.88
1188.015, 38121.84
1188.498, 38092.64
1188.980, 38130.20
1189.462, 38182.89
1189.944, 38244.86
1190.426, 38285.29
1190.908, 38241.86
1191.390, 38163.85
1191.872, 38127.69
1192.354, 38165.49
1192.837, 38174.68
1193.319, 38147.95
1193.801, 38133.40
1194.283, 38184.38
1194.765, 38253.46
1195.247, 38287.96
1195.729, 38288.37
1196.211, 38250.15
1196.693, 38136.71
1197.176, 38068.04
1197.658, 38053.45
1198.140, 38077.93
1198.622, 38158.85
1199.104, 38250.14
1199.586, 38275.05
1200.068, 38238.89
1200.550, 38217.88
1201.033, 38235.56
1201.515, 38246.33
1201.997, 38241.08
1202.479, 38228.26
1202.961, 38211.52
1203.443, 38199.37
1203.925, 38212.08
1204.407, 38254.42
1204.890, 38280.34
1205.372, 38200.47
1205.854, 38311.62
1206.336, 38374.29
1206.818, 38391.05
1207.300, 38224.50
1207.782, 38294.68
1208.264, 38269.98
1208.746, 38241.39
1209.229, 38344.89
1209.711, 38205.00
1210.193, 38306.39
1210.675, 38311.47
1211.157, 38360.63
1211.639, 38314.34
1212.121, 38297.53
1212.603, 38376.21
1213.085, 38402.01
1213.568, 38344.73
1214.050, 38396.69
1214.532, 38253.47
1215.014, 38281.53
1215.496, 38383.48
1215.978, 38331.00
1216.460, 38384.71
1216.942, 38397.97
1217.425, 38227.44
1217.907, 38376.55
1218.389, 38387.43
1218.871, 38256.36
1219.353, 38394.52
1219.835, 38283.03
1220.317, 38260.64
1220.799, 38305.32
1221.281, 38280.09
1221.764, 38365.08
1222.246, 38343.89
1222.728, 38313.21
1223.210, 38323.93
1223.692, 38217.33
1224.174, 38328.38
1224.656, 38290.76
1225.138, 38327.04
1225.620, 38380.07
1226.103, 38304.84
1226.585, 38365.40
1227.067, 38215.38
1227.549, 38241.56
1228.031, 38248.77
1228.513, 38368.59
1228.995, 38219.60
1229.477, 38240.88
1229.960, 38334.67
1230.442, 38327.00
1230.924, 38361.76
1231.406, 38270.95
1231.888, 38298.09
1232.370, 38292.73
1232.852, 38399.71
1233.334, 38418.00
1233.816, 38329.32
1234.299, 38241.10
1234.781, 38274.91
1235.263, 38241.41
1235.745, 38259.38
1236.227, 38306.17
1236.709, 38304.63
1237.191, 38268.88
1237.673, 38245.23
1238.156, 38257.85
1238.638, 38275.29
1239.120, 38300.18
1239.602, 38315.09
1240.084, 38294.42
1240.566, 38254.25
1241.048, 38245.18
1241.530, 38259.66
1242.012, 38259.04
1242.495, 38201.70
1242.977, 38170.52
1243.459, 37994.83
1243.941, 38145.06
1244.423, 38231.40
1244.905, 38257.23
1245.387, 38043.87
1245.869, 38137.41
1246.351, 38106.75
1246.834, 38070.18
1247.316, 38204.46
1247.798, 38021.48
1248.280, 38151.31
1248.762, 38155.08
1249.244, 38215.29
1249.726, 38150.56
1250.208, 38123.30
1250.691, 38219.30
1251.173, 38245.71
1251.655, 38163.27
1252.137, 38221.98
1252.619, 38026.09
1253.101, 38052.01
1253.583, 38173.14
1254.065, 38092.64
1254.547, 38083.25
1255.030, 38067.43
1255.512, 38101.59
1255.994, 38118.07
1256.476, 38086.29
1256.958, 38038.88
1257.440, 38016.35
1257.922, 38015.81
1258.404, 38036.95
1258.886, 38088.29
1259.369, 38121.67
1259.851, 38135.84
1260.333, 38132.72
1260.815, 38106.04
1261.297, 38072.64
1261.779, 38051.21
1262.261, 38039.13
1262.743, 38035.86
1263.226, 38048.88
1263.708, 38035.66
1264.190, 37992.94
1264.672, 37948.79
1265.154, 37914.11
1265.636, 37893.91
1266.118, 37912.86
1266.600, 37942.80
1267.083, 37930.96
1267.565, 37854.59
1268.047, 37834.07
1268.529, 37873.42
1269.011, 37908.64
1269.493, 37885.48
1269.975, 37851.25
1270.457, 37836.77
1270.939, 37839.29
1271.422, 37854.75
1271.904, 37887.01
1272.386, 37886.39
1272.868, 37851.08
1273.350, 37826.87
1273.832, 37867.29
1274.314, 37906.50
1274.796, 37888.41
##END=



