##NAMES=Richterite
##RRUFFID=R100069
##IDEAL CHEMISTRY=Na(CaNa)Mg_5_Si_8_O_22_(OH)_2_
##LOCALITY=La Ceila, near Jumilla, Murcia Province, Spain
##OWNER=RRUFF
##SOURCE=Bob Jenkins 
##DESCRIPTION=Yellow transparent bladed crystals associated with yuanfuliite R100067 and black tabular hematite
##STATUS=The identification of this mineral has been confirmed only by single crystal X-ray diffraction.
##URL=rruff.info/R100069
90.49219, 153.1618
90.97430, 151.8083
91.45642, 151.3321
91.93854, 151.7263
92.42065, 153.0093
92.90277, 155.8087
93.38489, 160.6204
93.86700, 164.9847
94.34912, 165.3109
94.83124, 162.1526
95.31335, 158.6537
95.79547, 156.4091
96.27759, 155.3377
96.75970, 155.1278
97.24182, 155.9563
97.72394, 157.3712
98.20605, 158.5652
98.68817, 159.5674
99.17029, 160.1256
99.65240, 159.9266
100.1345, 158.9211
100.6166, 157.7398
101.0988, 156.0486
101.5809, 154.1324
102.0630, 154.8972
102.5451, 159.6962
103.0272, 164.7834
103.5093, 165.0195
103.9915, 157.2909
104.4736, 152.9458
104.9557, 156.8159
105.4378, 171.6712
105.9199, 178.7613
106.4020, 174.2372
106.8842, 163.8797
107.3663, 157.7719
107.8484, 159.5662
108.3305, 161.4446
108.8126, 160.5754
109.2947, 153.9050
109.7769, 149.5636
110.2590, 148.3711
110.7411, 149.6487
111.2232, 151.3160
111.7053, 153.8251
112.1874, 156.3773
112.6696, 158.5940
113.1517, 159.1450
113.6338, 160.7530
114.1159, 165.4841
114.5980, 172.5352
115.0801, 176.2707
115.5623, 170.8387
116.0444, 163.7263
116.5265, 160.7316
117.0086, 170.5358
117.4907, 178.3973
117.9728, 177.1096
118.4550, 166.2069
118.9371, 156.0809
119.4192, 150.9796
119.9013, 149.3792
120.3834, 149.4303
120.8655, 151.4868
121.3477, 154.2239
121.8298, 156.8651
122.3119, 159.4310
122.7940, 161.4892
123.2761, 162.9131
123.7582, 163.6155
124.2404, 163.4023
124.7225, 161.6821
125.2046, 159.1478
125.6867, 156.3072
126.1688, 152.6685
126.6509, 150.0789
127.1331, 151.6494
127.6152, 156.6036
128.0973, 161.0828
128.5794, 161.8088
129.0615, 160.0800
129.5436, 159.0503
130.0258, 159.7003
130.5079, 161.0329
130.9900, 160.6618
131.4721, 158.5924
131.9542, 157.4597
132.4363, 160.6801
132.9185, 167.5193
133.4006, 172.7819
133.8827, 174.2637
134.3648, 173.2300
134.8469, 174.5646
135.3290, 178.6119
135.8112, 183.5358
136.2933, 187.3518
136.7754, 190.0449
137.2575, 192.1438
137.7396, 193.1563
138.2217, 193.1521
138.7039, 196.2170
139.1860, 203.6659
139.6681, 212.1215
140.1502, 215.4346
140.6323, 211.3358
141.1144, 209.5668
141.5966, 215.1414
142.0787, 230.6317
142.5608, 241.4751
143.0429, 245.7941
143.5250, 246.5190
144.0071, 250.3552
144.4893, 258.5353
144.9714, 267.7758
145.4535, 276.8506
145.9356, 287.2818
146.4177, 294.4162
146.8998, 295.8201
147.3820, 293.5928
147.8641, 296.7333
148.3462, 308.8319
148.8283, 322.8744
149.3104, 335.2778
149.7925, 344.0359
150.2747, 353.6812
150.7568, 364.7653
151.2389, 377.1344
151.7210, 388.9434
152.2031, 400.3856
152.6852, 411.0394
153.1674, 420.7659
153.6495, 427.3896
154.1316, 435.2596
154.6137, 444.5589
155.0958, 455.2838
155.5779, 468.6499
156.0601, 488.3294
156.5422, 509.1664
157.0243, 526.5175
157.5064, 537.3718
157.9885, 546.7091
158.4706, 555.3524
158.9528, 563.1931
159.4349, 571.9423
159.9170, 582.5555
160.3991, 594.1569
160.8812, 605.7327
161.3633, 618.6160
161.8455, 630.1132
162.3276, 639.5251
162.8097, 646.9542
163.2918, 650.8206
163.7739, 648.5264
164.2560, 641.7429
164.7382, 630.3215
165.2203, 618.0684
165.7024, 607.2550
166.1845, 598.2236
166.6666, 590.7899
167.1487, 585.5759
167.6309, 584.5847
168.1130, 586.0007
168.5951, 586.0092
169.0772, 581.3224
169.5593, 575.2859
170.0414, 570.6865
170.5236, 568.1081
171.0057, 566.6845
171.4878, 565.1699
171.9699, 564.0900
172.4520, 565.1041
172.9341, 572.2496
173.4163, 580.8565
173.8984, 584.9526
174.3805, 581.2926
174.8626, 576.1003
175.3447, 575.7895
175.8268, 579.4035
176.3090, 582.5536
176.7911, 582.2030
177.2732, 579.4457
177.7553, 575.6867
178.2374, 569.8359
178.7195, 564.7324
179.2017, 565.9240
179.6838, 572.6619
180.1659, 577.6839
180.6480, 573.4370
181.1301, 563.2424
181.6122, 554.8671
182.0944, 551.5272
182.5765, 550.4623
183.0586, 546.2825
183.5407, 539.1031
184.0228, 532.4377
184.5049, 530.2772
184.9871, 531.5127
185.4692, 532.2215
185.9513, 530.6908
186.4334, 528.0067
186.9155, 526.6594
187.3976, 526.6998
187.8798, 527.5270
188.3619, 529.4786
188.8440, 532.1733
189.3261, 532.8806
189.8082, 529.2297
190.2903, 522.9164
190.7725, 520.7024
191.2546, 523.1772
191.7367, 526.4786
192.2188, 525.0708
192.7009, 519.2834
193.1830, 515.6959
193.6652, 517.3221
194.1473, 523.4310
194.6294, 530.2685
195.1115, 538.5112
195.5936, 545.2899
196.0757, 545.0605
196.5579, 537.5140
197.0400, 532.0587
197.5221, 533.2712
198.0042, 540.6511
198.4863, 546.9282
198.9684, 551.9109
199.4506, 556.1633
199.9327, 560.3740
200.4148, 564.5668
200.8969, 568.6854
201.3790, 572.9886
201.8611, 577.4977
202.3433, 580.7640
202.8254, 582.4792
203.3075, 583.4389
203.7896, 584.2999
204.2717, 584.5512
204.7538, 587.1741
205.2360, 595.2779
205.7181, 610.1226
206.2002, 617.8933
206.6823, 616.1474
207.1644, 610.2784
207.6465, 610.6962
208.1287, 618.9039
208.6108, 628.0482
209.0929, 634.6370
209.5750, 637.7035
210.0571, 644.0750
210.5392, 655.2518
211.0214, 668.4716
211.5035, 677.7064
211.9856, 681.6967
212.4677, 685.0231
212.9498, 689.1995
213.4319, 693.6557
213.9141, 701.5706
214.3962, 714.4617
214.8783, 729.9022
215.3604, 741.6633
215.8425, 748.1908
216.3246, 754.7518
216.8067, 763.5954
217.2889, 774.5980
217.7710, 788.1944
218.2531, 805.6073
218.7352, 824.9330
219.2173, 842.1100
219.6994, 856.9539
220.1816, 870.0795
220.6637, 881.2784
221.1458, 888.6097
221.6279, 899.8157
222.1100, 915.9188
222.5921, 935.6184
223.0743, 956.3778
223.5564, 978.8459
224.0385, 1001.063
224.5206, 1021.366
225.0027, 1038.747
225.4848, 1057.693
225.9670, 1078.195
226.4491, 1100.147
226.9312, 1124.210
227.4133, 1152.250
227.8954, 1179.160
228.3775, 1202.120
228.8597, 1221.126
229.3418, 1236.833
229.8239, 1247.820
230.3060, 1255.879
230.7881, 1266.092
231.2702, 1281.279
231.7524, 1294.454
232.2345, 1302.751
232.7166, 1307.042
233.1987, 1304.555
233.6808, 1294.060
234.1629, 1277.209
234.6451, 1257.947
235.1272, 1236.492
235.6093, 1212.579
236.0914, 1186.156
236.5735, 1157.412
237.0556, 1125.479
237.5378, 1087.914
238.0199, 1047.917
238.5020, 1014.064
238.9841, 989.3271
239.4662, 965.7766
239.9483, 939.5087
240.4305, 908.0146
240.9126, 880.3418
241.3947, 857.3231
241.8768, 837.8228
242.3589, 819.2623
242.8410, 802.2188
243.3232, 785.2196
243.8053, 767.5364
244.2874, 747.8887
244.7695, 730.5198
245.2516, 715.4767
245.7337, 702.5677
246.2159, 691.8323
246.6980, 685.5123
247.1801, 677.8031
247.6622, 665.5032
248.1443, 644.9815
248.6264, 630.3399
249.1086, 623.9479
249.5907, 622.1693
250.0728, 617.3765
250.5549, 607.7311
251.0370, 598.1799
251.5191, 590.9765
252.0013, 587.6779
252.4834, 581.3640
252.9655, 570.0762
253.4476, 556.9937
253.9297, 548.2272
254.4118, 545.4650
254.8940, 544.0310
255.3761, 542.6969
255.8582, 541.9240
256.3403, 539.2170
256.8224, 533.9256
257.3046, 527.2104
257.7867, 521.0931
258.2688, 515.7556
258.7509, 510.5536
259.2330, 505.4112
259.7151, 500.3794
260.1973, 494.7961
260.6794, 488.1192
261.1615, 481.5449
261.6436, 476.9711
262.1257, 474.6268
262.6078, 473.7311
263.0900, 475.0352
263.5721, 479.2017
264.0542, 478.5489
264.5363, 470.8984
265.0184, 461.0177
265.5005, 454.8855
265.9827, 453.5438
266.4648, 453.0991
266.9469, 452.8141
267.4290, 452.7126
267.9111, 451.2491
268.3932, 447.1998
268.8754, 443.7040
269.3575, 445.0552
269.8396, 452.9012
270.3217, 459.7206
270.8038, 464.2377
271.2859, 466.4174
271.7681, 463.9657
272.2502, 455.3239
272.7323, 445.2985
273.2144, 438.8504
273.6965, 436.2931
274.1786, 435.4193
274.6608, 436.0826
275.1429, 438.0995
275.6250, 440.4135
276.1071, 443.3330
276.5892, 445.6733
277.0714, 445.6308
277.5535, 442.7623
278.0356, 441.7311
278.5177, 443.9277
278.9998, 448.4845
279.4819, 452.1734
279.9641, 455.1953
280.4462, 456.6802
280.9283, 454.9012
281.4104, 449.7065
281.8925, 446.9366
282.3746, 448.4432
282.8568, 452.2114
283.3389, 451.8191
283.8210, 446.7047
284.3031, 441.7525
284.7852, 440.8127
285.2673, 443.6526
285.7495, 445.8731
286.2316, 446.5497
286.7137, 446.8926
287.1958, 450.0189
287.6779, 456.0252
288.1600, 461.6205
288.6422, 464.2230
289.1243, 464.3234
289.6064, 465.5299
290.0885, 468.4894
290.5706, 471.8094
291.0527, 472.6613
291.5349, 471.2563
292.0170, 470.6466
292.4991, 472.8967
292.9812, 477.3740
293.4633, 482.3211
293.9454, 488.1084
294.4276, 492.5896
294.9097, 490.9518
295.3918, 484.5372
295.8739, 480.4630
296.3560, 483.4825
296.8381, 491.1867
297.3203, 498.7614
297.8024, 506.2773
298.2845, 511.8180
298.7666, 511.4102
299.2487, 506.9539
299.7308, 504.2910
300.2130, 507.4127
300.6951, 513.2025
301.1772, 516.1234
301.6593, 516.1802
302.1414, 516.6356
302.6235, 520.8344
303.1057, 527.4818
303.5878, 533.9089
304.0699, 539.6732
304.5520, 544.5187
305.0341, 547.4992
305.5162, 548.8569
305.9984, 550.7684
306.4805, 555.7892
306.9626, 562.0587
307.4447, 567.0002
307.9268, 570.3567
308.4089, 571.6512
308.8911, 569.3818
309.3732, 564.2950
309.8553, 559.4802
310.3374, 557.6823
310.8195, 556.6132
311.3016, 553.8917
311.7838, 548.4631
312.2659, 542.5322
312.7480, 536.7500
313.2301, 531.5609
313.7122, 527.9214
314.1943, 529.7029
314.6765, 530.9788
315.1586, 526.5356
315.6407, 513.7147
316.1228, 502.0851
316.6049, 497.0838
317.0870, 496.2027
317.5692, 495.3686
318.0513, 493.1136
318.5334, 490.5303
319.0155, 488.1344
319.4976, 485.9711
319.9797, 483.7675
320.4619, 480.4032
320.9440, 477.2846
321.4261, 476.0199
321.9082, 479.0719
322.3903, 481.9901
322.8724, 484.0650
323.3546, 485.2711
323.8367, 483.9109
324.3188, 476.1951
324.8009, 467.6666
325.2830, 462.6402
325.7651, 466.2553
326.2473, 468.2267
326.7294, 464.8992
327.2115, 457.4118
327.6936, 454.8032
328.1757, 463.2944
328.6578, 472.6443
329.1400, 477.7751
329.6221, 474.3240
330.1042, 472.4687
330.5863, 472.5786
331.0684, 474.3324
331.5505, 476.9532
332.0327, 482.6313
332.5148, 486.6067
332.9969, 486.6030
333.4790, 480.6332
333.9611, 476.2079
334.4432, 474.0380
334.9254, 472.9884
335.4075, 470.9429
335.8896, 466.7507
336.3717, 463.8476
336.8538, 463.3470
337.3359, 465.3668
337.8180, 468.7938
338.3001, 474.2354
338.7823, 480.1551
339.2644, 485.1553
339.7465, 489.6443
340.2286, 491.2899
340.7107, 488.0167
341.1928, 481.0765
341.6750, 480.6662
342.1571, 488.4508
342.6392, 496.5066
343.1213, 496.5205
343.6034, 488.3041
344.0855, 485.0981
344.5677, 490.5662
345.0498, 500.7651
345.5319, 505.9951
346.0140, 506.1384
346.4961, 504.6931
346.9782, 503.6238
347.4604, 502.8219
347.9425, 501.2834
348.4246, 498.3259
348.9067, 496.3768
349.3888, 500.5996
349.8709, 509.7885
350.3531, 517.2200
350.8352, 517.9716
351.3173, 515.0095
351.7994, 513.9611
352.2815, 515.0901
352.7636, 517.2646
353.2458, 519.2706
353.7279, 521.5060
354.2100, 524.8540
354.6921, 530.5377
355.1742, 536.8596
355.6563, 541.9665
356.1385, 545.9445
356.6206, 549.9697
357.1027, 554.9144
357.5848, 560.3167
358.0669, 565.6487
358.5490, 570.4171
359.0312, 575.5704
359.5133, 582.1967
359.9954, 589.8163
360.4775, 597.0313
360.9596, 603.4677
361.4417, 609.0579
361.9239, 613.1471
362.4060, 614.2131
362.8881, 617.9757
363.3702, 628.8348
363.8523, 643.3068
364.3344, 656.0551
364.8166, 666.1298
365.2987, 673.8057
365.7808, 678.1035
366.2629, 678.5559
366.7450, 680.2474
367.2271, 686.4509
367.7093, 693.0338
368.1914, 696.3656
368.6735, 692.8376
369.1556, 689.7004
369.6377, 688.1764
370.1198, 688.0493
370.6020, 687.5588
371.0841, 686.5479
371.5662, 685.3154
372.0483, 684.0692
372.5304, 683.1539
373.0125, 681.5923
373.4947, 679.5926
373.9768, 676.8735
374.4589, 672.5413
374.9410, 665.8506
375.4231, 659.0632
375.9052, 653.2333
376.3874, 648.6331
376.8695, 642.6383
377.3516, 635.0333
377.8337, 626.2961
378.3158, 616.3075
378.7979, 604.7291
379.2801, 594.2468
379.7622, 585.7816
380.2443, 578.9276
380.7264, 571.6078
381.2085, 563.8556
381.6906, 555.6042
382.1728, 546.0412
382.6549, 535.5248
383.1370, 527.2086
383.6191, 522.1446
384.1012, 518.4179
384.5833, 512.0984
385.0655, 503.6357
385.5476, 496.4538
386.0297, 494.0389
386.5118, 493.7909
386.9939, 490.4346
387.4760, 483.1899
387.9582, 475.5011
388.4403, 470.5627
388.9224, 467.5177
389.4045, 464.6023
389.8866, 460.2513
390.3687, 456.2429
390.8509, 453.9912
391.3330, 453.4848
391.8151, 454.4162
392.2972, 458.5685
392.7793, 463.1721
393.2614, 465.6326
393.7436, 465.3782
394.2257, 462.7013
394.7078, 455.2565
395.1899, 445.2328
395.6720, 438.3769
396.1541, 437.8686
396.6363, 439.8594
397.1184, 443.0946
397.6005, 448.3533
398.0826, 451.9620
398.5647, 451.7965
399.0468, 450.2291
399.5290, 450.1351
400.0111, 453.6363
400.4932, 456.5262
400.9753, 457.2951
401.4574, 455.9687
401.9395, 457.5552
402.4217, 465.2686
402.9038, 472.5195
403.3859, 474.2575
403.8680, 466.5767
404.3501, 462.9911
404.8322, 466.2090
405.3144, 473.2369
405.7965, 475.8008
406.2786, 472.8267
406.7607, 469.0167
407.2428, 466.1838
407.7249, 464.3255
408.2071, 463.4289
408.6892, 463.5938
409.1713, 464.3941
409.6534, 464.8452
410.1355, 465.0559
410.6176, 467.5204
411.0998, 475.0150
411.5819, 483.9419
412.0640, 483.8483
412.5461, 475.0872
413.0282, 466.6364
413.5103, 467.7767
413.9925, 473.9549
414.4746, 474.8503
414.9567, 467.1651
415.4388, 458.6859
415.9209, 458.2852
416.4030, 463.4771
416.8852, 468.0789
417.3673, 468.9994
417.8494, 467.9772
418.3315, 466.0175
418.8136, 463.1833
419.2957, 460.5083
419.7779, 458.0163
420.2600, 456.2241
420.7421, 455.6891
421.2242, 457.2758
421.7063, 459.3938
422.1884, 462.1773
422.6706, 465.2444
423.1527, 467.2535
423.6348, 467.2181
424.1169, 466.5832
424.5990, 465.4680
425.0811, 461.8045
425.5633, 462.5943
426.0454, 471.5536
426.5275, 483.5508
427.0096, 492.2622
427.4917, 496.4635
427.9738, 499.0302
428.4560, 499.7593
428.9381, 498.8214
429.4202, 500.2944
429.9023, 505.2889
430.3844, 510.5922
430.8665, 513.8788
431.3487, 514.9547
431.8308, 514.9261
432.3129, 513.3558
432.7950, 511.4117
433.2771, 512.2125
433.7592, 515.8981
434.2414, 518.4926
434.7235, 517.6368
435.2056, 514.1151
435.6877, 511.3187
436.1698, 509.3678
436.6519, 506.7919
437.1341, 500.9320
437.6162, 493.2892
438.0983, 487.9843
438.5804, 487.6984
439.0625, 487.9789
439.5446, 483.2715
440.0268, 474.6058
440.5089, 465.7267
440.9910, 457.2227
441.4731, 450.4307
441.9552, 447.4254
442.4373, 449.3727
442.9195, 449.9425
443.4016, 443.6979
443.8837, 434.9877
444.3658, 429.0988
444.8479, 431.7039
445.3300, 433.2255
445.8122, 428.9444
446.2943, 419.7979
446.7764, 414.1660
447.2585, 417.3045
447.7406, 421.1486
448.2227, 421.7126
448.7049, 417.9525
449.1870, 412.6738
449.6691, 403.8485
450.1512, 394.5391
450.6333, 390.0554
451.1154, 392.4954
451.5976, 395.2215
452.0797, 396.6919
452.5618, 396.9534
453.0439, 396.4225
453.5260, 394.9840
454.0081, 393.1510
454.4903, 390.5999
454.9724, 387.3929
455.4545, 387.2096
455.9366, 391.4286
456.4187, 396.9022
456.9008, 397.5734
457.3830, 394.0473
457.8651, 390.9871
458.3472, 391.3740
458.8293, 393.4272
459.3114, 393.6898
459.7935, 392.1515
460.2757, 390.6611
460.7578, 390.7354
461.2399, 391.7778
461.7220, 393.1505
462.2041, 395.5315
462.6862, 396.7712
463.1684, 393.7666
463.6505, 388.4939
464.1326, 385.6044
464.6147, 389.5694
465.0968, 394.2322
465.5789, 395.8345
466.0611, 393.4881
466.5432, 393.0225
467.0253, 398.5363
467.5074, 404.8273
467.9895, 407.5038
468.4716, 401.9590
468.9538, 398.4022
469.4359, 397.9028
469.9180, 399.8187
470.4001, 402.4097
470.8822, 406.5760
471.3643, 409.7790
471.8465, 410.6751
472.3286, 408.9744
472.8107, 408.3810
473.2928, 409.4933
473.7749, 410.2962
474.2570, 407.9185
474.7392, 402.3941
475.2213, 397.9272
475.7034, 395.6874
476.1855, 394.7077
476.6676, 392.1152
477.1497, 388.2918
477.6319, 386.8889
478.1140, 392.8979
478.5961, 401.8450
479.0782, 405.8587
479.5603, 404.1786
480.0424, 400.9637
480.5246, 399.0986
481.0067, 397.9450
481.4888, 396.5829
481.9709, 394.3906
482.4530, 392.2743
482.9352, 390.6589
483.4173, 389.4882
483.8994, 388.5847
484.3815, 387.7431
484.8636, 387.2736
485.3457, 387.5445
485.8279, 388.9839
486.3100, 389.5992
486.7921, 387.6315
487.2742, 385.6481
487.7563, 386.0245
488.2384, 390.6108
488.7206, 394.4354
489.2027, 397.0256
489.6848, 398.4543
490.1669, 398.7950
490.6490, 397.8423
491.1311, 396.4263
491.6133, 394.7994
492.0954, 392.9648
492.5775, 391.0407
493.0596, 388.6922
493.5417, 387.7574
494.0238, 391.7806
494.5060, 399.4765
494.9881, 404.5031
495.4702, 404.2171
495.9523, 402.1671
496.4344, 404.0800
496.9165, 408.8158
497.3987, 412.0840
497.8808, 409.8756
498.3629, 406.0522
498.8450, 404.3219
499.3271, 405.0083
499.8092, 406.2814
500.2914, 408.5380
500.7735, 410.2416
501.2556, 409.9408
501.7377, 404.0439
502.2198, 400.0039
502.7019, 400.0274
503.1841, 403.1007
503.6662, 406.4396
504.1483, 411.9823
504.6304, 415.4677
505.1125, 414.5802
505.5946, 408.6774
506.0768, 407.1053
506.5589, 412.1843
507.0410, 418.1823
507.5231, 419.8722
508.0052, 416.3159
508.4873, 414.8245
508.9695, 416.6464
509.4516, 420.2001
509.9337, 422.6542
510.4158, 424.0556
510.8979, 425.2994
511.3800, 427.2606
511.8622, 429.1869
512.3443, 428.2919
512.8264, 424.8115
513.3085, 423.0560
513.7906, 427.8280
514.2728, 435.7114
514.7549, 442.3348
515.2370, 446.7572
515.7191, 450.1826
516.2012, 452.7449
516.6833, 454.9223
517.1655, 457.4924
517.6476, 462.9539
518.1297, 466.6190
518.6118, 465.7622
519.0939, 460.8456
519.5760, 457.3579
520.0582, 455.9653
520.5403, 456.1784
521.0224, 458.1870
521.5045, 463.2764
521.9866, 466.1888
522.4688, 465.5356
522.9509, 464.2306
523.4330, 466.2790
523.9151, 472.4301
524.3972, 477.9270
524.8793, 482.0514
525.3615, 484.5813
525.8436, 484.3916
526.3257, 481.5117
526.8078, 478.3431
527.2899, 476.4363
527.7720, 475.1998
528.2542, 473.4544
528.7363, 471.1699
529.2184, 468.1778
529.7005, 463.1273
530.1826, 457.7012
530.6647, 454.3898
531.1469, 455.1754
531.6290, 456.1066
532.1111, 454.3059
532.5932, 451.1259
533.0753, 449.3310
533.5574, 451.4766
534.0396, 453.4308
534.5217, 453.2762
535.0038, 450.7681
535.4859, 449.8527
535.9680, 452.0088
536.4501, 454.4043
536.9323, 455.5641
537.4144, 455.6288
537.8965, 453.5909
538.3786, 448.0139
538.8607, 442.2449
539.3428, 442.5113
539.8250, 449.4001
540.3071, 454.2430
540.7892, 453.8755
541.2713, 450.4187
541.7534, 449.1812
542.2355, 449.9382
542.7177, 450.2846
543.1998, 447.2953
543.6819, 443.4348
544.1640, 443.2191
544.6461, 447.1547
545.1282, 450.7432
545.6104, 451.1257
546.0925, 449.2689
546.5746, 446.0592
547.0567, 439.2852
547.5388, 434.6184
548.0209, 435.6295
548.5031, 440.0543
548.9852, 442.9196
549.4673, 441.5416
549.9494, 440.5893
550.4315, 441.3857
550.9136, 443.9217
551.3958, 446.0711
551.8779, 447.6154
552.3600, 449.1495
552.8421, 451.5636
553.3242, 455.2077
553.8063, 455.8428
554.2885, 452.4575
554.7706, 448.3589
555.2527, 449.3013
555.7348, 454.1822
556.2169, 455.7528
556.6990, 450.1844
557.1812, 442.3907
557.6633, 439.3433
558.1454, 440.1606
558.6275, 441.5324
559.1096, 442.1056
559.5917, 442.0845
560.0739, 441.6480
560.5560, 440.8138
561.0381, 439.4020
561.5202, 435.5250
562.0023, 432.1684
562.4844, 431.7503
562.9666, 439.0241
563.4487, 442.4586
563.9308, 438.8463
564.4129, 432.2450
564.8950, 429.1064
565.3771, 431.6531
565.8593, 432.6124
566.3414, 429.7491
566.8235, 424.1357
567.3056, 420.3378
567.7877, 418.4280
568.2698, 417.9770
568.7520, 419.9613
569.2341, 423.3311
569.7162, 423.3271
570.1983, 419.5824
570.6804, 416.1446
571.1625, 418.1221
571.6447, 422.6184
572.1268, 424.7180
572.6089, 422.1884
573.0910, 419.3851
573.5731, 419.8911
574.0552, 421.9185
574.5374, 422.3484
575.0195, 417.5470
575.5016, 413.6452
575.9837, 413.1429
576.4658, 415.8077
576.9479, 418.0022
577.4301, 419.9194
577.9122, 420.9810
578.3943, 420.3340
578.8764, 417.0949
579.3585, 417.8593
579.8406, 424.2433
580.3228, 431.0325
580.8049, 431.8686
581.2870, 427.1588
581.7691, 424.3029
582.2512, 424.7431
582.7333, 427.1145
583.2155, 429.9718
583.6976, 433.1217
584.1797, 436.1117
584.6617, 439.0411
585.1439, 441.4388
585.6260, 442.2022
586.1081, 441.7740
586.5902, 442.3956
587.0723, 446.9801
587.5544, 451.4451
588.0366, 453.1699
588.5187, 451.0689
589.0008, 449.7547
589.4829, 451.2130
589.9650, 452.6913
590.4471, 452.0946
590.9293, 448.6574
591.4114, 444.8009
591.8935, 440.3263
592.3756, 435.8542
592.8577, 432.5750
593.3398, 430.5676
593.8220, 429.0063
594.3041, 428.2650
594.7862, 427.3210
595.2683, 423.1021
595.7504, 416.0573
596.2325, 409.2090
596.7147, 404.1619
597.1968, 400.5243
597.6789, 398.3777
598.1610, 397.7600
598.6431, 396.2904
599.1252, 391.6824
599.6074, 386.2491
600.0895, 381.9292
600.5716, 380.0605
601.0537, 377.5775
601.5358, 373.3241
602.0179, 368.5143
602.5001, 364.7344
602.9822, 362.4112
603.4643, 360.3405
603.9464, 358.3714
604.4285, 356.4795
604.9106, 354.4149
605.3928, 352.1317
605.8749, 350.2051
606.3570, 348.8390
606.8391, 348.0577
607.3212, 348.2999
607.8033, 349.5071
608.2855, 350.3137
608.7676, 348.7503
609.2497, 346.5483
609.7318, 346.1557
610.2139, 348.2726
610.6960, 350.4999
611.1782, 351.2279
611.6603, 351.5063
612.1424, 352.4622
612.6245, 356.1215
613.1066, 358.3117
613.5887, 357.9052
614.0709, 355.8205
614.5530, 353.7542
615.0351, 351.7157
615.5172, 349.7562
615.9993, 347.8671
616.4814, 346.0630
616.9636, 344.1096
617.4457, 341.9134
617.9278, 340.6718
618.4099, 341.9632
618.8920, 344.7378
619.3741, 345.9904
619.8563, 345.6074
620.3384, 344.9490
620.8205, 344.9165
621.3026, 345.3410
621.7847, 346.0628
622.2668, 347.1587
622.7490, 348.2612
623.2311, 350.0573
623.7132, 351.4823
624.1953, 351.1754
624.6774, 345.5011
625.1595, 342.3377
625.6417, 343.8078
626.1238, 348.2043
626.6059, 350.7654
627.0880, 351.2256
627.5701, 350.6701
628.0522, 349.1333
628.5344, 346.9046
629.0165, 345.3585
629.4986, 344.4972
629.9807, 344.2278
630.4628, 344.7532
630.9449, 345.7477
631.4271, 346.5966
631.9092, 347.2447
632.3913, 347.9515
632.8734, 349.1392
633.3555, 350.3607
633.8376, 351.0958
634.3198, 350.7552
634.8019, 350.8435
635.2840, 351.8105
635.7661, 353.4116
636.2482, 355.4540
636.7303, 359.7353
637.2125, 361.2139
637.6946, 357.6006
638.1767, 351.4240
638.6588, 350.0805
639.1409, 354.1212
639.6230, 359.1655
640.1052, 364.0595
640.5873, 368.5194
641.0694, 371.6410
641.5515, 373.4736
642.0336, 374.1981
642.5157, 372.8423
642.9979, 371.0538
643.4800, 370.8096
643.9621, 372.3206
644.4442, 374.3665
644.9263, 376.3705
645.4084, 378.6588
645.8906, 381.7015
646.3727, 387.6566
646.8548, 390.2755
647.3369, 385.9306
647.8190, 380.4287
648.3011, 381.2685
648.7833, 390.8811
649.2654, 398.8391
649.7475, 403.7778
650.2296, 406.0703
650.7117, 405.4127
651.1938, 402.1616
651.6760, 400.7819
652.1581, 404.8234
652.6402, 410.4235
653.1223, 410.7900
653.6044, 407.1961
654.0865, 405.0436
654.5687, 408.2283
655.0508, 413.1840
655.5329, 417.4665
656.0150, 420.8268
656.4971, 425.6496
656.9792, 434.8065
657.4614, 443.6437
657.9435, 449.4532
658.4256, 451.1206
658.9077, 453.4230
659.3898, 455.9443
659.8719, 459.8231
660.3541, 467.3522
660.8362, 478.3174
661.3183, 486.2955
661.8004, 489.5688
662.2825, 491.7195
662.7646, 496.9259
663.2468, 504.6843
663.7289, 513.8371
664.2110, 524.6789
664.6931, 535.8840
665.1752, 545.9661
665.6573, 555.6744
666.1395, 567.0040
666.6216, 580.6520
667.1037, 595.9060
667.5858, 613.2791
668.0679, 632.4688
668.5500, 650.5773
669.0322, 666.5305
669.5143, 683.8277
669.9964, 704.4252
670.4785, 728.1344
670.9606, 751.6299
671.4427, 774.8420
671.9249, 799.3920
672.4070, 826.1848
672.8891, 855.7167
673.3712, 889.8201
673.8533, 929.4270
674.3354, 967.9053
674.8176, 999.0428
675.2997, 1027.794
675.7818, 1058.861
676.2639, 1093.545
676.7460, 1130.848
677.2281, 1170.207
677.7103, 1211.693
678.1924, 1255.336
678.6745, 1302.202
679.1566, 1348.130
679.6387, 1393.188
680.1208, 1436.425
680.6030, 1477.187
681.0851, 1514.818
681.5672, 1549.947
682.0493, 1583.815
682.5314, 1613.747
683.0135, 1634.867
683.4957, 1647.609
683.9778, 1652.908
684.4599, 1652.578
684.9420, 1644.059
685.4241, 1624.865
685.9063, 1595.353
686.3884, 1559.126
686.8705, 1516.690
687.3526, 1468.306
687.8347, 1412.881
688.3168, 1349.294
688.7990, 1286.860
689.2811, 1224.096
689.7632, 1163.608
690.2453, 1108.298
690.7274, 1057.314
691.2095, 1004.507
691.6917, 948.9753
692.1738, 896.3007
692.6559, 853.8824
693.1380, 819.1590
693.6201, 788.6131
694.1022, 762.3829
694.5844, 737.7082
695.0665, 712.0096
695.5486, 687.5614
696.0307, 667.2008
696.5128, 655.7105
696.9949, 643.4080
697.4771, 629.2031
697.9592, 613.7025
698.4413, 597.8688
698.9234, 580.9569
699.4055, 566.9153
699.8876, 557.5320
700.3698, 550.9505
700.8519, 542.1377
701.3340, 531.5739
701.8161, 522.7087
702.2982, 518.8421
702.7803, 516.5999
703.2625, 511.9155
703.7446, 505.3459
704.2267, 499.9393
704.7088, 498.2347
705.1909, 496.9239
705.6730, 494.5447
706.1552, 490.9479
706.6373, 486.1505
707.1194, 477.7972
707.6015, 471.5782
708.0836, 471.9441
708.5657, 479.4291
709.0479, 481.8519
709.5300, 478.6329
710.0121, 473.8439
710.4942, 470.2925
710.9763, 468.1046
711.4584, 467.9175
711.9406, 470.0571
712.4227, 472.2528
712.9048, 473.0374
713.3869, 472.9243
713.8690, 472.5080
714.3511, 472.4612
714.8333, 471.1494
715.3154, 467.2018
715.7975, 462.4327
716.2796, 458.5836
716.7617, 455.5958
717.2438, 453.7823
717.7260, 453.0837
718.2081, 453.7772
718.6902, 457.1489
719.1723, 462.8157
719.6544, 467.6377
720.1365, 470.9385
720.6187, 472.4836
721.1008, 470.6113
721.5829, 466.7898
722.0650, 464.4189
722.5471, 465.5104
723.0292, 467.8270
723.5114, 471.1567
723.9935, 475.0598
724.4756, 477.8288
724.9577, 479.3255
725.4398, 479.7599
725.9219, 478.9360
726.4041, 477.0703
726.8862, 474.9726
727.3683, 472.4773
727.8504, 471.5110
728.3325, 474.7245
728.8146, 479.7462
729.2968, 480.9557
729.7789, 478.7363
730.2610, 476.7553
730.7431, 477.2079
731.2252, 478.8637
731.7073, 481.7671
732.1895, 486.2055
732.6716, 487.5183
733.1537, 480.5659
733.6358, 474.1935
734.1179, 473.2990
734.6000, 479.3039
735.0822, 482.4354
735.5643, 482.2729
736.0464, 480.7428
736.5285, 478.9960
737.0106, 477.2712
737.4927, 476.9520
737.9749, 478.3895
738.4570, 479.1053
738.9391, 475.5941
739.4212, 470.7993
739.9033, 468.1254
740.3854, 468.8379
740.8676, 470.3670
741.3497, 472.3963
741.8318, 474.7149
742.3139, 477.3720
742.7960, 481.5384
743.2781, 482.7730
743.7603, 479.9704
744.2424, 475.5123
744.7245, 472.5598
745.2066, 471.0367
745.6887, 470.1788
746.1708, 469.8349
746.6530, 470.0095
747.1351, 471.3460
747.6172, 473.0738
748.0993, 473.8266
748.5814, 471.9708
749.0635, 470.3672
749.5457, 470.0043
750.0278, 470.5764
750.5099, 471.4260
750.9920, 472.7414
751.4741, 474.0077
751.9562, 475.3526
752.4384, 476.4323
752.9205, 475.9510
753.4026, 473.9668
753.8847, 472.4733
754.3668, 471.9615
754.8489, 472.6877
755.3311, 476.2730
755.8132, 481.5650
756.2953, 485.0790
756.7774, 483.3844
757.2595, 481.3387
757.7416, 481.4131
758.2238, 483.2661
758.7059, 484.5736
759.1880, 484.6902
759.6701, 485.0912
760.1522, 486.3423
760.6343, 488.2289
761.1165, 489.3702
761.5986, 489.6879
762.0807, 490.8482
762.5628, 494.3960
763.0449, 499.0990
763.5270, 503.4507
764.0092, 507.2247
764.4913, 509.3249
764.9734, 507.7968
765.4555, 505.5114
765.9376, 503.9894
766.4197, 503.3129
766.9019, 503.3297
767.3840, 505.3627
767.8661, 506.0447
768.3482, 502.5588
768.8303, 495.2861
769.3124, 496.1681
769.7946, 505.9519
770.2767, 514.6392
770.7588, 513.8453
771.2409, 507.6610
771.7230, 502.1037
772.2051, 497.6120
772.6873, 496.2504
773.1694, 503.5471
773.6515, 511.0821
774.1336, 512.2276
774.6157, 504.7780
775.0978, 501.2570
775.5800, 505.1084
776.0621, 508.8210
776.5442, 507.5765
777.0263, 501.0816
777.5084, 495.5717
777.9905, 490.9596
778.4727, 487.8525
778.9548, 488.0916
779.4369, 489.7465
779.9190, 489.4798
780.4011, 486.9216
780.8832, 483.3275
781.3654, 478.3471
781.8475, 473.3993
782.3296, 469.5563
782.8117, 467.2698
783.2938, 465.4263
783.7759, 464.7941
784.2581, 463.5367
784.7402, 459.4978
785.2223, 452.6877
785.7044, 449.0137
786.1865, 449.0231
786.6686, 449.5190
787.1508, 447.9958
787.6329, 444.7889
788.1150, 440.0935
788.5971, 433.6797
789.0792, 427.2754
789.5613, 420.3974
790.0435, 414.6049
790.5256, 411.3404
791.0077, 411.7800
791.4898, 411.6700
791.9719, 410.7853
792.4540, 409.7199
792.9362, 409.4576
793.4183, 409.8055
793.9004, 407.9485
794.3825, 403.3837
794.8646, 399.0819
795.3467, 398.7390
795.8289, 400.0025
796.3110, 399.4442
796.7931, 395.9185
797.2752, 392.9870
797.7573, 392.1056
798.2394, 392.2340
798.7216, 392.4491
799.2037, 392.5267
799.6858, 393.4121
800.1679, 395.5157
800.6500, 397.4950
801.1321, 397.5238
801.6143, 396.1408
802.0964, 396.5401
802.5785, 399.3379
803.0606, 401.3517
803.5427, 398.0861
804.0248, 393.3536
804.5070, 391.7085
804.9891, 395.4204
805.4712, 397.7777
805.9533, 396.0035
806.4354, 393.3686
806.9175, 392.2462
807.3997, 393.0690
807.8818, 393.6147
808.3639, 393.8569
808.8460, 393.7389
809.3281, 392.3651
809.8102, 390.6671
810.2924, 392.1008
810.7745, 397.6938
811.2566, 401.0153
811.7387, 395.0559
812.2208, 386.2483
812.7029, 380.2468
813.1851, 378.5898
813.6672, 378.1070
814.1493, 379.3297
814.6314, 380.7713
815.1135, 380.9419
815.5956, 379.7320
816.0778, 380.3524
816.5599, 383.1830
817.0420, 385.7846
817.5241, 385.4046
818.0062, 383.4136
818.4883, 382.1723
818.9705, 382.1922
819.4526, 381.1755
819.9347, 377.1578
820.4168, 372.3427
820.8989, 368.2501
821.3810, 364.9886
821.8632, 362.2689
822.3453, 359.9917
822.8274, 358.4702
823.3095, 357.7917
823.7916, 358.0526
824.2737, 360.4207
824.7559, 364.9824
825.2380, 369.2253
825.7201, 371.5009
826.2022, 372.1754
826.6843, 371.3008
827.1664, 368.7595
827.6486, 366.0194
828.1307, 362.4621
828.6128, 359.6742
829.0949, 358.4165
829.5770, 358.7411
830.0591, 360.2853
830.5413, 363.3097
831.0234, 365.9101
831.5055, 367.2857
831.9876, 367.0463
832.4697, 362.6837
832.9518, 354.6594
833.4340, 349.6704
833.9161, 355.2443
834.3982, 362.1652
834.8803, 364.3612
835.3624, 361.0212
835.8445, 358.9044
836.3267, 358.3247
836.8088, 358.3897
837.2909, 358.9709
837.7730, 359.8767
838.2551, 359.8333
838.7372, 358.8939
839.2194, 357.8549
839.7015, 357.1813
840.1836, 356.6969
840.6657, 355.9604
841.1478, 355.1347
841.6299, 355.2332
842.1121, 357.6855
842.5942, 359.9483
843.0763, 361.5092
843.5584, 362.2336
844.0405, 360.6593
844.5226, 356.2229
845.0048, 353.5529
845.4869, 355.2759
845.9690, 359.5320
846.4511, 364.0174
846.9332, 368.0930
847.4153, 369.5786
847.8975, 364.2603
848.3796, 359.3084
848.8617, 358.4931
849.3438, 360.8889
849.8259, 363.2337
850.3080, 366.5095
850.7902, 367.0730
851.2723, 362.9006
851.7544, 356.9675
852.2365, 356.5523
852.7186, 360.7782
853.2007, 364.5152
853.6829, 365.8394
854.1650, 366.0777
854.6471, 365.9757
855.1292, 365.7005
855.6113, 365.5319
856.0934, 366.5804
856.5756, 366.2101
857.0577, 362.7602
857.5398, 358.8932
858.0219, 359.2094
858.5040, 364.0703
858.9861, 365.8290
859.4683, 362.3143
859.9504, 358.7235
860.4325, 363.4482
860.9146, 372.0302
861.3967, 376.7625
861.8788, 374.8369
862.3610, 371.4271
862.8431, 364.8738
863.3252, 360.0777
863.8073, 362.0349
864.2894, 374.3654
864.7715, 382.2682
865.2537, 385.0604
865.7358, 384.9592
866.2179, 383.0544
866.7000, 380.1224
867.1821, 378.0797
867.6642, 377.0949
868.1464, 377.3884
868.6285, 380.7150
869.1106, 384.2098
869.5927, 385.5135
870.0748, 383.8470
870.5569, 382.5812
871.0391, 380.9432
871.5212, 381.1932
872.0033, 385.8842
872.4854, 394.0781
872.9675, 398.5575
873.4496, 399.4955
873.9318, 398.6617
874.4139, 394.3871
874.8960, 391.0760
875.3781, 394.4443
875.8602, 403.4720
876.3423, 409.0678
876.8245, 404.9059
877.3066, 401.9846
877.7887, 404.1020
878.2708, 409.5579
878.7529, 410.7800
879.2350, 407.7696
879.7172, 405.0501
880.1993, 404.4194
880.6814, 405.2881
881.1635, 407.7699
881.6456, 411.1216
882.1277, 413.6044
882.6099, 414.0645
883.0920, 414.1674
883.5741, 414.0121
884.0562, 413.9218
884.5383, 414.5064
885.0204, 415.8942
885.5026, 417.1565
885.9847, 418.1396
886.4668, 418.9066
886.9489, 419.4937
887.4310, 419.9384
887.9131, 420.2107
888.3953, 420.0383
888.8774, 420.4543
889.3595, 423.6403
889.8416, 426.5305
890.3237, 425.9308
890.8058, 419.8571
891.2880, 416.1576
891.7701, 415.2288
892.2522, 415.5225
892.7343, 415.4974
893.2164, 415.5973
893.6985, 417.4291
894.1807, 421.0776
894.6628, 424.4123
895.1449, 426.1172
895.6270, 426.9562
896.1091, 427.1572
896.5912, 426.6762
897.0734, 427.0590
897.5555, 428.9148
898.0376, 430.1329
898.5197, 429.3247
899.0018, 427.2132
899.4839, 426.1570
899.9661, 426.1306
900.4482, 426.9778
900.9303, 430.3086
901.4124, 432.8980
901.8945, 430.9564
902.3766, 426.4103
902.8588, 425.9491
903.3409, 433.4607
903.8230, 438.8625
904.3051, 440.0585
904.7872, 438.6438
905.2693, 437.7057
905.7515, 437.0673
906.2336, 435.3104
906.7157, 431.2656
907.1978, 428.1640
907.6799, 429.1596
908.1620, 432.5302
908.6442, 436.3024
909.1263, 441.0092
909.6084, 444.4671
910.0905, 447.1487
910.5726, 447.8659
911.0547, 443.6601
911.5369, 435.3876
912.0190, 434.0849
912.5011, 440.6115
912.9832, 447.6696
913.4653, 448.7151
913.9474, 447.7979
914.4296, 449.3192
914.9117, 453.8558
915.3938, 455.6980
915.8759, 452.4492
916.3580, 448.4813
916.8401, 444.6870
917.3223, 441.5891
917.8044, 443.4338
918.2865, 449.8651
918.7686, 455.3111
919.2507, 455.4226
919.7328, 454.3574
920.2150, 456.6685
920.6971, 461.0005
921.1792, 464.0378
921.6613, 465.3194
922.1434, 464.3258
922.6255, 459.3820
923.1077, 453.6590
923.5898, 453.8812
924.0719, 459.5733
924.5540, 461.5171
925.0361, 456.8854
925.5182, 452.2542
926.0004, 455.1259
926.4825, 461.3522
926.9646, 466.1284
927.4467, 468.5895
927.9288, 469.1188
928.4109, 465.9728
928.8931, 463.3326
929.3752, 464.5541
929.8573, 469.5328
930.3394, 473.4857
930.8215, 476.3862
931.3036, 477.8192
931.7858, 476.1325
932.2679, 473.8136
932.7500, 473.9414
933.2321, 476.1169
933.7142, 476.4459
934.1964, 471.7119
934.6785, 468.2110
935.1606, 467.7169
935.6427, 469.4223
936.1248, 470.9608
936.6069, 472.4105
937.0891, 474.7694
937.5712, 479.5186
938.0533, 483.1562
938.5354, 481.0663
939.0175, 476.0710
939.4996, 472.3413
939.9818, 471.5775
940.4639, 471.0769
940.9460, 470.7043
941.4281, 470.5656
941.9102, 471.0874
942.3923, 472.1085
942.8745, 472.1673
943.3566, 471.1605
943.8387, 469.1683
944.3208, 463.5893
944.8029, 459.0508
945.2850, 461.6034
945.7672, 472.0222
946.2493, 475.2715
946.7314, 465.3695
947.2135, 457.5966
947.6956, 458.9978
948.1777, 466.4499
948.6599, 468.7421
949.1420, 466.5084
949.6241, 463.1753
950.1062, 459.5156
950.5883, 456.2852
951.0704, 453.3656
951.5526, 451.3762
952.0347, 451.7774
952.5168, 456.5464
952.9989, 459.7929
953.4810, 461.2502
953.9631, 460.7431
954.4453, 456.9468
954.9274, 450.9485
955.4095, 446.4459
955.8916, 443.9858
956.3737, 442.8093
956.8558, 442.9682
957.3380, 443.8057
957.8201, 445.2853
958.3022, 447.5020
958.7843, 447.6738
959.2664, 445.1652
959.7485, 442.5604
960.2307, 440.9760
960.7128, 440.2624
961.1949, 440.3061
961.6770, 440.9712
962.1591, 441.7704
962.6412, 444.0568
963.1234, 444.6670
963.6055, 440.2596
964.0876, 434.1469
964.5697, 431.9998
965.0518, 434.7608
965.5339, 437.3879
966.0161, 439.4932
966.4982, 440.5345
966.9803, 438.9596
967.4624, 436.2215
967.9445, 434.9178
968.4266, 435.6022
968.9088, 436.2216
969.3909, 436.7975
969.8730, 436.2504
970.3551, 433.5213
970.8372, 428.8536
971.3193, 425.7257
971.8015, 424.1375
972.2836, 424.7233
972.7657, 430.0732
973.2478, 435.8416
973.7299, 435.7134
974.2120, 431.9527
974.6942, 430.1909
975.1763, 436.1820
975.6584, 438.4650
976.1405, 433.5832
976.6226, 426.6155
977.1047, 425.3428
977.5869, 429.1913
978.0690, 431.9789
978.5511, 432.7618
979.0332, 433.0889
979.5153, 433.8850
979.9974, 435.0962
980.4796, 437.3465
980.9617, 441.1129
981.4438, 441.1647
981.9259, 435.2787
982.4080, 430.1528
982.8901, 429.1507
983.3723, 430.9771
983.8544, 432.4450
984.3365, 433.2789
984.8186, 432.3394
985.3007, 425.4657
985.7828, 420.6571
986.2650, 424.4516
986.7471, 431.7705
987.2292, 433.8237
987.7113, 428.7966
988.1934, 424.6794
988.6755, 421.9533
989.1577, 420.9359
989.6398, 423.8706
990.1219, 428.0262
990.6040, 427.5572
991.0861, 421.7298
991.5682, 418.5341
992.0504, 425.2143
992.5325, 430.9371
993.0146, 430.0653
993.4967, 424.1314
993.9788, 421.7278
994.4609, 422.8490
994.9431, 424.5135
995.4252, 425.8283
995.9073, 426.6629
996.3894, 426.8393
996.8715, 426.4683
997.3536, 425.7307
997.8358, 423.1908
998.3179, 422.7041
998.8000, 425.2550
999.2821, 428.4349
999.7642, 429.5392
1000.246, 429.1277
1000.728, 430.9995
1001.211, 435.1981
1001.693, 437.5976
1002.175, 431.8415
1002.657, 426.6486
1003.139, 429.2884
1003.621, 438.5019
1004.103, 443.6987
1004.585, 444.4500
1005.068, 442.2062
1005.550, 435.8874
1006.032, 429.6840
1006.514, 431.8783
1006.996, 438.8831
1007.478, 443.4623
1007.960, 442.8279
1008.442, 441.5751
1008.924, 440.3628
1009.407, 439.7149
1009.889, 440.1401
1010.371, 441.6836
1010.853, 442.8551
1011.335, 443.6626
1011.817, 444.7028
1012.299, 447.3313
1012.781, 449.5934
1013.263, 449.5539
1013.746, 447.6093
1014.228, 445.1275
1014.710, 440.4373
1015.192, 438.9294
1015.674, 442.2892
1016.156, 447.6817
1016.638, 451.6491
1017.120, 454.0951
1017.603, 453.9032
1018.085, 450.4005
1018.567, 448.5783
1019.049, 452.9741
1019.531, 458.7582
1020.013, 463.1584
1020.495, 466.1113
1020.977, 465.7376
1021.459, 461.4194
1021.942, 459.3916
1022.424, 464.3980
1022.906, 471.1362
1023.388, 472.5299
1023.870, 470.1851
1024.352, 467.2402
1024.834, 460.7434
1025.316, 459.8790
1025.799, 468.3196
1026.281, 478.3555
1026.763, 481.3214
1027.245, 478.4165
1027.727, 478.1207
1028.209, 480.8011
1028.691, 483.2477
1029.173, 482.1528
1029.656, 481.0865
1030.138, 482.9595
1030.620, 487.1616
1031.102, 490.2851
1031.584, 492.5976
1032.066, 492.0920
1032.548, 486.9875
1033.030, 482.0020
1033.512, 485.1957
1033.995, 493.1006
1034.477, 499.9352
1034.959, 504.4172
1035.441, 507.7195
1035.923, 509.3813
1036.405, 510.7824
1036.887, 512.8979
1037.369, 515.5041
1037.851, 516.8009
1038.334, 516.7945
1038.816, 515.6859
1039.298, 511.3578
1039.780, 508.2131
1040.262, 510.0280
1040.744, 514.9245
1041.226, 519.4207
1041.708, 524.6467
1042.191, 525.1762
1042.673, 519.6722
1043.155, 513.1536
1043.637, 509.9132
1044.119, 509.5747
1044.601, 512.4996
1045.083, 518.4819
1045.565, 523.1437
1046.047, 524.1077
1046.530, 524.3957
1047.012, 524.6594
1047.494, 525.0707
1047.976, 526.3376
1048.458, 528.3315
1048.940, 529.7914
1049.422, 530.1663
1049.904, 530.6244
1050.386, 532.1148
1050.869, 534.1005
1051.351, 536.1556
1051.833, 538.3509
1052.315, 539.8065
1052.797, 540.2900
1053.279, 541.1312
1053.761, 544.2520
1054.243, 547.4806
1054.726, 545.7918
1055.208, 541.1439
1055.690, 538.7253
1056.172, 541.8004
1056.654, 545.5592
1057.136, 550.5117
1057.618, 554.3481
1058.100, 553.0664
1058.583, 547.7868
1059.065, 546.3040
1059.547, 549.1361
1060.029, 552.2775
1060.511, 552.9887
1060.993, 553.0595
1061.475, 553.6863
1061.957, 554.6315
1062.439, 554.3652
1062.922, 552.4376
1063.404, 552.3086
1063.886, 555.2188
1064.368, 559.1012
1064.850, 562.5541
1065.332, 564.8715
1065.814, 564.3802
1066.296, 559.4614
1066.778, 558.1223
1067.261, 563.6393
1067.743, 567.9184
1068.225, 565.8866
1068.707, 559.9593
1069.189, 558.2454
1069.671, 559.7993
1070.153, 561.2909
1070.635, 561.3535
1071.118, 560.9270
1071.600, 559.6273
1072.082, 558.5427
1072.564, 558.8354
1073.046, 560.5888
1073.528, 563.2729
1074.010, 566.9293
1074.492, 568.7679
1074.974, 564.5702
1075.457, 559.2989
1075.939, 557.8475
1076.421, 559.2683
1076.903, 558.8673
1077.385, 555.2975
1077.867, 552.9371
1078.349, 552.7549
1078.831, 553.3397
1079.313, 552.8204
1079.796, 551.7475
1080.278, 551.0613
1080.760, 550.8906
1081.242, 551.0312
1081.724, 552.2043
1082.206, 552.7122
1082.688, 551.7747
1083.170, 549.8323
1083.652, 547.8806
1084.135, 546.0972
1084.617, 545.7439
1085.099, 548.1160
1085.581, 549.6924
1086.063, 547.7657
1086.545, 544.4166
1087.027, 541.5580
1087.509, 539.3259
1087.992, 536.4357
1088.474, 532.7873
1088.956, 530.1055
1089.438, 529.4919
1089.920, 530.3284
1090.402, 533.9086
1090.884, 538.0901
1091.366, 538.0138
1091.849, 528.9187
1092.331, 524.2689
1092.813, 526.4124
1093.295, 528.3766
1093.777, 520.6531
1094.259, 508.6563
1094.741, 504.3276
1095.223, 507.2192
1095.705, 509.3176
1096.188, 507.3554
1096.670, 503.9885
1097.152, 498.8370
1097.634, 493.8369
1098.116, 493.7911
1098.598, 497.4225
1099.080, 497.3009
1099.562, 491.9922
1100.044, 485.6654
1100.527, 480.2030
1101.009, 475.4099
1101.491, 470.8209
1101.973, 466.6335
1102.455, 464.8219
1102.937, 465.4317
1103.419, 466.8970
1103.901, 469.5733
1104.384, 470.6406
1104.866, 464.5548
1105.348, 456.5568
1105.830, 453.3261
1106.312, 457.3969
1106.794, 459.1743
1107.276, 458.1413
1107.758, 456.6252
1108.240, 456.1232
1108.723, 455.8309
1109.205, 453.8816
1109.687, 451.0342
1110.169, 449.0220
1110.651, 449.1335
1111.133, 449.1375
1111.615, 449.3008
1112.097, 448.6080
1112.579, 445.2559
1113.062, 440.3160
1113.544, 437.9123
1114.026, 437.8674
1114.508, 438.3309
1114.990, 438.7643
1115.472, 439.0497
1115.954, 439.2940
1116.436, 439.2574
1116.919, 438.7967
1117.401, 437.8400
1117.883, 434.6043
1118.365, 428.7686
1118.847, 424.2617
1119.329, 425.4229
1119.811, 427.6845
1120.293, 427.9153
1120.776, 426.4645
1121.258, 425.0529
1121.740, 423.6445
1122.222, 422.5663
1122.704, 421.8601
1123.186, 421.6322
1123.668, 423.1626
1124.150, 424.4899
1124.632, 423.0504
1125.115, 418.1201
1125.597, 414.3433
1126.079, 411.6783
1126.561, 410.6432
1127.043, 412.0212
1127.525, 414.2144
1128.007, 415.2384
1128.489, 414.9929
1128.971, 412.6906
1129.454, 405.7429
1129.936, 404.2634
1130.418, 412.3216
1130.900, 419.4678
1131.382, 418.6553
1131.864, 412.7051
1132.346, 409.7852
1132.828, 408.9562
1133.311, 407.2311
1133.793, 401.2821
1134.275, 397.2909
1134.757, 396.9833
1135.239, 398.5225
1135.721, 400.9864
1136.203, 404.1135
1136.685, 405.9239
1137.167, 406.4413
1137.650, 406.1738
1138.132, 404.7226
1138.614, 403.3490
1139.096, 402.5114
1139.578, 402.1695
1140.060, 402.5974
1140.542, 403.8205
1141.024, 403.6670
1141.506, 401.9400
1141.989, 400.3539
1142.471, 400.7860
1142.953, 401.2641
1143.435, 399.9996
1143.917, 397.6293
1144.399, 396.3102
1144.881, 396.0807
1145.363, 397.1277
1145.846, 399.8097
1146.328, 401.6485
1146.810, 399.6738
1147.292, 395.9522
1147.774, 391.5257
1148.256, 386.7926
1148.738, 385.5651
1149.220, 388.9048
1149.703, 391.6127
1150.185, 392.0446
1150.667, 391.9092
1151.149, 394.5055
1151.631, 397.4357
1152.113, 396.7582
1152.595, 391.0817
1153.077, 387.9760
1153.559, 388.6618
1154.042, 389.8850
1154.524, 390.5502
1155.006, 390.7010
1155.488, 390.3505
1155.970, 389.5600
1156.452, 388.1769
1156.934, 385.1762
1157.416, 384.9924
1157.898, 389.9834
1158.381, 393.9958
1158.863, 393.0155
1159.345, 388.9597
1159.827, 386.8943
1160.309, 386.4178
1160.791, 386.5477
1161.273, 387.9380
1161.755, 387.9962
1162.238, 385.0897
1162.720, 382.2899
1163.202, 382.2306
1163.684, 384.2724
1164.166, 385.0476
1164.648, 384.7649
1165.130, 384.3194
1165.612, 385.2216
1166.094, 384.5307
1166.577, 379.4013
1167.059, 374.1579
1167.541, 373.6552
1168.023, 377.2603
1168.505, 379.3717
1168.987, 379.9383
1169.469, 380.1060
1169.951, 380.2965
1170.433, 380.5081
1170.916, 381.1604
1171.398, 381.5579
1171.880, 380.4881
1172.362, 378.0552
1172.844, 376.1142
1173.326, 374.8432
1173.808, 374.9425
1174.290, 378.8061
1174.773, 382.2509
1175.255, 383.1847
1175.737, 381.8331
1176.219, 377.1952
1176.701, 369.2013
1177.183, 366.1041
1177.665, 369.1308
1178.147, 373.4494
1178.630, 376.8013
1179.112, 378.6187
1179.594, 377.2954
1180.076, 374.1749
1180.558, 373.6236
1181.040, 375.7737
1181.522, 377.9680
1182.004, 379.8148
1182.486, 380.8056
1182.969, 379.4204
1183.451, 377.8569
1183.933, 378.2734
1184.415, 380.3466
1184.897, 381.6302
1185.379, 382.1964
1185.861, 380.7867
1186.343, 376.4911
1186.825, 372.6800
1187.308, 373.8561
1187.790, 376.2680
1188.272, 375.9510
1188.754, 372.8222
1189.236, 370.9274
1189.718, 370.2685
1190.200, 371.2884
1190.682, 374.7819
1191.165, 378.1328
1191.647, 378.0518
1192.129, 376.6534
1192.611, 376.0102
1193.093, 376.3174
1193.575, 378.3662
1194.057, 382.6996
1194.539, 384.5810
1195.021, 381.2650
1195.504, 376.5650
1195.986, 373.5410
1196.468, 372.3626
1196.950, 373.8848
1197.432, 378.7765
1197.914, 381.6627
1198.396, 382.3954
1198.878, 382.0468
1199.360, 380.8694
1199.843, 379.2589
1200.325, 376.5192
1200.807, 374.1971
1201.289, 374.9867
1201.771, 380.1527
1202.253, 383.8290
1202.735, 386.1171
1203.217, 386.1934
1203.700, 382.2000
1204.182, 377.4637
1204.664, 376.2371
1205.146, 376.7078
1205.628, 375.7612
1206.110, 372.1911
1206.592, 369.9255
1207.074, 368.7914
1207.557, 370.0142
1208.039, 377.8341
1208.521, 385.0750
1209.003, 381.3491
1209.485, 372.0554
1209.967, 367.2412
1210.449, 368.9823
1210.931, 371.7704
1211.413, 375.8698
1211.896, 379.3801
1212.378, 380.6693
1212.860, 381.0223
1213.342, 382.0420
1213.824, 383.0724
1214.306, 382.5329
1214.788, 379.6518
1215.270, 377.8580
1215.752, 377.3532
1216.235, 376.9180
1216.717, 374.4103
1217.199, 372.6015
1217.681, 375.6075
1218.163, 381.1555
1218.645, 383.8940
1219.127, 382.8898
1219.609, 381.8773
1220.092, 380.9405
1220.574, 380.6684
1221.056, 381.5140
1221.538, 383.2430
1222.020, 386.6556
1222.502, 390.5122
1222.984, 392.1068
1223.466, 390.9697
1223.948, 389.7530
1224.431, 388.6831
1224.913, 386.5923
1225.395, 380.1163
1225.877, 374.4896
1226.359, 375.1199
1226.841, 379.7465
1227.323, 382.5184
1227.805, 383.3197
1228.287, 382.0414
1228.770, 378.4962
1229.252, 376.6713
1229.734, 382.5108
1230.216, 388.5821
1230.698, 388.8855
1231.180, 385.3409
1231.662, 382.3601
1232.144, 379.7934
1232.627, 380.0656
1233.109, 383.4500
1233.591, 387.0620
1234.073, 390.3587
1234.555, 391.5450
1235.037, 386.9515
1235.519, 380.4463
1236.001, 380.1752
1236.484, 386.1407
1236.966, 387.5627
1237.448, 383.4945
1237.930, 379.3269
1238.412, 378.6910
1238.894, 379.0450
1239.376, 379.2472
1239.858, 379.3579
1240.340, 379.9279
1240.823, 380.7639
1241.305, 378.3366
1241.787, 372.5640
1242.269, 370.3395
1242.751, 381.9062
1243.233, 390.8095
1243.715, 387.3386
1244.197, 379.4950
1244.679, 380.9415
1245.162, 389.4129
1245.644, 391.8087
1246.126, 387.4020
1246.608, 384.3096
1247.090, 389.2225
1247.572, 392.9857
1248.054, 392.3943
1248.536, 389.7420
1249.019, 388.2401
1249.501, 387.6029
1249.983, 386.4555
1250.465, 384.8795
1250.947, 385.1430
1251.429, 391.3755
1251.911, 394.8703
1252.393, 392.7792
1252.875, 389.2256
1253.358, 390.2822
1253.840, 393.9674
1254.322, 396.0854
1254.804, 396.3482
1255.286, 395.5718
1255.768, 393.0648
1256.250, 391.2420
1256.732, 390.7319
1257.214, 390.3661
1257.697, 387.5508
1258.179, 384.5598
1258.661, 386.3107
1259.143, 392.0263
1259.625, 394.3170
1260.107, 390.2664
1260.589, 388.5619
1261.071, 390.8678
1261.554, 393.9120
1262.036, 394.2873
1262.518, 393.3693
1263.000, 392.7956
1263.482, 392.4058
1263.964, 390.8353
1264.446, 387.4269
1264.928, 385.8496
1265.411, 386.7921
1265.893, 387.7797
1266.375, 385.5372
1266.857, 383.3001
1267.339, 384.8359
1267.821, 388.5646
1268.303, 388.7385
1268.785, 384.7998
1269.267, 385.5304
1269.750, 392.0305
1270.232, 397.5892
1270.714, 395.8082
1271.196, 392.9352
1271.678, 393.3769
1272.160, 395.1678
1272.642, 394.8260
1273.124, 392.5764
1273.606, 391.5399
1274.089, 391.9608
1274.571, 393.3955
1275.053, 398.2654
1275.535, 400.5714
1276.017, 396.7997
1276.499, 391.0459
1276.981, 387.9701
1277.463, 387.5762
1277.946, 391.7652
1278.428, 399.5489
1278.910, 403.7524
1279.392, 396.8065
1279.874, 392.3254
1280.356, 393.7835
1280.838, 396.2209
1281.320, 392.7954
1281.802, 386.9258
1282.285, 386.7104
1282.767, 390.9499
1283.249, 392.8797
1283.731, 387.6724
1284.213, 386.8120
1284.695, 392.3723
1285.177, 397.7912
1285.659, 396.0577
1286.141, 391.4640
1286.624, 389.5705
1287.106, 389.3411
1287.588, 386.8484
1288.070, 380.0338
1288.552, 379.3721
1289.034, 385.9399
1289.516, 392.1243
1289.998, 390.9840
1290.481, 388.2245
1290.963, 388.3666
1291.445, 390.0203
1291.927, 390.3023
1292.409, 389.0042
1292.891, 390.7939
1293.373, 395.4878
1293.855, 398.8081
1294.338, 396.0853
1294.820, 393.9078
1295.302, 395.9322
1295.784, 399.5067
1296.266, 403.4586
1296.748, 407.2180
1297.230, 405.5747
1297.712, 399.7911
1298.194, 395.3698
1298.677, 394.7003
1299.159, 396.0124
1299.641, 400.2466
1300.123, 403.6229
1300.605, 401.8476
1301.087, 397.8618
1301.569, 399.9037
1302.051, 405.1752
1302.533, 407.3949
1303.016, 404.7503
##END=



