##NAMES=Richelsdorfite
##RRUFFID=R130552
##IDEAL CHEMISTRY=Ca_2_Cu^2+^_5_Sb^5+^(As^5+^O_4_)_4_(OH)_6_Cl&#183;6H_2_O
##LOCALITY=Silberberg, Brixlegg, Austria
##OWNER=RRUFF
##SOURCE=Bob Jenkins
##DESCRIPTION=Platy blue crystals, with a 2-fold twin around [110]
##STATUS=The identification of this mineral has been confirmed only by single crystal X-ray diffraction.
##URL=rruff.info/R130552
8.975323e+001, 0.000000e+000
9.023535e+001, 5.858364e+001
9.071747e+001, 5.797969e+001
9.119958e+001, 5.754048e+001
9.168170e+001, 5.840001e+001
9.216382e+001, 5.913710e+001
9.264594e+001, 5.964573e+001
9.312805e+001, 6.005627e+001
9.361017e+001, 6.030641e+001
9.409229e+001, 5.990840e+001
9.457440e+001, 5.818134e+001
9.505651e+001, 5.699140e+001
9.553863e+001, 5.670610e+001
9.602074e+001, 5.675024e+001
9.650286e+001, 5.657403e+001
9.698498e+001, 5.590254e+001
9.746709e+001, 5.482651e+001
9.794921e+001, 5.413472e+001
9.843133e+001, 5.401881e+001
9.891344e+001, 5.395599e+001
9.939556e+001, 5.375543e+001
9.987768e+001, 5.347712e+001
1.003598e+002, 5.331427e+001
1.008419e+002, 5.339091e+001
1.013240e+002, 5.368307e+001
1.018061e+002, 5.398491e+001
1.022883e+002, 5.420018e+001
1.027704e+002, 5.447827e+001
1.032525e+002, 5.502790e+001
1.037346e+002, 5.591388e+001
1.042167e+002, 5.673222e+001
1.046988e+002, 5.704931e+001
1.051810e+002, 5.711738e+001
1.056631e+002, 5.732011e+001
1.061452e+002, 5.795915e+001
1.066273e+002, 5.888606e+001
1.071094e+002, 5.946272e+001
1.075915e+002, 5.935026e+001
1.080737e+002, 5.928302e+001
1.085558e+002, 5.953143e+001
1.090379e+002, 6.006426e+001
1.095200e+002, 6.077792e+001
1.100021e+002, 6.165551e+001
1.104842e+002, 6.278513e+001
1.109664e+002, 6.358488e+001
1.114485e+002, 6.385281e+001
1.119306e+002, 6.399155e+001
1.124127e+002, 6.415337e+001
1.128948e+002, 6.437392e+001
1.133769e+002, 6.462794e+001
1.138591e+002, 6.489243e+001
1.143412e+002, 6.533205e+001
1.148233e+002, 6.543847e+001
1.153054e+002, 6.506551e+001
1.157875e+002, 6.444618e+001
1.162696e+002, 6.379339e+001
1.167517e+002, 6.318011e+001
1.172339e+002, 6.256815e+001
1.177160e+002, 6.183717e+001
1.181981e+002, 6.083013e+001
1.186802e+002, 6.002780e+001
1.191623e+002, 5.972173e+001
1.196444e+002, 5.975331e+001
1.201266e+002, 5.967470e+001
1.206087e+002, 5.924840e+001
1.210908e+002, 5.861464e+001
1.215729e+002, 5.810332e+001
1.220550e+002, 5.777770e+001
1.225371e+002, 5.746545e+001
1.230193e+002, 5.702557e+001
1.235014e+002, 5.644904e+001
1.239835e+002, 5.581420e+001
1.244656e+002, 5.509700e+001
1.249477e+002, 5.436431e+001
1.254298e+002, 5.367315e+001
1.259120e+002, 5.305162e+001
1.263941e+002, 5.248156e+001
1.268762e+002, 5.191611e+001
1.273583e+002, 5.128122e+001
1.278404e+002, 5.079100e+001
1.283225e+002, 5.066322e+001
1.288047e+002, 5.066177e+001
1.292868e+002, 5.046072e+001
1.297689e+002, 4.982609e+001
1.302510e+002, 4.879456e+001
1.307331e+002, 4.790281e+001
1.312152e+002, 4.721469e+001
1.316974e+002, 4.660990e+001
1.321795e+002, 4.616076e+001
1.326616e+002, 4.578811e+001
1.331437e+002, 4.532850e+001
1.336258e+002, 4.462482e+001
1.341079e+002, 4.362186e+001
1.345901e+002, 4.270701e+001
1.350722e+002, 4.183168e+001
1.355543e+002, 4.105836e+001
1.360364e+002, 4.044073e+001
1.365185e+002, 3.997712e+001
1.370006e+002, 3.962160e+001
1.374828e+002, 3.937216e+001
1.379649e+002, 3.927893e+001
1.384470e+002, 3.896489e+001
1.389291e+002, 3.818703e+001
1.394112e+002, 3.726344e+001
1.398933e+002, 3.654205e+001
1.403755e+002, 3.609724e+001
1.408576e+002, 3.587622e+001
1.413397e+002, 3.595532e+001
1.418218e+002, 3.631214e+001
1.423039e+002, 3.649322e+001
1.427860e+002, 3.619677e+001
1.432681e+002, 3.554725e+001
1.437503e+002, 3.499620e+001
1.442324e+002, 3.467555e+001
1.447145e+002, 3.445161e+001
1.451966e+002, 3.417879e+001
1.456787e+002, 3.385665e+001
1.461608e+002, 3.357201e+001
1.466430e+002, 3.340985e+001
1.471251e+002, 3.338054e+001
1.476072e+002, 3.337065e+001
1.480893e+002, 3.340630e+001
1.485714e+002, 3.342498e+001
1.490535e+002, 3.341718e+001
1.495357e+002, 3.337493e+001
1.500178e+002, 3.324836e+001
1.504999e+002, 3.290400e+001
1.509820e+002, 3.208178e+001
1.514641e+002, 3.162771e+001
1.519462e+002, 3.182649e+001
1.524284e+002, 3.222881e+001
1.529105e+002, 3.253189e+001
1.533926e+002, 3.261326e+001
1.538747e+002, 3.249017e+001
1.543568e+002, 3.219612e+001
1.548389e+002, 3.146205e+001
1.553211e+002, 3.087448e+001
1.558032e+002, 3.052106e+001
1.562853e+002, 3.030854e+001
1.567674e+002, 3.014232e+001
1.572495e+002, 2.997854e+001
1.577316e+002, 2.980995e+001
1.582138e+002, 2.960272e+001
1.586959e+002, 2.922971e+001
1.591780e+002, 2.896214e+001
1.596601e+002, 2.883492e+001
1.601422e+002, 2.886022e+001
1.606243e+002, 2.913118e+001
1.611065e+002, 2.981281e+001
1.615886e+002, 3.070443e+001
1.620707e+002, 3.096590e+001
1.625528e+002, 3.004917e+001
1.630349e+002, 2.908184e+001
1.635170e+002, 2.876538e+001
1.639991e+002, 2.904285e+001
1.644813e+002, 2.937463e+001
1.649634e+002, 2.949540e+001
1.654455e+002, 2.941257e+001
1.659276e+002, 2.917488e+001
1.664097e+002, 2.869611e+001
1.668918e+002, 2.813396e+001
1.673740e+002, 2.761274e+001
1.678561e+002, 2.710128e+001
1.683382e+002, 2.678413e+001
1.688203e+002, 2.689907e+001
1.693024e+002, 2.724301e+001
1.697845e+002, 2.761416e+001
1.702667e+002, 2.802743e+001
1.707488e+002, 2.836823e+001
1.712309e+002, 2.828461e+001
1.717130e+002, 2.740658e+001
1.721951e+002, 2.679708e+001
1.726772e+002, 2.706171e+001
1.731594e+002, 2.777004e+001
1.736415e+002, 2.830523e+001
1.741236e+002, 2.826603e+001
1.746057e+002, 2.776200e+001
1.750878e+002, 2.746384e+001
1.755699e+002, 2.761471e+001
1.760521e+002, 2.770986e+001
1.765342e+002, 2.753326e+001
1.770163e+002, 2.720947e+001
1.774984e+002, 2.699061e+001
1.779805e+002, 2.709860e+001
1.784626e+002, 2.753859e+001
1.789448e+002, 2.761250e+001
1.794269e+002, 2.698616e+001
1.799090e+002, 2.632612e+001
1.803911e+002, 2.574060e+001
1.808732e+002, 2.527579e+001
1.813553e+002, 2.499329e+001
1.818375e+002, 2.496747e+001
1.823196e+002, 2.523778e+001
1.828017e+002, 2.537743e+001
1.832838e+002, 2.538858e+001
1.837659e+002, 2.530293e+001
1.842480e+002, 2.507564e+001
1.847301e+002, 2.473906e+001
1.852123e+002, 2.441407e+001
1.856944e+002, 2.420508e+001
1.861765e+002, 2.412810e+001
1.866586e+002, 2.414648e+001
1.871407e+002, 2.439993e+001
1.876228e+002, 2.464702e+001
1.881050e+002, 2.466092e+001
1.885871e+002, 2.442694e+001
1.890692e+002, 2.417902e+001
1.895513e+002, 2.414431e+001
1.900334e+002, 2.432328e+001
1.905155e+002, 2.454009e+001
1.909977e+002, 2.491663e+001
1.914798e+002, 2.525784e+001
1.919619e+002, 2.529606e+001
1.924440e+002, 2.495996e+001
1.929261e+002, 2.453752e+001
1.934082e+002, 2.428707e+001
1.938904e+002, 2.416856e+001
1.943725e+002, 2.409951e+001
1.948546e+002, 2.404743e+001
1.953367e+002, 2.402898e+001
1.958188e+002, 2.410111e+001
1.963009e+002, 2.432219e+001
1.967831e+002, 2.451358e+001
1.972652e+002, 2.452891e+001
1.977473e+002, 2.441408e+001
1.982294e+002, 2.427481e+001
1.987115e+002, 2.411027e+001
1.991936e+002, 2.395123e+001
1.996758e+002, 2.397344e+001
2.001579e+002, 2.442125e+001
2.006400e+002, 2.469907e+001
2.011221e+002, 2.433709e+001
2.016042e+002, 2.355723e+001
2.020863e+002, 2.291610e+001
2.025685e+002, 2.289504e+001
2.030506e+002, 2.344609e+001
2.035327e+002, 2.374385e+001
2.040148e+002, 2.356564e+001
2.044969e+002, 2.334089e+001
2.049790e+002, 2.322971e+001
2.054612e+002, 2.320717e+001
2.059433e+002, 2.318519e+001
2.064254e+002, 2.308867e+001
2.069075e+002, 2.291284e+001
2.073896e+002, 2.275544e+001
2.078717e+002, 2.259826e+001
2.083539e+002, 2.247809e+001
2.088360e+002, 2.237204e+001
2.093181e+002, 2.230892e+001
2.098002e+002, 2.236773e+001
2.102823e+002, 2.265724e+001
2.107644e+002, 2.323260e+001
2.112466e+002, 2.352371e+001
2.117287e+002, 2.323575e+001
2.122108e+002, 2.296650e+001
2.126929e+002, 2.300380e+001
2.131750e+002, 2.329282e+001
2.136571e+002, 2.358781e+001
2.141393e+002, 2.366496e+001
2.146214e+002, 2.349590e+001
2.151035e+002, 2.328423e+001
2.155856e+002, 2.289685e+001
2.160677e+002, 2.259062e+001
2.165498e+002, 2.255156e+001
2.170320e+002, 2.274072e+001
2.175141e+002, 2.293628e+001
2.179962e+002, 2.290954e+001
2.184783e+002, 2.261319e+001
2.189604e+002, 2.260560e+001
2.194425e+002, 2.319382e+001
2.199247e+002, 2.378634e+001
2.204068e+002, 2.400813e+001
2.208889e+002, 2.385905e+001
2.213710e+002, 2.358427e+001
2.218531e+002, 2.338376e+001
2.223352e+002, 2.326260e+001
2.228174e+002, 2.308630e+001
2.232995e+002, 2.282199e+001
2.237816e+002, 2.252744e+001
2.242637e+002, 2.223211e+001
2.247458e+002, 2.193986e+001
2.252279e+002, 2.166803e+001
2.257100e+002, 2.140973e+001
2.261922e+002, 2.118439e+001
2.266743e+002, 2.107596e+001
2.271564e+002, 2.125199e+001
2.276385e+002, 2.144675e+001
2.281206e+002, 2.139197e+001
2.286027e+002, 2.107010e+001
2.290849e+002, 2.068249e+001
2.295670e+002, 2.030243e+001
2.300491e+002, 1.997362e+001
2.305312e+002, 1.981489e+001
2.310133e+002, 1.999772e+001
2.314954e+002, 2.027734e+001
2.319776e+002, 2.035856e+001
2.324597e+002, 2.021473e+001
2.329418e+002, 2.005993e+001
2.334239e+002, 2.005281e+001
2.339060e+002, 2.011858e+001
2.343881e+002, 2.014323e+001
2.348703e+002, 2.007412e+001
2.353524e+002, 1.997213e+001
2.358345e+002, 1.991279e+001
2.363166e+002, 1.989618e+001
2.367987e+002, 1.992184e+001
2.372808e+002, 2.006729e+001
2.377630e+002, 2.023120e+001
2.382451e+002, 2.029100e+001
2.387272e+002, 2.018705e+001
2.392093e+002, 1.999467e+001
2.396914e+002, 1.981309e+001
2.401735e+002, 1.962151e+001
2.406557e+002, 1.950894e+001
2.411378e+002, 1.961178e+001
2.416199e+002, 1.976425e+001
2.421020e+002, 1.979331e+001
2.425841e+002, 1.962115e+001
2.430662e+002, 1.936255e+001
2.435484e+002, 1.919920e+001
2.440305e+002, 1.912772e+001
2.445126e+002, 1.916988e+001
2.449947e+002, 1.955713e+001
2.454768e+002, 1.993833e+001
2.459589e+002, 1.996015e+001
2.464410e+002, 1.948932e+001
2.469232e+002, 1.879095e+001
2.474053e+002, 1.828054e+001
2.478874e+002, 1.793609e+001
2.483695e+002, 1.786566e+001
2.488516e+002, 1.832660e+001
2.493337e+002, 1.889053e+001
2.498159e+002, 1.922622e+001
2.502980e+002, 1.923395e+001
2.507801e+002, 1.905392e+001
2.512622e+002, 1.890876e+001
2.517443e+002, 1.880424e+001
2.522264e+002, 1.872679e+001
2.527086e+002, 1.864793e+001
2.531907e+002, 1.860681e+001
2.536728e+002, 1.863495e+001
2.541549e+002, 1.873900e+001
2.546370e+002, 1.889811e+001
2.551191e+002, 1.911026e+001
2.556013e+002, 1.950150e+001
2.560834e+002, 1.965307e+001
2.565655e+002, 1.946856e+001
2.570476e+002, 1.915830e+001
2.575297e+002, 1.876080e+001
2.580118e+002, 1.833163e+001
2.584940e+002, 1.802826e+001
2.589761e+002, 1.810699e+001
2.594582e+002, 1.883513e+001
2.599403e+002, 1.926500e+001
2.604224e+002, 1.931576e+001
2.609045e+002, 1.920432e+001
2.613867e+002, 1.899689e+001
2.618688e+002, 1.873725e+001
2.623509e+002, 1.851229e+001
2.628330e+002, 1.844517e+001
2.633151e+002, 1.864701e+001
2.637972e+002, 1.858218e+001
2.642794e+002, 1.798002e+001
2.647615e+002, 1.739141e+001
2.652436e+002, 1.710699e+001
2.657257e+002, 1.713935e+001
2.662078e+002, 1.735975e+001
2.666899e+002, 1.767302e+001
2.671721e+002, 1.812174e+001
2.676542e+002, 1.836068e+001
2.681363e+002, 1.830066e+001
2.686184e+002, 1.816033e+001
2.691005e+002, 1.802814e+001
2.695826e+002, 1.790996e+001
2.700648e+002, 1.777758e+001
2.705469e+002, 1.760477e+001
2.710290e+002, 1.739057e+001
2.715111e+002, 1.719544e+001
2.719932e+002, 1.690827e+001
2.724753e+002, 1.674134e+001
2.729575e+002, 1.690199e+001
2.734396e+002, 1.727574e+001
2.739217e+002, 1.753291e+001
2.744038e+002, 1.742082e+001
2.748859e+002, 1.698768e+001
2.753680e+002, 1.684255e+001
2.758501e+002, 1.721874e+001
2.763322e+002, 1.755646e+001
2.768144e+002, 1.759606e+001
2.772965e+002, 1.745365e+001
2.777786e+002, 1.742452e+001
2.782607e+002, 1.769649e+001
2.787428e+002, 1.816342e+001
2.792249e+002, 1.835624e+001
2.797071e+002, 1.816689e+001
2.801892e+002, 1.789638e+001
2.806713e+002, 1.757062e+001
2.811534e+002, 1.721931e+001
2.816355e+002, 1.685294e+001
2.821176e+002, 1.644993e+001
2.825998e+002, 1.611796e+001
2.830819e+002, 1.619098e+001
2.835640e+002, 1.690697e+001
2.840461e+002, 1.750920e+001
2.845282e+002, 1.790664e+001
2.850103e+002, 1.808366e+001
2.854925e+002, 1.792248e+001
2.859746e+002, 1.734401e+001
2.864567e+002, 1.666682e+001
2.869388e+002, 1.648071e+001
2.874209e+002, 1.696045e+001
2.879030e+002, 1.728889e+001
2.883852e+002, 1.727463e+001
2.888673e+002, 1.706837e+001
2.893494e+002, 1.682607e+001
2.898315e+002, 1.658044e+001
2.903136e+002, 1.634387e+001
2.907957e+002, 1.610205e+001
2.912779e+002, 1.583614e+001
2.917600e+002, 1.574968e+001
2.922421e+002, 1.610808e+001
2.927242e+002, 1.651692e+001
2.932063e+002, 1.654347e+001
2.936884e+002, 1.613747e+001
2.941706e+002, 1.562764e+001
2.946527e+002, 1.527957e+001
2.951348e+002, 1.510866e+001
2.956169e+002, 1.505849e+001
2.960990e+002, 1.519121e+001
2.965811e+002, 1.539828e+001
2.970633e+002, 1.560236e+001
2.975454e+002, 1.579996e+001
2.980275e+002, 1.602965e+001
2.985096e+002, 1.636153e+001
2.989917e+002, 1.674641e+001
2.994738e+002, 1.693057e+001
2.999560e+002, 1.682320e+001
3.004381e+002, 1.660309e+001
3.009202e+002, 1.628656e+001
3.014023e+002, 1.591462e+001
3.018844e+002, 1.567219e+001
3.023665e+002, 1.568691e+001
3.028487e+002, 1.587839e+001
3.033308e+002, 1.598295e+001
3.038129e+002, 1.591109e+001
3.042950e+002, 1.590359e+001
3.047771e+002, 1.620325e+001
3.052592e+002, 1.665915e+001
3.057414e+002, 1.683335e+001
3.062235e+002, 1.648831e+001
3.067056e+002, 1.592018e+001
3.071877e+002, 1.573444e+001
3.076698e+002, 1.600757e+001
3.081519e+002, 1.624910e+001
3.086341e+002, 1.624238e+001
3.091162e+002, 1.611379e+001
3.095983e+002, 1.612039e+001
3.100804e+002, 1.636046e+001
3.105625e+002, 1.659827e+001
3.110446e+002, 1.641265e+001
3.115268e+002, 1.577594e+001
3.120089e+002, 1.542070e+001
3.124910e+002, 1.574116e+001
3.129731e+002, 1.630198e+001
3.134552e+002, 1.657718e+001
3.139373e+002, 1.648494e+001
3.144195e+002, 1.628065e+001
3.149016e+002, 1.618380e+001
3.153837e+002, 1.618806e+001
3.158658e+002, 1.617062e+001
3.163479e+002, 1.607757e+001
3.168300e+002, 1.599053e+001
3.173121e+002, 1.601851e+001
3.177943e+002, 1.615055e+001
3.182764e+002, 1.620623e+001
3.187585e+002, 1.601129e+001
3.192406e+002, 1.564720e+001
3.197227e+002, 1.549979e+001
3.202048e+002, 1.578544e+001
3.206870e+002, 1.606504e+001
3.211691e+002, 1.598831e+001
3.216512e+002, 1.567664e+001
3.221333e+002, 1.559773e+001
3.226154e+002, 1.604417e+001
3.230975e+002, 1.676722e+001
3.235797e+002, 1.711673e+001
3.240618e+002, 1.699026e+001
3.245439e+002, 1.680142e+001
3.250260e+002, 1.672825e+001
3.255081e+002, 1.668795e+001
3.259902e+002, 1.645545e+001
3.264724e+002, 1.590553e+001
3.269545e+002, 1.534812e+001
3.274366e+002, 1.533276e+001
3.279187e+002, 1.593421e+001
3.284008e+002, 1.649432e+001
3.288829e+002, 1.690735e+001
3.293651e+002, 1.720959e+001
3.298472e+002, 1.745001e+001
3.303293e+002, 1.763708e+001
3.308114e+002, 1.772194e+001
3.312935e+002, 1.760565e+001
3.317756e+002, 1.726925e+001
3.322578e+002, 1.710922e+001
3.327399e+002, 1.727936e+001
3.332220e+002, 1.752287e+001
3.337041e+002, 1.768196e+001
3.341862e+002, 1.774442e+001
3.346683e+002, 1.771880e+001
3.351505e+002, 1.757402e+001
3.356326e+002, 1.734648e+001
3.361147e+002, 1.728910e+001
3.365968e+002, 1.756489e+001
3.370789e+002, 1.781809e+001
3.375610e+002, 1.787340e+001
3.380432e+002, 1.779156e+001
3.385253e+002, 1.772562e+001
3.390074e+002, 1.775296e+001
3.394895e+002, 1.782388e+001
3.399716e+002, 1.779287e+001
3.404537e+002, 1.757296e+001
3.409359e+002, 1.742398e+001
3.414180e+002, 1.746908e+001
3.419001e+002, 1.758542e+001
3.423822e+002, 1.758761e+001
3.428643e+002, 1.742244e+001
3.433464e+002, 1.723641e+001
3.438286e+002, 1.726584e+001
3.443107e+002, 1.768834e+001
3.447928e+002, 1.776300e+001
3.452749e+002, 1.710485e+001
3.457570e+002, 1.636103e+001
3.462391e+002, 1.605451e+001
3.467213e+002, 1.620642e+001
3.472034e+002, 1.649092e+001
3.476855e+002, 1.662145e+001
3.481676e+002, 1.658752e+001
3.486497e+002, 1.663388e+001
3.491318e+002, 1.692825e+001
3.496140e+002, 1.712260e+001
3.500961e+002, 1.701189e+001
3.505782e+002, 1.668135e+001
3.510603e+002, 1.632960e+001
3.515424e+002, 1.606837e+001
3.520245e+002, 1.588584e+001
3.525067e+002, 1.573187e+001
3.529888e+002, 1.560155e+001
3.534709e+002, 1.550583e+001
3.539530e+002, 1.545842e+001
3.544351e+002, 1.544166e+001
3.549172e+002, 1.543609e+001
3.553994e+002, 1.543489e+001
3.558815e+002, 1.544373e+001
3.563636e+002, 1.548183e+001
3.568457e+002, 1.563690e+001
3.573278e+002, 1.562589e+001
3.578099e+002, 1.526955e+001
3.582920e+002, 1.489639e+001
3.587741e+002, 1.475912e+001
3.592563e+002, 1.485700e+001
3.597384e+002, 1.500887e+001
3.602205e+002, 1.504483e+001
3.607026e+002, 1.495921e+001
3.611847e+002, 1.480578e+001
3.616668e+002, 1.452598e+001
3.621490e+002, 1.424457e+001
3.626311e+002, 1.396961e+001
3.631132e+002, 1.372541e+001
3.635953e+002, 1.354530e+001
3.640774e+002, 1.344603e+001
3.645595e+002, 1.343372e+001
3.650417e+002, 1.354490e+001
3.655238e+002, 1.396267e+001
3.660059e+002, 1.424954e+001
3.664880e+002, 1.431903e+001
3.669701e+002, 1.425930e+001
3.674522e+002, 1.414162e+001
3.679344e+002, 1.399355e+001
3.684165e+002, 1.382442e+001
3.688986e+002, 1.362374e+001
3.693807e+002, 1.331991e+001
3.698628e+002, 1.318990e+001
3.703449e+002, 1.338088e+001
3.708271e+002, 1.361933e+001
3.713092e+002, 1.382087e+001
3.717913e+002, 1.394740e+001
3.722734e+002, 1.394015e+001
3.727555e+002, 1.366456e+001
3.732376e+002, 1.313871e+001
3.737198e+002, 1.299353e+001
3.742019e+002, 1.368067e+001
3.746840e+002, 1.419710e+001
3.751661e+002, 1.407544e+001
3.756482e+002, 1.360927e+001
3.761303e+002, 1.326034e+001
3.766125e+002, 1.326318e+001
3.770946e+002, 1.348009e+001
3.775767e+002, 1.361289e+001
3.780588e+002, 1.364269e+001
3.785409e+002, 1.363989e+001
3.790230e+002, 1.362412e+001
3.795052e+002, 1.358371e+001
3.799873e+002, 1.351263e+001
3.804694e+002, 1.340928e+001
3.809515e+002, 1.326115e+001
3.814336e+002, 1.300081e+001
3.819157e+002, 1.263269e+001
3.823979e+002, 1.243124e+001
3.828800e+002, 1.253244e+001
3.833621e+002, 1.269588e+001
3.838442e+002, 1.272918e+001
3.843263e+002, 1.267322e+001
3.848084e+002, 1.268205e+001
3.852906e+002, 1.289283e+001
3.857727e+002, 1.321587e+001
3.862548e+002, 1.346140e+001
3.867369e+002, 1.363171e+001
3.872190e+002, 1.371294e+001
3.877011e+002, 1.368048e+001
3.881833e+002, 1.355427e+001
3.886654e+002, 1.332549e+001
3.891475e+002, 1.290492e+001
3.896296e+002, 1.254171e+001
3.901117e+002, 1.252305e+001
3.905938e+002, 1.280175e+001
3.910760e+002, 1.300473e+001
3.915581e+002, 1.299090e+001
3.920402e+002, 1.287180e+001
3.925223e+002, 1.279952e+001
3.930044e+002, 1.277553e+001
3.934865e+002, 1.276109e+001
3.939687e+002, 1.276683e+001
3.944508e+002, 1.276472e+001
3.949329e+002, 1.267810e+001
3.954150e+002, 1.248353e+001
3.958971e+002, 1.233059e+001
3.963792e+002, 1.235241e+001
3.968614e+002, 1.254765e+001
3.973435e+002, 1.279170e+001
3.978256e+002, 1.320666e+001
3.983077e+002, 1.356003e+001
3.987898e+002, 1.367818e+001
3.992719e+002, 1.359927e+001
3.997540e+002, 1.346011e+001
4.002361e+002, 1.331594e+001
4.007183e+002, 1.317666e+001
4.012004e+002, 1.307581e+001
4.016825e+002, 1.302241e+001
4.021646e+002, 1.298379e+001
4.026467e+002, 1.295833e+001
4.031288e+002, 1.294294e+001
4.036110e+002, 1.297742e+001
4.040931e+002, 1.305910e+001
4.045752e+002, 1.305248e+001
4.050573e+002, 1.276206e+001
4.055394e+002, 1.208031e+001
4.060215e+002, 1.168030e+001
4.065037e+002, 1.173718e+001
4.069858e+002, 1.187085e+001
4.074679e+002, 1.190311e+001
4.079500e+002, 1.185612e+001
4.084321e+002, 1.183372e+001
4.089142e+002, 1.190478e+001
4.093964e+002, 1.204188e+001
4.098785e+002, 1.211770e+001
4.103606e+002, 1.203256e+001
4.108427e+002, 1.201547e+001
4.113248e+002, 1.217875e+001
4.118069e+002, 1.236629e+001
4.122891e+002, 1.240491e+001
4.127712e+002, 1.226076e+001
4.132533e+002, 1.206435e+001
4.137354e+002, 1.200167e+001
4.142175e+002, 1.212356e+001
4.146996e+002, 1.217359e+001
4.151818e+002, 1.200553e+001
4.156639e+002, 1.190125e+001
4.161460e+002, 1.204186e+001
4.166281e+002, 1.233981e+001
4.171102e+002, 1.258023e+001
4.175923e+002, 1.263241e+001
4.180745e+002, 1.252309e+001
4.185566e+002, 1.230470e+001
4.190387e+002, 1.185420e+001
4.195208e+002, 1.157646e+001
4.200029e+002, 1.172660e+001
4.204850e+002, 1.202440e+001
4.209672e+002, 1.221829e+001
4.214493e+002, 1.224693e+001
4.219314e+002, 1.222129e+001
4.224135e+002, 1.224111e+001
4.228956e+002, 1.230539e+001
4.233777e+002, 1.240394e+001
4.238599e+002, 1.259144e+001
4.243420e+002, 1.273200e+001
4.248241e+002, 1.269717e+001
4.253062e+002, 1.252853e+001
4.257883e+002, 1.237517e+001
4.262704e+002, 1.230338e+001
4.267526e+002, 1.228074e+001
4.272347e+002, 1.227961e+001
4.277168e+002, 1.230350e+001
4.281989e+002, 1.227471e+001
4.286810e+002, 1.209540e+001
4.291631e+002, 1.186732e+001
4.296453e+002, 1.181675e+001
4.301274e+002, 1.202274e+001
4.306095e+002, 1.222805e+001
4.310916e+002, 1.232129e+001
4.315737e+002, 1.232150e+001
4.320558e+002, 1.221675e+001
4.325380e+002, 1.198163e+001
4.330201e+002, 1.180925e+001
4.335022e+002, 1.197324e+001
4.339843e+002, 1.253679e+001
4.344664e+002, 1.291835e+001
4.349485e+002, 1.297677e+001
4.354307e+002, 1.295153e+001
4.359128e+002, 1.300713e+001
4.363949e+002, 1.311979e+001
4.368770e+002, 1.315837e+001
4.373591e+002, 1.303080e+001
4.378412e+002, 1.280375e+001
4.383234e+002, 1.273494e+001
4.388055e+002, 1.301546e+001
4.392876e+002, 1.321144e+001
4.397697e+002, 1.321570e+001
4.402518e+002, 1.316729e+001
4.407339e+002, 1.317901e+001
4.412160e+002, 1.328169e+001
4.416982e+002, 1.346996e+001
4.421803e+002, 1.375964e+001
4.426624e+002, 1.418493e+001
4.431445e+002, 1.446598e+001
4.436266e+002, 1.446150e+001
4.441087e+002, 1.445651e+001
4.445909e+002, 1.453535e+001
4.450730e+002, 1.467213e+001
4.455551e+002, 1.481418e+001
4.460372e+002, 1.493307e+001
4.465193e+002, 1.504605e+001
4.470014e+002, 1.520928e+001
4.474836e+002, 1.547115e+001
4.479657e+002, 1.563741e+001
4.484478e+002, 1.559998e+001
4.489299e+002, 1.550824e+001
4.494120e+002, 1.544309e+001
4.498941e+002, 1.541316e+001
4.503763e+002, 1.539529e+001
4.508584e+002, 1.537984e+001
4.513405e+002, 1.536333e+001
4.518226e+002, 1.528806e+001
4.523047e+002, 1.505780e+001
4.527868e+002, 1.500889e+001
4.532690e+002, 1.551423e+001
4.537511e+002, 1.628633e+001
4.542332e+002, 1.693440e+001
4.547153e+002, 1.736236e+001
4.551974e+002, 1.767353e+001
4.556795e+002, 1.789828e+001
4.561617e+002, 1.806404e+001
4.566438e+002, 1.830630e+001
4.571259e+002, 1.868531e+001
4.576080e+002, 1.910731e+001
4.580901e+002, 1.942884e+001
4.585722e+002, 1.964774e+001
4.590544e+002, 1.994731e+001
4.595365e+002, 2.064170e+001
4.600186e+002, 2.122578e+001
4.605007e+002, 2.109585e+001
4.609828e+002, 2.036008e+001
4.614649e+002, 1.973314e+001
4.619471e+002, 1.967103e+001
4.624292e+002, 2.003133e+001
4.629113e+002, 2.022203e+001
4.633934e+002, 2.026544e+001
4.638755e+002, 2.012552e+001
4.643576e+002, 1.964903e+001
4.648398e+002, 1.906589e+001
4.653219e+002, 1.859814e+001
4.658040e+002, 1.829254e+001
4.662861e+002, 1.809398e+001
4.667682e+002, 1.797489e+001
4.672503e+002, 1.796861e+001
4.677325e+002, 1.770166e+001
4.682146e+002, 1.670194e+001
4.686967e+002, 1.594644e+001
4.691788e+002, 1.582550e+001
4.696609e+002, 1.608344e+001
4.701430e+002, 1.636239e+001
4.706252e+002, 1.651012e+001
4.711073e+002, 1.654200e+001
4.715894e+002, 1.645242e+001
4.720715e+002, 1.619707e+001
4.725536e+002, 1.601771e+001
4.730357e+002, 1.604680e+001
4.735179e+002, 1.607857e+001
4.740000e+002, 1.596189e+001
4.744821e+002, 1.573204e+001
4.749642e+002, 1.555327e+001
4.754463e+002, 1.558118e+001
4.759284e+002, 1.570603e+001
4.764106e+002, 1.567239e+001
4.768927e+002, 1.545708e+001
4.773748e+002, 1.522150e+001
4.778569e+002, 1.495306e+001
4.783390e+002, 1.476425e+001
4.788211e+002, 1.488003e+001
4.793033e+002, 1.543413e+001
4.797854e+002, 1.583244e+001
4.802675e+002, 1.559834e+001
4.807496e+002, 1.505214e+001
4.812317e+002, 1.483330e+001
4.817138e+002, 1.506711e+001
4.821959e+002, 1.530997e+001
4.826780e+002, 1.513512e+001
4.831602e+002, 1.454872e+001
4.836423e+002, 1.415133e+001
4.841244e+002, 1.406959e+001
4.846065e+002, 1.402695e+001
4.850886e+002, 1.393825e+001
4.855707e+002, 1.380584e+001
4.860529e+002, 1.363009e+001
4.865350e+002, 1.341139e+001
4.870171e+002, 1.318267e+001
4.874992e+002, 1.299239e+001
4.879813e+002, 1.281196e+001
4.884634e+002, 1.275369e+001
4.889456e+002, 1.298348e+001
4.894277e+002, 1.315681e+001
4.899098e+002, 1.303354e+001
4.903919e+002, 1.271998e+001
4.908740e+002, 1.248502e+001
4.913561e+002, 1.250250e+001
4.918383e+002, 1.267176e+001
4.923204e+002, 1.270280e+001
4.928025e+002, 1.252489e+001
4.932846e+002, 1.240442e+001
4.937667e+002, 1.249538e+001
4.942488e+002, 1.259157e+001
4.947310e+002, 1.252816e+001
4.952131e+002, 1.231127e+001
4.956952e+002, 1.210505e+001
4.961773e+002, 1.205154e+001
4.966594e+002, 1.209338e+001
4.971415e+002, 1.206699e+001
4.976237e+002, 1.195455e+001
4.981058e+002, 1.183975e+001
4.985879e+002, 1.173575e+001
4.990700e+002, 1.167349e+001
4.995521e+002, 1.171589e+001
5.000342e+002, 1.191070e+001
5.005164e+002, 1.210079e+001
5.009985e+002, 1.223251e+001
5.014806e+002, 1.230174e+001
5.019627e+002, 1.228209e+001
5.024448e+002, 1.216688e+001
5.029269e+002, 1.203646e+001
5.034091e+002, 1.196525e+001
5.038912e+002, 1.195544e+001
5.043733e+002, 1.195507e+001
5.048554e+002, 1.194549e+001
5.053375e+002, 1.196463e+001
5.058196e+002, 1.204555e+001
5.063018e+002, 1.215804e+001
5.067839e+002, 1.228297e+001
5.072660e+002, 1.240810e+001
5.077481e+002, 1.246700e+001
5.082302e+002, 1.232243e+001
5.087123e+002, 1.185711e+001
5.091945e+002, 1.161308e+001
5.096766e+002, 1.183582e+001
5.101587e+002, 1.203543e+001
5.106408e+002, 1.196489e+001
5.111229e+002, 1.174298e+001
5.116050e+002, 1.161873e+001
5.120872e+002, 1.172562e+001
5.125693e+002, 1.195734e+001
5.130514e+002, 1.214792e+001
5.135335e+002, 1.230475e+001
5.140156e+002, 1.235746e+001
5.144977e+002, 1.217211e+001
5.149799e+002, 1.199864e+001
5.154620e+002, 1.207997e+001
5.159441e+002, 1.237864e+001
5.164262e+002, 1.263427e+001
5.169083e+002, 1.272395e+001
5.173904e+002, 1.272007e+001
5.178726e+002, 1.268587e+001
5.183547e+002, 1.262849e+001
5.188368e+002, 1.263237e+001
5.193189e+002, 1.277837e+001
5.198010e+002, 1.296071e+001
5.202831e+002, 1.289515e+001
5.207653e+002, 1.245391e+001
5.212474e+002, 1.218671e+001
5.217295e+002, 1.236508e+001
5.222116e+002, 1.262962e+001
5.226937e+002, 1.260863e+001
5.231758e+002, 1.233390e+001
5.236580e+002, 1.212927e+001
5.241401e+002, 1.223754e+001
5.246222e+002, 1.259564e+001
5.251043e+002, 1.288797e+001
5.255864e+002, 1.316296e+001
5.260685e+002, 1.328496e+001
5.265507e+002, 1.311208e+001
5.270328e+002, 1.288194e+001
5.275149e+002, 1.276835e+001
5.279970e+002, 1.280045e+001
5.284791e+002, 1.293143e+001
5.289612e+002, 1.316655e+001
5.294434e+002, 1.347208e+001
5.299255e+002, 1.364745e+001
5.304076e+002, 1.368911e+001
5.308897e+002, 1.360610e+001
5.313718e+002, 1.320344e+001
5.318539e+002, 1.277302e+001
5.323361e+002, 1.263887e+001
5.328182e+002, 1.287575e+001
5.333003e+002, 1.322391e+001
5.337824e+002, 1.350990e+001
5.342645e+002, 1.378692e+001
5.347466e+002, 1.426117e+001
5.352288e+002, 1.498711e+001
5.357109e+002, 1.550757e+001
5.361930e+002, 1.536722e+001
5.366751e+002, 1.471106e+001
5.371572e+002, 1.446786e+001
5.376393e+002, 1.499504e+001
5.381215e+002, 1.545740e+001
5.386036e+002, 1.564114e+001
5.390857e+002, 1.562158e+001
5.395678e+002, 1.540757e+001
5.400499e+002, 1.504106e+001
5.405320e+002, 1.474008e+001
5.410142e+002, 1.475395e+001
5.414963e+002, 1.509419e+001
5.419784e+002, 1.535279e+001
5.424604e+002, 1.545861e+001
5.429426e+002, 1.556122e+001
5.434247e+002, 1.565347e+001
5.439068e+002, 1.577520e+001
5.443889e+002, 1.602482e+001
5.448710e+002, 1.641494e+001
5.453531e+002, 1.673133e+001
5.458353e+002, 1.661438e+001
5.463174e+002, 1.612350e+001
5.467995e+002, 1.603272e+001
5.472816e+002, 1.659303e+001
5.477637e+002, 1.710682e+001
5.482458e+002, 1.705680e+001
5.487280e+002, 1.668903e+001
5.492101e+002, 1.636593e+001
5.496922e+002, 1.613014e+001
5.501743e+002, 1.598371e+001
5.506564e+002, 1.602897e+001
5.511385e+002, 1.614630e+001
5.516207e+002, 1.600203e+001
5.521028e+002, 1.551765e+001
5.525849e+002, 1.513610e+001
5.530670e+002, 1.535275e+001
5.535491e+002, 1.617111e+001
5.540313e+002, 1.647237e+001
5.545134e+002, 1.587539e+001
5.549955e+002, 1.530128e+001
5.554776e+002, 1.497443e+001
5.559597e+002, 1.482066e+001
5.564418e+002, 1.477803e+001
5.569240e+002, 1.481243e+001
5.574061e+002, 1.485298e+001
5.578882e+002, 1.481558e+001
5.583703e+002, 1.469780e+001
5.588524e+002, 1.457768e+001
5.593345e+002, 1.445564e+001
5.598167e+002, 1.433154e+001
5.602988e+002, 1.421587e+001
5.607809e+002, 1.409356e+001
5.612630e+002, 1.392276e+001
5.617451e+002, 1.368451e+001
5.622272e+002, 1.349717e+001
5.627094e+002, 1.354082e+001
5.631915e+002, 1.372365e+001
5.636736e+002, 1.369146e+001
5.641557e+002, 1.335471e+001
5.646378e+002, 1.306213e+001
5.651199e+002, 1.313600e+001
5.656021e+002, 1.345920e+001
5.660842e+002, 1.349977e+001
5.665663e+002, 1.295598e+001
5.670484e+002, 1.256131e+001
5.675305e+002, 1.267585e+001
5.680126e+002, 1.302485e+001
5.684948e+002, 1.329529e+001
5.689769e+002, 1.341875e+001
5.694590e+002, 1.345151e+001
5.699411e+002, 1.343959e+001
5.704232e+002, 1.338365e+001
5.709053e+002, 1.329291e+001
5.713875e+002, 1.307000e+001
5.718696e+002, 1.294722e+001
5.723517e+002, 1.306014e+001
5.728338e+002, 1.322152e+001
5.733159e+002, 1.323202e+001
5.737980e+002, 1.307524e+001
5.742802e+002, 1.292319e+001
5.747623e+002, 1.294198e+001
5.752444e+002, 1.309197e+001
5.757265e+002, 1.321751e+001
5.762086e+002, 1.332310e+001
5.766907e+002, 1.338671e+001
5.771729e+002, 1.341321e+001
5.776550e+002, 1.337698e+001
5.781371e+002, 1.319285e+001
5.786192e+002, 1.278168e+001
5.791013e+002, 1.257615e+001
5.795834e+002, 1.302622e+001
5.800656e+002, 1.359764e+001
5.805477e+002, 1.359473e+001
5.810298e+002, 1.304306e+001
5.815119e+002, 1.247865e+001
5.819940e+002, 1.222825e+001
5.824761e+002, 1.223819e+001
5.829583e+002, 1.232526e+001
5.834404e+002, 1.252745e+001
5.839225e+002, 1.275538e+001
5.844046e+002, 1.310769e+001
5.848867e+002, 1.340086e+001
5.853688e+002, 1.346767e+001
5.858510e+002, 1.336012e+001
5.863331e+002, 1.326420e+001
5.868152e+002, 1.329748e+001
5.872973e+002, 1.341257e+001
5.877794e+002, 1.350416e+001
5.882615e+002, 1.356868e+001
5.887437e+002, 1.363114e+001
5.892258e+002, 1.367166e+001
5.897079e+002, 1.374279e+001
5.901900e+002, 1.392957e+001
5.906721e+002, 1.420604e+001
5.911542e+002, 1.439743e+001
5.916364e+002, 1.435206e+001
5.921185e+002, 1.428378e+001
5.926006e+002, 1.441827e+001
5.930827e+002, 1.468303e+001
5.935648e+002, 1.485660e+001
5.940469e+002, 1.485713e+001
5.945291e+002, 1.475392e+001
5.950112e+002, 1.463180e+001
5.954933e+002, 1.447274e+001
5.959754e+002, 1.437950e+001
5.964575e+002, 1.428102e+001
5.969396e+002, 1.431545e+001
5.974218e+002, 1.464092e+001
5.979039e+002, 1.509020e+001
5.983860e+002, 1.542200e+001
5.988681e+002, 1.555654e+001
5.993502e+002, 1.561898e+001
5.998323e+002, 1.577003e+001
6.003145e+002, 1.600522e+001
6.007966e+002, 1.618445e+001
6.012787e+002, 1.629320e+001
6.017608e+002, 1.636198e+001
6.022429e+002, 1.631832e+001
6.027250e+002, 1.627305e+001
6.032072e+002, 1.643279e+001
6.036893e+002, 1.690721e+001
6.041714e+002, 1.733296e+001
6.046535e+002, 1.745752e+001
6.051356e+002, 1.745268e+001
6.056177e+002, 1.759992e+001
6.060999e+002, 1.791433e+001
6.065820e+002, 1.818257e+001
6.070641e+002, 1.824607e+001
6.075462e+002, 1.814454e+001
6.080283e+002, 1.805452e+001
6.085104e+002, 1.790450e+001
6.089926e+002, 1.787674e+001
6.094747e+002, 1.797009e+001
6.099568e+002, 1.818914e+001
6.104389e+002, 1.861950e+001
6.109210e+002, 1.918966e+001
6.114031e+002, 1.969224e+001
6.118853e+002, 1.999451e+001
6.123674e+002, 2.015277e+001
6.128495e+002, 2.024932e+001
6.133316e+002, 2.027175e+001
6.138137e+002, 2.040594e+001
6.142958e+002, 2.078979e+001
6.147780e+002, 2.117854e+001
6.152601e+002, 2.127453e+001
6.157422e+002, 2.113317e+001
6.162243e+002, 2.108619e+001
6.167064e+002, 2.130200e+001
6.171885e+002, 2.153154e+001
6.176707e+002, 2.159276e+001
6.181528e+002, 2.155606e+001
6.186349e+002, 2.156244e+001
6.191170e+002, 2.165471e+001
6.195991e+002, 2.180399e+001
6.200812e+002, 2.198915e+001
6.205634e+002, 2.221908e+001
6.210455e+002, 2.235917e+001
6.215276e+002, 2.239173e+001
6.220097e+002, 2.234793e+001
6.224918e+002, 2.213889e+001
6.229739e+002, 2.191180e+001
6.234561e+002, 2.187188e+001
6.239382e+002, 2.203687e+001
6.244203e+002, 2.213672e+001
6.249023e+002, 2.187028e+001
6.253845e+002, 2.138334e+001
6.258666e+002, 2.107258e+001
6.263487e+002, 2.095587e+001
6.268308e+002, 2.091904e+001
6.273129e+002, 2.100445e+001
6.277950e+002, 2.104955e+001
6.282772e+002, 2.064382e+001
6.287593e+002, 1.964706e+001
6.292414e+002, 1.895106e+001
6.297235e+002, 1.884740e+001
6.302056e+002, 1.893840e+001
6.306877e+002, 1.904982e+001
6.311699e+002, 1.912047e+001
6.316520e+002, 1.907796e+001
6.321341e+002, 1.888937e+001
6.326162e+002, 1.858039e+001
6.330983e+002, 1.814304e+001
6.335804e+002, 1.750467e+001
6.340626e+002, 1.711787e+001
6.345447e+002, 1.720636e+001
6.350268e+002, 1.726665e+001
6.355089e+002, 1.701351e+001
6.359910e+002, 1.661686e+001
6.364731e+002, 1.634232e+001
6.369553e+002, 1.627099e+001
6.374374e+002, 1.624415e+001
6.379195e+002, 1.618946e+001
6.384016e+002, 1.609032e+001
6.388837e+002, 1.587594e+001
6.393658e+002, 1.554622e+001
6.398480e+002, 1.527341e+001
6.403301e+002, 1.519514e+001
6.408122e+002, 1.522769e+001
6.412943e+002, 1.508634e+001
6.417764e+002, 1.452374e+001
6.422585e+002, 1.415341e+001
6.427407e+002, 1.411747e+001
6.432228e+002, 1.414673e+001
6.437049e+002, 1.407063e+001
6.441870e+002, 1.391431e+001
6.446691e+002, 1.380353e+001
6.451512e+002, 1.382086e+001
6.456334e+002, 1.383667e+001
6.461155e+002, 1.357295e+001
6.465976e+002, 1.303351e+001
6.470797e+002, 1.270632e+001
6.475618e+002, 1.274043e+001
6.480439e+002, 1.283668e+001
6.485261e+002, 1.278329e+001
6.490082e+002, 1.260989e+001
6.494903e+002, 1.240375e+001
6.499724e+002, 1.210267e+001
6.504545e+002, 1.187598e+001
6.509366e+002, 1.182415e+001
6.514188e+002, 1.186469e+001
6.519009e+002, 1.191385e+001
6.523830e+002, 1.195467e+001
6.528651e+002, 1.198876e+001
6.533472e+002, 1.201367e+001
6.538293e+002, 1.204048e+001
6.543115e+002, 1.213912e+001
6.547936e+002, 1.242863e+001
6.552757e+002, 1.249900e+001
6.557578e+002, 1.209919e+001
6.562399e+002, 1.162761e+001
6.567220e+002, 1.120687e+001
6.572042e+002, 1.088819e+001
6.576863e+002, 1.081115e+001
6.581684e+002, 1.120031e+001
6.586505e+002, 1.157202e+001
6.591326e+002, 1.136309e+001
6.596147e+002, 1.077466e+001
6.600969e+002, 1.032838e+001
6.605790e+002, 1.013405e+001
6.610611e+002, 1.020580e+001
6.615432e+002, 1.064005e+001
6.620253e+002, 1.137041e+001
6.625074e+002, 1.167257e+001
6.629896e+002, 1.112333e+001
6.634717e+002, 1.069998e+001
6.639538e+002, 1.048933e+001
6.644359e+002, 1.043016e+001
6.649180e+002, 1.055733e+001
6.654001e+002, 1.080071e+001
6.658823e+002, 1.095196e+001
6.663644e+002, 1.085146e+001
6.668465e+002, 1.063926e+001
6.673286e+002, 1.061681e+001
6.678107e+002, 1.077417e+001
6.682928e+002, 1.072322e+001
6.687750e+002, 1.029046e+001
6.692571e+002, 9.838452e+000
6.697392e+002, 9.693826e+000
6.702213e+002, 9.848329e+000
6.707034e+002, 1.010310e+001
6.711855e+002, 1.064937e+001
6.716677e+002, 1.105597e+001
6.721498e+002, 1.110610e+001
6.726319e+002, 1.099203e+001
6.731140e+002, 1.092017e+001
6.735961e+002, 1.091288e+001
6.740782e+002, 1.086284e+001
6.745604e+002, 1.066797e+001
6.750425e+002, 1.040308e+001
6.755246e+002, 1.033586e+001
6.760067e+002, 1.052201e+001
6.764888e+002, 1.065957e+001
6.769709e+002, 1.068553e+001
6.774531e+002, 1.064984e+001
6.779352e+002, 1.056546e+001
6.784173e+002, 1.045207e+001
6.788994e+002, 1.038481e+001
6.793815e+002, 1.045378e+001
6.798636e+002, 1.047924e+001
6.803458e+002, 1.036108e+001
6.808279e+002, 1.012920e+001
6.813100e+002, 9.733178e+000
6.817921e+002, 9.214606e+000
6.822742e+002, 8.889923e+000
6.827563e+002, 9.053941e+000
6.832385e+002, 9.585251e+000
6.837206e+002, 9.885592e+000
6.842027e+002, 9.882923e+000
6.846848e+002, 9.805466e+000
6.851669e+002, 9.477641e+000
6.856490e+002, 9.265242e+000
6.861312e+002, 9.506939e+000
6.866133e+002, 1.004923e+001
6.870954e+002, 1.042166e+001
6.875775e+002, 1.040623e+001
6.880596e+002, 1.023863e+001
6.885417e+002, 1.002178e+001
6.890239e+002, 9.828734e+000
6.895060e+002, 9.913877e+000
6.899881e+002, 1.031260e+001
6.904702e+002, 1.061765e+001
6.909523e+002, 1.048048e+001
6.914344e+002, 1.000803e+001
6.919166e+002, 9.737771e+000
6.923987e+002, 9.778630e+000
6.928808e+002, 9.856618e+000
6.933629e+002, 9.988915e+000
6.938450e+002, 1.012353e+001
6.943271e+002, 1.027952e+001
6.948093e+002, 1.040952e+001
6.952914e+002, 1.038461e+001
6.957735e+002, 1.010008e+001
6.962556e+002, 9.793976e+000
6.967377e+002, 9.781070e+000
6.972198e+002, 9.971419e+000
6.977020e+002, 1.005408e+001
6.981841e+002, 9.981970e+000
6.986662e+002, 9.771967e+000
6.991483e+002, 9.330020e+000
6.996304e+002, 8.823804e+000
7.001125e+002, 8.909754e+000
7.005947e+002, 1.034377e+001
7.010768e+002, 1.120937e+001
7.015589e+002, 1.122750e+001
7.020410e+002, 1.090925e+001
7.025231e+002, 1.037126e+001
7.030052e+002, 9.775559e+000
7.034874e+002, 9.357919e+000
7.039695e+002, 9.222256e+000
7.044516e+002, 9.286804e+000
7.049337e+002, 9.576586e+000
7.054158e+002, 1.000888e+001
7.058979e+002, 1.011200e+001
7.063801e+002, 9.786366e+000
7.068622e+002, 9.529645e+000
7.073442e+002, 9.664713e+000
7.078264e+002, 1.003786e+001
7.083085e+002, 1.027102e+001
7.087906e+002, 1.037124e+001
7.092727e+002, 1.032383e+001
7.097548e+002, 9.934698e+000
7.102369e+002, 9.585027e+000
7.107191e+002, 9.534949e+000
7.112012e+002, 9.676859e+000
7.116833e+002, 9.809510e+000
7.121654e+002, 9.858715e+000
7.126475e+002, 9.856991e+000
7.131296e+002, 9.814632e+000
7.136118e+002, 9.747908e+000
7.140939e+002, 9.777543e+000
7.145760e+002, 9.935824e+000
7.150581e+002, 9.982618e+000
7.155402e+002, 9.697775e+000
7.160223e+002, 9.355509e+000
7.165045e+002, 9.517974e+000
7.169866e+002, 1.032419e+001
7.174687e+002, 1.074868e+001
7.179508e+002, 1.044562e+001
7.184329e+002, 1.001903e+001
7.189150e+002, 9.618480e+000
7.193972e+002, 9.347103e+000
7.198793e+002, 9.430964e+000
7.203614e+002, 9.870834e+000
7.208435e+002, 1.022347e+001
7.213256e+002, 9.933518e+000
7.218077e+002, 9.231666e+000
7.222899e+002, 9.079446e+000
7.227720e+002, 9.539274e+000
7.232541e+002, 1.004914e+001
7.237362e+002, 1.052072e+001
7.242183e+002, 1.083594e+001
7.247004e+002, 1.075600e+001
7.251826e+002, 1.029174e+001
7.256647e+002, 1.005408e+001
7.261468e+002, 1.023975e+001
7.266289e+002, 1.045875e+001
7.271110e+002, 1.066436e+001
7.275931e+002, 1.077436e+001
7.280753e+002, 1.056065e+001
7.285574e+002, 1.010535e+001
7.290395e+002, 9.914172e+000
7.295216e+002, 1.047170e+001
7.300037e+002, 1.132399e+001
7.304858e+002, 1.127566e+001
7.309680e+002, 1.028269e+001
7.314501e+002, 9.704372e+000
7.319322e+002, 9.913816e+000
7.324143e+002, 1.032882e+001
7.328964e+002, 1.052259e+001
7.333785e+002, 1.052208e+001
7.338607e+002, 1.050653e+001
7.343428e+002, 1.055529e+001
7.348249e+002, 1.046778e+001
7.353070e+002, 9.971090e+000
7.357891e+002, 9.508521e+000
7.362712e+002, 9.541598e+000
7.367534e+002, 9.932734e+000
7.372355e+002, 1.021231e+001
7.377176e+002, 1.014351e+001
7.381997e+002, 9.924377e+000
7.386818e+002, 9.826290e+000
7.391639e+002, 9.841832e+000
7.396461e+002, 9.922841e+000
7.401282e+002, 1.009241e+001
7.406103e+002, 1.019792e+001
7.410924e+002, 1.011975e+001
7.415745e+002, 9.947790e+000
7.420566e+002, 9.894007e+000
7.425388e+002, 1.001205e+001
7.430209e+002, 1.005294e+001
7.435030e+002, 9.920644e+000
7.439851e+002, 9.785703e+000
7.444672e+002, 9.694304e+000
7.449493e+002, 9.676372e+000
7.454315e+002, 9.827085e+000
7.459136e+002, 1.014723e+001
7.463957e+002, 1.039754e+001
7.468778e+002, 1.024833e+001
7.473599e+002, 9.864915e+000
7.478420e+002, 9.804006e+000
7.483242e+002, 1.007509e+001
7.488063e+002, 1.026836e+001
7.492884e+002, 1.023322e+001
7.497705e+002, 1.010350e+001
7.502526e+002, 1.002974e+001
7.507347e+002, 1.001646e+001
7.512169e+002, 9.981085e+000
7.516990e+002, 9.928528e+000
7.521811e+002, 9.849756e+000
7.526632e+002, 9.625934e+000
7.531453e+002, 9.459249e+000
7.536274e+002, 9.574039e+000
7.541096e+002, 9.934191e+000
7.545917e+002, 1.035088e+001
7.550738e+002, 1.081744e+001
7.555559e+002, 1.107966e+001
7.560380e+002, 1.050639e+001
7.565201e+002, 9.367044e+000
7.570023e+002, 8.946547e+000
7.574844e+002, 9.487822e+000
7.579665e+002, 1.018618e+001
7.584486e+002, 1.051745e+001
7.589307e+002, 1.053528e+001
7.594128e+002, 1.040468e+001
7.598950e+002, 9.839267e+000
7.603771e+002, 9.654738e+000
7.608592e+002, 1.009446e+001
7.613413e+002, 1.063118e+001
7.618234e+002, 1.114769e+001
7.623055e+002, 1.154847e+001
7.627877e+002, 1.169160e+001
7.632698e+002, 1.153068e+001
7.637519e+002, 1.126657e+001
7.642340e+002, 1.098005e+001
7.647161e+002, 1.071961e+001
7.651982e+002, 1.056850e+001
7.656804e+002, 1.051920e+001
7.661625e+002, 1.051813e+001
7.666446e+002, 1.054476e+001
7.671267e+002, 1.060689e+001
7.676088e+002, 1.071308e+001
7.680909e+002, 1.086412e+001
7.685731e+002, 1.107092e+001
7.690552e+002, 1.143781e+001
7.695373e+002, 1.168913e+001
7.700194e+002, 1.175194e+001
7.705015e+002, 1.169332e+001
7.709836e+002, 1.150162e+001
7.714658e+002, 1.121675e+001
7.719479e+002, 1.100684e+001
7.724300e+002, 1.096843e+001
7.729121e+002, 1.097069e+001
7.733942e+002, 1.086717e+001
7.738763e+002, 1.077046e+001
7.743585e+002, 1.089860e+001
7.748406e+002, 1.124488e+001
7.753227e+002, 1.159921e+001
7.758048e+002, 1.182771e+001
7.762869e+002, 1.196180e+001
7.767690e+002, 1.207285e+001
7.772512e+002, 1.216266e+001
7.777333e+002, 1.222770e+001
7.782154e+002, 1.230559e+001
7.786975e+002, 1.228475e+001
7.791796e+002, 1.196491e+001
7.796617e+002, 1.156837e+001
7.801439e+002, 1.151213e+001
7.806260e+002, 1.189996e+001
7.811081e+002, 1.216301e+001
7.815902e+002, 1.204755e+001
7.820723e+002, 1.188175e+001
7.825544e+002, 1.180850e+001
7.830366e+002, 1.185550e+001
7.835187e+002, 1.213255e+001
7.840008e+002, 1.261973e+001
7.844829e+002, 1.299512e+001
7.849650e+002, 1.293314e+001
7.854471e+002, 1.255124e+001
7.859293e+002, 1.208109e+001
7.864114e+002, 1.151700e+001
7.868935e+002, 1.146045e+001
7.873756e+002, 1.221704e+001
7.878577e+002, 1.303998e+001
7.883398e+002, 1.318904e+001
7.888220e+002, 1.276695e+001
7.893040e+002, 1.264212e+001
7.897861e+002, 1.313044e+001
7.902682e+002, 1.344681e+001
7.907504e+002, 1.347922e+001
7.912325e+002, 1.337337e+001
7.917146e+002, 1.312713e+001
7.921967e+002, 1.283726e+001
7.926788e+002, 1.268312e+001
7.931609e+002, 1.273929e+001
7.936431e+002, 1.285377e+001
7.941252e+002, 1.287092e+001
7.946073e+002, 1.286482e+001
7.950894e+002, 1.303446e+001
7.955715e+002, 1.334696e+001
7.960536e+002, 1.346410e+001
7.965358e+002, 1.322425e+001
7.970179e+002, 1.297973e+001
7.975000e+002, 1.327783e+001
7.979821e+002, 1.416094e+001
7.984642e+002, 1.454427e+001
7.989464e+002, 1.406238e+001
7.994285e+002, 1.374529e+001
7.999106e+002, 1.403341e+001
8.003927e+002, 1.443016e+001
8.008748e+002, 1.458675e+001
8.013569e+002, 1.452447e+001
8.018391e+002, 1.440783e+001
8.023212e+002, 1.420871e+001
8.028033e+002, 1.406811e+001
8.032854e+002, 1.407512e+001
8.037675e+002, 1.417221e+001
8.042496e+002, 1.435236e+001
8.047318e+002, 1.456190e+001
8.052139e+002, 1.465391e+001
8.056960e+002, 1.454408e+001
8.061781e+002, 1.433202e+001
8.066602e+002, 1.414964e+001
8.071423e+002, 1.399979e+001
8.076245e+002, 1.396683e+001
8.081066e+002, 1.409858e+001
8.085887e+002, 1.409531e+001
8.090708e+002, 1.374003e+001
8.095529e+002, 1.329920e+001
8.100350e+002, 1.321629e+001
8.105172e+002, 1.358459e+001
8.109993e+002, 1.368886e+001
8.114814e+002, 1.333036e+001
8.119635e+002, 1.296555e+001
8.124456e+002, 1.259792e+001
8.129277e+002, 1.236566e+001
8.134099e+002, 1.253445e+001
8.138920e+002, 1.299114e+001
8.143741e+002, 1.322683e+001
8.148562e+002, 1.289431e+001
8.153383e+002, 1.244511e+001
8.158204e+002, 1.232606e+001
8.163026e+002, 1.245308e+001
8.167847e+002, 1.270855e+001
8.172668e+002, 1.304745e+001
8.177489e+002, 1.327239e+001
8.182310e+002, 1.326149e+001
8.187131e+002, 1.312661e+001
8.191953e+002, 1.308783e+001
8.196774e+002, 1.316727e+001
8.201595e+002, 1.320165e+001
8.206416e+002, 1.317391e+001
8.211237e+002, 1.313417e+001
8.216058e+002, 1.312548e+001
8.220880e+002, 1.309555e+001
8.225701e+002, 1.297751e+001
8.230522e+002, 1.277358e+001
8.235343e+002, 1.256894e+001
8.240164e+002, 1.223290e+001
8.244985e+002, 1.207715e+001
8.249807e+002, 1.245848e+001
8.254628e+002, 1.294681e+001
8.259449e+002, 1.301038e+001
8.264270e+002, 1.268824e+001
8.269091e+002, 1.239183e+001
8.273912e+002, 1.235239e+001
8.278734e+002, 1.242976e+001
8.283555e+002, 1.239645e+001
8.288376e+002, 1.230493e+001
8.293197e+002, 1.240471e+001
8.298018e+002, 1.271768e+001
8.302839e+002, 1.304051e+001
8.307661e+002, 1.327678e+001
8.312482e+002, 1.345657e+001
8.317303e+002, 1.363821e+001
8.322124e+002, 1.383564e+001
8.326945e+002, 1.392349e+001
8.331766e+002, 1.376891e+001
8.336588e+002, 1.369640e+001
8.341409e+002, 1.373610e+001
8.346230e+002, 1.391275e+001
8.351051e+002, 1.438179e+001
8.355872e+002, 1.504145e+001
8.360693e+002, 1.542189e+001
8.365515e+002, 1.521969e+001
8.370336e+002, 1.496990e+001
8.375157e+002, 1.486000e+001
8.379978e+002, 1.492787e+001
8.384799e+002, 1.536563e+001
8.389620e+002, 1.602870e+001
8.394442e+002, 1.644115e+001
8.399263e+002, 1.637655e+001
8.404084e+002, 1.616869e+001
8.408905e+002, 1.627863e+001
8.413726e+002, 1.665208e+001
8.418547e+002, 1.696615e+001
8.423369e+002, 1.720688e+001
8.428190e+002, 1.751604e+001
8.433011e+002, 1.795674e+001
8.437832e+002, 1.844329e+001
8.442653e+002, 1.887988e+001
8.447474e+002, 1.926783e+001
8.452296e+002, 1.963169e+001
8.457117e+002, 2.002097e+001
8.461938e+002, 2.030741e+001
8.466759e+002, 2.025882e+001
8.471580e+002, 2.031671e+001
8.476401e+002, 2.091181e+001
8.481223e+002, 2.180023e+001
8.486044e+002, 2.240336e+001
8.490865e+002, 2.252724e+001
8.495686e+002, 2.257375e+001
8.500507e+002, 2.275181e+001
8.505328e+002, 2.296569e+001
8.510150e+002, 2.304854e+001
8.514971e+002, 2.309970e+001
8.519792e+002, 2.343295e+001
8.524613e+002, 2.410355e+001
8.529434e+002, 2.472212e+001
8.534255e+002, 2.486468e+001
8.539077e+002, 2.469025e+001
8.543898e+002, 2.473797e+001
8.548719e+002, 2.500771e+001
8.553540e+002, 2.503941e+001
8.558361e+002, 2.468959e+001
8.563182e+002, 2.432794e+001
8.568004e+002, 2.426715e+001
8.572825e+002, 2.437808e+001
8.577646e+002, 2.423528e+001
8.582467e+002, 2.368792e+001
8.587288e+002, 2.321331e+001
8.592109e+002, 2.276600e+001
8.596931e+002, 2.244196e+001
8.601752e+002, 2.238114e+001
8.606573e+002, 2.240076e+001
8.611394e+002, 2.227863e+001
8.616215e+002, 2.199313e+001
8.621036e+002, 2.168515e+001
8.625858e+002, 2.140743e+001
8.630679e+002, 2.112649e+001
8.635500e+002, 2.085161e+001
8.640321e+002, 2.054295e+001
8.645142e+002, 2.010855e+001
8.649963e+002, 1.957341e+001
8.654785e+002, 1.907058e+001
8.659606e+002, 1.866813e+001
8.664427e+002, 1.840144e+001
8.669248e+002, 1.844402e+001
8.674069e+002, 1.869851e+001
8.678890e+002, 1.854949e+001
8.683712e+002, 1.794495e+001
8.688533e+002, 1.757835e+001
8.693354e+002, 1.780618e+001
8.698175e+002, 1.814429e+001
8.702996e+002, 1.791117e+001
8.707817e+002, 1.709964e+001
8.712639e+002, 1.654969e+001
8.717459e+002, 1.639181e+001
8.722280e+002, 1.626591e+001
8.727101e+002, 1.609373e+001
8.731923e+002, 1.595925e+001
8.736744e+002, 1.591654e+001
8.741565e+002, 1.595083e+001
8.746386e+002, 1.604849e+001
8.751207e+002, 1.627837e+001
8.756028e+002, 1.635031e+001
8.760850e+002, 1.604319e+001
8.765671e+002, 1.565735e+001
8.770492e+002, 1.539168e+001
8.775313e+002, 1.521390e+001
8.780134e+002, 1.502728e+001
8.784955e+002, 1.481901e+001
8.789777e+002, 1.468519e+001
8.794598e+002, 1.475253e+001
8.799419e+002, 1.487607e+001
8.804240e+002, 1.482693e+001
8.809061e+002, 1.462780e+001
8.813882e+002, 1.433022e+001
8.818704e+002, 1.395122e+001
8.823525e+002, 1.358416e+001
8.828346e+002, 1.327382e+001
8.833167e+002, 1.308127e+001
8.837988e+002, 1.320621e+001
8.842809e+002, 1.374053e+001
8.847631e+002, 1.384450e+001
8.852452e+002, 1.325300e+001
8.857273e+002, 1.291444e+001
8.862094e+002, 1.345063e+001
8.866915e+002, 1.407603e+001
8.871736e+002, 1.373537e+001
8.876558e+002, 1.251892e+001
8.881379e+002, 1.184136e+001
8.886200e+002, 1.220326e+001
8.891021e+002, 1.245436e+001
8.895842e+002, 1.230012e+001
8.900663e+002, 1.206555e+001
8.905485e+002, 1.194446e+001
8.910306e+002, 1.192295e+001
8.915127e+002, 1.194550e+001
8.919948e+002, 1.199867e+001
8.924769e+002, 1.204970e+001
8.929590e+002, 1.214266e+001
8.934412e+002, 1.216869e+001
8.939233e+002, 1.191645e+001
8.944054e+002, 1.153278e+001
8.948875e+002, 1.137842e+001
8.953696e+002, 1.148967e+001
8.958517e+002, 1.153410e+001
8.963339e+002, 1.124066e+001
8.968160e+002, 1.081564e+001
8.972981e+002, 1.071937e+001
8.977802e+002, 1.090988e+001
8.982623e+002, 1.094282e+001
8.987444e+002, 1.076578e+001
8.992266e+002, 1.057009e+001
8.997087e+002, 1.041637e+001
9.001908e+002, 1.037985e+001
9.006729e+002, 1.061822e+001
9.011550e+002, 1.115637e+001
9.016371e+002, 1.139532e+001
9.021193e+002, 1.118901e+001
9.026014e+002, 1.095436e+001
9.030835e+002, 1.073069e+001
9.035656e+002, 1.053801e+001
9.040477e+002, 1.037661e+001
9.045298e+002, 1.025751e+001
9.050120e+002, 1.022115e+001
9.054941e+002, 1.030785e+001
9.059762e+002, 1.037444e+001
9.064583e+002, 1.027862e+001
9.069404e+002, 1.026709e+001
9.074225e+002, 1.066669e+001
9.079047e+002, 1.114801e+001
9.083868e+002, 1.115929e+001
9.088689e+002, 1.069605e+001
9.093510e+002, 1.037314e+001
9.098331e+002, 1.065277e+001
9.103152e+002, 1.106484e+001
9.107974e+002, 1.111392e+001
9.112795e+002, 1.096027e+001
9.117616e+002, 1.090285e+001
9.122437e+002, 1.095006e+001
9.127258e+002, 1.093251e+001
9.132079e+002, 1.076969e+001
9.136901e+002, 1.061355e+001
9.141722e+002, 1.071030e+001
9.146543e+002, 1.099734e+001
9.151364e+002, 1.108550e+001
9.156185e+002, 1.096603e+001
9.161006e+002, 1.090556e+001
9.165828e+002, 1.097644e+001
9.170649e+002, 1.110666e+001
9.175470e+002, 1.127164e+001
9.180291e+002, 1.141942e+001
9.185112e+002, 1.132101e+001
9.189933e+002, 1.070231e+001
9.194755e+002, 1.055186e+001
9.199576e+002, 1.119228e+001
9.204397e+002, 1.184068e+001
9.209218e+002, 1.226729e+001
9.214039e+002, 1.249795e+001
9.218860e+002, 1.246764e+001
9.223682e+002, 1.219606e+001
9.228503e+002, 1.208432e+001
9.233324e+002, 1.240628e+001
9.238145e+002, 1.259817e+001
9.242966e+002, 1.231195e+001
9.247787e+002, 1.200690e+001
9.252609e+002, 1.212565e+001
9.257430e+002, 1.249143e+001
9.262251e+002, 1.264979e+001
9.267072e+002, 1.246047e+001
9.271893e+002, 1.233095e+001
9.276714e+002, 1.270803e+001
9.281536e+002, 1.311578e+001
9.286357e+002, 1.295374e+001
9.291178e+002, 1.250086e+001
9.295999e+002, 1.232629e+001
9.300820e+002, 1.249387e+001
9.305641e+002, 1.270206e+001
9.310463e+002, 1.276366e+001
9.315284e+002, 1.273916e+001
9.320105e+002, 1.268301e+001
9.324926e+002, 1.262064e+001
9.329747e+002, 1.269630e+001
9.334568e+002, 1.290495e+001
9.339390e+002, 1.302312e+001
9.344211e+002, 1.296154e+001
9.349032e+002, 1.284554e+001
9.353853e+002, 1.281029e+001
9.358674e+002, 1.284086e+001
9.363495e+002, 1.283625e+001
9.368317e+002, 1.276572e+001
9.373138e+002, 1.280882e+001
9.377959e+002, 1.304571e+001
9.382780e+002, 1.326895e+001
9.387601e+002, 1.339090e+001
9.392422e+002, 1.341047e+001
9.397244e+002, 1.333049e+001
9.402065e+002, 1.315643e+001
9.406886e+002, 1.285075e+001
9.411707e+002, 1.209010e+001
9.416528e+002, 1.164245e+001
9.421349e+002, 1.199725e+001
9.426171e+002, 1.240231e+001
9.430992e+002, 1.225242e+001
9.435813e+002, 1.171430e+001
9.440634e+002, 1.127220e+001
9.445455e+002, 1.101921e+001
9.450276e+002, 1.086404e+001
9.455098e+002, 1.088060e+001
9.459919e+002, 1.087055e+001
9.464740e+002, 1.062451e+001
9.469561e+002, 1.031513e+001
9.474382e+002, 1.024120e+001
9.479203e+002, 1.038013e+001
9.484025e+002, 1.037272e+001
9.488846e+002, 9.940122e+000
9.493667e+002, 9.522872e+000
9.498488e+002, 9.659225e+000
9.503309e+002, 1.001388e+001
9.508130e+002, 1.008830e+001
9.512952e+002, 9.892911e+000
9.517773e+002, 9.561666e+000
9.522594e+002, 9.161582e+000
9.527415e+002, 8.852729e+000
9.532236e+002, 8.806168e+000
9.537057e+002, 8.935771e+000
9.541878e+002, 9.083225e+000
9.546699e+002, 9.228251e+000
9.551520e+002, 9.195170e+000
9.556342e+002, 8.960245e+000
9.561163e+002, 8.791007e+000
9.565984e+002, 8.845969e+000
9.570805e+002, 8.954855e+000
9.575626e+002, 8.822858e+000
9.580447e+002, 8.455993e+000
9.585269e+002, 8.257012e+000
9.590090e+002, 8.261287e+000
9.594911e+002, 8.278749e+000
9.599732e+002, 8.263774e+000
9.604553e+002, 8.269898e+000
9.609374e+002, 8.369525e+000
9.614196e+002, 8.498789e+000
9.619017e+002, 8.453231e+000
9.623838e+002, 8.087848e+000
9.628659e+002, 8.000018e+000
9.633480e+002, 8.519390e+000
9.638301e+002, 8.868979e+000
9.643123e+002, 8.598846e+000
9.647944e+002, 8.277164e+000
9.652765e+002, 8.582841e+000
9.657586e+002, 9.306937e+000
9.662407e+002, 9.425744e+000
9.667228e+002, 8.369876e+000
9.672050e+002, 7.610333e+000
9.676871e+002, 7.699118e+000
9.681692e+002, 7.906991e+000
9.686513e+002, 7.840774e+000
9.691334e+002, 7.627940e+000
9.696155e+002, 7.427361e+000
9.700977e+002, 7.280346e+000
9.705798e+002, 7.243757e+000
9.710619e+002, 7.407718e+000
9.715440e+002, 7.583169e+000
9.720261e+002, 7.626887e+000
9.725082e+002, 7.640913e+000
9.729904e+002, 7.787457e+000
9.734725e+002, 7.983528e+000
9.739546e+002, 7.983347e+000
9.744367e+002, 7.736313e+000
9.749188e+002, 7.532276e+000
9.754009e+002, 7.694583e+000
9.758831e+002, 7.921273e+000
9.763652e+002, 7.740311e+000
9.768473e+002, 7.337148e+000
9.773294e+002, 7.089508e+000
9.778115e+002, 7.035533e+000
9.782936e+002, 7.093292e+000
9.787758e+002, 7.223006e+000
9.792579e+002, 7.348477e+000
9.797400e+002, 7.354320e+000
9.802221e+002, 7.287342e+000
9.807042e+002, 7.347130e+000
9.811863e+002, 7.503140e+000
9.816685e+002, 7.462599e+000
9.821506e+002, 7.168843e+000
9.826327e+002, 6.916708e+000
9.831148e+002, 6.901412e+000
9.835969e+002, 7.028022e+000
9.840790e+002, 7.111371e+000
9.845612e+002, 7.150344e+000
9.850433e+002, 7.318415e+000
9.855254e+002, 7.661274e+000
9.860075e+002, 7.830177e+000
9.864896e+002, 7.671358e+000
9.869717e+002, 7.530257e+000
9.874539e+002, 7.729630e+000
9.879360e+002, 8.122141e+000
9.884181e+002, 8.234842e+000
9.889002e+002, 7.985926e+000
9.893823e+002, 7.730930e+000
9.898644e+002, 7.380127e+000
9.903466e+002, 7.204707e+000
9.908287e+002, 7.399842e+000
9.913108e+002, 7.681982e+000
9.917929e+002, 7.785387e+000
9.922750e+002, 7.736553e+000
9.927571e+002, 7.689872e+000
9.932393e+002, 7.639860e+000
9.937214e+002, 7.602181e+000
9.942035e+002, 7.612640e+000
9.946856e+002, 7.592646e+000
9.951677e+002, 7.469088e+000
9.956498e+002, 7.329959e+000
9.961320e+002, 7.285938e+000
9.966141e+002, 7.325273e+000
9.970962e+002, 7.323625e+000
9.975783e+002, 7.171082e+000
9.980604e+002, 7.120825e+000
9.985425e+002, 7.320949e+000
9.990247e+002, 7.553979e+000
9.995068e+002, 7.717287e+000
9.999889e+002, 7.808040e+000
1.000471e+003, 7.852796e+000
1.000953e+003, 7.845505e+000
1.001435e+003, 7.704739e+000
1.001917e+003, 7.269788e+000
1.002399e+003, 6.887853e+000
1.002882e+003, 6.714620e+000
1.003364e+003, 6.709135e+000
1.003846e+003, 6.930491e+000
1.004328e+003, 7.256129e+000
1.004810e+003, 7.487855e+000
1.005292e+003, 7.572381e+000
1.005774e+003, 7.548095e+000
1.006256e+003, 7.390254e+000
1.006739e+003, 7.199442e+000
1.007221e+003, 6.975136e+000
1.007703e+003, 6.836568e+000
1.008185e+003, 7.055941e+000
1.008667e+003, 7.510548e+000
1.009149e+003, 7.805884e+000
1.009631e+003, 7.810161e+000
1.010113e+003, 7.745462e+000
1.010595e+003, 7.851841e+000
1.011078e+003, 7.951395e+000
1.011560e+003, 7.667292e+000
1.012042e+003, 7.197326e+000
1.012524e+003, 7.038278e+000
1.013006e+003, 7.187011e+000
1.013488e+003, 7.299289e+000
1.013970e+003, 7.227040e+000
1.014452e+003, 7.172997e+000
1.014935e+003, 7.434454e+000
1.015417e+003, 7.827694e+000
1.015899e+003, 7.828967e+000
1.016381e+003, 7.532667e+000
1.016863e+003, 7.404027e+000
1.017345e+003, 7.496161e+000
1.017827e+003, 7.547479e+000
1.018309e+003, 7.420968e+000
1.018791e+003, 7.238200e+000
1.019274e+003, 7.140056e+000
1.019756e+003, 7.138270e+000
1.020238e+003, 7.374460e+000
1.020720e+003, 7.830021e+000
1.021202e+003, 7.955637e+000
1.021684e+003, 7.635203e+000
1.022166e+003, 7.418615e+000
1.022648e+003, 7.653822e+000
1.023130e+003, 8.006642e+000
1.023613e+003, 7.887037e+000
1.024095e+003, 7.341131e+000
1.024577e+003, 7.182477e+000
1.025059e+003, 7.460226e+000
1.025541e+003, 7.737683e+000
1.026023e+003, 7.962842e+000
1.026505e+003, 8.041131e+000
1.026987e+003, 7.876575e+000
1.027469e+003, 7.606965e+000
1.027952e+003, 7.475588e+000
1.028434e+003, 7.481894e+000
1.028916e+003, 7.667892e+000
1.029398e+003, 8.153356e+000
1.029880e+003, 8.390491e+000
1.030362e+003, 8.233235e+000
1.030844e+003, 7.889821e+000
1.031326e+003, 7.373293e+000
1.031809e+003, 6.896624e+000
1.032291e+003, 6.941145e+000
1.032773e+003, 7.599723e+000
1.033255e+003, 7.991648e+000
1.033737e+003, 8.052926e+000
1.034219e+003, 7.979560e+000
1.034701e+003, 7.739341e+000
1.035183e+003, 7.470085e+000
1.035666e+003, 7.193315e+000
1.036148e+003, 6.993217e+000
1.036630e+003, 7.088159e+000
1.037112e+003, 7.564439e+000
1.037594e+003, 7.846202e+000
1.038076e+003, 7.760142e+000
1.038558e+003, 7.757766e+000
1.039040e+003, 8.081914e+000
1.039522e+003, 8.328860e+000
1.040005e+003, 8.062681e+000
1.040487e+003, 7.591223e+000
1.040969e+003, 7.660904e+000
1.041451e+003, 8.473452e+000
1.041933e+003, 8.757659e+000
1.042415e+003, 7.979257e+000
1.042897e+003, 7.389465e+000
1.043379e+003, 7.249603e+000
1.043861e+003, 7.334734e+000
1.044344e+003, 7.633378e+000
1.044826e+003, 8.009941e+000
1.045308e+003, 8.223463e+000
1.045790e+003, 8.255217e+000
1.046272e+003, 8.145114e+000
1.046754e+003, 7.835289e+000
1.047236e+003, 7.470519e+000
1.047718e+003, 6.910853e+000
1.048201e+003, 6.480062e+000
1.048683e+003, 6.481755e+000
1.049165e+003, 6.738228e+000
1.049647e+003, 6.922526e+000
1.050129e+003, 6.996701e+000
1.050611e+003, 7.012506e+000
1.051093e+003, 6.850523e+000
1.051575e+003, 6.807147e+000
1.052057e+003, 7.091938e+000
1.052540e+003, 7.408389e+000
1.053022e+003, 7.547247e+000
1.053504e+003, 7.560006e+000
1.053986e+003, 7.573945e+000
1.054468e+003, 7.609167e+000
1.054950e+003, 7.551443e+000
1.055432e+003, 7.306770e+000
1.055914e+003, 7.051159e+000
1.056396e+003, 6.689567e+000
1.056879e+003, 6.488974e+000
1.057361e+003, 6.875104e+000
1.057843e+003, 7.468912e+000
1.058325e+003, 7.548030e+000
1.058807e+003, 7.014803e+000
1.059289e+003, 6.599737e+000
1.059771e+003, 6.617015e+000
1.060253e+003, 6.688995e+000
1.060736e+003, 6.645691e+000
1.061218e+003, 6.629007e+000
1.061700e+003, 6.878028e+000
1.062182e+003, 7.170318e+000
1.062664e+003, 7.023432e+000
1.063146e+003, 6.417204e+000
1.063628e+003, 6.096448e+000
1.064110e+003, 6.546701e+000
1.064593e+003, 7.022941e+000
1.065075e+003, 7.288663e+000
1.065557e+003, 7.396021e+000
1.066039e+003, 7.312708e+000
1.066521e+003, 7.134670e+000
1.067003e+003, 6.954473e+000
1.067485e+003, 6.808795e+000
1.067967e+003, 6.813581e+000
1.068449e+003, 7.153419e+000
1.068932e+003, 7.403703e+000
1.069414e+003, 7.274406e+000
1.069896e+003, 7.085794e+000
1.070378e+003, 7.083909e+000
1.070860e+003, 7.174739e+000
1.071342e+003, 7.205370e+000
1.071824e+003, 7.161554e+000
1.072306e+003, 7.124419e+000
1.072788e+003, 7.148819e+000
1.073271e+003, 7.126097e+000
1.073753e+003, 6.970445e+000
1.074235e+003, 6.785959e+000
1.074717e+003, 6.574046e+000
1.075199e+003, 6.425681e+000
1.075681e+003, 6.510782e+000
1.076163e+003, 6.781878e+000
1.076645e+003, 6.958253e+000
1.077127e+003, 6.921695e+000
1.077610e+003, 6.856336e+000
1.078092e+003, 6.999702e+000
1.078574e+003, 6.976176e+000
1.079056e+003, 6.117408e+000
1.079538e+003, 5.235493e+000
1.080020e+003, 5.547785e+000
1.080502e+003, 6.760022e+000
1.080984e+003, 7.471247e+000
1.081467e+003, 7.153380e+000
1.081949e+003, 6.810502e+000
1.082431e+003, 6.919467e+000
1.082913e+003, 7.109086e+000
1.083395e+003, 7.252137e+000
1.083877e+003, 7.281096e+000
1.084359e+003, 7.047510e+000
1.084841e+003, 6.661261e+000
1.085323e+003, 6.407437e+000
1.085806e+003, 6.366641e+000
1.086288e+003, 6.400828e+000
1.086770e+003, 6.561711e+000
1.087252e+003, 6.646298e+000
1.087734e+003, 6.395020e+000
1.088216e+003, 6.152847e+000
1.088698e+003, 6.359270e+000
1.089180e+003, 6.796455e+000
1.089662e+003, 6.908716e+000
1.090145e+003, 6.581072e+000
1.090627e+003, 6.404245e+000
1.091109e+003, 6.792146e+000
1.091591e+003, 7.118950e+000
1.092073e+003, 6.965121e+000
1.092555e+003, 6.793396e+000
1.093037e+003, 7.083984e+000
1.093519e+003, 7.563192e+000
1.094002e+003, 7.730935e+000
1.094484e+003, 7.529331e+000
1.094966e+003, 7.283440e+000
1.095448e+003, 7.079504e+000
1.095930e+003, 6.869632e+000
1.096412e+003, 6.516823e+000
1.096894e+003, 6.283941e+000
1.097376e+003, 6.460466e+000
1.097859e+003, 6.781670e+000
1.098341e+003, 6.944452e+000
1.098823e+003, 6.904024e+000
1.099305e+003, 6.623868e+000
1.099787e+003, 5.775496e+000
1.100269e+003, 5.360323e+000
1.100751e+003, 6.010437e+000
1.101233e+003, 6.707962e+000
1.101715e+003, 7.037117e+000
1.102198e+003, 7.098922e+000
1.102680e+003, 6.903582e+000
1.103162e+003, 6.554019e+000
1.103644e+003, 6.375780e+000
1.104126e+003, 6.455915e+000
1.104608e+003, 6.577463e+000
1.105090e+003, 6.765849e+000
1.105572e+003, 6.907388e+000
1.106054e+003, 6.936882e+000
1.106537e+003, 6.928468e+000
1.107019e+003, 6.974860e+000
1.107501e+003, 7.023268e+000
1.107983e+003, 6.907440e+000
1.108465e+003, 6.558288e+000
1.108947e+003, 6.376630e+000
1.109429e+003, 6.548444e+000
1.109911e+003, 6.675137e+000
1.110394e+003, 6.580320e+000
1.110876e+003, 6.520794e+000
1.111358e+003, 6.806413e+000
1.111840e+003, 7.154369e+000
1.112322e+003, 7.008576e+000
1.112804e+003, 6.325752e+000
1.113286e+003, 5.972150e+000
1.113768e+003, 6.244624e+000
1.114250e+003, 6.352040e+000
1.114733e+003, 6.070203e+000
1.115215e+003, 5.851423e+000
1.115697e+003, 5.912234e+000
1.116179e+003, 6.111138e+000
1.116661e+003, 6.349813e+000
1.117143e+003, 6.595117e+000
1.117625e+003, 6.576179e+000
1.118107e+003, 6.034478e+000
1.118589e+003, 5.857064e+000
1.119072e+003, 6.204958e+000
1.119554e+003, 6.626510e+000
1.120036e+003, 7.086849e+000
1.120518e+003, 7.396852e+000
1.121000e+003, 7.346022e+000
1.121482e+003, 7.057314e+000
1.121964e+003, 6.907884e+000
1.122446e+003, 6.949119e+000
1.122929e+003, 6.778705e+000
1.123411e+003, 6.263179e+000
1.123893e+003, 6.022340e+000
1.124375e+003, 6.286001e+000
1.124857e+003, 6.542229e+000
1.125339e+003, 6.447678e+000
1.125821e+003, 6.190683e+000
1.126303e+003, 6.084386e+000
1.126786e+003, 6.124690e+000
1.127268e+003, 6.257289e+000
1.127750e+003, 6.498205e+000
1.128232e+003, 6.694917e+000
1.128714e+003, 6.836607e+000
1.129196e+003, 6.836385e+000
1.129678e+003, 6.633756e+000
1.130160e+003, 6.392043e+000
1.130642e+003, 6.290030e+000
1.131125e+003, 6.310648e+000
1.131607e+003, 6.409041e+000
1.132089e+003, 6.581475e+000
1.132571e+003, 6.778892e+000
1.133053e+003, 6.996902e+000
1.133535e+003, 7.174911e+000
1.134017e+003, 7.294320e+000
1.134499e+003, 7.241204e+000
1.134981e+003, 6.911568e+000
1.135464e+003, 6.438810e+000
1.135946e+003, 5.990827e+000
1.136428e+003, 5.615213e+000
1.136910e+003, 5.555514e+000
1.137392e+003, 5.749992e+000
1.137874e+003, 5.870902e+000
1.138356e+003, 5.879096e+000
1.138838e+003, 6.019029e+000
1.139321e+003, 6.417922e+000
1.139803e+003, 6.765439e+000
1.140285e+003, 6.607080e+000
1.140767e+003, 6.270166e+000
1.141249e+003, 6.421132e+000
1.141731e+003, 6.835259e+000
1.142213e+003, 7.049421e+000
1.142695e+003, 7.040407e+000
1.143177e+003, 6.911302e+000
1.143660e+003, 6.712471e+000
1.144142e+003, 6.531876e+000
1.144624e+003, 6.428828e+000
1.145106e+003, 6.374845e+000
1.145588e+003, 6.437286e+000
1.146070e+003, 6.452734e+000
1.146552e+003, 6.067201e+000
1.147034e+003, 5.544082e+000
1.147516e+003, 5.391886e+000
1.147999e+003, 5.635229e+000
1.148481e+003, 5.977639e+000
1.148963e+003, 6.326609e+000
1.149445e+003, 6.560548e+000
1.149927e+003, 6.544443e+000
1.150409e+003, 6.451924e+000
1.150891e+003, 6.315573e+000
1.151373e+003, 6.244517e+000
1.151856e+003, 6.462134e+000
1.152338e+003, 6.807118e+000
1.152820e+003, 6.850594e+000
1.153302e+003, 6.505305e+000
1.153784e+003, 6.308531e+000
1.154266e+003, 6.546153e+000
1.154748e+003, 6.809530e+000
1.155230e+003, 7.035306e+000
1.155713e+003, 7.167615e+000
1.156195e+003, 7.133503e+000
1.156677e+003, 7.011913e+000
1.157159e+003, 6.888527e+000
1.157641e+003, 6.772235e+000
1.158123e+003, 6.669492e+000
1.158605e+003, 6.543935e+000
1.159087e+003, 6.509545e+000
1.159569e+003, 6.681236e+000
1.160052e+003, 6.797647e+000
1.160534e+003, 6.826377e+000
1.161016e+003, 6.728463e+000
1.161498e+003, 6.314469e+000
1.161980e+003, 5.847101e+000
1.162462e+003, 5.966664e+000
1.162944e+003, 6.762656e+000
1.163426e+003, 7.174372e+000
1.163908e+003, 7.099666e+000
1.164391e+003, 6.903417e+000
1.164873e+003, 6.541583e+000
1.165355e+003, 6.356474e+000
1.165837e+003, 6.583715e+000
1.166319e+003, 6.852991e+000
1.166801e+003, 6.683282e+000
1.167283e+003, 6.233819e+000
1.167765e+003, 6.239087e+000
1.168247e+003, 6.725878e+000
1.168730e+003, 6.747444e+000
1.169212e+003, 6.245697e+000
1.169694e+003, 6.006906e+000
1.170176e+003, 6.250349e+000
1.170658e+003, 6.581852e+000
1.171140e+003, 6.743408e+000
1.171622e+003, 6.745724e+000
1.172104e+003, 6.538215e+000
1.172587e+003, 6.211839e+000
1.173069e+003, 6.089657e+000
1.173551e+003, 6.119109e+000
1.174033e+003, 6.070521e+000
1.174515e+003, 5.951370e+000
1.174997e+003, 5.994124e+000
1.175479e+003, 6.270941e+000
1.175961e+003, 6.524512e+000
1.176443e+003, 6.541261e+000
1.176926e+003, 6.435450e+000
1.177408e+003, 6.259542e+000
1.177890e+003, 6.117625e+000
1.178372e+003, 6.270630e+000
1.178854e+003, 6.531339e+000
1.179336e+003, 6.435967e+000
1.179818e+003, 6.029968e+000
1.180300e+003, 5.859303e+000
1.180782e+003, 6.185432e+000
1.181265e+003, 6.463835e+000
1.181747e+003, 6.226107e+000
1.182229e+003, 5.997748e+000
1.182711e+003, 6.113583e+000
1.183193e+003, 6.409884e+000
1.183675e+003, 6.874496e+000
1.184157e+003, 7.328485e+000
1.184639e+003, 7.474682e+000
1.185122e+003, 7.278995e+000
1.185604e+003, 6.974212e+000
1.186086e+003, 6.489228e+000
1.186568e+003, 6.098525e+000
1.187050e+003, 5.738429e+000
1.187532e+003, 5.616995e+000
1.188014e+003, 6.026731e+000
1.188496e+003, 6.537825e+000
1.188979e+003, 6.770900e+000
1.189461e+003, 6.789429e+000
1.189943e+003, 6.768343e+000
1.190425e+003, 6.712875e+000
1.190907e+003, 6.567437e+000
1.191389e+003, 6.227882e+000
1.191871e+003, 6.133107e+000
1.192353e+003, 6.490751e+000
1.192835e+003, 6.659882e+000
1.193318e+003, 6.244153e+000
1.193800e+003, 5.711420e+000
1.194282e+003, 5.638801e+000
1.194764e+003, 5.921583e+000
1.195246e+003, 6.195065e+000
1.195728e+003, 6.453822e+000
1.196210e+003, 6.477029e+000
1.196692e+003, 6.272829e+000
1.197174e+003, 6.250621e+000
1.197657e+003, 6.500340e+000
1.198139e+003, 6.680349e+000
1.198621e+003, 6.568289e+000
1.199103e+003, 6.441881e+000
1.199585e+003, 6.826393e+000
1.200067e+003, 7.334420e+000
1.200549e+003, 7.022349e+000
1.201031e+003, 6.295136e+000
1.201514e+003, 6.080086e+000
1.201996e+003, 6.299330e+000
1.202478e+003, 6.410358e+000
1.202960e+003, 6.269874e+000
1.203442e+003, 6.066916e+000
1.203924e+003, 5.847672e+000
1.204406e+003, 5.793711e+000
1.204888e+003, 6.239221e+000
1.205370e+003, 6.695920e+000
1.205853e+003, 6.713317e+000
1.206335e+003, 6.535980e+000
1.206817e+003, 6.429640e+000
1.207299e+003, 6.416858e+000
1.207781e+003, 6.466337e+000
1.208263e+003, 6.576120e+000
1.208745e+003, 6.672778e+000
1.209227e+003, 6.811803e+000
1.209709e+003, 6.825859e+000
1.210192e+003, 6.607187e+000
1.210674e+003, 6.341845e+000
1.211156e+003, 6.023969e+000
1.211638e+003, 5.789537e+000
1.212120e+003, 5.809609e+000
1.212602e+003, 6.021419e+000
1.213084e+003, 6.203598e+000
1.213566e+003, 6.390292e+000
1.214049e+003, 6.347734e+000
1.214531e+003, 5.997332e+000
1.215013e+003, 5.715101e+000
1.215495e+003, 5.553566e+000
1.215977e+003, 5.572280e+000
1.216459e+003, 5.827103e+000
1.216941e+003, 6.149284e+000
1.217423e+003, 6.331872e+000
1.217906e+003, 6.418355e+000
1.218388e+003, 6.582637e+000
1.218870e+003, 6.775373e+000
1.219352e+003, 6.664180e+000
1.219834e+003, 6.318458e+000
1.220316e+003, 6.229568e+000
1.220798e+003, 6.457137e+000
1.221280e+003, 6.567511e+000
1.221762e+003, 6.320827e+000
1.222245e+003, 6.043106e+000
1.222727e+003, 6.068820e+000
1.223209e+003, 6.229927e+000
1.223691e+003, 6.477064e+000
1.224173e+003, 6.632614e+000
1.224655e+003, 6.308566e+000
1.225137e+003, 5.772601e+000
1.225619e+003, 5.602877e+000
1.226101e+003, 5.839113e+000
1.226584e+003, 6.027955e+000
1.227066e+003, 6.007285e+000
1.227548e+003, 5.945464e+000
1.228030e+003, 5.842842e+000
1.228512e+003, 5.785570e+000
1.228994e+003, 5.780484e+000
1.229476e+003, 5.863871e+000
1.229958e+003, 6.192673e+000
1.230441e+003, 6.562249e+000
1.230923e+003, 6.561649e+000
1.231405e+003, 6.207612e+000
1.231887e+003, 6.103689e+000
1.232369e+003, 6.396218e+000
1.232851e+003, 6.480197e+000
1.233333e+003, 6.280728e+000
1.233815e+003, 6.029561e+000
1.234297e+003, 5.768641e+000
1.234780e+003, 5.607925e+000
1.235262e+003, 5.646089e+000
1.235744e+003, 5.745960e+000
1.236226e+003, 5.639522e+000
1.236708e+003, 5.409842e+000
1.237190e+003, 5.447145e+000
1.237672e+003, 5.680120e+000
1.238154e+003, 5.753026e+000
1.238636e+003, 5.686890e+000
1.239119e+003, 5.819853e+000
1.239601e+003, 6.207911e+000
1.240083e+003, 6.479650e+000
1.240565e+003, 6.380966e+000
1.241047e+003, 6.188870e+000
1.241529e+003, 6.205376e+000
1.242011e+003, 6.220366e+000
1.242493e+003, 5.856792e+000
1.242975e+003, 5.502665e+000
1.243458e+003, 5.784357e+000
1.243940e+003, 6.412857e+000
1.244422e+003, 6.707250e+000
1.244904e+003, 6.566436e+000
1.245386e+003, 6.317556e+000
1.245868e+003, 5.901579e+000
1.246350e+003, 5.649605e+000
1.246832e+003, 5.690354e+000
1.247315e+003, 5.806047e+000
1.247797e+003, 5.985054e+000
1.248279e+003, 6.140418e+000
1.248761e+003, 6.222890e+000
1.249243e+003, 6.226411e+000
1.249725e+003, 6.101621e+000
1.250207e+003, 5.869774e+000
1.250689e+003, 5.941636e+000
1.251172e+003, 6.359285e+000
1.251654e+003, 6.640858e+000
1.252136e+003, 6.752280e+000
1.252618e+003, 6.617442e+000
1.253100e+003, 6.215549e+000
1.253582e+003, 5.896186e+000
1.254064e+003, 5.904670e+000
1.254546e+003, 6.073484e+000
1.255028e+003, 6.210446e+000
1.255510e+003, 6.318435e+000
1.255993e+003, 6.424159e+000
1.256475e+003, 6.491787e+000
1.256957e+003, 6.425139e+000
1.257439e+003, 6.267737e+000
1.257921e+003, 6.102105e+000
1.258403e+003, 5.970778e+000
1.258885e+003, 5.971503e+000
1.259367e+003, 6.191586e+000
1.259850e+003, 6.371850e+000
1.260332e+003, 6.344397e+000
1.260814e+003, 6.311431e+000
1.261296e+003, 6.444540e+000
1.261778e+003, 6.531887e+000
1.262260e+003, 6.341393e+000
1.262742e+003, 6.036004e+000
1.263224e+003, 5.856948e+000
1.263707e+003, 5.804901e+000
1.264189e+003, 5.889895e+000
1.264671e+003, 6.157733e+000
1.265153e+003, 6.444852e+000
1.265635e+003, 6.822221e+000
1.266117e+003, 6.849831e+000
1.266599e+003, 6.383290e+000
1.267081e+003, 5.831656e+000
1.267563e+003, 5.396255e+000
1.268046e+003, 5.238704e+000
1.268528e+003, 5.644765e+000
1.269010e+003, 6.288588e+000
1.269492e+003, 6.346720e+000
1.269974e+003, 6.070547e+000
1.270456e+003, 6.113925e+000
1.270938e+003, 6.383628e+000
1.271420e+003, 6.542682e+000
1.271902e+003, 6.543593e+000
1.272385e+003, 6.469671e+000
1.272867e+003, 6.352303e+000
1.273349e+003, 6.290679e+000
1.273831e+003, 6.430370e+000
1.274313e+003, 6.519961e+000
1.274795e+003, 6.397785e+000
1.275277e+003, 6.224423e+000
1.275759e+003, 6.021409e+000
1.276242e+003, 5.892294e+000
1.276724e+003, 6.020853e+000
1.277206e+003, 6.305528e+000
1.277688e+003, 6.406965e+000
1.278170e+003, 6.305700e+000
1.278652e+003, 6.178998e+000
1.279134e+003, 5.973813e+000
1.279616e+003, 5.966553e+000
1.280099e+003, 6.238081e+000
1.280581e+003, 6.431315e+000
1.281063e+003, 6.415845e+000
1.281545e+003, 6.273685e+000
1.282027e+003, 6.040226e+000
1.282509e+003, 5.883899e+000
1.282991e+003, 6.249009e+000
1.283473e+003, 6.820416e+000
1.283955e+003, 6.923667e+000
##END=



