##NAMES=Rickturnerite
##RRUFFID=R130568
##IDEAL CHEMISTRY=Pb^2+^_7_O_4_[Mg(OH)_4_](OH)Cl_3_
##LOCALITY=Merehead Quarry, Cranmore, Somerset, England, UK
##OWNER=RRUFF
##SOURCE=Rick Turner
##DESCRIPTION=Pale green fibers from the co-type specimen
##STATUS=The identification of this mineral has been confirmed by single-crystal X-ray diffraction.
##URL=rruff.info/R130568
9.059570e+001, 4.703766e+003
9.107782e+001, 4.602172e+003
9.155994e+001, 4.566275e+003
9.204205e+001, 4.647631e+003
9.252417e+001, 4.759549e+003
9.300629e+001, 4.873508e+003
9.348840e+001, 4.954025e+003
9.397052e+001, 4.968964e+003
9.445264e+001, 4.907142e+003
9.493475e+001, 4.834929e+003
9.541687e+001, 4.753312e+003
9.589898e+001, 4.664631e+003
9.638110e+001, 4.573283e+003
9.686321e+001, 4.482596e+003
9.734533e+001, 4.390841e+003
9.782745e+001, 4.290033e+003
9.830956e+001, 4.193662e+003
9.879168e+001, 4.101406e+003
9.927380e+001, 4.013264e+003
9.975591e+001, 3.925927e+003
1.002380e+002, 3.840506e+003
1.007201e+002, 3.762830e+003
1.012023e+002, 3.696851e+003
1.016844e+002, 3.641228e+003
1.021665e+002, 3.586895e+003
1.026486e+002, 3.531507e+003
1.031307e+002, 3.477910e+003
1.036128e+002, 3.428493e+003
1.040950e+002, 3.382591e+003
1.045771e+002, 3.341416e+003
1.050592e+002, 3.304756e+003
1.055413e+002, 3.272083e+003
1.060234e+002, 3.244206e+003
1.065055e+002, 3.222192e+003
1.069877e+002, 3.205072e+003
1.074698e+002, 3.189227e+003
1.079519e+002, 3.175021e+003
1.084340e+002, 3.161379e+003
1.089161e+002, 3.146587e+003
1.093982e+002, 3.131552e+003
1.098804e+002, 3.118623e+003
1.103625e+002, 3.109778e+003
1.108446e+002, 3.105226e+003
1.113267e+002, 3.103823e+003
1.118088e+002, 3.104097e+003
1.122909e+002, 3.108172e+003
1.127731e+002, 3.118254e+003
1.132552e+002, 3.134041e+003
1.137373e+002, 3.152911e+003
1.142194e+002, 3.170885e+003
1.147015e+002, 3.186163e+003
1.151836e+002, 3.204390e+003
1.156658e+002, 3.225782e+003
1.161479e+002, 3.249849e+003
1.166300e+002, 3.276845e+003
1.171121e+002, 3.307083e+003
1.175942e+002, 3.338920e+003
1.180763e+002, 3.367804e+003
1.185584e+002, 3.391231e+003
1.190406e+002, 3.417373e+003
1.195227e+002, 3.451036e+003
1.200048e+002, 3.489569e+003
1.204869e+002, 3.525751e+003
1.209690e+002, 3.555259e+003
1.214511e+002, 3.580964e+003
1.219333e+002, 3.608589e+003
1.224154e+002, 3.636644e+003
1.228975e+002, 3.668999e+003
1.233796e+002, 3.707965e+003
1.238617e+002, 3.753477e+003
1.243438e+002, 3.806616e+003
1.248260e+002, 3.867772e+003
1.253081e+002, 3.936864e+003
1.257902e+002, 4.015197e+003
1.262723e+002, 4.101510e+003
1.267544e+002, 4.198515e+003
1.272365e+002, 4.311202e+003
1.277187e+002, 4.441701e+003
1.282008e+002, 4.588056e+003
1.286829e+002, 4.747619e+003
1.291650e+002, 4.920332e+003
1.296471e+002, 5.104804e+003
1.301292e+002, 5.299578e+003
1.306114e+002, 5.505263e+003
1.310935e+002, 5.730850e+003
1.315756e+002, 5.981053e+003
1.320577e+002, 6.250127e+003
1.325398e+002, 6.543571e+003
1.330219e+002, 6.856425e+003
1.335041e+002, 7.179101e+003
1.339862e+002, 7.508433e+003
1.344683e+002, 7.853032e+003
1.349504e+002, 8.145089e+003
1.354325e+002, 8.423340e+003
1.359146e+002, 8.633090e+003
1.363968e+002, 8.748904e+003
1.368789e+002, 8.766638e+003
1.373610e+002, 8.685496e+003
1.378431e+002, 8.494935e+003
1.383252e+002, 8.173755e+003
1.388073e+002, 7.807396e+003
1.392895e+002, 7.370606e+003
1.397716e+002, 6.901240e+003
1.402537e+002, 6.435509e+003
1.407358e+002, 5.979492e+003
1.412179e+002, 5.542557e+003
1.417000e+002, 5.138744e+003
1.421821e+002, 4.764045e+003
1.426643e+002, 4.421969e+003
1.431464e+002, 4.116261e+003
1.436285e+002, 3.845343e+003
1.441106e+002, 3.601720e+003
1.445927e+002, 3.387536e+003
1.450748e+002, 3.201017e+003
1.455570e+002, 3.035362e+003
1.460391e+002, 2.890766e+003
1.465212e+002, 2.761684e+003
1.470033e+002, 2.644436e+003
1.474854e+002, 2.538966e+003
1.479675e+002, 2.444449e+003
1.484497e+002, 2.364530e+003
1.489318e+002, 2.293063e+003
1.494139e+002, 2.228037e+003
1.498960e+002, 2.169148e+003
1.503781e+002, 2.115494e+003
1.508602e+002, 2.066401e+003
1.513424e+002, 2.021291e+003
1.518245e+002, 1.981952e+003
1.523066e+002, 1.948673e+003
1.527887e+002, 1.919592e+003
1.532708e+002, 1.893335e+003
1.537529e+002, 1.869490e+003
1.542351e+002, 1.847876e+003
1.547172e+002, 1.828137e+003
1.551993e+002, 1.810009e+003
1.556814e+002, 1.794690e+003
1.561635e+002, 1.783081e+003
1.566456e+002, 1.773975e+003
1.571278e+002, 1.766238e+003
1.576099e+002, 1.759340e+003
1.580920e+002, 1.753163e+003
1.585741e+002, 1.747285e+003
1.590562e+002, 1.741818e+003
1.595383e+002, 1.736449e+003
1.600205e+002, 1.730393e+003
1.605026e+002, 1.724321e+003
1.609847e+002, 1.719925e+003
1.614668e+002, 1.718488e+003
1.619489e+002, 1.719384e+003
1.624310e+002, 1.719467e+003
1.629131e+002, 1.718835e+003
1.633953e+002, 1.717418e+003
1.638774e+002, 1.714666e+003
1.643595e+002, 1.710733e+003
1.648416e+002, 1.707279e+003
1.653237e+002, 1.706036e+003
1.658058e+002, 1.705801e+003
1.662880e+002, 1.703867e+003
1.667701e+002, 1.699796e+003
1.672522e+002, 1.694021e+003
1.677343e+002, 1.686533e+003
1.682164e+002, 1.676948e+003
1.686985e+002, 1.667541e+003
1.691807e+002, 1.660848e+003
1.696628e+002, 1.654915e+003
1.701449e+002, 1.647293e+003
1.706270e+002, 1.637368e+003
1.711091e+002, 1.625051e+003
1.715912e+002, 1.609728e+003
1.720734e+002, 1.589820e+003
1.725555e+002, 1.569664e+003
1.730376e+002, 1.551820e+003
1.735197e+002, 1.534615e+003
1.740018e+002, 1.515394e+003
1.744839e+002, 1.492256e+003
1.749661e+002, 1.465946e+003
1.754482e+002, 1.441214e+003
1.759303e+002, 1.418614e+003
1.764124e+002, 1.397217e+003
1.768945e+002, 1.377329e+003
1.773766e+002, 1.358418e+003
1.778588e+002, 1.339684e+003
1.783409e+002, 1.320213e+003
1.788230e+002, 1.299942e+003
1.793051e+002, 1.282689e+003
1.797872e+002, 1.270337e+003
1.802693e+002, 1.259075e+003
1.807515e+002, 1.248972e+003
1.812336e+002, 1.239208e+003
1.817157e+002, 1.228146e+003
1.821978e+002, 1.213982e+003
1.826799e+002, 1.196014e+003
1.831620e+002, 1.182276e+003
1.836441e+002, 1.175515e+003
1.841263e+002, 1.169501e+003
1.846084e+002, 1.161144e+003
1.850905e+002, 1.150504e+003
1.855726e+002, 1.139476e+003
1.860547e+002, 1.129703e+003
1.865368e+002, 1.121351e+003
1.870190e+002, 1.114164e+003
1.875011e+002, 1.108844e+003
1.879832e+002, 1.104192e+003
1.884653e+002, 1.099409e+003
1.889474e+002, 1.094422e+003
1.894296e+002, 1.089433e+003
1.899117e+002, 1.084543e+003
1.903938e+002, 1.079798e+003
1.908759e+002, 1.075541e+003
1.913580e+002, 1.071879e+003
1.918401e+002, 1.068719e+003
1.923223e+002, 1.066405e+003
1.928044e+002, 1.065258e+003
1.932865e+002, 1.063433e+003
1.937686e+002, 1.057488e+003
1.942507e+002, 1.048898e+003
1.947328e+002, 1.042664e+003
1.952150e+002, 1.042036e+003
1.956971e+002, 1.044493e+003
1.961792e+002, 1.045083e+003
1.966613e+002, 1.043100e+003
1.971434e+002, 1.039853e+003
1.976255e+002, 1.035877e+003
1.981077e+002, 1.031426e+003
1.985898e+002, 1.027245e+003
1.990719e+002, 1.023449e+003
1.995540e+002, 1.020148e+003
2.000361e+002, 1.018003e+003
2.005182e+002, 1.017929e+003
2.010004e+002, 1.017775e+003
2.014825e+002, 1.016412e+003
2.019646e+002, 1.014087e+003
2.024467e+002, 1.011428e+003
2.029288e+002, 1.008499e+003
2.034109e+002, 1.005379e+003
2.038930e+002, 1.003545e+003
2.043752e+002, 1.004164e+003
2.048573e+002, 1.004987e+003
2.053394e+002, 1.005748e+003
2.058215e+002, 1.006088e+003
2.063036e+002, 1.005318e+003
2.067857e+002, 1.002566e+003
2.072679e+002, 9.976843e+002
2.077500e+002, 9.937201e+002
2.082321e+002, 9.917217e+002
2.087142e+002, 9.897322e+002
2.091963e+002, 9.869474e+002
2.096784e+002, 9.836042e+002
2.101606e+002, 9.804838e+002
2.106427e+002, 9.783291e+002
2.111248e+002, 9.772879e+002
2.116069e+002, 9.759908e+002
2.120890e+002, 9.743150e+002
2.125711e+002, 9.725278e+002
2.130533e+002, 9.705652e+002
2.135354e+002, 9.685443e+002
2.140175e+002, 9.667377e+002
2.144996e+002, 9.654413e+002
2.149817e+002, 9.647715e+002
2.154638e+002, 9.637770e+002
2.159460e+002, 9.623932e+002
2.164281e+002, 9.608274e+002
2.169102e+002, 9.591022e+002
2.173923e+002, 9.572668e+002
2.178744e+002, 9.553986e+002
2.183565e+002, 9.535479e+002
2.188387e+002, 9.517021e+002
2.193208e+002, 9.501592e+002
2.198029e+002, 9.494103e+002
2.202850e+002, 9.485256e+002
2.207671e+002, 9.467302e+002
2.212492e+002, 9.440984e+002
2.217314e+002, 9.414913e+002
2.222135e+002, 9.396711e+002
2.226956e+002, 9.387106e+002
2.231777e+002, 9.375959e+002
2.236598e+002, 9.363196e+002
2.241419e+002, 9.348974e+002
2.246240e+002, 9.332797e+002
2.251062e+002, 9.314771e+002
2.255883e+002, 9.296625e+002
2.260704e+002, 9.278239e+002
2.265525e+002, 9.260818e+002
2.270346e+002, 9.250059e+002
2.275167e+002, 9.245109e+002
2.279989e+002, 9.247810e+002
2.284810e+002, 9.266705e+002
2.289631e+002, 9.302916e+002
2.294452e+002, 9.330576e+002
2.299273e+002, 9.320535e+002
2.304094e+002, 9.287059e+002
2.308916e+002, 9.270172e+002
2.313737e+002, 9.292384e+002
2.318558e+002, 9.325214e+002
2.323379e+002, 9.332923e+002
2.328200e+002, 9.311640e+002
2.333021e+002, 9.292394e+002
2.337843e+002, 9.300627e+002
2.342664e+002, 9.322761e+002
2.347485e+002, 9.337558e+002
2.352306e+002, 9.330798e+002
2.357127e+002, 9.321989e+002
2.361948e+002, 9.340416e+002
2.366770e+002, 9.391774e+002
2.371591e+002, 9.447432e+002
2.376412e+002, 9.495388e+002
2.381233e+002, 9.538793e+002
2.386054e+002, 9.580769e+002
2.390875e+002, 9.621972e+002
2.395697e+002, 9.662626e+002
2.400518e+002, 9.702203e+002
2.405339e+002, 9.739908e+002
2.410160e+002, 9.779757e+002
2.414981e+002, 9.822282e+002
2.419802e+002, 9.868015e+002
2.424624e+002, 9.917355e+002
2.429445e+002, 9.969850e+002
2.434266e+002, 1.002734e+003
2.439087e+002, 1.009339e+003
2.443908e+002, 1.016928e+003
2.448729e+002, 1.025036e+003
2.453550e+002, 1.034162e+003
2.458372e+002, 1.043359e+003
2.463193e+002, 1.051697e+003
2.468014e+002, 1.058842e+003
2.472835e+002, 1.065406e+003
2.477656e+002, 1.072592e+003
2.482477e+002, 1.080684e+003
2.487299e+002, 1.088682e+003
2.492120e+002, 1.096168e+003
2.496941e+002, 1.103613e+003
2.501762e+002, 1.111415e+003
2.506583e+002, 1.119706e+003
2.511404e+002, 1.128194e+003
2.516226e+002, 1.136559e+003
2.521047e+002, 1.144986e+003
2.525868e+002, 1.152724e+003
2.530689e+002, 1.159911e+003
2.535510e+002, 1.166409e+003
2.540331e+002, 1.172036e+003
2.545153e+002, 1.176778e+003
2.549974e+002, 1.180958e+003
2.554795e+002, 1.185106e+003
2.559616e+002, 1.189378e+003
2.564437e+002, 1.193221e+003
2.569258e+002, 1.197693e+003
2.574080e+002, 1.201111e+003
2.578901e+002, 1.202549e+003
2.583722e+002, 1.201757e+003
2.588543e+002, 1.198869e+003
2.593364e+002, 1.193727e+003
2.598185e+002, 1.184738e+003
2.603007e+002, 1.177547e+003
2.607828e+002, 1.174199e+003
2.612649e+002, 1.170637e+003
2.617470e+002, 1.164583e+003
2.622291e+002, 1.155684e+003
2.627112e+002, 1.144799e+003
2.631934e+002, 1.132601e+003
2.636755e+002, 1.118318e+003
2.641576e+002, 1.105596e+003
2.646397e+002, 1.094964e+003
2.651218e+002, 1.085143e+003
2.656039e+002, 1.075906e+003
2.660861e+002, 1.067000e+003
2.665682e+002, 1.057818e+003
2.670503e+002, 1.047678e+003
2.675324e+002, 1.036344e+003
2.680145e+002, 1.025760e+003
2.684966e+002, 1.015726e+003
2.689788e+002, 1.006439e+003
2.694609e+002, 9.980522e+002
2.699430e+002, 9.905485e+002
2.704251e+002, 9.839528e+002
2.709072e+002, 9.784584e+002
2.713893e+002, 9.741779e+002
2.718715e+002, 9.685674e+002
2.723536e+002, 9.600281e+002
2.728357e+002, 9.520272e+002
2.733178e+002, 9.459879e+002
2.737999e+002, 9.417188e+002
2.742820e+002, 9.386545e+002
2.747642e+002, 9.366510e+002
2.752463e+002, 9.355118e+002
2.757284e+002, 9.327652e+002
2.762105e+002, 9.263376e+002
2.766926e+002, 9.209109e+002
2.771747e+002, 9.188334e+002
2.776568e+002, 9.189479e+002
2.781389e+002, 9.186129e+002
2.786211e+002, 9.163512e+002
2.791032e+002, 9.126204e+002
2.795853e+002, 9.093263e+002
2.800674e+002, 9.069273e+002
2.805495e+002, 9.043272e+002
2.810316e+002, 9.016256e+002
2.815138e+002, 8.985005e+002
2.819959e+002, 8.942725e+002
2.824780e+002, 8.885856e+002
2.829601e+002, 8.818580e+002
2.834422e+002, 8.751315e+002
2.839243e+002, 8.677293e+002
2.844065e+002, 8.614801e+002
2.848886e+002, 8.574550e+002
2.853707e+002, 8.546292e+002
2.858528e+002, 8.516754e+002
2.863349e+002, 8.482090e+002
2.868170e+002, 8.441369e+002
2.872992e+002, 8.388900e+002
2.877813e+002, 8.316793e+002
2.882634e+002, 8.260883e+002
2.887455e+002, 8.236000e+002
2.892276e+002, 8.226915e+002
2.897097e+002, 8.219468e+002
2.901919e+002, 8.210906e+002
2.906740e+002, 8.194407e+002
2.911561e+002, 8.154708e+002
2.916382e+002, 8.086181e+002
2.921203e+002, 8.042402e+002
2.926024e+002, 8.052975e+002
2.930846e+002, 8.076910e+002
2.935667e+002, 8.068280e+002
2.940488e+002, 8.021782e+002
2.945309e+002, 7.975901e+002
2.950130e+002, 7.969276e+002
2.954951e+002, 8.002909e+002
2.959773e+002, 8.023638e+002
2.964594e+002, 8.021971e+002
2.969415e+002, 8.012300e+002
2.974236e+002, 8.002404e+002
2.979057e+002, 7.993431e+002
2.983878e+002, 7.989302e+002
2.988700e+002, 7.992640e+002
2.993521e+002, 8.003922e+002
2.998342e+002, 8.020375e+002
3.003163e+002, 8.047690e+002
3.007984e+002, 8.074709e+002
3.012805e+002, 8.096352e+002
3.017627e+002, 8.112571e+002
3.022448e+002, 8.121885e+002
3.027269e+002, 8.118411e+002
3.032090e+002, 8.111710e+002
3.036911e+002, 8.129139e+002
3.041732e+002, 8.179626e+002
3.046554e+002, 8.236674e+002
3.051375e+002, 8.296729e+002
3.056196e+002, 8.355038e+002
3.061017e+002, 8.395214e+002
3.065838e+002, 8.405146e+002
3.070659e+002, 8.405192e+002
3.075481e+002, 8.437191e+002
3.080302e+002, 8.506258e+002
3.085123e+002, 8.576765e+002
3.089944e+002, 8.640937e+002
3.094765e+002, 8.698353e+002
3.099586e+002, 8.743684e+002
3.104408e+002, 8.772645e+002
3.109229e+002, 8.801307e+002
3.114050e+002, 8.855139e+002
3.118871e+002, 8.935086e+002
3.123692e+002, 9.007194e+002
3.128513e+002, 9.055678e+002
3.133335e+002, 9.096990e+002
3.138156e+002, 9.150735e+002
3.142977e+002, 9.219686e+002
3.147798e+002, 9.296846e+002
3.152619e+002, 9.377774e+002
3.157440e+002, 9.462606e+002
3.162262e+002, 9.548318e+002
3.167083e+002, 9.641686e+002
3.171904e+002, 9.730848e+002
3.176725e+002, 9.801943e+002
3.181546e+002, 9.856256e+002
3.186367e+002, 9.911012e+002
3.191188e+002, 9.977338e+002
3.196010e+002, 1.005388e+003
3.200831e+002, 1.013145e+003
3.205652e+002, 1.020344e+003
3.210473e+002, 1.028323e+003
3.215294e+002, 1.038916e+003
3.220115e+002, 1.051168e+003
3.224937e+002, 1.061679e+003
3.229758e+002, 1.068396e+003
3.234579e+002, 1.072866e+003
3.239400e+002, 1.078904e+003
3.244221e+002, 1.087046e+003
3.249042e+002, 1.095300e+003
3.253864e+002, 1.103693e+003
3.258685e+002, 1.111645e+003
3.263506e+002, 1.117643e+003
3.268327e+002, 1.120830e+003
3.273148e+002, 1.123406e+003
3.277969e+002, 1.129405e+003
3.282791e+002, 1.139615e+003
3.287612e+002, 1.148038e+003
3.292433e+002, 1.153688e+003
3.297254e+002, 1.156906e+003
3.302075e+002, 1.157471e+003
3.306896e+002, 1.155344e+003
3.311718e+002, 1.152461e+003
3.316539e+002, 1.150962e+003
3.321360e+002, 1.150975e+003
3.326181e+002, 1.149163e+003
3.331002e+002, 1.145751e+003
3.335823e+002, 1.140254e+003
3.340645e+002, 1.131492e+003
3.345466e+002, 1.119866e+003
3.350287e+002, 1.107751e+003
3.355108e+002, 1.096998e+003
3.359929e+002, 1.087170e+003
3.364750e+002, 1.075579e+003
3.369572e+002, 1.061365e+003
3.374393e+002, 1.046400e+003
3.379214e+002, 1.031178e+003
3.384035e+002, 1.015747e+003
3.388856e+002, 1.000267e+003
3.393677e+002, 9.847529e+002
3.398499e+002, 9.693922e+002
3.403320e+002, 9.549147e+002
3.408141e+002, 9.423534e+002
3.412962e+002, 9.287451e+002
3.417783e+002, 9.127086e+002
3.422604e+002, 8.955923e+002
3.427426e+002, 8.790690e+002
3.432247e+002, 8.636777e+002
3.437068e+002, 8.491859e+002
3.441889e+002, 8.353751e+002
3.446710e+002, 8.224757e+002
3.451531e+002, 8.097581e+002
3.456353e+002, 7.974896e+002
3.461174e+002, 7.853225e+002
3.465995e+002, 7.726721e+002
3.470816e+002, 7.597321e+002
3.475637e+002, 7.473749e+002
3.480458e+002, 7.365850e+002
3.485280e+002, 7.274121e+002
3.490101e+002, 7.184374e+002
3.494922e+002, 7.104059e+002
3.499743e+002, 7.018119e+002
3.504564e+002, 6.913820e+002
3.509385e+002, 6.799381e+002
3.514207e+002, 6.693071e+002
3.519028e+002, 6.606302e+002
3.523849e+002, 6.535531e+002
3.528670e+002, 6.464981e+002
3.533491e+002, 6.402970e+002
3.538312e+002, 6.331150e+002
3.543134e+002, 6.236716e+002
3.547955e+002, 6.135620e+002
3.552776e+002, 6.045110e+002
3.557597e+002, 5.971433e+002
3.562418e+002, 5.910509e+002
3.567239e+002, 5.855198e+002
3.572061e+002, 5.807394e+002
3.576882e+002, 5.762147e+002
3.581703e+002, 5.723275e+002
3.586524e+002, 5.683783e+002
3.591345e+002, 5.638018e+002
3.596166e+002, 5.586075e+002
3.600987e+002, 5.533004e+002
3.605808e+002, 5.483032e+002
3.610630e+002, 5.435991e+002
3.615451e+002, 5.393724e+002
3.620272e+002, 5.363694e+002
3.625093e+002, 5.330485e+002
3.629914e+002, 5.286820e+002
3.634735e+002, 5.236170e+002
3.639557e+002, 5.185784e+002
3.644378e+002, 5.139714e+002
3.649199e+002, 5.097931e+002
3.654020e+002, 5.060648e+002
3.658841e+002, 5.034230e+002
3.663662e+002, 5.003604e+002
3.668484e+002, 4.960573e+002
3.673305e+002, 4.916100e+002
3.678126e+002, 4.881776e+002
3.682947e+002, 4.861143e+002
3.687768e+002, 4.847377e+002
3.692589e+002, 4.830783e+002
3.697411e+002, 4.812243e+002
3.702232e+002, 4.788134e+002
3.707053e+002, 4.755170e+002
3.711874e+002, 4.719618e+002
3.716695e+002, 4.681844e+002
3.721516e+002, 4.643704e+002
3.726338e+002, 4.609160e+002
3.731159e+002, 4.583461e+002
3.735980e+002, 4.566237e+002
3.740801e+002, 4.543083e+002
3.745622e+002, 4.505678e+002
3.750443e+002, 4.472578e+002
3.755265e+002, 4.453512e+002
3.760086e+002, 4.441610e+002
3.764907e+002, 4.426352e+002
3.769728e+002, 4.402224e+002
3.774549e+002, 4.372554e+002
3.779370e+002, 4.343467e+002
3.784192e+002, 4.313150e+002
3.789013e+002, 4.288780e+002
3.793834e+002, 4.278226e+002
3.798655e+002, 4.270725e+002
3.803476e+002, 4.256567e+002
3.808297e+002, 4.233955e+002
3.813119e+002, 4.212090e+002
3.817940e+002, 4.202664e+002
3.822761e+002, 4.205324e+002
3.827582e+002, 4.202446e+002
3.832403e+002, 4.188470e+002
3.837224e+002, 4.172206e+002
3.842046e+002, 4.158903e+002
3.846867e+002, 4.148400e+002
3.851688e+002, 4.139506e+002
3.856509e+002, 4.135541e+002
3.861330e+002, 4.132168e+002
3.866151e+002, 4.115333e+002
3.870973e+002, 4.079025e+002
3.875794e+002, 4.051255e+002
3.880615e+002, 4.062192e+002
3.885436e+002, 4.087906e+002
3.890257e+002, 4.093016e+002
3.895078e+002, 4.063729e+002
3.899900e+002, 4.025583e+002
3.904721e+002, 3.998409e+002
3.909542e+002, 3.981525e+002
3.914363e+002, 3.971632e+002
3.919184e+002, 3.971207e+002
3.924005e+002, 3.972991e+002
3.928827e+002, 3.967726e+002
3.933648e+002, 3.955640e+002
3.938469e+002, 3.938385e+002
3.943290e+002, 3.908754e+002
3.948111e+002, 3.876906e+002
3.952932e+002, 3.864105e+002
3.957754e+002, 3.875246e+002
3.962575e+002, 3.883769e+002
3.967396e+002, 3.861697e+002
3.972217e+002, 3.812333e+002
3.977038e+002, 3.778657e+002
3.981859e+002, 3.769243e+002
3.986681e+002, 3.769794e+002
3.991501e+002, 3.776748e+002
3.996323e+002, 3.786940e+002
4.001144e+002, 3.790332e+002
4.005965e+002, 3.781497e+002
4.010786e+002, 3.763280e+002
4.015607e+002, 3.742944e+002
4.020428e+002, 3.715273e+002
4.025250e+002, 3.694657e+002
4.030071e+002, 3.688133e+002
4.034892e+002, 3.687843e+002
4.039713e+002, 3.685617e+002
4.044534e+002, 3.679419e+002
4.049355e+002, 3.670319e+002
4.054177e+002, 3.658534e+002
4.058998e+002, 3.642008e+002
4.063819e+002, 3.634668e+002
4.068640e+002, 3.645657e+002
4.073461e+002, 3.655944e+002
4.078282e+002, 3.654280e+002
4.083104e+002, 3.644030e+002
4.087925e+002, 3.636595e+002
4.092746e+002, 3.639971e+002
4.097567e+002, 3.649471e+002
4.102388e+002, 3.643111e+002
4.107209e+002, 3.597335e+002
4.112031e+002, 3.566162e+002
4.116852e+002, 3.567352e+002
4.121673e+002, 3.577538e+002
4.126494e+002, 3.571313e+002
4.131315e+002, 3.543466e+002
4.136136e+002, 3.511786e+002
4.140958e+002, 3.500921e+002
4.145779e+002, 3.516430e+002
4.150600e+002, 3.530420e+002
4.155421e+002, 3.548361e+002
4.160242e+002, 3.559444e+002
4.165063e+002, 3.553787e+002
4.169885e+002, 3.537467e+002
4.174706e+002, 3.525218e+002
4.179527e+002, 3.527541e+002
4.184348e+002, 3.539723e+002
4.189169e+002, 3.543794e+002
4.193990e+002, 3.531760e+002
4.198812e+002, 3.529655e+002
4.203633e+002, 3.554591e+002
4.208454e+002, 3.587506e+002
4.213275e+002, 3.610104e+002
4.218096e+002, 3.617777e+002
4.222917e+002, 3.621966e+002
4.227739e+002, 3.634946e+002
4.232560e+002, 3.656171e+002
4.237381e+002, 3.674159e+002
4.242202e+002, 3.683121e+002
4.247023e+002, 3.694271e+002
4.251844e+002, 3.719107e+002
4.256666e+002, 3.753781e+002
4.261487e+002, 3.784463e+002
4.266308e+002, 3.800301e+002
4.271129e+002, 3.811145e+002
4.275950e+002, 3.831242e+002
4.280771e+002, 3.861043e+002
4.285593e+002, 3.896236e+002
4.290414e+002, 3.939077e+002
4.295235e+002, 3.983408e+002
4.300056e+002, 4.016017e+002
4.304877e+002, 4.032774e+002
4.309698e+002, 4.047255e+002
4.314520e+002, 4.062233e+002
4.319341e+002, 4.080159e+002
4.324162e+002, 4.107627e+002
4.328983e+002, 4.146909e+002
4.333804e+002, 4.190502e+002
4.338625e+002, 4.230779e+002
4.343447e+002, 4.267486e+002
4.348268e+002, 4.299813e+002
4.353089e+002, 4.325107e+002
4.357910e+002, 4.348238e+002
4.362731e+002, 4.372344e+002
4.367552e+002, 4.397016e+002
4.372374e+002, 4.420792e+002
4.377195e+002, 4.443243e+002
4.382016e+002, 4.463293e+002
4.386837e+002, 4.476349e+002
4.391658e+002, 4.485072e+002
4.396479e+002, 4.483007e+002
4.401301e+002, 4.463914e+002
4.406122e+002, 4.437134e+002
4.410943e+002, 4.412965e+002
4.415764e+002, 4.392753e+002
4.420585e+002, 4.368012e+002
4.425406e+002, 4.327669e+002
4.430227e+002, 4.268343e+002
4.435049e+002, 4.217610e+002
4.439870e+002, 4.186317e+002
4.444691e+002, 4.152621e+002
4.449512e+002, 4.109043e+002
4.454333e+002, 4.058968e+002
4.459154e+002, 4.008222e+002
4.463976e+002, 3.960275e+002
4.468797e+002, 3.912747e+002
4.473618e+002, 3.858390e+002
4.478439e+002, 3.791709e+002
4.483260e+002, 3.734756e+002
4.488081e+002, 3.698030e+002
4.492903e+002, 3.667383e+002
4.497724e+002, 3.635877e+002
4.502545e+002, 3.602360e+002
4.507366e+002, 3.566787e+002
4.512187e+002, 3.524977e+002
4.517008e+002, 3.480235e+002
4.521830e+002, 3.450872e+002
4.526651e+002, 3.444918e+002
4.531472e+002, 3.435326e+002
4.536293e+002, 3.399084e+002
4.541114e+002, 3.350761e+002
4.545935e+002, 3.310504e+002
4.550757e+002, 3.283615e+002
4.555578e+002, 3.263789e+002
4.560399e+002, 3.247975e+002
4.565220e+002, 3.235350e+002
4.570041e+002, 3.221694e+002
4.574862e+002, 3.205148e+002
4.579684e+002, 3.188594e+002
4.584505e+002, 3.177231e+002
4.589326e+002, 3.171159e+002
4.594147e+002, 3.161208e+002
4.598968e+002, 3.142013e+002
4.603789e+002, 3.121038e+002
4.608611e+002, 3.103925e+002
4.613432e+002, 3.091007e+002
4.618253e+002, 3.081754e+002
4.623074e+002, 3.076520e+002
4.627895e+002, 3.073969e+002
4.632716e+002, 3.068307e+002
4.637538e+002, 3.060006e+002
4.642359e+002, 3.048277e+002
4.647180e+002, 3.027586e+002
4.652001e+002, 3.006234e+002
4.656822e+002, 2.995060e+002
4.661643e+002, 2.994891e+002
4.666465e+002, 2.995446e+002
4.671286e+002, 2.985133e+002
4.676107e+002, 2.962546e+002
4.680928e+002, 2.941617e+002
4.685749e+002, 2.914605e+002
4.690570e+002, 2.897750e+002
4.695392e+002, 2.907165e+002
4.700213e+002, 2.926464e+002
4.705034e+002, 2.931308e+002
4.709855e+002, 2.910787e+002
4.714676e+002, 2.875250e+002
4.719497e+002, 2.839513e+002
4.724319e+002, 2.800616e+002
4.729140e+002, 2.774916e+002
4.733961e+002, 2.777657e+002
4.738782e+002, 2.783828e+002
4.743603e+002, 2.779819e+002
4.748424e+002, 2.766509e+002
4.753246e+002, 2.751126e+002
4.758067e+002, 2.738678e+002
4.762888e+002, 2.726842e+002
4.767709e+002, 2.708143e+002
4.772530e+002, 2.680726e+002
4.777351e+002, 2.658978e+002
4.782173e+002, 2.654034e+002
4.786994e+002, 2.656525e+002
4.791815e+002, 2.651594e+002
4.796636e+002, 2.637414e+002
4.801457e+002, 2.620474e+002
4.806278e+002, 2.599093e+002
4.811100e+002, 2.578363e+002
4.815920e+002, 2.570779e+002
4.820742e+002, 2.579142e+002
4.825563e+002, 2.586584e+002
4.830384e+002, 2.576277e+002
4.835205e+002, 2.548573e+002
4.840026e+002, 2.530446e+002
4.844847e+002, 2.528322e+002
4.849669e+002, 2.528151e+002
4.854490e+002, 2.525110e+002
4.859311e+002, 2.519923e+002
4.864132e+002, 2.515363e+002
4.868953e+002, 2.512397e+002
4.873774e+002, 2.506875e+002
4.878596e+002, 2.490566e+002
4.883417e+002, 2.453743e+002
4.888238e+002, 2.433026e+002
4.893059e+002, 2.436638e+002
4.897880e+002, 2.445650e+002
4.902701e+002, 2.454743e+002
4.907523e+002, 2.461665e+002
4.912344e+002, 2.464091e+002
4.917165e+002, 2.460526e+002
4.921986e+002, 2.451789e+002
4.926807e+002, 2.438560e+002
4.931628e+002, 2.416886e+002
4.936450e+002, 2.401789e+002
4.941271e+002, 2.399223e+002
4.946092e+002, 2.402462e+002
4.950913e+002, 2.412216e+002
4.955734e+002, 2.426246e+002
4.960555e+002, 2.432021e+002
4.965377e+002, 2.411516e+002
4.970198e+002, 2.376892e+002
4.975019e+002, 2.364277e+002
4.979840e+002, 2.378700e+002
4.984661e+002, 2.394881e+002
4.989482e+002, 2.401309e+002
4.994304e+002, 2.399594e+002
4.999125e+002, 2.393111e+002
5.003946e+002, 2.380528e+002
5.008767e+002, 2.366845e+002
5.013588e+002, 2.347535e+002
5.018409e+002, 2.330541e+002
5.023231e+002, 2.335621e+002
5.028052e+002, 2.367156e+002
5.032873e+002, 2.397743e+002
5.037694e+002, 2.400321e+002
5.042515e+002, 2.373617e+002
5.047336e+002, 2.351408e+002
5.052158e+002, 2.331089e+002
5.056979e+002, 2.317542e+002
5.061800e+002, 2.318165e+002
5.066621e+002, 2.324967e+002
5.071442e+002, 2.325499e+002
5.076263e+002, 2.315434e+002
5.081085e+002, 2.300724e+002
5.085906e+002, 2.289997e+002
5.090727e+002, 2.282968e+002
5.095548e+002, 2.280921e+002
5.100369e+002, 2.291563e+002
5.105190e+002, 2.299463e+002
5.110012e+002, 2.295941e+002
5.114833e+002, 2.285732e+002
5.119654e+002, 2.279267e+002
5.124475e+002, 2.282899e+002
5.129296e+002, 2.288849e+002
5.134117e+002, 2.281491e+002
5.138939e+002, 2.258761e+002
5.143760e+002, 2.238131e+002
5.148581e+002, 2.221064e+002
5.153402e+002, 2.209915e+002
5.158223e+002, 2.208605e+002
5.163044e+002, 2.215595e+002
5.167866e+002, 2.220835e+002
5.172687e+002, 2.219863e+002
5.177508e+002, 2.215024e+002
5.182329e+002, 2.209053e+002
5.187150e+002, 2.201986e+002
5.191971e+002, 2.192939e+002
5.196793e+002, 2.180368e+002
5.201614e+002, 2.166883e+002
5.206435e+002, 2.159055e+002
5.211256e+002, 2.158040e+002
5.216077e+002, 2.157706e+002
5.220898e+002, 2.159299e+002
5.225720e+002, 2.159597e+002
5.230541e+002, 2.153613e+002
5.235362e+002, 2.142725e+002
5.240183e+002, 2.135059e+002
5.245004e+002, 2.137500e+002
5.249825e+002, 2.146669e+002
5.254647e+002, 2.144584e+002
5.259468e+002, 2.120457e+002
5.264289e+002, 2.100132e+002
5.269110e+002, 2.086015e+002
5.273931e+002, 2.076169e+002
5.278752e+002, 2.068547e+002
5.283574e+002, 2.063232e+002
5.288395e+002, 2.062637e+002
5.293216e+002, 2.071343e+002
5.298037e+002, 2.087007e+002
5.302858e+002, 2.094998e+002
5.307679e+002, 2.093215e+002
5.312501e+002, 2.088525e+002
5.317322e+002, 2.080843e+002
5.322143e+002, 2.073186e+002
5.326964e+002, 2.068835e+002
5.331785e+002, 2.068520e+002
5.336606e+002, 2.069873e+002
5.341428e+002, 2.074239e+002
5.346249e+002, 2.078614e+002
5.351070e+002, 2.074602e+002
5.355891e+002, 2.060450e+002
5.360712e+002, 2.047384e+002
5.365533e+002, 2.045329e+002
5.370355e+002, 2.051786e+002
5.375176e+002, 2.050962e+002
5.379997e+002, 2.030841e+002
5.384818e+002, 2.018748e+002
5.389639e+002, 2.030313e+002
5.394460e+002, 2.050490e+002
5.399282e+002, 2.060527e+002
5.404103e+002, 2.056678e+002
5.408924e+002, 2.047153e+002
5.413745e+002, 2.040473e+002
5.418566e+002, 2.036806e+002
5.423387e+002, 2.030046e+002
5.428209e+002, 2.013709e+002
5.433029e+002, 2.002178e+002
5.437850e+002, 2.001059e+002
5.442672e+002, 2.004912e+002
5.447493e+002, 2.007668e+002
5.452314e+002, 2.007693e+002
5.457135e+002, 2.007440e+002
5.461956e+002, 2.010266e+002
5.466777e+002, 2.015764e+002
5.471599e+002, 2.019345e+002
5.476420e+002, 2.021596e+002
5.481241e+002, 2.020184e+002
5.486062e+002, 2.009289e+002
5.490883e+002, 1.994668e+002
5.495704e+002, 1.985779e+002
5.500526e+002, 1.985491e+002
5.505347e+002, 1.988380e+002
5.510168e+002, 1.995464e+002
5.514989e+002, 2.002501e+002
5.519810e+002, 1.997708e+002
5.524631e+002, 1.978309e+002
5.529453e+002, 1.959427e+002
5.534274e+002, 1.956414e+002
5.539095e+002, 1.969359e+002
5.543916e+002, 1.974498e+002
5.548737e+002, 1.965202e+002
5.553558e+002, 1.957259e+002
5.558380e+002, 1.956060e+002
5.563201e+002, 1.958100e+002
5.568022e+002, 1.959333e+002
5.572843e+002, 1.958550e+002
5.577664e+002, 1.956425e+002
5.582485e+002, 1.953452e+002
5.587307e+002, 1.949586e+002
5.592128e+002, 1.946606e+002
5.596949e+002, 1.945728e+002
5.601770e+002, 1.943988e+002
5.606591e+002, 1.938818e+002
5.611412e+002, 1.933036e+002
5.616234e+002, 1.930511e+002
5.621055e+002, 1.932475e+002
5.625876e+002, 1.934946e+002
5.630697e+002, 1.935494e+002
5.635518e+002, 1.933820e+002
5.640339e+002, 1.926950e+002
5.645161e+002, 1.912758e+002
5.649982e+002, 1.902967e+002
5.654803e+002, 1.910277e+002
5.659624e+002, 1.928895e+002
5.664445e+002, 1.933133e+002
5.669266e+002, 1.913482e+002
5.674088e+002, 1.893154e+002
5.678909e+002, 1.878949e+002
5.683730e+002, 1.868960e+002
5.688551e+002, 1.858879e+002
5.693372e+002, 1.848935e+002
5.698193e+002, 1.846546e+002
5.703015e+002, 1.860536e+002
5.707836e+002, 1.889543e+002
5.712657e+002, 1.906059e+002
5.717478e+002, 1.899260e+002
5.722299e+002, 1.894046e+002
5.727120e+002, 1.897831e+002
5.731942e+002, 1.902617e+002
5.736763e+002, 1.899562e+002
5.741584e+002, 1.888023e+002
5.746405e+002, 1.876156e+002
5.751226e+002, 1.872068e+002
5.756047e+002, 1.873673e+002
5.760869e+002, 1.871551e+002
5.765690e+002, 1.864352e+002
5.770511e+002, 1.859180e+002
5.775332e+002, 1.860840e+002
5.780153e+002, 1.865769e+002
5.784974e+002, 1.868766e+002
5.789796e+002, 1.870156e+002
5.794617e+002, 1.867745e+002
5.799438e+002, 1.857217e+002
5.804259e+002, 1.844534e+002
5.809080e+002, 1.836116e+002
5.813901e+002, 1.832399e+002
5.818723e+002, 1.831161e+002
5.823544e+002, 1.831008e+002
5.828365e+002, 1.832337e+002
5.833186e+002, 1.836664e+002
5.838007e+002, 1.849689e+002
5.842828e+002, 1.856904e+002
5.847650e+002, 1.857502e+002
5.852471e+002, 1.853144e+002
5.857292e+002, 1.840732e+002
5.862113e+002, 1.823985e+002
5.866934e+002, 1.813086e+002
5.871755e+002, 1.815809e+002
5.876577e+002, 1.825684e+002
5.881398e+002, 1.827852e+002
5.886219e+002, 1.821387e+002
5.891040e+002, 1.812871e+002
5.895861e+002, 1.799274e+002
5.900682e+002, 1.789346e+002
5.905504e+002, 1.794862e+002
5.910325e+002, 1.812859e+002
5.915146e+002, 1.823801e+002
5.919967e+002, 1.817477e+002
5.924788e+002, 1.805361e+002
5.929609e+002, 1.795441e+002
5.934431e+002, 1.787713e+002
5.939252e+002, 1.781184e+002
5.944073e+002, 1.775396e+002
5.948894e+002, 1.772159e+002
5.953715e+002, 1.774692e+002
5.958536e+002, 1.785281e+002
5.963358e+002, 1.791226e+002
5.968179e+002, 1.787427e+002
5.973000e+002, 1.785348e+002
5.977821e+002, 1.792889e+002
5.982642e+002, 1.803277e+002
5.987463e+002, 1.806105e+002
5.992285e+002, 1.797968e+002
5.997106e+002, 1.785433e+002
6.001927e+002, 1.774260e+002
6.006748e+002, 1.764615e+002
6.011569e+002, 1.764070e+002
6.016390e+002, 1.778391e+002
6.021212e+002, 1.790207e+002
6.026033e+002, 1.786274e+002
6.030854e+002, 1.774445e+002
6.035675e+002, 1.766718e+002
6.040496e+002, 1.766150e+002
6.045317e+002, 1.764677e+002
6.050139e+002, 1.757246e+002
6.054960e+002, 1.746813e+002
6.059781e+002, 1.735645e+002
6.064602e+002, 1.724857e+002
6.069423e+002, 1.720256e+002
6.074244e+002, 1.727122e+002
6.079066e+002, 1.742390e+002
6.083887e+002, 1.752211e+002
6.088708e+002, 1.751992e+002
6.093529e+002, 1.752609e+002
6.098350e+002, 1.757956e+002
6.103171e+002, 1.761447e+002
6.107993e+002, 1.756139e+002
6.112814e+002, 1.744296e+002
6.117635e+002, 1.734660e+002
6.122456e+002, 1.733205e+002
6.127277e+002, 1.736558e+002
6.132098e+002, 1.737990e+002
6.136920e+002, 1.737417e+002
6.141741e+002, 1.735654e+002
6.146562e+002, 1.731702e+002
6.151383e+002, 1.728184e+002
6.156204e+002, 1.727950e+002
6.161025e+002, 1.730547e+002
6.165847e+002, 1.733706e+002
6.170668e+002, 1.742891e+002
6.175489e+002, 1.746661e+002
6.180310e+002, 1.730369e+002
6.185131e+002, 1.704653e+002
6.189952e+002, 1.692666e+002
6.194774e+002, 1.700950e+002
6.199595e+002, 1.715597e+002
6.204416e+002, 1.720317e+002
6.209237e+002, 1.714437e+002
6.214058e+002, 1.709206e+002
6.218879e+002, 1.708323e+002
6.223701e+002, 1.703346e+002
6.228522e+002, 1.686758e+002
6.233343e+002, 1.668601e+002
6.238164e+002, 1.660146e+002
6.242985e+002, 1.663159e+002
6.247806e+002, 1.669135e+002
6.252628e+002, 1.671536e+002
6.257448e+002, 1.671604e+002
6.262269e+002, 1.673546e+002
6.267090e+002, 1.677860e+002
6.271912e+002, 1.678222e+002
6.276733e+002, 1.668924e+002
6.281554e+002, 1.656694e+002
6.286375e+002, 1.656155e+002
6.291196e+002, 1.670464e+002
6.296017e+002, 1.679079e+002
6.300839e+002, 1.674244e+002
6.305660e+002, 1.667033e+002
6.310481e+002, 1.666617e+002
6.315302e+002, 1.670007e+002
6.320123e+002, 1.667712e+002
6.324944e+002, 1.655377e+002
6.329766e+002, 1.640223e+002
6.334587e+002, 1.635761e+002
6.339408e+002, 1.645043e+002
6.344229e+002, 1.648946e+002
6.349050e+002, 1.641921e+002
6.353871e+002, 1.636428e+002
6.358693e+002, 1.637254e+002
6.363514e+002, 1.643100e+002
6.368335e+002, 1.654332e+002
6.373156e+002, 1.673659e+002
6.377977e+002, 1.686096e+002
6.382798e+002, 1.673655e+002
6.387620e+002, 1.649181e+002
6.392441e+002, 1.637895e+002
6.397262e+002, 1.642393e+002
6.402083e+002, 1.648954e+002
6.406904e+002, 1.648431e+002
6.411725e+002, 1.643668e+002
6.416547e+002, 1.644321e+002
6.421368e+002, 1.659931e+002
6.426189e+002, 1.666661e+002
6.431010e+002, 1.658487e+002
6.435831e+002, 1.646846e+002
6.440652e+002, 1.636631e+002
6.445474e+002, 1.629190e+002
6.450295e+002, 1.625676e+002
6.455116e+002, 1.627003e+002
6.459937e+002, 1.631131e+002
6.464758e+002, 1.635928e+002
6.469579e+002, 1.641361e+002
6.474401e+002, 1.642228e+002
6.479222e+002, 1.634377e+002
6.484043e+002, 1.629152e+002
6.488864e+002, 1.639986e+002
6.493685e+002, 1.660489e+002
6.498506e+002, 1.670035e+002
6.503328e+002, 1.660635e+002
6.508149e+002, 1.650140e+002
6.512970e+002, 1.645996e+002
6.517791e+002, 1.644281e+002
6.522612e+002, 1.638399e+002
6.527433e+002, 1.629040e+002
6.532255e+002, 1.625346e+002
6.537076e+002, 1.635352e+002
6.541897e+002, 1.653502e+002
6.546718e+002, 1.657254e+002
6.551539e+002, 1.636534e+002
6.556360e+002, 1.625836e+002
6.561182e+002, 1.640566e+002
6.566003e+002, 1.657434e+002
6.570824e+002, 1.665256e+002
6.575645e+002, 1.664655e+002
6.580466e+002, 1.659233e+002
6.585287e+002, 1.647666e+002
6.590109e+002, 1.636062e+002
6.594930e+002, 1.631534e+002
6.599751e+002, 1.631559e+002
6.604572e+002, 1.627295e+002
6.609393e+002, 1.616627e+002
6.614214e+002, 1.609723e+002
6.619036e+002, 1.617065e+002
6.623857e+002, 1.636729e+002
6.628678e+002, 1.647678e+002
6.633499e+002, 1.635794e+002
6.638320e+002, 1.633966e+002
6.643141e+002, 1.657786e+002
6.647963e+002, 1.682937e+002
6.652784e+002, 1.688913e+002
6.657605e+002, 1.677305e+002
6.662426e+002, 1.663065e+002
6.667247e+002, 1.655314e+002
6.672068e+002, 1.650263e+002
6.676890e+002, 1.639486e+002
6.681711e+002, 1.623277e+002
6.686532e+002, 1.612106e+002
6.691353e+002, 1.609171e+002
6.696174e+002, 1.609729e+002
6.700995e+002, 1.608601e+002
6.705817e+002, 1.606673e+002
6.710638e+002, 1.611175e+002
6.715459e+002, 1.630961e+002
6.720280e+002, 1.646392e+002
6.725101e+002, 1.649101e+002
6.729922e+002, 1.645492e+002
6.734744e+002, 1.640949e+002
6.739565e+002, 1.637175e+002
6.744386e+002, 1.635631e+002
6.749207e+002, 1.637963e+002
6.754028e+002, 1.642446e+002
6.758849e+002, 1.643850e+002
6.763671e+002, 1.642393e+002
6.768492e+002, 1.636283e+002
6.773313e+002, 1.618876e+002
6.778134e+002, 1.603854e+002
6.782955e+002, 1.603115e+002
6.787776e+002, 1.613654e+002
6.792598e+002, 1.625235e+002
6.797419e+002, 1.640085e+002
6.802240e+002, 1.649599e+002
6.807061e+002, 1.644039e+002
6.811882e+002, 1.631664e+002
6.816703e+002, 1.625381e+002
6.821525e+002, 1.627317e+002
6.826346e+002, 1.632373e+002
6.831167e+002, 1.636628e+002
6.835988e+002, 1.640274e+002
6.840809e+002, 1.644025e+002
6.845630e+002, 1.646527e+002
6.850452e+002, 1.652088e+002
6.855273e+002, 1.666507e+002
6.860094e+002, 1.679481e+002
6.864915e+002, 1.684234e+002
6.869736e+002, 1.682475e+002
6.874557e+002, 1.680010e+002
6.879379e+002, 1.678666e+002
6.884200e+002, 1.677869e+002
6.889021e+002, 1.677584e+002
6.893842e+002, 1.677379e+002
6.898663e+002, 1.675122e+002
6.903484e+002, 1.670569e+002
6.908306e+002, 1.669080e+002
6.913127e+002, 1.675700e+002
6.917948e+002, 1.688237e+002
6.922769e+002, 1.695670e+002
6.927590e+002, 1.694054e+002
6.932411e+002, 1.693535e+002
6.937233e+002, 1.695498e+002
6.942054e+002, 1.697822e+002
6.946875e+002, 1.698791e+002
6.951696e+002, 1.699094e+002
6.956517e+002, 1.701146e+002
6.961339e+002, 1.706943e+002
6.966160e+002, 1.711929e+002
6.970981e+002, 1.706518e+002
6.975802e+002, 1.695733e+002
6.980623e+002, 1.700540e+002
6.985444e+002, 1.725164e+002
6.990266e+002, 1.748853e+002
6.995087e+002, 1.757132e+002
6.999908e+002, 1.753183e+002
7.004729e+002, 1.748837e+002
7.009550e+002, 1.738056e+002
7.014371e+002, 1.736444e+002
7.019193e+002, 1.748482e+002
7.024014e+002, 1.765754e+002
7.028835e+002, 1.784020e+002
7.033656e+002, 1.803283e+002
7.038477e+002, 1.826223e+002
7.043298e+002, 1.854434e+002
7.048120e+002, 1.881205e+002
7.052941e+002, 1.894050e+002
7.057762e+002, 1.897021e+002
7.062583e+002, 1.911028e+002
7.067404e+002, 1.938981e+002
7.072225e+002, 1.971528e+002
7.077046e+002, 2.005820e+002
7.081867e+002, 2.039333e+002
7.086688e+002, 2.064283e+002
7.091509e+002, 2.073019e+002
7.096331e+002, 2.093155e+002
7.101152e+002, 2.140652e+002
7.105973e+002, 2.186399e+002
7.110794e+002, 2.213408e+002
7.115615e+002, 2.226154e+002
7.120436e+002, 2.233453e+002
7.125258e+002, 2.238716e+002
7.130079e+002, 2.242873e+002
7.134900e+002, 2.250755e+002
7.139721e+002, 2.259495e+002
7.144542e+002, 2.251574e+002
7.149363e+002, 2.224709e+002
7.154185e+002, 2.192892e+002
7.159006e+002, 2.162113e+002
7.163827e+002, 2.130534e+002
7.168648e+002, 2.092836e+002
7.173469e+002, 2.046657e+002
7.178290e+002, 2.009507e+002
7.183112e+002, 1.989586e+002
7.187933e+002, 1.971981e+002
7.192754e+002, 1.948990e+002
7.197575e+002, 1.923790e+002
7.202396e+002, 1.900498e+002
7.207217e+002, 1.880638e+002
7.212039e+002, 1.864801e+002
7.216860e+002, 1.853441e+002
7.221681e+002, 1.846587e+002
7.226502e+002, 1.847442e+002
7.231323e+002, 1.858078e+002
7.236144e+002, 1.858374e+002
7.240966e+002, 1.838169e+002
7.245787e+002, 1.810734e+002
7.250608e+002, 1.789510e+002
7.255429e+002, 1.774381e+002
7.260250e+002, 1.767002e+002
7.265071e+002, 1.776117e+002
7.269893e+002, 1.782585e+002
7.274714e+002, 1.779343e+002
7.279535e+002, 1.769948e+002
7.284356e+002, 1.754290e+002
7.289177e+002, 1.735587e+002
7.293998e+002, 1.725628e+002
7.298820e+002, 1.735987e+002
7.303641e+002, 1.755298e+002
7.308462e+002, 1.754644e+002
7.313283e+002, 1.733100e+002
7.318104e+002, 1.719037e+002
7.322925e+002, 1.720852e+002
7.327747e+002, 1.724126e+002
7.332568e+002, 1.715365e+002
7.337389e+002, 1.697723e+002
7.342210e+002, 1.688230e+002
7.347031e+002, 1.692999e+002
7.351852e+002, 1.696431e+002
7.356674e+002, 1.691239e+002
7.361495e+002, 1.686824e+002
7.366316e+002, 1.695991e+002
7.371137e+002, 1.712757e+002
7.375958e+002, 1.718509e+002
7.380779e+002, 1.703380e+002
7.385601e+002, 1.680025e+002
7.390422e+002, 1.665547e+002
7.395243e+002, 1.659568e+002
7.400064e+002, 1.659343e+002
7.404885e+002, 1.665876e+002
7.409706e+002, 1.673094e+002
7.414528e+002, 1.679720e+002
7.419349e+002, 1.683406e+002
7.424170e+002, 1.677790e+002
7.428991e+002, 1.660070e+002
7.433812e+002, 1.643780e+002
7.438633e+002, 1.625527e+002
7.443455e+002, 1.613615e+002
7.448276e+002, 1.618028e+002
7.453097e+002, 1.629530e+002
7.457918e+002, 1.634016e+002
7.462739e+002, 1.627641e+002
7.467560e+002, 1.617016e+002
7.472382e+002, 1.606456e+002
7.477203e+002, 1.596983e+002
7.482024e+002, 1.593282e+002
7.486845e+002, 1.595546e+002
7.491666e+002, 1.594565e+002
7.496487e+002, 1.585849e+002
7.501309e+002, 1.576363e+002
7.506130e+002, 1.575492e+002
7.510951e+002, 1.584048e+002
7.515772e+002, 1.585096e+002
7.520593e+002, 1.567939e+002
7.525414e+002, 1.557740e+002
7.530236e+002, 1.566033e+002
7.535057e+002, 1.579211e+002
7.539878e+002, 1.586010e+002
7.544699e+002, 1.585470e+002
7.549520e+002, 1.581240e+002
7.554341e+002, 1.574375e+002
7.559163e+002, 1.566844e+002
7.563984e+002, 1.559109e+002
7.568805e+002, 1.552696e+002
7.573626e+002, 1.557001e+002
7.578447e+002, 1.574333e+002
7.583268e+002, 1.590211e+002
7.588090e+002, 1.595006e+002
7.592911e+002, 1.590074e+002
7.597732e+002, 1.579353e+002
7.602553e+002, 1.552185e+002
7.607374e+002, 1.538965e+002
7.612195e+002, 1.547695e+002
7.617017e+002, 1.560966e+002
7.621838e+002, 1.576976e+002
7.626659e+002, 1.589809e+002
7.631480e+002, 1.588517e+002
7.636301e+002, 1.569456e+002
7.641122e+002, 1.551752e+002
7.645944e+002, 1.551272e+002
7.650765e+002, 1.560188e+002
7.655586e+002, 1.568239e+002
7.660407e+002, 1.574473e+002
7.665228e+002, 1.576848e+002
7.670049e+002, 1.574509e+002
7.674871e+002, 1.568759e+002
7.679692e+002, 1.560267e+002
7.684513e+002, 1.548545e+002
7.689334e+002, 1.545412e+002
7.694155e+002, 1.557367e+002
7.698976e+002, 1.567299e+002
7.703798e+002, 1.571999e+002
7.708619e+002, 1.572960e+002
7.713440e+002, 1.569139e+002
7.718261e+002, 1.561942e+002
7.723082e+002, 1.557587e+002
7.727903e+002, 1.560277e+002
7.732725e+002, 1.563705e+002
7.737546e+002, 1.563562e+002
7.742367e+002, 1.561299e+002
7.747188e+002, 1.557906e+002
7.752009e+002, 1.554338e+002
7.756830e+002, 1.554474e+002
7.761652e+002, 1.561450e+002
7.766473e+002, 1.571022e+002
7.771294e+002, 1.572525e+002
7.776115e+002, 1.564636e+002
7.780936e+002, 1.557286e+002
7.785757e+002, 1.549809e+002
7.790579e+002, 1.545371e+002
7.795400e+002, 1.549100e+002
7.800221e+002, 1.555523e+002
7.805042e+002, 1.554127e+002
7.809863e+002, 1.541969e+002
7.814684e+002, 1.535245e+002
7.819506e+002, 1.540300e+002
7.824327e+002, 1.549514e+002
7.829148e+002, 1.563677e+002
7.833969e+002, 1.576582e+002
7.838790e+002, 1.575655e+002
7.843611e+002, 1.559465e+002
7.848433e+002, 1.543626e+002
7.853254e+002, 1.544418e+002
7.858075e+002, 1.555339e+002
7.862896e+002, 1.555160e+002
7.867717e+002, 1.543650e+002
7.872538e+002, 1.537966e+002
7.877360e+002, 1.544053e+002
7.882181e+002, 1.551889e+002
7.887002e+002, 1.552235e+002
7.891823e+002, 1.545989e+002
7.896644e+002, 1.540756e+002
7.901465e+002, 1.532015e+002
7.906286e+002, 1.530708e+002
7.911107e+002, 1.547329e+002
7.915928e+002, 1.562669e+002
7.920750e+002, 1.561651e+002
7.925571e+002, 1.550132e+002
7.930392e+002, 1.542584e+002
7.935213e+002, 1.544612e+002
7.940034e+002, 1.547651e+002
7.944855e+002, 1.540264e+002
7.949677e+002, 1.530382e+002
7.954498e+002, 1.536967e+002
7.959319e+002, 1.557820e+002
7.964140e+002, 1.570840e+002
7.968961e+002, 1.566495e+002
7.973782e+002, 1.555048e+002
7.978604e+002, 1.550172e+002
7.983425e+002, 1.552024e+002
7.988246e+002, 1.556817e+002
7.993067e+002, 1.569092e+002
7.997888e+002, 1.576092e+002
8.002709e+002, 1.567236e+002
8.007531e+002, 1.557798e+002
8.012352e+002, 1.561821e+002
8.017173e+002, 1.576318e+002
8.021994e+002, 1.585081e+002
8.026815e+002, 1.580340e+002
8.031636e+002, 1.574214e+002
8.036458e+002, 1.573500e+002
8.041279e+002, 1.574511e+002
8.046100e+002, 1.572268e+002
8.050921e+002, 1.567362e+002
8.055742e+002, 1.564097e+002
8.060563e+002, 1.564922e+002
8.065385e+002, 1.567138e+002
8.070206e+002, 1.565819e+002
8.075027e+002, 1.561380e+002
8.079848e+002, 1.559245e+002
8.084669e+002, 1.559428e+002
8.089490e+002, 1.563665e+002
8.094312e+002, 1.575260e+002
8.099133e+002, 1.587838e+002
8.103954e+002, 1.591301e+002
8.108775e+002, 1.583970e+002
8.113596e+002, 1.578017e+002
8.118417e+002, 1.571155e+002
8.123239e+002, 1.568551e+002
8.128060e+002, 1.580228e+002
8.132881e+002, 1.590625e+002
8.137702e+002, 1.578813e+002
8.142523e+002, 1.550002e+002
8.147344e+002, 1.532441e+002
8.152166e+002, 1.543698e+002
8.156987e+002, 1.564056e+002
8.161808e+002, 1.574616e+002
8.166629e+002, 1.578331e+002
8.171450e+002, 1.580609e+002
8.176271e+002, 1.582524e+002
8.181093e+002, 1.586074e+002
8.185914e+002, 1.592591e+002
8.190735e+002, 1.600251e+002
8.195556e+002, 1.606155e+002
8.200377e+002, 1.610912e+002
8.205198e+002, 1.609189e+002
8.210020e+002, 1.596158e+002
8.214841e+002, 1.585669e+002
8.219662e+002, 1.582829e+002
8.224483e+002, 1.585220e+002
8.229304e+002, 1.592305e+002
8.234125e+002, 1.603712e+002
8.238947e+002, 1.610366e+002
8.243768e+002, 1.604516e+002
8.248589e+002, 1.600719e+002
8.253410e+002, 1.609834e+002
8.258231e+002, 1.621397e+002
8.263052e+002, 1.622024e+002
8.267874e+002, 1.613000e+002
8.272695e+002, 1.604829e+002
8.277516e+002, 1.602820e+002
8.282337e+002, 1.606847e+002
8.287158e+002, 1.618939e+002
8.291979e+002, 1.637121e+002
8.296801e+002, 1.654183e+002
8.301622e+002, 1.669422e+002
8.306443e+002, 1.679440e+002
8.311264e+002, 1.681255e+002
8.316085e+002, 1.680464e+002
8.320906e+002, 1.686128e+002
8.325728e+002, 1.698608e+002
8.330549e+002, 1.714671e+002
8.335370e+002, 1.738091e+002
8.340191e+002, 1.759462e+002
8.345012e+002, 1.773868e+002
8.349833e+002, 1.787605e+002
8.354655e+002, 1.807802e+002
8.359476e+002, 1.832711e+002
8.364297e+002, 1.853227e+002
8.369118e+002, 1.868409e+002
8.373939e+002, 1.875825e+002
8.378760e+002, 1.870393e+002
8.383582e+002, 1.859030e+002
8.388403e+002, 1.847875e+002
8.393224e+002, 1.838452e+002
8.398045e+002, 1.834087e+002
8.402866e+002, 1.836456e+002
8.407687e+002, 1.835406e+002
8.412509e+002, 1.812189e+002
8.417330e+002, 1.772024e+002
8.422151e+002, 1.745032e+002
8.426972e+002, 1.732101e+002
8.431793e+002, 1.729341e+002
8.436614e+002, 1.739125e+002
8.441436e+002, 1.747994e+002
8.446257e+002, 1.738599e+002
8.451078e+002, 1.711516e+002
8.455899e+002, 1.693174e+002
8.460720e+002, 1.689764e+002
8.465541e+002, 1.686294e+002
8.470363e+002, 1.681417e+002
8.475184e+002, 1.676094e+002
8.480005e+002, 1.671946e+002
8.484826e+002, 1.667621e+002
8.489647e+002, 1.659323e+002
8.494468e+002, 1.644791e+002
8.499290e+002, 1.632157e+002
8.504111e+002, 1.627820e+002
8.508932e+002, 1.625869e+002
8.513753e+002, 1.617913e+002
8.518574e+002, 1.607722e+002
8.523395e+002, 1.606936e+002
8.528217e+002, 1.617943e+002
8.533038e+002, 1.628305e+002
8.537859e+002, 1.625338e+002
8.542680e+002, 1.612718e+002
8.547501e+002, 1.601280e+002
8.552322e+002, 1.591004e+002
8.557144e+002, 1.581694e+002
8.561965e+002, 1.573721e+002
8.566786e+002, 1.564933e+002
8.571607e+002, 1.553236e+002
8.576428e+002, 1.539922e+002
8.581249e+002, 1.528922e+002
8.586071e+002, 1.519490e+002
8.590892e+002, 1.514133e+002
8.595713e+002, 1.514154e+002
8.600534e+002, 1.516573e+002
8.605355e+002, 1.522474e+002
8.610176e+002, 1.528998e+002
8.614998e+002, 1.533244e+002
8.619819e+002, 1.534786e+002
8.624640e+002, 1.533620e+002
8.629461e+002, 1.528624e+002
8.634282e+002, 1.522116e+002
8.639103e+002, 1.514589e+002
8.643925e+002, 1.507133e+002
8.648746e+002, 1.502102e+002
8.653567e+002, 1.498934e+002
8.658388e+002, 1.494173e+002
8.663209e+002, 1.485641e+002
8.668030e+002, 1.475916e+002
8.672852e+002, 1.468213e+002
8.677673e+002, 1.462739e+002
8.682494e+002, 1.461799e+002
8.687315e+002, 1.465720e+002
8.692136e+002, 1.467444e+002
8.696957e+002, 1.463852e+002
8.701779e+002, 1.457215e+002
8.706600e+002, 1.449417e+002
8.711421e+002, 1.440357e+002
8.716242e+002, 1.440979e+002
8.721063e+002, 1.463437e+002
8.725884e+002, 1.474152e+002
8.730705e+002, 1.454553e+002
8.735526e+002, 1.433749e+002
8.740347e+002, 1.430285e+002
8.745168e+002, 1.438908e+002
8.749990e+002, 1.445870e+002
8.754811e+002, 1.448443e+002
8.759632e+002, 1.450912e+002
8.764453e+002, 1.457179e+002
8.769274e+002, 1.461528e+002
8.774095e+002, 1.456948e+002
8.778917e+002, 1.448497e+002
8.783738e+002, 1.445635e+002
8.788559e+002, 1.449983e+002
8.793380e+002, 1.454583e+002
8.798201e+002, 1.453522e+002
8.803022e+002, 1.450204e+002
8.807844e+002, 1.451186e+002
8.812665e+002, 1.454805e+002
8.817486e+002, 1.454133e+002
8.822307e+002, 1.448337e+002
8.827128e+002, 1.442426e+002
8.831949e+002, 1.439064e+002
8.836771e+002, 1.439814e+002
8.841592e+002, 1.450854e+002
8.846413e+002, 1.475820e+002
8.851234e+002, 1.481586e+002
8.856055e+002, 1.457771e+002
8.860876e+002, 1.440817e+002
8.865698e+002, 1.448838e+002
8.870519e+002, 1.463409e+002
8.875340e+002, 1.462254e+002
8.880161e+002, 1.446714e+002
8.884982e+002, 1.438078e+002
8.889803e+002, 1.442428e+002
8.894625e+002, 1.445949e+002
8.899446e+002, 1.445501e+002
8.904267e+002, 1.444230e+002
8.909088e+002, 1.443885e+002
8.913909e+002, 1.444509e+002
8.918730e+002, 1.447008e+002
8.923552e+002, 1.451908e+002
8.928373e+002, 1.452476e+002
8.933194e+002, 1.439908e+002
8.938015e+002, 1.424663e+002
8.942836e+002, 1.417764e+002
8.947657e+002, 1.416958e+002
8.952479e+002, 1.416870e+002
8.957300e+002, 1.416499e+002
8.962121e+002, 1.419025e+002
8.966942e+002, 1.427718e+002
8.971763e+002, 1.437534e+002
8.976584e+002, 1.436024e+002
8.981406e+002, 1.424780e+002
8.986227e+002, 1.420358e+002
8.991048e+002, 1.424633e+002
8.995869e+002, 1.431853e+002
9.000690e+002, 1.440880e+002
9.005511e+002, 1.446881e+002
9.010333e+002, 1.441437e+002
9.015154e+002, 1.423743e+002
9.019975e+002, 1.412759e+002
9.024796e+002, 1.410788e+002
9.029617e+002, 1.411221e+002
9.034438e+002, 1.413623e+002
9.039260e+002, 1.417371e+002
9.044081e+002, 1.424249e+002
9.048902e+002, 1.431896e+002
9.053723e+002, 1.433723e+002
9.058544e+002, 1.426958e+002
9.063365e+002, 1.420333e+002
9.068187e+002, 1.413314e+002
9.073008e+002, 1.409844e+002
9.077829e+002, 1.415921e+002
9.082650e+002, 1.425160e+002
9.087471e+002, 1.428481e+002
9.092292e+002, 1.424937e+002
9.097114e+002, 1.420574e+002
9.101935e+002, 1.418684e+002
9.106756e+002, 1.417884e+002
9.111577e+002, 1.416983e+002
9.116398e+002, 1.416063e+002
9.121219e+002, 1.414552e+002
9.126041e+002, 1.413016e+002
9.130862e+002, 1.414811e+002
9.135683e+002, 1.421543e+002
9.140504e+002, 1.427922e+002
9.145325e+002, 1.425260e+002
9.150146e+002, 1.415865e+002
9.154968e+002, 1.414547e+002
9.159789e+002, 1.421726e+002
9.164610e+002, 1.424139e+002
9.169431e+002, 1.417620e+002
9.174252e+002, 1.409568e+002
9.179073e+002, 1.406069e+002
9.183895e+002, 1.405848e+002
9.188716e+002, 1.403793e+002
9.193537e+002, 1.396727e+002
9.198358e+002, 1.396203e+002
9.203179e+002, 1.408113e+002
9.208000e+002, 1.418097e+002
9.212822e+002, 1.420527e+002
9.217643e+002, 1.418137e+002
9.222464e+002, 1.411450e+002
9.227285e+002, 1.400974e+002
9.232106e+002, 1.396265e+002
9.236927e+002, 1.400249e+002
9.241749e+002, 1.407938e+002
9.246570e+002, 1.429090e+002
9.251391e+002, 1.443486e+002
9.256212e+002, 1.423750e+002
9.261033e+002, 1.387734e+002
9.265854e+002, 1.377007e+002
9.270676e+002, 1.404450e+002
9.275497e+002, 1.430230e+002
9.280318e+002, 1.423535e+002
9.285139e+002, 1.406609e+002
9.289960e+002, 1.399965e+002
9.294781e+002, 1.400791e+002
9.299603e+002, 1.404160e+002
9.304424e+002, 1.408051e+002
9.309245e+002, 1.409220e+002
9.314066e+002, 1.405426e+002
9.318887e+002, 1.398955e+002
9.323708e+002, 1.389365e+002
9.328530e+002, 1.380029e+002
9.333351e+002, 1.390871e+002
9.338172e+002, 1.421037e+002
9.342993e+002, 1.437001e+002
9.347814e+002, 1.425307e+002
9.352635e+002, 1.405228e+002
9.357457e+002, 1.397454e+002
9.362278e+002, 1.399867e+002
9.367099e+002, 1.399570e+002
9.371920e+002, 1.394943e+002
9.376741e+002, 1.395858e+002
9.381563e+002, 1.408447e+002
9.386384e+002, 1.414995e+002
9.391205e+002, 1.401164e+002
9.396026e+002, 1.379076e+002
9.400847e+002, 1.370937e+002
9.405668e+002, 1.379597e+002
9.410490e+002, 1.385420e+002
9.415311e+002, 1.381583e+002
9.420132e+002, 1.384368e+002
9.424953e+002, 1.408586e+002
9.429774e+002, 1.429878e+002
9.434595e+002, 1.425543e+002
9.439417e+002, 1.404543e+002
9.444238e+002, 1.391626e+002
9.449059e+002, 1.392934e+002
9.453880e+002, 1.397096e+002
9.458701e+002, 1.403331e+002
9.463522e+002, 1.407688e+002
9.468344e+002, 1.405679e+002
9.473165e+002, 1.401181e+002
9.477986e+002, 1.398942e+002
9.482807e+002, 1.399826e+002
9.487628e+002, 1.403242e+002
9.492449e+002, 1.410334e+002
9.497271e+002, 1.416072e+002
9.502092e+002, 1.412777e+002
9.506913e+002, 1.406703e+002
9.511734e+002, 1.410735e+002
9.516555e+002, 1.421068e+002
9.521376e+002, 1.422206e+002
9.526198e+002, 1.409363e+002
9.531019e+002, 1.391687e+002
9.535840e+002, 1.374716e+002
9.540661e+002, 1.363106e+002
9.545482e+002, 1.374807e+002
9.550303e+002, 1.404638e+002
9.555124e+002, 1.414943e+002
9.559945e+002, 1.400543e+002
9.564766e+002, 1.389437e+002
9.569587e+002, 1.397594e+002
9.574409e+002, 1.411617e+002
9.579230e+002, 1.408152e+002
9.584051e+002, 1.387729e+002
9.588872e+002, 1.384799e+002
9.593693e+002, 1.405762e+002
9.598514e+002, 1.415683e+002
9.603336e+002, 1.402942e+002
9.608157e+002, 1.387077e+002
9.612978e+002, 1.383087e+002
9.617799e+002, 1.386561e+002
9.622620e+002, 1.384887e+002
9.627441e+002, 1.375616e+002
9.632263e+002, 1.368657e+002
9.637084e+002, 1.358663e+002
9.641905e+002, 1.358450e+002
9.646726e+002, 1.381834e+002
9.651547e+002, 1.407585e+002
9.656368e+002, 1.417863e+002
9.661190e+002, 1.414415e+002
9.666011e+002, 1.407101e+002
9.670832e+002, 1.393214e+002
9.675653e+002, 1.383500e+002
9.680474e+002, 1.384133e+002
9.685295e+002, 1.385324e+002
9.690117e+002, 1.380585e+002
9.694938e+002, 1.373522e+002
9.699759e+002, 1.370043e+002
9.704580e+002, 1.370211e+002
9.709401e+002, 1.368032e+002
9.714222e+002, 1.358053e+002
9.719044e+002, 1.349687e+002
9.723865e+002, 1.348284e+002
9.728686e+002, 1.351942e+002
9.733507e+002, 1.362871e+002
9.738328e+002, 1.376163e+002
9.743149e+002, 1.382054e+002
9.747971e+002, 1.377744e+002
9.752792e+002, 1.367444e+002
9.757613e+002, 1.348288e+002
9.762434e+002, 1.331846e+002
9.767255e+002, 1.339046e+002
9.772076e+002, 1.359008e+002
9.776898e+002, 1.368748e+002
9.781719e+002, 1.366589e+002
9.786540e+002, 1.360657e+002
9.791361e+002, 1.354832e+002
9.796182e+002, 1.350236e+002
9.801003e+002, 1.349266e+002
9.805825e+002, 1.350275e+002
9.810646e+002, 1.345626e+002
9.815467e+002, 1.336743e+002
9.820288e+002, 1.337703e+002
9.825109e+002, 1.351235e+002
9.829930e+002, 1.360951e+002
9.834752e+002, 1.355740e+002
9.839573e+002, 1.342345e+002
9.844394e+002, 1.332693e+002
9.849215e+002, 1.326794e+002
9.854036e+002, 1.325009e+002
9.858857e+002, 1.327931e+002
9.863679e+002, 1.330838e+002
9.868500e+002, 1.331052e+002
9.873321e+002, 1.336816e+002
9.878142e+002, 1.359156e+002
9.882963e+002, 1.388121e+002
9.887784e+002, 1.389808e+002
9.892606e+002, 1.351144e+002
9.897427e+002, 1.332659e+002
9.902248e+002, 1.347169e+002
9.907069e+002, 1.356918e+002
9.911890e+002, 1.346151e+002
9.916711e+002, 1.330362e+002
9.921533e+002, 1.323618e+002
9.926354e+002, 1.324818e+002
9.931175e+002, 1.327732e+002
9.935996e+002, 1.336429e+002
9.940817e+002, 1.339520e+002
9.945638e+002, 1.331194e+002
9.950460e+002, 1.324025e+002
9.955281e+002, 1.324334e+002
9.960102e+002, 1.327184e+002
9.964923e+002, 1.327488e+002
9.969744e+002, 1.325188e+002
9.974565e+002, 1.322067e+002
9.979387e+002, 1.313584e+002
9.984208e+002, 1.312450e+002
9.989029e+002, 1.333100e+002
9.993850e+002, 1.350284e+002
9.998671e+002, 1.342109e+002
1.000349e+003, 1.323517e+002
1.000831e+003, 1.317322e+002
1.001313e+003, 1.325599e+002
1.001796e+003, 1.333078e+002
1.002278e+003, 1.331274e+002
1.002760e+003, 1.330594e+002
1.003242e+003, 1.341075e+002
1.003724e+003, 1.351451e+002
1.004206e+003, 1.350952e+002
1.004688e+003, 1.342140e+002
1.005170e+003, 1.328275e+002
1.005653e+003, 1.311891e+002
1.006135e+003, 1.305278e+002
1.006617e+003, 1.324929e+002
1.007099e+003, 1.345771e+002
1.007581e+003, 1.339506e+002
1.008063e+003, 1.322623e+002
1.008545e+003, 1.317309e+002
1.009027e+003, 1.323303e+002
1.009509e+003, 1.333351e+002
1.009992e+003, 1.344339e+002
1.010474e+003, 1.353432e+002
1.010956e+003, 1.359398e+002
1.011438e+003, 1.360555e+002
1.011920e+003, 1.350752e+002
1.012402e+003, 1.335160e+002
1.012884e+003, 1.325926e+002
1.013366e+003, 1.323593e+002
1.013849e+003, 1.323031e+002
1.014331e+003, 1.321916e+002
1.014813e+003, 1.319634e+002
1.015295e+003, 1.313313e+002
1.015777e+003, 1.307036e+002
1.016259e+003, 1.314984e+002
1.016741e+003, 1.332908e+002
1.017223e+003, 1.338548e+002
1.017705e+003, 1.329830e+002
1.018188e+003, 1.323825e+002
1.018670e+003, 1.329467e+002
1.019152e+003, 1.338749e+002
1.019634e+003, 1.339978e+002
1.020116e+003, 1.335493e+002
1.020598e+003, 1.338485e+002
1.021080e+003, 1.348464e+002
1.021562e+003, 1.350378e+002
1.022044e+003, 1.340969e+002
1.022527e+003, 1.337083e+002
1.023009e+003, 1.349420e+002
1.023491e+003, 1.367840e+002
1.023973e+003, 1.376896e+002
1.024455e+003, 1.376722e+002
1.024937e+003, 1.365546e+002
1.025419e+003, 1.340057e+002
1.025901e+003, 1.334192e+002
1.026384e+003, 1.357919e+002
1.026866e+003, 1.384979e+002
1.027348e+003, 1.398633e+002
1.027830e+003, 1.406714e+002
1.028312e+003, 1.424353e+002
1.028794e+003, 1.452332e+002
1.029276e+003, 1.470847e+002
1.029758e+003, 1.471929e+002
1.030240e+003, 1.493535e+002
1.030723e+003, 1.549801e+002
1.031205e+003, 1.611344e+002
1.031687e+003, 1.658541e+002
1.032169e+003, 1.699030e+002
1.032651e+003, 1.747666e+002
1.033133e+003, 1.804134e+002
1.033615e+003, 1.870400e+002
1.034097e+003, 1.946646e+002
1.034579e+003, 2.033712e+002
1.035062e+003, 2.141608e+002
1.035544e+003, 2.245971e+002
1.036026e+003, 2.334062e+002
1.036508e+003, 2.404818e+002
1.036990e+003, 2.455828e+002
1.037472e+003, 2.487149e+002
1.037954e+003, 2.497793e+002
1.038436e+003, 2.477366e+002
1.038919e+003, 2.452944e+002
1.039401e+003, 2.438315e+002
1.039883e+003, 2.411128e+002
1.040365e+003, 2.351561e+002
1.040847e+003, 2.270927e+002
1.041329e+003, 2.192200e+002
1.041811e+003, 2.114609e+002
1.042293e+003, 2.041657e+002
1.042776e+003, 1.968353e+002
1.043258e+003, 1.906343e+002
1.043740e+003, 1.866706e+002
1.044222e+003, 1.830057e+002
1.044704e+003, 1.781245e+002
1.045186e+003, 1.727639e+002
1.045668e+003, 1.684621e+002
1.046150e+003, 1.654431e+002
1.046632e+003, 1.626749e+002
1.047115e+003, 1.598799e+002
1.047597e+003, 1.575569e+002
1.048079e+003, 1.558832e+002
1.048561e+003, 1.546779e+002
1.049043e+003, 1.543235e+002
1.049525e+003, 1.541550e+002
1.050007e+003, 1.527124e+002
1.050489e+003, 1.496730e+002
1.050971e+003, 1.474523e+002
1.051454e+003, 1.469232e+002
1.051936e+003, 1.467267e+002
1.052418e+003, 1.464636e+002
1.052900e+003, 1.463930e+002
1.053382e+003, 1.470703e+002
1.053864e+003, 1.479392e+002
1.054346e+003, 1.478898e+002
1.054828e+003, 1.467432e+002
1.055311e+003, 1.457361e+002
1.055793e+003, 1.443232e+002
1.056275e+003, 1.442807e+002
1.056757e+003, 1.475539e+002
1.057239e+003, 1.511208e+002
1.057721e+003, 1.525528e+002
1.058203e+003, 1.527232e+002
1.058685e+003, 1.534529e+002
1.059167e+003, 1.550119e+002
1.059650e+003, 1.562432e+002
1.060132e+003, 1.553362e+002
1.060614e+003, 1.559751e+002
1.061096e+003, 1.609184e+002
1.061578e+003, 1.666047e+002
1.062060e+003, 1.700970e+002
1.062542e+003, 1.725510e+002
1.063024e+003, 1.763127e+002
1.063506e+003, 1.816479e+002
1.063989e+003, 1.866092e+002
1.064471e+003, 1.894845e+002
1.064953e+003, 1.933209e+002
1.065435e+003, 1.997775e+002
1.065917e+003, 2.072681e+002
1.066399e+003, 2.151014e+002
1.066881e+003, 2.228876e+002
1.067363e+003, 2.301076e+002
1.067846e+003, 2.367144e+002
1.068328e+003, 2.432778e+002
1.068810e+003, 2.504724e+002
1.069292e+003, 2.568428e+002
1.069774e+003, 2.616033e+002
1.070256e+003, 2.654358e+002
1.070738e+003, 2.688787e+002
1.071220e+003, 2.717342e+002
1.071703e+003, 2.741716e+002
1.072185e+003, 2.758545e+002
1.072667e+003, 2.751209e+002
1.073149e+003, 2.706667e+002
1.073631e+003, 2.653386e+002
1.074113e+003, 2.603716e+002
1.074595e+003, 2.550891e+002
1.075077e+003, 2.485107e+002
1.075559e+003, 2.416246e+002
1.076042e+003, 2.360571e+002
1.076524e+003, 2.315486e+002
1.077006e+003, 2.260479e+002
1.077488e+003, 2.185308e+002
1.077970e+003, 2.109640e+002
1.078452e+003, 2.035923e+002
1.078934e+003, 1.971711e+002
1.079416e+003, 1.929472e+002
1.079898e+003, 1.894020e+002
1.080380e+003, 1.843587e+002
1.080863e+003, 1.782328e+002
1.081345e+003, 1.732507e+002
1.081827e+003, 1.703023e+002
1.082309e+003, 1.675440e+002
1.082791e+003, 1.641044e+002
1.083273e+003, 1.606317e+002
1.083755e+003, 1.574308e+002
1.084237e+003, 1.544855e+002
1.084720e+003, 1.517406e+002
1.085202e+003, 1.492249e+002
1.085684e+003, 1.469792e+002
1.086166e+003, 1.450075e+002
1.086648e+003, 1.434440e+002
1.087130e+003, 1.428610e+002
1.087612e+003, 1.420605e+002
1.088094e+003, 1.401262e+002
1.088577e+003, 1.379280e+002
1.089059e+003, 1.361168e+002
1.089541e+003, 1.347580e+002
1.090023e+003, 1.339769e+002
1.090505e+003, 1.337931e+002
1.090987e+003, 1.333099e+002
1.091469e+003, 1.315534e+002
1.091951e+003, 1.302764e+002
1.092433e+003, 1.305346e+002
1.092916e+003, 1.312649e+002
1.093398e+003, 1.318226e+002
1.093880e+003, 1.321686e+002
1.094362e+003, 1.324709e+002
1.094844e+003, 1.327086e+002
1.095326e+003, 1.323442e+002
1.095808e+003, 1.308909e+002
1.096290e+003, 1.292813e+002
1.096772e+003, 1.271452e+002
1.097255e+003, 1.256739e+002
1.097737e+003, 1.261820e+002
1.098219e+003, 1.274605e+002
1.098701e+003, 1.277882e+002
1.099183e+003, 1.271753e+002
1.099665e+003, 1.269559e+002
1.100147e+003, 1.274994e+002
1.100629e+003, 1.283197e+002
1.101112e+003, 1.301668e+002
1.101594e+003, 1.312189e+002
1.102076e+003, 1.299958e+002
1.102558e+003, 1.279720e+002
1.103040e+003, 1.263700e+002
1.103522e+003, 1.253818e+002
1.104004e+003, 1.252932e+002
1.104486e+003, 1.264692e+002
1.104969e+003, 1.274986e+002
1.105451e+003, 1.281254e+002
1.105933e+003, 1.285753e+002
1.106415e+003, 1.289037e+002
1.106897e+003, 1.291095e+002
1.107379e+003, 1.292773e+002
1.107861e+003, 1.293013e+002
1.108343e+003, 1.288160e+002
1.108825e+003, 1.276153e+002
1.109307e+003, 1.269507e+002
1.109790e+003, 1.273318e+002
1.110272e+003, 1.276853e+002
1.110754e+003, 1.276154e+002
1.111236e+003, 1.276521e+002
1.111718e+003, 1.284253e+002
1.112200e+003, 1.293672e+002
1.112682e+003, 1.295338e+002
1.113164e+003, 1.288896e+002
1.113647e+003, 1.280002e+002
1.114129e+003, 1.260062e+002
1.114611e+003, 1.252398e+002
1.115093e+003, 1.273307e+002
1.115575e+003, 1.286251e+002
1.116057e+003, 1.265518e+002
1.116539e+003, 1.238750e+002
1.117021e+003, 1.240902e+002
1.117504e+003, 1.267024e+002
1.117986e+003, 1.280060e+002
1.118468e+003, 1.273428e+002
1.118950e+003, 1.269260e+002
1.119432e+003, 1.268881e+002
1.119914e+003, 1.268537e+002
1.120396e+003, 1.266388e+002
1.120878e+003, 1.264911e+002
1.121360e+003, 1.265986e+002
1.121843e+003, 1.269591e+002
1.122325e+003, 1.276513e+002
1.122807e+003, 1.288548e+002
1.123289e+003, 1.292935e+002
1.123771e+003, 1.288973e+002
1.124253e+003, 1.278111e+002
1.124735e+003, 1.256290e+002
1.125217e+003, 1.241831e+002
1.125699e+003, 1.249010e+002
1.126182e+003, 1.264458e+002
1.126664e+003, 1.263379e+002
1.127146e+003, 1.247464e+002
1.127628e+003, 1.250683e+002
1.128110e+003, 1.276262e+002
1.128592e+003, 1.290730e+002
1.129074e+003, 1.288482e+002
1.129556e+003, 1.284310e+002
1.130039e+003, 1.284902e+002
1.130521e+003, 1.286318e+002
1.131003e+003, 1.284381e+002
1.131485e+003, 1.279157e+002
1.131967e+003, 1.268450e+002
1.132449e+003, 1.253079e+002
1.132931e+003, 1.249062e+002
1.133413e+003, 1.257019e+002
1.133896e+003, 1.266594e+002
1.134378e+003, 1.274602e+002
1.134860e+003, 1.277561e+002
1.135342e+003, 1.272117e+002
1.135824e+003, 1.263447e+002
1.136306e+003, 1.260331e+002
1.136788e+003, 1.262099e+002
1.137270e+003, 1.267680e+002
1.137752e+003, 1.275914e+002
1.138234e+003, 1.282386e+002
1.138717e+003, 1.285879e+002
1.139199e+003, 1.283591e+002
1.139681e+003, 1.274045e+002
1.140163e+003, 1.264937e+002
1.140645e+003, 1.266466e+002
1.141127e+003, 1.272585e+002
1.141609e+003, 1.271219e+002
1.142091e+003, 1.266168e+002
1.142574e+003, 1.266831e+002
1.143056e+003, 1.271992e+002
1.143538e+003, 1.273389e+002
1.144020e+003, 1.269003e+002
1.144502e+003, 1.265665e+002
1.144984e+003, 1.268573e+002
1.145466e+003, 1.273617e+002
1.145948e+003, 1.281590e+002
1.146431e+003, 1.285092e+002
1.146913e+003, 1.266287e+002
1.147395e+003, 1.239722e+002
1.147877e+003, 1.234691e+002
1.148359e+003, 1.251294e+002
1.148841e+003, 1.266805e+002
1.149323e+003, 1.271877e+002
1.149805e+003, 1.273525e+002
1.150287e+003, 1.274187e+002
1.150770e+003, 1.275251e+002
1.151252e+003, 1.279029e+002
1.151734e+003, 1.282679e+002
1.152216e+003, 1.281349e+002
1.152698e+003, 1.277818e+002
1.153180e+003, 1.280732e+002
1.153662e+003, 1.291817e+002
1.154144e+003, 1.296128e+002
1.154626e+003, 1.280279e+002
1.155109e+003, 1.268826e+002
1.155591e+003, 1.274617e+002
1.156073e+003, 1.282034e+002
1.156555e+003, 1.280317e+002
1.157037e+003, 1.275158e+002
1.157519e+003, 1.274555e+002
1.158001e+003, 1.278334e+002
1.158483e+003, 1.281397e+002
1.158966e+003, 1.282491e+002
1.159448e+003, 1.284559e+002
1.159930e+003, 1.294197e+002
1.160412e+003, 1.295842e+002
1.160894e+003, 1.277995e+002
1.161376e+003, 1.259023e+002
1.161858e+003, 1.251395e+002
1.162340e+003, 1.252844e+002
1.162822e+003, 1.259542e+002
1.163305e+003, 1.272372e+002
1.163787e+003, 1.281629e+002
1.164269e+003, 1.289251e+002
1.164751e+003, 1.285948e+002
1.165233e+003, 1.265316e+002
1.165715e+003, 1.248861e+002
1.166197e+003, 1.246738e+002
1.166679e+003, 1.253690e+002
1.167161e+003, 1.265316e+002
1.167644e+003, 1.278912e+002
1.168126e+003, 1.281635e+002
1.168608e+003, 1.272910e+002
1.169090e+003, 1.273067e+002
1.169572e+003, 1.283357e+002
1.170054e+003, 1.285752e+002
1.170536e+003, 1.275131e+002
1.171018e+003, 1.265899e+002
1.171500e+003, 1.268263e+002
1.171983e+003, 1.275448e+002
1.172465e+003, 1.276015e+002
1.172947e+003, 1.272710e+002
1.173429e+003, 1.274098e+002
1.173911e+003, 1.279864e+002
1.174393e+003, 1.293248e+002
1.174875e+003, 1.310815e+002
1.175357e+003, 1.311990e+002
1.175840e+003, 1.290624e+002
1.176322e+003, 1.272114e+002
1.176804e+003, 1.279056e+002
1.177286e+003, 1.295282e+002
1.177768e+003, 1.304656e+002
1.178250e+003, 1.307582e+002
1.178732e+003, 1.302205e+002
1.179214e+003, 1.291863e+002
1.179697e+003, 1.282279e+002
1.180179e+003, 1.274344e+002
1.180661e+003, 1.264761e+002
1.181143e+003, 1.250652e+002
1.181625e+003, 1.247128e+002
1.182107e+003, 1.275250e+002
1.182589e+003, 1.302691e+002
1.183071e+003, 1.307293e+002
1.183553e+003, 1.301974e+002
1.184036e+003, 1.296996e+002
1.184518e+003, 1.292975e+002
1.185000e+003, 1.287326e+002
1.185482e+003, 1.280139e+002
1.185964e+003, 1.278841e+002
1.186446e+003, 1.289932e+002
1.186928e+003, 1.299193e+002
1.187410e+003, 1.309032e+002
1.187892e+003, 1.310681e+002
1.188375e+003, 1.285342e+002
1.188857e+003, 1.263670e+002
1.189339e+003, 1.282518e+002
1.189821e+003, 1.324750e+002
1.190303e+003, 1.339617e+002
1.190785e+003, 1.321938e+002
1.191267e+003, 1.306801e+002
1.191749e+003, 1.292207e+002
1.192232e+003, 1.287330e+002
1.192714e+003, 1.298336e+002
1.193196e+003, 1.304551e+002
1.193678e+003, 1.293727e+002
1.194160e+003, 1.279034e+002
1.194642e+003, 1.277307e+002
1.195124e+003, 1.284286e+002
1.195606e+003, 1.281251e+002
1.196089e+003, 1.268895e+002
1.196571e+003, 1.267918e+002
1.197053e+003, 1.278660e+002
1.197535e+003, 1.288535e+002
1.198017e+003, 1.294262e+002
1.198499e+003, 1.297241e+002
1.198981e+003, 1.298291e+002
1.199463e+003, 1.297474e+002
1.199945e+003, 1.291581e+002
1.200427e+003, 1.286407e+002
1.200910e+003, 1.298837e+002
1.201392e+003, 1.318902e+002
1.201874e+003, 1.322822e+002
1.202356e+003, 1.313651e+002
1.202838e+003, 1.307445e+002
1.203320e+003, 1.308736e+002
1.203802e+003, 1.313581e+002
1.204284e+003, 1.321421e+002
1.204767e+003, 1.326804e+002
1.205249e+003, 1.322844e+002
1.205731e+003, 1.317650e+002
1.206213e+003, 1.319243e+002
1.206695e+003, 1.322585e+002
1.207177e+003, 1.319716e+002
1.207659e+003, 1.313326e+002
1.208141e+003, 1.312289e+002
1.208624e+003, 1.318609e+002
1.209106e+003, 1.325315e+002
1.209588e+003, 1.333493e+002
1.210070e+003, 1.337739e+002
1.210552e+003, 1.336007e+002
1.211034e+003, 1.331208e+002
1.211516e+003, 1.320057e+002
1.211998e+003, 1.310717e+002
1.212480e+003, 1.314206e+002
1.212963e+003, 1.325736e+002
1.213445e+003, 1.326138e+002
1.213927e+003, 1.311573e+002
1.214409e+003, 1.305593e+002
1.214891e+003, 1.310284e+002
1.215373e+003, 1.315862e+002
1.215855e+003, 1.321340e+002
1.216337e+003, 1.323101e+002
1.216819e+003, 1.318739e+002
1.217302e+003, 1.312051e+002
1.217784e+003, 1.306724e+002
1.218266e+003, 1.304366e+002
1.218748e+003, 1.314583e+002
1.219230e+003, 1.332598e+002
1.219712e+003, 1.330803e+002
1.220194e+003, 1.312186e+002
1.220676e+003, 1.298423e+002
1.221159e+003, 1.294822e+002
1.221641e+003, 1.299649e+002
1.222123e+003, 1.312341e+002
1.222605e+003, 1.323796e+002
1.223087e+003, 1.319917e+002
1.223569e+003, 1.314950e+002
1.224051e+003, 1.330637e+002
1.224533e+003, 1.351015e+002
1.225016e+003, 1.352819e+002
1.225498e+003, 1.343271e+002
1.225980e+003, 1.340531e+002
1.226462e+003, 1.346375e+002
1.226944e+003, 1.348283e+002
1.227426e+003, 1.339051e+002
1.227908e+003, 1.334108e+002
1.228390e+003, 1.344689e+002
1.228872e+003, 1.352777e+002
1.229354e+003, 1.347370e+002
1.229837e+003, 1.339913e+002
1.230319e+003, 1.343181e+002
1.230801e+003, 1.348642e+002
1.231283e+003, 1.338009e+002
1.231765e+003, 1.312103e+002
1.232247e+003, 1.300707e+002
1.232729e+003, 1.308903e+002
1.233211e+003, 1.316030e+002
1.233694e+003, 1.320482e+002
1.234176e+003, 1.327580e+002
1.234658e+003, 1.340472e+002
1.235140e+003, 1.348469e+002
1.235622e+003, 1.342467e+002
1.236104e+003, 1.333079e+002
1.236586e+003, 1.341037e+002
1.237068e+003, 1.359886e+002
1.237551e+003, 1.359992e+002
1.238033e+003, 1.346261e+002
1.238515e+003, 1.341465e+002
1.238997e+003, 1.345625e+002
1.239479e+003, 1.344440e+002
1.239961e+003, 1.335189e+002
1.240443e+003, 1.332118e+002
1.240925e+003, 1.345798e+002
1.241407e+003, 1.360425e+002
1.241890e+003, 1.359581e+002
1.242372e+003, 1.353637e+002
1.242854e+003, 1.349948e+002
1.243336e+003, 1.349487e+002
1.243818e+003, 1.356050e+002
1.244300e+003, 1.365279e+002
1.244782e+003, 1.367541e+002
1.245264e+003, 1.361811e+002
1.245746e+003, 1.356921e+002
1.246229e+003, 1.350975e+002
1.246711e+003, 1.353772e+002
1.247193e+003, 1.381737e+002
1.247675e+003, 1.398489e+002
1.248157e+003, 1.384393e+002
1.248639e+003, 1.363897e+002
1.249121e+003, 1.351816e+002
1.249603e+003, 1.346651e+002
1.250085e+003, 1.346680e+002
1.250568e+003, 1.351439e+002
1.251050e+003, 1.352120e+002
1.251532e+003, 1.347964e+002
1.252014e+003, 1.349889e+002
1.252496e+003, 1.359189e+002
1.252978e+003, 1.357906e+002
1.253460e+003, 1.340746e+002
1.253942e+003, 1.330089e+002
1.254425e+003, 1.341921e+002
1.254907e+003, 1.361703e+002
1.255389e+003, 1.368769e+002
1.255871e+003, 1.370154e+002
1.256353e+003, 1.380046e+002
1.256835e+003, 1.393479e+002
1.257317e+003, 1.404782e+002
1.257799e+003, 1.410114e+002
1.258281e+003, 1.397473e+002
1.258764e+003, 1.369648e+002
1.259246e+003, 1.354145e+002
1.259728e+003, 1.364585e+002
1.260210e+003, 1.381237e+002
1.260692e+003, 1.407602e+002
1.261174e+003, 1.421340e+002
1.261656e+003, 1.400048e+002
1.262138e+003, 1.374142e+002
1.262620e+003, 1.365748e+002
1.263103e+003, 1.368853e+002
1.263585e+003, 1.373085e+002
1.264067e+003, 1.378428e+002
1.264549e+003, 1.386474e+002
1.265031e+003, 1.400338e+002
1.265513e+003, 1.404944e+002
1.265995e+003, 1.396752e+002
1.266477e+003, 1.396223e+002
1.266960e+003, 1.409558e+002
1.267442e+003, 1.419134e+002
1.267924e+003, 1.414911e+002
1.268406e+003, 1.404289e+002
1.268888e+003, 1.394985e+002
1.269370e+003, 1.387645e+002
1.269852e+003, 1.382708e+002
1.270334e+003, 1.381260e+002
1.270817e+003, 1.389442e+002
1.271299e+003, 1.402644e+002
1.271781e+003, 1.406761e+002
1.272263e+003, 1.402347e+002
1.272745e+003, 1.403204e+002
1.273227e+003, 1.414616e+002
1.273709e+003, 1.420899e+002
1.274191e+003, 1.405339e+002
1.274673e+003, 1.392609e+002
1.275156e+003, 1.400518e+002
1.275638e+003, 1.409119e+002
1.276120e+003, 1.401413e+002
1.276602e+003, 1.390065e+002
1.277084e+003, 1.390562e+002
1.277566e+003, 1.400130e+002
1.278048e+003, 1.408256e+002
1.278530e+003, 1.415331e+002
1.279012e+003, 1.416410e+002
1.279495e+003, 1.408646e+002
1.279977e+003, 1.405279e+002
1.280459e+003, 1.408481e+002
1.280941e+003, 1.412125e+002
1.281423e+003, 1.413874e+002
1.281905e+003, 1.416993e+002
1.282387e+003, 1.424523e+002
1.282869e+003, 1.432590e+002
1.283352e+003, 1.433294e+002
1.283834e+003, 1.430137e+002
1.284316e+003, 1.430503e+002
1.284798e+003, 1.434463e+002
##END=



