##NAMES=Riebeckite
##RRUFFID=R120033
##IDEAL CHEMISTRY=[box]Na_2_(Fe^2+^_3_Fe^3+^_2_)Si_8_O_22_(OH)_2_
##LOCALITY=Zagi Mountain, Hameed Abad Kafoor Dheri, Peshawar, Khyber Pakhtunkhwa, Pakistan
##OWNER=RRUFF
##SOURCE=Donald Doell
##DESCRIPTION=Black prismatic crystals associated with titanite, R120030
##STATUS=The identification of this mineral has been confirmed only by single crystal X-ray diffraction.
##URL=rruff.info/R120033
9.160352e+001, 4.356893e+002
9.208563e+001, 4.306894e+002
9.256775e+001, 4.300511e+002
9.304987e+001, 4.358894e+002
9.353198e+001, 4.434290e+002
9.401410e+001, 4.463688e+002
9.449622e+001, 4.446873e+002
9.497833e+001, 4.401517e+002
9.546045e+001, 4.341761e+002
9.594257e+001, 4.267475e+002
9.642468e+001, 4.192961e+002
9.690680e+001, 4.106741e+002
9.738892e+001, 4.035311e+002
9.787103e+001, 3.995272e+002
9.835315e+001, 3.976301e+002
9.883527e+001, 3.954955e+002
9.931738e+001, 3.917662e+002
9.979950e+001, 3.859221e+002
1.002816e+002, 3.807065e+002
1.007637e+002, 3.757457e+002
1.012458e+002, 3.713323e+002
1.017280e+002, 3.676765e+002
1.022101e+002, 3.647372e+002
1.026922e+002, 3.626650e+002
1.031743e+002, 3.620663e+002
1.036564e+002, 3.628711e+002
1.041385e+002, 3.637639e+002
1.046207e+002, 3.643845e+002
1.051028e+002, 3.647336e+002
1.055849e+002, 3.649099e+002
1.060670e+002, 3.652482e+002
1.065491e+002, 3.648747e+002
1.070313e+002, 3.631374e+002
1.075134e+002, 3.599715e+002
1.079955e+002, 3.555960e+002
1.084776e+002, 3.496058e+002
1.089597e+002, 3.412958e+002
1.094418e+002, 3.344402e+002
1.099240e+002, 3.306564e+002
1.104061e+002, 3.283352e+002
1.108882e+002, 3.265797e+002
1.113703e+002, 3.250705e+002
1.118524e+002, 3.237351e+002
1.123345e+002, 3.223697e+002
1.128167e+002, 3.207550e+002
1.132988e+002, 3.194319e+002
1.137809e+002, 3.185970e+002
1.142630e+002, 3.180510e+002
1.147451e+002, 3.175423e+002
1.152272e+002, 3.169194e+002
1.157094e+002, 3.161832e+002
1.161915e+002, 3.154673e+002
1.166736e+002, 3.149118e+002
1.171557e+002, 3.142290e+002
1.176378e+002, 3.130440e+002
1.181199e+002, 3.115491e+002
1.186021e+002, 3.103635e+002
1.190842e+002, 3.099834e+002
1.195663e+002, 3.105263e+002
1.200484e+002, 3.115568e+002
1.205305e+002, 3.130389e+002
1.210126e+002, 3.150038e+002
1.214948e+002, 3.175919e+002
1.219769e+002, 3.208614e+002
1.224590e+002, 3.243857e+002
1.229411e+002, 3.279265e+002
1.234232e+002, 3.314295e+002
1.239053e+002, 3.345327e+002
1.243875e+002, 3.368679e+002
1.248696e+002, 3.386880e+002
1.253517e+002, 3.406831e+002
1.258338e+002, 3.430345e+002
1.263159e+002, 3.454458e+002
1.267980e+002, 3.479151e+002
1.272802e+002, 3.503552e+002
1.277623e+002, 3.523448e+002
1.282444e+002, 3.532419e+002
1.287265e+002, 3.528730e+002
1.292086e+002, 3.532220e+002
1.296907e+002, 3.549352e+002
1.301729e+002, 3.570886e+002
1.306550e+002, 3.593934e+002
1.311371e+002, 3.617688e+002
1.316192e+002, 3.642075e+002
1.321013e+002, 3.665742e+002
1.325834e+002, 3.682944e+002
1.330656e+002, 3.712744e+002
1.335477e+002, 3.760101e+002
1.340298e+002, 3.814842e+002
1.345119e+002, 3.868550e+002
1.349940e+002, 3.918461e+002
1.354761e+002, 3.968891e+002
1.359583e+002, 4.029339e+002
1.364404e+002, 4.104589e+002
1.369225e+002, 4.184522e+002
1.374046e+002, 4.257907e+002
1.378867e+002, 4.338095e+002
1.383688e+002, 4.442808e+002
1.388510e+002, 4.580969e+002
1.393331e+002, 4.749300e+002
1.398152e+002, 4.935454e+002
1.402973e+002, 5.129651e+002
1.407794e+002, 5.349008e+002
1.412615e+002, 5.610858e+002
1.417437e+002, 5.907505e+002
1.422258e+002, 6.216885e+002
1.427079e+002, 6.557695e+002
1.431900e+002, 6.880934e+002
1.436721e+002, 7.112203e+002
1.441542e+002, 7.264877e+002
1.446364e+002, 7.303305e+002
1.451185e+002, 7.166601e+002
1.456006e+002, 6.834108e+002
1.460827e+002, 6.452012e+002
1.465648e+002, 6.041485e+002
1.470469e+002, 5.636013e+002
1.475291e+002, 5.271218e+002
1.480112e+002, 4.958474e+002
1.484933e+002, 4.694703e+002
1.489754e+002, 4.474770e+002
1.494575e+002, 4.303008e+002
1.499396e+002, 4.173329e+002
1.504218e+002, 4.084239e+002
1.509039e+002, 4.025751e+002
1.513860e+002, 3.986802e+002
1.518681e+002, 3.962229e+002
1.523502e+002, 3.950889e+002
1.528323e+002, 3.943942e+002
1.533145e+002, 3.942420e+002
1.537966e+002, 3.945029e+002
1.542787e+002, 3.949524e+002
1.547608e+002, 3.957975e+002
1.552429e+002, 3.974181e+002
1.557250e+002, 4.001462e+002
1.562072e+002, 4.040213e+002
1.566893e+002, 4.084303e+002
1.571714e+002, 4.134210e+002
1.576535e+002, 4.187845e+002
1.581356e+002, 4.244703e+002
1.586177e+002, 4.304669e+002
1.590999e+002, 4.367919e+002
1.595820e+002, 4.434102e+002
1.600641e+002, 4.503667e+002
1.605462e+002, 4.580689e+002
1.610283e+002, 4.674262e+002
1.615104e+002, 4.768377e+002
1.619926e+002, 4.856005e+002
1.624747e+002, 4.935687e+002
1.629568e+002, 4.998710e+002
1.634389e+002, 5.033080e+002
1.639210e+002, 5.039693e+002
1.644031e+002, 5.026926e+002
1.648853e+002, 4.997296e+002
1.653674e+002, 4.948473e+002
1.658495e+002, 4.875195e+002
1.663316e+002, 4.773016e+002
1.668137e+002, 4.654719e+002
1.672958e+002, 4.526052e+002
1.677780e+002, 4.389815e+002
1.682601e+002, 4.257825e+002
1.687422e+002, 4.134897e+002
1.692243e+002, 4.020504e+002
1.697064e+002, 3.914456e+002
1.701885e+002, 3.815493e+002
1.706707e+002, 3.728548e+002
1.711528e+002, 3.656100e+002
1.716349e+002, 3.596738e+002
1.721170e+002, 3.543924e+002
1.725991e+002, 3.494287e+002
1.730812e+002, 3.448013e+002
1.735634e+002, 3.400877e+002
1.740455e+002, 3.345310e+002
1.745276e+002, 3.294772e+002
1.750097e+002, 3.255005e+002
1.754918e+002, 3.226078e+002
1.759739e+002, 3.205309e+002
1.764561e+002, 3.190973e+002
1.769382e+002, 3.184688e+002
1.774203e+002, 3.179227e+002
1.779024e+002, 3.173957e+002
1.783845e+002, 3.169851e+002
1.788666e+002, 3.167493e+002
1.793488e+002, 3.166942e+002
1.798309e+002, 3.167843e+002
1.803130e+002, 3.169591e+002
1.807951e+002, 3.171223e+002
1.812772e+002, 3.176459e+002
1.817593e+002, 3.186185e+002
1.822415e+002, 3.198361e+002
1.827236e+002, 3.211834e+002
1.832057e+002, 3.226222e+002
1.836878e+002, 3.241296e+002
1.841699e+002, 3.256541e+002
1.846520e+002, 3.270554e+002
1.851342e+002, 3.288240e+002
1.856163e+002, 3.308777e+002
1.860984e+002, 3.333395e+002
1.865805e+002, 3.365182e+002
1.870626e+002, 3.405451e+002
1.875447e+002, 3.448528e+002
1.880269e+002, 3.483842e+002
1.885090e+002, 3.509048e+002
1.889911e+002, 3.537676e+002
1.894732e+002, 3.571664e+002
1.899553e+002, 3.611131e+002
1.904374e+002, 3.656689e+002
1.909196e+002, 3.710161e+002
1.914017e+002, 3.767323e+002
1.918838e+002, 3.821901e+002
1.923659e+002, 3.873015e+002
1.928480e+002, 3.927485e+002
1.933301e+002, 3.993250e+002
1.938123e+002, 4.066004e+002
1.942944e+002, 4.130008e+002
1.947765e+002, 4.178807e+002
1.952586e+002, 4.219580e+002
1.957407e+002, 4.262207e+002
1.962228e+002, 4.306682e+002
1.967050e+002, 4.346900e+002
1.971871e+002, 4.379743e+002
1.976692e+002, 4.405147e+002
1.981513e+002, 4.421396e+002
1.986334e+002, 4.425772e+002
1.991155e+002, 4.421645e+002
1.995977e+002, 4.409672e+002
2.000798e+002, 4.390382e+002
2.005619e+002, 4.368631e+002
2.010440e+002, 4.349052e+002
2.015261e+002, 4.332015e+002
2.020082e+002, 4.314063e+002
2.024904e+002, 4.289752e+002
2.029725e+002, 4.268059e+002
2.034546e+002, 4.252238e+002
2.039367e+002, 4.243270e+002
2.044188e+002, 4.241885e+002
2.049009e+002, 4.250109e+002
2.053831e+002, 4.270693e+002
2.058652e+002, 4.292762e+002
2.063473e+002, 4.310565e+002
2.068294e+002, 4.333278e+002
2.073115e+002, 4.369694e+002
2.077936e+002, 4.419402e+002
2.082758e+002, 4.472555e+002
2.087579e+002, 4.514215e+002
2.092400e+002, 4.535469e+002
2.097221e+002, 4.564604e+002
2.102042e+002, 4.611094e+002
2.106863e+002, 4.657379e+002
2.111685e+002, 4.694116e+002
2.116506e+002, 4.718449e+002
2.121327e+002, 4.730692e+002
2.126148e+002, 4.730883e+002
2.130969e+002, 4.714525e+002
2.135790e+002, 4.693187e+002
2.140612e+002, 4.670531e+002
2.145433e+002, 4.641340e+002
2.150254e+002, 4.600001e+002
2.155075e+002, 4.545800e+002
2.159896e+002, 4.482949e+002
2.164718e+002, 4.417208e+002
2.169539e+002, 4.345775e+002
2.174360e+002, 4.277537e+002
2.179181e+002, 4.214417e+002
2.184002e+002, 4.153533e+002
2.188823e+002, 4.089732e+002
2.193645e+002, 4.021909e+002
2.198466e+002, 3.956829e+002
2.203287e+002, 3.905244e+002
2.208108e+002, 3.869181e+002
2.212929e+002, 3.833120e+002
2.217750e+002, 3.792897e+002
2.222572e+002, 3.752430e+002
2.227393e+002, 3.715969e+002
2.232214e+002, 3.684264e+002
2.237035e+002, 3.657648e+002
2.241856e+002, 3.639187e+002
2.246677e+002, 3.628200e+002
2.251499e+002, 3.616880e+002
2.256320e+002, 3.601855e+002
2.261141e+002, 3.585621e+002
2.265962e+002, 3.572509e+002
2.270783e+002, 3.563682e+002
2.275604e+002, 3.556613e+002
2.280426e+002, 3.546541e+002
2.285247e+002, 3.534875e+002
2.290068e+002, 3.529469e+002
2.294889e+002, 3.538175e+002
2.299710e+002, 3.554883e+002
2.304531e+002, 3.564823e+002
2.309353e+002, 3.562973e+002
2.314174e+002, 3.561921e+002
2.318995e+002, 3.572131e+002
2.323816e+002, 3.590668e+002
2.328637e+002, 3.610156e+002
2.333458e+002, 3.629779e+002
2.338280e+002, 3.647894e+002
2.343101e+002, 3.658546e+002
2.347922e+002, 3.657681e+002
2.352743e+002, 3.655531e+002
2.357564e+002, 3.658568e+002
2.362385e+002, 3.664765e+002
2.367207e+002, 3.670016e+002
2.372028e+002, 3.671323e+002
2.376849e+002, 3.669772e+002
2.381670e+002, 3.670713e+002
2.386491e+002, 3.678399e+002
2.391312e+002, 3.681848e+002
2.396134e+002, 3.677289e+002
2.400955e+002, 3.666143e+002
2.405776e+002, 3.650378e+002
2.410597e+002, 3.630049e+002
2.415418e+002, 3.606317e+002
2.420239e+002, 3.585719e+002
2.425061e+002, 3.573174e+002
2.429882e+002, 3.556658e+002
2.434703e+002, 3.529090e+002
2.439524e+002, 3.496396e+002
2.444345e+002, 3.467510e+002
2.449166e+002, 3.448243e+002
2.453988e+002, 3.435932e+002
2.458809e+002, 3.418267e+002
2.463630e+002, 3.390406e+002
2.468451e+002, 3.363055e+002
2.473272e+002, 3.336670e+002
2.478093e+002, 3.312469e+002
2.482915e+002, 3.292961e+002
2.487736e+002, 3.279881e+002
2.492557e+002, 3.270840e+002
2.497378e+002, 3.256240e+002
2.502199e+002, 3.231435e+002
2.507020e+002, 3.206204e+002
2.511842e+002, 3.180088e+002
2.516663e+002, 3.154940e+002
2.521484e+002, 3.133339e+002
2.526305e+002, 3.116444e+002
2.531126e+002, 3.103081e+002
2.535947e+002, 3.089103e+002
2.540769e+002, 3.072762e+002
2.545590e+002, 3.058183e+002
2.550411e+002, 3.046450e+002
2.555232e+002, 3.036247e+002
2.560053e+002, 3.025367e+002
2.564874e+002, 3.012953e+002
2.569695e+002, 3.000912e+002
2.574517e+002, 2.993866e+002
2.579338e+002, 2.996276e+002
2.584159e+002, 2.998863e+002
2.588980e+002, 3.002899e+002
2.593801e+002, 3.006491e+002
2.598622e+002, 3.006662e+002
2.603444e+002, 3.002495e+002
2.608265e+002, 2.997245e+002
2.613086e+002, 2.997130e+002
2.617907e+002, 3.006547e+002
2.622728e+002, 3.014545e+002
2.627549e+002, 3.020026e+002
2.632371e+002, 3.024513e+002
2.637192e+002, 3.029429e+002
2.642013e+002, 3.035177e+002
2.646834e+002, 3.041229e+002
2.651655e+002, 3.046578e+002
2.656476e+002, 3.049784e+002
2.661298e+002, 3.056292e+002
2.666119e+002, 3.071447e+002
2.670940e+002, 3.087116e+002
2.675761e+002, 3.095379e+002
2.680582e+002, 3.094807e+002
2.685403e+002, 3.089786e+002
2.690225e+002, 3.085645e+002
2.695046e+002, 3.083362e+002
2.699867e+002, 3.075840e+002
2.704688e+002, 3.058868e+002
2.709509e+002, 3.039156e+002
2.714330e+002, 3.023361e+002
2.719152e+002, 3.012068e+002
2.723973e+002, 2.999486e+002
2.728794e+002, 2.979154e+002
2.733615e+002, 2.950330e+002
2.738436e+002, 2.926289e+002
2.743257e+002, 2.913449e+002
2.748079e+002, 2.900932e+002
2.752900e+002, 2.878152e+002
2.757721e+002, 2.845236e+002
2.762542e+002, 2.813770e+002
2.767363e+002, 2.793355e+002
2.772184e+002, 2.782854e+002
2.777006e+002, 2.767289e+002
2.781827e+002, 2.738394e+002
2.786648e+002, 2.711100e+002
2.791469e+002, 2.697382e+002
2.796290e+002, 2.696099e+002
2.801111e+002, 2.697053e+002
2.805933e+002, 2.694967e+002
2.810754e+002, 2.690335e+002
2.815575e+002, 2.685648e+002
2.820396e+002, 2.681022e+002
2.825217e+002, 2.676234e+002
2.830038e+002, 2.670720e+002
2.834860e+002, 2.664739e+002
2.839681e+002, 2.659690e+002
2.844502e+002, 2.656640e+002
2.849323e+002, 2.654572e+002
2.854144e+002, 2.650483e+002
2.858965e+002, 2.641822e+002
2.863787e+002, 2.637165e+002
2.868608e+002, 2.646327e+002
2.873429e+002, 2.664591e+002
2.878250e+002, 2.673871e+002
2.883071e+002, 2.665055e+002
2.887892e+002, 2.648960e+002
2.892714e+002, 2.642233e+002
2.897535e+002, 2.646004e+002
2.902356e+002, 2.648513e+002
2.907177e+002, 2.642265e+002
2.911998e+002, 2.630523e+002
2.916819e+002, 2.622110e+002
2.921641e+002, 2.619687e+002
2.926462e+002, 2.619606e+002
2.931283e+002, 2.617582e+002
2.936104e+002, 2.613902e+002
2.940925e+002, 2.611356e+002
2.945746e+002, 2.610267e+002
2.950568e+002, 2.611194e+002
2.955389e+002, 2.617041e+002
2.960210e+002, 2.630606e+002
2.965031e+002, 2.641694e+002
2.969852e+002, 2.639292e+002
2.974673e+002, 2.627190e+002
2.979495e+002, 2.614346e+002
2.984316e+002, 2.600803e+002
2.989137e+002, 2.589289e+002
2.993958e+002, 2.586164e+002
2.998779e+002, 2.593667e+002
3.003600e+002, 2.599153e+002
3.008422e+002, 2.590688e+002
3.013243e+002, 2.574913e+002
3.018064e+002, 2.563074e+002
3.022885e+002, 2.558317e+002
3.027706e+002, 2.557663e+002
3.032527e+002, 2.559120e+002
3.037349e+002, 2.562994e+002
3.042170e+002, 2.564637e+002
3.046991e+002, 2.560813e+002
3.051812e+002, 2.553824e+002
3.056633e+002, 2.546353e+002
3.061454e+002, 2.537954e+002
3.066276e+002, 2.531049e+002
3.071097e+002, 2.528210e+002
3.075918e+002, 2.529264e+002
3.080739e+002, 2.531189e+002
3.085560e+002, 2.533510e+002
3.090381e+002, 2.535885e+002
3.095203e+002, 2.538286e+002
3.100024e+002, 2.540832e+002
3.104845e+002, 2.542158e+002
3.109666e+002, 2.540361e+002
3.114487e+002, 2.536197e+002
3.119308e+002, 2.533459e+002
3.124130e+002, 2.533123e+002
3.128951e+002, 2.534117e+002
3.133772e+002, 2.535769e+002
3.138593e+002, 2.537935e+002
3.143414e+002, 2.539609e+002
3.148235e+002, 2.539517e+002
3.153057e+002, 2.538590e+002
3.157878e+002, 2.539812e+002
3.162699e+002, 2.544659e+002
3.167520e+002, 2.548635e+002
3.172341e+002, 2.545978e+002
3.177162e+002, 2.539879e+002
3.181984e+002, 2.537625e+002
3.186805e+002, 2.545487e+002
3.191626e+002, 2.557027e+002
3.196447e+002, 2.560806e+002
3.201268e+002, 2.555019e+002
3.206089e+002, 2.550678e+002
3.210911e+002, 2.558959e+002
3.215732e+002, 2.571153e+002
3.220553e+002, 2.573843e+002
3.225374e+002, 2.559526e+002
3.230195e+002, 2.542970e+002
3.235016e+002, 2.542156e+002
3.239838e+002, 2.557238e+002
3.244659e+002, 2.567726e+002
3.249480e+002, 2.563901e+002
3.254301e+002, 2.552507e+002
3.259122e+002, 2.541693e+002
3.263943e+002, 2.531664e+002
3.268765e+002, 2.522894e+002
3.273586e+002, 2.516016e+002
3.278407e+002, 2.510780e+002
3.283228e+002, 2.506150e+002
3.288049e+002, 2.502500e+002
3.292870e+002, 2.498506e+002
3.297692e+002, 2.492434e+002
3.302513e+002, 2.484510e+002
3.307334e+002, 2.477179e+002
3.312155e+002, 2.472821e+002
3.316976e+002, 2.469813e+002
3.321797e+002, 2.464499e+002
3.326619e+002, 2.456497e+002
3.331440e+002, 2.446174e+002
3.336261e+002, 2.430728e+002
3.341082e+002, 2.412876e+002
3.345903e+002, 2.399605e+002
3.350724e+002, 2.397320e+002
3.355546e+002, 2.398693e+002
3.360367e+002, 2.394253e+002
3.365188e+002, 2.383631e+002
3.370009e+002, 2.370730e+002
3.374830e+002, 2.354715e+002
3.379651e+002, 2.338924e+002
3.384473e+002, 2.329905e+002
3.389294e+002, 2.331219e+002
3.394115e+002, 2.334922e+002
3.398936e+002, 2.334453e+002
3.403758e+002, 2.330451e+002
3.408579e+002, 2.327916e+002
3.413400e+002, 2.329522e+002
3.418221e+002, 2.332642e+002
3.423042e+002, 2.332841e+002
3.427863e+002, 2.329466e+002
3.432685e+002, 2.326942e+002
3.437506e+002, 2.328311e+002
3.442327e+002, 2.332095e+002
3.447148e+002, 2.333910e+002
3.451969e+002, 2.331615e+002
3.456790e+002, 2.330464e+002
3.461612e+002, 2.339851e+002
3.466433e+002, 2.357834e+002
3.471254e+002, 2.370495e+002
3.476075e+002, 2.367962e+002
3.480896e+002, 2.361202e+002
3.485717e+002, 2.364555e+002
3.490539e+002, 2.379500e+002
3.495360e+002, 2.396900e+002
3.500181e+002, 2.410942e+002
3.505002e+002, 2.421904e+002
3.509823e+002, 2.431959e+002
3.514644e+002, 2.436884e+002
3.519466e+002, 2.444590e+002
3.524287e+002, 2.463060e+002
3.529108e+002, 2.490025e+002
3.533929e+002, 2.514659e+002
3.538750e+002, 2.530692e+002
3.543571e+002, 2.542064e+002
3.548393e+002, 2.559071e+002
3.553214e+002, 2.584409e+002
3.558035e+002, 2.608369e+002
3.562856e+002, 2.625155e+002
3.567677e+002, 2.638583e+002
3.572498e+002, 2.656738e+002
3.577320e+002, 2.682727e+002
3.582141e+002, 2.709488e+002
3.586962e+002, 2.727127e+002
3.591783e+002, 2.734464e+002
3.596604e+002, 2.740533e+002
3.601425e+002, 2.748361e+002
3.606247e+002, 2.754156e+002
3.611068e+002, 2.751261e+002
3.615889e+002, 2.740097e+002
3.620710e+002, 2.732378e+002
3.625531e+002, 2.739556e+002
3.630352e+002, 2.761306e+002
3.635174e+002, 2.773481e+002
3.639995e+002, 2.769177e+002
3.644816e+002, 2.763204e+002
3.649637e+002, 2.764067e+002
3.654458e+002, 2.768994e+002
3.659279e+002, 2.769527e+002
3.664101e+002, 2.760581e+002
3.668922e+002, 2.745899e+002
3.673743e+002, 2.737929e+002
3.678564e+002, 2.741073e+002
3.683385e+002, 2.744116e+002
3.688206e+002, 2.745341e+002
3.693028e+002, 2.745858e+002
3.697849e+002, 2.747469e+002
3.702670e+002, 2.750553e+002
3.707491e+002, 2.753190e+002
3.712312e+002, 2.752912e+002
3.717133e+002, 2.749806e+002
3.721955e+002, 2.742550e+002
3.726776e+002, 2.726910e+002
3.731597e+002, 2.711036e+002
3.736418e+002, 2.702881e+002
3.741239e+002, 2.700161e+002
3.746060e+002, 2.692805e+002
3.750882e+002, 2.672301e+002
3.755703e+002, 2.639063e+002
3.760524e+002, 2.605484e+002
3.765345e+002, 2.568535e+002
3.770166e+002, 2.534508e+002
3.774987e+002, 2.505117e+002
3.779809e+002, 2.479362e+002
3.784630e+002, 2.455557e+002
3.789451e+002, 2.432927e+002
3.794272e+002, 2.411994e+002
3.799093e+002, 2.394492e+002
3.803914e+002, 2.385370e+002
3.808736e+002, 2.371045e+002
3.813557e+002, 2.346106e+002
3.818378e+002, 2.319849e+002
3.823199e+002, 2.299183e+002
3.828020e+002, 2.284860e+002
3.832841e+002, 2.273154e+002
3.837663e+002, 2.260309e+002
3.842484e+002, 2.246278e+002
3.847305e+002, 2.230995e+002
3.852126e+002, 2.209948e+002
3.856947e+002, 2.191967e+002
3.861768e+002, 2.180751e+002
3.866590e+002, 2.174763e+002
3.871411e+002, 2.170538e+002
3.876232e+002, 2.165945e+002
3.881053e+002, 2.161624e+002
3.885874e+002, 2.160812e+002
3.890695e+002, 2.168460e+002
3.895517e+002, 2.169937e+002
3.900338e+002, 2.157144e+002
3.905159e+002, 2.140198e+002
3.909980e+002, 2.129119e+002
3.914801e+002, 2.126596e+002
3.919622e+002, 2.125995e+002
3.924444e+002, 2.117742e+002
3.929265e+002, 2.100573e+002
3.934086e+002, 2.088388e+002
3.938907e+002, 2.088111e+002
3.943728e+002, 2.088439e+002
3.948549e+002, 2.082037e+002
3.953371e+002, 2.070234e+002
3.958192e+002, 2.059126e+002
3.963013e+002, 2.052632e+002
3.967834e+002, 2.049800e+002
3.972655e+002, 2.047690e+002
3.977477e+002, 2.046438e+002
3.982298e+002, 2.045575e+002
3.987119e+002, 2.044096e+002
3.991940e+002, 2.043066e+002
3.996761e+002, 2.044380e+002
4.001582e+002, 2.049405e+002
4.006404e+002, 2.054864e+002
4.011225e+002, 2.057577e+002
4.016046e+002, 2.057640e+002
4.020867e+002, 2.056376e+002
4.025688e+002, 2.053964e+002
4.030509e+002, 2.050512e+002
4.035331e+002, 2.045543e+002
4.040152e+002, 2.038964e+002
4.044973e+002, 2.034126e+002
4.049794e+002, 2.034835e+002
4.054615e+002, 2.037579e+002
4.059436e+002, 2.034616e+002
4.064258e+002, 2.024163e+002
4.069079e+002, 2.015549e+002
4.073900e+002, 2.017780e+002
4.078721e+002, 2.028944e+002
4.083542e+002, 2.037837e+002
4.088363e+002, 2.042627e+002
4.093185e+002, 2.045926e+002
4.098006e+002, 2.049644e+002
4.102827e+002, 2.053310e+002
4.107648e+002, 2.054062e+002
4.112469e+002, 2.049227e+002
4.117290e+002, 2.043567e+002
4.122112e+002, 2.049474e+002
4.126933e+002, 2.072495e+002
4.131754e+002, 2.091247e+002
4.136575e+002, 2.099832e+002
4.141396e+002, 2.103584e+002
4.146217e+002, 2.107961e+002
4.151039e+002, 2.113889e+002
4.155860e+002, 2.119196e+002
4.160681e+002, 2.121280e+002
4.165502e+002, 2.119547e+002
4.170323e+002, 2.121506e+002
4.175144e+002, 2.129516e+002
4.179966e+002, 2.138083e+002
4.184787e+002, 2.144729e+002
4.189608e+002, 2.150315e+002
4.194429e+002, 2.156700e+002
4.199250e+002, 2.164815e+002
4.204071e+002, 2.174516e+002
4.208893e+002, 2.185544e+002
4.213714e+002, 2.199796e+002
4.218535e+002, 2.212403e+002
4.223356e+002, 2.220363e+002
4.228177e+002, 2.228772e+002
4.232998e+002, 2.242808e+002
4.237820e+002, 2.262344e+002
4.242641e+002, 2.281970e+002
4.247462e+002, 2.295806e+002
4.252283e+002, 2.303439e+002
4.257104e+002, 2.312225e+002
4.261925e+002, 2.323944e+002
4.266747e+002, 2.334891e+002
4.271568e+002, 2.344302e+002
4.276389e+002, 2.352197e+002
4.281210e+002, 2.359024e+002
4.286031e+002, 2.365277e+002
4.290852e+002, 2.369482e+002
4.295674e+002, 2.368688e+002
4.300495e+002, 2.362641e+002
4.305316e+002, 2.352631e+002
4.310137e+002, 2.338833e+002
4.314958e+002, 2.320976e+002
4.319779e+002, 2.296950e+002
4.324601e+002, 2.267260e+002
4.329422e+002, 2.237490e+002
4.334243e+002, 2.213429e+002
4.339064e+002, 2.193153e+002
4.343885e+002, 2.167018e+002
4.348706e+002, 2.131391e+002
4.353528e+002, 2.097133e+002
4.358349e+002, 2.070324e+002
4.363170e+002, 2.049568e+002
4.367991e+002, 2.033737e+002
4.372812e+002, 2.025696e+002
4.377633e+002, 2.018191e+002
4.382455e+002, 2.003030e+002
4.387276e+002, 1.981431e+002
4.392097e+002, 1.962806e+002
4.396918e+002, 1.951802e+002
4.401739e+002, 1.943157e+002
4.406560e+002, 1.927754e+002
4.411382e+002, 1.904788e+002
4.416203e+002, 1.885441e+002
4.421024e+002, 1.873693e+002
4.425845e+002, 1.866711e+002
4.430666e+002, 1.862053e+002
4.435487e+002, 1.859299e+002
4.440309e+002, 1.857945e+002
4.445130e+002, 1.858301e+002
4.449951e+002, 1.859842e+002
4.454772e+002, 1.857743e+002
4.459593e+002, 1.850541e+002
4.464414e+002, 1.842046e+002
4.469236e+002, 1.832443e+002
4.474057e+002, 1.822544e+002
4.478878e+002, 1.812583e+002
4.483699e+002, 1.802738e+002
4.488520e+002, 1.795412e+002
4.493341e+002, 1.794948e+002
4.498163e+002, 1.805774e+002
4.502984e+002, 1.810793e+002
4.507805e+002, 1.805605e+002
4.512626e+002, 1.799595e+002
4.517447e+002, 1.796415e+002
4.522268e+002, 1.796549e+002
4.527090e+002, 1.800260e+002
4.531911e+002, 1.808331e+002
4.536732e+002, 1.818872e+002
4.541553e+002, 1.823339e+002
4.546374e+002, 1.816379e+002
4.551195e+002, 1.812424e+002
4.556017e+002, 1.815783e+002
4.560838e+002, 1.821383e+002
4.565659e+002, 1.826467e+002
4.570480e+002, 1.829963e+002
4.575301e+002, 1.829484e+002
4.580122e+002, 1.819005e+002
4.584944e+002, 1.798858e+002
4.589765e+002, 1.789663e+002
4.594586e+002, 1.798392e+002
4.599407e+002, 1.808866e+002
4.604228e+002, 1.813317e+002
4.609049e+002, 1.813415e+002
4.613871e+002, 1.811494e+002
4.618692e+002, 1.806640e+002
4.623513e+002, 1.802957e+002
4.628334e+002, 1.807615e+002
4.633155e+002, 1.820168e+002
4.637976e+002, 1.828448e+002
4.642798e+002, 1.826633e+002
4.647619e+002, 1.821362e+002
4.652440e+002, 1.822088e+002
4.657261e+002, 1.828985e+002
4.662082e+002, 1.832878e+002
4.666903e+002, 1.827455e+002
4.671725e+002, 1.819124e+002
4.676546e+002, 1.816638e+002
4.681367e+002, 1.820314e+002
4.686188e+002, 1.823442e+002
4.691009e+002, 1.821831e+002
4.695830e+002, 1.815933e+002
4.700652e+002, 1.808034e+002
4.705473e+002, 1.792599e+002
4.710294e+002, 1.782405e+002
4.715115e+002, 1.786984e+002
4.719936e+002, 1.795974e+002
4.724757e+002, 1.794149e+002
4.729579e+002, 1.778320e+002
4.734400e+002, 1.760247e+002
4.739221e+002, 1.754680e+002
4.744042e+002, 1.764762e+002
4.748863e+002, 1.769131e+002
4.753684e+002, 1.763639e+002
4.758506e+002, 1.757592e+002
4.763327e+002, 1.754471e+002
4.768148e+002, 1.753139e+002
4.772969e+002, 1.750820e+002
4.777790e+002, 1.746107e+002
4.782611e+002, 1.741048e+002
4.787433e+002, 1.740764e+002
4.792254e+002, 1.747951e+002
4.797075e+002, 1.752252e+002
4.801896e+002, 1.751100e+002
4.806717e+002, 1.747946e+002
4.811538e+002, 1.742889e+002
4.816360e+002, 1.737056e+002
4.821181e+002, 1.733827e+002
4.826002e+002, 1.737372e+002
4.830823e+002, 1.744586e+002
4.835644e+002, 1.746171e+002
4.840465e+002, 1.740750e+002
4.845287e+002, 1.734637e+002
4.850108e+002, 1.729548e+002
4.854929e+002, 1.725832e+002
4.859750e+002, 1.723981e+002
4.864571e+002, 1.724185e+002
4.869392e+002, 1.725647e+002
4.874214e+002, 1.729159e+002
4.879035e+002, 1.733403e+002
4.883856e+002, 1.734637e+002
4.888677e+002, 1.731829e+002
4.893498e+002, 1.729737e+002
4.898319e+002, 1.733479e+002
4.903141e+002, 1.742354e+002
4.907962e+002, 1.746748e+002
4.912783e+002, 1.742663e+002
4.917604e+002, 1.738420e+002
4.922425e+002, 1.738165e+002
4.927246e+002, 1.740349e+002
4.932068e+002, 1.741522e+002
4.936889e+002, 1.740465e+002
4.941710e+002, 1.739673e+002
4.946531e+002, 1.743458e+002
4.951352e+002, 1.754772e+002
4.956173e+002, 1.761196e+002
4.960995e+002, 1.759702e+002
4.965816e+002, 1.757015e+002
4.970637e+002, 1.755903e+002
4.975458e+002, 1.756189e+002
4.980279e+002, 1.756275e+002
4.985100e+002, 1.755018e+002
4.989922e+002, 1.754306e+002
4.994743e+002, 1.760221e+002
4.999564e+002, 1.777693e+002
5.004385e+002, 1.789116e+002
5.009206e+002, 1.784379e+002
5.014027e+002, 1.778980e+002
5.018849e+002, 1.784643e+002
5.023670e+002, 1.799837e+002
5.028491e+002, 1.812414e+002
5.033312e+002, 1.811696e+002
5.038133e+002, 1.802881e+002
5.042954e+002, 1.800531e+002
5.047776e+002, 1.805958e+002
5.052597e+002, 1.811700e+002
5.057418e+002, 1.814047e+002
5.062239e+002, 1.814908e+002
5.067060e+002, 1.817177e+002
5.071881e+002, 1.821360e+002
5.076703e+002, 1.825408e+002
5.081524e+002, 1.829266e+002
5.086345e+002, 1.832019e+002
5.091166e+002, 1.831580e+002
5.095987e+002, 1.827632e+002
5.100808e+002, 1.822870e+002
5.105630e+002, 1.819387e+002
5.110451e+002, 1.817083e+002
5.115272e+002, 1.814521e+002
5.120093e+002, 1.808363e+002
5.124914e+002, 1.805876e+002
5.129735e+002, 1.811743e+002
5.134556e+002, 1.821427e+002
5.139377e+002, 1.829489e+002
5.144199e+002, 1.834267e+002
5.149020e+002, 1.836893e+002
5.153841e+002, 1.838804e+002
5.158662e+002, 1.840278e+002
5.163483e+002, 1.839144e+002
5.168304e+002, 1.829704e+002
5.173126e+002, 1.823757e+002
5.177947e+002, 1.825842e+002
5.182768e+002, 1.833180e+002
5.187589e+002, 1.842295e+002
5.192410e+002, 1.851959e+002
5.197231e+002, 1.860723e+002
5.202053e+002, 1.865304e+002
5.206874e+002, 1.865149e+002
5.211695e+002, 1.869092e+002
5.216516e+002, 1.881179e+002
5.221337e+002, 1.893931e+002
5.226158e+002, 1.898686e+002
5.230980e+002, 1.899645e+002
5.235801e+002, 1.909447e+002
5.240622e+002, 1.938734e+002
5.245443e+002, 1.972587e+002
5.250264e+002, 1.996050e+002
5.255085e+002, 2.010220e+002
5.259907e+002, 2.019640e+002
5.264728e+002, 2.024809e+002
5.269549e+002, 2.028434e+002
5.274370e+002, 2.033221e+002
5.279191e+002, 2.038054e+002
5.284012e+002, 2.051174e+002
5.288834e+002, 2.082005e+002
5.293655e+002, 2.114030e+002
5.298476e+002, 2.133494e+002
5.303297e+002, 2.144151e+002
5.308118e+002, 2.159048e+002
5.312939e+002, 2.185545e+002
5.317761e+002, 2.218382e+002
5.322582e+002, 2.244059e+002
5.327403e+002, 2.258201e+002
5.332224e+002, 2.272853e+002
5.337045e+002, 2.287101e+002
5.341866e+002, 2.302689e+002
5.346688e+002, 2.323527e+002
5.351509e+002, 2.346974e+002
5.356330e+002, 2.365203e+002
5.361151e+002, 2.371804e+002
5.365972e+002, 2.371459e+002
5.370793e+002, 2.379220e+002
5.375615e+002, 2.399577e+002
5.380436e+002, 2.409240e+002
5.385257e+002, 2.393701e+002
5.390078e+002, 2.370367e+002
5.394899e+002, 2.354552e+002
5.399720e+002, 2.346416e+002
5.404542e+002, 2.337413e+002
5.409363e+002, 2.324641e+002
5.414184e+002, 2.308016e+002
5.419005e+002, 2.286031e+002
5.423826e+002, 2.258971e+002
5.428647e+002, 2.232020e+002
5.433469e+002, 2.207547e+002
5.438290e+002, 2.185046e+002
5.443111e+002, 2.163046e+002
5.447932e+002, 2.140736e+002
5.452753e+002, 2.120803e+002
5.457574e+002, 2.104189e+002
5.462396e+002, 2.089560e+002
5.467217e+002, 2.078426e+002
5.472038e+002, 2.068844e+002
5.476859e+002, 2.053638e+002
5.481680e+002, 2.026692e+002
5.486501e+002, 1.992007e+002
5.491323e+002, 1.967726e+002
5.496144e+002, 1.960338e+002
5.500965e+002, 1.952638e+002
5.505786e+002, 1.943270e+002
5.510607e+002, 1.932477e+002
5.515428e+002, 1.919199e+002
5.520250e+002, 1.904235e+002
5.525071e+002, 1.891057e+002
5.529892e+002, 1.882915e+002
5.534713e+002, 1.878155e+002
5.539534e+002, 1.871076e+002
5.544355e+002, 1.860611e+002
5.549177e+002, 1.853647e+002
5.553998e+002, 1.856684e+002
5.558819e+002, 1.861841e+002
5.563640e+002, 1.857098e+002
5.568461e+002, 1.840697e+002
5.573282e+002, 1.827677e+002
5.578104e+002, 1.825056e+002
5.582925e+002, 1.828133e+002
5.587746e+002, 1.832551e+002
5.592567e+002, 1.837645e+002
5.597388e+002, 1.842583e+002
5.602209e+002, 1.847417e+002
5.607031e+002, 1.850937e+002
5.611852e+002, 1.849256e+002
5.616673e+002, 1.834286e+002
5.621494e+002, 1.825527e+002
5.626315e+002, 1.827450e+002
5.631136e+002, 1.832359e+002
5.635958e+002, 1.834284e+002
5.640779e+002, 1.833730e+002
5.645600e+002, 1.835320e+002
5.650421e+002, 1.842940e+002
5.655242e+002, 1.854011e+002
5.660063e+002, 1.859228e+002
5.664885e+002, 1.855975e+002
5.669706e+002, 1.854428e+002
5.674527e+002, 1.858772e+002
5.679348e+002, 1.864288e+002
5.684169e+002, 1.867715e+002
5.688990e+002, 1.869112e+002
5.693812e+002, 1.870624e+002
5.698633e+002, 1.871885e+002
5.703454e+002, 1.874665e+002
5.708275e+002, 1.883671e+002
5.713096e+002, 1.898248e+002
5.717917e+002, 1.908873e+002
5.722739e+002, 1.911106e+002
5.727560e+002, 1.908069e+002
5.732381e+002, 1.903798e+002
5.737202e+002, 1.895681e+002
5.742023e+002, 1.896418e+002
5.746844e+002, 1.918474e+002
5.751666e+002, 1.939973e+002
5.756487e+002, 1.944800e+002
5.761308e+002, 1.936383e+002
5.766129e+002, 1.926370e+002
5.770950e+002, 1.920802e+002
5.775771e+002, 1.916919e+002
5.780593e+002, 1.907943e+002
5.785414e+002, 1.890632e+002
5.790235e+002, 1.877084e+002
5.795056e+002, 1.873495e+002
5.799877e+002, 1.868504e+002
5.804698e+002, 1.856998e+002
5.809520e+002, 1.840043e+002
5.814341e+002, 1.820107e+002
5.819162e+002, 1.796809e+002
5.823983e+002, 1.774114e+002
5.828804e+002, 1.758838e+002
5.833625e+002, 1.750115e+002
5.838447e+002, 1.738869e+002
5.843268e+002, 1.722020e+002
5.848089e+002, 1.704446e+002
5.852910e+002, 1.692479e+002
5.857732e+002, 1.685318e+002
5.862553e+002, 1.674510e+002
5.867374e+002, 1.653881e+002
5.872195e+002, 1.635153e+002
5.877017e+002, 1.626597e+002
5.881838e+002, 1.623579e+002
5.886659e+002, 1.617128e+002
5.891480e+002, 1.604759e+002
5.896301e+002, 1.592220e+002
5.901122e+002, 1.586936e+002
5.905944e+002, 1.589858e+002
5.910765e+002, 1.591024e+002
5.915586e+002, 1.591951e+002
5.920407e+002, 1.589049e+002
5.925228e+002, 1.577215e+002
5.930049e+002, 1.563117e+002
5.934871e+002, 1.554469e+002
5.939692e+002, 1.553206e+002
5.944513e+002, 1.555899e+002
5.949334e+002, 1.562583e+002
5.954155e+002, 1.571054e+002
5.958976e+002, 1.569803e+002
5.963798e+002, 1.555785e+002
5.968619e+002, 1.543015e+002
5.973440e+002, 1.540729e+002
5.978261e+002, 1.544989e+002
5.983082e+002, 1.545268e+002
5.987903e+002, 1.538916e+002
5.992725e+002, 1.535298e+002
5.997546e+002, 1.541300e+002
6.002367e+002, 1.549132e+002
6.007188e+002, 1.549202e+002
6.012009e+002, 1.541919e+002
6.016830e+002, 1.535001e+002
6.021652e+002, 1.533650e+002
6.026473e+002, 1.536586e+002
6.031294e+002, 1.539322e+002
6.036115e+002, 1.543205e+002
6.040936e+002, 1.544255e+002
6.045757e+002, 1.538013e+002
6.050579e+002, 1.532822e+002
6.055400e+002, 1.536741e+002
6.060221e+002, 1.546594e+002
6.065042e+002, 1.551085e+002
6.069863e+002, 1.541362e+002
6.074684e+002, 1.526821e+002
6.079506e+002, 1.523491e+002
6.084327e+002, 1.531094e+002
6.089148e+002, 1.538535e+002
6.093969e+002, 1.543473e+002
6.098790e+002, 1.546348e+002
6.103611e+002, 1.546729e+002
6.108433e+002, 1.544892e+002
6.113254e+002, 1.544306e+002
6.118075e+002, 1.546741e+002
6.122896e+002, 1.549042e+002
6.127717e+002, 1.550897e+002
6.132538e+002, 1.551109e+002
6.137360e+002, 1.546555e+002
6.142181e+002, 1.536689e+002
6.147002e+002, 1.526214e+002
6.151823e+002, 1.520529e+002
6.156644e+002, 1.519764e+002
6.161465e+002, 1.521064e+002
6.166287e+002, 1.525298e+002
6.171108e+002, 1.530510e+002
6.175929e+002, 1.538917e+002
6.180750e+002, 1.546431e+002
6.185571e+002, 1.547718e+002
6.190392e+002, 1.542040e+002
6.195214e+002, 1.536000e+002
6.200035e+002, 1.535105e+002
6.204856e+002, 1.537291e+002
6.209677e+002, 1.537968e+002
6.214498e+002, 1.536916e+002
6.219319e+002, 1.535075e+002
6.224141e+002, 1.531584e+002
6.228962e+002, 1.529001e+002
6.233783e+002, 1.534186e+002
6.238604e+002, 1.551059e+002
6.243425e+002, 1.562329e+002
6.248246e+002, 1.562142e+002
6.253068e+002, 1.559195e+002
6.257889e+002, 1.559751e+002
6.262710e+002, 1.562396e+002
6.267531e+002, 1.561787e+002
6.272352e+002, 1.555203e+002
6.277173e+002, 1.546892e+002
6.281995e+002, 1.545444e+002
6.286816e+002, 1.552613e+002
6.291637e+002, 1.556798e+002
6.296458e+002, 1.555837e+002
6.301279e+002, 1.553715e+002
6.306100e+002, 1.551476e+002
6.310922e+002, 1.549775e+002
6.315743e+002, 1.550095e+002
6.320564e+002, 1.553494e+002
6.325385e+002, 1.556845e+002
6.330206e+002, 1.556355e+002
6.335027e+002, 1.554613e+002
6.339849e+002, 1.558376e+002
6.344670e+002, 1.568417e+002
6.349491e+002, 1.575980e+002
6.354312e+002, 1.573555e+002
6.359133e+002, 1.564221e+002
6.363954e+002, 1.562607e+002
6.368776e+002, 1.575984e+002
6.373597e+002, 1.587625e+002
6.378418e+002, 1.597756e+002
6.383239e+002, 1.605365e+002
6.388060e+002, 1.607227e+002
6.392881e+002, 1.605686e+002
6.397703e+002, 1.607620e+002
6.402524e+002, 1.617578e+002
6.407345e+002, 1.632134e+002
6.412166e+002, 1.644961e+002
6.416987e+002, 1.656048e+002
6.421808e+002, 1.666874e+002
6.426630e+002, 1.678606e+002
6.431451e+002, 1.688796e+002
6.436272e+002, 1.693402e+002
6.441093e+002, 1.694261e+002
6.445914e+002, 1.698164e+002
6.450735e+002, 1.708472e+002
6.455557e+002, 1.719184e+002
6.460378e+002, 1.725254e+002
6.465199e+002, 1.730961e+002
6.470020e+002, 1.742744e+002
6.474841e+002, 1.761529e+002
6.479662e+002, 1.784085e+002
6.484484e+002, 1.808217e+002
6.489305e+002, 1.833163e+002
6.494126e+002, 1.854176e+002
6.498947e+002, 1.868146e+002
6.503768e+002, 1.883759e+002
6.508589e+002, 1.902863e+002
6.513411e+002, 1.923665e+002
6.518232e+002, 1.946515e+002
6.523053e+002, 1.970358e+002
6.527874e+002, 1.991168e+002
6.532695e+002, 2.004141e+002
6.537516e+002, 2.015748e+002
6.542338e+002, 2.034104e+002
6.547159e+002, 2.058142e+002
6.551980e+002, 2.082984e+002
6.556801e+002, 2.107226e+002
6.561622e+002, 2.132190e+002
6.566443e+002, 2.160500e+002
6.571265e+002, 2.192627e+002
6.576086e+002, 2.217402e+002
6.580907e+002, 2.231084e+002
6.585728e+002, 2.243196e+002
6.590549e+002, 2.254489e+002
6.595370e+002, 2.266352e+002
6.600192e+002, 2.280936e+002
6.605013e+002, 2.298052e+002
6.609834e+002, 2.314724e+002
6.614655e+002, 2.328770e+002
6.619476e+002, 2.340447e+002
6.624297e+002, 2.350627e+002
6.629119e+002, 2.359638e+002
6.633940e+002, 2.364434e+002
6.638761e+002, 2.363286e+002
6.643582e+002, 2.358422e+002
6.648403e+002, 2.353459e+002
6.653224e+002, 2.348220e+002
6.658046e+002, 2.336470e+002
6.662867e+002, 2.312537e+002
6.667688e+002, 2.286761e+002
6.672509e+002, 2.266912e+002
6.677330e+002, 2.248488e+002
6.682151e+002, 2.222648e+002
6.686973e+002, 2.187643e+002
6.691794e+002, 2.151155e+002
6.696615e+002, 2.121387e+002
6.701436e+002, 2.097565e+002
6.706257e+002, 2.068450e+002
6.711078e+002, 2.031647e+002
6.715900e+002, 1.994339e+002
6.720721e+002, 1.954095e+002
6.725542e+002, 1.916910e+002
6.730363e+002, 1.889962e+002
6.735184e+002, 1.872353e+002
6.740005e+002, 1.851880e+002
6.744827e+002, 1.820043e+002
6.749648e+002, 1.785347e+002
6.754469e+002, 1.754285e+002
6.759290e+002, 1.727293e+002
6.764111e+002, 1.706680e+002
6.768932e+002, 1.693318e+002
6.773754e+002, 1.681324e+002
6.778575e+002, 1.663495e+002
6.783396e+002, 1.639461e+002
6.788217e+002, 1.619288e+002
6.793038e+002, 1.605388e+002
6.797859e+002, 1.592467e+002
6.802681e+002, 1.580358e+002
6.807502e+002, 1.568504e+002
6.812323e+002, 1.555754e+002
6.817144e+002, 1.542506e+002
6.821965e+002, 1.531162e+002
6.826786e+002, 1.524983e+002
6.831608e+002, 1.520620e+002
6.836429e+002, 1.512160e+002
6.841250e+002, 1.500072e+002
6.846071e+002, 1.488264e+002
6.850892e+002, 1.477433e+002
6.855714e+002, 1.468949e+002
6.860535e+002, 1.464977e+002
6.865356e+002, 1.465908e+002
6.870177e+002, 1.464577e+002
6.874998e+002, 1.458615e+002
6.879819e+002, 1.453577e+002
6.884641e+002, 1.452484e+002
6.889462e+002, 1.451960e+002
6.894283e+002, 1.447899e+002
6.899104e+002, 1.440341e+002
6.903925e+002, 1.432861e+002
6.908746e+002, 1.427454e+002
6.913568e+002, 1.424731e+002
6.918389e+002, 1.428638e+002
6.923210e+002, 1.439691e+002
6.928031e+002, 1.443580e+002
6.932852e+002, 1.434416e+002
6.937673e+002, 1.420844e+002
6.942495e+002, 1.410192e+002
6.947316e+002, 1.402612e+002
6.952137e+002, 1.399182e+002
6.956958e+002, 1.403496e+002
6.961779e+002, 1.407639e+002
6.966600e+002, 1.409661e+002
6.971422e+002, 1.409658e+002
6.976243e+002, 1.406835e+002
6.981064e+002, 1.401800e+002
6.985885e+002, 1.397319e+002
6.990706e+002, 1.395712e+002
6.995527e+002, 1.395789e+002
7.000349e+002, 1.393489e+002
7.005170e+002, 1.387997e+002
7.009991e+002, 1.385471e+002
7.014812e+002, 1.387674e+002
7.019633e+002, 1.392332e+002
7.024454e+002, 1.400197e+002
7.029276e+002, 1.409317e+002
7.034097e+002, 1.412696e+002
7.038918e+002, 1.406866e+002
7.043739e+002, 1.398666e+002
7.048560e+002, 1.386067e+002
7.053381e+002, 1.375377e+002
7.058203e+002, 1.376964e+002
7.063024e+002, 1.389444e+002
7.067845e+002, 1.400190e+002
7.072666e+002, 1.400159e+002
7.077487e+002, 1.393787e+002
7.082308e+002, 1.394067e+002
7.087130e+002, 1.403433e+002
7.091951e+002, 1.407721e+002
7.096772e+002, 1.401880e+002
7.101593e+002, 1.395134e+002
7.106414e+002, 1.393952e+002
7.111235e+002, 1.396082e+002
7.116057e+002, 1.396828e+002
7.120878e+002, 1.395260e+002
7.125699e+002, 1.392647e+002
7.130520e+002, 1.388981e+002
7.135341e+002, 1.385006e+002
7.140162e+002, 1.381008e+002
7.144984e+002, 1.377457e+002
7.149805e+002, 1.375440e+002
7.154626e+002, 1.375504e+002
7.159447e+002, 1.378064e+002
7.164268e+002, 1.385683e+002
7.169089e+002, 1.401596e+002
7.173911e+002, 1.407620e+002
7.178732e+002, 1.396104e+002
7.183553e+002, 1.384428e+002
7.188374e+002, 1.380226e+002
7.193195e+002, 1.381026e+002
7.198016e+002, 1.384106e+002
7.202838e+002, 1.389629e+002
7.207659e+002, 1.394135e+002
7.212480e+002, 1.396516e+002
7.217301e+002, 1.396668e+002
7.222122e+002, 1.392681e+002
7.226943e+002, 1.386170e+002
7.231765e+002, 1.383197e+002
7.236586e+002, 1.386479e+002
7.241407e+002, 1.390716e+002
7.246228e+002, 1.386255e+002
7.251049e+002, 1.370989e+002
7.255870e+002, 1.367655e+002
7.260692e+002, 1.385203e+002
7.265513e+002, 1.400211e+002
7.270334e+002, 1.404415e+002
7.275155e+002, 1.402541e+002
7.279976e+002, 1.396624e+002
7.284797e+002, 1.387224e+002
7.289619e+002, 1.382574e+002
7.294440e+002, 1.391103e+002
7.299261e+002, 1.401602e+002
7.304082e+002, 1.403662e+002
7.308903e+002, 1.399629e+002
7.313724e+002, 1.395327e+002
7.318546e+002, 1.392529e+002
7.323367e+002, 1.390171e+002
7.328188e+002, 1.386728e+002
7.333009e+002, 1.382607e+002
7.337830e+002, 1.383090e+002
7.342651e+002, 1.391352e+002
7.347473e+002, 1.397375e+002
7.352294e+002, 1.398120e+002
7.357115e+002, 1.396509e+002
7.361936e+002, 1.393403e+002
7.366757e+002, 1.389468e+002
7.371578e+002, 1.387151e+002
7.376400e+002, 1.388495e+002
7.381221e+002, 1.389981e+002
7.386042e+002, 1.388701e+002
7.390863e+002, 1.386261e+002
7.395684e+002, 1.386827e+002
7.400505e+002, 1.389965e+002
7.405327e+002, 1.388285e+002
7.410148e+002, 1.375361e+002
7.414969e+002, 1.356809e+002
7.419790e+002, 1.350467e+002
7.424611e+002, 1.359818e+002
7.429432e+002, 1.368792e+002
7.434254e+002, 1.378377e+002
7.439075e+002, 1.384081e+002
7.443896e+002, 1.380316e+002
7.448717e+002, 1.371950e+002
7.453538e+002, 1.368358e+002
7.458359e+002, 1.372427e+002
7.463181e+002, 1.376535e+002
7.468002e+002, 1.377710e+002
7.472823e+002, 1.376921e+002
7.477644e+002, 1.374857e+002
7.482465e+002, 1.371731e+002
7.487286e+002, 1.367016e+002
7.492108e+002, 1.360484e+002
7.496929e+002, 1.355077e+002
7.501750e+002, 1.356708e+002
7.506571e+002, 1.366014e+002
7.511392e+002, 1.368038e+002
7.516213e+002, 1.359023e+002
7.521035e+002, 1.351292e+002
7.525856e+002, 1.348712e+002
7.530677e+002, 1.350682e+002
7.535498e+002, 1.358904e+002
7.540319e+002, 1.373698e+002
7.545140e+002, 1.381171e+002
7.549962e+002, 1.369328e+002
7.554783e+002, 1.358287e+002
7.559604e+002, 1.364578e+002
7.564425e+002, 1.377825e+002
7.569246e+002, 1.380286e+002
7.574067e+002, 1.369317e+002
7.578889e+002, 1.357021e+002
7.583710e+002, 1.353814e+002
7.588531e+002, 1.357165e+002
7.593352e+002, 1.358122e+002
7.598173e+002, 1.356102e+002
7.602994e+002, 1.357011e+002
7.607816e+002, 1.363663e+002
7.612637e+002, 1.370741e+002
7.617458e+002, 1.374260e+002
7.622279e+002, 1.374373e+002
7.627100e+002, 1.372269e+002
7.631921e+002, 1.365832e+002
7.636743e+002, 1.360522e+002
7.641564e+002, 1.357439e+002
7.646385e+002, 1.356124e+002
7.651206e+002, 1.358405e+002
7.656027e+002, 1.361987e+002
7.660848e+002, 1.360453e+002
7.665670e+002, 1.350516e+002
7.670491e+002, 1.339468e+002
7.675312e+002, 1.338322e+002
7.680133e+002, 1.344992e+002
7.684954e+002, 1.347191e+002
7.689775e+002, 1.343571e+002
7.694597e+002, 1.340858e+002
7.699418e+002, 1.342370e+002
7.704239e+002, 1.346492e+002
7.709060e+002, 1.350923e+002
7.713881e+002, 1.356487e+002
7.718702e+002, 1.358633e+002
7.723524e+002, 1.354941e+002
7.728345e+002, 1.350837e+002
7.733166e+002, 1.346088e+002
7.737987e+002, 1.343137e+002
7.742808e+002, 1.347344e+002
7.747629e+002, 1.357607e+002
7.752451e+002, 1.362831e+002
7.757272e+002, 1.351436e+002
7.762093e+002, 1.334835e+002
7.766914e+002, 1.331446e+002
7.771735e+002, 1.338053e+002
7.776556e+002, 1.341003e+002
7.781378e+002, 1.337067e+002
7.786199e+002, 1.332169e+002
7.791020e+002, 1.331349e+002
7.795841e+002, 1.333844e+002
7.800662e+002, 1.335702e+002
7.805483e+002, 1.335671e+002
7.810305e+002, 1.337407e+002
7.815126e+002, 1.345443e+002
7.819947e+002, 1.350888e+002
7.824768e+002, 1.346270e+002
7.829589e+002, 1.336742e+002
7.834410e+002, 1.332805e+002
7.839232e+002, 1.338103e+002
7.844053e+002, 1.343372e+002
7.848874e+002, 1.341667e+002
7.853695e+002, 1.337805e+002
7.858516e+002, 1.339421e+002
7.863337e+002, 1.344466e+002
7.868159e+002, 1.343747e+002
7.872980e+002, 1.333678e+002
7.877801e+002, 1.321416e+002
7.882622e+002, 1.316319e+002
7.887443e+002, 1.318218e+002
7.892264e+002, 1.320693e+002
7.897086e+002, 1.324090e+002
7.901907e+002, 1.327114e+002
7.906728e+002, 1.329367e+002
7.911549e+002, 1.331137e+002
7.916370e+002, 1.333975e+002
7.921191e+002, 1.337225e+002
7.926013e+002, 1.335761e+002
7.930834e+002, 1.321369e+002
7.935655e+002, 1.311422e+002
7.940476e+002, 1.315729e+002
7.945297e+002, 1.325411e+002
7.950118e+002, 1.332228e+002
7.954940e+002, 1.335516e+002
7.959761e+002, 1.338006e+002
7.964582e+002, 1.341296e+002
7.969403e+002, 1.343880e+002
7.974224e+002, 1.342389e+002
7.979045e+002, 1.337715e+002
7.983867e+002, 1.336752e+002
7.988688e+002, 1.340631e+002
7.993509e+002, 1.342757e+002
7.998330e+002, 1.339074e+002
8.003151e+002, 1.332743e+002
8.007972e+002, 1.329642e+002
8.012794e+002, 1.330593e+002
8.017615e+002, 1.331555e+002
8.022436e+002, 1.333533e+002
8.027257e+002, 1.334307e+002
8.032078e+002, 1.330777e+002
8.036899e+002, 1.327332e+002
8.041721e+002, 1.329940e+002
8.046542e+002, 1.338081e+002
8.051363e+002, 1.344221e+002
8.056184e+002, 1.344133e+002
8.061005e+002, 1.340486e+002
8.065826e+002, 1.333919e+002
8.070648e+002, 1.326361e+002
8.075469e+002, 1.322418e+002
8.080290e+002, 1.322690e+002
8.085111e+002, 1.324523e+002
8.089932e+002, 1.325991e+002
8.094753e+002, 1.327882e+002
8.099575e+002, 1.333807e+002
8.104396e+002, 1.346822e+002
8.109217e+002, 1.349124e+002
8.114038e+002, 1.331794e+002
8.118859e+002, 1.317110e+002
8.123680e+002, 1.319496e+002
8.128502e+002, 1.329734e+002
8.133323e+002, 1.334980e+002
8.138144e+002, 1.334257e+002
8.142965e+002, 1.331846e+002
8.147786e+002, 1.323908e+002
8.152607e+002, 1.319666e+002
8.157429e+002, 1.328482e+002
8.162250e+002, 1.342480e+002
8.167071e+002, 1.350655e+002
8.171892e+002, 1.351034e+002
8.176713e+002, 1.347797e+002
8.181534e+002, 1.342470e+002
8.186356e+002, 1.338005e+002
8.191177e+002, 1.342943e+002
8.195998e+002, 1.355421e+002
8.200819e+002, 1.359236e+002
8.205640e+002, 1.350584e+002
8.210461e+002, 1.342087e+002
8.215283e+002, 1.343416e+002
8.220104e+002, 1.350509e+002
8.224925e+002, 1.350759e+002
8.229746e+002, 1.339520e+002
8.234567e+002, 1.331786e+002
8.239388e+002, 1.330111e+002
8.244210e+002, 1.328961e+002
8.249031e+002, 1.324996e+002
8.253852e+002, 1.321160e+002
8.258673e+002, 1.321832e+002
8.263494e+002, 1.327550e+002
8.268315e+002, 1.333551e+002
8.273137e+002, 1.339560e+002
8.277958e+002, 1.343136e+002
8.282779e+002, 1.340018e+002
8.287600e+002, 1.333700e+002
8.292421e+002, 1.331238e+002
8.297242e+002, 1.333416e+002
8.302064e+002, 1.334763e+002
8.306885e+002, 1.330671e+002
8.311706e+002, 1.324125e+002
8.316527e+002, 1.323610e+002
8.321348e+002, 1.329434e+002
8.326169e+002, 1.330407e+002
8.330991e+002, 1.322723e+002
8.335812e+002, 1.318795e+002
8.340633e+002, 1.328961e+002
8.345454e+002, 1.345402e+002
8.350275e+002, 1.350279e+002
8.355096e+002, 1.337843e+002
8.359918e+002, 1.330756e+002
8.364739e+002, 1.330802e+002
8.369560e+002, 1.334205e+002
8.374381e+002, 1.343069e+002
8.379202e+002, 1.352402e+002
8.384023e+002, 1.357157e+002
8.388845e+002, 1.356700e+002
8.393666e+002, 1.353008e+002
8.398487e+002, 1.345685e+002
8.403308e+002, 1.337417e+002
8.408129e+002, 1.330289e+002
8.412950e+002, 1.324451e+002
8.417772e+002, 1.320058e+002
8.422593e+002, 1.317240e+002
8.427414e+002, 1.316561e+002
8.432235e+002, 1.318455e+002
8.437056e+002, 1.322287e+002
8.441877e+002, 1.327842e+002
8.446699e+002, 1.335635e+002
8.451520e+002, 1.337538e+002
8.456341e+002, 1.330556e+002
8.461162e+002, 1.325567e+002
8.465983e+002, 1.327978e+002
8.470804e+002, 1.333905e+002
8.475626e+002, 1.338749e+002
8.480447e+002, 1.342638e+002
8.485268e+002, 1.343400e+002
8.490089e+002, 1.338138e+002
8.494910e+002, 1.333350e+002
8.499731e+002, 1.328682e+002
8.504553e+002, 1.326916e+002
8.509374e+002, 1.334330e+002
8.514195e+002, 1.346975e+002
8.519016e+002, 1.351452e+002
8.523837e+002, 1.339632e+002
8.528658e+002, 1.326712e+002
8.533480e+002, 1.329142e+002
8.538301e+002, 1.338695e+002
8.543122e+002, 1.339788e+002
8.547943e+002, 1.333288e+002
8.552764e+002, 1.330108e+002
8.557585e+002, 1.335004e+002
8.562407e+002, 1.340801e+002
8.567228e+002, 1.336631e+002
8.572049e+002, 1.323898e+002
8.576870e+002, 1.322807e+002
8.581691e+002, 1.337617e+002
8.586512e+002, 1.346686e+002
8.591334e+002, 1.341543e+002
8.596155e+002, 1.334230e+002
8.600976e+002, 1.337810e+002
8.605797e+002, 1.348904e+002
8.610618e+002, 1.348395e+002
8.615439e+002, 1.325425e+002
8.620261e+002, 1.309315e+002
8.625082e+002, 1.304446e+002
8.629903e+002, 1.305885e+002
8.634724e+002, 1.314621e+002
8.639545e+002, 1.326131e+002
8.644366e+002, 1.334155e+002
8.649188e+002, 1.337178e+002
8.654009e+002, 1.337281e+002
8.658830e+002, 1.333870e+002
8.663651e+002, 1.329886e+002
8.668472e+002, 1.328023e+002
8.673293e+002, 1.328421e+002
8.678115e+002, 1.332630e+002
8.682936e+002, 1.340223e+002
8.687757e+002, 1.345805e+002
8.692578e+002, 1.345048e+002
8.697399e+002, 1.340180e+002
8.702220e+002, 1.336227e+002
8.707042e+002, 1.333160e+002
8.711863e+002, 1.331646e+002
8.716684e+002, 1.331645e+002
8.721505e+002, 1.333656e+002
8.726326e+002, 1.338602e+002
8.731147e+002, 1.344997e+002
8.735969e+002, 1.350910e+002
8.740790e+002, 1.357000e+002
8.745611e+002, 1.358850e+002
8.750432e+002, 1.353063e+002
8.755253e+002, 1.347714e+002
8.760074e+002, 1.343109e+002
8.764896e+002, 1.340870e+002
8.769717e+002, 1.344481e+002
8.774538e+002, 1.351822e+002
8.779359e+002, 1.354724e+002
8.784180e+002, 1.347540e+002
8.789001e+002, 1.342713e+002
8.793823e+002, 1.352277e+002
8.798644e+002, 1.365062e+002
8.803465e+002, 1.367868e+002
8.808286e+002, 1.362634e+002
8.813107e+002, 1.357276e+002
8.817928e+002, 1.354769e+002
8.822750e+002, 1.353223e+002
8.827571e+002, 1.349630e+002
8.832392e+002, 1.345886e+002
8.837213e+002, 1.350062e+002
8.842034e+002, 1.361450e+002
8.846855e+002, 1.366797e+002
8.851677e+002, 1.362195e+002
8.856498e+002, 1.357678e+002
8.861319e+002, 1.362058e+002
8.866140e+002, 1.371451e+002
8.870961e+002, 1.371895e+002
8.875782e+002, 1.357488e+002
8.880604e+002, 1.349489e+002
8.885425e+002, 1.353060e+002
8.890246e+002, 1.356070e+002
8.895067e+002, 1.351689e+002
8.899888e+002, 1.345368e+002
8.904709e+002, 1.344723e+002
8.909531e+002, 1.349920e+002
8.914352e+002, 1.350516e+002
8.919173e+002, 1.339974e+002
8.923994e+002, 1.329899e+002
8.928815e+002, 1.324937e+002
8.933636e+002, 1.322691e+002
8.938458e+002, 1.321877e+002
8.943279e+002, 1.321482e+002
8.948100e+002, 1.319863e+002
8.952921e+002, 1.316308e+002
8.957742e+002, 1.311511e+002
8.962563e+002, 1.306002e+002
8.967385e+002, 1.299766e+002
8.972206e+002, 1.291376e+002
8.977027e+002, 1.282121e+002
8.981848e+002, 1.277489e+002
8.986669e+002, 1.279036e+002
8.991490e+002, 1.283121e+002
8.996312e+002, 1.287067e+002
9.001133e+002, 1.289571e+002
9.005954e+002, 1.283257e+002
9.010775e+002, 1.266586e+002
9.015596e+002, 1.260517e+002
9.020417e+002, 1.271929e+002
9.025239e+002, 1.280926e+002
9.030060e+002, 1.275272e+002
9.034881e+002, 1.259988e+002
9.039702e+002, 1.243755e+002
9.044523e+002, 1.223338e+002
9.049344e+002, 1.215293e+002
9.054166e+002, 1.234725e+002
9.058987e+002, 1.246910e+002
9.063808e+002, 1.238737e+002
9.068629e+002, 1.224583e+002
9.073450e+002, 1.215199e+002
9.078271e+002, 1.211015e+002
9.083093e+002, 1.210327e+002
9.087914e+002, 1.214709e+002
9.092735e+002, 1.218311e+002
9.097556e+002, 1.216903e+002
9.102377e+002, 1.215016e+002
9.107198e+002, 1.217565e+002
9.112020e+002, 1.222569e+002
9.116841e+002, 1.226139e+002
9.121662e+002, 1.226919e+002
9.126483e+002, 1.224608e+002
9.131304e+002, 1.216477e+002
9.136125e+002, 1.207302e+002
9.140947e+002, 1.205425e+002
9.145768e+002, 1.209149e+002
9.150589e+002, 1.213876e+002
9.155410e+002, 1.218523e+002
9.160231e+002, 1.221547e+002
9.165052e+002, 1.221915e+002
9.169874e+002, 1.220473e+002
9.174695e+002, 1.218928e+002
9.179516e+002, 1.217320e+002
9.184337e+002, 1.213883e+002
9.189158e+002, 1.207854e+002
9.193979e+002, 1.203590e+002
9.198801e+002, 1.203130e+002
9.203622e+002, 1.203681e+002
9.208443e+002, 1.200866e+002
9.213264e+002, 1.195772e+002
9.218085e+002, 1.200293e+002
9.222906e+002, 1.228331e+002
9.227728e+002, 1.243183e+002
9.232549e+002, 1.234132e+002
9.237370e+002, 1.222143e+002
9.242191e+002, 1.216663e+002
9.247012e+002, 1.214588e+002
9.251833e+002, 1.210781e+002
9.256655e+002, 1.204570e+002
9.261476e+002, 1.198933e+002
9.266297e+002, 1.194370e+002
9.271118e+002, 1.191070e+002
9.275939e+002, 1.190466e+002
9.280760e+002, 1.190213e+002
9.285582e+002, 1.185831e+002
9.290403e+002, 1.179315e+002
9.295224e+002, 1.178506e+002
9.300045e+002, 1.187609e+002
9.304866e+002, 1.197897e+002
9.309688e+002, 1.200461e+002
9.314509e+002, 1.199758e+002
9.319330e+002, 1.203697e+002
9.324151e+002, 1.210562e+002
9.328972e+002, 1.214784e+002
9.333793e+002, 1.214527e+002
9.338615e+002, 1.208560e+002
9.343436e+002, 1.194455e+002
9.348257e+002, 1.177000e+002
9.353078e+002, 1.168051e+002
9.357899e+002, 1.167222e+002
9.362720e+002, 1.169303e+002
9.367542e+002, 1.173915e+002
9.372363e+002, 1.179821e+002
9.377184e+002, 1.187024e+002
9.382005e+002, 1.193202e+002
9.386826e+002, 1.194350e+002
9.391647e+002, 1.190307e+002
9.396469e+002, 1.189293e+002
9.401290e+002, 1.193381e+002
9.406111e+002, 1.195485e+002
9.410932e+002, 1.194166e+002
9.415753e+002, 1.190599e+002
9.420574e+002, 1.181917e+002
9.425396e+002, 1.172283e+002
9.430217e+002, 1.173485e+002
9.435038e+002, 1.189817e+002
9.439859e+002, 1.203880e+002
9.444680e+002, 1.217390e+002
9.449501e+002, 1.224664e+002
9.454323e+002, 1.217834e+002
9.459144e+002, 1.207889e+002
9.463965e+002, 1.206893e+002
9.468786e+002, 1.213891e+002
9.473607e+002, 1.218597e+002
9.478428e+002, 1.214598e+002
9.483250e+002, 1.214318e+002
9.488071e+002, 1.230507e+002
9.492892e+002, 1.248254e+002
9.497713e+002, 1.251136e+002
9.502534e+002, 1.245161e+002
9.507355e+002, 1.243859e+002
9.512177e+002, 1.250657e+002
9.516998e+002, 1.259612e+002
9.521819e+002, 1.266768e+002
9.526640e+002, 1.272943e+002
9.531461e+002, 1.279214e+002
9.536282e+002, 1.285343e+002
9.541104e+002, 1.290235e+002
9.545925e+002, 1.294149e+002
9.550746e+002, 1.299151e+002
9.555567e+002, 1.306313e+002
9.560388e+002, 1.314469e+002
9.565209e+002, 1.321734e+002
9.570031e+002, 1.328683e+002
9.574852e+002, 1.338162e+002
9.579673e+002, 1.350231e+002
9.584494e+002, 1.365091e+002
9.589315e+002, 1.383384e+002
9.594136e+002, 1.400119e+002
9.598958e+002, 1.411396e+002
9.603779e+002, 1.419161e+002
9.608600e+002, 1.428059e+002
9.613421e+002, 1.437699e+002
9.618242e+002, 1.450774e+002
9.623063e+002, 1.469356e+002
9.627885e+002, 1.486182e+002
9.632706e+002, 1.498894e+002
9.637527e+002, 1.508728e+002
9.642348e+002, 1.515012e+002
9.647169e+002, 1.518908e+002
9.651990e+002, 1.529172e+002
9.656812e+002, 1.555410e+002
9.661633e+002, 1.573192e+002
9.666454e+002, 1.577309e+002
9.671275e+002, 1.578904e+002
9.676096e+002, 1.582933e+002
9.680917e+002, 1.586927e+002
9.685739e+002, 1.587988e+002
9.690560e+002, 1.585847e+002
9.695381e+002, 1.580715e+002
9.700202e+002, 1.570183e+002
9.705023e+002, 1.559902e+002
9.709844e+002, 1.554386e+002
9.714666e+002, 1.547607e+002
9.719487e+002, 1.531765e+002
9.724308e+002, 1.511638e+002
9.729129e+002, 1.497784e+002
9.733950e+002, 1.492840e+002
9.738771e+002, 1.488042e+002
9.743593e+002, 1.479598e+002
9.748414e+002, 1.467546e+002
9.753235e+002, 1.447767e+002
9.758056e+002, 1.426672e+002
9.762877e+002, 1.415308e+002
9.767698e+002, 1.412312e+002
9.772520e+002, 1.407483e+002
9.777341e+002, 1.395976e+002
9.782162e+002, 1.383857e+002
9.786983e+002, 1.378617e+002
9.791804e+002, 1.376797e+002
9.796625e+002, 1.371905e+002
9.801447e+002, 1.364653e+002
9.806268e+002, 1.356280e+002
9.811089e+002, 1.347854e+002
9.815910e+002, 1.346006e+002
9.820731e+002, 1.356457e+002
9.825552e+002, 1.369128e+002
9.830374e+002, 1.363802e+002
9.835195e+002, 1.343170e+002
9.840016e+002, 1.325556e+002
9.844837e+002, 1.311533e+002
9.849658e+002, 1.304585e+002
9.854479e+002, 1.306601e+002
9.859301e+002, 1.308730e+002
9.864122e+002, 1.302858e+002
9.868943e+002, 1.290572e+002
9.873764e+002, 1.276406e+002
9.878585e+002, 1.259058e+002
9.883406e+002, 1.248951e+002
9.888228e+002, 1.248351e+002
9.893049e+002, 1.249293e+002
9.897870e+002, 1.249819e+002
9.902691e+002, 1.247999e+002
9.907512e+002, 1.240395e+002
9.912333e+002, 1.227810e+002
9.917155e+002, 1.220935e+002
9.921976e+002, 1.224515e+002
9.926797e+002, 1.223558e+002
9.931618e+002, 1.213225e+002
9.936439e+002, 1.203569e+002
9.941260e+002, 1.199591e+002
9.946082e+002, 1.198829e+002
9.950903e+002, 1.199249e+002
9.955724e+002, 1.201113e+002
9.960545e+002, 1.196872e+002
9.965366e+002, 1.178116e+002
9.970187e+002, 1.164882e+002
9.975009e+002, 1.162195e+002
9.979830e+002, 1.164070e+002
9.984651e+002, 1.169609e+002
9.989472e+002, 1.176049e+002
9.994293e+002, 1.179557e+002
9.999114e+002, 1.179672e+002
1.000394e+003, 1.176179e+002
1.000876e+003, 1.163784e+002
1.001358e+003, 1.154433e+002
1.001840e+003, 1.154470e+002
1.002322e+003, 1.158625e+002
1.002804e+003, 1.164408e+002
1.003286e+003, 1.169817e+002
1.003768e+003, 1.171642e+002
1.004250e+003, 1.168887e+002
1.004733e+003, 1.164650e+002
1.005215e+003, 1.158523e+002
1.005697e+003, 1.153752e+002
1.006179e+003, 1.153891e+002
1.006661e+003, 1.156155e+002
1.007143e+003, 1.156687e+002
1.007625e+003, 1.155778e+002
1.008107e+003, 1.156505e+002
1.008590e+003, 1.160334e+002
1.009072e+003, 1.163382e+002
1.009554e+003, 1.162004e+002
1.010036e+003, 1.158372e+002
1.010518e+003, 1.153910e+002
1.011000e+003, 1.149613e+002
1.011482e+003, 1.146531e+002
1.011964e+003, 1.145321e+002
1.012446e+003, 1.148885e+002
1.012929e+003, 1.159634e+002
1.013411e+003, 1.167899e+002
1.013893e+003, 1.157247e+002
1.014375e+003, 1.138177e+002
1.014857e+003, 1.132629e+002
1.015339e+003, 1.137941e+002
1.015821e+003, 1.143207e+002
1.016303e+003, 1.145792e+002
1.016786e+003, 1.147613e+002
1.017268e+003, 1.149955e+002
1.017750e+003, 1.152376e+002
1.018232e+003, 1.154858e+002
1.018714e+003, 1.156810e+002
1.019196e+003, 1.153849e+002
1.019678e+003, 1.146965e+002
1.020160e+003, 1.146645e+002
1.020642e+003, 1.155731e+002
1.021125e+003, 1.165907e+002
1.021607e+003, 1.170827e+002
1.022089e+003, 1.171369e+002
1.022571e+003, 1.168171e+002
1.023053e+003, 1.161585e+002
1.023535e+003, 1.159420e+002
1.024017e+003, 1.162125e+002
1.024499e+003, 1.164628e+002
1.024981e+003, 1.165229e+002
1.025464e+003, 1.166232e+002
1.025946e+003, 1.170061e+002
1.026428e+003, 1.175282e+002
1.026910e+003, 1.177256e+002
1.027392e+003, 1.175705e+002
1.027874e+003, 1.173353e+002
1.028356e+003, 1.170022e+002
1.028838e+003, 1.166417e+002
1.029321e+003, 1.161167e+002
1.029803e+003, 1.161046e+002
1.030285e+003, 1.174950e+002
1.030767e+003, 1.198129e+002
1.031249e+003, 1.208752e+002
1.031731e+003, 1.203547e+002
1.032213e+003, 1.198026e+002
1.032695e+003, 1.191728e+002
1.033177e+003, 1.187348e+002
1.033660e+003, 1.185792e+002
1.034142e+003, 1.186858e+002
1.034624e+003, 1.191509e+002
1.035106e+003, 1.198615e+002
1.035588e+003, 1.200764e+002
1.036070e+003, 1.195378e+002
1.036552e+003, 1.191126e+002
1.037034e+003, 1.187529e+002
1.037516e+003, 1.186384e+002
1.037999e+003, 1.191318e+002
1.038481e+003, 1.195848e+002
1.038963e+003, 1.190771e+002
1.039445e+003, 1.178166e+002
1.039927e+003, 1.174310e+002
1.040409e+003, 1.186640e+002
1.040891e+003, 1.194626e+002
1.041373e+003, 1.197829e+002
1.041856e+003, 1.197101e+002
1.042338e+003, 1.189535e+002
1.042820e+003, 1.180506e+002
1.043302e+003, 1.174487e+002
1.043784e+003, 1.171665e+002
1.044266e+003, 1.173165e+002
1.044748e+003, 1.183839e+002
1.045230e+003, 1.190720e+002
1.045713e+003, 1.191617e+002
1.046195e+003, 1.190441e+002
1.046677e+003, 1.185146e+002
1.047159e+003, 1.181108e+002
1.047641e+003, 1.187455e+002
1.048123e+003, 1.201720e+002
1.048605e+003, 1.206123e+002
1.049087e+003, 1.190838e+002
1.049569e+003, 1.180109e+002
1.050052e+003, 1.179800e+002
1.050534e+003, 1.181886e+002
1.051016e+003, 1.184103e+002
1.051498e+003, 1.185840e+002
1.051980e+003, 1.187800e+002
1.052462e+003, 1.189155e+002
1.052944e+003, 1.185110e+002
1.053426e+003, 1.168633e+002
1.053908e+003, 1.159316e+002
1.054391e+003, 1.168763e+002
1.054873e+003, 1.178098e+002
1.055355e+003, 1.175101e+002
1.055837e+003, 1.168723e+002
1.056319e+003, 1.170163e+002
1.056801e+003, 1.178703e+002
1.057283e+003, 1.185611e+002
1.057765e+003, 1.188224e+002
1.058248e+003, 1.190541e+002
1.058730e+003, 1.194655e+002
1.059212e+003, 1.197749e+002
1.059694e+003, 1.195810e+002
1.060176e+003, 1.193711e+002
1.060658e+003, 1.199710e+002
1.061140e+003, 1.211314e+002
1.061622e+003, 1.214973e+002
1.062104e+003, 1.202604e+002
1.062587e+003, 1.194834e+002
1.063069e+003, 1.204160e+002
1.063551e+003, 1.214398e+002
1.064033e+003, 1.215775e+002
1.064515e+003, 1.213161e+002
1.064997e+003, 1.211836e+002
1.065479e+003, 1.212347e+002
1.065961e+003, 1.214156e+002
1.066443e+003, 1.218173e+002
1.066926e+003, 1.219578e+002
1.067408e+003, 1.211596e+002
1.067890e+003, 1.205918e+002
1.068372e+003, 1.211621e+002
1.068854e+003, 1.221897e+002
1.069336e+003, 1.229274e+002
1.069818e+003, 1.233711e+002
1.070300e+003, 1.239143e+002
1.070783e+003, 1.247747e+002
1.071265e+003, 1.252245e+002
1.071747e+003, 1.245087e+002
1.072229e+003, 1.237936e+002
1.072711e+003, 1.237324e+002
1.073193e+003, 1.240797e+002
1.073675e+003, 1.245532e+002
1.074157e+003, 1.251673e+002
1.074640e+003, 1.261869e+002
1.075122e+003, 1.277875e+002
1.075604e+003, 1.289923e+002
1.076086e+003, 1.292156e+002
1.076568e+003, 1.290825e+002
1.077050e+003, 1.286372e+002
1.077532e+003, 1.282772e+002
1.078014e+003, 1.283634e+002
1.078496e+003, 1.288827e+002
1.078979e+003, 1.297548e+002
1.079461e+003, 1.309765e+002
1.079943e+003, 1.321851e+002
1.080425e+003, 1.336233e+002
1.080907e+003, 1.344902e+002
1.081389e+003, 1.337170e+002
1.081871e+003, 1.326948e+002
1.082353e+003, 1.329555e+002
1.082836e+003, 1.339728e+002
1.083318e+003, 1.343279e+002
1.083800e+003, 1.337098e+002
1.084282e+003, 1.332353e+002
1.084764e+003, 1.335330e+002
1.085246e+003, 1.339013e+002
1.085728e+003, 1.340555e+002
1.086210e+003, 1.340707e+002
1.086693e+003, 1.340609e+002
1.087175e+003, 1.339447e+002
1.087657e+003, 1.334977e+002
1.088139e+003, 1.327114e+002
1.088621e+003, 1.320230e+002
1.089103e+003, 1.317149e+002
1.089585e+003, 1.313854e+002
1.090067e+003, 1.304757e+002
1.090549e+003, 1.298605e+002
1.091031e+003, 1.304548e+002
1.091514e+003, 1.316649e+002
1.091996e+003, 1.326784e+002
1.092478e+003, 1.333411e+002
1.092960e+003, 1.336510e+002
1.093442e+003, 1.335787e+002
1.093924e+003, 1.332089e+002
1.094406e+003, 1.319144e+002
1.094888e+003, 1.310431e+002
1.095371e+003, 1.320193e+002
1.095853e+003, 1.335870e+002
1.096335e+003, 1.339222e+002
1.096817e+003, 1.331771e+002
1.097299e+003, 1.331144e+002
1.097781e+003, 1.345123e+002
1.098263e+003, 1.358130e+002
1.098745e+003, 1.366263e+002
1.099228e+003, 1.371018e+002
1.099710e+003, 1.371253e+002
1.100192e+003, 1.369996e+002
1.100674e+003, 1.368242e+002
1.101156e+003, 1.367827e+002
1.101638e+003, 1.375055e+002
1.102120e+003, 1.395168e+002
1.102602e+003, 1.407312e+002
1.103084e+003, 1.397398e+002
1.103567e+003, 1.390203e+002
1.104049e+003, 1.397234e+002
1.104531e+003, 1.409459e+002
1.105013e+003, 1.420695e+002
1.105495e+003, 1.430410e+002
1.105977e+003, 1.439877e+002
1.106459e+003, 1.450418e+002
1.106941e+003, 1.452732e+002
1.107423e+003, 1.433924e+002
1.107906e+003, 1.422531e+002
1.108388e+003, 1.430312e+002
1.108870e+003, 1.443553e+002
1.109352e+003, 1.456116e+002
1.109834e+003, 1.466764e+002
1.110316e+003, 1.473801e+002
1.110798e+003, 1.477121e+002
1.111280e+003, 1.478931e+002
1.111763e+003, 1.471156e+002
1.112245e+003, 1.474392e+002
1.112727e+003, 1.505310e+002
1.113209e+003, 1.531559e+002
1.113691e+003, 1.533193e+002
1.114173e+003, 1.524118e+002
1.114655e+003, 1.520939e+002
1.115137e+003, 1.523387e+002
1.115620e+003, 1.526963e+002
1.116102e+003, 1.533382e+002
1.116584e+003, 1.537783e+002
1.117066e+003, 1.538116e+002
1.117548e+003, 1.539308e+002
1.118030e+003, 1.542606e+002
1.118512e+003, 1.547975e+002
1.118994e+003, 1.555987e+002
1.119476e+003, 1.566007e+002
1.119958e+003, 1.575913e+002
1.120441e+003, 1.587777e+002
1.120923e+003, 1.592143e+002
1.121405e+003, 1.583085e+002
1.121887e+003, 1.580460e+002
1.122369e+003, 1.595114e+002
1.122851e+003, 1.606328e+002
1.123333e+003, 1.595883e+002
1.123815e+003, 1.574407e+002
1.124298e+003, 1.565732e+002
1.124780e+003, 1.570983e+002
1.125262e+003, 1.574688e+002
1.125744e+003, 1.576352e+002
1.126226e+003, 1.577753e+002
1.126708e+003, 1.578025e+002
1.127190e+003, 1.582725e+002
1.127672e+003, 1.596776e+002
1.128155e+003, 1.612092e+002
1.128637e+003, 1.616190e+002
1.129119e+003, 1.610685e+002
1.129601e+003, 1.610030e+002
1.130083e+003, 1.615138e+002
1.130565e+003, 1.613956e+002
1.131047e+003, 1.604523e+002
1.131529e+003, 1.594740e+002
1.132011e+003, 1.586912e+002
1.132494e+003, 1.587570e+002
1.132976e+003, 1.606496e+002
1.133458e+003, 1.632311e+002
1.133940e+003, 1.627856e+002
1.134422e+003, 1.596306e+002
1.134904e+003, 1.577460e+002
1.135386e+003, 1.572837e+002
1.135868e+003, 1.576648e+002
1.136350e+003, 1.587050e+002
1.136833e+003, 1.593355e+002
1.137315e+003, 1.587172e+002
1.137797e+003, 1.578212e+002
1.138279e+003, 1.587466e+002
1.138761e+003, 1.606581e+002
1.139243e+003, 1.602078e+002
1.139725e+003, 1.580481e+002
1.140207e+003, 1.572274e+002
1.140690e+003, 1.580110e+002
1.141172e+003, 1.584294e+002
1.141654e+003, 1.575487e+002
1.142136e+003, 1.562239e+002
1.142618e+003, 1.551794e+002
1.143100e+003, 1.544830e+002
1.143582e+003, 1.544841e+002
1.144064e+003, 1.548223e+002
1.144547e+003, 1.547615e+002
1.145029e+003, 1.543161e+002
1.145511e+003, 1.536919e+002
1.145993e+003, 1.530107e+002
1.146475e+003, 1.526748e+002
1.146957e+003, 1.531841e+002
1.147439e+003, 1.535559e+002
1.147921e+003, 1.524084e+002
1.148403e+003, 1.509201e+002
1.148885e+003, 1.505844e+002
1.149368e+003, 1.509496e+002
1.149850e+003, 1.512933e+002
1.150332e+003, 1.513689e+002
1.150814e+003, 1.508376e+002
1.151296e+003, 1.494134e+002
1.151778e+003, 1.482876e+002
1.152260e+003, 1.485772e+002
1.152742e+003, 1.489496e+002
1.153225e+003, 1.484581e+002
1.153707e+003, 1.476094e+002
1.154189e+003, 1.467097e+002
1.154671e+003, 1.460050e+002
1.155153e+003, 1.460916e+002
1.155635e+003, 1.471027e+002
1.156117e+003, 1.474741e+002
1.156599e+003, 1.463441e+002
1.157082e+003, 1.450312e+002
1.157564e+003, 1.434782e+002
1.158046e+003, 1.423739e+002
1.158528e+003, 1.422915e+002
1.159010e+003, 1.428231e+002
1.159492e+003, 1.437206e+002
1.159974e+003, 1.448150e+002
1.160456e+003, 1.450415e+002
1.160938e+003, 1.435600e+002
1.161421e+003, 1.426695e+002
1.161903e+003, 1.425484e+002
1.162385e+003, 1.429243e+002
1.162867e+003, 1.445203e+002
1.163349e+003, 1.456336e+002
1.163831e+003, 1.444867e+002
1.164313e+003, 1.421435e+002
1.164795e+003, 1.412273e+002
1.165277e+003, 1.418940e+002
1.165760e+003, 1.427782e+002
1.166242e+003, 1.442784e+002
1.166724e+003, 1.446148e+002
1.167206e+003, 1.431920e+002
1.167688e+003, 1.415669e+002
1.168170e+003, 1.404090e+002
1.168652e+003, 1.398303e+002
1.169134e+003, 1.400904e+002
1.169617e+003, 1.409564e+002
1.170099e+003, 1.413059e+002
1.170581e+003, 1.411328e+002
1.171063e+003, 1.409848e+002
1.171545e+003, 1.408955e+002
1.172027e+003, 1.407534e+002
1.172509e+003, 1.405207e+002
1.172991e+003, 1.404790e+002
1.173474e+003, 1.409085e+002
1.173956e+003, 1.412655e+002
1.174438e+003, 1.402944e+002
1.174920e+003, 1.385646e+002
1.175402e+003, 1.380027e+002
1.175884e+003, 1.383521e+002
1.176366e+003, 1.387266e+002
1.176848e+003, 1.389543e+002
1.177330e+003, 1.389877e+002
1.177813e+003, 1.388230e+002
1.178295e+003, 1.387951e+002
1.178777e+003, 1.392859e+002
1.179259e+003, 1.399474e+002
1.179741e+003, 1.405893e+002
1.180223e+003, 1.409495e+002
1.180705e+003, 1.403318e+002
1.181187e+003, 1.392359e+002
1.181669e+003, 1.388181e+002
1.182152e+003, 1.391671e+002
1.182634e+003, 1.394192e+002
1.183116e+003, 1.392163e+002
1.183598e+003, 1.387366e+002
1.184080e+003, 1.377368e+002
1.184562e+003, 1.368978e+002
1.185044e+003, 1.367535e+002
1.185526e+003, 1.369371e+002
1.186009e+003, 1.371720e+002
1.186491e+003, 1.373722e+002
1.186973e+003, 1.374290e+002
1.187455e+003, 1.373166e+002
1.187937e+003, 1.372071e+002
1.188419e+003, 1.371655e+002
1.188901e+003, 1.370817e+002
1.189383e+003, 1.367190e+002
1.189865e+003, 1.365608e+002
1.190348e+003, 1.372439e+002
1.190830e+003, 1.379356e+002
1.191312e+003, 1.374434e+002
1.191794e+003, 1.361631e+002
1.192276e+003, 1.361615e+002
1.192758e+003, 1.381648e+002
1.193240e+003, 1.388822e+002
1.193722e+003, 1.377683e+002
1.194204e+003, 1.370494e+002
1.194687e+003, 1.374151e+002
1.195169e+003, 1.376614e+002
1.195651e+003, 1.369652e+002
1.196133e+003, 1.358803e+002
1.196615e+003, 1.352577e+002
1.197097e+003, 1.350580e+002
1.197579e+003, 1.350435e+002
1.198061e+003, 1.352140e+002
1.198544e+003, 1.357276e+002
1.199026e+003, 1.365372e+002
1.199508e+003, 1.365129e+002
1.199990e+003, 1.353369e+002
1.200472e+003, 1.346341e+002
1.200954e+003, 1.358422e+002
1.201436e+003, 1.374984e+002
1.201918e+003, 1.371545e+002
1.202401e+003, 1.357999e+002
1.202883e+003, 1.354785e+002
1.203365e+003, 1.357701e+002
1.203847e+003, 1.355867e+002
1.204329e+003, 1.348788e+002
1.204811e+003, 1.340726e+002
1.205293e+003, 1.333452e+002
1.205775e+003, 1.329268e+002
1.206257e+003, 1.331234e+002
1.206740e+003, 1.334788e+002
1.207222e+003, 1.337101e+002
1.207704e+003, 1.339056e+002
1.208186e+003, 1.341990e+002
1.208668e+003, 1.344790e+002
1.209150e+003, 1.345672e+002
1.209632e+003, 1.344723e+002
1.210114e+003, 1.343369e+002
1.210596e+003, 1.341834e+002
1.211079e+003, 1.340212e+002
1.211561e+003, 1.334960e+002
1.212043e+003, 1.334516e+002
1.212525e+003, 1.352082e+002
1.213007e+003, 1.363447e+002
1.213489e+003, 1.345616e+002
1.213971e+003, 1.317846e+002
1.214453e+003, 1.311030e+002
1.214936e+003, 1.323819e+002
1.215418e+003, 1.331464e+002
1.215900e+003, 1.332341e+002
1.216382e+003, 1.334747e+002
1.216864e+003, 1.340422e+002
1.217346e+003, 1.341013e+002
1.217828e+003, 1.332930e+002
1.218310e+003, 1.324116e+002
1.218792e+003, 1.320316e+002
1.219275e+003, 1.320542e+002
1.219757e+003, 1.323735e+002
1.220239e+003, 1.329150e+002
1.220721e+003, 1.333591e+002
1.221203e+003, 1.336997e+002
1.221685e+003, 1.337760e+002
1.222167e+003, 1.336730e+002
1.222649e+003, 1.340646e+002
1.223131e+003, 1.351063e+002
1.223614e+003, 1.357728e+002
1.224096e+003, 1.351687e+002
1.224578e+003, 1.342298e+002
1.225060e+003, 1.339452e+002
1.225542e+003, 1.339404e+002
1.226024e+003, 1.338330e+002
1.226506e+003, 1.336549e+002
1.226988e+003, 1.334118e+002
1.227471e+003, 1.331934e+002
1.227953e+003, 1.332592e+002
1.228435e+003, 1.336927e+002
1.228917e+003, 1.340376e+002
1.229399e+003, 1.339734e+002
1.229881e+003, 1.339998e+002
1.230363e+003, 1.346694e+002
1.230845e+003, 1.350325e+002
1.231328e+003, 1.343606e+002
1.231810e+003, 1.332070e+002
1.232292e+003, 1.317681e+002
1.232774e+003, 1.304257e+002
1.233256e+003, 1.308887e+002
1.233738e+003, 1.339743e+002
1.234220e+003, 1.352049e+002
1.234702e+003, 1.338212e+002
1.235184e+003, 1.330616e+002
1.235667e+003, 1.336208e+002
1.236149e+003, 1.344680e+002
1.236631e+003, 1.351185e+002
1.237113e+003, 1.355972e+002
1.237595e+003, 1.359163e+002
1.238077e+003, 1.361226e+002
1.238559e+003, 1.364007e+002
1.239041e+003, 1.367014e+002
1.239523e+003, 1.367551e+002
1.240006e+003, 1.365834e+002
1.240488e+003, 1.362251e+002
1.240970e+003, 1.357835e+002
1.241452e+003, 1.358418e+002
1.241934e+003, 1.366965e+002
1.242416e+003, 1.373709e+002
1.242898e+003, 1.366770e+002
1.243380e+003, 1.357033e+002
1.243863e+003, 1.354838e+002
1.244345e+003, 1.356307e+002
1.244827e+003, 1.356914e+002
1.245309e+003, 1.357939e+002
1.245791e+003, 1.362223e+002
1.246273e+003, 1.369833e+002
1.246755e+003, 1.380057e+002
1.247237e+003, 1.396438e+002
1.247719e+003, 1.402414e+002
1.248202e+003, 1.383056e+002
1.248684e+003, 1.368628e+002
1.249166e+003, 1.368400e+002
1.249648e+003, 1.375510e+002
1.250130e+003, 1.391340e+002
1.250612e+003, 1.406782e+002
1.251094e+003, 1.407168e+002
1.251576e+003, 1.396344e+002
1.252058e+003, 1.401766e+002
1.252541e+003, 1.427974e+002
1.253023e+003, 1.434467e+002
1.253505e+003, 1.417960e+002
1.253987e+003, 1.409720e+002
1.254469e+003, 1.417128e+002
1.254951e+003, 1.427921e+002
1.255433e+003, 1.435218e+002
1.255915e+003, 1.439641e+002
1.256398e+003, 1.441372e+002
1.256880e+003, 1.441543e+002
1.257362e+003, 1.441306e+002
1.257844e+003, 1.441745e+002
1.258326e+003, 1.444550e+002
1.258808e+003, 1.450070e+002
1.259290e+003, 1.460844e+002
1.259772e+003, 1.475100e+002
1.260255e+003, 1.484093e+002
1.260737e+003, 1.483626e+002
1.261219e+003, 1.482829e+002
1.261701e+003, 1.486835e+002
1.262183e+003, 1.491262e+002
1.262665e+003, 1.494412e+002
1.263147e+003, 1.496781e+002
1.263629e+003, 1.498320e+002
1.264111e+003, 1.499603e+002
1.264594e+003, 1.502681e+002
1.265076e+003, 1.506438e+002
1.265558e+003, 1.503235e+002
1.266040e+003, 1.486400e+002
1.266522e+003, 1.489085e+002
1.267004e+003, 1.520084e+002
1.267486e+003, 1.538434e+002
1.267968e+003, 1.533913e+002
1.268450e+003, 1.527918e+002
1.268933e+003, 1.531290e+002
1.269415e+003, 1.538188e+002
1.269897e+003, 1.542187e+002
1.270379e+003, 1.544679e+002
1.270861e+003, 1.548510e+002
1.271343e+003, 1.553833e+002
1.271825e+003, 1.562942e+002
1.272307e+003, 1.573587e+002
1.272790e+003, 1.577464e+002
1.273272e+003, 1.575497e+002
1.273754e+003, 1.577597e+002
1.274236e+003, 1.587349e+002
1.274718e+003, 1.596583e+002
1.275200e+003, 1.600846e+002
1.275682e+003, 1.601785e+002
1.276164e+003, 1.597007e+002
1.276646e+003, 1.592968e+002
1.277129e+003, 1.594183e+002
1.277611e+003, 1.598841e+002
1.278093e+003, 1.604282e+002
1.278575e+003, 1.611177e+002
1.279057e+003, 1.624028e+002
1.279539e+003, 1.645092e+002
1.280021e+003, 1.653716e+002
1.280503e+003, 1.642197e+002
1.280985e+003, 1.640008e+002
1.281468e+003, 1.653263e+002
1.281950e+003, 1.666161e+002
1.282432e+003, 1.673278e+002
1.282914e+003, 1.675316e+002
1.283396e+003, 1.671989e+002
1.283878e+003, 1.667955e+002
1.284360e+003, 1.673264e+002
1.284842e+003, 1.683457e+002
1.285325e+003, 1.686223e+002
1.285807e+003, 1.681906e+002
##END=



