##NAMES=Robertsite
##RRUFFID=R120040
##IDEAL CHEMISTRY=Ca_2_Mn^3+^_3_O_2_(PO_4_)_3_&#183;3H_2_O
##LOCALITY=Tip Top mine, Custer County, South Dakota, USA
##OWNER=RRUFF
##SOURCE=Mark N. Feinglos
##DESCRIPTION=Dark reddish brown plates on bobdownsite. This sample was used to determine the structure reported in Andrade et al (2012)
##STATUS=The identification of this mineral has been confirmed by X-ray diffraction and chemical analysis
##URL=rruff.info/R120040
##MEASURED CHEMISTRY=Ca_1.93_(Mn_2.92_Fe_0.07_)_Σ=2.99_O_1.84_(PO_4_)_3.04_·2.72H_2_O
9.112140e+001, 0.000000e+000
9.160352e+001, 2.837505e+002
9.208563e+001, 2.777256e+002
9.256775e+001, 2.769645e+002
9.304987e+001, 2.839758e+002
9.353198e+001, 2.931286e+002
9.401410e+001, 2.996874e+002
9.449622e+001, 3.032496e+002
9.497833e+001, 3.046133e+002
9.546045e+001, 3.045091e+002
9.594257e+001, 3.029451e+002
9.642468e+001, 3.010890e+002
9.690680e+001, 2.992047e+002
9.738892e+001, 2.972361e+002
9.787103e+001, 2.950655e+002
9.835315e+001, 2.924282e+002
9.883527e+001, 2.894218e+002
9.931738e+001, 2.870039e+002
9.979950e+001, 2.854973e+002
1.002816e+002, 2.838047e+002
1.007637e+002, 2.815775e+002
1.012458e+002, 2.792528e+002
1.017280e+002, 2.771756e+002
1.022101e+002, 2.753826e+002
1.026922e+002, 2.739124e+002
1.031743e+002, 2.729999e+002
1.036564e+002, 2.726628e+002
1.041385e+002, 2.721068e+002
1.046207e+002, 2.708567e+002
1.051028e+002, 2.691064e+002
1.055849e+002, 2.674915e+002
1.060670e+002, 2.660723e+002
1.065491e+002, 2.649282e+002
1.070313e+002, 2.642979e+002
1.075134e+002, 2.643115e+002
1.079955e+002, 2.640954e+002
1.084776e+002, 2.625842e+002
1.089597e+002, 2.594509e+002
1.094418e+002, 2.564105e+002
1.099240e+002, 2.536315e+002
1.104061e+002, 2.512682e+002
1.108882e+002, 2.495587e+002
1.113703e+002, 2.486084e+002
1.118524e+002, 2.482235e+002
1.123345e+002, 2.479165e+002
1.128167e+002, 2.478737e+002
1.132988e+002, 2.476488e+002
1.137809e+002, 2.470936e+002
1.142630e+002, 2.463477e+002
1.147451e+002, 2.455784e+002
1.152272e+002, 2.448947e+002
1.157094e+002, 2.442856e+002
1.161915e+002, 2.436693e+002
1.166736e+002, 2.429167e+002
1.171557e+002, 2.422715e+002
1.176378e+002, 2.418864e+002
1.181199e+002, 2.417029e+002
1.186021e+002, 2.415164e+002
1.190842e+002, 2.411455e+002
1.195663e+002, 2.405696e+002
1.200484e+002, 2.400774e+002
1.205305e+002, 2.395116e+002
1.210126e+002, 2.391091e+002
1.214948e+002, 2.392135e+002
1.219769e+002, 2.399192e+002
1.224590e+002, 2.406492e+002
1.229411e+002, 2.407099e+002
1.234232e+002, 2.402730e+002
1.239053e+002, 2.398267e+002
1.243875e+002, 2.396169e+002
1.248696e+002, 2.395246e+002
1.253517e+002, 2.391640e+002
1.258338e+002, 2.382179e+002
1.263159e+002, 2.373938e+002
1.267980e+002, 2.372267e+002
1.272802e+002, 2.376232e+002
1.277623e+002, 2.381350e+002
1.282444e+002, 2.384318e+002
1.287265e+002, 2.384977e+002
1.292086e+002, 2.385081e+002
1.296907e+002, 2.387181e+002
1.301729e+002, 2.386874e+002
1.306550e+002, 2.381929e+002
1.311371e+002, 2.372092e+002
1.316192e+002, 2.358571e+002
1.321013e+002, 2.342627e+002
1.325834e+002, 2.322147e+002
1.330656e+002, 2.303071e+002
1.335477e+002, 2.282780e+002
1.340298e+002, 2.265134e+002
1.345119e+002, 2.254834e+002
1.349940e+002, 2.253059e+002
1.354761e+002, 2.255230e+002
1.359583e+002, 2.250924e+002
1.364404e+002, 2.233914e+002
1.369225e+002, 2.217783e+002
1.374046e+002, 2.202819e+002
1.378867e+002, 2.189151e+002
1.383688e+002, 2.176890e+002
1.388510e+002, 2.165806e+002
1.393331e+002, 2.156624e+002
1.398152e+002, 2.152246e+002
1.402973e+002, 2.157118e+002
1.407794e+002, 2.159453e+002
1.412615e+002, 2.151239e+002
1.417437e+002, 2.134992e+002
1.422258e+002, 2.122093e+002
1.427079e+002, 2.119630e+002
1.431900e+002, 2.124221e+002
1.436721e+002, 2.127482e+002
1.441542e+002, 2.128692e+002
1.446364e+002, 2.128923e+002
1.451185e+002, 2.129068e+002
1.456006e+002, 2.129107e+002
1.460827e+002, 2.129180e+002
1.465648e+002, 2.129118e+002
1.470469e+002, 2.129211e+002
1.475291e+002, 2.129472e+002
1.480112e+002, 2.129148e+002
1.484933e+002, 2.129800e+002
1.489754e+002, 2.135807e+002
1.494575e+002, 2.151885e+002
1.499396e+002, 2.165243e+002
1.504218e+002, 2.170084e+002
1.509039e+002, 2.170636e+002
1.513860e+002, 2.172874e+002
1.518681e+002, 2.181026e+002
1.523502e+002, 2.193897e+002
1.528323e+002, 2.200636e+002
1.533145e+002, 2.190233e+002
1.537966e+002, 2.184140e+002
1.542787e+002, 2.187990e+002
1.547608e+002, 2.199560e+002
1.552429e+002, 2.214122e+002
1.557250e+002, 2.228459e+002
1.562072e+002, 2.242704e+002
1.566893e+002, 2.253656e+002
1.571714e+002, 2.259008e+002
1.576535e+002, 2.263912e+002
1.581356e+002, 2.270244e+002
1.586177e+002, 2.278118e+002
1.590999e+002, 2.287038e+002
1.595820e+002, 2.296866e+002
1.600641e+002, 2.307937e+002
1.605462e+002, 2.316635e+002
1.610283e+002, 2.319366e+002
1.615104e+002, 2.322212e+002
1.619926e+002, 2.331593e+002
1.624747e+002, 2.348197e+002
1.629568e+002, 2.364309e+002
1.634389e+002, 2.370210e+002
1.639210e+002, 2.366508e+002
1.644031e+002, 2.364807e+002
1.648853e+002, 2.369856e+002
1.653674e+002, 2.377210e+002
1.658495e+002, 2.379728e+002
1.663316e+002, 2.375262e+002
1.668137e+002, 2.369103e+002
1.672958e+002, 2.366190e+002
1.677780e+002, 2.365838e+002
1.682601e+002, 2.365913e+002
1.687422e+002, 2.366263e+002
1.692243e+002, 2.366449e+002
1.697064e+002, 2.364384e+002
1.701885e+002, 2.358094e+002
1.706707e+002, 2.351707e+002
1.711528e+002, 2.348786e+002
1.716349e+002, 2.348484e+002
1.721170e+002, 2.347153e+002
1.725991e+002, 2.340800e+002
1.730812e+002, 2.329064e+002
1.735634e+002, 2.320060e+002
1.740455e+002, 2.316910e+002
1.745276e+002, 2.314552e+002
1.750097e+002, 2.310300e+002
1.754918e+002, 2.304504e+002
1.759739e+002, 2.299660e+002
1.764561e+002, 2.298989e+002
1.769382e+002, 2.304172e+002
1.774203e+002, 2.307844e+002
1.779024e+002, 2.308413e+002
1.783845e+002, 2.308866e+002
1.788666e+002, 2.311949e+002
1.793488e+002, 2.317351e+002
1.798309e+002, 2.321729e+002
1.803130e+002, 2.319800e+002
1.807951e+002, 2.305621e+002
1.812772e+002, 2.298917e+002
1.817593e+002, 2.303496e+002
1.822415e+002, 2.312003e+002
1.827236e+002, 2.320715e+002
1.832057e+002, 2.328236e+002
1.836878e+002, 2.332933e+002
1.841699e+002, 2.331732e+002
1.846520e+002, 2.318322e+002
1.851342e+002, 2.311929e+002
1.856163e+002, 2.319728e+002
1.860984e+002, 2.331848e+002
1.865805e+002, 2.337213e+002
1.870626e+002, 2.332339e+002
1.875447e+002, 2.322743e+002
1.880269e+002, 2.317256e+002
1.885090e+002, 2.316091e+002
1.889911e+002, 2.316775e+002
1.894732e+002, 2.320245e+002
1.899553e+002, 2.325015e+002
1.904374e+002, 2.328173e+002
1.909196e+002, 2.328412e+002
1.914017e+002, 2.327870e+002
1.918838e+002, 2.329987e+002
1.923659e+002, 2.334890e+002
1.928480e+002, 2.339407e+002
1.933301e+002, 2.342226e+002
1.938123e+002, 2.343493e+002
1.942944e+002, 2.343665e+002
1.947765e+002, 2.342292e+002
1.952586e+002, 2.340453e+002
1.957407e+002, 2.340186e+002
1.962228e+002, 2.341552e+002
1.967050e+002, 2.340925e+002
1.971871e+002, 2.334895e+002
1.976692e+002, 2.323694e+002
1.981513e+002, 2.312370e+002
1.986334e+002, 2.300994e+002
1.991155e+002, 2.290671e+002
1.995977e+002, 2.281836e+002
2.000798e+002, 2.274577e+002
2.005619e+002, 2.269213e+002
2.010440e+002, 2.267057e+002
2.015261e+002, 2.268938e+002
2.020082e+002, 2.268457e+002
2.024904e+002, 2.262628e+002
2.029725e+002, 2.255728e+002
2.034546e+002, 2.249652e+002
2.039367e+002, 2.244682e+002
2.044188e+002, 2.240102e+002
2.049009e+002, 2.234980e+002
2.053831e+002, 2.228978e+002
2.058652e+002, 2.223497e+002
2.063473e+002, 2.216701e+002
2.068294e+002, 2.211708e+002
2.073115e+002, 2.210999e+002
2.077936e+002, 2.214658e+002
2.082758e+002, 2.220513e+002
2.087579e+002, 2.225822e+002
2.092400e+002, 2.231322e+002
2.097221e+002, 2.234316e+002
2.102042e+002, 2.232127e+002
2.106863e+002, 2.229715e+002
2.111685e+002, 2.230860e+002
2.116506e+002, 2.236108e+002
2.121327e+002, 2.242824e+002
2.126148e+002, 2.246906e+002
2.130969e+002, 2.244444e+002
2.135790e+002, 2.248121e+002
2.140612e+002, 2.264599e+002
2.145433e+002, 2.282639e+002
2.150254e+002, 2.291168e+002
2.155075e+002, 2.288189e+002
2.159896e+002, 2.283583e+002
2.164717e+002, 2.292250e+002
2.169539e+002, 2.324181e+002
2.174360e+002, 2.345454e+002
2.179181e+002, 2.349579e+002
2.184002e+002, 2.345799e+002
2.188823e+002, 2.341685e+002
2.193644e+002, 2.339039e+002
2.198466e+002, 2.338627e+002
2.203287e+002, 2.342017e+002
2.208108e+002, 2.349781e+002
2.212929e+002, 2.358115e+002
2.217750e+002, 2.369582e+002
2.222571e+002, 2.380213e+002
2.227393e+002, 2.384576e+002
2.232214e+002, 2.381188e+002
2.237035e+002, 2.373686e+002
2.241856e+002, 2.364448e+002
2.246677e+002, 2.353572e+002
2.251498e+002, 2.346457e+002
2.256320e+002, 2.349985e+002
2.261141e+002, 2.356824e+002
2.265962e+002, 2.353921e+002
2.270783e+002, 2.337316e+002
2.275604e+002, 2.316287e+002
2.280425e+002, 2.297333e+002
2.285247e+002, 2.280720e+002
2.290068e+002, 2.269574e+002
2.294889e+002, 2.270735e+002
2.299710e+002, 2.277853e+002
2.304531e+002, 2.276150e+002
2.309352e+002, 2.262012e+002
2.314174e+002, 2.243298e+002
2.318995e+002, 2.224749e+002
2.323816e+002, 2.206558e+002
2.328637e+002, 2.189458e+002
2.333458e+002, 2.173450e+002
2.338279e+002, 2.158759e+002
2.343101e+002, 2.146041e+002
2.347922e+002, 2.136179e+002
2.352743e+002, 2.127140e+002
2.357564e+002, 2.117892e+002
2.362385e+002, 2.108515e+002
2.367206e+002, 2.099139e+002
2.372028e+002, 2.090365e+002
2.376849e+002, 2.081738e+002
2.381670e+002, 2.070773e+002
2.386491e+002, 2.055053e+002
2.391312e+002, 2.040654e+002
2.396133e+002, 2.029258e+002
2.400955e+002, 2.020678e+002
2.405776e+002, 2.014520e+002
2.410597e+002, 2.010972e+002
2.415418e+002, 2.009596e+002
2.420239e+002, 2.008510e+002
2.425060e+002, 2.008808e+002
2.429882e+002, 2.007752e+002
2.434703e+002, 2.004754e+002
2.439524e+002, 2.000014e+002
2.444345e+002, 1.993355e+002
2.449166e+002, 1.984160e+002
2.453987e+002, 1.973550e+002
2.458809e+002, 1.967123e+002
2.463630e+002, 1.967866e+002
2.468451e+002, 1.969362e+002
2.473272e+002, 1.971107e+002
2.478093e+002, 1.972545e+002
2.482914e+002, 1.972764e+002
2.487736e+002, 1.971140e+002
2.492557e+002, 1.968446e+002
2.497378e+002, 1.967867e+002
2.502199e+002, 1.971199e+002
2.507020e+002, 1.974622e+002
2.511841e+002, 1.977049e+002
2.516663e+002, 1.979467e+002
2.521484e+002, 1.983754e+002
2.526305e+002, 1.990916e+002
2.531126e+002, 1.999122e+002
2.535947e+002, 2.002551e+002
2.540768e+002, 1.991372e+002
2.545590e+002, 1.987375e+002
2.550411e+002, 1.997735e+002
2.555232e+002, 2.013606e+002
2.560053e+002, 2.024693e+002
2.564874e+002, 2.026636e+002
2.569695e+002, 2.023598e+002
2.574517e+002, 2.025641e+002
2.579338e+002, 2.040310e+002
2.584159e+002, 2.051292e+002
2.588980e+002, 2.056907e+002
2.593801e+002, 2.059470e+002
2.598622e+002, 2.060250e+002
2.603444e+002, 2.059816e+002
2.608265e+002, 2.060372e+002
2.613086e+002, 2.066326e+002
2.617907e+002, 2.084878e+002
2.622728e+002, 2.097429e+002
2.627549e+002, 2.100652e+002
2.632371e+002, 2.099307e+002
2.637192e+002, 2.097624e+002
2.642013e+002, 2.096809e+002
2.646834e+002, 2.096179e+002
2.651655e+002, 2.094559e+002
2.656476e+002, 2.090821e+002
2.661298e+002, 2.089089e+002
2.666119e+002, 2.090330e+002
2.670940e+002, 2.093129e+002
2.675761e+002, 2.095868e+002
2.680582e+002, 2.098302e+002
2.685403e+002, 2.102003e+002
2.690225e+002, 2.109398e+002
2.695046e+002, 2.121920e+002
2.699867e+002, 2.131322e+002
2.704688e+002, 2.134706e+002
2.709509e+002, 2.136572e+002
2.714330e+002, 2.141507e+002
2.719152e+002, 2.149861e+002
2.723973e+002, 2.157451e+002
2.728794e+002, 2.159546e+002
2.733615e+002, 2.155660e+002
2.738436e+002, 2.155064e+002
2.743257e+002, 2.158352e+002
2.748079e+002, 2.164652e+002
2.752900e+002, 2.174370e+002
2.757721e+002, 2.187248e+002
2.762542e+002, 2.200102e+002
2.767363e+002, 2.210223e+002
2.772184e+002, 2.218034e+002
2.777006e+002, 2.228098e+002
2.781827e+002, 2.241125e+002
2.786648e+002, 2.255779e+002
2.791469e+002, 2.272909e+002
2.796290e+002, 2.291805e+002
2.801111e+002, 2.307344e+002
2.805933e+002, 2.315397e+002
2.810754e+002, 2.317806e+002
2.815575e+002, 2.322141e+002
2.820396e+002, 2.327800e+002
2.825217e+002, 2.336027e+002
2.830038e+002, 2.348195e+002
2.834860e+002, 2.363889e+002
2.839681e+002, 2.381536e+002
2.844502e+002, 2.402168e+002
2.849323e+002, 2.422747e+002
2.854144e+002, 2.437092e+002
2.858965e+002, 2.442962e+002
2.863787e+002, 2.448390e+002
2.868608e+002, 2.459172e+002
2.873429e+002, 2.473455e+002
2.878250e+002, 2.484406e+002
2.883071e+002, 2.488941e+002
2.887892e+002, 2.490213e+002
2.892714e+002, 2.492705e+002
2.897535e+002, 2.496414e+002
2.902356e+002, 2.500805e+002
2.907177e+002, 2.506704e+002
2.911998e+002, 2.513137e+002
2.916819e+002, 2.517652e+002
2.921641e+002, 2.519760e+002
2.926462e+002, 2.519611e+002
2.931283e+002, 2.517111e+002
2.936104e+002, 2.512519e+002
2.940925e+002, 2.506850e+002
2.945746e+002, 2.501593e+002
2.950568e+002, 2.495361e+002
2.955389e+002, 2.484801e+002
2.960210e+002, 2.468583e+002
2.965031e+002, 2.450845e+002
2.969852e+002, 2.434010e+002
2.974673e+002, 2.418221e+002
2.979495e+002, 2.404333e+002
2.984316e+002, 2.394445e+002
2.989137e+002, 2.385978e+002
2.993958e+002, 2.374413e+002
2.998779e+002, 2.358830e+002
3.003600e+002, 2.344175e+002
3.008422e+002, 2.336222e+002
3.013243e+002, 2.331117e+002
3.018064e+002, 2.322153e+002
3.022885e+002, 2.306200e+002
3.027706e+002, 2.287275e+002
3.032527e+002, 2.269185e+002
3.037349e+002, 2.251803e+002
3.042170e+002, 2.236147e+002
3.046991e+002, 2.223333e+002
3.051812e+002, 2.212367e+002
3.056633e+002, 2.201949e+002
3.061454e+002, 2.192014e+002
3.066276e+002, 2.182511e+002
3.071097e+002, 2.173666e+002
3.075918e+002, 2.165443e+002
3.080739e+002, 2.156739e+002
3.085560e+002, 2.146797e+002
3.090381e+002, 2.136684e+002
3.095203e+002, 2.128077e+002
3.100024e+002, 2.121207e+002
3.104845e+002, 2.113409e+002
3.109666e+002, 2.103172e+002
3.114487e+002, 2.090564e+002
3.119308e+002, 2.075138e+002
3.124130e+002, 2.053924e+002
3.128951e+002, 2.034327e+002
3.133772e+002, 2.024012e+002
3.138593e+002, 2.021748e+002
3.143414e+002, 2.020294e+002
3.148235e+002, 2.018001e+002
3.153057e+002, 2.013785e+002
3.157878e+002, 2.003748e+002
3.162699e+002, 1.985398e+002
3.167520e+002, 1.966507e+002
3.172341e+002, 1.951461e+002
3.177162e+002, 1.940122e+002
3.181984e+002, 1.933093e+002
3.186805e+002, 1.934136e+002
3.191626e+002, 1.938062e+002
3.196447e+002, 1.936525e+002
3.201268e+002, 1.928828e+002
3.206089e+002, 1.919190e+002
3.210911e+002, 1.908822e+002
3.215732e+002, 1.898215e+002
3.220553e+002, 1.888028e+002
3.225374e+002, 1.878165e+002
3.230195e+002, 1.869052e+002
3.235016e+002, 1.862409e+002
3.239838e+002, 1.858244e+002
3.244659e+002, 1.850888e+002
3.249480e+002, 1.835098e+002
3.254301e+002, 1.817200e+002
3.259122e+002, 1.805459e+002
3.263943e+002, 1.801141e+002
3.268765e+002, 1.798049e+002
3.273586e+002, 1.792328e+002
3.278407e+002, 1.784143e+002
3.283228e+002, 1.774077e+002
3.288049e+002, 1.760626e+002
3.292870e+002, 1.747665e+002
3.297692e+002, 1.740452e+002
3.302513e+002, 1.738391e+002
3.307334e+002, 1.734174e+002
3.312155e+002, 1.723323e+002
3.316976e+002, 1.707893e+002
3.321797e+002, 1.692071e+002
3.326619e+002, 1.675617e+002
3.331440e+002, 1.660670e+002
3.336261e+002, 1.650659e+002
3.341082e+002, 1.643671e+002
3.345903e+002, 1.635025e+002
3.350724e+002, 1.622200e+002
3.355546e+002, 1.607615e+002
3.360367e+002, 1.593969e+002
3.365188e+002, 1.581285e+002
3.370009e+002, 1.570147e+002
3.374830e+002, 1.562244e+002
3.379651e+002, 1.555734e+002
3.384473e+002, 1.547017e+002
3.389294e+002, 1.534333e+002
3.394115e+002, 1.521563e+002
3.398936e+002, 1.512482e+002
3.403757e+002, 1.506526e+002
3.408578e+002, 1.499751e+002
3.413400e+002, 1.490635e+002
3.418221e+002, 1.479916e+002
3.423042e+002, 1.468216e+002
3.427863e+002, 1.454877e+002
3.432684e+002, 1.443715e+002
3.437505e+002, 1.437131e+002
3.442327e+002, 1.434075e+002
3.447148e+002, 1.433335e+002
3.451969e+002, 1.436327e+002
3.456790e+002, 1.437072e+002
3.461611e+002, 1.424109e+002
3.466432e+002, 1.399944e+002
3.471254e+002, 1.382792e+002
3.476075e+002, 1.383747e+002
3.480896e+002, 1.391181e+002
3.485717e+002, 1.390384e+002
3.490538e+002, 1.379897e+002
3.495359e+002, 1.367552e+002
3.500181e+002, 1.358155e+002
3.505002e+002, 1.351703e+002
3.509823e+002, 1.347092e+002
3.514644e+002, 1.347065e+002
3.519465e+002, 1.346506e+002
3.524286e+002, 1.339890e+002
3.529108e+002, 1.328887e+002
3.533929e+002, 1.322013e+002
3.538750e+002, 1.324927e+002
3.543571e+002, 1.333051e+002
3.548392e+002, 1.334581e+002
3.553214e+002, 1.326834e+002
3.558035e+002, 1.319645e+002
3.562856e+002, 1.316116e+002
3.567677e+002, 1.315588e+002
3.572498e+002, 1.317747e+002
3.577319e+002, 1.322966e+002
3.582141e+002, 1.328288e+002
3.586962e+002, 1.328823e+002
3.591783e+002, 1.323320e+002
3.596604e+002, 1.321055e+002
3.601425e+002, 1.326572e+002
3.606246e+002, 1.333632e+002
3.611068e+002, 1.335534e+002
3.615889e+002, 1.331995e+002
3.620710e+002, 1.328553e+002
3.625531e+002, 1.330023e+002
3.630352e+002, 1.336404e+002
3.635173e+002, 1.341384e+002
3.639995e+002, 1.342640e+002
3.644816e+002, 1.344933e+002
3.649637e+002, 1.352138e+002
3.654458e+002, 1.362300e+002
3.659279e+002, 1.370255e+002
3.664100e+002, 1.373175e+002
3.668922e+002, 1.372393e+002
3.673743e+002, 1.372069e+002
3.678564e+002, 1.370390e+002
3.683385e+002, 1.371622e+002
3.688206e+002, 1.377663e+002
3.693027e+002, 1.386330e+002
3.697849e+002, 1.395514e+002
3.702670e+002, 1.404510e+002
3.707491e+002, 1.413118e+002
3.712312e+002, 1.420949e+002
3.717133e+002, 1.427392e+002
3.721954e+002, 1.434833e+002
3.726776e+002, 1.445922e+002
3.731597e+002, 1.455725e+002
3.736418e+002, 1.460321e+002
3.741239e+002, 1.460459e+002
3.746060e+002, 1.459942e+002
3.750881e+002, 1.461650e+002
3.755703e+002, 1.465567e+002
3.760524e+002, 1.470965e+002
3.765345e+002, 1.479616e+002
3.770166e+002, 1.487731e+002
3.774987e+002, 1.493948e+002
3.779808e+002, 1.499263e+002
3.784630e+002, 1.505392e+002
3.789451e+002, 1.513134e+002
3.794272e+002, 1.521538e+002
3.799093e+002, 1.528390e+002
3.803914e+002, 1.533676e+002
3.808735e+002, 1.537216e+002
3.813557e+002, 1.537299e+002
3.818378e+002, 1.537032e+002
3.823199e+002, 1.539116e+002
3.828020e+002, 1.543678e+002
3.832841e+002, 1.548523e+002
3.837662e+002, 1.551095e+002
3.842484e+002, 1.551029e+002
3.847305e+002, 1.551253e+002
3.852126e+002, 1.552060e+002
3.856947e+002, 1.552875e+002
3.861768e+002, 1.554152e+002
3.866589e+002, 1.555249e+002
3.871411e+002, 1.554839e+002
3.876232e+002, 1.551861e+002
3.881053e+002, 1.547189e+002
3.885874e+002, 1.544187e+002
3.890695e+002, 1.544348e+002
3.895516e+002, 1.543338e+002
3.900338e+002, 1.539279e+002
3.905159e+002, 1.534248e+002
3.909980e+002, 1.530564e+002
3.914801e+002, 1.528828e+002
3.919622e+002, 1.526831e+002
3.924443e+002, 1.521357e+002
3.929265e+002, 1.511981e+002
3.934086e+002, 1.503418e+002
3.938907e+002, 1.497402e+002
3.943728e+002, 1.491254e+002
3.948549e+002, 1.482889e+002
3.953370e+002, 1.472893e+002
3.958192e+002, 1.463690e+002
3.963013e+002, 1.456603e+002
3.967834e+002, 1.451494e+002
3.972655e+002, 1.448252e+002
3.977476e+002, 1.447522e+002
3.982297e+002, 1.447013e+002
3.987119e+002, 1.447269e+002
3.991940e+002, 1.446502e+002
3.996761e+002, 1.441294e+002
4.001582e+002, 1.428792e+002
4.006403e+002, 1.416083e+002
4.011224e+002, 1.412030e+002
4.016046e+002, 1.415967e+002
4.020867e+002, 1.416692e+002
4.025688e+002, 1.408780e+002
4.030509e+002, 1.398548e+002
4.035330e+002, 1.394207e+002
4.040151e+002, 1.395883e+002
4.044973e+002, 1.396590e+002
4.049794e+002, 1.392191e+002
4.054615e+002, 1.385142e+002
4.059436e+002, 1.379428e+002
4.064257e+002, 1.375510e+002
4.069078e+002, 1.373244e+002
4.073900e+002, 1.373934e+002
4.078721e+002, 1.376519e+002
4.083542e+002, 1.375643e+002
4.088363e+002, 1.369163e+002
4.093184e+002, 1.360720e+002
4.098005e+002, 1.352160e+002
4.102827e+002, 1.343509e+002
4.107648e+002, 1.334711e+002
4.112469e+002, 1.325528e+002
4.117290e+002, 1.316600e+002
4.122111e+002, 1.309117e+002
4.126932e+002, 1.301464e+002
4.131754e+002, 1.298698e+002
4.136575e+002, 1.307314e+002
4.141396e+002, 1.318242e+002
4.146217e+002, 1.321927e+002
4.151038e+002, 1.316809e+002
4.155859e+002, 1.306899e+002
4.160681e+002, 1.295214e+002
4.165502e+002, 1.281171e+002
4.170323e+002, 1.272810e+002
4.175144e+002, 1.274736e+002
4.179965e+002, 1.276567e+002
4.184786e+002, 1.273465e+002
4.189608e+002, 1.267252e+002
4.194429e+002, 1.262212e+002
4.199250e+002, 1.260658e+002
4.204071e+002, 1.260795e+002
4.208892e+002, 1.257304e+002
4.213713e+002, 1.243306e+002
4.218535e+002, 1.236453e+002
4.223356e+002, 1.243974e+002
4.228177e+002, 1.253623e+002
4.232998e+002, 1.254962e+002
4.237819e+002, 1.247369e+002
4.242640e+002, 1.238322e+002
4.247462e+002, 1.235896e+002
4.252283e+002, 1.240689e+002
4.257104e+002, 1.243088e+002
4.261925e+002, 1.239907e+002
4.266746e+002, 1.237698e+002
4.271567e+002, 1.239944e+002
4.276389e+002, 1.244014e+002
4.281210e+002, 1.245960e+002
4.286031e+002, 1.243961e+002
4.290852e+002, 1.238640e+002
4.295673e+002, 1.229368e+002
4.300494e+002, 1.212935e+002
4.305316e+002, 1.204029e+002
4.310137e+002, 1.214319e+002
4.314958e+002, 1.227949e+002
4.319779e+002, 1.235527e+002
4.324600e+002, 1.236299e+002
4.329421e+002, 1.234203e+002
4.334243e+002, 1.230866e+002
4.339064e+002, 1.226850e+002
4.343885e+002, 1.225209e+002
4.348706e+002, 1.227694e+002
4.353527e+002, 1.228770e+002
4.358348e+002, 1.222483e+002
4.363170e+002, 1.212754e+002
4.367991e+002, 1.206265e+002
4.372812e+002, 1.206017e+002
4.377633e+002, 1.207601e+002
4.382454e+002, 1.207455e+002
4.387275e+002, 1.205647e+002
4.392097e+002, 1.202363e+002
4.396918e+002, 1.196898e+002
4.401739e+002, 1.191137e+002
4.406560e+002, 1.188043e+002
4.411381e+002, 1.187613e+002
4.416202e+002, 1.187854e+002
4.421024e+002, 1.189260e+002
4.425845e+002, 1.190490e+002
4.430666e+002, 1.189278e+002
4.435487e+002, 1.185652e+002
4.440308e+002, 1.182981e+002
4.445129e+002, 1.184503e+002
4.449951e+002, 1.189393e+002
4.454772e+002, 1.189853e+002
4.459593e+002, 1.183959e+002
4.464414e+002, 1.176620e+002
4.469235e+002, 1.167157e+002
4.474056e+002, 1.157799e+002
4.478878e+002, 1.152487e+002
4.483699e+002, 1.152480e+002
4.488520e+002, 1.154464e+002
4.493341e+002, 1.153141e+002
4.498162e+002, 1.146297e+002
4.502983e+002, 1.142506e+002
4.507805e+002, 1.144201e+002
4.512626e+002, 1.146235e+002
4.517447e+002, 1.146320e+002
4.522268e+002, 1.144456e+002
4.527089e+002, 1.141269e+002
4.531910e+002, 1.137009e+002
4.536732e+002, 1.132118e+002
4.541553e+002, 1.128497e+002
4.546374e+002, 1.126579e+002
4.551195e+002, 1.125299e+002
4.556016e+002, 1.126430e+002
4.560837e+002, 1.126822e+002
4.565659e+002, 1.122845e+002
4.570480e+002, 1.114220e+002
4.575301e+002, 1.105264e+002
4.580122e+002, 1.100723e+002
4.584943e+002, 1.100492e+002
4.589764e+002, 1.099925e+002
4.594586e+002, 1.099332e+002
4.599407e+002, 1.097643e+002
4.604228e+002, 1.093395e+002
4.609049e+002, 1.087957e+002
4.613870e+002, 1.083971e+002
4.618691e+002, 1.083105e+002
4.623513e+002, 1.082825e+002
4.628334e+002, 1.079936e+002
4.633155e+002, 1.074523e+002
4.637976e+002, 1.068688e+002
4.642797e+002, 1.062526e+002
4.647618e+002, 1.056900e+002
4.652440e+002, 1.052888e+002
4.657261e+002, 1.050458e+002
4.662082e+002, 1.048698e+002
4.666903e+002, 1.048679e+002
4.671724e+002, 1.048426e+002
4.676545e+002, 1.044482e+002
4.681367e+002, 1.036903e+002
4.686188e+002, 1.030502e+002
4.691009e+002, 1.028911e+002
4.695830e+002, 1.031057e+002
4.700651e+002, 1.031387e+002
4.705472e+002, 1.028956e+002
4.710294e+002, 1.026187e+002
4.715115e+002, 1.023814e+002
4.719936e+002, 1.021394e+002
4.724757e+002, 1.018032e+002
4.729578e+002, 1.013605e+002
4.734399e+002, 1.009304e+002
4.739221e+002, 1.006652e+002
4.744042e+002, 1.006026e+002
4.748863e+002, 1.004878e+002
4.753684e+002, 1.002166e+002
4.758505e+002, 1.000078e+002
4.763326e+002, 1.000349e+002
4.768148e+002, 1.001617e+002
4.772969e+002, 1.001207e+002
4.777790e+002, 9.977547e+001
4.782611e+002, 9.931435e+001
4.787432e+002, 9.920099e+001
4.792253e+002, 9.966911e+001
4.797075e+002, 9.982062e+001
4.801896e+002, 9.914584e+001
4.806717e+002, 9.846926e+001
4.811538e+002, 9.822718e+001
4.816359e+002, 9.840844e+001
4.821180e+002, 9.877760e+001
4.826002e+002, 9.925422e+001
4.830823e+002, 9.977809e+001
4.835644e+002, 1.002170e+002
4.840465e+002, 1.006038e+002
4.845286e+002, 1.007701e+002
4.850107e+002, 1.005459e+002
4.854929e+002, 1.000975e+002
4.859750e+002, 9.954391e+001
4.864571e+002, 9.883923e+001
4.869392e+002, 9.834406e+001
4.874213e+002, 9.833469e+001
4.879034e+002, 9.868541e+001
4.883856e+002, 9.921320e+001
4.888677e+002, 9.993575e+001
4.893498e+002, 1.004915e+002
4.898319e+002, 1.005385e+002
4.903140e+002, 1.000856e+002
4.907961e+002, 9.961903e+001
4.912783e+002, 9.878929e+001
4.917604e+002, 9.830996e+001
4.922425e+002, 9.885522e+001
4.927246e+002, 9.991508e+001
4.932067e+002, 1.004810e+002
4.936888e+002, 1.001971e+002
4.941710e+002, 9.957807e+001
4.946531e+002, 9.943439e+001
4.951352e+002, 1.000018e+002
4.956173e+002, 1.003079e+002
4.960994e+002, 1.003406e+002
4.965815e+002, 1.001662e+002
4.970637e+002, 9.964146e+001
4.975458e+002, 9.894629e+001
4.980279e+002, 9.846060e+001
4.985100e+002, 9.841879e+001
4.989921e+002, 9.860788e+001
4.994742e+002, 9.846269e+001
4.999564e+002, 9.782838e+001
5.004385e+002, 9.724797e+001
5.009206e+002, 9.666885e+001
5.014027e+002, 9.626393e+001
5.018848e+002, 9.626568e+001
5.023669e+002, 9.660121e+001
5.028491e+002, 9.688860e+001
5.033312e+002, 9.689578e+001
5.038133e+002, 9.665916e+001
5.042954e+002, 9.617673e+001
5.047775e+002, 9.535045e+001
5.052596e+002, 9.477401e+001
5.057418e+002, 9.504559e+001
5.062239e+002, 9.554852e+001
5.067060e+002, 9.528112e+001
5.071881e+002, 9.395154e+001
5.076702e+002, 9.288011e+001
5.081523e+002, 9.309812e+001
5.086345e+002, 9.388350e+001
5.091166e+002, 9.394885e+001
5.095987e+002, 9.310066e+001
5.100808e+002, 9.210413e+001
5.105629e+002, 9.155504e+001
5.110450e+002, 9.142704e+001
5.115272e+002, 9.131548e+001
5.120093e+002, 9.115342e+001
5.124914e+002, 9.108252e+001
5.129735e+002, 9.139464e+001
5.134556e+002, 9.171999e+001
5.139377e+002, 9.139137e+001
5.144199e+002, 9.030196e+001
5.149020e+002, 8.921816e+001
5.153841e+002, 8.923378e+001
5.158662e+002, 9.064079e+001
5.163483e+002, 9.114355e+001
5.168304e+002, 8.961034e+001
5.173126e+002, 8.835326e+001
5.177947e+002, 8.827602e+001
5.182768e+002, 8.880524e+001
5.187589e+002, 8.898311e+001
5.192410e+002, 8.840681e+001
5.197231e+002, 8.772806e+001
5.202053e+002, 8.810510e+001
5.206874e+002, 8.965705e+001
5.211695e+002, 9.047131e+001
5.216516e+002, 8.991106e+001
5.221337e+002, 8.903313e+001
5.226158e+002, 8.849710e+001
5.230980e+002, 8.823933e+001
5.235801e+002, 8.808378e+001
5.240622e+002, 8.800372e+001
5.245443e+002, 8.796664e+001
5.250264e+002, 8.792744e+001
5.255085e+002, 8.789579e+001
5.259907e+002, 8.795610e+001
5.264728e+002, 8.818155e+001
5.269549e+002, 8.841438e+001
5.274370e+002, 8.836945e+001
5.279191e+002, 8.797494e+001
5.284012e+002, 8.777878e+001
5.288834e+002, 8.795309e+001
5.293655e+002, 8.824200e+001
5.298476e+002, 8.848598e+001
5.303297e+002, 8.869301e+001
5.308118e+002, 8.893933e+001
5.312939e+002, 8.927174e+001
5.317761e+002, 8.963123e+001
5.322582e+002, 8.986088e+001
5.327403e+002, 8.985885e+001
5.332224e+002, 8.990883e+001
5.337045e+002, 9.001170e+001
5.341866e+002, 9.016129e+001
5.346688e+002, 9.046034e+001
5.351509e+002, 9.081375e+001
5.356330e+002, 9.090744e+001
5.361151e+002, 9.038539e+001
5.365972e+002, 8.966413e+001
5.370793e+002, 9.008147e+001
5.375615e+002, 9.205299e+001
5.380436e+002, 9.343100e+001
5.385257e+002, 9.300691e+001
5.390078e+002, 9.217733e+001
5.394899e+002, 9.227619e+001
5.399720e+002, 9.329153e+001
5.404542e+002, 9.409465e+001
5.409363e+002, 9.375887e+001
5.414184e+002, 9.307436e+001
5.419005e+002, 9.329778e+001
5.423826e+002, 9.442527e+001
5.428647e+002, 9.550272e+001
5.433469e+002, 9.606658e+001
5.438290e+002, 9.623265e+001
5.443111e+002, 9.624780e+001
5.447932e+002, 9.596801e+001
5.452753e+002, 9.589052e+001
5.457574e+002, 9.619461e+001
5.462396e+002, 9.665021e+001
5.467217e+002, 9.707090e+001
5.472038e+002, 9.744849e+001
5.476859e+002, 9.787369e+001
5.481680e+002, 9.842770e+001
5.486501e+002, 9.905169e+001
5.491323e+002, 9.947710e+001
5.496144e+002, 9.958643e+001
5.500965e+002, 9.968948e+001
5.505786e+002, 9.978698e+001
5.510607e+002, 9.991824e+001
5.515428e+002, 1.001758e+002
5.520250e+002, 1.005207e+002
5.525071e+002, 1.007686e+002
5.529892e+002, 1.008774e+002
5.534713e+002, 1.007604e+002
5.539534e+002, 9.992585e+001
5.544355e+002, 9.810893e+001
5.549177e+002, 9.695984e+001
5.553998e+002, 9.756090e+001
5.558819e+002, 9.887946e+001
5.563640e+002, 9.948123e+001
5.568461e+002, 9.926852e+001
5.573282e+002, 9.898633e+001
5.578104e+002, 9.913061e+001
5.582925e+002, 9.923712e+001
5.587746e+002, 9.856065e+001
5.592567e+002, 9.717411e+001
5.597388e+002, 9.598637e+001
5.602209e+002, 9.555310e+001
5.607031e+002, 9.568059e+001
5.611852e+002, 9.574614e+001
5.616673e+002, 9.560886e+001
5.621494e+002, 9.561341e+001
5.626315e+002, 9.598401e+001
5.631136e+002, 9.632661e+001
5.635958e+002, 9.635326e+001
5.640779e+002, 9.607489e+001
5.645600e+002, 9.565831e+001
5.650421e+002, 9.521736e+001
5.655242e+002, 9.473175e+001
5.660063e+002, 9.401786e+001
5.664885e+002, 9.277775e+001
5.669706e+002, 9.218891e+001
5.674527e+002, 9.313928e+001
5.679348e+002, 9.440100e+001
5.684169e+002, 9.523810e+001
5.688990e+002, 9.560963e+001
5.693812e+002, 9.570313e+001
5.698633e+002, 9.552328e+001
5.703454e+002, 9.516643e+001
5.708275e+002, 9.466458e+001
5.713096e+002, 9.404525e+001
5.717917e+002, 9.368075e+001
5.722739e+002, 9.378145e+001
5.727560e+002, 9.412981e+001
5.732381e+002, 9.431302e+001
5.737202e+002, 9.423183e+001
5.742023e+002, 9.438756e+001
5.746844e+002, 9.499931e+001
5.751666e+002, 9.571463e+001
5.756487e+002, 9.639171e+001
5.761308e+002, 9.696750e+001
5.766129e+002, 9.736051e+001
5.770950e+002, 9.753045e+001
5.775771e+002, 9.748416e+001
5.780593e+002, 9.713579e+001
5.785414e+002, 9.612633e+001
5.790235e+002, 9.579906e+001
5.795056e+002, 9.701505e+001
5.799877e+002, 9.819110e+001
5.804698e+002, 9.859678e+001
5.809520e+002, 9.840083e+001
5.814341e+002, 9.805967e+001
5.819162e+002, 9.768971e+001
5.823983e+002, 9.744538e+001
5.828804e+002, 9.764146e+001
5.833625e+002, 9.822717e+001
5.838447e+002, 9.860827e+001
5.843268e+002, 9.855373e+001
5.848089e+002, 9.847178e+001
5.852910e+002, 9.881854e+001
5.857731e+002, 9.955322e+001
5.862552e+002, 1.002456e+002
5.867374e+002, 1.008903e+002
5.872195e+002, 1.014522e+002
5.877016e+002, 1.018618e+002
5.881837e+002, 1.021870e+002
5.886658e+002, 1.025429e+002
5.891479e+002, 1.029644e+002
5.896301e+002, 1.033916e+002
5.901122e+002, 1.036995e+002
5.905943e+002, 1.038222e+002
5.910764e+002, 1.044726e+002
5.915585e+002, 1.060467e+002
5.920406e+002, 1.077171e+002
5.925228e+002, 1.097017e+002
5.930049e+002, 1.114833e+002
5.934870e+002, 1.122780e+002
5.939691e+002, 1.119194e+002
5.944512e+002, 1.114190e+002
5.949333e+002, 1.117603e+002
5.954155e+002, 1.127782e+002
5.958976e+002, 1.137080e+002
5.963797e+002, 1.144413e+002
5.968618e+002, 1.153949e+002
5.973439e+002, 1.169610e+002
5.978260e+002, 1.188591e+002
5.983082e+002, 1.203591e+002
5.987903e+002, 1.212768e+002
5.992724e+002, 1.222625e+002
5.997545e+002, 1.234417e+002
6.002366e+002, 1.248450e+002
6.007188e+002, 1.266602e+002
6.012009e+002, 1.287934e+002
6.016830e+002, 1.307351e+002
6.021651e+002, 1.321237e+002
6.026472e+002, 1.331266e+002
6.031293e+002, 1.343495e+002
6.036115e+002, 1.357583e+002
6.040936e+002, 1.374730e+002
6.045757e+002, 1.398074e+002
6.050578e+002, 1.421394e+002
6.055399e+002, 1.439673e+002
6.060220e+002, 1.454328e+002
6.065042e+002, 1.471062e+002
6.069863e+002, 1.493602e+002
6.074684e+002, 1.518879e+002
6.079505e+002, 1.542997e+002
6.084326e+002, 1.565945e+002
6.089147e+002, 1.584839e+002
6.093969e+002, 1.596651e+002
6.098790e+002, 1.608401e+002
6.103611e+002, 1.628344e+002
6.108432e+002, 1.655916e+002
6.113253e+002, 1.683825e+002
6.118074e+002, 1.711844e+002
6.122896e+002, 1.739491e+002
6.127717e+002, 1.768290e+002
6.132538e+002, 1.796046e+002
6.137359e+002, 1.817778e+002
6.142180e+002, 1.832474e+002
6.147001e+002, 1.845803e+002
6.151823e+002, 1.864459e+002
6.156644e+002, 1.888617e+002
6.161465e+002, 1.914667e+002
6.166286e+002, 1.945133e+002
6.171107e+002, 1.973816e+002
6.175928e+002, 1.998933e+002
6.180750e+002, 2.021610e+002
6.185571e+002, 2.042539e+002
6.190392e+002, 2.061901e+002
6.195213e+002, 2.080967e+002
6.200034e+002, 2.101519e+002
6.204855e+002, 2.122242e+002
6.209677e+002, 2.140002e+002
6.214498e+002, 2.154570e+002
6.219319e+002, 2.168535e+002
6.224140e+002, 2.183541e+002
6.228961e+002, 2.198326e+002
6.233782e+002, 2.210058e+002
6.238604e+002, 2.218178e+002
6.243425e+002, 2.225505e+002
6.248246e+002, 2.235353e+002
6.253067e+002, 2.241805e+002
6.257888e+002, 2.237726e+002
6.262709e+002, 2.227101e+002
6.267531e+002, 2.220330e+002
6.272352e+002, 2.222650e+002
6.277173e+002, 2.228439e+002
6.281994e+002, 2.227251e+002
6.286815e+002, 2.217840e+002
6.291636e+002, 2.208270e+002
6.296458e+002, 2.199584e+002
6.301279e+002, 2.189915e+002
6.306100e+002, 2.177489e+002
6.310921e+002, 2.163715e+002
6.315742e+002, 2.151492e+002
6.320563e+002, 2.142359e+002
6.325385e+002, 2.132360e+002
6.330206e+002, 2.117904e+002
6.335027e+002, 2.100783e+002
6.339848e+002, 2.085106e+002
6.344669e+002, 2.071386e+002
6.349490e+002, 2.055661e+002
6.354312e+002, 2.034631e+002
6.359133e+002, 2.009447e+002
6.363954e+002, 1.985234e+002
6.368775e+002, 1.959808e+002
6.373596e+002, 1.938743e+002
6.378417e+002, 1.926662e+002
6.383239e+002, 1.915490e+002
6.388060e+002, 1.900266e+002
6.392881e+002, 1.880679e+002
6.397702e+002, 1.857970e+002
6.402523e+002, 1.832351e+002
6.407344e+002, 1.805413e+002
6.412166e+002, 1.780905e+002
6.416987e+002, 1.758897e+002
6.421808e+002, 1.734968e+002
6.426629e+002, 1.705891e+002
6.431450e+002, 1.678303e+002
6.436271e+002, 1.661143e+002
6.441093e+002, 1.651020e+002
6.445914e+002, 1.635577e+002
6.450735e+002, 1.606987e+002
6.455556e+002, 1.579895e+002
6.460377e+002, 1.562546e+002
6.465198e+002, 1.550285e+002
6.470020e+002, 1.536988e+002
6.474841e+002, 1.521393e+002
6.479662e+002, 1.505045e+002
6.484483e+002, 1.489479e+002
6.489304e+002, 1.474374e+002
6.494125e+002, 1.456210e+002
6.498947e+002, 1.431577e+002
6.503768e+002, 1.410588e+002
6.508589e+002, 1.398517e+002
6.513410e+002, 1.387766e+002
6.518231e+002, 1.372598e+002
6.523052e+002, 1.353539e+002
6.527874e+002, 1.335124e+002
6.532695e+002, 1.318277e+002
6.537516e+002, 1.304470e+002
6.542337e+002, 1.298843e+002
6.547158e+002, 1.298864e+002
6.551979e+002, 1.291774e+002
6.556801e+002, 1.273139e+002
6.561622e+002, 1.251107e+002
6.566443e+002, 1.234104e+002
6.571264e+002, 1.222344e+002
6.576085e+002, 1.212590e+002
6.580906e+002, 1.206259e+002
6.585728e+002, 1.199887e+002
6.590549e+002, 1.195979e+002
6.595370e+002, 1.189589e+002
6.600191e+002, 1.172327e+002
6.605012e+002, 1.145221e+002
6.609833e+002, 1.121053e+002
6.614655e+002, 1.111384e+002
6.619476e+002, 1.111939e+002
6.624297e+002, 1.110350e+002
6.629118e+002, 1.106609e+002
6.633939e+002, 1.100632e+002
6.638760e+002, 1.091160e+002
6.643582e+002, 1.080942e+002
6.648403e+002, 1.073423e+002
6.653224e+002, 1.068380e+002
6.658045e+002, 1.063482e+002
6.662866e+002, 1.059837e+002
6.667687e+002, 1.054709e+002
6.672509e+002, 1.045575e+002
6.677330e+002, 1.034284e+002
6.682151e+002, 1.023189e+002
6.686972e+002, 1.013172e+002
6.691793e+002, 1.005376e+002
6.696614e+002, 1.001346e+002
6.701436e+002, 1.000744e+002
6.706257e+002, 9.986642e+001
6.711078e+002, 9.946680e+001
6.715899e+002, 9.900815e+001
6.720720e+002, 9.858468e+001
6.725541e+002, 9.806848e+001
6.730363e+002, 9.727330e+001
6.735184e+002, 9.622826e+001
6.740005e+002, 9.527883e+001
6.744826e+002, 9.458691e+001
6.749647e+002, 9.403564e+001
6.754468e+002, 9.352189e+001
6.759290e+002, 9.304890e+001
6.764111e+002, 9.264645e+001
6.768932e+002, 9.232584e+001
6.773753e+002, 9.201864e+001
6.778574e+002, 9.163365e+001
6.783395e+002, 9.116309e+001
6.788217e+002, 9.082259e+001
6.793038e+002, 9.084373e+001
6.797859e+002, 9.069712e+001
6.802680e+002, 9.018537e+001
6.807501e+002, 8.954619e+001
6.812322e+002, 8.893668e+001
6.817144e+002, 8.840691e+001
6.821965e+002, 8.801787e+001
6.826786e+002, 8.787223e+001
6.831607e+002, 8.785421e+001
6.836428e+002, 8.791904e+001
6.841249e+002, 8.801128e+001
6.846071e+002, 8.752547e+001
6.850892e+002, 8.612555e+001
6.855713e+002, 8.465122e+001
6.860534e+002, 8.409367e+001
6.865355e+002, 8.452036e+001
6.870176e+002, 8.476678e+001
6.874998e+002, 8.503611e+001
6.879819e+002, 8.489156e+001
6.884640e+002, 8.382169e+001
6.889461e+002, 8.253744e+001
6.894282e+002, 8.174498e+001
6.899103e+002, 8.152252e+001
6.903925e+002, 8.151718e+001
6.908746e+002, 8.153864e+001
6.913567e+002, 8.151973e+001
6.918388e+002, 8.121495e+001
6.923209e+002, 8.060536e+001
6.928030e+002, 8.025065e+001
6.932852e+002, 8.043653e+001
6.937673e+002, 8.066499e+001
6.942494e+002, 8.039574e+001
6.947315e+002, 7.965496e+001
6.952136e+002, 7.895420e+001
6.956957e+002, 7.811263e+001
6.961779e+002, 7.755201e+001
6.966600e+002, 7.760649e+001
6.971421e+002, 7.790506e+001
6.976242e+002, 7.811884e+001
6.981063e+002, 7.815265e+001
6.985884e+002, 7.796386e+001
6.990706e+002, 7.749971e+001
6.995527e+002, 7.682547e+001
7.000348e+002, 7.601678e+001
7.005169e+002, 7.498136e+001
7.009990e+002, 7.444933e+001
7.014811e+002, 7.476142e+001
7.019633e+002, 7.533279e+001
7.024454e+002, 7.579817e+001
7.029275e+002, 7.613280e+001
7.034096e+002, 7.622611e+001
7.038917e+002, 7.602154e+001
7.043738e+002, 7.563036e+001
7.048560e+002, 7.477100e+001
7.053381e+002, 7.393418e+001
7.058202e+002, 7.384915e+001
7.063023e+002, 7.446120e+001
7.067844e+002, 7.504811e+001
7.072665e+002, 7.510986e+001
7.077487e+002, 7.481973e+001
7.082308e+002, 7.467082e+001
7.087129e+002, 7.473650e+001
7.091950e+002, 7.457775e+001
7.096771e+002, 7.393035e+001
7.101592e+002, 7.333187e+001
7.106414e+002, 7.321339e+001
7.111235e+002, 7.337773e+001
7.116056e+002, 7.338615e+001
7.120877e+002, 7.305280e+001
7.125698e+002, 7.282857e+001
7.130519e+002, 7.318397e+001
7.135341e+002, 7.361618e+001
7.140162e+002, 7.346696e+001
7.144983e+002, 7.277717e+001
7.149804e+002, 7.197066e+001
7.154625e+002, 7.126537e+001
7.159446e+002, 7.073478e+001
7.164268e+002, 7.058479e+001
7.169089e+002, 7.093462e+001
7.173910e+002, 7.113603e+001
7.178731e+002, 7.119637e+001
7.183552e+002, 7.106375e+001
7.188373e+002, 7.054169e+001
7.193195e+002, 6.989289e+001
7.198016e+002, 6.952420e+001
7.202837e+002, 6.953749e+001
7.207658e+002, 6.956013e+001
7.212479e+002, 6.939644e+001
7.217300e+002, 6.916501e+001
7.222122e+002, 6.890996e+001
7.226943e+002, 6.869598e+001
7.231764e+002, 6.874107e+001
7.236585e+002, 6.914423e+001
7.241406e+002, 6.966940e+001
7.246227e+002, 6.998083e+001
7.251049e+002, 7.008419e+001
7.255870e+002, 6.991458e+001
7.260691e+002, 6.928457e+001
7.265512e+002, 6.868437e+001
7.270333e+002, 6.832642e+001
7.275154e+002, 6.804975e+001
7.279976e+002, 6.759668e+001
7.284797e+002, 6.696277e+001
7.289618e+002, 6.669476e+001
7.294439e+002, 6.743116e+001
7.299260e+002, 6.828252e+001
7.304081e+002, 6.838081e+001
7.308903e+002, 6.795831e+001
7.313724e+002, 6.750663e+001
7.318545e+002, 6.719527e+001
7.323366e+002, 6.724908e+001
7.328187e+002, 6.804602e+001
7.333008e+002, 6.945461e+001
7.337830e+002, 6.983257e+001
7.342651e+002, 6.868288e+001
7.347472e+002, 6.757186e+001
7.352293e+002, 6.667677e+001
7.357114e+002, 6.607934e+001
7.361935e+002, 6.599726e+001
7.366757e+002, 6.631013e+001
7.371578e+002, 6.648853e+001
7.376399e+002, 6.634286e+001
7.381220e+002, 6.605380e+001
7.386041e+002, 6.572109e+001
7.390862e+002, 6.533193e+001
7.395684e+002, 6.469164e+001
7.400505e+002, 6.388187e+001
7.405326e+002, 6.355853e+001
7.410147e+002, 6.427524e+001
7.414968e+002, 6.560320e+001
7.419789e+002, 6.619165e+001
7.424611e+002, 6.580588e+001
7.429432e+002, 6.553746e+001
7.434253e+002, 6.549578e+001
7.439074e+002, 6.558106e+001
7.443895e+002, 6.591411e+001
7.448716e+002, 6.628358e+001
7.453538e+002, 6.624150e+001
7.458359e+002, 6.557404e+001
7.463180e+002, 6.497091e+001
7.468001e+002, 6.495477e+001
7.472822e+002, 6.500394e+001
7.477643e+002, 6.439717e+001
7.482465e+002, 6.335065e+001
7.487286e+002, 6.271085e+001
7.492107e+002, 6.286617e+001
7.496928e+002, 6.329263e+001
7.501749e+002, 6.312600e+001
7.506570e+002, 6.231693e+001
7.511392e+002, 6.198230e+001
7.516213e+002, 6.229107e+001
7.521034e+002, 6.268139e+001
7.525855e+002, 6.283046e+001
7.530676e+002, 6.302619e+001
7.535497e+002, 6.384555e+001
7.540319e+002, 6.532861e+001
7.545140e+002, 6.601838e+001
7.549961e+002, 6.485977e+001
7.554782e+002, 6.354710e+001
7.559603e+002, 6.316581e+001
7.564424e+002, 6.327539e+001
7.569246e+002, 6.316942e+001
7.574067e+002, 6.269345e+001
7.578888e+002, 6.208160e+001
7.583709e+002, 6.147348e+001
7.588530e+002, 6.094584e+001
7.593351e+002, 6.080332e+001
7.598173e+002, 6.108968e+001
7.602994e+002, 6.141006e+001
7.607815e+002, 6.175834e+001
7.612636e+002, 6.198215e+001
7.617457e+002, 6.190165e+001
7.622278e+002, 6.157237e+001
7.627100e+002, 6.128269e+001
7.631921e+002, 6.103544e+001
7.636742e+002, 6.083461e+001
7.641563e+002, 6.072336e+001
7.646384e+002, 6.062653e+001
7.651205e+002, 6.036178e+001
7.656027e+002, 6.006417e+001
7.660848e+002, 6.016145e+001
7.665669e+002, 6.087660e+001
7.670490e+002, 6.166094e+001
7.675311e+002, 6.165614e+001
7.680132e+002, 6.104005e+001
7.684954e+002, 6.088641e+001
7.689775e+002, 6.132580e+001
7.694596e+002, 6.162505e+001
7.699417e+002, 6.136585e+001
7.704238e+002, 6.086732e+001
7.709059e+002, 6.073075e+001
7.713881e+002, 6.114810e+001
7.718702e+002, 6.113723e+001
7.723523e+002, 6.010246e+001
7.728344e+002, 5.936020e+001
7.733165e+002, 5.971221e+001
7.737986e+002, 6.039043e+001
7.742808e+002, 6.042945e+001
7.747629e+002, 5.977008e+001
7.752450e+002, 5.921325e+001
7.757271e+002, 5.945679e+001
7.762092e+002, 5.994845e+001
7.766913e+002, 5.977012e+001
7.771735e+002, 5.909999e+001
7.776556e+002, 5.868813e+001
7.781377e+002, 5.870963e+001
7.786198e+002, 5.889557e+001
7.791019e+002, 5.904095e+001
7.795840e+002, 5.913927e+001
7.800662e+002, 5.914080e+001
7.805483e+002, 5.889250e+001
7.810304e+002, 5.884008e+001
7.815125e+002, 5.917154e+001
7.819946e+002, 5.953780e+001
7.824767e+002, 5.986678e+001
7.829589e+002, 6.008569e+001
7.834410e+002, 6.003644e+001
7.839231e+002, 5.962855e+001
7.844052e+002, 5.922158e+001
7.848873e+002, 5.907607e+001
7.853694e+002, 5.902011e+001
7.858516e+002, 5.883703e+001
7.863337e+002, 5.854993e+001
7.868158e+002, 5.826368e+001
7.872979e+002, 5.802198e+001
7.877800e+002, 5.787696e+001
7.882621e+002, 5.790969e+001
7.887443e+002, 5.811558e+001
7.892264e+002, 5.835633e+001
7.897085e+002, 5.867679e+001
7.901906e+002, 5.891699e+001
7.906727e+002, 5.913428e+001
7.911548e+002, 5.914916e+001
7.916370e+002, 5.866085e+001
7.921191e+002, 5.775558e+001
7.926012e+002, 5.705935e+001
7.930833e+002, 5.673160e+001
7.935654e+002, 5.653850e+001
7.940475e+002, 5.622390e+001
7.945297e+002, 5.611893e+001
7.950118e+002, 5.686034e+001
7.954939e+002, 5.817826e+001
7.959760e+002, 5.901452e+001
7.964581e+002, 5.874349e+001
7.969402e+002, 5.800755e+001
7.974224e+002, 5.779366e+001
7.979045e+002, 5.800463e+001
7.983866e+002, 5.792079e+001
7.988687e+002, 5.743226e+001
7.993508e+002, 5.716073e+001
7.998329e+002, 5.753666e+001
8.003151e+002, 5.813569e+001
8.007972e+002, 5.812960e+001
8.012793e+002, 5.728079e+001
8.017614e+002, 5.676247e+001
8.022435e+002, 5.666401e+001
8.027256e+002, 5.675114e+001
8.032078e+002, 5.716942e+001
8.036899e+002, 5.760280e+001
8.041720e+002, 5.762838e+001
8.046541e+002, 5.728424e+001
8.051362e+002, 5.712482e+001
8.056183e+002, 5.762913e+001
8.061005e+002, 5.823707e+001
8.065826e+002, 5.837384e+001
8.070647e+002, 5.816586e+001
8.075468e+002, 5.784509e+001
8.080289e+002, 5.747105e+001
8.085110e+002, 5.713016e+001
8.089932e+002, 5.688158e+001
8.094753e+002, 5.671209e+001
8.099574e+002, 5.656148e+001
8.104395e+002, 5.638390e+001
8.109216e+002, 5.646942e+001
8.114037e+002, 5.710958e+001
8.118859e+002, 5.754853e+001
8.123680e+002, 5.707510e+001
8.128501e+002, 5.632717e+001
8.133322e+002, 5.636910e+001
8.138143e+002, 5.741782e+001
8.142964e+002, 5.796904e+001
8.147786e+002, 5.726393e+001
8.152607e+002, 5.641008e+001
8.157428e+002, 5.591276e+001
8.162249e+002, 5.573863e+001
8.167070e+002, 5.592809e+001
8.171891e+002, 5.639530e+001
8.176713e+002, 5.673336e+001
8.181534e+002, 5.655091e+001
8.186355e+002, 5.617023e+001
8.191176e+002, 5.621718e+001
8.195997e+002, 5.665391e+001
8.200818e+002, 5.725956e+001
8.205640e+002, 5.803476e+001
8.210461e+002, 5.863409e+001
8.215282e+002, 5.883389e+001
8.220103e+002, 5.865353e+001
8.224924e+002, 5.810452e+001
8.229745e+002, 5.670945e+001
8.234567e+002, 5.600574e+001
8.239388e+002, 5.674657e+001
8.244209e+002, 5.730953e+001
8.249030e+002, 5.677549e+001
8.253851e+002, 5.591536e+001
8.258672e+002, 5.582432e+001
8.263494e+002, 5.664293e+001
8.268315e+002, 5.736981e+001
8.273136e+002, 5.741978e+001
8.277957e+002, 5.730056e+001
8.282778e+002, 5.748868e+001
8.287599e+002, 5.780061e+001
8.292421e+002, 5.786766e+001
8.297242e+002, 5.763805e+001
8.302063e+002, 5.731974e+001
8.306884e+002, 5.705762e+001
8.311705e+002, 5.684867e+001
8.316526e+002, 5.667868e+001
8.321348e+002, 5.654695e+001
8.326169e+002, 5.651548e+001
8.330990e+002, 5.664694e+001
8.335811e+002, 5.668830e+001
8.340632e+002, 5.643815e+001
8.345453e+002, 5.603661e+001
8.350275e+002, 5.577363e+001
8.355096e+002, 5.564243e+001
8.359917e+002, 5.569131e+001
8.364738e+002, 5.617295e+001
8.369559e+002, 5.653669e+001
8.374380e+002, 5.631774e+001
8.379202e+002, 5.603634e+001
8.384023e+002, 5.644619e+001
8.388844e+002, 5.750846e+001
8.393665e+002, 5.829407e+001
8.398486e+002, 5.819939e+001
8.403307e+002, 5.774442e+001
8.408129e+002, 5.727615e+001
8.412950e+002, 5.689256e+001
8.417771e+002, 5.695655e+001
8.422592e+002, 5.741131e+001
8.427413e+002, 5.753973e+001
8.432234e+002, 5.685302e+001
8.437056e+002, 5.581133e+001
8.441877e+002, 5.532273e+001
8.446698e+002, 5.541050e+001
8.451519e+002, 5.586927e+001
8.456340e+002, 5.693204e+001
8.461161e+002, 5.766595e+001
8.465983e+002, 5.749860e+001
8.470804e+002, 5.697239e+001
8.475625e+002, 5.684729e+001
8.480446e+002, 5.714655e+001
8.485267e+002, 5.742446e+001
8.490089e+002, 5.787750e+001
8.494910e+002, 5.803084e+001
8.499731e+002, 5.724334e+001
8.504552e+002, 5.649293e+001
8.509373e+002, 5.682984e+001
8.514194e+002, 5.802140e+001
8.519016e+002, 5.909284e+001
8.523837e+002, 5.967553e+001
8.528658e+002, 5.983852e+001
8.533479e+002, 5.941919e+001
8.538300e+002, 5.873140e+001
8.543121e+002, 5.839202e+001
8.547943e+002, 5.835332e+001
8.552764e+002, 5.806644e+001
8.557585e+002, 5.729168e+001
8.562406e+002, 5.659742e+001
8.567227e+002, 5.683274e+001
8.572048e+002, 5.789322e+001
8.576870e+002, 5.835160e+001
8.581691e+002, 5.802375e+001
8.586512e+002, 5.782157e+001
8.591333e+002, 5.805619e+001
8.596154e+002, 5.834334e+001
8.600975e+002, 5.833574e+001
8.605797e+002, 5.808313e+001
8.610618e+002, 5.787957e+001
8.615439e+002, 5.768630e+001
8.620260e+002, 5.760529e+001
8.625081e+002, 5.776604e+001
8.629902e+002, 5.792231e+001
8.634724e+002, 5.793923e+001
8.639545e+002, 5.784754e+001
8.644366e+002, 5.764858e+001
8.649187e+002, 5.735275e+001
8.654008e+002, 5.723592e+001
8.658829e+002, 5.771568e+001
8.663651e+002, 5.828065e+001
8.668472e+002, 5.820802e+001
8.673293e+002, 5.777286e+001
8.678114e+002, 5.770360e+001
8.682935e+002, 5.812075e+001
8.687756e+002, 5.856765e+001
8.692578e+002, 5.869418e+001
8.697399e+002, 5.861727e+001
8.702220e+002, 5.860094e+001
8.707041e+002, 5.864367e+001
8.711862e+002, 5.881952e+001
8.716683e+002, 5.920523e+001
8.721505e+002, 5.944736e+001
8.726326e+002, 5.928297e+001
8.731147e+002, 5.895828e+001
8.735968e+002, 5.885155e+001
8.740789e+002, 5.894212e+001
8.745610e+002, 5.937491e+001
8.750432e+002, 6.076471e+001
8.755253e+002, 6.166877e+001
8.760074e+002, 6.134502e+001
8.764895e+002, 6.073835e+001
8.769716e+002, 6.080003e+001
8.774537e+002, 6.132888e+001
8.779359e+002, 6.127224e+001
8.784180e+002, 5.988663e+001
8.789001e+002, 5.882413e+001
8.793822e+002, 5.957914e+001
8.798643e+002, 6.084581e+001
8.803464e+002, 6.126423e+001
8.808286e+002, 6.085796e+001
8.813107e+002, 5.989451e+001
8.817928e+002, 5.853445e+001
8.822749e+002, 5.736907e+001
8.827570e+002, 5.698529e+001
8.832391e+002, 5.732744e+001
8.837213e+002, 5.849177e+001
8.842034e+002, 6.040482e+001
8.846855e+002, 6.177420e+001
8.851676e+002, 6.227221e+001
8.856497e+002, 6.235157e+001
8.861318e+002, 6.230513e+001
8.866140e+002, 6.218744e+001
8.870961e+002, 6.218757e+001
8.875782e+002, 6.234749e+001
8.880603e+002, 6.251405e+001
8.885424e+002, 6.260950e+001
8.890245e+002, 6.281742e+001
8.895067e+002, 6.349076e+001
8.899888e+002, 6.414703e+001
8.904709e+002, 6.404833e+001
8.909530e+002, 6.318139e+001
8.914351e+002, 6.278554e+001
8.919172e+002, 6.370643e+001
8.923994e+002, 6.440778e+001
8.928815e+002, 6.397466e+001
8.933636e+002, 6.324929e+001
8.938457e+002, 6.295175e+001
8.943278e+002, 6.313720e+001
8.948099e+002, 6.374931e+001
8.952921e+002, 6.483759e+001
8.957742e+002, 6.571709e+001
8.962563e+002, 6.542564e+001
8.967384e+002, 6.465568e+001
8.972205e+002, 6.458728e+001
8.977026e+002, 6.515740e+001
8.981848e+002, 6.599797e+001
8.986669e+002, 6.696902e+001
8.991490e+002, 6.771940e+001
8.996311e+002, 6.788187e+001
9.001132e+002, 6.759135e+001
9.005953e+002, 6.732039e+001
9.010775e+002, 6.706123e+001
9.015596e+002, 6.688055e+001
9.020417e+002, 6.672588e+001
9.025238e+002, 6.689597e+001
9.030059e+002, 6.775628e+001
9.034880e+002, 6.886371e+001
9.039702e+002, 6.928582e+001
9.044523e+002, 6.883818e+001
9.049344e+002, 6.843419e+001
9.054165e+002, 6.792368e+001
9.058986e+002, 6.765113e+001
9.063807e+002, 6.779073e+001
9.068629e+002, 6.811931e+001
9.073450e+002, 6.845248e+001
9.078271e+002, 6.879929e+001
9.083092e+002, 6.927667e+001
9.087913e+002, 7.011093e+001
9.092734e+002, 7.068047e+001
9.097556e+002, 7.037436e+001
9.102377e+002, 6.997697e+001
9.107198e+002, 7.027402e+001
9.112019e+002, 7.100646e+001
9.116840e+002, 7.157271e+001
9.121661e+002, 7.179488e+001
9.126483e+002, 7.191080e+001
9.131304e+002, 7.219010e+001
9.136125e+002, 7.242068e+001
9.140946e+002, 7.192999e+001
9.145767e+002, 7.110461e+001
9.150588e+002, 7.136964e+001
9.155410e+002, 7.286977e+001
9.160231e+002, 7.450053e+001
9.165052e+002, 7.562099e+001
9.169873e+002, 7.616354e+001
9.174694e+002, 7.572907e+001
9.179515e+002, 7.424603e+001
9.184337e+002, 7.391535e+001
9.189158e+002, 7.502477e+001
9.193979e+002, 7.597362e+001
9.198800e+002, 7.608823e+001
9.203621e+002, 7.611887e+001
9.208442e+002, 7.702601e+001
9.213264e+002, 7.865250e+001
9.218085e+002, 7.928083e+001
9.222906e+002, 7.800125e+001
9.227727e+002, 7.721057e+001
9.232548e+002, 7.723784e+001
9.237369e+002, 7.750857e+001
9.242191e+002, 7.781905e+001
9.247012e+002, 7.817688e+001
9.251833e+002, 7.868112e+001
9.256654e+002, 7.935895e+001
9.261475e+002, 7.975854e+001
9.266296e+002, 7.944984e+001
9.271118e+002, 7.917627e+001
9.275939e+002, 7.926373e+001
9.280760e+002, 7.961796e+001
9.285581e+002, 8.023904e+001
9.290402e+002, 8.101883e+001
9.295223e+002, 8.171091e+001
9.300045e+002, 8.221935e+001
9.304866e+002, 8.254962e+001
9.309687e+002, 8.252478e+001
9.314508e+002, 8.243725e+001
9.319329e+002, 8.285236e+001
9.324150e+002, 8.361088e+001
9.328972e+002, 8.416191e+001
9.333793e+002, 8.435452e+001
9.338614e+002, 8.437357e+001
9.343435e+002, 8.434712e+001
9.348256e+002, 8.432819e+001
9.353077e+002, 8.443782e+001
9.357899e+002, 8.467485e+001
9.362720e+002, 8.507201e+001
9.367541e+002, 8.565010e+001
9.372362e+002, 8.612782e+001
9.377183e+002, 8.631721e+001
9.382004e+002, 8.650124e+001
9.386826e+002, 8.716759e+001
9.391647e+002, 8.833776e+001
9.396468e+002, 8.903068e+001
9.401289e+002, 8.910242e+001
9.406110e+002, 8.902391e+001
9.410931e+002, 8.865102e+001
9.415753e+002, 8.845452e+001
9.420574e+002, 8.901918e+001
9.425395e+002, 8.996564e+001
9.430216e+002, 9.019331e+001
9.435037e+002, 8.930437e+001
9.439858e+002, 8.891047e+001
9.444680e+002, 8.965697e+001
9.449501e+002, 9.028954e+001
9.454322e+002, 9.020164e+001
9.459143e+002, 8.987173e+001
9.463964e+002, 8.970958e+001
9.468785e+002, 8.978180e+001
9.473607e+002, 9.013499e+001
9.478428e+002, 9.097993e+001
9.483249e+002, 9.168781e+001
9.488070e+002, 9.207162e+001
9.492891e+002, 9.203089e+001
9.497712e+002, 9.101556e+001
9.502534e+002, 8.963652e+001
9.507355e+002, 8.915788e+001
9.512176e+002, 8.983959e+001
9.516997e+002, 9.076165e+001
9.521818e+002, 9.134759e+001
9.526639e+002, 9.164474e+001
9.531461e+002, 9.160996e+001
9.536282e+002, 9.136092e+001
9.541103e+002, 9.121544e+001
9.545924e+002, 9.116835e+001
9.550745e+002, 9.090182e+001
9.555566e+002, 9.025130e+001
9.560388e+002, 8.955851e+001
9.565209e+002, 8.942018e+001
9.570030e+002, 8.963431e+001
9.574851e+002, 8.893798e+001
9.579672e+002, 8.733764e+001
9.584493e+002, 8.651783e+001
9.589315e+002, 8.693668e+001
9.594136e+002, 8.754183e+001
9.598957e+002, 8.757069e+001
9.603778e+002, 8.721620e+001
9.608599e+002, 8.694046e+001
9.613420e+002, 8.671403e+001
9.618242e+002, 8.677660e+001
9.623063e+002, 8.737317e+001
9.627884e+002, 8.762902e+001
9.632705e+002, 8.704491e+001
9.637526e+002, 8.630338e+001
9.642347e+002, 8.629859e+001
9.647169e+002, 8.682410e+001
9.651990e+002, 8.634392e+001
9.656811e+002, 8.332387e+001
9.661632e+002, 8.166047e+001
9.666453e+002, 8.238359e+001
9.671274e+002, 8.329042e+001
9.676096e+002, 8.356568e+001
9.680917e+002, 8.344308e+001
9.685738e+002, 8.314255e+001
9.690559e+002, 8.271114e+001
9.695380e+002, 8.248011e+001
9.700201e+002, 8.278934e+001
9.705023e+002, 8.296209e+001
9.709844e+002, 8.248012e+001
9.714665e+002, 8.201965e+001
9.719486e+002, 8.234274e+001
9.724307e+002, 8.305000e+001
9.729128e+002, 8.322301e+001
9.733950e+002, 8.263199e+001
9.738771e+002, 8.203210e+001
9.743592e+002, 8.182227e+001
9.748413e+002, 8.184132e+001
9.753234e+002, 8.226790e+001
9.758055e+002, 8.265398e+001
9.762877e+002, 8.197174e+001
9.767698e+002, 8.055414e+001
9.772519e+002, 8.002068e+001
9.777340e+002, 8.115711e+001
9.782161e+002, 8.254874e+001
9.786982e+002, 8.273431e+001
9.791804e+002, 8.209063e+001
9.796625e+002, 8.099538e+001
9.801446e+002, 7.970702e+001
9.806267e+002, 7.909084e+001
9.811088e+002, 7.928442e+001
9.815909e+002, 7.975711e+001
9.820731e+002, 8.019785e+001
9.825552e+002, 8.039642e+001
9.830373e+002, 7.977173e+001
9.835194e+002, 7.848750e+001
9.840015e+002, 7.779856e+001
9.844836e+002, 7.773849e+001
9.849658e+002, 7.765793e+001
9.854479e+002, 7.736099e+001
9.859300e+002, 7.688886e+001
9.864121e+002, 7.622970e+001
9.868942e+002, 7.550268e+001
9.873763e+002, 7.518018e+001
9.878585e+002, 7.532926e+001
9.883406e+002, 7.545918e+001
9.888227e+002, 7.556432e+001
9.893048e+002, 7.560350e+001
9.897869e+002, 7.562215e+001
9.902690e+002, 7.543742e+001
9.907512e+002, 7.473823e+001
9.912333e+002, 7.359205e+001
9.917154e+002, 7.289159e+001
9.921975e+002, 7.295596e+001
9.926796e+002, 7.277243e+001
9.931617e+002, 7.192385e+001
9.936439e+002, 7.130299e+001
9.941260e+002, 7.135612e+001
9.946081e+002, 7.186613e+001
9.950902e+002, 7.280223e+001
9.955723e+002, 7.421741e+001
9.960544e+002, 7.452782e+001
9.965366e+002, 7.228316e+001
9.970187e+002, 7.092680e+001
9.975008e+002, 7.179533e+001
9.979829e+002, 7.290600e+001
9.984650e+002, 7.304814e+001
9.989471e+002, 7.260291e+001
9.994293e+002, 7.229536e+001
9.999114e+002, 7.222910e+001
1.000393e+003, 7.210070e+001
1.000876e+003, 7.146750e+001
1.001358e+003, 7.121418e+001
1.001840e+003, 7.229998e+001
1.002322e+003, 7.342664e+001
1.002804e+003, 7.328545e+001
1.003286e+003, 7.226286e+001
1.003768e+003, 7.139554e+001
1.004250e+003, 7.096198e+001
1.004733e+003, 7.082951e+001
1.005215e+003, 7.111829e+001
1.005697e+003, 7.148125e+001
1.006179e+003, 7.172121e+001
1.006661e+003, 7.183965e+001
1.007143e+003, 7.174194e+001
1.007625e+003, 7.153575e+001
1.008107e+003, 7.155083e+001
1.008589e+003, 7.193681e+001
1.009072e+003, 7.240036e+001
1.009554e+003, 7.280647e+001
1.010036e+003, 7.306132e+001
1.010518e+003, 7.272083e+001
1.011000e+003, 7.226265e+001
1.011482e+003, 7.281979e+001
1.011964e+003, 7.434544e+001
1.012446e+003, 7.577600e+001
1.012929e+003, 7.656934e+001
1.013411e+003, 7.676689e+001
1.013893e+003, 7.602579e+001
1.014375e+003, 7.492459e+001
1.014857e+003, 7.468084e+001
1.015339e+003, 7.513984e+001
1.015821e+003, 7.581112e+001
1.016303e+003, 7.649689e+001
1.016785e+003, 7.662608e+001
1.017268e+003, 7.570126e+001
1.017750e+003, 7.469981e+001
1.018232e+003, 7.568073e+001
1.018714e+003, 7.796545e+001
1.019196e+003, 7.846394e+001
1.019678e+003, 7.731838e+001
1.020160e+003, 7.675462e+001
1.020642e+003, 7.738177e+001
1.021125e+003, 7.809124e+001
1.021607e+003, 7.795355e+001
1.022089e+003, 7.745261e+001
1.022571e+003, 7.783933e+001
1.023053e+003, 7.904345e+001
1.023535e+003, 7.956176e+001
1.024017e+003, 7.931319e+001
1.024499e+003, 7.907443e+001
1.024981e+003, 7.907250e+001
1.025464e+003, 7.929153e+001
1.025946e+003, 7.976935e+001
1.026428e+003, 8.036267e+001
1.026910e+003, 8.060410e+001
1.027392e+003, 8.046249e+001
1.027874e+003, 8.017368e+001
1.028356e+003, 7.961325e+001
1.028838e+003, 7.961716e+001
1.029321e+003, 8.063607e+001
1.029803e+003, 8.187676e+001
1.030285e+003, 8.266350e+001
1.030767e+003, 8.296490e+001
1.031249e+003, 8.253297e+001
1.031731e+003, 8.099939e+001
1.032213e+003, 8.013093e+001
1.032695e+003, 8.002874e+001
1.033177e+003, 8.052577e+001
1.033660e+003, 8.192309e+001
1.034142e+003, 8.331324e+001
1.034624e+003, 8.377698e+001
1.035106e+003, 8.339859e+001
1.035588e+003, 8.262530e+001
1.036070e+003, 8.098223e+001
1.036552e+003, 8.012247e+001
1.037034e+003, 8.056116e+001
1.037516e+003, 8.094784e+001
1.037999e+003, 8.071622e+001
1.038481e+003, 8.027759e+001
1.038963e+003, 8.009008e+001
1.039445e+003, 8.010400e+001
1.039927e+003, 7.992606e+001
1.040409e+003, 7.930504e+001
1.040891e+003, 7.893641e+001
1.041373e+003, 7.892484e+001
1.041855e+003, 7.903790e+001
1.042338e+003, 7.939373e+001
1.042820e+003, 7.968788e+001
1.043302e+003, 7.951631e+001
1.043784e+003, 7.895422e+001
1.044266e+003, 7.859149e+001
1.044748e+003, 7.890649e+001
1.045230e+003, 7.864516e+001
1.045712e+003, 7.684987e+001
1.046195e+003, 7.554394e+001
1.046677e+003, 7.615182e+001
1.047159e+003, 7.720414e+001
1.047641e+003, 7.698035e+001
1.048123e+003, 7.563413e+001
1.048605e+003, 7.465128e+001
1.049087e+003, 7.427068e+001
1.049569e+003, 7.410548e+001
1.050052e+003, 7.458572e+001
1.050534e+003, 7.470199e+001
1.051016e+003, 7.353008e+001
1.051498e+003, 7.207684e+001
1.051980e+003, 7.141780e+001
1.052462e+003, 7.155317e+001
1.052944e+003, 7.199403e+001
1.053426e+003, 7.299026e+001
1.053908e+003, 7.360268e+001
1.054391e+003, 7.368649e+001
1.054873e+003, 7.325849e+001
1.055355e+003, 7.175913e+001
1.055837e+003, 7.014673e+001
1.056319e+003, 6.959904e+001
1.056801e+003, 7.000040e+001
1.057283e+003, 7.026952e+001
1.057765e+003, 7.010464e+001
1.058248e+003, 6.991222e+001
1.058730e+003, 6.987063e+001
1.059212e+003, 6.976445e+001
1.059694e+003, 6.944484e+001
1.060176e+003, 6.901580e+001
1.060658e+003, 6.864683e+001
1.061140e+003, 6.829480e+001
1.061622e+003, 6.765496e+001
1.062104e+003, 6.636687e+001
1.062587e+003, 6.559377e+001
1.063069e+003, 6.612541e+001
1.063551e+003, 6.687210e+001
1.064033e+003, 6.754360e+001
1.064515e+003, 6.784126e+001
1.064997e+003, 6.718559e+001
1.065479e+003, 6.586514e+001
1.065961e+003, 6.497099e+001
1.066443e+003, 6.483931e+001
1.066926e+003, 6.507712e+001
1.067408e+003, 6.586689e+001
1.067890e+003, 6.658824e+001
1.068372e+003, 6.703192e+001
1.068854e+003, 6.709046e+001
1.069336e+003, 6.637840e+001
1.069818e+003, 6.520188e+001
1.070300e+003, 6.456024e+001
1.070782e+003, 6.485725e+001
1.071265e+003, 6.510360e+001
1.071747e+003, 6.471589e+001
1.072229e+003, 6.431702e+001
1.072711e+003, 6.430691e+001
1.073193e+003, 6.446539e+001
1.073675e+003, 6.463158e+001
1.074157e+003, 6.472726e+001
1.074639e+003, 6.462076e+001
1.075122e+003, 6.425461e+001
1.075604e+003, 6.384823e+001
1.076086e+003, 6.343887e+001
1.076568e+003, 6.309321e+001
1.077050e+003, 6.271932e+001
1.077532e+003, 6.253301e+001
1.078014e+003, 6.291171e+001
1.078496e+003, 6.363800e+001
1.078979e+003, 6.414965e+001
1.079461e+003, 6.429693e+001
1.079943e+003, 6.435489e+001
1.080425e+003, 6.437651e+001
1.080907e+003, 6.442816e+001
1.081389e+003, 6.461501e+001
1.081871e+003, 6.479011e+001
1.082353e+003, 6.462452e+001
1.082835e+003, 6.439217e+001
1.083318e+003, 6.484742e+001
1.083800e+003, 6.614163e+001
1.084282e+003, 6.697871e+001
1.084764e+003, 6.648491e+001
1.085246e+003, 6.580104e+001
1.085728e+003, 6.523156e+001
1.086210e+003, 6.495979e+001
1.086692e+003, 6.536579e+001
1.087175e+003, 6.608836e+001
1.087657e+003, 6.649128e+001
1.088139e+003, 6.646867e+001
1.088621e+003, 6.636210e+001
1.089103e+003, 6.603711e+001
1.089585e+003, 6.603347e+001
1.090067e+003, 6.711205e+001
1.090549e+003, 6.807653e+001
1.091031e+003, 6.744812e+001
1.091514e+003, 6.638245e+001
1.091996e+003, 6.701870e+001
1.092478e+003, 6.934718e+001
1.092960e+003, 7.086806e+001
1.093442e+003, 7.036311e+001
1.093924e+003, 6.965495e+001
1.094406e+003, 6.923714e+001
1.094888e+003, 6.903442e+001
1.095370e+003, 6.902602e+001
1.095853e+003, 6.918365e+001
1.096335e+003, 6.959081e+001
1.096817e+003, 7.015997e+001
1.097299e+003, 7.046688e+001
1.097781e+003, 7.025106e+001
1.098263e+003, 7.015356e+001
1.098745e+003, 7.056060e+001
1.099227e+003, 7.092154e+001
1.099709e+003, 7.065242e+001
1.100192e+003, 7.041631e+001
1.100674e+003, 7.117095e+001
1.101156e+003, 7.258911e+001
1.101638e+003, 7.341808e+001
1.102120e+003, 7.333794e+001
1.102602e+003, 7.298123e+001
1.103084e+003, 7.218220e+001
1.103566e+003, 7.154234e+001
1.104049e+003, 7.129636e+001
1.104531e+003, 7.130633e+001
1.105013e+003, 7.154531e+001
1.105495e+003, 7.191634e+001
1.105977e+003, 7.221568e+001
1.106459e+003, 7.240258e+001
1.106941e+003, 7.263564e+001
1.107423e+003, 7.307254e+001
1.107906e+003, 7.337585e+001
1.108388e+003, 7.341671e+001
1.108870e+003, 7.333669e+001
1.109352e+003, 7.311707e+001
1.109834e+003, 7.288895e+001
1.110316e+003, 7.299020e+001
1.110798e+003, 7.347510e+001
1.111280e+003, 7.342330e+001
1.111762e+003, 7.214281e+001
1.112245e+003, 7.125979e+001
1.112727e+003, 7.120594e+001
1.113209e+003, 7.132028e+001
1.113691e+003, 7.148731e+001
1.114173e+003, 7.151747e+001
1.114655e+003, 7.091560e+001
1.115137e+003, 6.978665e+001
1.115619e+003, 6.958156e+001
1.116102e+003, 7.136993e+001
1.116584e+003, 7.216674e+001
1.117066e+003, 7.109093e+001
1.117548e+003, 7.027202e+001
1.118030e+003, 7.054674e+001
1.118512e+003, 7.127412e+001
1.118994e+003, 7.200225e+001
1.119476e+003, 7.265449e+001
1.119958e+003, 7.290485e+001
1.120441e+003, 7.263194e+001
1.120923e+003, 7.232177e+001
1.121405e+003, 7.185292e+001
1.121887e+003, 7.162208e+001
1.122369e+003, 7.176940e+001
1.122851e+003, 7.211947e+001
1.123333e+003, 7.259737e+001
1.123815e+003, 7.313746e+001
1.124297e+003, 7.360728e+001
1.124780e+003, 7.401118e+001
1.125262e+003, 7.422295e+001
1.125744e+003, 7.408183e+001
1.126226e+003, 7.443506e+001
1.126708e+003, 7.565337e+001
1.127190e+003, 7.661583e+001
1.127672e+003, 7.667406e+001
1.128154e+003, 7.620028e+001
1.128636e+003, 7.564764e+001
1.129119e+003, 7.507668e+001
1.129601e+003, 7.504633e+001
1.130083e+003, 7.560194e+001
1.130565e+003, 7.625787e+001
1.131047e+003, 7.700275e+001
1.131529e+003, 7.746576e+001
1.132011e+003, 7.747360e+001
1.132493e+003, 7.728678e+001
1.132976e+003, 7.713097e+001
1.133458e+003, 7.706084e+001
1.133940e+003, 7.720533e+001
1.134422e+003, 7.757088e+001
1.134904e+003, 7.834067e+001
1.135386e+003, 7.949485e+001
1.135868e+003, 8.049844e+001
1.136350e+003, 8.120714e+001
1.136833e+003, 8.179904e+001
1.137315e+003, 8.240125e+001
1.137797e+003, 8.297453e+001
1.138279e+003, 8.330840e+001
1.138761e+003, 8.358594e+001
1.139243e+003, 8.472004e+001
1.139725e+003, 8.639790e+001
1.140207e+003, 8.706259e+001
1.140689e+003, 8.665825e+001
1.141172e+003, 8.665067e+001
1.141654e+003, 8.773303e+001
1.142136e+003, 8.911370e+001
1.142618e+003, 9.007732e+001
1.143100e+003, 9.065221e+001
1.143582e+003, 9.063096e+001
1.144064e+003, 9.036345e+001
1.144546e+003, 9.045401e+001
1.145029e+003, 9.100801e+001
1.145511e+003, 9.228323e+001
1.145993e+003, 9.422567e+001
1.146475e+003, 9.588725e+001
1.146957e+003, 9.658217e+001
1.147439e+003, 9.685239e+001
1.147921e+003, 9.691203e+001
1.148403e+003, 9.711636e+001
1.148885e+003, 9.806619e+001
1.149368e+003, 9.939488e+001
1.149850e+003, 1.004044e+002
1.150332e+003, 1.010720e+002
1.150814e+003, 1.019434e+002
1.151296e+003, 1.033246e+002
1.151778e+003, 1.043784e+002
1.152260e+003, 1.041364e+002
1.152742e+003, 1.039299e+002
1.153224e+003, 1.047665e+002
1.153707e+003, 1.060319e+002
1.154189e+003, 1.072054e+002
1.154671e+003, 1.081913e+002
1.155153e+003, 1.088451e+002
1.155635e+003, 1.091341e+002
1.156117e+003, 1.097829e+002
1.156599e+003, 1.116646e+002
1.157081e+003, 1.130212e+002
1.157563e+003, 1.127986e+002
1.158046e+003, 1.124429e+002
1.158528e+003, 1.128378e+002
1.159010e+003, 1.136408e+002
1.159492e+003, 1.143004e+002
1.159974e+003, 1.148442e+002
1.160456e+003, 1.158231e+002
1.160938e+003, 1.179505e+002
1.161420e+003, 1.192020e+002
1.161903e+003, 1.183538e+002
1.162385e+003, 1.182606e+002
1.162867e+003, 1.201433e+002
1.163349e+003, 1.225529e+002
1.163831e+003, 1.246173e+002
1.164313e+003, 1.262421e+002
1.164795e+003, 1.270696e+002
1.165277e+003, 1.269419e+002
1.165760e+003, 1.273705e+002
1.166242e+003, 1.284376e+002
1.166724e+003, 1.298226e+002
1.167206e+003, 1.315168e+002
1.167688e+003, 1.334127e+002
1.168170e+003, 1.355352e+002
1.168652e+003, 1.375589e+002
1.169134e+003, 1.389498e+002
1.169616e+003, 1.399674e+002
1.170099e+003, 1.420103e+002
1.170581e+003, 1.451020e+002
1.171063e+003, 1.473477e+002
1.171545e+003, 1.486314e+002
1.172027e+003, 1.502570e+002
1.172509e+003, 1.526374e+002
1.172991e+003, 1.554934e+002
1.173473e+003, 1.586865e+002
1.173956e+003, 1.618263e+002
1.174438e+003, 1.641465e+002
1.174920e+003, 1.658884e+002
1.175402e+003, 1.677502e+002
1.175884e+003, 1.697165e+002
1.176366e+003, 1.716303e+002
1.176848e+003, 1.735369e+002
1.177330e+003, 1.756801e+002
1.177813e+003, 1.781793e+002
1.178295e+003, 1.811338e+002
1.178777e+003, 1.848970e+002
1.179259e+003, 1.888294e+002
1.179741e+003, 1.922474e+002
1.180223e+003, 1.952372e+002
1.180705e+003, 1.976963e+002
1.181187e+003, 1.998916e+002
1.181669e+003, 2.022331e+002
1.182151e+003, 2.048189e+002
1.182634e+003, 2.076246e+002
1.183116e+003, 2.106552e+002
1.183598e+003, 2.137931e+002
1.184080e+003, 2.171130e+002
1.184562e+003, 2.203311e+002
1.185044e+003, 2.231147e+002
1.185526e+003, 2.258117e+002
1.186008e+003, 2.290870e+002
1.186490e+003, 2.325085e+002
1.186973e+003, 2.350942e+002
1.187455e+003, 2.366702e+002
1.187937e+003, 2.374829e+002
1.188419e+003, 2.372746e+002
1.188901e+003, 2.367670e+002
1.189383e+003, 2.363444e+002
1.189865e+003, 2.353671e+002
1.190347e+003, 2.335540e+002
1.190830e+003, 2.309807e+002
1.191312e+003, 2.274945e+002
1.191794e+003, 2.232965e+002
1.192276e+003, 2.194168e+002
1.192758e+003, 2.162046e+002
1.193240e+003, 2.120859e+002
1.193722e+003, 2.069653e+002
1.194204e+003, 2.012018e+002
1.194687e+003, 1.947688e+002
1.195169e+003, 1.879492e+002
1.195651e+003, 1.806531e+002
1.196133e+003, 1.737726e+002
1.196615e+003, 1.689393e+002
1.197097e+003, 1.657075e+002
1.197579e+003, 1.610703e+002
1.198061e+003, 1.551039e+002
1.198543e+003, 1.498826e+002
1.199026e+003, 1.455317e+002
1.199508e+003, 1.408232e+002
1.199990e+003, 1.354089e+002
1.200472e+003, 1.304211e+002
1.200954e+003, 1.268671e+002
1.201436e+003, 1.239296e+002
1.201918e+003, 1.203295e+002
1.202400e+003, 1.164499e+002
1.202883e+003, 1.130458e+002
1.203365e+003, 1.100251e+002
1.203847e+003, 1.071170e+002
1.204329e+003, 1.043182e+002
1.204811e+003, 1.018222e+002
1.205293e+003, 9.969429e+001
1.205775e+003, 9.754554e+001
1.206257e+003, 9.496431e+001
1.206740e+003, 9.247083e+001
1.207222e+003, 9.054474e+001
1.207704e+003, 8.877728e+001
1.208186e+003, 8.673296e+001
1.208668e+003, 8.463745e+001
1.209150e+003, 8.277677e+001
1.209632e+003, 8.121095e+001
1.210114e+003, 8.000279e+001
1.210596e+003, 7.927170e+001
1.211078e+003, 7.856319e+001
1.211561e+003, 7.812385e+001
1.212043e+003, 7.721925e+001
1.212525e+003, 7.490855e+001
1.213007e+003, 7.285013e+001
1.213489e+003, 7.251483e+001
1.213971e+003, 7.276051e+001
1.214453e+003, 7.167846e+001
1.214935e+003, 6.938166e+001
1.215417e+003, 6.799284e+001
1.215900e+003, 6.773185e+001
1.216382e+003, 6.764520e+001
1.216864e+003, 6.785188e+001
1.217346e+003, 6.737358e+001
1.217828e+003, 6.573827e+001
1.218310e+003, 6.425602e+001
1.218792e+003, 6.396240e+001
1.219274e+003, 6.424885e+001
1.219757e+003, 6.401422e+001
1.220239e+003, 6.335707e+001
1.220721e+003, 6.270043e+001
1.221203e+003, 6.205025e+001
1.221685e+003, 6.146292e+001
1.222167e+003, 6.092510e+001
1.222649e+003, 6.021699e+001
1.223131e+003, 5.931533e+001
1.223614e+003, 5.889696e+001
1.224096e+003, 5.971197e+001
1.224578e+003, 6.048988e+001
1.225060e+003, 5.933759e+001
1.225542e+003, 5.780285e+001
1.226024e+003, 5.802620e+001
1.226506e+003, 5.898854e+001
1.226988e+003, 5.902341e+001
1.227470e+003, 5.817669e+001
1.227953e+003, 5.719587e+001
1.228435e+003, 5.627081e+001
1.228917e+003, 5.580708e+001
1.229399e+003, 5.667050e+001
1.229881e+003, 5.700028e+001
1.230363e+003, 5.560794e+001
1.230845e+003, 5.416875e+001
1.231327e+003, 5.376177e+001
1.231810e+003, 5.377137e+001
1.232292e+003, 5.337632e+001
1.232774e+003, 5.273022e+001
1.233256e+003, 5.251005e+001
1.233738e+003, 5.283673e+001
1.234220e+003, 5.311007e+001
1.234702e+003, 5.345168e+001
1.235184e+003, 5.323679e+001
1.235667e+003, 5.211805e+001
1.236149e+003, 5.140669e+001
1.236631e+003, 5.186558e+001
1.237113e+003, 5.265043e+001
1.237595e+003, 5.275998e+001
1.238077e+003, 5.239539e+001
1.238559e+003, 5.210608e+001
1.239041e+003, 5.189129e+001
1.239523e+003, 5.174939e+001
1.240005e+003, 5.167456e+001
1.240488e+003, 5.166551e+001
1.240970e+003, 5.170710e+001
1.241452e+003, 5.169740e+001
1.241934e+003, 5.158428e+001
1.242416e+003, 5.157868e+001
1.242898e+003, 5.213702e+001
1.243380e+003, 5.259515e+001
1.243862e+003, 5.214024e+001
1.244344e+003, 5.134601e+001
1.244827e+003, 5.078319e+001
1.245309e+003, 5.040382e+001
1.245791e+003, 4.995707e+001
1.246273e+003, 4.948999e+001
1.246755e+003, 4.942884e+001
1.247237e+003, 5.005758e+001
1.247719e+003, 5.048069e+001
1.248201e+003, 5.039598e+001
1.248684e+003, 5.022297e+001
1.249166e+003, 5.003089e+001
1.249648e+003, 4.984411e+001
1.250130e+003, 4.968681e+001
1.250612e+003, 4.952920e+001
1.251094e+003, 4.930987e+001
1.251576e+003, 4.905483e+001
1.252058e+003, 4.894782e+001
1.252541e+003, 4.901556e+001
1.253023e+003, 4.898410e+001
1.253505e+003, 4.881212e+001
1.253987e+003, 4.915574e+001
1.254469e+003, 5.019151e+001
1.254951e+003, 5.046052e+001
1.255433e+003, 4.907287e+001
1.255915e+003, 4.743634e+001
1.256397e+003, 4.726650e+001
1.256880e+003, 4.799831e+001
1.257362e+003, 4.891721e+001
1.257844e+003, 4.969363e+001
1.258326e+003, 4.944698e+001
1.258808e+003, 4.855851e+001
1.259290e+003, 4.802096e+001
1.259772e+003, 4.795370e+001
1.260254e+003, 4.784669e+001
1.260737e+003, 4.748296e+001
1.261219e+003, 4.716434e+001
1.261701e+003, 4.706692e+001
1.262183e+003, 4.703128e+001
1.262665e+003, 4.692121e+001
1.263147e+003, 4.690684e+001
1.263629e+003, 4.719497e+001
1.264111e+003, 4.760302e+001
1.264594e+003, 4.792656e+001
1.265076e+003, 4.813670e+001
1.265558e+003, 4.808389e+001
1.266040e+003, 4.754357e+001
1.266522e+003, 4.761941e+001
1.267004e+003, 4.856698e+001
1.267486e+003, 4.922976e+001
1.267968e+003, 4.937079e+001
1.268450e+003, 4.930662e+001
1.268932e+003, 4.921027e+001
1.269415e+003, 4.885777e+001
1.269897e+003, 4.787513e+001
1.270379e+003, 4.672119e+001
1.270861e+003, 4.664897e+001
1.271343e+003, 4.727179e+001
1.271825e+003, 4.740204e+001
1.272307e+003, 4.717291e+001
1.272789e+003, 4.720818e+001
1.273271e+003, 4.749980e+001
1.273754e+003, 4.753342e+001
1.274236e+003, 4.711957e+001
1.274718e+003, 4.657105e+001
1.275200e+003, 4.579696e+001
1.275682e+003, 4.539450e+001
1.276164e+003, 4.594192e+001
1.276646e+003, 4.673996e+001
1.277128e+003, 4.769555e+001
1.277611e+003, 4.830188e+001
1.278093e+003, 4.762321e+001
1.278575e+003, 4.616944e+001
1.279057e+003, 4.577142e+001
1.279539e+003, 4.667537e+001
1.280021e+003, 4.701223e+001
1.280503e+003, 4.658488e+001
1.280985e+003, 4.605400e+001
1.281468e+003, 4.534040e+001
1.281950e+003, 4.524456e+001
1.282432e+003, 4.620238e+001
1.282914e+003, 4.701164e+001
1.283396e+003, 4.661456e+001
1.283878e+003, 4.571138e+001
1.284360e+003, 4.556291e+001
1.284842e+003, 4.594451e+001
1.285324e+003, 4.622854e+001
##END=



