##NAMES=Robertsite
##RRUFFID=R130045
##IDEAL CHEMISTRY=Ca_2_Mn^3+^_3_O_2_(PO_4_)_3_&#183;3H_2_O
##LOCALITY=Tip Top mine, Custer, South Dakota, USA
##OWNER=RRUFF
##SOURCE=Thomas A. Loomis
##DESCRIPTION=Dark red plates, associated with quartz and apatite
##STATUS=The identification of this mineral has been confirmed by single-crystal X-ray diffraction.
##URL=rruff.info/R130045
8.975323e+001, 0.000000e+000
9.023535e+001, 1.930880e+002
9.071747e+001, 1.960932e+002
9.119958e+001, 1.964287e+002
9.168170e+001, 1.951022e+002
9.216382e+001, 1.920484e+002
9.264594e+001, 1.885159e+002
9.312805e+001, 1.854779e+002
9.361017e+001, 1.828454e+002
9.409229e+001, 1.793973e+002
9.457440e+001, 1.745866e+002
9.505651e+001, 1.698902e+002
9.553863e+001, 1.651789e+002
9.602074e+001, 1.607805e+002
9.650286e+001, 1.570776e+002
9.698498e+001, 1.541297e+002
9.746709e+001, 1.514033e+002
9.794921e+001, 1.484754e+002
9.843133e+001, 1.450286e+002
9.891344e+001, 1.418105e+002
9.939556e+001, 1.388683e+002
9.987768e+001, 1.362131e+002
1.003598e+002, 1.339944e+002
1.008419e+002, 1.323624e+002
1.013240e+002, 1.312448e+002
1.018061e+002, 1.301364e+002
1.022883e+002, 1.289845e+002
1.027704e+002, 1.278493e+002
1.032525e+002, 1.267763e+002
1.037346e+002, 1.257467e+002
1.042167e+002, 1.248083e+002
1.046988e+002, 1.240455e+002
1.051810e+002, 1.233547e+002
1.056631e+002, 1.225919e+002
1.061452e+002, 1.217740e+002
1.066273e+002, 1.208435e+002
1.071094e+002, 1.195233e+002
1.075915e+002, 1.174450e+002
1.080737e+002, 1.153967e+002
1.085558e+002, 1.136475e+002
1.090379e+002, 1.121775e+002
1.095200e+002, 1.109219e+002
1.100021e+002, 1.098355e+002
1.104842e+002, 1.089378e+002
1.109664e+002, 1.081376e+002
1.114485e+002, 1.072653e+002
1.119306e+002, 1.066062e+002
1.124127e+002, 1.064386e+002
1.128948e+002, 1.067302e+002
1.133769e+002, 1.071384e+002
1.138591e+002, 1.071661e+002
1.143412e+002, 1.065283e+002
1.148233e+002, 1.059762e+002
1.153054e+002, 1.057310e+002
1.157875e+002, 1.054681e+002
1.162696e+002, 1.047859e+002
1.167517e+002, 1.035174e+002
1.172339e+002, 1.019701e+002
1.177160e+002, 1.008901e+002
1.181981e+002, 1.003299e+002
1.186802e+002, 9.996099e+001
1.191623e+002, 9.975144e+001
1.196444e+002, 9.967126e+001
1.201266e+002, 9.965043e+001
1.206087e+002, 9.969485e+001
1.210908e+002, 9.974952e+001
1.215729e+002, 9.975590e+001
1.220550e+002, 9.981173e+001
1.225371e+002, 9.965432e+001
1.230193e+002, 9.889523e+001
1.235014e+002, 9.744172e+001
1.239835e+002, 9.616200e+001
1.244656e+002, 9.564466e+001
1.249477e+002, 9.546392e+001
1.254298e+002, 9.527567e+001
1.259120e+002, 9.495926e+001
1.263941e+002, 9.457996e+001
1.268762e+002, 9.430161e+001
1.273583e+002, 9.422160e+001
1.278404e+002, 9.407716e+001
1.283225e+002, 9.377589e+001
1.288047e+002, 9.337704e+001
1.292868e+002, 9.296815e+001
1.297689e+002, 9.261526e+001
1.302510e+002, 9.230647e+001
1.307331e+002, 9.186102e+001
1.312152e+002, 9.122679e+001
1.316974e+002, 9.049165e+001
1.321795e+002, 8.953299e+001
1.326616e+002, 8.846677e+001
1.331437e+002, 8.756224e+001
1.336258e+002, 8.708384e+001
1.341079e+002, 8.713870e+001
1.345901e+002, 8.688946e+001
1.350722e+002, 8.606920e+001
1.355543e+002, 8.521947e+001
1.360364e+002, 8.472312e+001
1.365185e+002, 8.458769e+001
1.370006e+002, 8.447486e+001
1.374828e+002, 8.398429e+001
1.379649e+002, 8.301549e+001
1.384470e+002, 8.213023e+001
1.389291e+002, 8.135279e+001
1.394112e+002, 8.067352e+001
1.398933e+002, 8.008387e+001
1.403755e+002, 7.958688e+001
1.408576e+002, 7.917332e+001
1.413397e+002, 7.886880e+001
1.418218e+002, 7.866309e+001
1.423039e+002, 7.845183e+001
1.427860e+002, 7.814390e+001
1.432681e+002, 7.778455e+001
1.437503e+002, 7.752365e+001
1.442324e+002, 7.734907e+001
1.447145e+002, 7.736149e+001
1.451966e+002, 7.773314e+001
1.456787e+002, 7.845633e+001
1.461608e+002, 7.907621e+001
1.466430e+002, 7.911076e+001
1.471251e+002, 7.848675e+001
1.476072e+002, 7.798941e+001
1.480893e+002, 7.774366e+001
1.485714e+002, 7.769029e+001
1.490535e+002, 7.789172e+001
1.495357e+002, 7.834303e+001
1.500178e+002, 7.886408e+001
1.504999e+002, 7.917565e+001
1.509820e+002, 7.917883e+001
1.514641e+002, 7.918098e+001
1.519462e+002, 7.920669e+001
1.524284e+002, 7.924767e+001
1.529105e+002, 7.929469e+001
1.533926e+002, 7.934459e+001
1.538747e+002, 7.940556e+001
1.543568e+002, 7.950011e+001
1.548389e+002, 7.971598e+001
1.553211e+002, 7.985598e+001
1.558032e+002, 7.977715e+001
1.562853e+002, 7.965656e+001
1.567674e+002, 7.970989e+001
1.572495e+002, 8.004789e+001
1.577316e+002, 8.061834e+001
1.582138e+002, 8.121285e+001
1.586959e+002, 8.215043e+001
1.591780e+002, 8.276453e+001
1.596601e+002, 8.270222e+001
1.601422e+002, 8.217532e+001
1.606243e+002, 8.164831e+001
1.611065e+002, 8.135824e+001
1.615886e+002, 8.130145e+001
1.620707e+002, 8.138467e+001
1.625528e+002, 8.170473e+001
1.630349e+002, 8.205806e+001
1.635170e+002, 8.239160e+001
1.639991e+002, 8.269415e+001
1.644813e+002, 8.283155e+001
1.649634e+002, 8.262986e+001
1.654455e+002, 8.221488e+001
1.659276e+002, 8.189185e+001
1.664097e+002, 8.171581e+001
1.668918e+002, 8.162405e+001
1.673740e+002, 8.161480e+001
1.678561e+002, 8.174094e+001
1.683382e+002, 8.169691e+001
1.688203e+002, 8.107348e+001
1.693024e+002, 8.022563e+001
1.697845e+002, 7.959372e+001
1.702667e+002, 7.941753e+001
1.707488e+002, 7.951621e+001
1.712309e+002, 7.949334e+001
1.717130e+002, 7.935722e+001
1.721951e+002, 7.906197e+001
1.726772e+002, 7.849084e+001
1.731594e+002, 7.779691e+001
1.736415e+002, 7.718952e+001
1.741236e+002, 7.678939e+001
1.746057e+002, 7.657818e+001
1.750878e+002, 7.645736e+001
1.755699e+002, 7.652599e+001
1.760521e+002, 7.658083e+001
1.765342e+002, 7.658213e+001
1.770163e+002, 7.653101e+001
1.774984e+002, 7.642564e+001
1.779805e+002, 7.624871e+001
1.784626e+002, 7.599854e+001
1.789448e+002, 7.588102e+001
1.794269e+002, 7.608911e+001
1.799090e+002, 7.623968e+001
1.803911e+002, 7.620153e+001
1.808732e+002, 7.600367e+001
1.813553e+002, 7.574142e+001
1.818375e+002, 7.548721e+001
1.823196e+002, 7.523644e+001
1.828017e+002, 7.504722e+001
1.832838e+002, 7.484985e+001
1.837659e+002, 7.475461e+001
1.842480e+002, 7.490232e+001
1.847301e+002, 7.524570e+001
1.852123e+002, 7.555208e+001
1.856944e+002, 7.558869e+001
1.861765e+002, 7.530499e+001
1.866586e+002, 7.514150e+001
1.871407e+002, 7.525499e+001
1.876228e+002, 7.537509e+001
1.881050e+002, 7.524175e+001
1.885871e+002, 7.483959e+001
1.890692e+002, 7.445107e+001
1.895513e+002, 7.437772e+001
1.900334e+002, 7.461473e+001
1.905155e+002, 7.481093e+001
1.909977e+002, 7.495206e+001
1.914798e+002, 7.502464e+001
1.919619e+002, 7.501781e+001
1.924440e+002, 7.493199e+001
1.929261e+002, 7.475713e+001
1.934082e+002, 7.442222e+001
1.938904e+002, 7.397426e+001
1.943725e+002, 7.354810e+001
1.948546e+002, 7.318835e+001
1.953367e+002, 7.287611e+001
1.958188e+002, 7.254136e+001
1.963009e+002, 7.211092e+001
1.967831e+002, 7.181820e+001
1.972652e+002, 7.194375e+001
1.977473e+002, 7.234538e+001
1.982294e+002, 7.266062e+001
1.987115e+002, 7.266032e+001
1.991936e+002, 7.241013e+001
1.996758e+002, 7.218776e+001
2.001579e+002, 7.199783e+001
2.006400e+002, 7.184165e+001
2.011221e+002, 7.175881e+001
2.016042e+002, 7.171138e+001
2.020863e+002, 7.160754e+001
2.025685e+002, 7.135936e+001
2.030506e+002, 7.097665e+001
2.035327e+002, 7.063000e+001
2.040148e+002, 7.023341e+001
2.044969e+002, 6.998180e+001
2.049790e+002, 7.006517e+001
2.054612e+002, 7.036439e+001
2.059433e+002, 7.059731e+001
2.064254e+002, 7.049596e+001
2.069075e+002, 7.003489e+001
2.073896e+002, 6.973443e+001
2.078717e+002, 6.981278e+001
2.083539e+002, 6.986079e+001
2.088360e+002, 6.965837e+001
2.093181e+002, 6.929655e+001
2.098002e+002, 6.902975e+001
2.102823e+002, 6.908867e+001
2.107644e+002, 6.950013e+001
2.112466e+002, 7.000403e+001
2.117287e+002, 7.069203e+001
2.122108e+002, 7.137676e+001
2.126929e+002, 7.207436e+001
2.131750e+002, 7.272305e+001
2.136571e+002, 7.317603e+001
2.141393e+002, 7.326235e+001
2.146214e+002, 7.289454e+001
2.151035e+002, 7.278596e+001
2.155856e+002, 7.320217e+001
2.160677e+002, 7.358301e+001
2.165498e+002, 7.351436e+001
2.170320e+002, 7.308556e+001
2.175141e+002, 7.279008e+001
2.179962e+002, 7.312688e+001
2.184783e+002, 7.420611e+001
2.189604e+002, 7.491245e+001
2.194425e+002, 7.495348e+001
2.199247e+002, 7.491003e+001
2.204068e+002, 7.518877e+001
2.208889e+002, 7.577425e+001
2.213710e+002, 7.631644e+001
2.218531e+002, 7.648307e+001
2.223352e+002, 7.624402e+001
2.228174e+002, 7.619114e+001
2.232995e+002, 7.657488e+001
2.237816e+002, 7.696040e+001
2.242637e+002, 7.694223e+001
2.247458e+002, 7.651982e+001
2.252279e+002, 7.611711e+001
2.257100e+002, 7.612221e+001
2.261922e+002, 7.648180e+001
2.266743e+002, 7.668739e+001
2.271564e+002, 7.672701e+001
2.276385e+002, 7.658842e+001
2.281206e+002, 7.617999e+001
2.286027e+002, 7.548995e+001
2.290849e+002, 7.481201e+001
2.295670e+002, 7.441970e+001
2.300491e+002, 7.420809e+001
2.305312e+002, 7.387870e+001
2.310133e+002, 7.324560e+001
2.314954e+002, 7.255119e+001
2.319776e+002, 7.213632e+001
2.324597e+002, 7.205406e+001
2.329418e+002, 7.187768e+001
2.334239e+002, 7.117354e+001
2.339060e+002, 7.022340e+001
2.343881e+002, 6.945348e+001
2.348703e+002, 6.901051e+001
2.353524e+002, 6.875951e+001
2.358345e+002, 6.857925e+001
2.363166e+002, 6.852119e+001
2.367987e+002, 6.831069e+001
2.372808e+002, 6.751860e+001
2.377630e+002, 6.658103e+001
2.382451e+002, 6.605354e+001
2.387272e+002, 6.630018e+001
2.392093e+002, 6.674738e+001
2.396914e+002, 6.633289e+001
2.401735e+002, 6.469110e+001
2.406557e+002, 6.336138e+001
2.411378e+002, 6.316589e+001
2.416199e+002, 6.346130e+001
2.421020e+002, 6.369133e+001
2.425841e+002, 6.366856e+001
2.430662e+002, 6.350409e+001
2.435484e+002, 6.339317e+001
2.440305e+002, 6.337751e+001
2.445126e+002, 6.329962e+001
2.449947e+002, 6.301218e+001
2.454768e+002, 6.270194e+001
2.459589e+002, 6.259039e+001
2.464410e+002, 6.276709e+001
2.469232e+002, 6.298296e+001
2.474053e+002, 6.274937e+001
2.478874e+002, 6.180127e+001
2.483695e+002, 6.103713e+001
2.488516e+002, 6.068297e+001
2.493337e+002, 6.050833e+001
2.498159e+002, 6.035622e+001
2.502980e+002, 6.017646e+001
2.507801e+002, 6.000181e+001
2.512622e+002, 5.988691e+001
2.517443e+002, 5.984894e+001
2.522264e+002, 5.983758e+001
2.527086e+002, 5.993377e+001
2.531907e+002, 5.999624e+001
2.536728e+002, 5.984950e+001
2.541549e+002, 5.947821e+001
2.546370e+002, 5.910291e+001
2.551191e+002, 5.909145e+001
2.556013e+002, 5.968132e+001
2.560834e+002, 6.013122e+001
2.565655e+002, 6.045655e+001
2.570476e+002, 6.064801e+001
2.575297e+002, 6.066414e+001
2.580118e+002, 6.051496e+001
2.584940e+002, 6.028247e+001
2.589761e+002, 6.005995e+001
2.594582e+002, 5.979190e+001
2.599403e+002, 5.969117e+001
2.604224e+002, 5.977467e+001
2.609045e+002, 5.997148e+001
2.613867e+002, 6.031800e+001
2.618688e+002, 6.077330e+001
2.623509e+002, 6.117615e+001
2.628330e+002, 6.133050e+001
2.633151e+002, 6.114869e+001
2.637972e+002, 6.102702e+001
2.642794e+002, 6.100704e+001
2.647615e+002, 6.100022e+001
2.652436e+002, 6.090586e+001
2.657257e+002, 6.075490e+001
2.662078e+002, 6.069850e+001
2.666899e+002, 6.090472e+001
2.671721e+002, 6.143356e+001
2.676542e+002, 6.183989e+001
2.681363e+002, 6.215717e+001
2.686184e+002, 6.235275e+001
2.691005e+002, 6.232626e+001
2.695826e+002, 6.213853e+001
2.700648e+002, 6.197482e+001
2.705469e+002, 6.198165e+001
2.710290e+002, 6.216234e+001
2.715111e+002, 6.244090e+001
2.719932e+002, 6.285493e+001
2.724753e+002, 6.330534e+001
2.729575e+002, 6.374605e+001
2.734396e+002, 6.418649e+001
2.739217e+002, 6.467980e+001
2.744038e+002, 6.528666e+001
2.748859e+002, 6.598111e+001
2.753680e+002, 6.641140e+001
2.758501e+002, 6.623457e+001
2.763322e+002, 6.622782e+001
2.768144e+002, 6.674557e+001
2.772965e+002, 6.763454e+001
2.777786e+002, 6.855894e+001
2.782607e+002, 6.935420e+001
2.787428e+002, 7.002220e+001
2.792249e+002, 7.055941e+001
2.797071e+002, 7.069954e+001
2.801892e+002, 7.104456e+001
2.806713e+002, 7.186028e+001
2.811534e+002, 7.296868e+001
2.816355e+002, 7.409568e+001
2.821176e+002, 7.514510e+001
2.825998e+002, 7.607774e+001
2.830819e+002, 7.673168e+001
2.835640e+002, 7.694169e+001
2.840461e+002, 7.723788e+001
2.845282e+002, 7.767259e+001
2.850103e+002, 7.827168e+001
2.854925e+002, 7.910471e+001
2.859746e+002, 8.021036e+001
2.864567e+002, 8.147398e+001
2.869388e+002, 8.277332e+001
2.874209e+002, 8.421844e+001
2.879030e+002, 8.532521e+001
2.883852e+002, 8.583746e+001
2.888673e+002, 8.603495e+001
2.893494e+002, 8.616629e+001
2.898315e+002, 8.627758e+001
2.903136e+002, 8.652925e+001
2.907957e+002, 8.723331e+001
2.912779e+002, 8.848830e+001
2.917600e+002, 8.936467e+001
2.922421e+002, 8.954487e+001
2.927242e+002, 8.943312e+001
2.932063e+002, 8.941143e+001
2.936884e+002, 8.952922e+001
2.941706e+002, 8.963511e+001
2.946527e+002, 8.956128e+001
2.951348e+002, 8.930752e+001
2.956169e+002, 8.918002e+001
2.960990e+002, 8.948843e+001
2.965811e+002, 8.971032e+001
2.970633e+002, 8.936704e+001
2.975454e+002, 8.847887e+001
2.980275e+002, 8.746861e+001
2.985096e+002, 8.658709e+001
2.989917e+002, 8.583979e+001
2.994738e+002, 8.516218e+001
2.999560e+002, 8.468107e+001
3.004381e+002, 8.415921e+001
3.009202e+002, 8.337345e+001
3.014023e+002, 8.239179e+001
3.018844e+002, 8.151920e+001
3.023665e+002, 8.092457e+001
3.028487e+002, 8.054276e+001
3.033308e+002, 8.016207e+001
3.038129e+002, 7.985046e+001
3.042950e+002, 7.943374e+001
3.047771e+002, 7.866710e+001
3.052592e+002, 7.772338e+001
3.057414e+002, 7.709489e+001
3.062235e+002, 7.703755e+001
3.067056e+002, 7.725156e+001
3.071877e+002, 7.716245e+001
3.076698e+002, 7.674871e+001
3.081519e+002, 7.623975e+001
3.086341e+002, 7.561119e+001
3.091162e+002, 7.495538e+001
3.095983e+002, 7.446420e+001
3.100804e+002, 7.421023e+001
3.105625e+002, 7.403210e+001
3.110446e+002, 7.371626e+001
3.115268e+002, 7.326116e+001
3.120089e+002, 7.280532e+001
3.124910e+002, 7.239692e+001
3.129731e+002, 7.199195e+001
3.134552e+002, 7.147211e+001
3.139373e+002, 7.081251e+001
3.144195e+002, 7.027048e+001
3.149016e+002, 7.016682e+001
3.153837e+002, 7.046606e+001
3.158658e+002, 7.056721e+001
3.163479e+002, 7.037862e+001
3.168300e+002, 7.000497e+001
3.173121e+002, 6.949582e+001
3.177943e+002, 6.886019e+001
3.182764e+002, 6.815267e+001
3.187585e+002, 6.733485e+001
3.192406e+002, 6.649083e+001
3.197227e+002, 6.593571e+001
3.202048e+002, 6.593472e+001
3.206870e+002, 6.594691e+001
3.211691e+002, 6.566405e+001
3.216512e+002, 6.514502e+001
3.221333e+002, 6.457415e+001
3.226154e+002, 6.401018e+001
3.230975e+002, 6.348330e+001
3.235797e+002, 6.309753e+001
3.240618e+002, 6.293499e+001
3.245439e+002, 6.270983e+001
3.250260e+002, 6.223048e+001
3.255081e+002, 6.163191e+001
3.259902e+002, 6.120601e+001
3.264724e+002, 6.107928e+001
3.269545e+002, 6.101583e+001
3.274366e+002, 6.058436e+001
3.279187e+002, 5.970150e+001
3.284008e+002, 5.900351e+001
3.288829e+002, 5.880129e+001
3.293651e+002, 5.875635e+001
3.298472e+002, 5.838335e+001
3.303293e+002, 5.759814e+001
3.308114e+002, 5.689876e+001
3.312935e+002, 5.692727e+001
3.317756e+002, 5.775191e+001
3.322578e+002, 5.788098e+001
3.327399e+002, 5.667212e+001
3.332220e+002, 5.520589e+001
3.337041e+002, 5.425842e+001
3.341862e+002, 5.383046e+001
3.346683e+002, 5.349711e+001
3.351505e+002, 5.296317e+001
3.356326e+002, 5.227466e+001
3.361147e+002, 5.177877e+001
3.365968e+002, 5.171055e+001
3.370789e+002, 5.156112e+001
3.375610e+002, 5.105217e+001
3.380432e+002, 5.029576e+001
3.385253e+002, 4.955278e+001
3.390074e+002, 4.893415e+001
3.394895e+002, 4.842577e+001
3.399716e+002, 4.802132e+001
3.404537e+002, 4.787455e+001
3.409359e+002, 4.754566e+001
3.414180e+002, 4.675491e+001
3.419001e+002, 4.580613e+001
3.423822e+002, 4.515710e+001
3.428643e+002, 4.494152e+001
3.433464e+002, 4.481717e+001
3.438286e+002, 4.427290e+001
3.443107e+002, 4.303371e+001
3.447928e+002, 4.220015e+001
3.452749e+002, 4.208748e+001
3.457570e+002, 4.217399e+001
3.462391e+002, 4.211055e+001
3.467213e+002, 4.185058e+001
3.472034e+002, 4.146004e+001
3.476855e+002, 4.098021e+001
3.481676e+002, 4.040216e+001
3.486497e+002, 3.990920e+001
3.491318e+002, 3.947224e+001
3.496140e+002, 3.913194e+001
3.500961e+002, 3.893836e+001
3.505782e+002, 3.885932e+001
3.510603e+002, 3.883720e+001
3.515424e+002, 3.884871e+001
3.520245e+002, 3.887056e+001
3.525067e+002, 3.879820e+001
3.529888e+002, 3.859376e+001
3.534709e+002, 3.834321e+001
3.539530e+002, 3.797489e+001
3.544351e+002, 3.759774e+001
3.549172e+002, 3.735931e+001
3.553994e+002, 3.730762e+001
3.558815e+002, 3.733490e+001
3.563636e+002, 3.725050e+001
3.568457e+002, 3.693576e+001
3.573278e+002, 3.675554e+001
3.578099e+002, 3.680122e+001
3.582920e+002, 3.689915e+001
3.587741e+002, 3.693134e+001
3.592563e+002, 3.688964e+001
3.597384e+002, 3.684121e+001
3.602205e+002, 3.686186e+001
3.607026e+002, 3.696999e+001
3.611847e+002, 3.696423e+001
3.616668e+002, 3.666173e+001
3.621490e+002, 3.644209e+001
3.626311e+002, 3.643018e+001
3.631132e+002, 3.659550e+001
3.635953e+002, 3.690193e+001
3.640774e+002, 3.734909e+001
3.645595e+002, 3.785592e+001
3.650417e+002, 3.806256e+001
3.655238e+002, 3.763791e+001
3.660059e+002, 3.735865e+001
3.664880e+002, 3.736977e+001
3.669701e+002, 3.753322e+001
3.674522e+002, 3.773335e+001
3.679344e+002, 3.792662e+001
3.684165e+002, 3.810810e+001
3.688986e+002, 3.824897e+001
3.693807e+002, 3.828106e+001
3.698628e+002, 3.846576e+001
3.703449e+002, 3.897168e+001
3.708271e+002, 3.948840e+001
3.713092e+002, 3.985255e+001
3.717913e+002, 4.006690e+001
3.722734e+002, 4.023993e+001
3.727555e+002, 4.046249e+001
3.732376e+002, 4.073236e+001
3.737198e+002, 4.098397e+001
3.742019e+002, 4.117671e+001
3.746840e+002, 4.140458e+001
3.751661e+002, 4.173230e+001
3.756482e+002, 4.210601e+001
3.761303e+002, 4.241888e+001
3.766125e+002, 4.259403e+001
3.770946e+002, 4.274404e+001
3.775767e+002, 4.316132e+001
3.780588e+002, 4.397394e+001
3.785409e+002, 4.468944e+001
3.790230e+002, 4.511830e+001
3.795052e+002, 4.543207e+001
3.799873e+002, 4.573511e+001
3.804694e+002, 4.604963e+001
3.809515e+002, 4.639090e+001
3.814336e+002, 4.679449e+001
3.819157e+002, 4.725889e+001
3.823979e+002, 4.767434e+001
3.828800e+002, 4.803660e+001
3.833621e+002, 4.832691e+001
3.838442e+002, 4.851715e+001
3.843263e+002, 4.862868e+001
3.848084e+002, 4.874359e+001
3.852906e+002, 4.891137e+001
3.857727e+002, 4.911039e+001
3.862548e+002, 4.931172e+001
3.867369e+002, 4.953615e+001
3.872190e+002, 4.968438e+001
3.877011e+002, 4.964133e+001
3.881833e+002, 4.950004e+001
3.886654e+002, 4.939693e+001
3.891475e+002, 4.939917e+001
3.896296e+002, 4.936840e+001
3.901117e+002, 4.910706e+001
3.905938e+002, 4.865752e+001
3.910760e+002, 4.838020e+001
3.915581e+002, 4.846848e+001
3.920402e+002, 4.868787e+001
3.925223e+002, 4.872147e+001
3.930044e+002, 4.856797e+001
3.934865e+002, 4.834219e+001
3.939687e+002, 4.807043e+001
3.944508e+002, 4.776020e+001
3.949329e+002, 4.741105e+001
3.954150e+002, 4.701487e+001
3.958971e+002, 4.663803e+001
3.963792e+002, 4.637815e+001
3.968614e+002, 4.620968e+001
3.973435e+002, 4.587626e+001
3.978256e+002, 4.519430e+001
3.983077e+002, 4.449102e+001
3.987898e+002, 4.394733e+001
3.992719e+002, 4.355767e+001
3.997540e+002, 4.330892e+001
4.002361e+002, 4.323181e+001
4.007183e+002, 4.323139e+001
4.012004e+002, 4.301388e+001
4.016825e+002, 4.240739e+001
4.021646e+002, 4.191963e+001
4.026467e+002, 4.172496e+001
4.031288e+002, 4.165462e+001
4.036110e+002, 4.152165e+001
4.040931e+002, 4.128345e+001
4.045752e+002, 4.100673e+001
4.050573e+002, 4.077685e+001
4.055394e+002, 4.062369e+001
4.060215e+002, 4.036310e+001
4.065037e+002, 3.984645e+001
4.069858e+002, 3.937862e+001
4.074679e+002, 3.914850e+001
4.079500e+002, 3.909300e+001
4.084321e+002, 3.902377e+001
4.089142e+002, 3.881624e+001
4.093964e+002, 3.851564e+001
4.098785e+002, 3.833141e+001
4.103606e+002, 3.847216e+001
4.108427e+002, 3.845615e+001
4.113248e+002, 3.810059e+001
4.118069e+002, 3.765176e+001
4.122891e+002, 3.733487e+001
4.127712e+002, 3.721111e+001
4.132533e+002, 3.720559e+001
4.137354e+002, 3.726003e+001
4.142175e+002, 3.744146e+001
4.146996e+002, 3.741048e+001
4.151818e+002, 3.689540e+001
4.156639e+002, 3.641662e+001
4.161460e+002, 3.619592e+001
4.166281e+002, 3.617707e+001
4.171102e+002, 3.620659e+001
4.175923e+002, 3.621479e+001
4.180745e+002, 3.617284e+001
4.185566e+002, 3.595710e+001
4.190387e+002, 3.547707e+001
4.195208e+002, 3.502613e+001
4.200029e+002, 3.470990e+001
4.204850e+002, 3.445529e+001
4.209672e+002, 3.417854e+001
4.214493e+002, 3.385674e+001
4.219314e+002, 3.360097e+001
4.224135e+002, 3.360701e+001
4.228956e+002, 3.385395e+001
4.233777e+002, 3.388713e+001
4.238599e+002, 3.351012e+001
4.243420e+002, 3.308130e+001
4.248241e+002, 3.287168e+001
4.253062e+002, 3.284050e+001
4.257883e+002, 3.284308e+001
4.262704e+002, 3.285713e+001
4.267526e+002, 3.285311e+001
4.272347e+002, 3.277711e+001
4.277168e+002, 3.262519e+001
4.281989e+002, 3.245489e+001
4.286810e+002, 3.225546e+001
4.291631e+002, 3.208271e+001
4.296453e+002, 3.205609e+001
4.301274e+002, 3.225546e+001
4.306095e+002, 3.242004e+001
4.310916e+002, 3.238987e+001
4.315737e+002, 3.223824e+001
4.320558e+002, 3.210989e+001
4.325380e+002, 3.204207e+001
4.330201e+002, 3.199243e+001
4.335022e+002, 3.190241e+001
4.339843e+002, 3.176103e+001
4.344664e+002, 3.168871e+001
4.349485e+002, 3.166164e+001
4.354307e+002, 3.172797e+001
4.359128e+002, 3.203348e+001
4.363949e+002, 3.248252e+001
4.368770e+002, 3.275274e+001
4.373591e+002, 3.263479e+001
4.378412e+002, 3.224199e+001
4.383234e+002, 3.200785e+001
4.388055e+002, 3.216953e+001
4.392876e+002, 3.218633e+001
4.397697e+002, 3.187394e+001
4.402518e+002, 3.148583e+001
4.407339e+002, 3.125647e+001
4.412160e+002, 3.123475e+001
4.416982e+002, 3.133433e+001
4.421803e+002, 3.148848e+001
4.426624e+002, 3.173507e+001
4.431445e+002, 3.176123e+001
4.436266e+002, 3.119871e+001
4.441087e+002, 3.079708e+001
4.445909e+002, 3.093694e+001
4.450730e+002, 3.136617e+001
4.455551e+002, 3.165532e+001
4.460372e+002, 3.157668e+001
4.465193e+002, 3.127381e+001
4.470014e+002, 3.106416e+001
4.474836e+002, 3.098844e+001
4.479657e+002, 3.088484e+001
4.484478e+002, 3.067415e+001
4.489299e+002, 3.046181e+001
4.494120e+002, 3.031028e+001
4.498941e+002, 3.022425e+001
4.503763e+002, 3.017625e+001
4.508584e+002, 3.018286e+001
4.513405e+002, 3.021753e+001
4.518226e+002, 3.014630e+001
4.523047e+002, 2.991629e+001
4.527868e+002, 2.970763e+001
4.532690e+002, 2.963604e+001
4.537511e+002, 2.965095e+001
4.542332e+002, 2.971017e+001
4.547153e+002, 2.986787e+001
4.551974e+002, 2.994433e+001
4.556795e+002, 2.963441e+001
4.561617e+002, 2.907070e+001
4.566438e+002, 2.890172e+001
4.571259e+002, 2.944862e+001
4.576080e+002, 3.015712e+001
4.580901e+002, 3.025761e+001
4.585722e+002, 2.976695e+001
4.590544e+002, 2.927705e+001
4.595365e+002, 2.878730e+001
4.600186e+002, 2.841725e+001
4.605007e+002, 2.835690e+001
4.609828e+002, 2.855320e+001
4.614649e+002, 2.869281e+001
4.619471e+002, 2.856278e+001
4.624292e+002, 2.825096e+001
4.629113e+002, 2.812267e+001
4.633934e+002, 2.842006e+001
4.638755e+002, 2.857153e+001
4.643576e+002, 2.838159e+001
4.648398e+002, 2.808684e+001
4.653219e+002, 2.797268e+001
4.658040e+002, 2.807093e+001
4.662861e+002, 2.814820e+001
4.667682e+002, 2.793201e+001
4.672503e+002, 2.737941e+001
4.677325e+002, 2.692849e+001
4.682146e+002, 2.649724e+001
4.686967e+002, 2.626152e+001
4.691788e+002, 2.647635e+001
4.696609e+002, 2.686395e+001
4.701430e+002, 2.697441e+001
4.706252e+002, 2.659847e+001
4.711073e+002, 2.604947e+001
4.715894e+002, 2.594452e+001
4.720715e+002, 2.643830e+001
4.725536e+002, 2.669439e+001
4.730357e+002, 2.638822e+001
4.735179e+002, 2.598001e+001
4.740000e+002, 2.570649e+001
4.744821e+002, 2.556304e+001
4.749642e+002, 2.544928e+001
4.754463e+002, 2.528098e+001
4.759284e+002, 2.511288e+001
4.764106e+002, 2.507712e+001
4.768927e+002, 2.519030e+001
4.773748e+002, 2.533345e+001
4.778569e+002, 2.546333e+001
4.783390e+002, 2.558532e+001
4.788211e+002, 2.572201e+001
4.793033e+002, 2.589702e+001
4.797854e+002, 2.600207e+001
4.802675e+002, 2.593282e+001
4.807496e+002, 2.576911e+001
4.812317e+002, 2.565417e+001
4.817138e+002, 2.561361e+001
4.821959e+002, 2.560281e+001
4.826780e+002, 2.558249e+001
4.831602e+002, 2.555403e+001
4.836423e+002, 2.555042e+001
4.841244e+002, 2.561049e+001
4.846065e+002, 2.565185e+001
4.850886e+002, 2.564523e+001
4.855707e+002, 2.559616e+001
4.860529e+002, 2.549427e+001
4.865350e+002, 2.533672e+001
4.870171e+002, 2.518948e+001
4.874992e+002, 2.516991e+001
4.879813e+002, 2.534702e+001
4.884634e+002, 2.546385e+001
4.889456e+002, 2.550944e+001
4.894277e+002, 2.551636e+001
4.899098e+002, 2.547828e+001
4.903919e+002, 2.541501e+001
4.908740e+002, 2.535435e+001
4.913561e+002, 2.530621e+001
4.918383e+002, 2.529181e+001
4.923204e+002, 2.540116e+001
4.928025e+002, 2.572818e+001
4.932846e+002, 2.591815e+001
4.937667e+002, 2.573141e+001
4.942488e+002, 2.550080e+001
4.947310e+002, 2.545152e+001
4.952131e+002, 2.559026e+001
4.956952e+002, 2.577214e+001
4.961773e+002, 2.596529e+001
4.966594e+002, 2.611975e+001
4.971415e+002, 2.604639e+001
4.976237e+002, 2.568351e+001
4.981058e+002, 2.536908e+001
4.985879e+002, 2.531903e+001
4.990700e+002, 2.542609e+001
4.995521e+002, 2.548677e+001
5.000342e+002, 2.549950e+001
5.005164e+002, 2.544500e+001
5.009985e+002, 2.523774e+001
5.014806e+002, 2.497652e+001
5.019627e+002, 2.483566e+001
5.024448e+002, 2.485152e+001
5.029269e+002, 2.496762e+001
5.034091e+002, 2.516775e+001
5.038912e+002, 2.545761e+001
5.043733e+002, 2.554066e+001
5.048554e+002, 2.521642e+001
5.053375e+002, 2.493412e+001
5.058196e+002, 2.489446e+001
5.063018e+002, 2.498693e+001
5.067839e+002, 2.506574e+001
5.072660e+002, 2.507276e+001
5.077481e+002, 2.498207e+001
5.082302e+002, 2.473617e+001
5.087123e+002, 2.427584e+001
5.091945e+002, 2.387374e+001
5.096766e+002, 2.346013e+001
5.101587e+002, 2.317656e+001
5.106408e+002, 2.313906e+001
5.111229e+002, 2.326370e+001
5.116050e+002, 2.342017e+001
5.120872e+002, 2.357057e+001
5.125693e+002, 2.363271e+001
5.130514e+002, 2.336847e+001
5.135335e+002, 2.270233e+001
5.140156e+002, 2.229404e+001
5.144977e+002, 2.242329e+001
5.149799e+002, 2.272753e+001
5.154620e+002, 2.297246e+001
5.159441e+002, 2.313960e+001
5.164262e+002, 2.314060e+001
5.169083e+002, 2.279175e+001
5.173904e+002, 2.234049e+001
5.178726e+002, 2.212914e+001
5.183547e+002, 2.214489e+001
5.188368e+002, 2.213843e+001
5.193189e+002, 2.197101e+001
5.198010e+002, 2.173609e+001
5.202831e+002, 2.165088e+001
5.207653e+002, 2.172854e+001
5.212474e+002, 2.187334e+001
5.217295e+002, 2.217144e+001
5.222116e+002, 2.245906e+001
5.226937e+002, 2.260481e+001
5.231758e+002, 2.259670e+001
5.236580e+002, 2.245767e+001
5.241401e+002, 2.218715e+001
5.246222e+002, 2.182352e+001
5.251043e+002, 2.155512e+001
5.255864e+002, 2.133524e+001
5.260685e+002, 2.129919e+001
5.265507e+002, 2.159323e+001
5.270328e+002, 2.197045e+001
5.275149e+002, 2.227080e+001
5.279970e+002, 2.245301e+001
5.284791e+002, 2.250814e+001
5.289612e+002, 2.237175e+001
5.294434e+002, 2.209244e+001
5.299255e+002, 2.197734e+001
5.304076e+002, 2.208036e+001
5.308897e+002, 2.222407e+001
5.313718e+002, 2.233644e+001
5.318539e+002, 2.244934e+001
5.323361e+002, 2.261591e+001
5.328182e+002, 2.285714e+001
5.333003e+002, 2.305745e+001
5.337824e+002, 2.309655e+001
5.342645e+002, 2.305019e+001
5.347466e+002, 2.311169e+001
5.352288e+002, 2.331687e+001
5.357109e+002, 2.346910e+001
5.361930e+002, 2.338039e+001
5.366751e+002, 2.310721e+001
5.371572e+002, 2.300730e+001
5.376393e+002, 2.315808e+001
5.381215e+002, 2.336923e+001
5.386036e+002, 2.363806e+001
5.390857e+002, 2.391504e+001
5.395678e+002, 2.413583e+001
5.400499e+002, 2.428882e+001
5.405320e+002, 2.440969e+001
5.410142e+002, 2.453091e+001
5.414963e+002, 2.465195e+001
5.419784e+002, 2.478985e+001
5.424604e+002, 2.495380e+001
5.429426e+002, 2.512373e+001
5.434247e+002, 2.534237e+001
5.439068e+002, 2.554189e+001
5.443889e+002, 2.561206e+001
5.448710e+002, 2.553231e+001
5.453531e+002, 2.545635e+001
5.458353e+002, 2.559939e+001
5.463174e+002, 2.593436e+001
5.467995e+002, 2.610795e+001
5.472816e+002, 2.601417e+001
5.477637e+002, 2.594394e+001
5.482458e+002, 2.614825e+001
5.487280e+002, 2.648133e+001
5.492101e+002, 2.671174e+001
5.496922e+002, 2.677973e+001
5.501743e+002, 2.678572e+001
5.506564e+002, 2.674909e+001
5.511385e+002, 2.670374e+001
5.516207e+002, 2.678113e+001
5.521028e+002, 2.701500e+001
5.525849e+002, 2.711936e+001
5.530670e+002, 2.675618e+001
5.535491e+002, 2.592224e+001
5.540313e+002, 2.550887e+001
5.545134e+002, 2.588574e+001
5.549955e+002, 2.617405e+001
5.554776e+002, 2.605389e+001
5.559597e+002, 2.574826e+001
5.564418e+002, 2.553670e+001
5.569240e+002, 2.549087e+001
5.574061e+002, 2.549949e+001
5.578882e+002, 2.542059e+001
5.583703e+002, 2.524749e+001
5.588524e+002, 2.519827e+001
5.593345e+002, 2.545928e+001
5.598167e+002, 2.557002e+001
5.602988e+002, 2.522612e+001
5.607809e+002, 2.473162e+001
5.612630e+002, 2.446637e+001
5.617451e+002, 2.453838e+001
5.622272e+002, 2.470974e+001
5.627094e+002, 2.483133e+001
5.631915e+002, 2.488862e+001
5.636736e+002, 2.480683e+001
5.641557e+002, 2.455240e+001
5.646378e+002, 2.428250e+001
5.651199e+002, 2.409272e+001
5.656021e+002, 2.398336e+001
5.660842e+002, 2.392641e+001
5.665663e+002, 2.392855e+001
5.670484e+002, 2.397277e+001
5.675305e+002, 2.410202e+001
5.680126e+002, 2.424729e+001
5.684948e+002, 2.429975e+001
5.689769e+002, 2.425275e+001
5.694590e+002, 2.422137e+001
5.699411e+002, 2.432827e+001
5.704232e+002, 2.455977e+001
5.709053e+002, 2.464199e+001
5.713875e+002, 2.442900e+001
5.718696e+002, 2.425872e+001
5.723517e+002, 2.419270e+001
5.728338e+002, 2.418381e+001
5.733159e+002, 2.421431e+001
5.737980e+002, 2.426795e+001
5.742802e+002, 2.428273e+001
5.747623e+002, 2.412333e+001
5.752444e+002, 2.386968e+001
5.757265e+002, 2.390240e+001
5.762086e+002, 2.429747e+001
5.766907e+002, 2.465606e+001
5.771729e+002, 2.473764e+001
5.776550e+002, 2.469965e+001
5.781371e+002, 2.483941e+001
5.786192e+002, 2.523803e+001
5.791013e+002, 2.546790e+001
5.795834e+002, 2.513357e+001
5.800656e+002, 2.468471e+001
5.805477e+002, 2.470356e+001
5.810298e+002, 2.517045e+001
5.815119e+002, 2.562683e+001
5.819940e+002, 2.577421e+001
5.824761e+002, 2.571474e+001
5.829583e+002, 2.580175e+001
5.834404e+002, 2.622203e+001
5.839225e+002, 2.650501e+001
5.844046e+002, 2.649104e+001
5.848867e+002, 2.647361e+001
5.853688e+002, 2.666530e+001
5.858510e+002, 2.703310e+001
5.863331e+002, 2.741609e+001
5.868152e+002, 2.771802e+001
5.872973e+002, 2.796323e+001
5.877794e+002, 2.818522e+001
5.882615e+002, 2.837156e+001
5.887437e+002, 2.863182e+001
5.892258e+002, 2.906843e+001
5.897079e+002, 2.950454e+001
5.901900e+002, 2.970391e+001
5.906721e+002, 2.971996e+001
5.911542e+002, 2.990695e+001
5.916364e+002, 3.055995e+001
5.921185e+002, 3.126676e+001
5.926006e+002, 3.164365e+001
5.930827e+002, 3.177743e+001
5.935648e+002, 3.191623e+001
5.940469e+002, 3.214178e+001
5.945291e+002, 3.247580e+001
5.950112e+002, 3.296227e+001
5.954933e+002, 3.364013e+001
5.959754e+002, 3.430308e+001
5.964575e+002, 3.501231e+001
5.969396e+002, 3.564224e+001
5.974218e+002, 3.605764e+001
5.979039e+002, 3.640190e+001
5.983860e+002, 3.686984e+001
5.988681e+002, 3.752977e+001
5.993502e+002, 3.831938e+001
5.998323e+002, 3.920613e+001
6.003145e+002, 4.018755e+001
6.007966e+002, 4.111621e+001
6.012787e+002, 4.200988e+001
6.017608e+002, 4.279093e+001
6.022429e+002, 4.325754e+001
6.027250e+002, 4.362786e+001
6.032072e+002, 4.423768e+001
6.036893e+002, 4.517751e+001
6.041714e+002, 4.621106e+001
6.046535e+002, 4.724865e+001
6.051356e+002, 4.829901e+001
6.056177e+002, 4.936399e+001
6.060999e+002, 5.044445e+001
6.065820e+002, 5.156700e+001
6.070641e+002, 5.275438e+001
6.075462e+002, 5.398359e+001
6.080283e+002, 5.516349e+001
6.085104e+002, 5.623589e+001
6.089926e+002, 5.733577e+001
6.094747e+002, 5.838932e+001
6.099568e+002, 5.953407e+001
6.104389e+002, 6.096892e+001
6.109210e+002, 6.259995e+001
6.114031e+002, 6.409587e+001
6.118853e+002, 6.520647e+001
6.123674e+002, 6.612463e+001
6.128495e+002, 6.726551e+001
6.133316e+002, 6.865138e+001
6.138137e+002, 7.008803e+001
6.142958e+002, 7.158341e+001
6.147780e+002, 7.305148e+001
6.152601e+002, 7.435528e+001
6.157422e+002, 7.553728e+001
6.162243e+002, 7.686160e+001
6.167064e+002, 7.864175e+001
6.171885e+002, 8.032097e+001
6.176707e+002, 8.140675e+001
6.181528e+002, 8.215576e+001
6.186349e+002, 8.315649e+001
6.191170e+002, 8.457283e+001
6.195991e+002, 8.599557e+001
6.200812e+002, 8.690186e+001
6.205634e+002, 8.724318e+001
6.210455e+002, 8.785994e+001
6.215276e+002, 8.911823e+001
6.220097e+002, 9.020608e+001
6.224918e+002, 9.101508e+001
6.229739e+002, 9.153976e+001
6.234561e+002, 9.165788e+001
6.239382e+002, 9.138952e+001
6.244203e+002, 9.114772e+001
6.249023e+002, 9.140694e+001
6.253845e+002, 9.192908e+001
6.258666e+002, 9.199675e+001
6.263487e+002, 9.155217e+001
6.268308e+002, 9.121087e+001
6.273129e+002, 9.137068e+001
6.277950e+002, 9.168324e+001
6.282772e+002, 9.142718e+001
6.287593e+002, 9.050522e+001
6.292414e+002, 8.963243e+001
6.297235e+002, 8.888720e+001
6.302056e+002, 8.824365e+001
6.306877e+002, 8.776643e+001
6.311699e+002, 8.736636e+001
6.316520e+002, 8.683264e+001
6.321341e+002, 8.607089e+001
6.326162e+002, 8.520759e+001
6.330983e+002, 8.448177e+001
6.335804e+002, 8.394463e+001
6.340626e+002, 8.325914e+001
6.345447e+002, 8.231188e+001
6.350268e+002, 8.136146e+001
6.355089e+002, 8.048559e+001
6.359910e+002, 7.969144e+001
6.364731e+002, 7.902934e+001
6.369553e+002, 7.856258e+001
6.374374e+002, 7.800445e+001
6.379195e+002, 7.702351e+001
6.384016e+002, 7.585529e+001
6.388837e+002, 7.495435e+001
6.393658e+002, 7.437020e+001
6.398480e+002, 7.387194e+001
6.403301e+002, 7.335487e+001
6.408122e+002, 7.276295e+001
6.412943e+002, 7.189671e+001
6.417764e+002, 7.042928e+001
6.422585e+002, 6.916835e+001
6.427407e+002, 6.820689e+001
6.432228e+002, 6.737000e+001
6.437049e+002, 6.658437e+001
6.441870e+002, 6.582474e+001
6.446691e+002, 6.507327e+001
6.451512e+002, 6.433231e+001
6.456334e+002, 6.355939e+001
6.461155e+002, 6.269457e+001
6.465976e+002, 6.173814e+001
6.470797e+002, 6.065966e+001
6.475618e+002, 5.937067e+001
6.480439e+002, 5.814749e+001
6.485261e+002, 5.727612e+001
6.490082e+002, 5.664303e+001
6.494903e+002, 5.591704e+001
6.499724e+002, 5.501199e+001
6.504545e+002, 5.410713e+001
6.509366e+002, 5.331342e+001
6.514188e+002, 5.253809e+001
6.519009e+002, 5.163836e+001
6.523830e+002, 5.062544e+001
6.528651e+002, 4.965255e+001
6.533472e+002, 4.882787e+001
6.538293e+002, 4.814314e+001
6.543115e+002, 4.758071e+001
6.547936e+002, 4.721709e+001
6.552757e+002, 4.679291e+001
6.557578e+002, 4.631176e+001
6.562399e+002, 4.572184e+001
6.567220e+002, 4.486522e+001
6.572042e+002, 4.386189e+001
6.576863e+002, 4.308313e+001
6.581684e+002, 4.276655e+001
6.586505e+002, 4.256165e+001
6.591326e+002, 4.217023e+001
6.596147e+002, 4.162609e+001
6.600969e+002, 4.098549e+001
6.605790e+002, 4.025826e+001
6.610611e+002, 3.954823e+001
6.615432e+002, 3.893060e+001
6.620253e+002, 3.840808e+001
6.625074e+002, 3.802004e+001
6.629896e+002, 3.794834e+001
6.634717e+002, 3.777127e+001
6.639538e+002, 3.741280e+001
6.644359e+002, 3.696585e+001
6.649180e+002, 3.647964e+001
6.654001e+002, 3.597288e+001
6.658823e+002, 3.545662e+001
6.663644e+002, 3.490487e+001
6.668465e+002, 3.439763e+001
6.673286e+002, 3.413554e+001
6.678107e+002, 3.410830e+001
6.682928e+002, 3.393377e+001
6.687750e+002, 3.348094e+001
6.692571e+002, 3.297526e+001
6.697392e+002, 3.263386e+001
6.702213e+002, 3.244095e+001
6.707034e+002, 3.221862e+001
6.711855e+002, 3.186242e+001
6.716677e+002, 3.160140e+001
6.721498e+002, 3.162539e+001
6.726319e+002, 3.171367e+001
6.731140e+002, 3.160803e+001
6.735961e+002, 3.129678e+001
6.740782e+002, 3.095554e+001
6.745604e+002, 3.072338e+001
6.750425e+002, 3.054846e+001
6.755246e+002, 3.023133e+001
6.760067e+002, 2.971493e+001
6.764888e+002, 2.931036e+001
6.769709e+002, 2.908982e+001
6.774531e+002, 2.898831e+001
6.779352e+002, 2.902545e+001
6.784173e+002, 2.914306e+001
6.788994e+002, 2.912597e+001
6.793815e+002, 2.885678e+001
6.798636e+002, 2.852997e+001
6.803458e+002, 2.818265e+001
6.808279e+002, 2.788141e+001
6.813100e+002, 2.777567e+001
6.817921e+002, 2.786608e+001
6.822742e+002, 2.795186e+001
6.827563e+002, 2.786340e+001
6.832385e+002, 2.764022e+001
6.837206e+002, 2.748539e+001
6.842027e+002, 2.746765e+001
6.846848e+002, 2.736795e+001
6.851669e+002, 2.705491e+001
6.856490e+002, 2.674277e+001
6.861312e+002, 2.654942e+001
6.866133e+002, 2.646049e+001
6.870954e+002, 2.642303e+001
6.875775e+002, 2.647175e+001
6.880596e+002, 2.646927e+001
6.885417e+002, 2.626209e+001
6.890239e+002, 2.591623e+001
6.895060e+002, 2.554170e+001
6.899881e+002, 2.516223e+001
6.904702e+002, 2.491712e+001
6.909523e+002, 2.494178e+001
6.914344e+002, 2.516913e+001
6.919166e+002, 2.525784e+001
6.923987e+002, 2.509010e+001
6.928808e+002, 2.496917e+001
6.933629e+002, 2.496561e+001
6.938450e+002, 2.495916e+001
6.943271e+002, 2.488312e+001
6.948093e+002, 2.474268e+001
6.952914e+002, 2.456240e+001
6.957735e+002, 2.434249e+001
6.962556e+002, 2.411941e+001
6.967377e+002, 2.388702e+001
6.972198e+002, 2.368155e+001
6.977020e+002, 2.369100e+001
6.981841e+002, 2.396356e+001
6.986662e+002, 2.415009e+001
6.991483e+002, 2.398065e+001
6.996304e+002, 2.355177e+001
7.001125e+002, 2.323105e+001
7.005947e+002, 2.303044e+001
7.010768e+002, 2.292906e+001
7.015589e+002, 2.302555e+001
7.020410e+002, 2.312987e+001
7.025231e+002, 2.310956e+001
7.030052e+002, 2.300805e+001
7.034874e+002, 2.295602e+001
7.039695e+002, 2.301960e+001
7.044516e+002, 2.305767e+001
7.049337e+002, 2.281886e+001
7.054158e+002, 2.238503e+001
7.058979e+002, 2.218015e+001
7.063801e+002, 2.226925e+001
7.068622e+002, 2.241691e+001
7.073442e+002, 2.251659e+001
7.078264e+002, 2.256112e+001
7.083085e+002, 2.252140e+001
7.087906e+002, 2.234888e+001
7.092727e+002, 2.222034e+001
7.097548e+002, 2.220661e+001
7.102369e+002, 2.218107e+001
7.107191e+002, 2.206240e+001
7.112012e+002, 2.188013e+001
7.116833e+002, 2.167362e+001
7.121654e+002, 2.145910e+001
7.126475e+002, 2.130028e+001
7.131296e+002, 2.131549e+001
7.136118e+002, 2.146229e+001
7.140939e+002, 2.149649e+001
7.145760e+002, 2.139816e+001
7.150581e+002, 2.127187e+001
7.155402e+002, 2.116604e+001
7.160223e+002, 2.105828e+001
7.165045e+002, 2.089823e+001
7.169866e+002, 2.067138e+001
7.174687e+002, 2.048741e+001
7.179508e+002, 2.028149e+001
7.184329e+002, 2.020023e+001
7.189150e+002, 2.044223e+001
7.193972e+002, 2.080233e+001
7.198793e+002, 2.098055e+001
7.203614e+002, 2.090609e+001
7.208435e+002, 2.073956e+001
7.213256e+002, 2.059922e+001
7.218077e+002, 2.050201e+001
7.222899e+002, 2.055580e+001
7.227720e+002, 2.079066e+001
7.232541e+002, 2.091667e+001
7.237362e+002, 2.078849e+001
7.242183e+002, 2.059525e+001
7.247004e+002, 2.057949e+001
7.251826e+002, 2.073622e+001
7.256647e+002, 2.080250e+001
7.261468e+002, 2.069382e+001
7.266289e+002, 2.057777e+001
7.271110e+002, 2.053130e+001
7.275931e+002, 2.049956e+001
7.280753e+002, 2.040122e+001
7.285574e+002, 2.024240e+001
7.290395e+002, 2.011592e+001
7.295216e+002, 2.010181e+001
7.300037e+002, 2.014217e+001
7.304858e+002, 2.008842e+001
7.309680e+002, 1.993587e+001
7.314501e+002, 1.982633e+001
7.319322e+002, 1.978344e+001
7.324143e+002, 1.980035e+001
7.328964e+002, 1.991708e+001
7.333785e+002, 2.009538e+001
7.338607e+002, 2.013907e+001
7.343428e+002, 1.990457e+001
7.348249e+002, 1.975806e+001
7.353070e+002, 1.984573e+001
7.357891e+002, 1.999114e+001
7.362712e+002, 2.007622e+001
7.367534e+002, 2.008771e+001
7.372355e+002, 2.003834e+001
7.377176e+002, 1.993152e+001
7.381997e+002, 1.979050e+001
7.386818e+002, 1.964321e+001
7.391639e+002, 1.949074e+001
7.396461e+002, 1.930707e+001
7.401282e+002, 1.905035e+001
7.406103e+002, 1.896553e+001
7.410924e+002, 1.928696e+001
7.415745e+002, 1.979844e+001
7.420566e+002, 2.000031e+001
7.425388e+002, 1.979873e+001
7.430209e+002, 1.964558e+001
7.435030e+002, 1.963042e+001
7.439851e+002, 1.961648e+001
7.444672e+002, 1.952942e+001
7.449493e+002, 1.939684e+001
7.454315e+002, 1.925021e+001
7.459136e+002, 1.910570e+001
7.463957e+002, 1.900373e+001
7.468778e+002, 1.899676e+001
7.473599e+002, 1.906102e+001
7.478420e+002, 1.916073e+001
7.483242e+002, 1.929963e+001
7.488063e+002, 1.927306e+001
7.492884e+002, 1.893589e+001
7.497705e+002, 1.860124e+001
7.502526e+002, 1.868752e+001
7.507347e+002, 1.923009e+001
7.512169e+002, 1.950707e+001
7.516990e+002, 1.934315e+001
7.521811e+002, 1.916492e+001
7.526632e+002, 1.901316e+001
7.531453e+002, 1.892414e+001
7.536274e+002, 1.898848e+001
7.541096e+002, 1.915522e+001
7.545917e+002, 1.921871e+001
7.550738e+002, 1.901875e+001
7.555559e+002, 1.875469e+001
7.560380e+002, 1.877854e+001
7.565201e+002, 1.899597e+001
7.570023e+002, 1.894241e+001
7.574844e+002, 1.852488e+001
7.579665e+002, 1.811626e+001
7.584486e+002, 1.797386e+001
7.589307e+002, 1.804480e+001
7.594128e+002, 1.815529e+001
7.598950e+002, 1.836901e+001
7.603771e+002, 1.850543e+001
7.608592e+002, 1.855088e+001
7.613413e+002, 1.853875e+001
7.618234e+002, 1.839658e+001
7.623055e+002, 1.823874e+001
7.627877e+002, 1.828259e+001
7.632698e+002, 1.859793e+001
7.637519e+002, 1.886699e+001
7.642340e+002, 1.878657e+001
7.647161e+002, 1.854669e+001
7.651982e+002, 1.846076e+001
7.656804e+002, 1.850930e+001
7.661625e+002, 1.849252e+001
7.666446e+002, 1.832642e+001
7.671267e+002, 1.816362e+001
7.676088e+002, 1.823215e+001
7.680909e+002, 1.854965e+001
7.685731e+002, 1.863849e+001
7.690552e+002, 1.831014e+001
7.695373e+002, 1.806102e+001
7.700194e+002, 1.802802e+001
7.705015e+002, 1.808768e+001
7.709836e+002, 1.822519e+001
7.714658e+002, 1.839030e+001
7.719479e+002, 1.837330e+001
7.724300e+002, 1.791088e+001
7.729121e+002, 1.750154e+001
7.733942e+002, 1.758698e+001
7.738763e+002, 1.790943e+001
7.743585e+002, 1.807274e+001
7.748406e+002, 1.803372e+001
7.753227e+002, 1.795526e+001
7.758048e+002, 1.794453e+001
7.762869e+002, 1.796267e+001
7.767690e+002, 1.788976e+001
7.772512e+002, 1.768926e+001
7.777333e+002, 1.765765e+001
7.782154e+002, 1.790831e+001
7.786975e+002, 1.815513e+001
7.791796e+002, 1.824064e+001
7.796617e+002, 1.822541e+001
7.801439e+002, 1.819919e+001
7.806260e+002, 1.815541e+001
7.811081e+002, 1.814550e+001
7.815902e+002, 1.821347e+001
7.820723e+002, 1.828720e+001
7.825544e+002, 1.835009e+001
7.830366e+002, 1.837589e+001
7.835187e+002, 1.830761e+001
7.840008e+002, 1.814180e+001
7.844829e+002, 1.796647e+001
7.849650e+002, 1.786992e+001
7.854471e+002, 1.782112e+001
7.859293e+002, 1.770531e+001
7.864114e+002, 1.752068e+001
7.868935e+002, 1.743006e+001
7.873756e+002, 1.748922e+001
7.878577e+002, 1.760926e+001
7.883398e+002, 1.772669e+001
7.888220e+002, 1.783660e+001
7.893040e+002, 1.789228e+001
7.897861e+002, 1.783222e+001
7.902682e+002, 1.780962e+001
7.907504e+002, 1.793683e+001
7.912325e+002, 1.801133e+001
7.917146e+002, 1.779504e+001
7.921967e+002, 1.744464e+001
7.926788e+002, 1.732557e+001
7.931609e+002, 1.759244e+001
7.936431e+002, 1.790129e+001
7.941252e+002, 1.792719e+001
7.946073e+002, 1.779948e+001
7.950894e+002, 1.774876e+001
7.955715e+002, 1.778165e+001
7.960536e+002, 1.784608e+001
7.965358e+002, 1.792403e+001
7.970179e+002, 1.798635e+001
7.975000e+002, 1.798401e+001
7.979821e+002, 1.791192e+001
7.984642e+002, 1.791169e+001
7.989464e+002, 1.809570e+001
7.994285e+002, 1.814789e+001
7.999106e+002, 1.781975e+001
8.003927e+002, 1.746604e+001
8.008748e+002, 1.733552e+001
8.013569e+002, 1.741534e+001
8.018391e+002, 1.760575e+001
8.023212e+002, 1.804252e+001
8.028033e+002, 1.834811e+001
8.032854e+002, 1.821656e+001
8.037675e+002, 1.791342e+001
8.042496e+002, 1.773344e+001
8.047318e+002, 1.769195e+001
8.052139e+002, 1.766253e+001
8.056960e+002, 1.757285e+001
8.061781e+002, 1.753346e+001
8.066602e+002, 1.781669e+001
8.071423e+002, 1.838033e+001
8.076245e+002, 1.858828e+001
8.081066e+002, 1.835671e+001
8.085887e+002, 1.806253e+001
8.090708e+002, 1.784241e+001
8.095529e+002, 1.768535e+001
8.100350e+002, 1.757124e+001
8.105172e+002, 1.749528e+001
8.109993e+002, 1.751056e+001
8.114814e+002, 1.773354e+001
8.119635e+002, 1.789815e+001
8.124456e+002, 1.792174e+001
8.129277e+002, 1.786209e+001
8.134099e+002, 1.775209e+001
8.138920e+002, 1.761031e+001
8.143741e+002, 1.745170e+001
8.148562e+002, 1.721601e+001
8.153383e+002, 1.711058e+001
8.158204e+002, 1.748206e+001
8.163026e+002, 1.811586e+001
8.167847e+002, 1.860873e+001
8.172668e+002, 1.888631e+001
8.177489e+002, 1.879370e+001
8.182310e+002, 1.820016e+001
8.187131e+002, 1.743605e+001
8.191953e+002, 1.715821e+001
8.196774e+002, 1.744232e+001
8.201595e+002, 1.776977e+001
8.206416e+002, 1.830896e+001
8.211237e+002, 1.857082e+001
8.216058e+002, 1.810621e+001
8.220880e+002, 1.745883e+001
8.225701e+002, 1.724691e+001
8.230522e+002, 1.746282e+001
8.235343e+002, 1.767225e+001
8.240164e+002, 1.782114e+001
8.244985e+002, 1.790927e+001
8.249807e+002, 1.793445e+001
8.254628e+002, 1.790074e+001
8.259449e+002, 1.777298e+001
8.264270e+002, 1.758536e+001
8.269091e+002, 1.744470e+001
8.273912e+002, 1.740845e+001
8.278734e+002, 1.745403e+001
8.283555e+002, 1.759002e+001
8.288376e+002, 1.778413e+001
8.293197e+002, 1.791624e+001
8.298018e+002, 1.797567e+001
8.302839e+002, 1.790753e+001
8.307661e+002, 1.765380e+001
8.312482e+002, 1.734537e+001
8.317303e+002, 1.718849e+001
8.322124e+002, 1.718885e+001
8.326945e+002, 1.730780e+001
8.331766e+002, 1.769308e+001
8.336588e+002, 1.798130e+001
8.341409e+002, 1.800515e+001
8.346230e+002, 1.797374e+001
8.351051e+002, 1.811485e+001
8.355872e+002, 1.837511e+001
8.360693e+002, 1.845117e+001
8.365515e+002, 1.813774e+001
8.370336e+002, 1.780485e+001
8.375157e+002, 1.763321e+001
8.379978e+002, 1.756319e+001
8.384799e+002, 1.753935e+001
8.389620e+002, 1.755044e+001
8.394442e+002, 1.759458e+001
8.399263e+002, 1.767080e+001
8.404084e+002, 1.777456e+001
8.408905e+002, 1.793087e+001
8.413726e+002, 1.811638e+001
8.418547e+002, 1.818122e+001
8.423369e+002, 1.811717e+001
8.428190e+002, 1.802924e+001
8.433011e+002, 1.795698e+001
8.437832e+002, 1.786710e+001
8.442653e+002, 1.770869e+001
8.447474e+002, 1.748458e+001
8.452296e+002, 1.733157e+001
8.457117e+002, 1.724312e+001
8.461938e+002, 1.724023e+001
8.466759e+002, 1.741043e+001
8.471580e+002, 1.758262e+001
8.476401e+002, 1.764413e+001
8.481223e+002, 1.762623e+001
8.486044e+002, 1.761234e+001
8.490865e+002, 1.762589e+001
8.495686e+002, 1.763385e+001
8.500507e+002, 1.763492e+001
8.505328e+002, 1.760842e+001
8.510150e+002, 1.746649e+001
8.514971e+002, 1.729156e+001
8.519792e+002, 1.731094e+001
8.524613e+002, 1.757212e+001
8.529434e+002, 1.784255e+001
8.534255e+002, 1.789326e+001
8.539077e+002, 1.777627e+001
8.543898e+002, 1.761200e+001
8.548719e+002, 1.740012e+001
8.553540e+002, 1.734258e+001
8.558361e+002, 1.752308e+001
8.563182e+002, 1.766530e+001
8.568004e+002, 1.753265e+001
8.572825e+002, 1.722711e+001
8.577646e+002, 1.707866e+001
8.582467e+002, 1.716378e+001
8.587288e+002, 1.724227e+001
8.592109e+002, 1.736954e+001
8.596931e+002, 1.742590e+001
8.601752e+002, 1.736934e+001
8.606573e+002, 1.721876e+001
8.611394e+002, 1.690967e+001
8.616215e+002, 1.646231e+001
8.621036e+002, 1.625670e+001
8.625858e+002, 1.665037e+001
8.630679e+002, 1.711294e+001
8.635500e+002, 1.728633e+001
8.640321e+002, 1.730070e+001
8.645142e+002, 1.733253e+001
8.649963e+002, 1.740040e+001
8.654785e+002, 1.743715e+001
8.659606e+002, 1.740266e+001
8.664427e+002, 1.732830e+001
8.669248e+002, 1.725459e+001
8.674069e+002, 1.718252e+001
8.678890e+002, 1.711883e+001
8.683712e+002, 1.706432e+001
8.688533e+002, 1.699623e+001
8.693354e+002, 1.689186e+001
8.698175e+002, 1.681553e+001
8.702996e+002, 1.685849e+001
8.707817e+002, 1.702167e+001
8.712639e+002, 1.719795e+001
8.717459e+002, 1.748690e+001
8.722280e+002, 1.761320e+001
8.727101e+002, 1.738366e+001
8.731923e+002, 1.711441e+001
8.736744e+002, 1.698639e+001
8.741565e+002, 1.696539e+001
8.746386e+002, 1.696305e+001
8.751207e+002, 1.698624e+001
8.756028e+002, 1.696409e+001
8.760850e+002, 1.683250e+001
8.765671e+002, 1.668487e+001
8.770492e+002, 1.655171e+001
8.775313e+002, 1.646654e+001
8.780134e+002, 1.650748e+001
8.784955e+002, 1.667141e+001
8.789777e+002, 1.681655e+001
8.794598e+002, 1.684250e+001
8.799419e+002, 1.677405e+001
8.804240e+002, 1.662774e+001
8.809061e+002, 1.642112e+001
8.813882e+002, 1.618817e+001
8.818704e+002, 1.594247e+001
8.823525e+002, 1.580239e+001
8.828346e+002, 1.584732e+001
8.833167e+002, 1.602831e+001
8.837988e+002, 1.626442e+001
8.842809e+002, 1.657512e+001
8.847631e+002, 1.680294e+001
8.852452e+002, 1.695771e+001
8.857273e+002, 1.699714e+001
8.862094e+002, 1.683354e+001
8.866915e+002, 1.662397e+001
8.871736e+002, 1.655294e+001
8.876558e+002, 1.661071e+001
8.881379e+002, 1.663803e+001
8.886200e+002, 1.661641e+001
8.891021e+002, 1.658405e+001
8.895842e+002, 1.642238e+001
8.900663e+002, 1.636944e+001
8.905485e+002, 1.676495e+001
8.910306e+002, 1.734437e+001
8.915127e+002, 1.753765e+001
8.919948e+002, 1.717478e+001
8.924769e+002, 1.680157e+001
8.929590e+002, 1.678500e+001
8.934412e+002, 1.691579e+001
8.939233e+002, 1.706420e+001
8.944054e+002, 1.716064e+001
8.948875e+002, 1.699775e+001
8.953696e+002, 1.658864e+001
8.958517e+002, 1.628222e+001
8.963339e+002, 1.635379e+001
8.968160e+002, 1.663420e+001
8.972981e+002, 1.678980e+001
8.977802e+002, 1.683426e+001
8.982623e+002, 1.692377e+001
8.987444e+002, 1.707897e+001
8.992266e+002, 1.719344e+001
8.997087e+002, 1.721915e+001
9.001908e+002, 1.716861e+001
9.006729e+002, 1.703711e+001
9.011550e+002, 1.681413e+001
9.016371e+002, 1.674909e+001
9.021193e+002, 1.688193e+001
9.026014e+002, 1.710273e+001
9.030835e+002, 1.759277e+001
9.035656e+002, 1.796542e+001
9.040477e+002, 1.787955e+001
9.045298e+002, 1.748628e+001
9.050120e+002, 1.715961e+001
9.054941e+002, 1.691918e+001
9.059762e+002, 1.680449e+001
9.064583e+002, 1.690600e+001
9.069404e+002, 1.705145e+001
9.074225e+002, 1.712658e+001
9.079047e+002, 1.718747e+001
9.083868e+002, 1.734760e+001
9.088689e+002, 1.760246e+001
9.093510e+002, 1.780586e+001
9.098331e+002, 1.785570e+001
9.103152e+002, 1.784205e+001
9.107974e+002, 1.781535e+001
9.112795e+002, 1.780806e+001
9.117616e+002, 1.794154e+001
9.122437e+002, 1.817131e+001
9.127258e+002, 1.822590e+001
9.132079e+002, 1.797601e+001
9.136901e+002, 1.769132e+001
9.141722e+002, 1.779896e+001
9.146543e+002, 1.819698e+001
9.151364e+002, 1.824627e+001
9.156185e+002, 1.793156e+001
9.161006e+002, 1.770579e+001
9.165828e+002, 1.768337e+001
9.170649e+002, 1.776536e+001
9.175470e+002, 1.787427e+001
9.180291e+002, 1.801899e+001
9.185112e+002, 1.825109e+001
9.189933e+002, 1.869455e+001
9.194755e+002, 1.890518e+001
9.199576e+002, 1.871836e+001
9.204397e+002, 1.853447e+001
9.209218e+002, 1.851753e+001
9.214039e+002, 1.857774e+001
9.218860e+002, 1.865191e+001
9.223682e+002, 1.873312e+001
9.228503e+002, 1.872009e+001
9.233324e+002, 1.843101e+001
9.238145e+002, 1.827336e+001
9.242966e+002, 1.844291e+001
9.247787e+002, 1.871387e+001
9.252609e+002, 1.895102e+001
9.257430e+002, 1.913646e+001
9.262251e+002, 1.925013e+001
9.267072e+002, 1.928289e+001
9.271893e+002, 1.936203e+001
9.276714e+002, 1.968305e+001
9.281536e+002, 1.999083e+001
9.286357e+002, 1.992249e+001
9.291178e+002, 1.968397e+001
9.295999e+002, 1.971897e+001
9.300820e+002, 2.005597e+001
9.305641e+002, 2.036485e+001
9.310463e+002, 2.043091e+001
9.315284e+002, 2.038818e+001
9.320105e+002, 2.044462e+001
9.324926e+002, 2.057394e+001
9.329747e+002, 2.065971e+001
9.334568e+002, 2.069917e+001
9.339390e+002, 2.077814e+001
9.344211e+002, 2.093637e+001
9.349032e+002, 2.104989e+001
9.353853e+002, 2.096698e+001
9.358674e+002, 2.073103e+001
9.363495e+002, 2.058392e+001
9.368317e+002, 2.051440e+001
9.373138e+002, 2.060532e+001
9.377959e+002, 2.095471e+001
9.382780e+002, 2.126271e+001
9.387601e+002, 2.131339e+001
9.392422e+002, 2.126731e+001
9.397244e+002, 2.144255e+001
9.402065e+002, 2.191070e+001
9.406886e+002, 2.217434e+001
9.411707e+002, 2.213884e+001
9.416528e+002, 2.203711e+001
9.421349e+002, 2.182129e+001
9.426171e+002, 2.163586e+001
9.430992e+002, 2.159593e+001
9.435813e+002, 2.166940e+001
9.440634e+002, 2.177398e+001
9.445455e+002, 2.191448e+001
9.450276e+002, 2.200677e+001
9.455098e+002, 2.187955e+001
9.459919e+002, 2.184498e+001
9.464740e+002, 2.225659e+001
9.469561e+002, 2.280655e+001
9.474382e+002, 2.304595e+001
9.479203e+002, 2.295718e+001
9.484025e+002, 2.286886e+001
9.488846e+002, 2.297931e+001
9.493667e+002, 2.308975e+001
9.498488e+002, 2.302333e+001
9.503309e+002, 2.282688e+001
9.508130e+002, 2.245348e+001
9.512952e+002, 2.201800e+001
9.517773e+002, 2.192731e+001
9.522594e+002, 2.228534e+001
9.527415e+002, 2.262099e+001
9.532236e+002, 2.244423e+001
9.537057e+002, 2.197327e+001
9.541878e+002, 2.173610e+001
9.546699e+002, 2.169948e+001
9.551520e+002, 2.168521e+001
9.556342e+002, 2.166646e+001
9.561163e+002, 2.147098e+001
9.565984e+002, 2.098127e+001
9.570805e+002, 2.039814e+001
9.575626e+002, 2.003684e+001
9.580447e+002, 1.989314e+001
9.585269e+002, 1.988403e+001
9.590090e+002, 2.006816e+001
9.594911e+002, 2.012088e+001
9.599732e+002, 1.991793e+001
9.604553e+002, 1.969872e+001
9.609374e+002, 1.967077e+001
9.614196e+002, 1.974198e+001
9.619017e+002, 1.963907e+001
9.623838e+002, 1.926042e+001
9.628659e+002, 1.902164e+001
9.633480e+002, 1.899624e+001
9.638301e+002, 1.901345e+001
9.643123e+002, 1.908124e+001
9.647944e+002, 1.912818e+001
9.652765e+002, 1.912292e+001
9.657586e+002, 1.904754e+001
9.662407e+002, 1.881993e+001
9.667228e+002, 1.828713e+001
9.672050e+002, 1.789223e+001
9.676871e+002, 1.774288e+001
9.681692e+002, 1.774150e+001
9.686513e+002, 1.797728e+001
9.691334e+002, 1.824590e+001
9.696155e+002, 1.825196e+001
9.700977e+002, 1.799343e+001
9.705798e+002, 1.776478e+001
9.710619e+002, 1.771798e+001
9.715440e+002, 1.769715e+001
9.720261e+002, 1.756636e+001
9.725082e+002, 1.744154e+001
9.729904e+002, 1.748428e+001
9.734725e+002, 1.762951e+001
9.739546e+002, 1.770949e+001
9.744367e+002, 1.767653e+001
9.749188e+002, 1.761321e+001
9.754009e+002, 1.754855e+001
9.758831e+002, 1.752899e+001
9.763652e+002, 1.771356e+001
9.768473e+002, 1.795866e+001
9.773294e+002, 1.790903e+001
9.778115e+002, 1.757982e+001
9.782936e+002, 1.727239e+001
9.787758e+002, 1.712862e+001
9.792579e+002, 1.705143e+001
9.797400e+002, 1.690257e+001
9.802221e+002, 1.672836e+001
9.807042e+002, 1.670197e+001
9.811863e+002, 1.680848e+001
9.816685e+002, 1.695341e+001
9.821506e+002, 1.711725e+001
9.826327e+002, 1.719351e+001
9.831148e+002, 1.710167e+001
9.835969e+002, 1.693287e+001
9.840790e+002, 1.687465e+001
9.845612e+002, 1.692857e+001
9.850433e+002, 1.686562e+001
9.855254e+002, 1.665719e+001
9.860075e+002, 1.650728e+001
9.864896e+002, 1.648254e+001
9.869717e+002, 1.647461e+001
9.874539e+002, 1.636349e+001
9.879360e+002, 1.623282e+001
9.884181e+002, 1.639424e+001
9.889002e+002, 1.705810e+001
9.893823e+002, 1.723863e+001
9.898644e+002, 1.666469e+001
9.903466e+002, 1.612571e+001
9.908287e+002, 1.584471e+001
9.913108e+002, 1.571869e+001
9.917929e+002, 1.568291e+001
9.922750e+002, 1.572257e+001
9.927571e+002, 1.574855e+001
9.932393e+002, 1.571181e+001
9.937214e+002, 1.574977e+001
9.942035e+002, 1.598762e+001
9.946856e+002, 1.615344e+001
9.951677e+002, 1.616133e+001
9.956498e+002, 1.603234e+001
9.961320e+002, 1.568193e+001
9.966141e+002, 1.517358e+001
9.970962e+002, 1.494212e+001
9.975783e+002, 1.527737e+001
9.980604e+002, 1.554811e+001
9.985425e+002, 1.549458e+001
9.990247e+002, 1.543498e+001
9.995068e+002, 1.566440e+001
9.999889e+002, 1.596281e+001
1.000471e+003, 1.598172e+001
1.000953e+003, 1.569761e+001
1.001435e+003, 1.538708e+001
1.001917e+003, 1.503514e+001
1.002399e+003, 1.488026e+001
1.002882e+003, 1.529643e+001
1.003364e+003, 1.575640e+001
1.003846e+003, 1.573424e+001
1.004328e+003, 1.537943e+001
1.004810e+003, 1.501670e+001
1.005292e+003, 1.474568e+001
1.005774e+003, 1.459225e+001
1.006256e+003, 1.458495e+001
1.006739e+003, 1.468468e+001
1.007221e+003, 1.490998e+001
1.007703e+003, 1.518419e+001
1.008185e+003, 1.543449e+001
1.008667e+003, 1.562869e+001
1.009149e+003, 1.571889e+001
1.009631e+003, 1.568877e+001
1.010113e+003, 1.555482e+001
1.010595e+003, 1.522398e+001
1.011078e+003, 1.491686e+001
1.011560e+003, 1.505687e+001
1.012042e+003, 1.545617e+001
1.012524e+003, 1.564864e+001
1.013006e+003, 1.563216e+001
1.013488e+003, 1.570403e+001
1.013970e+003, 1.599357e+001
1.014452e+003, 1.635631e+001
1.014935e+003, 1.666416e+001
1.015417e+003, 1.689885e+001
1.015899e+003, 1.697459e+001
1.016381e+003, 1.692970e+001
1.016863e+003, 1.696399e+001
1.017345e+003, 1.709522e+001
1.017827e+003, 1.714277e+001
1.018309e+003, 1.700692e+001
1.018791e+003, 1.687394e+001
1.019274e+003, 1.705064e+001
1.019756e+003, 1.743758e+001
1.020238e+003, 1.752624e+001
1.020720e+003, 1.732715e+001
1.021202e+003, 1.709738e+001
1.021684e+003, 1.687437e+001
1.022166e+003, 1.675082e+001
1.022648e+003, 1.677911e+001
1.023130e+003, 1.694577e+001
1.023613e+003, 1.727392e+001
1.024095e+003, 1.774148e+001
1.024577e+003, 1.794902e+001
1.025059e+003, 1.786748e+001
1.025541e+003, 1.775334e+001
1.026023e+003, 1.764083e+001
1.026505e+003, 1.754413e+001
1.026987e+003, 1.744909e+001
1.027469e+003, 1.743151e+001
1.027952e+003, 1.767873e+001
1.028434e+003, 1.821646e+001
1.028916e+003, 1.837440e+001
1.029398e+003, 1.801297e+001
1.029880e+003, 1.777716e+001
1.030362e+003, 1.784749e+001
1.030844e+003, 1.791324e+001
1.031326e+003, 1.772777e+001
1.031809e+003, 1.745495e+001
1.032291e+003, 1.743851e+001
1.032773e+003, 1.771334e+001
1.033255e+003, 1.795379e+001
1.033737e+003, 1.817767e+001
1.034219e+003, 1.833184e+001
1.034701e+003, 1.842869e+001
1.035183e+003, 1.841495e+001
1.035666e+003, 1.818743e+001
1.036148e+003, 1.786564e+001
1.036630e+003, 1.771104e+001
1.037112e+003, 1.776214e+001
1.037594e+003, 1.776251e+001
1.038076e+003, 1.764925e+001
1.038558e+003, 1.758671e+001
1.039040e+003, 1.765532e+001
1.039522e+003, 1.772511e+001
1.040005e+003, 1.770558e+001
1.040487e+003, 1.763056e+001
1.040969e+003, 1.756974e+001
1.041451e+003, 1.752464e+001
1.041933e+003, 1.748409e+001
1.042415e+003, 1.742783e+001
1.042897e+003, 1.740407e+001
1.043379e+003, 1.751110e+001
1.043861e+003, 1.756452e+001
1.044344e+003, 1.738250e+001
1.044826e+003, 1.708384e+001
1.045308e+003, 1.692772e+001
1.045790e+003, 1.696868e+001
1.046272e+003, 1.687960e+001
1.046754e+003, 1.647725e+001
1.047236e+003, 1.614722e+001
1.047718e+003, 1.597796e+001
1.048201e+003, 1.591786e+001
1.048683e+003, 1.599252e+001
1.049165e+003, 1.612584e+001
1.049647e+003, 1.618527e+001
1.050129e+003, 1.615182e+001
1.050611e+003, 1.609202e+001
1.051093e+003, 1.603689e+001
1.051575e+003, 1.593193e+001
1.052057e+003, 1.560384e+001
1.052540e+003, 1.537183e+001
1.053022e+003, 1.564029e+001
1.053504e+003, 1.610284e+001
1.053986e+003, 1.612398e+001
1.054468e+003, 1.560075e+001
1.054950e+003, 1.526407e+001
1.055432e+003, 1.553928e+001
1.055914e+003, 1.571566e+001
1.056396e+003, 1.540351e+001
1.056879e+003, 1.504713e+001
1.057361e+003, 1.500335e+001
1.057843e+003, 1.514569e+001
1.058325e+003, 1.522456e+001
1.058807e+003, 1.520076e+001
1.059289e+003, 1.516897e+001
1.059771e+003, 1.518804e+001
1.060253e+003, 1.516654e+001
1.060736e+003, 1.499707e+001
1.061218e+003, 1.484499e+001
1.061700e+003, 1.488080e+001
1.062182e+003, 1.500111e+001
1.062664e+003, 1.502163e+001
1.063146e+003, 1.491818e+001
1.063628e+003, 1.480824e+001
1.064110e+003, 1.477663e+001
1.064593e+003, 1.468547e+001
1.065075e+003, 1.436458e+001
1.065557e+003, 1.407488e+001
1.066039e+003, 1.397896e+001
1.066521e+003, 1.406794e+001
1.067003e+003, 1.442318e+001
1.067485e+003, 1.498377e+001
1.067967e+003, 1.526296e+001
1.068449e+003, 1.489921e+001
1.068932e+003, 1.453778e+001
1.069414e+003, 1.443477e+001
1.069896e+003, 1.447520e+001
1.070378e+003, 1.470218e+001
1.070860e+003, 1.494246e+001
1.071342e+003, 1.490209e+001
1.071824e+003, 1.460801e+001
1.072306e+003, 1.445524e+001
1.072788e+003, 1.464463e+001
1.073271e+003, 1.486505e+001
1.073753e+003, 1.506117e+001
1.074235e+003, 1.514257e+001
1.074717e+003, 1.493590e+001
1.075199e+003, 1.464241e+001
1.075681e+003, 1.451335e+001
1.076163e+003, 1.456459e+001
1.076645e+003, 1.468567e+001
1.077127e+003, 1.485719e+001
1.077610e+003, 1.503540e+001
1.078092e+003, 1.523314e+001
1.078574e+003, 1.539532e+001
1.079056e+003, 1.545880e+001
1.079538e+003, 1.548488e+001
1.080020e+003, 1.555625e+001
1.080502e+003, 1.566198e+001
1.080984e+003, 1.572474e+001
1.081467e+003, 1.570619e+001
1.081949e+003, 1.571750e+001
1.082431e+003, 1.581319e+001
1.082913e+003, 1.594867e+001
1.083395e+003, 1.615636e+001
1.083877e+003, 1.634319e+001
1.084359e+003, 1.634867e+001
1.084841e+003, 1.625779e+001
1.085323e+003, 1.636955e+001
1.085806e+003, 1.680318e+001
1.086288e+003, 1.700915e+001
1.086770e+003, 1.639090e+001
1.087252e+003, 1.593941e+001
1.087734e+003, 1.631522e+001
1.088216e+003, 1.696633e+001
1.088698e+003, 1.746717e+001
1.089180e+003, 1.778959e+001
1.089662e+003, 1.794084e+001
1.090145e+003, 1.792377e+001
1.090627e+003, 1.798953e+001
1.091109e+003, 1.831418e+001
1.091591e+003, 1.863272e+001
1.092073e+003, 1.875040e+001
1.092555e+003, 1.889692e+001
1.093037e+003, 1.937422e+001
1.093519e+003, 1.995109e+001
1.094002e+003, 2.016788e+001
1.094484e+003, 1.999317e+001
1.094966e+003, 1.995749e+001
1.095448e+003, 2.034913e+001
1.095930e+003, 2.072345e+001
1.096412e+003, 2.097573e+001
1.096894e+003, 2.112181e+001
1.097376e+003, 2.104301e+001
1.097859e+003, 2.094561e+001
1.098341e+003, 2.112492e+001
1.098823e+003, 2.156856e+001
1.099305e+003, 2.199887e+001
1.099787e+003, 2.234086e+001
1.100269e+003, 2.269031e+001
1.100751e+003, 2.314365e+001
1.101233e+003, 2.352233e+001
1.101715e+003, 2.372632e+001
1.102198e+003, 2.382273e+001
1.102680e+003, 2.385105e+001
1.103162e+003, 2.383688e+001
1.103644e+003, 2.384312e+001
1.104126e+003, 2.387005e+001
1.104608e+003, 2.394626e+001
1.105090e+003, 2.413225e+001
1.105572e+003, 2.429613e+001
1.106054e+003, 2.439201e+001
1.106537e+003, 2.444876e+001
1.107019e+003, 2.448450e+001
1.107501e+003, 2.450173e+001
1.107983e+003, 2.450290e+001
1.108465e+003, 2.448754e+001
1.108947e+003, 2.445999e+001
1.109429e+003, 2.436825e+001
1.109911e+003, 2.433875e+001
1.110394e+003, 2.451591e+001
1.110876e+003, 2.463637e+001
1.111358e+003, 2.447424e+001
1.111840e+003, 2.418550e+001
1.112322e+003, 2.401946e+001
1.112804e+003, 2.398285e+001
1.113286e+003, 2.399711e+001
1.113768e+003, 2.422632e+001
1.114250e+003, 2.422575e+001
1.114733e+003, 2.366180e+001
1.115215e+003, 2.328519e+001
1.115697e+003, 2.359568e+001
1.116179e+003, 2.408064e+001
1.116661e+003, 2.409174e+001
1.117143e+003, 2.372097e+001
1.117625e+003, 2.366593e+001
1.118107e+003, 2.414000e+001
1.118589e+003, 2.441577e+001
1.119072e+003, 2.439630e+001
1.119554e+003, 2.435714e+001
1.120036e+003, 2.436128e+001
1.120518e+003, 2.441698e+001
1.121000e+003, 2.456365e+001
1.121482e+003, 2.474289e+001
1.121964e+003, 2.474911e+001
1.122446e+003, 2.450337e+001
1.122929e+003, 2.458592e+001
1.123411e+003, 2.508954e+001
1.123893e+003, 2.563653e+001
1.124375e+003, 2.621783e+001
1.124857e+003, 2.658255e+001
1.125339e+003, 2.648833e+001
1.125821e+003, 2.626547e+001
1.126303e+003, 2.651704e+001
1.126786e+003, 2.720635e+001
1.127268e+003, 2.764844e+001
1.127750e+003, 2.781577e+001
1.128232e+003, 2.794198e+001
1.128714e+003, 2.803815e+001
1.129196e+003, 2.824216e+001
1.129678e+003, 2.862911e+001
1.130160e+003, 2.906501e+001
1.130642e+003, 2.938664e+001
1.131125e+003, 2.964998e+001
1.131607e+003, 3.004879e+001
1.132089e+003, 3.057876e+001
1.132571e+003, 3.121000e+001
1.133053e+003, 3.193690e+001
1.133535e+003, 3.247167e+001
1.134017e+003, 3.272758e+001
1.134499e+003, 3.294737e+001
1.134981e+003, 3.332158e+001
1.135464e+003, 3.375960e+001
1.135946e+003, 3.399776e+001
1.136428e+003, 3.417012e+001
1.136910e+003, 3.487963e+001
1.137392e+003, 3.602377e+001
1.137874e+003, 3.716143e+001
1.138356e+003, 3.816867e+001
1.138838e+003, 3.881643e+001
1.139321e+003, 3.898923e+001
1.139803e+003, 3.906374e+001
1.140285e+003, 3.946457e+001
1.140767e+003, 4.005217e+001
1.141249e+003, 4.057231e+001
1.141731e+003, 4.107972e+001
1.142213e+003, 4.174803e+001
1.142695e+003, 4.251889e+001
1.143177e+003, 4.311967e+001
1.143660e+003, 4.349083e+001
1.144142e+003, 4.390672e+001
1.144624e+003, 4.458385e+001
1.145106e+003, 4.533858e+001
1.145588e+003, 4.609565e+001
1.146070e+003, 4.672644e+001
1.146552e+003, 4.694021e+001
1.147034e+003, 4.696206e+001
1.147516e+003, 4.719572e+001
1.147999e+003, 4.768661e+001
1.148481e+003, 4.827252e+001
1.148963e+003, 4.890583e+001
1.149445e+003, 4.950459e+001
1.149927e+003, 5.013485e+001
1.150409e+003, 5.057793e+001
1.150891e+003, 5.060912e+001
1.151373e+003, 5.042428e+001
1.151856e+003, 5.004536e+001
1.152338e+003, 4.968559e+001
1.152820e+003, 4.983070e+001
1.153302e+003, 5.057824e+001
1.153784e+003, 5.117179e+001
1.154266e+003, 5.124078e+001
1.154748e+003, 5.128518e+001
1.155230e+003, 5.151327e+001
1.155713e+003, 5.171926e+001
1.156195e+003, 5.176707e+001
1.156677e+003, 5.172284e+001
1.157159e+003, 5.164285e+001
1.157641e+003, 5.155009e+001
1.158123e+003, 5.155515e+001
1.158605e+003, 5.174640e+001
1.159087e+003, 5.186868e+001
1.159569e+003, 5.171229e+001
1.160052e+003, 5.175856e+001
1.160534e+003, 5.236778e+001
1.161016e+003, 5.295435e+001
1.161498e+003, 5.296151e+001
1.161980e+003, 5.271338e+001
1.162462e+003, 5.294921e+001
1.162944e+003, 5.373112e+001
1.163426e+003, 5.431129e+001
1.163908e+003, 5.455895e+001
1.164391e+003, 5.501984e+001
1.164873e+003, 5.589200e+001
1.165355e+003, 5.655450e+001
1.165837e+003, 5.658730e+001
1.166319e+003, 5.663174e+001
1.166801e+003, 5.750195e+001
1.167283e+003, 5.896175e+001
1.167765e+003, 6.005985e+001
1.168247e+003, 6.078701e+001
1.168730e+003, 6.135717e+001
1.169212e+003, 6.176558e+001
1.169694e+003, 6.245525e+001
1.170176e+003, 6.354397e+001
1.170658e+003, 6.493787e+001
1.171140e+003, 6.659994e+001
1.171622e+003, 6.834615e+001
1.172104e+003, 6.988810e+001
1.172587e+003, 7.127266e+001
1.173069e+003, 7.261015e+001
1.173551e+003, 7.394225e+001
1.174033e+003, 7.542099e+001
1.174515e+003, 7.706848e+001
1.174997e+003, 7.892131e+001
1.175479e+003, 8.098208e+001
1.175961e+003, 8.298614e+001
1.176443e+003, 8.470744e+001
1.176926e+003, 8.631405e+001
1.177408e+003, 8.792152e+001
1.177890e+003, 8.961597e+001
1.178372e+003, 9.152537e+001
1.178854e+003, 9.362199e+001
1.179336e+003, 9.592200e+001
1.179818e+003, 9.835816e+001
1.180300e+003, 1.006234e+002
1.180782e+003, 1.025693e+002
1.181265e+003, 1.045185e+002
1.181747e+003, 1.065213e+002
1.182229e+003, 1.087541e+002
1.182711e+003, 1.114610e+002
1.183193e+003, 1.143258e+002
1.183675e+003, 1.171214e+002
1.184157e+003, 1.198084e+002
1.184639e+003, 1.223050e+002
1.185122e+003, 1.246265e+002
1.185604e+003, 1.272071e+002
1.186086e+003, 1.303281e+002
1.186568e+003, 1.334319e+002
1.187050e+003, 1.364903e+002
1.187532e+003, 1.394384e+002
1.188014e+003, 1.423042e+002
1.188496e+003, 1.449831e+002
1.188979e+003, 1.472938e+002
1.189461e+003, 1.493636e+002
1.189943e+003, 1.515653e+002
1.190425e+003, 1.540346e+002
1.190907e+003, 1.558363e+002
1.191389e+003, 1.569911e+002
1.191871e+003, 1.573754e+002
1.192353e+003, 1.568819e+002
1.192835e+003, 1.558676e+002
1.193318e+003, 1.545220e+002
1.193800e+003, 1.527111e+002
1.194282e+003, 1.502718e+002
1.194764e+003, 1.472424e+002
1.195246e+003, 1.437292e+002
1.195728e+003, 1.397491e+002
1.196210e+003, 1.357628e+002
1.196692e+003, 1.317917e+002
1.197174e+003, 1.273368e+002
1.197657e+003, 1.223120e+002
1.198139e+003, 1.171802e+002
1.198621e+003, 1.122343e+002
1.199103e+003, 1.072845e+002
1.199585e+003, 1.018884e+002
1.200067e+003, 9.650510e+001
1.200549e+003, 9.213187e+001
1.201031e+003, 8.839269e+001
1.201514e+003, 8.438345e+001
1.201996e+003, 8.018518e+001
1.202478e+003, 7.635867e+001
1.202960e+003, 7.302900e+001
1.203442e+003, 6.996961e+001
1.203924e+003, 6.714626e+001
1.204406e+003, 6.423998e+001
1.204888e+003, 6.086713e+001
1.205370e+003, 5.748669e+001
1.205853e+003, 5.429047e+001
1.206335e+003, 5.148224e+001
1.206817e+003, 4.938607e+001
1.207299e+003, 4.782058e+001
1.207781e+003, 4.628185e+001
1.208263e+003, 4.466932e+001
1.208745e+003, 4.323798e+001
1.209227e+003, 4.238017e+001
1.209709e+003, 4.122349e+001
1.210192e+003, 3.926307e+001
1.210674e+003, 3.732931e+001
1.211156e+003, 3.576639e+001
1.211638e+003, 3.448944e+001
1.212120e+003, 3.348815e+001
1.212602e+003, 3.268890e+001
1.213084e+003, 3.182807e+001
1.213566e+003, 3.089274e+001
1.214049e+003, 2.994519e+001
1.214531e+003, 2.895030e+001
1.215013e+003, 2.809351e+001
1.215495e+003, 2.742811e+001
1.215977e+003, 2.680471e+001
1.216459e+003, 2.613799e+001
1.216941e+003, 2.553685e+001
1.217423e+003, 2.516805e+001
1.217906e+003, 2.491716e+001
1.218388e+003, 2.440990e+001
1.218870e+003, 2.369947e+001
1.219352e+003, 2.306443e+001
1.219834e+003, 2.248896e+001
1.220316e+003, 2.173116e+001
1.220798e+003, 2.079938e+001
1.221280e+003, 2.014918e+001
1.221762e+003, 2.003432e+001
1.222245e+003, 1.999976e+001
1.222727e+003, 1.949135e+001
1.223209e+003, 1.891753e+001
1.223691e+003, 1.879775e+001
1.224173e+003, 1.885689e+001
1.224655e+003, 1.877800e+001
1.225137e+003, 1.857039e+001
1.225619e+003, 1.829577e+001
1.226101e+003, 1.798627e+001
1.226584e+003, 1.771386e+001
1.227066e+003, 1.751862e+001
1.227548e+003, 1.732349e+001
1.228030e+003, 1.704594e+001
1.228512e+003, 1.683913e+001
1.228994e+003, 1.689776e+001
1.229476e+003, 1.692392e+001
1.229958e+003, 1.663116e+001
1.230441e+003, 1.617158e+001
1.230923e+003, 1.580509e+001
1.231405e+003, 1.553058e+001
1.231887e+003, 1.535319e+001
1.232369e+003, 1.529608e+001
1.232851e+003, 1.527943e+001
1.233333e+003, 1.533754e+001
1.233815e+003, 1.529428e+001
1.234297e+003, 1.508381e+001
1.234780e+003, 1.480434e+001
1.235262e+003, 1.451112e+001
1.235744e+003, 1.425077e+001
1.236226e+003, 1.409644e+001
1.236708e+003, 1.404719e+001
1.237190e+003, 1.414453e+001
1.237672e+003, 1.434212e+001
1.238154e+003, 1.446387e+001
1.238636e+003, 1.447858e+001
1.239119e+003, 1.431053e+001
1.239601e+003, 1.397027e+001
1.240083e+003, 1.367494e+001
1.240565e+003, 1.356376e+001
1.241047e+003, 1.353393e+001
1.241529e+003, 1.355578e+001
1.242011e+003, 1.353869e+001
1.242493e+003, 1.338368e+001
1.242975e+003, 1.314449e+001
1.243458e+003, 1.275253e+001
1.243940e+003, 1.238417e+001
1.244422e+003, 1.249731e+001
1.244904e+003, 1.310467e+001
1.245386e+003, 1.337776e+001
1.245868e+003, 1.281726e+001
1.246350e+003, 1.243709e+001
1.246832e+003, 1.256168e+001
1.247315e+003, 1.268315e+001
1.247797e+003, 1.262095e+001
1.248279e+003, 1.250850e+001
1.248761e+003, 1.242134e+001
1.249243e+003, 1.236256e+001
1.249725e+003, 1.234688e+001
1.250207e+003, 1.236899e+001
1.250689e+003, 1.231802e+001
1.251172e+003, 1.217658e+001
1.251654e+003, 1.218414e+001
1.252136e+003, 1.236724e+001
1.252618e+003, 1.243339e+001
1.253100e+003, 1.229540e+001
1.253582e+003, 1.212495e+001
1.254064e+003, 1.203531e+001
1.254546e+003, 1.202957e+001
1.255028e+003, 1.217176e+001
1.255510e+003, 1.235730e+001
1.255993e+003, 1.241362e+001
1.256475e+003, 1.235269e+001
1.256957e+003, 1.209778e+001
1.257439e+003, 1.177413e+001
1.257921e+003, 1.171303e+001
1.258403e+003, 1.192706e+001
1.258885e+003, 1.205542e+001
1.259367e+003, 1.193592e+001
1.259850e+003, 1.175069e+001
1.260332e+003, 1.148959e+001
1.260814e+003, 1.130769e+001
1.261296e+003, 1.129181e+001
1.261778e+003, 1.136883e+001
1.262260e+003, 1.159755e+001
1.262742e+003, 1.181340e+001
1.263224e+003, 1.170779e+001
1.263707e+003, 1.133348e+001
1.264189e+003, 1.114415e+001
1.264671e+003, 1.118828e+001
1.265153e+003, 1.124945e+001
1.265635e+003, 1.131658e+001
1.266117e+003, 1.146437e+001
1.266599e+003, 1.172953e+001
1.267081e+003, 1.193680e+001
1.267563e+003, 1.198695e+001
1.268046e+003, 1.194671e+001
1.268528e+003, 1.188247e+001
1.269010e+003, 1.181054e+001
1.269492e+003, 1.180670e+001
1.269974e+003, 1.180906e+001
1.270456e+003, 1.161519e+001
1.270938e+003, 1.129990e+001
1.271420e+003, 1.105707e+001
1.271902e+003, 1.093118e+001
1.272385e+003, 1.094377e+001
1.272867e+003, 1.110389e+001
1.273349e+003, 1.122627e+001
1.273831e+003, 1.122599e+001
1.274313e+003, 1.112547e+001
1.274795e+003, 1.078607e+001
1.275277e+003, 1.051998e+001
1.275759e+003, 1.054616e+001
1.276242e+003, 1.074806e+001
1.276724e+003, 1.111206e+001
1.277206e+003, 1.151031e+001
1.277688e+003, 1.151342e+001
1.278170e+003, 1.104070e+001
1.278652e+003, 1.096737e+001
1.279134e+003, 1.150973e+001
1.279616e+003, 1.159558e+001
1.280099e+003, 1.098544e+001
1.280581e+003, 1.065421e+001
1.281063e+003, 1.099513e+001
1.281545e+003, 1.129965e+001
1.282027e+003, 1.098011e+001
1.282509e+003, 1.045028e+001
1.282991e+003, 1.041804e+001
1.283473e+003, 1.070121e+001
1.283955e+003, 1.091313e+001
##END=



