##NAMES=Robertsite
##RRUFFID=R130045
##IDEAL CHEMISTRY=Ca_2_Mn^3+^_3_O_2_(PO_4_)_3_&#183;3H_2_O
##LOCALITY=Tip Top mine, Custer, South Dakota, USA
##OWNER=RRUFF
##SOURCE=Thomas A. Loomis
##DESCRIPTION=Dark red plates, associated with quartz and apatite
##STATUS=The identification of this mineral has been confirmed by single-crystal X-ray diffraction.
##URL=rruff.info/R130045
8.936163e+001, 0.000000e+000
8.984375e+001, 1.187045e+002
9.032587e+001, 1.197547e+002
9.080798e+001, 1.199384e+002
9.129010e+001, 1.188514e+002
9.177222e+001, 1.173692e+002
9.225433e+001, 1.166938e+002
9.273645e+001, 1.167471e+002
9.321857e+001, 1.167149e+002
9.370068e+001, 1.158456e+002
9.418280e+001, 1.143214e+002
9.466492e+001, 1.127421e+002
9.514703e+001, 1.113628e+002
9.562915e+001, 1.100577e+002
9.611127e+001, 1.082666e+002
9.659338e+001, 1.058898e+002
9.707550e+001, 1.035848e+002
9.755762e+001, 1.022711e+002
9.803973e+001, 1.019634e+002
9.852185e+001, 1.016488e+002
9.900397e+001, 1.007793e+002
9.948608e+001, 9.933025e+001
9.996820e+001, 9.840461e+001
1.004503e+002, 9.819154e+001
1.009324e+002, 9.827632e+001
1.014146e+002, 9.778467e+001
1.018967e+002, 9.659622e+001
1.023788e+002, 9.516326e+001
1.028609e+002, 9.362517e+001
1.033430e+002, 9.187003e+001
1.038251e+002, 9.042305e+001
1.043073e+002, 8.939088e+001
1.047894e+002, 8.871185e+001
1.052715e+002, 8.809200e+001
1.057536e+002, 8.763416e+001
1.062357e+002, 8.711666e+001
1.067178e+002, 8.635884e+001
1.072000e+002, 8.512614e+001
1.076821e+002, 8.400398e+001
1.081642e+002, 8.310965e+001
1.086463e+002, 8.246313e+001
1.091284e+002, 8.176844e+001
1.096105e+002, 8.108657e+001
1.100927e+002, 8.032789e+001
1.105748e+002, 7.941679e+001
1.110569e+002, 7.799566e+001
1.115390e+002, 7.675716e+001
1.120211e+002, 7.589426e+001
1.125032e+002, 7.549547e+001
1.129854e+002, 7.517179e+001
1.134675e+002, 7.508453e+001
1.139496e+002, 7.500517e+001
1.144317e+002, 7.459920e+001
1.149138e+002, 7.332403e+001
1.153959e+002, 7.205153e+001
1.158781e+002, 7.127515e+001
1.163602e+002, 7.146167e+001
1.168423e+002, 7.129802e+001
1.173244e+002, 6.985711e+001
1.178065e+002, 6.765345e+001
1.182886e+002, 6.599644e+001
1.187708e+002, 6.601433e+001
1.192529e+002, 6.650511e+001
1.197350e+002, 6.650011e+001
1.202171e+002, 6.532287e+001
1.206992e+002, 6.410429e+001
1.211813e+002, 6.373220e+001
1.216635e+002, 6.405140e+001
1.221456e+002, 6.421613e+001
1.226277e+002, 6.351386e+001
1.231098e+002, 6.238484e+001
1.235919e+002, 6.141492e+001
1.240740e+002, 6.106781e+001
1.245562e+002, 6.081389e+001
1.250383e+002, 5.996971e+001
1.255204e+002, 5.853617e+001
1.260025e+002, 5.716666e+001
1.264846e+002, 5.648088e+001
1.269667e+002, 5.630584e+001
1.274489e+002, 5.620899e+001
1.279310e+002, 5.606402e+001
1.284131e+002, 5.586145e+001
1.288952e+002, 5.556907e+001
1.293773e+002, 5.517505e+001
1.298594e+002, 5.473832e+001
1.303416e+002, 5.425920e+001
1.308237e+002, 5.376246e+001
1.313058e+002, 5.339631e+001
1.317879e+002, 5.339930e+001
1.322700e+002, 5.365577e+001
1.327521e+002, 5.356098e+001
1.332343e+002, 5.299114e+001
1.337164e+002, 5.218895e+001
1.341985e+002, 5.155741e+001
1.346806e+002, 5.110283e+001
1.351627e+002, 5.073404e+001
1.356448e+002, 5.048863e+001
1.361270e+002, 5.037148e+001
1.366091e+002, 4.996872e+001
1.370912e+002, 4.911687e+001
1.375733e+002, 4.800196e+001
1.380554e+002, 4.721054e+001
1.385375e+002, 4.679969e+001
1.390197e+002, 4.654270e+001
1.395018e+002, 4.627049e+001
1.399839e+002, 4.597728e+001
1.404660e+002, 4.570224e+001
1.409481e+002, 4.543686e+001
1.414302e+002, 4.518811e+001
1.419124e+002, 4.506262e+001
1.423945e+002, 4.516885e+001
1.428766e+002, 4.525022e+001
1.433587e+002, 4.503189e+001
1.438408e+002, 4.438448e+001
1.443229e+002, 4.370303e+001
1.448051e+002, 4.306319e+001
1.452872e+002, 4.245688e+001
1.457693e+002, 4.188518e+001
1.462514e+002, 4.125234e+001
1.467335e+002, 4.070515e+001
1.472156e+002, 4.044011e+001
1.476978e+002, 4.072377e+001
1.481799e+002, 4.096480e+001
1.486620e+002, 4.101898e+001
1.491441e+002, 4.084664e+001
1.496262e+002, 4.059044e+001
1.501083e+002, 4.016370e+001
1.505905e+002, 3.967080e+001
1.510726e+002, 3.929333e+001
1.515547e+002, 3.918102e+001
1.520368e+002, 3.905853e+001
1.525189e+002, 3.883290e+001
1.530010e+002, 3.841086e+001
1.534832e+002, 3.804728e+001
1.539653e+002, 3.778383e+001
1.544474e+002, 3.759120e+001
1.549295e+002, 3.739900e+001
1.554116e+002, 3.730083e+001
1.558937e+002, 3.712719e+001
1.563759e+002, 3.678350e+001
1.568580e+002, 3.596782e+001
1.573401e+002, 3.537154e+001
1.578222e+002, 3.530241e+001
1.583043e+002, 3.560750e+001
1.587864e+002, 3.572294e+001
1.592686e+002, 3.535120e+001
1.597507e+002, 3.482635e+001
1.602328e+002, 3.436139e+001
1.607149e+002, 3.406310e+001
1.611970e+002, 3.377427e+001
1.616791e+002, 3.340624e+001
1.621613e+002, 3.298550e+001
1.626434e+002, 3.265232e+001
1.631255e+002, 3.251793e+001
1.636076e+002, 3.247731e+001
1.640897e+002, 3.243686e+001
1.645718e+002, 3.243489e+001
1.650540e+002, 3.236960e+001
1.655361e+002, 3.213258e+001
1.660182e+002, 3.173206e+001
1.665003e+002, 3.139652e+001
1.669824e+002, 3.133154e+001
1.674645e+002, 3.137718e+001
1.679467e+002, 3.133696e+001
1.684288e+002, 3.100341e+001
1.689109e+002, 3.064782e+001
1.693930e+002, 3.048278e+001
1.698751e+002, 3.052139e+001
1.703572e+002, 3.059048e+001
1.708394e+002, 3.055350e+001
1.713215e+002, 3.046777e+001
1.718036e+002, 3.043042e+001
1.722857e+002, 3.067650e+001
1.727678e+002, 3.089169e+001
1.732499e+002, 3.063673e+001
1.737321e+002, 2.980938e+001
1.742142e+002, 2.907281e+001
1.746963e+002, 2.910328e+001
1.751784e+002, 2.965781e+001
1.756605e+002, 3.016287e+001
1.761426e+002, 3.021837e+001
1.766248e+002, 3.008451e+001
1.771069e+002, 3.013366e+001
1.775890e+002, 3.042978e+001
1.780711e+002, 3.077793e+001
1.785532e+002, 3.094086e+001
1.790353e+002, 3.096969e+001
1.795175e+002, 3.104123e+001
1.799996e+002, 3.125718e+001
1.804817e+002, 3.158366e+001
1.809638e+002, 3.198719e+001
1.814459e+002, 3.249836e+001
1.819280e+002, 3.299506e+001
1.824102e+002, 3.325069e+001
1.828923e+002, 3.330534e+001
1.833744e+002, 3.344402e+001
1.838565e+002, 3.394057e+001
1.843386e+002, 3.467086e+001
1.848207e+002, 3.527099e+001
1.853029e+002, 3.570248e+001
1.857850e+002, 3.597643e+001
1.862671e+002, 3.602298e+001
1.867492e+002, 3.585596e+001
1.872313e+002, 3.576869e+001
1.877134e+002, 3.599799e+001
1.881956e+002, 3.649517e+001
1.886777e+002, 3.703472e+001
1.891598e+002, 3.762314e+001
1.896419e+002, 3.819337e+001
1.901240e+002, 3.860184e+001
1.906061e+002, 3.884991e+001
1.910883e+002, 3.900182e+001
1.915704e+002, 3.912642e+001
1.920525e+002, 3.921528e+001
1.925346e+002, 3.914186e+001
1.930167e+002, 3.879451e+001
1.934988e+002, 3.830650e+001
1.939810e+002, 3.804484e+001
1.944631e+002, 3.800571e+001
1.949452e+002, 3.810658e+001
1.954273e+002, 3.806221e+001
1.959094e+002, 3.787852e+001
1.963915e+002, 3.800228e+001
1.968737e+002, 3.864019e+001
1.973558e+002, 3.958924e+001
1.978379e+002, 4.010126e+001
1.983200e+002, 4.011299e+001
1.988021e+002, 3.999822e+001
1.992842e+002, 4.014233e+001
1.997664e+002, 4.057068e+001
2.002485e+002, 4.077473e+001
2.007306e+002, 4.056661e+001
2.012127e+002, 4.005241e+001
2.016948e+002, 3.984141e+001
2.021769e+002, 3.999041e+001
2.026591e+002, 4.025283e+001
2.031412e+002, 4.038716e+001
2.036233e+002, 4.037372e+001
2.041054e+002, 4.039665e+001
2.045875e+002, 4.050087e+001
2.050696e+002, 4.067827e+001
2.055518e+002, 4.087707e+001
2.060339e+002, 4.112141e+001
2.065160e+002, 4.133366e+001
2.069981e+002, 4.143081e+001
2.074802e+002, 4.140098e+001
2.079623e+002, 4.130370e+001
2.084445e+002, 4.109960e+001
2.089266e+002, 4.079951e+001
2.094087e+002, 4.072737e+001
2.098908e+002, 4.092487e+001
2.103729e+002, 4.126365e+001
2.108550e+002, 4.164119e+001
2.113372e+002, 4.209489e+001
2.118193e+002, 4.244144e+001
2.123014e+002, 4.260352e+001
2.127835e+002, 4.257979e+001
2.132656e+002, 4.262672e+001
2.137477e+002, 4.274255e+001
2.142299e+002, 4.292968e+001
2.147120e+002, 4.319411e+001
2.151941e+002, 4.355174e+001
2.156762e+002, 4.394700e+001
2.161583e+002, 4.438544e+001
2.166404e+002, 4.486787e+001
2.171226e+002, 4.529916e+001
2.176047e+002, 4.567207e+001
2.180868e+002, 4.600312e+001
2.185689e+002, 4.629100e+001
2.190510e+002, 4.646313e+001
2.195331e+002, 4.677399e+001
2.200153e+002, 4.735255e+001
2.204974e+002, 4.824586e+001
2.209795e+002, 4.890913e+001
2.214616e+002, 4.929346e+001
2.219437e+002, 4.951131e+001
2.224258e+002, 4.968048e+001
2.229080e+002, 4.973006e+001
2.233901e+002, 4.988494e+001
2.238722e+002, 5.022948e+001
2.243543e+002, 5.079614e+001
2.248364e+002, 5.130310e+001
2.253185e+002, 5.178339e+001
2.258007e+002, 5.216770e+001
2.262828e+002, 5.234374e+001
2.267649e+002, 5.218018e+001
2.272470e+002, 5.206431e+001
2.277291e+002, 5.212971e+001
2.282112e+002, 5.241755e+001
2.286934e+002, 5.256779e+001
2.291755e+002, 5.256015e+001
2.296576e+002, 5.243379e+001
2.301397e+002, 5.223751e+001
2.306218e+002, 5.196418e+001
2.311039e+002, 5.162412e+001
2.315861e+002, 5.116868e+001
2.320682e+002, 5.053492e+001
2.325503e+002, 5.022076e+001
2.330324e+002, 5.045993e+001
2.335145e+002, 5.082412e+001
2.339966e+002, 5.073874e+001
2.344788e+002, 4.991639e+001
2.349609e+002, 4.916572e+001
2.354430e+002, 4.875188e+001
2.359251e+002, 4.876078e+001
2.364072e+002, 4.846601e+001
2.368893e+002, 4.761596e+001
2.373715e+002, 4.666827e+001
2.378536e+002, 4.623651e+001
2.383357e+002, 4.666743e+001
2.388178e+002, 4.699657e+001
2.392999e+002, 4.696411e+001
2.397820e+002, 4.652559e+001
2.402642e+002, 4.605872e+001
2.407463e+002, 4.553746e+001
2.412284e+002, 4.500782e+001
2.417105e+002, 4.452340e+001
2.421926e+002, 4.408495e+001
2.426747e+002, 4.368559e+001
2.431569e+002, 4.329136e+001
2.436390e+002, 4.287288e+001
2.441211e+002, 4.272969e+001
2.446032e+002, 4.307998e+001
2.450853e+002, 4.351025e+001
2.455674e+002, 4.350407e+001
2.460496e+002, 4.277427e+001
2.465317e+002, 4.214136e+001
2.470138e+002, 4.181630e+001
2.474959e+002, 4.183175e+001
2.479780e+002, 4.176852e+001
2.484601e+002, 4.157134e+001
2.489423e+002, 4.135134e+001
2.494244e+002, 4.122839e+001
2.499065e+002, 4.121977e+001
2.503886e+002, 4.128408e+001
2.508707e+002, 4.148293e+001
2.513528e+002, 4.183421e+001
2.518350e+002, 4.185549e+001
2.523171e+002, 4.133544e+001
2.527992e+002, 4.071557e+001
2.532813e+002, 4.047076e+001
2.537634e+002, 4.078408e+001
2.542455e+002, 4.107974e+001
2.547277e+002, 4.125067e+001
2.552098e+002, 4.129541e+001
2.556919e+002, 4.127115e+001
2.561740e+002, 4.111255e+001
2.566561e+002, 4.096475e+001
2.571382e+002, 4.098982e+001
2.576204e+002, 4.128785e+001
2.581025e+002, 4.151363e+001
2.585846e+002, 4.158680e+001
2.590667e+002, 4.151520e+001
2.595488e+002, 4.144996e+001
2.600309e+002, 4.138573e+001
2.605131e+002, 4.133805e+001
2.609952e+002, 4.129716e+001
2.614773e+002, 4.120262e+001
2.619594e+002, 4.130745e+001
2.624415e+002, 4.177983e+001
2.629236e+002, 4.255130e+001
2.634058e+002, 4.280157e+001
2.638879e+002, 4.227875e+001
2.643700e+002, 4.166744e+001
2.648521e+002, 4.155482e+001
2.653342e+002, 4.213536e+001
2.658163e+002, 4.256465e+001
2.662985e+002, 4.271870e+001
2.667806e+002, 4.262219e+001
2.672627e+002, 4.236489e+001
2.677448e+002, 4.185475e+001
2.682269e+002, 4.137964e+001
2.687090e+002, 4.118195e+001
2.691912e+002, 4.133561e+001
2.696733e+002, 4.143006e+001
2.701554e+002, 4.137433e+001
2.706375e+002, 4.123197e+001
2.711196e+002, 4.129279e+001
2.716017e+002, 4.162717e+001
2.720839e+002, 4.196819e+001
2.725660e+002, 4.209404e+001
2.730481e+002, 4.195449e+001
2.735302e+002, 4.194191e+001
2.740123e+002, 4.212125e+001
2.744944e+002, 4.243393e+001
2.749766e+002, 4.270184e+001
2.754587e+002, 4.290360e+001
2.759408e+002, 4.314288e+001
2.764229e+002, 4.352040e+001
2.769050e+002, 4.405969e+001
2.773871e+002, 4.445356e+001
2.778693e+002, 4.464391e+001
2.783514e+002, 4.472034e+001
2.788335e+002, 4.485923e+001
2.793156e+002, 4.505804e+001
2.797977e+002, 4.534266e+001
2.802798e+002, 4.573169e+001
2.807620e+002, 4.622162e+001
2.812441e+002, 4.682298e+001
2.817262e+002, 4.758712e+001
2.822083e+002, 4.837017e+001
2.826904e+002, 4.888627e+001
2.831725e+002, 4.911890e+001
2.836547e+002, 4.931754e+001
2.841368e+002, 4.952547e+001
2.846189e+002, 4.976002e+001
2.851010e+002, 5.030043e+001
2.855831e+002, 5.120521e+001
2.860652e+002, 5.226691e+001
2.865474e+002, 5.322321e+001
2.870295e+002, 5.407446e+001
2.875116e+002, 5.483181e+001
2.879937e+002, 5.543581e+001
2.884758e+002, 5.593254e+001
2.889579e+002, 5.656035e+001
2.894401e+002, 5.733823e+001
2.899222e+002, 5.817801e+001
2.904043e+002, 5.898606e+001
2.908864e+002, 5.976471e+001
2.913685e+002, 6.053624e+001
2.918506e+002, 6.132835e+001
2.923328e+002, 6.211565e+001
2.928149e+002, 6.281252e+001
2.932970e+002, 6.342505e+001
2.937791e+002, 6.392356e+001
2.942612e+002, 6.418526e+001
2.947433e+002, 6.427679e+001
2.952255e+002, 6.446748e+001
2.957076e+002, 6.491572e+001
2.961897e+002, 6.547774e+001
2.966718e+002, 6.590213e+001
2.971539e+002, 6.618758e+001
2.976360e+002, 6.630864e+001
2.981182e+002, 6.612524e+001
2.986003e+002, 6.575417e+001
2.990824e+002, 6.550275e+001
2.995645e+002, 6.555111e+001
3.000466e+002, 6.565044e+001
3.005287e+002, 6.547121e+001
3.010109e+002, 6.502748e+001
3.014930e+002, 6.440018e+001
3.019751e+002, 6.352254e+001
3.024572e+002, 6.252549e+001
3.029393e+002, 6.164804e+001
3.034214e+002, 6.093805e+001
3.039036e+002, 6.034880e+001
3.043857e+002, 5.980807e+001
3.048678e+002, 5.933744e+001
3.053499e+002, 5.900625e+001
3.058320e+002, 5.903344e+001
3.063141e+002, 5.916037e+001
3.067963e+002, 5.905806e+001
3.072784e+002, 5.862447e+001
3.077605e+002, 5.809645e+001
3.082426e+002, 5.760266e+001
3.087247e+002, 5.715920e+001
3.092068e+002, 5.680531e+001
3.096890e+002, 5.658178e+001
3.101711e+002, 5.644215e+001
3.106532e+002, 5.638226e+001
3.111353e+002, 5.642567e+001
3.116174e+002, 5.641295e+001
3.120995e+002, 5.618780e+001
3.125817e+002, 5.584632e+001
3.130638e+002, 5.554164e+001
3.135459e+002, 5.536413e+001
3.140280e+002, 5.521887e+001
3.145101e+002, 5.503677e+001
3.149922e+002, 5.481023e+001
3.154744e+002, 5.462075e+001
3.159565e+002, 5.458656e+001
3.164386e+002, 5.458714e+001
3.169207e+002, 5.448621e+001
3.174028e+002, 5.423169e+001
3.178849e+002, 5.387821e+001
3.183671e+002, 5.337218e+001
3.188492e+002, 5.272514e+001
3.193313e+002, 5.221072e+001
3.198134e+002, 5.206937e+001
3.202955e+002, 5.201832e+001
3.207776e+002, 5.183407e+001
3.212598e+002, 5.136514e+001
3.217419e+002, 5.086496e+001
3.222240e+002, 5.029848e+001
3.227061e+002, 4.971082e+001
3.231882e+002, 4.933624e+001
3.236703e+002, 4.954566e+001
3.241525e+002, 4.975425e+001
3.246346e+002, 4.963528e+001
3.251167e+002, 4.889362e+001
3.255988e+002, 4.818147e+001
3.260809e+002, 4.748322e+001
3.265630e+002, 4.684825e+001
3.270452e+002, 4.640990e+001
3.275273e+002, 4.638001e+001
3.280094e+002, 4.637876e+001
3.284915e+002, 4.628534e+001
3.289736e+002, 4.610970e+001
3.294557e+002, 4.581685e+001
3.299379e+002, 4.522479e+001
3.304200e+002, 4.457170e+001
3.309021e+002, 4.426690e+001
3.313842e+002, 4.467537e+001
3.318663e+002, 4.494180e+001
3.323484e+002, 4.478667e+001
3.328306e+002, 4.412913e+001
3.333127e+002, 4.360453e+001
3.337948e+002, 4.328510e+001
3.342769e+002, 4.303202e+001
3.347590e+002, 4.268217e+001
3.352411e+002, 4.215091e+001
3.357233e+002, 4.170877e+001
3.362054e+002, 4.143002e+001
3.366875e+002, 4.130363e+001
3.371696e+002, 4.119313e+001
3.376517e+002, 4.112391e+001
3.381339e+002, 4.102430e+001
3.386160e+002, 4.085631e+001
3.390981e+002, 4.063592e+001
3.395802e+002, 4.025216e+001
3.400623e+002, 3.964705e+001
3.405444e+002, 3.888513e+001
3.410266e+002, 3.821150e+001
3.415087e+002, 3.762103e+001
3.419908e+002, 3.709423e+001
3.424729e+002, 3.666306e+001
3.429550e+002, 3.632950e+001
3.434371e+002, 3.581481e+001
3.439193e+002, 3.503781e+001
3.444014e+002, 3.419028e+001
3.448835e+002, 3.365678e+001
3.453656e+002, 3.343536e+001
3.458477e+002, 3.326283e+001
3.463298e+002, 3.309153e+001
3.468120e+002, 3.287848e+001
3.472941e+002, 3.237732e+001
3.477762e+002, 3.153220e+001
3.482583e+002, 3.064993e+001
3.487404e+002, 3.007180e+001
3.492225e+002, 2.976423e+001
3.497047e+002, 2.958537e+001
3.501868e+002, 2.949249e+001
3.506689e+002, 2.948877e+001
3.511510e+002, 2.970408e+001
3.516331e+002, 3.012836e+001
3.521152e+002, 3.034779e+001
3.525974e+002, 2.983126e+001
3.530795e+002, 2.888837e+001
3.535616e+002, 2.808456e+001
3.540437e+002, 2.756095e+001
3.545258e+002, 2.725705e+001
3.550079e+002, 2.723002e+001
3.554901e+002, 2.741431e+001
3.559722e+002, 2.751510e+001
3.564543e+002, 2.725957e+001
3.569364e+002, 2.687209e+001
3.574185e+002, 2.657767e+001
3.579006e+002, 2.642956e+001
3.583828e+002, 2.634516e+001
3.588649e+002, 2.629780e+001
3.593470e+002, 2.627552e+001
3.598291e+002, 2.625345e+001
3.603112e+002, 2.626802e+001
3.607933e+002, 2.624400e+001
3.612755e+002, 2.611615e+001
3.617576e+002, 2.586245e+001
3.622397e+002, 2.562453e+001
3.627218e+002, 2.534685e+001
3.632039e+002, 2.515177e+001
3.636860e+002, 2.517593e+001
3.641682e+002, 2.578695e+001
3.646503e+002, 2.630112e+001
3.651324e+002, 2.649143e+001
3.656145e+002, 2.636467e+001
3.660966e+002, 2.612176e+001
3.665787e+002, 2.553605e+001
3.670609e+002, 2.500701e+001
3.675430e+002, 2.479061e+001
3.680251e+002, 2.521982e+001
3.685072e+002, 2.559606e+001
3.689893e+002, 2.585894e+001
3.694714e+002, 2.603204e+001
3.699536e+002, 2.618289e+001
3.704357e+002, 2.633731e+001
3.709178e+002, 2.644179e+001
3.713999e+002, 2.645079e+001
3.718820e+002, 2.626053e+001
3.723641e+002, 2.625978e+001
3.728463e+002, 2.658144e+001
3.733284e+002, 2.700473e+001
3.738105e+002, 2.715860e+001
3.742926e+002, 2.688750e+001
3.747747e+002, 2.670027e+001
3.752568e+002, 2.677794e+001
3.757390e+002, 2.712476e+001
3.762211e+002, 2.732875e+001
3.767032e+002, 2.733137e+001
3.771853e+002, 2.731699e+001
3.776674e+002, 2.749624e+001
3.781495e+002, 2.789898e+001
3.786317e+002, 2.823003e+001
3.791138e+002, 2.841813e+001
3.795959e+002, 2.850882e+001
3.800780e+002, 2.864396e+001
3.805601e+002, 2.882518e+001
3.810422e+002, 2.902921e+001
3.815244e+002, 2.922507e+001
3.820065e+002, 2.942560e+001
3.824886e+002, 2.970322e+001
3.829707e+002, 3.008530e+001
3.834528e+002, 3.049570e+001
3.839349e+002, 3.085094e+001
3.844171e+002, 3.115093e+001
3.848992e+002, 3.139403e+001
3.853813e+002, 3.156716e+001
3.858634e+002, 3.169118e+001
3.863455e+002, 3.178952e+001
3.868276e+002, 3.186033e+001
3.873098e+002, 3.195132e+001
3.877919e+002, 3.212157e+001
3.882740e+002, 3.233948e+001
3.887561e+002, 3.255085e+001
3.892382e+002, 3.278715e+001
3.897203e+002, 3.296312e+001
3.902025e+002, 3.294257e+001
3.906846e+002, 3.277007e+001
3.911667e+002, 3.265728e+001
3.916488e+002, 3.272652e+001
3.921309e+002, 3.290543e+001
3.926130e+002, 3.317911e+001
3.930952e+002, 3.367783e+001
3.935773e+002, 3.396353e+001
3.940594e+002, 3.367305e+001
3.945415e+002, 3.305524e+001
3.950236e+002, 3.257175e+001
3.955057e+002, 3.247837e+001
3.959879e+002, 3.244500e+001
3.964700e+002, 3.235350e+001
3.969521e+002, 3.219290e+001
3.974342e+002, 3.198903e+001
3.979163e+002, 3.168411e+001
3.983984e+002, 3.136757e+001
3.988806e+002, 3.112096e+001
3.993627e+002, 3.110319e+001
3.998448e+002, 3.097717e+001
4.003269e+002, 3.062807e+001
4.008090e+002, 3.009971e+001
4.012911e+002, 2.974725e+001
4.017733e+002, 2.972026e+001
4.022554e+002, 2.968863e+001
4.027375e+002, 2.946504e+001
4.032196e+002, 2.893549e+001
4.037017e+002, 2.849283e+001
4.041838e+002, 2.813693e+001
4.046660e+002, 2.787702e+001
4.051481e+002, 2.776162e+001
4.056302e+002, 2.782861e+001
4.061123e+002, 2.789697e+001
4.065944e+002, 2.789166e+001
4.070765e+002, 2.781828e+001
4.075587e+002, 2.781824e+001
4.080408e+002, 2.791450e+001
4.085229e+002, 2.799621e+001
4.090050e+002, 2.792642e+001
4.094871e+002, 2.771580e+001
4.099692e+002, 2.751846e+001
4.104514e+002, 2.736347e+001
4.109335e+002, 2.724349e+001
4.114156e+002, 2.715103e+001
4.118977e+002, 2.708513e+001
4.123798e+002, 2.702640e+001
4.128619e+002, 2.696224e+001
4.133441e+002, 2.689718e+001
4.138262e+002, 2.685531e+001
4.143083e+002, 2.685204e+001
4.147904e+002, 2.680815e+001
4.152725e+002, 2.656648e+001
4.157546e+002, 2.622907e+001
4.162368e+002, 2.600146e+001
4.167189e+002, 2.609558e+001
4.172010e+002, 2.625412e+001
4.176831e+002, 2.630358e+001
4.181652e+002, 2.623877e+001
4.186473e+002, 2.606229e+001
4.191295e+002, 2.563206e+001
4.196116e+002, 2.516295e+001
4.200937e+002, 2.485776e+001
4.205758e+002, 2.485981e+001
4.210579e+002, 2.488799e+001
4.215400e+002, 2.487161e+001
4.220222e+002, 2.481412e+001
4.225043e+002, 2.472351e+001
4.229864e+002, 2.458490e+001
4.234685e+002, 2.442956e+001
4.239506e+002, 2.426906e+001
4.244327e+002, 2.410916e+001
4.249149e+002, 2.392840e+001
4.253970e+002, 2.361676e+001
4.258791e+002, 2.334364e+001
4.263612e+002, 2.329953e+001
4.268433e+002, 2.377771e+001
4.273254e+002, 2.400485e+001
4.278076e+002, 2.375328e+001
4.282897e+002, 2.311447e+001
4.287718e+002, 2.277457e+001
4.292539e+002, 2.283967e+001
4.297360e+002, 2.299345e+001
4.302181e+002, 2.303959e+001
4.307003e+002, 2.295148e+001
4.311824e+002, 2.295258e+001
4.316645e+002, 2.309610e+001
4.321466e+002, 2.325671e+001
4.326287e+002, 2.317894e+001
4.331108e+002, 2.285840e+001
4.335930e+002, 2.257353e+001
4.340751e+002, 2.238766e+001
4.345572e+002, 2.232462e+001
4.350393e+002, 2.255565e+001
4.355214e+002, 2.308889e+001
4.360035e+002, 2.357553e+001
4.364857e+002, 2.364056e+001
4.369678e+002, 2.341827e+001
4.374499e+002, 2.323054e+001
4.379320e+002, 2.314763e+001
4.384141e+002, 2.312345e+001
4.388962e+002, 2.314350e+001
4.393784e+002, 2.318682e+001
4.398605e+002, 2.319226e+001
4.403426e+002, 2.304276e+001
4.408247e+002, 2.289450e+001
4.413068e+002, 2.290931e+001
4.417889e+002, 2.311551e+001
4.422711e+002, 2.329221e+001
4.427532e+002, 2.333196e+001
4.432353e+002, 2.328301e+001
4.437174e+002, 2.319549e+001
4.441995e+002, 2.297586e+001
4.446816e+002, 2.283255e+001
4.451638e+002, 2.286682e+001
4.456459e+002, 2.303999e+001
4.461280e+002, 2.317404e+001
4.466101e+002, 2.325851e+001
4.470922e+002, 2.328589e+001
4.475743e+002, 2.324140e+001
4.480565e+002, 2.308282e+001
4.485386e+002, 2.296467e+001
4.490207e+002, 2.293228e+001
4.495028e+002, 2.291247e+001
4.499849e+002, 2.279160e+001
4.504670e+002, 2.247133e+001
4.509492e+002, 2.227291e+001
4.514313e+002, 2.229316e+001
4.519134e+002, 2.250210e+001
4.523955e+002, 2.268780e+001
4.528776e+002, 2.284171e+001
4.533597e+002, 2.299124e+001
4.538419e+002, 2.318197e+001
4.543240e+002, 2.340925e+001
4.548061e+002, 2.351617e+001
4.552882e+002, 2.346294e+001
4.557703e+002, 2.335372e+001
4.562524e+002, 2.333319e+001
4.567346e+002, 2.339583e+001
4.572167e+002, 2.350639e+001
4.576988e+002, 2.371893e+001
4.581809e+002, 2.394029e+001
4.586630e+002, 2.403416e+001
4.591451e+002, 2.399874e+001
4.596273e+002, 2.382041e+001
4.601094e+002, 2.327616e+001
4.605915e+002, 2.265814e+001
4.610736e+002, 2.237905e+001
4.615557e+002, 2.265188e+001
4.620378e+002, 2.299906e+001
4.625200e+002, 2.313638e+001
4.630021e+002, 2.312576e+001
4.634842e+002, 2.308417e+001
4.639663e+002, 2.298046e+001
4.644484e+002, 2.292271e+001
4.649305e+002, 2.301533e+001
4.654127e+002, 2.327663e+001
4.658948e+002, 2.341165e+001
4.663769e+002, 2.322274e+001
4.668590e+002, 2.296783e+001
4.673411e+002, 2.283447e+001
4.678232e+002, 2.301946e+001
4.683054e+002, 2.307348e+001
4.687875e+002, 2.287952e+001
4.692696e+002, 2.256360e+001
4.697517e+002, 2.246020e+001
4.702338e+002, 2.271903e+001
4.707159e+002, 2.290896e+001
4.711981e+002, 2.282619e+001
4.716802e+002, 2.245194e+001
4.721623e+002, 2.232368e+001
4.726444e+002, 2.250650e+001
4.731265e+002, 2.276063e+001
4.736086e+002, 2.286879e+001
4.740908e+002, 2.283170e+001
4.745729e+002, 2.266897e+001
4.750550e+002, 2.231852e+001
4.755371e+002, 2.194651e+001
4.760192e+002, 2.195134e+001
4.765013e+002, 2.228006e+001
4.769835e+002, 2.251980e+001
4.774656e+002, 2.233807e+001
4.779477e+002, 2.195893e+001
4.784298e+002, 2.172770e+001
4.789119e+002, 2.166033e+001
4.793940e+002, 2.170548e+001
4.798762e+002, 2.191159e+001
4.803583e+002, 2.217819e+001
4.808404e+002, 2.237686e+001
4.813225e+002, 2.249450e+001
4.818046e+002, 2.250720e+001
4.822867e+002, 2.229311e+001
4.827689e+002, 2.195684e+001
4.832510e+002, 2.176723e+001
4.837331e+002, 2.200357e+001
4.842152e+002, 2.224257e+001
4.846973e+002, 2.228545e+001
4.851794e+002, 2.208103e+001
4.856616e+002, 2.188030e+001
4.861437e+002, 2.164638e+001
4.866258e+002, 2.146033e+001
4.871079e+002, 2.139283e+001
4.875900e+002, 2.155036e+001
4.880721e+002, 2.163147e+001
4.885543e+002, 2.155989e+001
4.890364e+002, 2.140990e+001
4.895185e+002, 2.142064e+001
4.900006e+002, 2.165208e+001
4.904827e+002, 2.185291e+001
4.909648e+002, 2.191563e+001
4.914470e+002, 2.184449e+001
4.919291e+002, 2.166703e+001
4.924112e+002, 2.134983e+001
4.928933e+002, 2.109378e+001
4.933754e+002, 2.118311e+001
4.938575e+002, 2.153387e+001
4.943397e+002, 2.177017e+001
4.948218e+002, 2.178816e+001
4.953039e+002, 2.169589e+001
4.957860e+002, 2.156204e+001
4.962681e+002, 2.142426e+001
4.967502e+002, 2.141064e+001
4.972324e+002, 2.177443e+001
4.977145e+002, 2.217810e+001
4.981966e+002, 2.226119e+001
4.986787e+002, 2.200465e+001
4.991608e+002, 2.175638e+001
4.996429e+002, 2.173549e+001
5.001251e+002, 2.178588e+001
5.006072e+002, 2.176513e+001
5.010893e+002, 2.156031e+001
5.015714e+002, 2.139399e+001
5.020535e+002, 2.130505e+001
5.025356e+002, 2.128734e+001
5.030178e+002, 2.132623e+001
5.034999e+002, 2.152679e+001
5.039820e+002, 2.166708e+001
5.044641e+002, 2.165737e+001
5.049462e+002, 2.148788e+001
5.054283e+002, 2.144379e+001
5.059105e+002, 2.159288e+001
5.063926e+002, 2.176383e+001
5.068747e+002, 2.183500e+001
5.073568e+002, 2.180202e+001
5.078389e+002, 2.168936e+001
5.083210e+002, 2.147513e+001
5.088032e+002, 2.122680e+001
5.092853e+002, 2.107920e+001
5.097674e+002, 2.102514e+001
5.102495e+002, 2.094564e+001
5.107316e+002, 2.076084e+001
5.112137e+002, 2.052994e+001
5.116959e+002, 2.038940e+001
5.121780e+002, 2.033416e+001
5.126601e+002, 2.028512e+001
5.131422e+002, 2.022439e+001
5.136243e+002, 2.012000e+001
5.141064e+002, 1.989358e+001
5.145886e+002, 1.947598e+001
5.150707e+002, 1.914160e+001
5.155528e+002, 1.913469e+001
5.160349e+002, 1.930054e+001
5.165170e+002, 1.941479e+001
5.169991e+002, 1.944417e+001
5.174813e+002, 1.937368e+001
5.179634e+002, 1.912396e+001
5.184455e+002, 1.872899e+001
5.189276e+002, 1.845717e+001
5.194097e+002, 1.850127e+001
5.198918e+002, 1.853404e+001
5.203740e+002, 1.839419e+001
5.208561e+002, 1.795794e+001
5.213382e+002, 1.776447e+001
5.218203e+002, 1.790314e+001
5.223024e+002, 1.818092e+001
5.227845e+002, 1.839738e+001
5.232667e+002, 1.855532e+001
5.237488e+002, 1.862656e+001
5.242309e+002, 1.858136e+001
5.247130e+002, 1.846706e+001
5.251951e+002, 1.840549e+001
5.256772e+002, 1.839523e+001
5.261594e+002, 1.837956e+001
5.266415e+002, 1.832432e+001
5.271236e+002, 1.824078e+001
5.276057e+002, 1.812397e+001
5.280878e+002, 1.797285e+001
5.285699e+002, 1.789671e+001
5.290521e+002, 1.811971e+001
5.295342e+002, 1.842820e+001
5.300163e+002, 1.851126e+001
5.304984e+002, 1.813725e+001
5.309805e+002, 1.780075e+001
5.314626e+002, 1.785123e+001
5.319448e+002, 1.812675e+001
5.324269e+002, 1.831288e+001
5.329090e+002, 1.818759e+001
5.333911e+002, 1.808705e+001
5.338732e+002, 1.814790e+001
5.343553e+002, 1.838069e+001
5.348375e+002, 1.856252e+001
5.353196e+002, 1.864257e+001
5.358017e+002, 1.871359e+001
5.362838e+002, 1.884259e+001
5.367659e+002, 1.910443e+001
5.372480e+002, 1.919719e+001
5.377302e+002, 1.905460e+001
5.382123e+002, 1.883005e+001
5.386944e+002, 1.874660e+001
5.391765e+002, 1.880984e+001
5.396586e+002, 1.893516e+001
5.401407e+002, 1.912655e+001
5.406229e+002, 1.934100e+001
5.411050e+002, 1.946025e+001
5.415871e+002, 1.949198e+001
5.420692e+002, 1.951011e+001
5.425513e+002, 1.955936e+001
5.430334e+002, 1.962613e+001
5.435156e+002, 1.968192e+001
5.439977e+002, 1.972365e+001
5.444798e+002, 1.978986e+001
5.449619e+002, 1.998016e+001
5.454440e+002, 2.017834e+001
5.459261e+002, 2.025037e+001
5.464083e+002, 2.005912e+001
5.468904e+002, 1.988282e+001
5.473725e+002, 1.978045e+001
5.478546e+002, 1.976087e+001
5.483367e+002, 1.984038e+001
5.488188e+002, 2.011644e+001
5.493010e+002, 2.039288e+001
5.497831e+002, 2.063854e+001
5.502652e+002, 2.085270e+001
5.507473e+002, 2.098401e+001
5.512294e+002, 2.099483e+001
5.517115e+002, 2.098661e+001
5.521937e+002, 2.103054e+001
5.526758e+002, 2.113633e+001
5.531579e+002, 2.121494e+001
5.536400e+002, 2.127522e+001
5.541221e+002, 2.127506e+001
5.546042e+002, 2.107904e+001
5.550864e+002, 2.073504e+001
5.555685e+002, 2.056301e+001
5.560506e+002, 2.075886e+001
5.565327e+002, 2.104532e+001
5.570148e+002, 2.097029e+001
5.574969e+002, 2.062525e+001
5.579791e+002, 2.035423e+001
5.584612e+002, 2.046248e+001
5.589433e+002, 2.065241e+001
5.594254e+002, 2.064982e+001
5.599075e+002, 2.043233e+001
5.603896e+002, 2.027781e+001
5.608718e+002, 2.040751e+001
5.613539e+002, 2.057867e+001
5.618360e+002, 2.060546e+001
5.623181e+002, 2.028373e+001
5.628002e+002, 2.009076e+001
5.632823e+002, 2.017595e+001
5.637645e+002, 2.034993e+001
5.642466e+002, 2.029154e+001
5.647287e+002, 1.982038e+001
5.652108e+002, 1.954072e+001
5.656929e+002, 1.967440e+001
5.661750e+002, 2.009519e+001
5.666572e+002, 2.021418e+001
5.671393e+002, 1.999798e+001
5.676214e+002, 1.971356e+001
5.681035e+002, 1.946065e+001
5.685856e+002, 1.926283e+001
5.690677e+002, 1.922057e+001
5.695499e+002, 1.934238e+001
5.700320e+002, 1.953968e+001
5.705141e+002, 1.980882e+001
5.709962e+002, 2.007752e+001
5.714783e+002, 2.020984e+001
5.719604e+002, 2.010471e+001
5.724426e+002, 2.000145e+001
5.729247e+002, 2.012815e+001
5.734068e+002, 2.035271e+001
5.738889e+002, 2.044126e+001
5.743710e+002, 2.012315e+001
5.748531e+002, 1.985129e+001
5.753353e+002, 1.982291e+001
5.758174e+002, 2.002020e+001
5.762995e+002, 2.011831e+001
5.767816e+002, 1.999899e+001
5.772637e+002, 1.990912e+001
5.777458e+002, 1.996793e+001
5.782280e+002, 2.020885e+001
5.787101e+002, 2.043165e+001
5.791922e+002, 2.065258e+001
5.796743e+002, 2.081974e+001
5.801564e+002, 2.084491e+001
5.806385e+002, 2.073775e+001
5.811207e+002, 2.066105e+001
5.816028e+002, 2.061996e+001
5.820849e+002, 2.067546e+001
5.825670e+002, 2.103423e+001
5.830491e+002, 2.158659e+001
5.835313e+002, 2.199450e+001
5.840134e+002, 2.189168e+001
5.844955e+002, 2.171511e+001
5.849776e+002, 2.196448e+001
5.854597e+002, 2.254954e+001
5.859418e+002, 2.295323e+001
5.864240e+002, 2.275785e+001
5.869061e+002, 2.244283e+001
5.873882e+002, 2.224789e+001
5.878703e+002, 2.217405e+001
5.883524e+002, 2.233218e+001
5.888345e+002, 2.290029e+001
5.893167e+002, 2.359916e+001
5.897988e+002, 2.422315e+001
5.902809e+002, 2.476572e+001
5.907630e+002, 2.526223e+001
5.912451e+002, 2.575886e+001
5.917272e+002, 2.617192e+001
5.922094e+002, 2.622927e+001
5.926915e+002, 2.589209e+001
5.931736e+002, 2.582238e+001
5.936557e+002, 2.633624e+001
5.941378e+002, 2.720197e+001
5.946199e+002, 2.792476e+001
5.951021e+002, 2.850151e+001
5.955842e+002, 2.895707e+001
5.960663e+002, 2.922453e+001
5.965484e+002, 2.942028e+001
5.970305e+002, 2.965594e+001
5.975126e+002, 2.993839e+001
5.979948e+002, 3.032920e+001
5.984769e+002, 3.091168e+001
5.989590e+002, 3.158506e+001
5.994411e+002, 3.227039e+001
5.999232e+002, 3.296498e+001
6.004053e+002, 3.365298e+001
6.008875e+002, 3.430573e+001
6.013696e+002, 3.495520e+001
6.018517e+002, 3.565117e+001
6.023338e+002, 3.644234e+001
6.028159e+002, 3.716968e+001
6.032980e+002, 3.779144e+001
6.037802e+002, 3.833508e+001
6.042623e+002, 3.889854e+001
6.047444e+002, 3.946740e+001
6.052265e+002, 4.013470e+001
6.057086e+002, 4.095807e+001
6.061907e+002, 4.191756e+001
6.066729e+002, 4.298952e+001
6.071550e+002, 4.416673e+001
6.076371e+002, 4.534487e+001
6.081192e+002, 4.635511e+001
6.086013e+002, 4.733930e+001
6.090834e+002, 4.848751e+001
6.095656e+002, 4.988246e+001
6.100477e+002, 5.127139e+001
6.105298e+002, 5.250111e+001
6.110119e+002, 5.365416e+001
6.114940e+002, 5.483895e+001
6.119761e+002, 5.579443e+001
6.124583e+002, 5.710991e+001
6.129404e+002, 5.918406e+001
6.134225e+002, 6.163322e+001
6.139046e+002, 6.364763e+001
6.143867e+002, 6.497187e+001
6.148688e+002, 6.632190e+001
6.153510e+002, 6.790561e+001
6.158331e+002, 6.969328e+001
6.163152e+002, 7.162646e+001
6.167973e+002, 7.373362e+001
6.172794e+002, 7.563316e+001
6.177615e+002, 7.675109e+001
6.182437e+002, 7.745470e+001
6.187258e+002, 7.892966e+001
6.192079e+002, 8.127369e+001
6.196900e+002, 8.368062e+001
6.201721e+002, 8.547260e+001
6.206542e+002, 8.692746e+001
6.211364e+002, 8.840153e+001
6.216185e+002, 9.007137e+001
6.221006e+002, 9.159705e+001
6.225827e+002, 9.265913e+001
6.230648e+002, 9.355629e+001
6.235469e+002, 9.470573e+001
6.240291e+002, 9.678239e+001
6.245112e+002, 9.838467e+001
6.249933e+002, 9.922326e+001
6.254754e+002, 9.946469e+001
6.259575e+002, 9.963553e+001
6.264396e+002, 9.973231e+001
6.269218e+002, 9.978419e+001
6.274039e+002, 9.984679e+001
6.278860e+002, 9.988156e+001
6.283681e+002, 9.956099e+001
6.288502e+002, 9.886944e+001
6.293323e+002, 9.822823e+001
6.298145e+002, 9.812611e+001
6.302966e+002, 9.825247e+001
6.307787e+002, 9.795827e+001
6.312608e+002, 9.715678e+001
6.317429e+002, 9.627418e+001
6.322250e+002, 9.564735e+001
6.327072e+002, 9.509840e+001
6.331893e+002, 9.441420e+001
6.336714e+002, 9.343986e+001
6.341535e+002, 9.251476e+001
6.346356e+002, 9.175359e+001
6.351177e+002, 9.109109e+001
6.355999e+002, 9.041924e+001
6.360820e+002, 8.986478e+001
6.365641e+002, 8.907503e+001
6.370462e+002, 8.786691e+001
6.375283e+002, 8.641792e+001
6.380104e+002, 8.537006e+001
6.384926e+002, 8.479041e+001
6.389747e+002, 8.413194e+001
6.394568e+002, 8.309859e+001
6.399389e+002, 8.179659e+001
6.404210e+002, 8.054345e+001
6.409031e+002, 7.933608e+001
6.413853e+002, 7.829192e+001
6.418674e+002, 7.766322e+001
6.423495e+002, 7.715722e+001
6.428316e+002, 7.641939e+001
6.433137e+002, 7.538605e+001
6.437958e+002, 7.431483e+001
6.442780e+002, 7.327076e+001
6.447601e+002, 7.226759e+001
6.452422e+002, 7.133501e+001
6.457243e+002, 7.067531e+001
6.462064e+002, 6.976254e+001
6.466885e+002, 6.837843e+001
6.471707e+002, 6.684897e+001
6.476528e+002, 6.564474e+001
6.481349e+002, 6.484776e+001
6.486170e+002, 6.410287e+001
6.490991e+002, 6.340681e+001
6.495812e+002, 6.264974e+001
6.500634e+002, 6.144575e+001
6.505455e+002, 5.982174e+001
6.510276e+002, 5.831803e+001
6.515097e+002, 5.720961e+001
6.519918e+002, 5.633836e+001
6.524739e+002, 5.549013e+001
6.529561e+002, 5.466969e+001
6.534382e+002, 5.383664e+001
6.539203e+002, 5.288287e+001
6.544024e+002, 5.198796e+001
6.548845e+002, 5.136322e+001
6.553666e+002, 5.107577e+001
6.558488e+002, 5.050292e+001
6.563309e+002, 4.920372e+001
6.568130e+002, 4.780569e+001
6.572951e+002, 4.669876e+001
6.577772e+002, 4.602099e+001
6.582593e+002, 4.525982e+001
6.587415e+002, 4.438598e+001
6.592236e+002, 4.347619e+001
6.597057e+002, 4.258729e+001
6.601878e+002, 4.172442e+001
6.606699e+002, 4.099336e+001
6.611520e+002, 4.044918e+001
6.616342e+002, 3.998546e+001
6.621163e+002, 3.947276e+001
6.625984e+002, 3.892322e+001
6.630805e+002, 3.836832e+001
6.635626e+002, 3.780786e+001
6.640447e+002, 3.725946e+001
6.645269e+002, 3.673861e+001
6.650090e+002, 3.624241e+001
6.654911e+002, 3.574798e+001
6.659732e+002, 3.522477e+001
6.664553e+002, 3.472635e+001
6.669374e+002, 3.428119e+001
6.674196e+002, 3.388340e+001
6.679017e+002, 3.348706e+001
6.683838e+002, 3.308659e+001
6.688659e+002, 3.269236e+001
6.693480e+002, 3.228764e+001
6.698301e+002, 3.187404e+001
6.703123e+002, 3.159015e+001
6.707944e+002, 3.145262e+001
6.712765e+002, 3.131063e+001
6.717586e+002, 3.095196e+001
6.722407e+002, 3.049770e+001
6.727228e+002, 3.028048e+001
6.732050e+002, 3.038973e+001
6.736871e+002, 3.042727e+001
6.741692e+002, 2.998346e+001
6.746513e+002, 2.934440e+001
6.751334e+002, 2.884989e+001
6.756155e+002, 2.865749e+001
6.760977e+002, 2.849718e+001
6.765798e+002, 2.828862e+001
6.770619e+002, 2.808858e+001
6.775440e+002, 2.799579e+001
6.780261e+002, 2.810110e+001
6.785082e+002, 2.812207e+001
6.789904e+002, 2.799853e+001
6.794725e+002, 2.777093e+001
6.799546e+002, 2.753046e+001
6.804367e+002, 2.728138e+001
6.809188e+002, 2.701875e+001
6.814009e+002, 2.673581e+001
6.818831e+002, 2.644464e+001
6.823652e+002, 2.615107e+001
6.828473e+002, 2.586430e+001
6.833294e+002, 2.564373e+001
6.838115e+002, 2.558742e+001
6.842936e+002, 2.555880e+001
6.847758e+002, 2.544750e+001
6.852579e+002, 2.524797e+001
6.857400e+002, 2.506150e+001
6.862221e+002, 2.489492e+001
6.867042e+002, 2.476794e+001
6.871863e+002, 2.470081e+001
6.876685e+002, 2.472139e+001
6.881506e+002, 2.467092e+001
6.886327e+002, 2.451713e+001
6.891148e+002, 2.435542e+001
6.895969e+002, 2.427851e+001
6.900790e+002, 2.427983e+001
6.905612e+002, 2.428487e+001
6.910433e+002, 2.429547e+001
6.915254e+002, 2.426027e+001
6.920075e+002, 2.411831e+001
6.924896e+002, 2.388907e+001
6.929717e+002, 2.358689e+001
6.934539e+002, 2.312754e+001
6.939360e+002, 2.277483e+001
6.944181e+002, 2.275893e+001
6.949002e+002, 2.293167e+001
6.953823e+002, 2.306347e+001
6.958644e+002, 2.302542e+001
6.963466e+002, 2.304593e+001
6.968287e+002, 2.323548e+001
6.973108e+002, 2.348578e+001
6.977929e+002, 2.348768e+001
6.982750e+002, 2.317916e+001
6.987571e+002, 2.285062e+001
6.992393e+002, 2.256644e+001
6.997214e+002, 2.234411e+001
7.002035e+002, 2.227410e+001
7.006856e+002, 2.234037e+001
7.011677e+002, 2.240701e+001
7.016498e+002, 2.240086e+001
7.021320e+002, 2.234845e+001
7.026141e+002, 2.225120e+001
7.030962e+002, 2.211963e+001
7.035783e+002, 2.203866e+001
7.040604e+002, 2.213413e+001
7.045425e+002, 2.221898e+001
7.050247e+002, 2.215770e+001
7.055068e+002, 2.189426e+001
7.059889e+002, 2.175485e+001
7.064710e+002, 2.181257e+001
7.069531e+002, 2.190098e+001
7.074352e+002, 2.194715e+001
7.079174e+002, 2.196445e+001
7.083995e+002, 2.172077e+001
7.088816e+002, 2.114642e+001
7.093637e+002, 2.062999e+001
7.098458e+002, 2.067600e+001
7.103279e+002, 2.108866e+001
7.108101e+002, 2.138903e+001
7.112922e+002, 2.148853e+001
7.117743e+002, 2.148118e+001
7.122564e+002, 2.139795e+001
7.127385e+002, 2.126672e+001
7.132206e+002, 2.111729e+001
7.137028e+002, 2.089350e+001
7.141849e+002, 2.074344e+001
7.146670e+002, 2.078976e+001
7.151491e+002, 2.088786e+001
7.156312e+002, 2.081052e+001
7.161133e+002, 2.042618e+001
7.165955e+002, 2.026040e+001
7.170776e+002, 2.048332e+001
7.175597e+002, 2.087693e+001
7.180418e+002, 2.095707e+001
7.185239e+002, 2.075027e+001
7.190060e+002, 2.050574e+001
7.194882e+002, 2.026465e+001
7.199703e+002, 2.009616e+001
7.204524e+002, 2.017394e+001
7.209345e+002, 2.040544e+001
7.214166e+002, 2.051946e+001
7.218987e+002, 2.021592e+001
7.223809e+002, 1.992903e+001
7.228630e+002, 1.989902e+001
7.233451e+002, 2.009954e+001
7.238272e+002, 2.025308e+001
7.243093e+002, 2.036732e+001
7.247914e+002, 2.040195e+001
7.252736e+002, 2.032057e+001
7.257557e+002, 2.013482e+001
7.262378e+002, 1.998821e+001
7.267199e+002, 1.988247e+001
7.272020e+002, 1.978937e+001
7.276841e+002, 1.966087e+001
7.281663e+002, 1.953671e+001
7.286484e+002, 1.952821e+001
7.291305e+002, 1.963476e+001
7.296126e+002, 1.974668e+001
7.300947e+002, 1.978263e+001
7.305768e+002, 1.979769e+001
7.310590e+002, 1.986802e+001
7.315411e+002, 2.004284e+001
7.320232e+002, 2.005624e+001
7.325053e+002, 1.966414e+001
7.329874e+002, 1.925545e+001
7.334695e+002, 1.907910e+001
7.339517e+002, 1.922868e+001
7.344338e+002, 1.926796e+001
7.349159e+002, 1.916068e+001
7.353980e+002, 1.904578e+001
7.358801e+002, 1.911761e+001
7.363622e+002, 1.931924e+001
7.368444e+002, 1.939485e+001
7.373265e+002, 1.928521e+001
7.378086e+002, 1.914836e+001
7.382907e+002, 1.912768e+001
7.387728e+002, 1.917246e+001
7.392549e+002, 1.922269e+001
7.397371e+002, 1.930107e+001
7.402192e+002, 1.931708e+001
7.407013e+002, 1.917409e+001
7.411834e+002, 1.898475e+001
7.416655e+002, 1.890210e+001
7.421476e+002, 1.898362e+001
7.426298e+002, 1.903913e+001
7.431119e+002, 1.905160e+001
7.435940e+002, 1.902038e+001
7.440761e+002, 1.887065e+001
7.445582e+002, 1.863144e+001
7.450403e+002, 1.862300e+001
7.455225e+002, 1.905845e+001
7.460046e+002, 1.956269e+001
7.464867e+002, 1.964072e+001
7.469688e+002, 1.943717e+001
7.474509e+002, 1.926186e+001
7.479330e+002, 1.930806e+001
7.484152e+002, 1.933785e+001
7.488973e+002, 1.923118e+001
7.493794e+002, 1.903155e+001
7.498615e+002, 1.888661e+001
7.503436e+002, 1.878989e+001
7.508257e+002, 1.877396e+001
7.513079e+002, 1.890294e+001
7.517900e+002, 1.909811e+001
7.522721e+002, 1.901630e+001
7.527542e+002, 1.865793e+001
7.532363e+002, 1.836788e+001
7.537184e+002, 1.835042e+001
7.542006e+002, 1.848099e+001
7.546827e+002, 1.862911e+001
7.551648e+002, 1.876986e+001
7.556469e+002, 1.879273e+001
7.561290e+002, 1.849309e+001
7.566111e+002, 1.819570e+001
7.570933e+002, 1.808170e+001
7.575754e+002, 1.815265e+001
7.580575e+002, 1.823553e+001
7.585396e+002, 1.836657e+001
7.590217e+002, 1.843340e+001
7.595038e+002, 1.834624e+001
7.599860e+002, 1.813305e+001
7.604681e+002, 1.817476e+001
7.609502e+002, 1.849858e+001
7.614323e+002, 1.874791e+001
7.619144e+002, 1.859547e+001
7.623965e+002, 1.824099e+001
7.628787e+002, 1.805747e+001
7.633608e+002, 1.804425e+001
7.638429e+002, 1.803805e+001
7.643250e+002, 1.784461e+001
7.648071e+002, 1.769992e+001
7.652892e+002, 1.782741e+001
7.657714e+002, 1.830169e+001
7.662535e+002, 1.856739e+001
7.667356e+002, 1.847928e+001
7.672177e+002, 1.833200e+001
7.676998e+002, 1.830168e+001
7.681819e+002, 1.840101e+001
7.686641e+002, 1.836691e+001
7.691462e+002, 1.818168e+001
7.696283e+002, 1.800117e+001
7.701104e+002, 1.799143e+001
7.705925e+002, 1.806944e+001
7.710746e+002, 1.804902e+001
7.715568e+002, 1.790726e+001
7.720389e+002, 1.782627e+001
7.725210e+002, 1.803640e+001
7.730031e+002, 1.827415e+001
7.734852e+002, 1.829633e+001
7.739673e+002, 1.793467e+001
7.744495e+002, 1.782279e+001
7.749316e+002, 1.817937e+001
7.754137e+002, 1.854826e+001
7.758958e+002, 1.856448e+001
7.763779e+002, 1.819766e+001
7.768600e+002, 1.782781e+001
7.773422e+002, 1.744500e+001
7.778243e+002, 1.719230e+001
7.783064e+002, 1.732804e+001
7.787885e+002, 1.766778e+001
7.792706e+002, 1.785902e+001
7.797527e+002, 1.782975e+001
7.802349e+002, 1.774477e+001
7.807170e+002, 1.769950e+001
7.811991e+002, 1.764419e+001
7.816812e+002, 1.752310e+001
7.821633e+002, 1.721236e+001
7.826454e+002, 1.707765e+001
7.831276e+002, 1.718629e+001
7.836097e+002, 1.739106e+001
7.840918e+002, 1.757517e+001
7.845739e+002, 1.773964e+001
7.850560e+002, 1.778989e+001
7.855381e+002, 1.770324e+001
7.860203e+002, 1.757215e+001
7.865024e+002, 1.744157e+001
7.869845e+002, 1.735318e+001
7.874666e+002, 1.741240e+001
7.879487e+002, 1.771776e+001
7.884308e+002, 1.792427e+001
7.889130e+002, 1.777798e+001
7.893951e+002, 1.749578e+001
7.898772e+002, 1.729937e+001
7.903593e+002, 1.726459e+001
7.908414e+002, 1.720666e+001
7.913235e+002, 1.709559e+001
7.918057e+002, 1.700151e+001
7.922878e+002, 1.704884e+001
7.927699e+002, 1.722338e+001
7.932520e+002, 1.726435e+001
7.937341e+002, 1.710502e+001
7.942162e+002, 1.694435e+001
7.946984e+002, 1.705019e+001
7.951805e+002, 1.728228e+001
7.956626e+002, 1.743008e+001
7.961447e+002, 1.746836e+001
7.966268e+002, 1.736247e+001
7.971089e+002, 1.687399e+001
7.975911e+002, 1.635368e+001
7.980732e+002, 1.620819e+001
7.985553e+002, 1.667153e+001
7.990374e+002, 1.694611e+001
7.995195e+002, 1.693236e+001
8.000016e+002, 1.683190e+001
8.004838e+002, 1.694442e+001
8.009659e+002, 1.722009e+001
8.014480e+002, 1.736221e+001
8.019301e+002, 1.729767e+001
8.024122e+002, 1.716878e+001
8.028943e+002, 1.709254e+001
8.033765e+002, 1.704388e+001
8.038586e+002, 1.698742e+001
8.043407e+002, 1.689977e+001
8.048228e+002, 1.683065e+001
8.053049e+002, 1.678906e+001
8.057870e+002, 1.677131e+001
8.062692e+002, 1.676647e+001
8.067513e+002, 1.675681e+001
8.072334e+002, 1.686608e+001
8.077155e+002, 1.716010e+001
8.081976e+002, 1.741608e+001
8.086797e+002, 1.721871e+001
8.091619e+002, 1.674542e+001
8.096440e+002, 1.655608e+001
8.101261e+002, 1.684398e+001
8.106082e+002, 1.713938e+001
8.110903e+002, 1.703830e+001
8.115724e+002, 1.678254e+001
8.120546e+002, 1.663494e+001
8.125367e+002, 1.668448e+001
8.130188e+002, 1.679616e+001
8.135009e+002, 1.703528e+001
8.139830e+002, 1.726014e+001
8.144651e+002, 1.728888e+001
8.149473e+002, 1.710704e+001
8.154294e+002, 1.696804e+001
8.159115e+002, 1.688831e+001
8.163936e+002, 1.689609e+001
8.168757e+002, 1.713175e+001
8.173578e+002, 1.744791e+001
8.178400e+002, 1.757558e+001
8.183221e+002, 1.741565e+001
8.188042e+002, 1.720972e+001
8.192863e+002, 1.705901e+001
8.197684e+002, 1.692540e+001
8.202505e+002, 1.676044e+001
8.207327e+002, 1.645646e+001
8.212148e+002, 1.636998e+001
8.216969e+002, 1.656189e+001
8.221790e+002, 1.686184e+001
8.226611e+002, 1.716513e+001
8.231432e+002, 1.744080e+001
8.236254e+002, 1.739251e+001
8.241075e+002, 1.695139e+001
8.245896e+002, 1.652711e+001
8.250717e+002, 1.656219e+001
8.255538e+002, 1.679122e+001
8.260359e+002, 1.691291e+001
8.265181e+002, 1.684430e+001
8.270002e+002, 1.677172e+001
8.274823e+002, 1.676329e+001
8.279644e+002, 1.674406e+001
8.284465e+002, 1.664288e+001
8.289286e+002, 1.641566e+001
8.294108e+002, 1.634831e+001
8.298929e+002, 1.646927e+001
8.303750e+002, 1.663077e+001
8.308571e+002, 1.675160e+001
8.313392e+002, 1.679892e+001
8.318214e+002, 1.663225e+001
8.323035e+002, 1.622875e+001
8.327856e+002, 1.593410e+001
8.332677e+002, 1.607286e+001
8.337498e+002, 1.633131e+001
8.342319e+002, 1.647787e+001
8.347141e+002, 1.645837e+001
8.351962e+002, 1.642695e+001
8.356783e+002, 1.633980e+001
8.361604e+002, 1.631378e+001
8.366425e+002, 1.652197e+001
8.371246e+002, 1.692756e+001
8.376068e+002, 1.684710e+001
8.380889e+002, 1.627333e+001
8.385710e+002, 1.582081e+001
8.390531e+002, 1.616955e+001
8.395352e+002, 1.676071e+001
8.400173e+002, 1.694844e+001
8.404995e+002, 1.669667e+001
8.409816e+002, 1.650982e+001
8.414637e+002, 1.664212e+001
8.419458e+002, 1.679229e+001
8.424279e+002, 1.682125e+001
8.429100e+002, 1.673154e+001
8.433922e+002, 1.667795e+001
8.438743e+002, 1.667201e+001
8.443564e+002, 1.663798e+001
8.448385e+002, 1.648215e+001
8.453206e+002, 1.627871e+001
8.458027e+002, 1.621081e+001
8.462849e+002, 1.626232e+001
8.467670e+002, 1.634641e+001
8.472491e+002, 1.643299e+001
8.477312e+002, 1.652130e+001
8.482133e+002, 1.663829e+001
8.486954e+002, 1.677030e+001
8.491776e+002, 1.679619e+001
8.496597e+002, 1.664145e+001
8.501418e+002, 1.653580e+001
8.506239e+002, 1.659784e+001
8.511060e+002, 1.674391e+001
8.515881e+002, 1.663465e+001
8.520703e+002, 1.630595e+001
8.525524e+002, 1.605857e+001
8.530345e+002, 1.606609e+001
8.535166e+002, 1.620131e+001
8.539987e+002, 1.645274e+001
8.544808e+002, 1.673982e+001
8.549630e+002, 1.685843e+001
8.554451e+002, 1.653185e+001
8.559272e+002, 1.629671e+001
8.564093e+002, 1.632497e+001
8.568914e+002, 1.647895e+001
8.573735e+002, 1.640978e+001
8.578557e+002, 1.609132e+001
8.583378e+002, 1.586294e+001
8.588199e+002, 1.582155e+001
8.593020e+002, 1.589319e+001
8.597841e+002, 1.603338e+001
8.602662e+002, 1.619561e+001
8.607484e+002, 1.627761e+001
8.612305e+002, 1.618747e+001
8.617126e+002, 1.609743e+001
8.621947e+002, 1.612200e+001
8.626768e+002, 1.616036e+001
8.631589e+002, 1.605463e+001
8.636411e+002, 1.569572e+001
8.641232e+002, 1.550736e+001
8.646053e+002, 1.554636e+001
8.650874e+002, 1.571846e+001
8.655695e+002, 1.598384e+001
8.660516e+002, 1.628276e+001
8.665338e+002, 1.643353e+001
8.670159e+002, 1.640160e+001
8.674980e+002, 1.623046e+001
8.679801e+002, 1.572342e+001
8.684622e+002, 1.522268e+001
8.689443e+002, 1.509044e+001
8.694265e+002, 1.564218e+001
8.699086e+002, 1.591083e+001
8.703907e+002, 1.574815e+001
8.708728e+002, 1.552932e+001
8.713549e+002, 1.563085e+001
8.718370e+002, 1.600700e+001
8.723192e+002, 1.606629e+001
8.728013e+002, 1.578220e+001
8.732834e+002, 1.545290e+001
8.737655e+002, 1.527155e+001
8.742476e+002, 1.520002e+001
8.747297e+002, 1.524391e+001
8.752119e+002, 1.540669e+001
8.756940e+002, 1.548747e+001
8.761761e+002, 1.534849e+001
8.766582e+002, 1.520671e+001
8.771403e+002, 1.512120e+001
8.776224e+002, 1.509776e+001
8.781046e+002, 1.528827e+001
8.785867e+002, 1.570785e+001
8.790688e+002, 1.600368e+001
8.795509e+002, 1.583854e+001
8.800330e+002, 1.549256e+001
8.805151e+002, 1.535779e+001
8.809973e+002, 1.539439e+001
8.814794e+002, 1.544298e+001
8.819615e+002, 1.548090e+001
8.824436e+002, 1.547167e+001
8.829257e+002, 1.537042e+001
8.834078e+002, 1.521603e+001
8.838900e+002, 1.511736e+001
8.843721e+002, 1.508816e+001
8.848542e+002, 1.502992e+001
8.853363e+002, 1.487861e+001
8.858184e+002, 1.474201e+001
8.863005e+002, 1.489615e+001
8.867827e+002, 1.521689e+001
8.872648e+002, 1.537812e+001
8.877469e+002, 1.514375e+001
8.882290e+002, 1.490465e+001
8.887111e+002, 1.483258e+001
8.891932e+002, 1.485871e+001
8.896754e+002, 1.487192e+001
8.901575e+002, 1.481941e+001
8.906396e+002, 1.491486e+001
8.911217e+002, 1.523887e+001
8.916038e+002, 1.555958e+001
8.920859e+002, 1.553698e+001
8.925681e+002, 1.527517e+001
8.930502e+002, 1.509152e+001
8.935323e+002, 1.504377e+001
8.940144e+002, 1.503570e+001
8.944965e+002, 1.506183e+001
8.949786e+002, 1.505942e+001
8.954608e+002, 1.493728e+001
8.959429e+002, 1.459678e+001
8.964250e+002, 1.451477e+001
8.969071e+002, 1.479626e+001
8.973892e+002, 1.512673e+001
8.978713e+002, 1.528272e+001
8.983535e+002, 1.529623e+001
8.988356e+002, 1.537520e+001
8.993177e+002, 1.551094e+001
8.997998e+002, 1.555670e+001
9.002819e+002, 1.531842e+001
9.007640e+002, 1.503116e+001
9.012462e+002, 1.486602e+001
9.017283e+002, 1.482390e+001
9.022104e+002, 1.480761e+001
9.026925e+002, 1.481607e+001
9.031746e+002, 1.482947e+001
9.036567e+002, 1.483504e+001
9.041389e+002, 1.484551e+001
9.046210e+002, 1.490563e+001
9.051031e+002, 1.501222e+001
9.055852e+002, 1.514157e+001
9.060673e+002, 1.531679e+001
9.065494e+002, 1.546506e+001
9.070316e+002, 1.550838e+001
9.075137e+002, 1.548038e+001
9.079958e+002, 1.544071e+001
9.084779e+002, 1.541900e+001
9.089600e+002, 1.535704e+001
9.094421e+002, 1.520521e+001
9.099243e+002, 1.506000e+001
9.104064e+002, 1.508914e+001
9.108885e+002, 1.527833e+001
9.113706e+002, 1.534567e+001
9.118527e+002, 1.522999e+001
9.123348e+002, 1.511651e+001
9.128170e+002, 1.528355e+001
9.132991e+002, 1.549876e+001
9.137812e+002, 1.543694e+001
9.142633e+002, 1.491669e+001
9.147454e+002, 1.468352e+001
9.152275e+002, 1.503647e+001
9.157097e+002, 1.547374e+001
9.161918e+002, 1.570083e+001
9.166739e+002, 1.572201e+001
9.171560e+002, 1.581697e+001
9.176381e+002, 1.598535e+001
9.181202e+002, 1.617854e+001
9.186024e+002, 1.643734e+001
9.190845e+002, 1.665076e+001
9.195666e+002, 1.666443e+001
9.200487e+002, 1.650681e+001
9.205308e+002, 1.636082e+001
9.210129e+002, 1.618432e+001
9.214951e+002, 1.615310e+001
9.219772e+002, 1.638060e+001
9.224593e+002, 1.675164e+001
9.229414e+002, 1.687958e+001
9.234235e+002, 1.676933e+001
9.239056e+002, 1.675645e+001
9.243878e+002, 1.700413e+001
9.248699e+002, 1.728694e+001
9.253520e+002, 1.730280e+001
9.258341e+002, 1.719350e+001
9.263162e+002, 1.718600e+001
9.267983e+002, 1.741698e+001
9.272805e+002, 1.765096e+001
9.277626e+002, 1.792466e+001
9.282447e+002, 1.813000e+001
9.287268e+002, 1.807950e+001
9.292089e+002, 1.777007e+001
9.296910e+002, 1.778763e+001
9.301732e+002, 1.820287e+001
9.306553e+002, 1.860143e+001
9.311374e+002, 1.847663e+001
9.316195e+002, 1.820483e+001
9.321016e+002, 1.825660e+001
9.325837e+002, 1.869927e+001
9.330659e+002, 1.903075e+001
9.335480e+002, 1.900869e+001
9.340301e+002, 1.899978e+001
9.345122e+002, 1.912459e+001
9.349943e+002, 1.938127e+001
9.354764e+002, 1.983123e+001
9.359586e+002, 2.046910e+001
9.364407e+002, 2.092961e+001
9.369228e+002, 2.087988e+001
9.374049e+002, 2.071673e+001
9.378870e+002, 2.084344e+001
9.383691e+002, 2.117902e+001
9.388513e+002, 2.153310e+001
9.393334e+002, 2.190492e+001
9.398155e+002, 2.222388e+001
9.402976e+002, 2.244224e+001
9.407797e+002, 2.264175e+001
9.412618e+002, 2.298166e+001
9.417440e+002, 2.344506e+001
9.422261e+002, 2.379039e+001
9.427082e+002, 2.397263e+001
9.431903e+002, 2.407626e+001
9.436724e+002, 2.408644e+001
9.441545e+002, 2.411518e+001
9.446367e+002, 2.427767e+001
9.451188e+002, 2.460009e+001
9.456009e+002, 2.505183e+001
9.460830e+002, 2.577315e+001
9.465651e+002, 2.638591e+001
9.470472e+002, 2.659808e+001
9.475294e+002, 2.647791e+001
9.480115e+002, 2.662305e+001
9.484936e+002, 2.700811e+001
9.489757e+002, 2.733897e+001
9.494578e+002, 2.740536e+001
9.499399e+002, 2.736768e+001
9.504221e+002, 2.731666e+001
9.509042e+002, 2.726310e+001
9.513863e+002, 2.723495e+001
9.518684e+002, 2.723211e+001
9.523505e+002, 2.726560e+001
9.528326e+002, 2.735975e+001
9.533148e+002, 2.746349e+001
9.537969e+002, 2.748260e+001
9.542790e+002, 2.742649e+001
9.547611e+002, 2.733530e+001
9.552432e+002, 2.722409e+001
9.557253e+002, 2.706424e+001
9.562075e+002, 2.674974e+001
9.566896e+002, 2.642626e+001
9.571717e+002, 2.625798e+001
9.576538e+002, 2.634266e+001
9.581359e+002, 2.630722e+001
9.586180e+002, 2.614779e+001
9.591002e+002, 2.587188e+001
9.595823e+002, 2.538065e+001
9.600644e+002, 2.478959e+001
9.605465e+002, 2.455154e+001
9.610286e+002, 2.461465e+001
9.615107e+002, 2.453850e+001
9.619929e+002, 2.388202e+001
9.624750e+002, 2.320819e+001
9.629571e+002, 2.284745e+001
9.634392e+002, 2.271889e+001
9.639213e+002, 2.248127e+001
9.644034e+002, 2.210598e+001
9.648856e+002, 2.174440e+001
9.653677e+002, 2.143255e+001
9.658498e+002, 2.115108e+001
9.663319e+002, 2.086567e+001
9.668140e+002, 2.058490e+001
9.672961e+002, 2.034297e+001
9.677783e+002, 2.017770e+001
9.682604e+002, 1.996630e+001
9.687425e+002, 1.956346e+001
9.692246e+002, 1.917127e+001
9.697067e+002, 1.898458e+001
9.701888e+002, 1.907052e+001
9.706710e+002, 1.882964e+001
9.711531e+002, 1.822298e+001
9.716352e+002, 1.767886e+001
9.721173e+002, 1.760333e+001
9.725994e+002, 1.774297e+001
9.730815e+002, 1.782058e+001
9.735637e+002, 1.781750e+001
9.740458e+002, 1.771003e+001
9.745279e+002, 1.739264e+001
9.750100e+002, 1.708312e+001
9.754921e+002, 1.680813e+001
9.759742e+002, 1.659017e+001
9.764564e+002, 1.652558e+001
9.769385e+002, 1.660198e+001
9.774206e+002, 1.657120e+001
9.779027e+002, 1.632519e+001
9.783848e+002, 1.609356e+001
9.788669e+002, 1.620345e+001
9.793491e+002, 1.640183e+001
9.798312e+002, 1.636824e+001
9.803133e+002, 1.591859e+001
9.807954e+002, 1.555352e+001
9.812775e+002, 1.528168e+001
9.817596e+002, 1.510402e+001
9.822418e+002, 1.502986e+001
9.827239e+002, 1.504930e+001
9.832060e+002, 1.517347e+001
9.836881e+002, 1.537721e+001
9.841702e+002, 1.544678e+001
9.846523e+002, 1.503860e+001
9.851345e+002, 1.466187e+001
9.856166e+002, 1.469516e+001
9.860987e+002, 1.502024e+001
9.865808e+002, 1.516317e+001
9.870629e+002, 1.507815e+001
9.875450e+002, 1.494702e+001
9.880272e+002, 1.479901e+001
9.885093e+002, 1.463271e+001
9.889914e+002, 1.441143e+001
9.894735e+002, 1.417983e+001
9.899556e+002, 1.404051e+001
9.904377e+002, 1.403404e+001
9.909199e+002, 1.404112e+001
9.914020e+002, 1.404943e+001
9.918841e+002, 1.401987e+001
9.923662e+002, 1.389513e+001
9.928483e+002, 1.366946e+001
9.933304e+002, 1.364477e+001
9.938126e+002, 1.383214e+001
9.942947e+002, 1.402745e+001
9.947768e+002, 1.406275e+001
9.952589e+002, 1.406466e+001
9.957410e+002, 1.425752e+001
9.962231e+002, 1.454685e+001
9.967053e+002, 1.466455e+001
9.971874e+002, 1.424893e+001
9.976695e+002, 1.406061e+001
9.981516e+002, 1.433183e+001
9.986337e+002, 1.472097e+001
9.991158e+002, 1.461951e+001
9.995980e+002, 1.411767e+001
1.000080e+003, 1.390393e+001
1.000562e+003, 1.410787e+001
1.001044e+003, 1.431805e+001
1.001526e+003, 1.413046e+001
1.002009e+003, 1.387878e+001
1.002491e+003, 1.386700e+001
1.002973e+003, 1.414910e+001
1.003455e+003, 1.433778e+001
1.003937e+003, 1.440315e+001
1.004419e+003, 1.447618e+001
1.004901e+003, 1.466622e+001
1.005383e+003, 1.486085e+001
1.005865e+003, 1.472541e+001
1.006348e+003, 1.438606e+001
1.006830e+003, 1.419969e+001
1.007312e+003, 1.450247e+001
1.007794e+003, 1.475836e+001
1.008276e+003, 1.471686e+001
1.008758e+003, 1.460218e+001
1.009240e+003, 1.469465e+001
1.009722e+003, 1.503600e+001
1.010205e+003, 1.508689e+001
1.010687e+003, 1.478117e+001
1.011169e+003, 1.450071e+001
1.011651e+003, 1.468009e+001
1.012133e+003, 1.499784e+001
1.012615e+003, 1.508684e+001
1.013097e+003, 1.493550e+001
1.013579e+003, 1.487383e+001
1.014061e+003, 1.506545e+001
1.014544e+003, 1.515705e+001
1.015026e+003, 1.498682e+001
1.015508e+003, 1.470957e+001
1.015990e+003, 1.474869e+001
1.016472e+003, 1.502682e+001
1.016954e+003, 1.521381e+001
1.017436e+003, 1.515861e+001
1.017918e+003, 1.512213e+001
1.018401e+003, 1.529321e+001
1.018883e+003, 1.554848e+001
1.019365e+003, 1.579097e+001
1.019847e+003, 1.605842e+001
1.020329e+003, 1.606118e+001
1.020811e+003, 1.573986e+001
1.021293e+003, 1.547901e+001
1.021775e+003, 1.566870e+001
1.022257e+003, 1.602954e+001
1.022740e+003, 1.605605e+001
1.023222e+003, 1.584764e+001
1.023704e+003, 1.580779e+001
1.024186e+003, 1.627892e+001
1.024668e+003, 1.668289e+001
1.025150e+003, 1.691042e+001
1.025632e+003, 1.700056e+001
1.026114e+003, 1.695592e+001
1.026596e+003, 1.680376e+001
1.027079e+003, 1.680673e+001
1.027561e+003, 1.702064e+001
1.028043e+003, 1.727270e+001
1.028525e+003, 1.742163e+001
1.029007e+003, 1.754868e+001
1.029489e+003, 1.773067e+001
1.029971e+003, 1.797756e+001
1.030453e+003, 1.820786e+001
1.030936e+003, 1.846197e+001
1.031418e+003, 1.854946e+001
1.031900e+003, 1.829838e+001
1.032382e+003, 1.793453e+001
1.032864e+003, 1.793579e+001
1.033346e+003, 1.818211e+001
1.033828e+003, 1.838842e+001
1.034310e+003, 1.839079e+001
1.034792e+003, 1.843991e+001
1.035275e+003, 1.872211e+001
1.035757e+003, 1.896284e+001
1.036239e+003, 1.885174e+001
1.036721e+003, 1.838989e+001
1.037203e+003, 1.820997e+001
1.037685e+003, 1.833261e+001
1.038167e+003, 1.847225e+001
1.038649e+003, 1.840352e+001
1.039132e+003, 1.828079e+001
1.039614e+003, 1.823733e+001
1.040096e+003, 1.825494e+001
1.040578e+003, 1.822450e+001
1.041060e+003, 1.817882e+001
1.041542e+003, 1.795170e+001
1.042024e+003, 1.742575e+001
1.042506e+003, 1.689457e+001
1.042989e+003, 1.691400e+001
1.043471e+003, 1.722892e+001
1.043953e+003, 1.726029e+001
1.044435e+003, 1.683394e+001
1.044917e+003, 1.651494e+001
1.045399e+003, 1.661352e+001
1.045881e+003, 1.678630e+001
1.046363e+003, 1.688841e+001
1.046845e+003, 1.691756e+001
1.047328e+003, 1.683444e+001
1.047810e+003, 1.664362e+001
1.048292e+003, 1.644061e+001
1.048774e+003, 1.626039e+001
1.049256e+003, 1.609616e+001
1.049738e+003, 1.594733e+001
1.050220e+003, 1.580779e+001
1.050702e+003, 1.565811e+001
1.051184e+003, 1.541922e+001
1.051667e+003, 1.538920e+001
1.052149e+003, 1.564539e+001
1.052631e+003, 1.587586e+001
1.053113e+003, 1.571670e+001
1.053595e+003, 1.537618e+001
1.054077e+003, 1.528458e+001
1.054559e+003, 1.542356e+001
1.055041e+003, 1.553787e+001
1.055523e+003, 1.551674e+001
1.056006e+003, 1.546447e+001
1.056488e+003, 1.542689e+001
1.056970e+003, 1.536712e+001
1.057452e+003, 1.516935e+001
1.057934e+003, 1.485707e+001
1.058416e+003, 1.465288e+001
1.058898e+003, 1.460758e+001
1.059380e+003, 1.462133e+001
1.059863e+003, 1.468308e+001
1.060345e+003, 1.471849e+001
1.060827e+003, 1.463545e+001
1.061309e+003, 1.442632e+001
1.061791e+003, 1.431135e+001
1.062273e+003, 1.430788e+001
1.062755e+003, 1.431231e+001
1.063237e+003, 1.425849e+001
1.063719e+003, 1.421545e+001
1.064202e+003, 1.435702e+001
1.064684e+003, 1.457483e+001
1.065166e+003, 1.465520e+001
1.065648e+003, 1.439187e+001
1.066130e+003, 1.424955e+001
1.066612e+003, 1.437109e+001
1.067094e+003, 1.447979e+001
1.067576e+003, 1.427291e+001
1.068059e+003, 1.383596e+001
1.068541e+003, 1.369774e+001
1.069023e+003, 1.383653e+001
1.069505e+003, 1.401895e+001
1.069987e+003, 1.420843e+001
1.070469e+003, 1.429785e+001
1.070951e+003, 1.410535e+001
1.071433e+003, 1.381416e+001
1.071916e+003, 1.380522e+001
1.072398e+003, 1.412758e+001
1.072880e+003, 1.428388e+001
1.073362e+003, 1.419360e+001
1.073844e+003, 1.401687e+001
1.074326e+003, 1.380307e+001
1.074808e+003, 1.366324e+001
1.075290e+003, 1.380412e+001
1.075772e+003, 1.423917e+001
1.076255e+003, 1.437969e+001
1.076737e+003, 1.403090e+001
1.077219e+003, 1.376144e+001
1.077701e+003, 1.374229e+001
1.078183e+003, 1.392700e+001
1.078665e+003, 1.439938e+001
1.079147e+003, 1.497822e+001
1.079629e+003, 1.520524e+001
1.080111e+003, 1.483151e+001
1.080594e+003, 1.449061e+001
1.081076e+003, 1.431185e+001
1.081558e+003, 1.433269e+001
1.082040e+003, 1.469987e+001
1.082522e+003, 1.534298e+001
1.083004e+003, 1.540669e+001
1.083486e+003, 1.495420e+001
1.083968e+003, 1.458516e+001
1.084450e+003, 1.463205e+001
1.084933e+003, 1.486112e+001
1.085415e+003, 1.526123e+001
1.085897e+003, 1.569142e+001
1.086379e+003, 1.592466e+001
1.086861e+003, 1.588523e+001
1.087343e+003, 1.593085e+001
1.087825e+003, 1.607792e+001
1.088307e+003, 1.630601e+001
1.088790e+003, 1.668748e+001
1.089272e+003, 1.707885e+001
1.089754e+003, 1.728577e+001
1.090236e+003, 1.733372e+001
1.090718e+003, 1.740506e+001
1.091200e+003, 1.753986e+001
1.091682e+003, 1.768913e+001
1.092164e+003, 1.784580e+001
1.092646e+003, 1.801157e+001
1.093129e+003, 1.822139e+001
1.093611e+003, 1.843603e+001
1.094093e+003, 1.853214e+001
1.094575e+003, 1.847946e+001
1.095057e+003, 1.849591e+001
1.095539e+003, 1.874461e+001
1.096021e+003, 1.901146e+001
1.096503e+003, 1.918178e+001
1.096986e+003, 1.930282e+001
1.097468e+003, 1.963505e+001
1.097950e+003, 2.013593e+001
1.098432e+003, 2.039293e+001
1.098914e+003, 2.015171e+001
1.099396e+003, 1.997495e+001
1.099878e+003, 2.034849e+001
1.100360e+003, 2.093785e+001
1.100843e+003, 2.142135e+001
1.101325e+003, 2.178434e+001
1.101807e+003, 2.211070e+001
1.102289e+003, 2.239807e+001
1.102771e+003, 2.269284e+001
1.103253e+003, 2.306964e+001
1.103735e+003, 2.341660e+001
1.104217e+003, 2.356884e+001
1.104699e+003, 2.359658e+001
1.105182e+003, 2.363134e+001
1.105664e+003, 2.365392e+001
1.106146e+003, 2.378559e+001
1.106628e+003, 2.407446e+001
1.107110e+003, 2.435397e+001
1.107592e+003, 2.447227e+001
1.108074e+003, 2.447722e+001
1.108556e+003, 2.445649e+001
1.109038e+003, 2.441724e+001
1.109521e+003, 2.437483e+001
1.110003e+003, 2.433988e+001
1.110485e+003, 2.429066e+001
1.110967e+003, 2.419760e+001
1.111449e+003, 2.411763e+001
1.111931e+003, 2.412043e+001
1.112413e+003, 2.420944e+001
1.112895e+003, 2.446407e+001
1.113377e+003, 2.489985e+001
1.113860e+003, 2.519201e+001
1.114342e+003, 2.495953e+001
1.114824e+003, 2.471737e+001
1.115306e+003, 2.479802e+001
1.115788e+003, 2.508154e+001
1.116270e+003, 2.514491e+001
1.116752e+003, 2.499374e+001
1.117234e+003, 2.491814e+001
1.117717e+003, 2.501113e+001
1.118199e+003, 2.511545e+001
1.118681e+003, 2.499600e+001
1.119163e+003, 2.488755e+001
1.119645e+003, 2.508769e+001
1.120127e+003, 2.562513e+001
1.120609e+003, 2.584343e+001
1.121091e+003, 2.568002e+001
1.121573e+003, 2.559439e+001
1.122056e+003, 2.581460e+001
1.122538e+003, 2.615356e+001
1.123020e+003, 2.636752e+001
1.123502e+003, 2.654173e+001
1.123984e+003, 2.682426e+001
1.124466e+003, 2.736233e+001
1.124948e+003, 2.770269e+001
1.125430e+003, 2.774854e+001
1.125913e+003, 2.783573e+001
1.126395e+003, 2.825222e+001
1.126877e+003, 2.883868e+001
1.127359e+003, 2.921195e+001
1.127841e+003, 2.945094e+001
1.128323e+003, 2.977016e+001
1.128805e+003, 3.038586e+001
1.129287e+003, 3.087997e+001
1.129770e+003, 3.112036e+001
1.130252e+003, 3.134659e+001
1.130734e+003, 3.182310e+001
1.131216e+003, 3.248717e+001
1.131698e+003, 3.313184e+001
1.132180e+003, 3.374167e+001
1.132662e+003, 3.427455e+001
1.133144e+003, 3.453276e+001
1.133626e+003, 3.492709e+001
1.134109e+003, 3.571310e+001
1.134591e+003, 3.663768e+001
1.135073e+003, 3.724918e+001
1.135555e+003, 3.758732e+001
1.136037e+003, 3.826167e+001
1.136519e+003, 3.935230e+001
1.137001e+003, 4.041357e+001
1.137483e+003, 4.111060e+001
1.137965e+003, 4.168926e+001
1.138448e+003, 4.225690e+001
1.138930e+003, 4.284584e+001
1.139412e+003, 4.354695e+001
1.139894e+003, 4.437382e+001
1.140376e+003, 4.518058e+001
1.140858e+003, 4.595046e+001
1.141340e+003, 4.662557e+001
1.141822e+003, 4.698914e+001
1.142304e+003, 4.735931e+001
1.142787e+003, 4.812027e+001
1.143269e+003, 4.928012e+001
1.143751e+003, 5.013914e+001
1.144233e+003, 5.061622e+001
1.144715e+003, 5.122289e+001
1.145197e+003, 5.217788e+001
1.145679e+003, 5.319360e+001
1.146161e+003, 5.390277e+001
1.146644e+003, 5.442243e+001
1.147126e+003, 5.492072e+001
1.147608e+003, 5.544664e+001
1.148090e+003, 5.581365e+001
1.148572e+003, 5.599445e+001
1.149054e+003, 5.609111e+001
1.149536e+003, 5.612191e+001
1.150018e+003, 5.613538e+001
1.150500e+003, 5.624938e+001
1.150983e+003, 5.640473e+001
1.151465e+003, 5.648479e+001
1.151947e+003, 5.644812e+001
1.152429e+003, 5.634639e+001
1.152911e+003, 5.617860e+001
1.153393e+003, 5.596836e+001
1.153875e+003, 5.574566e+001
1.154357e+003, 5.548783e+001
1.154840e+003, 5.508369e+001
1.155322e+003, 5.458332e+001
1.155804e+003, 5.416544e+001
1.156286e+003, 5.393383e+001
1.156768e+003, 5.374975e+001
1.157250e+003, 5.365037e+001
1.157732e+003, 5.350005e+001
1.158214e+003, 5.309378e+001
1.158697e+003, 5.252448e+001
1.159179e+003, 5.224590e+001
1.159661e+003, 5.221899e+001
1.160143e+003, 5.215711e+001
1.160625e+003, 5.186830e+001
1.161107e+003, 5.157750e+001
1.161589e+003, 5.126342e+001
1.162071e+003, 5.106466e+001
1.162553e+003, 5.124487e+001
1.163036e+003, 5.173564e+001
1.163518e+003, 5.202705e+001
1.164000e+003, 5.209570e+001
1.164482e+003, 5.217796e+001
1.164964e+003, 5.255796e+001
1.165446e+003, 5.282118e+001
1.165928e+003, 5.254507e+001
1.166410e+003, 5.215382e+001
1.166892e+003, 5.252810e+001
1.167375e+003, 5.361257e+001
1.167857e+003, 5.454956e+001
1.168339e+003, 5.522781e+001
1.168821e+003, 5.583092e+001
1.169303e+003, 5.640425e+001
1.169785e+003, 5.702832e+001
1.170267e+003, 5.779982e+001
1.170749e+003, 5.866240e+001
1.171231e+003, 5.944529e+001
1.171714e+003, 6.015213e+001
1.172196e+003, 6.098632e+001
1.172678e+003, 6.198304e+001
1.173160e+003, 6.310564e+001
1.173642e+003, 6.443364e+001
1.174124e+003, 6.576987e+001
1.174606e+003, 6.687303e+001
1.175088e+003, 6.781995e+001
1.175571e+003, 6.906520e+001
1.176053e+003, 7.063888e+001
1.176535e+003, 7.205208e+001
1.177017e+003, 7.307436e+001
1.177499e+003, 7.427464e+001
1.177981e+003, 7.638545e+001
1.178463e+003, 7.881169e+001
1.178945e+003, 8.099468e+001
1.179427e+003, 8.289565e+001
1.179910e+003, 8.489326e+001
1.180392e+003, 8.702311e+001
1.180874e+003, 8.902769e+001
1.181356e+003, 9.074722e+001
1.181838e+003, 9.245786e+001
1.182320e+003, 9.449159e+001
1.182802e+003, 9.665359e+001
1.183284e+003, 9.874690e+001
1.183767e+003, 1.007416e+002
1.184249e+003, 1.026335e+002
1.184731e+003, 1.043952e+002
1.185213e+003, 1.063652e+002
1.185695e+003, 1.087278e+002
1.186177e+003, 1.113057e+002
1.186659e+003, 1.139729e+002
1.187141e+003, 1.166830e+002
1.187624e+003, 1.192971e+002
1.188106e+003, 1.217066e+002
1.188588e+003, 1.244082e+002
1.189070e+003, 1.273840e+002
1.189552e+003, 1.306403e+002
1.190034e+003, 1.342991e+002
1.190516e+003, 1.381068e+002
1.190998e+003, 1.418282e+002
1.191480e+003, 1.454328e+002
1.191963e+003, 1.489246e+002
1.192445e+003, 1.522561e+002
1.192927e+003, 1.555141e+002
1.193409e+003, 1.587665e+002
1.193891e+003, 1.616615e+002
1.194373e+003, 1.639098e+002
1.194855e+003, 1.657341e+002
1.195337e+003, 1.677212e+002
1.195819e+003, 1.694612e+002
1.196302e+003, 1.699942e+002
1.196784e+003, 1.691381e+002
1.197266e+003, 1.671550e+002
1.197748e+003, 1.639143e+002
1.198230e+003, 1.601020e+002
1.198712e+003, 1.562264e+002
1.199194e+003, 1.521662e+002
1.199676e+003, 1.480597e+002
1.200158e+003, 1.436712e+002
1.200641e+003, 1.382986e+002
1.201123e+003, 1.313416e+002
1.201605e+003, 1.247109e+002
1.202087e+003, 1.184976e+002
1.202569e+003, 1.126357e+002
1.203051e+003, 1.072275e+002
1.203533e+003, 1.021091e+002
1.204015e+003, 9.697765e+001
1.204498e+003, 9.191700e+001
1.204980e+003, 8.710500e+001
1.205462e+003, 8.253812e+001
1.205944e+003, 7.822142e+001
1.206426e+003, 7.412148e+001
1.206908e+003, 7.024735e+001
1.207390e+003, 6.648905e+001
1.207872e+003, 6.303382e+001
1.208354e+003, 6.020918e+001
1.208837e+003, 5.789817e+001
1.209319e+003, 5.559792e+001
1.209801e+003, 5.315663e+001
1.210283e+003, 5.088289e+001
1.210765e+003, 4.880511e+001
1.211247e+003, 4.682534e+001
1.211729e+003, 4.467020e+001
1.212211e+003, 4.261828e+001
1.212694e+003, 4.118435e+001
1.213176e+003, 4.026028e+001
1.213658e+003, 3.914299e+001
1.214140e+003, 3.772779e+001
1.214622e+003, 3.620814e+001
1.215104e+003, 3.455268e+001
1.215586e+003, 3.305962e+001
1.216068e+003, 3.219728e+001
1.216551e+003, 3.156541e+001
1.217033e+003, 3.065059e+001
1.217515e+003, 2.946125e+001
1.217997e+003, 2.842980e+001
1.218479e+003, 2.763009e+001
1.218961e+003, 2.678059e+001
1.219443e+003, 2.579401e+001
1.219925e+003, 2.488176e+001
1.220407e+003, 2.438989e+001
1.220890e+003, 2.402277e+001
1.221372e+003, 2.340466e+001
1.221854e+003, 2.255387e+001
1.222336e+003, 2.183695e+001
1.222818e+003, 2.125403e+001
1.223300e+003, 2.087937e+001
1.223782e+003, 2.074724e+001
1.224264e+003, 2.073548e+001
1.224746e+003, 2.098574e+001
1.225229e+003, 2.108504e+001
1.225711e+003, 2.037824e+001
1.226193e+003, 1.894958e+001
1.226675e+003, 1.823525e+001
1.227157e+003, 1.839857e+001
1.227639e+003, 1.843846e+001
1.228121e+003, 1.812914e+001
1.228603e+003, 1.770519e+001
1.229085e+003, 1.734824e+001
1.229568e+003, 1.705259e+001
1.230050e+003, 1.684991e+001
1.230532e+003, 1.672052e+001
1.231014e+003, 1.648831e+001
1.231496e+003, 1.613370e+001
1.231978e+003, 1.582668e+001
1.232460e+003, 1.559372e+001
1.232942e+003, 1.547838e+001
1.233425e+003, 1.571633e+001
1.233907e+003, 1.593229e+001
1.234389e+003, 1.569745e+001
1.234871e+003, 1.510070e+001
1.235353e+003, 1.477542e+001
1.235835e+003, 1.473792e+001
1.236317e+003, 1.463742e+001
1.236799e+003, 1.437390e+001
1.237281e+003, 1.412882e+001
1.237764e+003, 1.411059e+001
1.238246e+003, 1.412465e+001
1.238728e+003, 1.402152e+001
1.239210e+003, 1.381521e+001
1.239692e+003, 1.347536e+001
1.240174e+003, 1.302277e+001
1.240656e+003, 1.296260e+001
1.241138e+003, 1.350293e+001
1.241621e+003, 1.392201e+001
1.242103e+003, 1.347903e+001
1.242585e+003, 1.292157e+001
1.243067e+003, 1.277048e+001
1.243549e+003, 1.291041e+001
1.244031e+003, 1.289339e+001
1.244513e+003, 1.274697e+001
1.244995e+003, 1.271964e+001
1.245478e+003, 1.289841e+001
1.245960e+003, 1.301205e+001
1.246442e+003, 1.291981e+001
1.246924e+003, 1.266293e+001
1.247406e+003, 1.216661e+001
1.247888e+003, 1.160757e+001
1.248370e+003, 1.167292e+001
1.248852e+003, 1.219782e+001
1.249334e+003, 1.245644e+001
1.249817e+003, 1.224480e+001
1.250299e+003, 1.203570e+001
1.250781e+003, 1.208904e+001
1.251263e+003, 1.215143e+001
1.251745e+003, 1.210221e+001
1.252227e+003, 1.201298e+001
1.252709e+003, 1.211880e+001
1.253191e+003, 1.232726e+001
1.253673e+003, 1.233692e+001
1.254156e+003, 1.205219e+001
1.254638e+003, 1.185611e+001
1.255120e+003, 1.197442e+001
1.255602e+003, 1.203736e+001
1.256084e+003, 1.190638e+001
1.256566e+003, 1.167536e+001
1.257048e+003, 1.148237e+001
1.257530e+003, 1.134688e+001
1.258012e+003, 1.135227e+001
1.258495e+003, 1.153766e+001
1.258977e+003, 1.156934e+001
1.259459e+003, 1.135439e+001
1.259941e+003, 1.107781e+001
1.260423e+003, 1.073682e+001
1.260905e+003, 1.049440e+001
1.261387e+003, 1.078441e+001
1.261869e+003, 1.125610e+001
1.262352e+003, 1.134136e+001
1.262834e+003, 1.092915e+001
1.263316e+003, 1.070707e+001
1.263798e+003, 1.077045e+001
1.264280e+003, 1.079266e+001
1.264762e+003, 1.065231e+001
1.265244e+003, 1.051605e+001
1.265726e+003, 1.063491e+001
1.266208e+003, 1.083743e+001
1.266691e+003, 1.094708e+001
1.267173e+003, 1.094119e+001
1.267655e+003, 1.081693e+001
1.268137e+003, 1.053788e+001
1.268619e+003, 1.047663e+001
1.269101e+003, 1.079121e+001
1.269583e+003, 1.108017e+001
1.270065e+003, 1.090924e+001
1.270548e+003, 1.058639e+001
1.271030e+003, 1.034609e+001
1.271512e+003, 1.019759e+001
1.271994e+003, 1.018587e+001
1.272476e+003, 1.030736e+001
1.272958e+003, 1.039723e+001
1.273440e+003, 1.042447e+001
1.273922e+003, 1.037653e+001
1.274405e+003, 1.010105e+001
1.274887e+003, 9.902391e+000
1.275369e+003, 1.000768e+001
1.275851e+003, 1.029008e+001
1.276333e+003, 1.040860e+001
1.276815e+003, 1.038290e+001
1.277297e+003, 1.028319e+001
1.277779e+003, 1.011371e+001
1.278261e+003, 1.001993e+001
1.278744e+003, 1.016145e+001
1.279226e+003, 1.029828e+001
1.279708e+003, 1.037085e+001
1.280190e+003, 1.035465e+001
1.280672e+003, 1.007996e+001
1.281154e+003, 9.704680e+000
1.281636e+003, 9.709326e+000
1.282118e+003, 1.015882e+001
1.282600e+003, 1.044461e+001
1.283083e+003, 1.029444e+001
1.283565e+003, 1.011180e+001
1.284047e+003, 9.958081e+000
1.284529e+003, 9.873500e+000
1.285011e+003, 9.977336e+000
1.285493e+003, 1.015537e+001
1.285975e+003, 1.021169e+001
1.286457e+003, 1.014034e+001
1.286939e+003, 1.014887e+001
1.287422e+003, 1.029438e+001
1.287904e+003, 1.038664e+001
1.288386e+003, 1.039655e+001
1.288868e+003, 1.031163e+001
1.289350e+003, 1.001681e+001
1.289832e+003, 9.700471e+000
1.290314e+003, 9.557150e+000
1.290796e+003, 9.577043e+000
1.291279e+003, 9.649769e+000
1.291761e+003, 9.799308e+000
1.292243e+003, 9.684903e+000
1.292725e+003, 9.237041e+000
1.293207e+003, 8.869984e+000
1.293689e+003, 8.929821e+000
1.294171e+003, 9.171112e+000
1.294653e+003, 9.589593e+000
1.295135e+003, 9.996455e+000
1.295618e+003, 9.967813e+000
1.296100e+003, 9.572668e+000
1.296582e+003, 9.581638e+000
1.297064e+003, 1.003677e+001
1.297546e+003, 1.030389e+001
1.298028e+003, 9.671759e+000
1.298510e+003, 9.257242e+000
1.298992e+003, 9.521070e+000
1.299475e+003, 9.980969e+000
1.299957e+003, 9.973853e+000
1.300439e+003, 9.660406e+000
1.300921e+003, 9.477739e+000
1.301403e+003, 9.445761e+000
1.301885e+003, 9.479206e+000
##END=



