##NAMES=Rodalquilarite
##RRUFFID=R130549
##IDEAL CHEMISTRY=H_3_Fe^3+^_2_(Te^4+^O_3_)_4_Cl
##LOCALITY=Tombstone, Cochise County, Arizona
##OWNER=RRUFF
##SOURCE=Bob Jenkins
##DESCRIPTION=Aggregates of grass-green to yellow-green stout crystals with good cleavage, associated with quartz and calcite
##STATUS=The identification of this mineral has been confirmed by single-crystal X-ray diffraction.
##URL=rruff.info/R130549
8.806445e+001, 4.200957e+003
8.854657e+001, 4.526768e+003
8.902869e+001, 4.640216e+003
8.951080e+001, 4.389400e+003
8.999292e+001, 3.993505e+003
9.047504e+001, 3.665100e+003
9.095715e+001, 3.454805e+003
9.143927e+001, 3.329282e+003
9.192139e+001, 3.251940e+003
9.240350e+001, 3.217690e+003
9.288562e+001, 3.214520e+003
9.336774e+001, 3.222573e+003
9.384985e+001, 3.218570e+003
9.433197e+001, 3.187988e+003
9.481409e+001, 3.175568e+003
9.529620e+001, 3.164529e+003
9.577832e+001, 3.160757e+003
9.626044e+001, 3.165562e+003
9.674255e+001, 3.178414e+003
9.722467e+001, 3.198214e+003
9.770679e+001, 3.224102e+003
9.818890e+001, 3.256550e+003
9.867102e+001, 3.301713e+003
9.915314e+001, 3.348985e+003
9.963525e+001, 3.391980e+003
1.001174e+002, 3.428216e+003
1.005995e+002, 3.456148e+003
1.010816e+002, 3.469879e+003
1.015637e+002, 3.455184e+003
1.020458e+002, 3.439792e+003
1.025280e+002, 3.419733e+003
1.030101e+002, 3.400571e+003
1.034922e+002, 3.388031e+003
1.039743e+002, 3.384092e+003
1.044564e+002, 3.389298e+003
1.049385e+002, 3.433323e+003
1.054207e+002, 3.498506e+003
1.059028e+002, 3.605537e+003
1.063849e+002, 3.772757e+003
1.068670e+002, 3.997516e+003
1.073491e+002, 4.261131e+003
1.078312e+002, 4.591983e+003
1.083134e+002, 4.975220e+003
1.087955e+002, 5.191489e+003
1.092776e+002, 5.194626e+003
1.097597e+002, 5.021719e+003
1.102418e+002, 4.692170e+003
1.107239e+002, 4.156501e+003
1.112061e+002, 3.580735e+003
1.116882e+002, 3.095948e+003
1.121703e+002, 2.688571e+003
1.126524e+002, 2.348312e+003
1.131345e+002, 2.075296e+003
1.136166e+002, 1.867292e+003
1.140988e+002, 1.697287e+003
1.145809e+002, 1.579606e+003
1.150630e+002, 1.489285e+003
1.155451e+002, 1.417857e+003
1.160272e+002, 1.363093e+003
1.165093e+002, 1.322588e+003
1.169915e+002, 1.294034e+003
1.174736e+002, 1.278991e+003
1.179557e+002, 1.273336e+003
1.184378e+002, 1.277210e+003
1.189199e+002, 1.288036e+003
1.194020e+002, 1.305342e+003
1.198842e+002, 1.328662e+003
1.203663e+002, 1.356198e+003
1.208484e+002, 1.384139e+003
1.213305e+002, 1.416920e+003
1.218126e+002, 1.444518e+003
1.222947e+002, 1.466855e+003
1.227769e+002, 1.483740e+003
1.232590e+002, 1.493514e+003
1.237411e+002, 1.494591e+003
1.242232e+002, 1.489546e+003
1.247053e+002, 1.490723e+003
1.251874e+002, 1.497783e+003
1.256696e+002, 1.509381e+003
1.261517e+002, 1.524825e+003
1.266338e+002, 1.544285e+003
1.271159e+002, 1.568956e+003
1.275980e+002, 1.599908e+003
1.280801e+002, 1.637269e+003
1.285623e+002, 1.678316e+003
1.290444e+002, 1.723471e+003
1.295265e+002, 1.771926e+003
1.300086e+002, 1.823160e+003
1.304907e+002, 1.876956e+003
1.309728e+002, 1.934124e+003
1.314550e+002, 1.993746e+003
1.319371e+002, 2.057268e+003
1.324192e+002, 2.127280e+003
1.329013e+002, 2.203083e+003
1.333834e+002, 2.286395e+003
1.338655e+002, 2.381811e+003
1.343477e+002, 2.487431e+003
1.348298e+002, 2.611039e+003
1.353119e+002, 2.747728e+003
1.357940e+002, 2.900864e+003
1.362761e+002, 3.076304e+003
1.367582e+002, 3.279945e+003
1.372404e+002, 3.510798e+003
1.377225e+002, 3.757963e+003
1.382046e+002, 4.051243e+003
1.386867e+002, 4.332958e+003
1.391688e+002, 4.620728e+003
1.396509e+002, 4.889312e+003
1.401331e+002, 5.084435e+003
1.406152e+002, 5.156097e+003
1.410973e+002, 5.103783e+003
1.415794e+002, 4.889842e+003
1.420615e+002, 4.431963e+003
1.425436e+002, 3.909627e+003
1.430258e+002, 3.400286e+003
1.435079e+002, 2.929440e+003
1.439900e+002, 2.510549e+003
1.444721e+002, 2.164393e+003
1.449542e+002, 1.910909e+003
1.454363e+002, 1.698359e+003
1.459185e+002, 1.534275e+003
1.464006e+002, 1.406377e+003
1.468827e+002, 1.302994e+003
1.473648e+002, 1.222102e+003
1.478469e+002, 1.159360e+003
1.483290e+002, 1.111349e+003
1.488112e+002, 1.076704e+003
1.492933e+002, 1.050380e+003
1.497754e+002, 1.031948e+003
1.502575e+002, 1.020703e+003
1.507396e+002, 1.014711e+003
1.512217e+002, 1.014674e+003
1.517039e+002, 1.018891e+003
1.521860e+002, 1.025092e+003
1.526681e+002, 1.033638e+003
1.531502e+002, 1.041545e+003
1.536323e+002, 1.047689e+003
1.541144e+002, 1.052154e+003
1.545966e+002, 1.051787e+003
1.550787e+002, 1.042501e+003
1.555608e+002, 1.029581e+003
1.560429e+002, 1.015847e+003
1.565250e+002, 1.001756e+003
1.570071e+002, 9.878823e+002
1.574893e+002, 9.745068e+002
1.579714e+002, 9.606109e+002
1.584535e+002, 9.502790e+002
1.589356e+002, 9.451427e+002
1.594177e+002, 9.427424e+002
1.598998e+002, 9.411614e+002
1.603820e+002, 9.396843e+002
1.608641e+002, 9.392374e+002
1.613462e+002, 9.421322e+002
1.618283e+002, 9.503170e+002
1.623104e+002, 9.595792e+002
1.627925e+002, 9.689206e+002
1.632747e+002, 9.791945e+002
1.637568e+002, 9.912345e+002
1.642389e+002, 1.005367e+003
1.647210e+002, 1.021732e+003
1.652031e+002, 1.040991e+003
1.656852e+002, 1.064126e+003
1.661674e+002, 1.089115e+003
1.666495e+002, 1.115234e+003
1.671316e+002, 1.143103e+003
1.676137e+002, 1.173548e+003
1.680958e+002, 1.207291e+003
1.685779e+002, 1.244124e+003
1.690601e+002, 1.283098e+003
1.695422e+002, 1.323779e+003
1.700243e+002, 1.366323e+003
1.705064e+002, 1.411320e+003
1.709885e+002, 1.458465e+003
1.714706e+002, 1.506871e+003
1.719528e+002, 1.555887e+003
1.724349e+002, 1.605953e+003
1.729170e+002, 1.657893e+003
1.733991e+002, 1.716116e+003
1.738812e+002, 1.772942e+003
1.743633e+002, 1.823517e+003
1.748455e+002, 1.867899e+003
1.753276e+002, 1.906826e+003
1.758097e+002, 1.941607e+003
1.762918e+002, 1.970720e+003
1.767739e+002, 1.991172e+003
1.772560e+002, 2.001893e+003
1.777382e+002, 2.003814e+003
1.782203e+002, 1.996799e+003
1.787024e+002, 1.979210e+003
1.791845e+002, 1.958051e+003
1.796666e+002, 1.931888e+003
1.801487e+002, 1.905782e+003
1.806309e+002, 1.886618e+003
1.811130e+002, 1.877218e+003
1.815951e+002, 1.876585e+003
1.820772e+002, 1.881860e+003
1.825593e+002, 1.892434e+003
1.830414e+002, 1.911228e+003
1.835236e+002, 1.939627e+003
1.840057e+002, 1.975073e+003
1.844878e+002, 2.014664e+003
1.849699e+002, 2.057749e+003
1.854520e+002, 2.103285e+003
1.859341e+002, 2.144851e+003
1.864163e+002, 2.185423e+003
1.868984e+002, 2.217385e+003
1.873805e+002, 2.242521e+003
1.878626e+002, 2.258075e+003
1.883447e+002, 2.260042e+003
1.888268e+002, 2.245582e+003
1.893090e+002, 2.214892e+003
1.897911e+002, 2.171026e+003
1.902732e+002, 2.106737e+003
1.907553e+002, 2.036698e+003
1.912374e+002, 1.960042e+003
1.917195e+002, 1.880159e+003
1.922017e+002, 1.801942e+003
1.926838e+002, 1.728825e+003
1.931659e+002, 1.660046e+003
1.936480e+002, 1.602687e+003
1.941301e+002, 1.556277e+003
1.946122e+002, 1.518374e+003
1.950944e+002, 1.488276e+003
1.955765e+002, 1.465868e+003
1.960586e+002, 1.451513e+003
1.965407e+002, 1.446611e+003
1.970228e+002, 1.451770e+003
1.975049e+002, 1.456152e+003
1.979871e+002, 1.460282e+003
1.984692e+002, 1.463330e+003
1.989513e+002, 1.466565e+003
1.994334e+002, 1.469369e+003
1.999155e+002, 1.467131e+003
2.003976e+002, 1.455781e+003
2.008798e+002, 1.434800e+003
2.013619e+002, 1.410086e+003
2.018440e+002, 1.378159e+003
2.023261e+002, 1.344894e+003
2.028082e+002, 1.314680e+003
2.032903e+002, 1.287816e+003
2.037725e+002, 1.264916e+003
2.042546e+002, 1.246821e+003
2.047367e+002, 1.233558e+003
2.052188e+002, 1.225673e+003
2.057009e+002, 1.225243e+003
2.061830e+002, 1.229424e+003
2.066652e+002, 1.235329e+003
2.071473e+002, 1.243540e+003
2.076294e+002, 1.251048e+003
2.081115e+002, 1.258346e+003
2.085936e+002, 1.263426e+003
2.090757e+002, 1.262105e+003
2.095579e+002, 1.253046e+003
2.100400e+002, 1.236571e+003
2.105221e+002, 1.212334e+003
2.110042e+002, 1.178205e+003
2.114863e+002, 1.140750e+003
2.119685e+002, 1.100841e+003
2.124506e+002, 1.060398e+003
2.129327e+002, 1.022420e+003
2.134148e+002, 9.878022e+002
2.138969e+002, 9.566210e+002
2.143790e+002, 9.294730e+002
2.148612e+002, 9.067527e+002
2.153433e+002, 8.878674e+002
2.158254e+002, 8.715731e+002
2.163075e+002, 8.584706e+002
2.167896e+002, 8.495857e+002
2.172717e+002, 8.460042e+002
2.177539e+002, 8.467739e+002
2.182360e+002, 8.476885e+002
2.187181e+002, 8.478484e+002
2.192002e+002, 8.495215e+002
2.196823e+002, 8.536242e+002
2.201644e+002, 8.593598e+002
2.206466e+002, 8.657283e+002
2.211287e+002, 8.721780e+002
2.216108e+002, 8.786674e+002
2.220929e+002, 8.848749e+002
2.225750e+002, 8.902410e+002
2.230571e+002, 8.959516e+002
2.235393e+002, 9.023142e+002
2.240214e+002, 9.090829e+002
2.245035e+002, 9.159222e+002
2.249856e+002, 9.226084e+002
2.254677e+002, 9.291589e+002
2.259498e+002, 9.355897e+002
2.264320e+002, 9.411972e+002
2.269141e+002, 9.474803e+002
2.273962e+002, 9.549738e+002
2.278783e+002, 9.632731e+002
2.283604e+002, 9.720203e+002
2.288425e+002, 9.811168e+002
2.293247e+002, 9.902591e+002
2.298068e+002, 9.977123e+002
2.302889e+002, 1.003775e+003
2.307710e+002, 1.007988e+003
2.312531e+002, 1.010649e+003
2.317352e+002, 1.011327e+003
2.322174e+002, 1.009141e+003
2.326995e+002, 1.003490e+003
2.331816e+002, 9.948734e+002
2.336637e+002, 9.852684e+002
2.341458e+002, 9.751747e+002
2.346279e+002, 9.637635e+002
2.351101e+002, 9.501325e+002
2.355922e+002, 9.350524e+002
2.360743e+002, 9.197877e+002
2.365564e+002, 9.048520e+002
2.370385e+002, 8.904553e+002
2.375206e+002, 8.778156e+002
2.380028e+002, 8.671554e+002
2.384849e+002, 8.573029e+002
2.389670e+002, 8.472897e+002
2.394491e+002, 8.378358e+002
2.399312e+002, 8.304664e+002
2.404133e+002, 8.259580e+002
2.408955e+002, 8.239510e+002
2.413776e+002, 8.235254e+002
2.418597e+002, 8.245244e+002
2.423418e+002, 8.269468e+002
2.428239e+002, 8.311345e+002
2.433060e+002, 8.367740e+002
2.437882e+002, 8.431292e+002
2.442703e+002, 8.500599e+002
2.447524e+002, 8.574193e+002
2.452345e+002, 8.649938e+002
2.457166e+002, 8.728326e+002
2.461987e+002, 8.804618e+002
2.466809e+002, 8.877683e+002
2.471630e+002, 8.946843e+002
2.476451e+002, 9.010782e+002
2.481272e+002, 9.068986e+002
2.486093e+002, 9.120334e+002
2.490914e+002, 9.164718e+002
2.495736e+002, 9.202132e+002
2.500557e+002, 9.233729e+002
2.505378e+002, 9.253298e+002
2.510199e+002, 9.265544e+002
2.515020e+002, 9.289647e+002
2.519841e+002, 9.329525e+002
2.524663e+002, 9.383293e+002
2.529484e+002, 9.449803e+002
2.534305e+002, 9.527846e+002
2.539126e+002, 9.610157e+002
2.543947e+002, 9.694100e+002
2.548768e+002, 9.779437e+002
2.553590e+002, 9.863528e+002
2.558411e+002, 9.947932e+002
2.563232e+002, 1.002869e+003
2.568053e+002, 1.011209e+003
2.572874e+002, 1.019310e+003
2.577695e+002, 1.025340e+003
2.582516e+002, 1.027759e+003
2.587338e+002, 1.027011e+003
2.592159e+002, 1.025344e+003
2.596980e+002, 1.022631e+003
2.601801e+002, 1.019141e+003
2.606622e+002, 1.013828e+003
2.611443e+002, 1.007904e+003
2.616265e+002, 1.004030e+003
2.621086e+002, 1.003836e+003
2.625907e+002, 1.006992e+003
2.630728e+002, 1.011983e+003
2.635549e+002, 1.018649e+003
2.640370e+002, 1.027750e+003
2.645192e+002, 1.038654e+003
2.650013e+002, 1.051858e+003
2.654834e+002, 1.068163e+003
2.659655e+002, 1.088164e+003
2.664476e+002, 1.111524e+003
2.669297e+002, 1.137646e+003
2.674119e+002, 1.167617e+003
2.678940e+002, 1.198705e+003
2.683761e+002, 1.230424e+003
2.688582e+002, 1.262370e+003
2.693403e+002, 1.294347e+003
2.698224e+002, 1.326213e+003
2.703046e+002, 1.357785e+003
2.707867e+002, 1.388783e+003
2.712688e+002, 1.420322e+003
2.717509e+002, 1.448939e+003
2.722330e+002, 1.476203e+003
2.727151e+002, 1.499889e+003
2.731973e+002, 1.517890e+003
2.736794e+002, 1.529331e+003
2.741615e+002, 1.535209e+003
2.746436e+002, 1.537976e+003
2.751257e+002, 1.539306e+003
2.756078e+002, 1.533373e+003
2.760900e+002, 1.518647e+003
2.765721e+002, 1.498461e+003
2.770542e+002, 1.475309e+003
2.775363e+002, 1.449958e+003
2.780184e+002, 1.422045e+003
2.785005e+002, 1.390957e+003
2.789827e+002, 1.355891e+003
2.794648e+002, 1.319162e+003
2.799469e+002, 1.280195e+003
2.804290e+002, 1.240380e+003
2.809111e+002, 1.200160e+003
2.813932e+002, 1.159914e+003
2.818754e+002, 1.120616e+003
2.823575e+002, 1.083363e+003
2.828396e+002, 1.047933e+003
2.833217e+002, 1.015632e+003
2.838038e+002, 9.855585e+002
2.842859e+002, 9.588278e+002
2.847681e+002, 9.368451e+002
2.852502e+002, 9.191991e+002
2.857323e+002, 9.041660e+002
2.862144e+002, 8.899290e+002
2.866965e+002, 8.761518e+002
2.871786e+002, 8.652024e+002
2.876608e+002, 8.584882e+002
2.881429e+002, 8.529396e+002
2.886250e+002, 8.469257e+002
2.891071e+002, 8.409443e+002
2.895892e+002, 8.366818e+002
2.900714e+002, 8.356262e+002
2.905535e+002, 8.378250e+002
2.910356e+002, 8.402789e+002
2.915177e+002, 8.418185e+002
2.919998e+002, 8.448184e+002
2.924819e+002, 8.508270e+002
2.929641e+002, 8.587550e+002
2.934462e+002, 8.665158e+002
2.939283e+002, 8.727687e+002
2.944104e+002, 8.778104e+002
2.948925e+002, 8.839436e+002
2.953746e+002, 8.916352e+002
2.958568e+002, 8.999928e+002
2.963389e+002, 9.085595e+002
2.968210e+002, 9.178639e+002
2.973031e+002, 9.286301e+002
2.977852e+002, 9.412495e+002
2.982673e+002, 9.554366e+002
2.987495e+002, 9.701880e+002
2.992316e+002, 9.859039e+002
2.997137e+002, 1.001937e+003
3.001958e+002, 1.016247e+003
3.006779e+002, 1.031829e+003
3.011600e+002, 1.051766e+003
3.016422e+002, 1.077079e+003
3.021243e+002, 1.106441e+003
3.026064e+002, 1.137365e+003
3.030885e+002, 1.169816e+003
3.035706e+002, 1.204172e+003
3.040527e+002, 1.239286e+003
3.045349e+002, 1.276730e+003
3.050170e+002, 1.317955e+003
3.054991e+002, 1.362994e+003
3.059812e+002, 1.410253e+003
3.064633e+002, 1.457685e+003
3.069454e+002, 1.504460e+003
3.074276e+002, 1.554507e+003
3.079097e+002, 1.611120e+003
3.083918e+002, 1.667194e+003
3.088739e+002, 1.720036e+003
3.093560e+002, 1.768979e+003
3.098381e+002, 1.813536e+003
3.103203e+002, 1.854086e+003
3.108024e+002, 1.890583e+003
3.112845e+002, 1.919238e+003
3.117666e+002, 1.941463e+003
3.122487e+002, 1.955863e+003
3.127308e+002, 1.960026e+003
3.132130e+002, 1.955974e+003
3.136951e+002, 1.947129e+003
3.141772e+002, 1.935321e+003
3.146593e+002, 1.921106e+003
3.151414e+002, 1.908731e+003
3.156235e+002, 1.899248e+003
3.161057e+002, 1.890291e+003
3.165878e+002, 1.881414e+003
3.170699e+002, 1.872852e+003
3.175520e+002, 1.865416e+003
3.180341e+002, 1.859505e+003
3.185162e+002, 1.853900e+003
3.189984e+002, 1.845554e+003
3.194805e+002, 1.832579e+003
3.199626e+002, 1.819010e+003
3.204447e+002, 1.806121e+003
3.209268e+002, 1.792061e+003
3.214089e+002, 1.775379e+003
3.218911e+002, 1.755572e+003
3.223732e+002, 1.732788e+003
3.228553e+002, 1.706759e+003
3.233374e+002, 1.675908e+003
3.238195e+002, 1.645898e+003
3.243016e+002, 1.618496e+003
3.247838e+002, 1.590647e+003
3.252659e+002, 1.560408e+003
3.257480e+002, 1.527702e+003
3.262301e+002, 1.494071e+003
3.267122e+002, 1.460601e+003
3.271943e+002, 1.427287e+003
3.276765e+002, 1.395305e+003
3.281586e+002, 1.363827e+003
3.286407e+002, 1.334390e+003
3.291228e+002, 1.307706e+003
3.296049e+002, 1.283471e+003
3.300870e+002, 1.260733e+003
3.305692e+002, 1.238787e+003
3.310513e+002, 1.217805e+003
3.315334e+002, 1.199540e+003
3.320155e+002, 1.184320e+003
3.324976e+002, 1.171517e+003
3.329797e+002, 1.160547e+003
3.334619e+002, 1.152140e+003
3.339440e+002, 1.147176e+003
3.344261e+002, 1.146056e+003
3.349082e+002, 1.148596e+003
3.353904e+002, 1.154495e+003
3.358725e+002, 1.165416e+003
3.363546e+002, 1.177443e+003
3.368367e+002, 1.189209e+003
3.373188e+002, 1.202651e+003
3.378009e+002, 1.218986e+003
3.382831e+002, 1.238578e+003
3.387652e+002, 1.261609e+003
3.392473e+002, 1.288690e+003
3.397294e+002, 1.321918e+003
3.402115e+002, 1.353030e+003
3.406936e+002, 1.384981e+003
3.411758e+002, 1.412642e+003
3.416579e+002, 1.434510e+003
3.421400e+002, 1.449953e+003
3.426221e+002, 1.458267e+003
3.431042e+002, 1.459190e+003
3.435863e+002, 1.452717e+003
3.440685e+002, 1.436131e+003
3.445506e+002, 1.405620e+003
3.450327e+002, 1.367667e+003
3.455148e+002, 1.320569e+003
3.459969e+002, 1.267300e+003
3.464790e+002, 1.211721e+003
3.469612e+002, 1.155326e+003
3.474433e+002, 1.099277e+003
3.479254e+002, 1.045637e+003
3.484075e+002, 9.936115e+002
3.488896e+002, 9.465736e+002
3.493717e+002, 9.050842e+002
3.498539e+002, 8.682714e+002
3.503360e+002, 8.351359e+002
3.508181e+002, 8.055722e+002
3.513002e+002, 7.794212e+002
3.517823e+002, 7.564834e+002
3.522644e+002, 7.367980e+002
3.527466e+002, 7.203948e+002
3.532287e+002, 7.091275e+002
3.537108e+002, 6.994485e+002
3.541929e+002, 6.893769e+002
3.546750e+002, 6.790577e+002
3.551571e+002, 6.700643e+002
3.556393e+002, 6.641092e+002
3.561214e+002, 6.611500e+002
3.566035e+002, 6.579224e+002
3.570856e+002, 6.532167e+002
3.575677e+002, 6.498193e+002
3.580498e+002, 6.490444e+002
3.585320e+002, 6.501225e+002
3.590141e+002, 6.517422e+002
3.594962e+002, 6.532274e+002
3.599783e+002, 6.547554e+002
3.604604e+002, 6.567570e+002
3.609425e+002, 6.592372e+002
3.614247e+002, 6.622245e+002
3.619068e+002, 6.660535e+002
3.623889e+002, 6.701690e+002
3.628710e+002, 6.738321e+002
3.633531e+002, 6.768074e+002
3.638352e+002, 6.801520e+002
3.643174e+002, 6.853141e+002
3.647995e+002, 6.924661e+002
3.652816e+002, 6.997912e+002
3.657637e+002, 7.070260e+002
3.662458e+002, 7.143278e+002
3.667279e+002, 7.216306e+002
3.672101e+002, 7.290101e+002
3.676922e+002, 7.368496e+002
3.681743e+002, 7.455543e+002
3.686564e+002, 7.549955e+002
3.691385e+002, 7.645301e+002
3.696206e+002, 7.744014e+002
3.701028e+002, 7.840028e+002
3.705849e+002, 7.926078e+002
3.710670e+002, 8.007609e+002
3.715491e+002, 8.092804e+002
3.720312e+002, 8.183093e+002
3.725133e+002, 8.281019e+002
3.729955e+002, 8.398415e+002
3.734776e+002, 8.538500e+002
3.739597e+002, 8.663041e+002
3.744418e+002, 8.742294e+002
3.749239e+002, 8.805631e+002
3.754060e+002, 8.886183e+002
3.758882e+002, 8.985468e+002
3.763703e+002, 9.106628e+002
3.768524e+002, 9.259612e+002
3.773345e+002, 9.438523e+002
3.778166e+002, 9.621429e+002
3.782987e+002, 9.805725e+002
3.787809e+002, 9.988394e+002
3.792630e+002, 1.016237e+003
3.797451e+002, 1.032970e+003
3.802272e+002, 1.050558e+003
3.807093e+002, 1.068653e+003
3.811914e+002, 1.088195e+003
3.816736e+002, 1.110803e+003
3.821557e+002, 1.136525e+003
3.826378e+002, 1.163592e+003
3.831199e+002, 1.190792e+003
3.836020e+002, 1.218278e+003
3.840841e+002, 1.246506e+003
3.845663e+002, 1.275529e+003
3.850484e+002, 1.305360e+003
3.855305e+002, 1.335919e+003
3.860126e+002, 1.367270e+003
3.864947e+002, 1.399590e+003
3.869768e+002, 1.432652e+003
3.874590e+002, 1.467189e+003
3.879411e+002, 1.505225e+003
3.884232e+002, 1.547427e+003
3.889053e+002, 1.590004e+003
3.893874e+002, 1.631815e+003
3.898695e+002, 1.673802e+003
3.903517e+002, 1.717190e+003
3.908338e+002, 1.762424e+003
3.913159e+002, 1.808263e+003
3.917980e+002, 1.854379e+003
3.922801e+002, 1.901101e+003
3.927622e+002, 1.943027e+003
3.932444e+002, 1.977564e+003
3.937265e+002, 2.010224e+003
3.942086e+002, 2.044396e+003
3.946907e+002, 2.078994e+003
3.951728e+002, 2.111205e+003
3.956549e+002, 2.139102e+003
3.961371e+002, 2.163511e+003
3.966192e+002, 2.186719e+003
3.971013e+002, 2.211444e+003
3.975834e+002, 2.231414e+003
3.980655e+002, 2.244854e+003
3.985476e+002, 2.253900e+003
3.990298e+002, 2.260520e+003
3.995119e+002, 2.265258e+003
3.999940e+002, 2.267617e+003
4.004761e+002, 2.266823e+003
4.009582e+002, 2.262414e+003
4.014403e+002, 2.256290e+003
4.019225e+002, 2.247927e+003
4.024046e+002, 2.238613e+003
4.028867e+002, 2.228081e+003
4.033688e+002, 2.217059e+003
4.038509e+002, 2.206851e+003
4.043330e+002, 2.198293e+003
4.048152e+002, 2.191283e+003
4.052973e+002, 2.185409e+003
4.057794e+002, 2.182379e+003
4.062615e+002, 2.177818e+003
4.067436e+002, 2.170488e+003
4.072257e+002, 2.161616e+003
4.077079e+002, 2.152935e+003
4.081900e+002, 2.144862e+003
4.086721e+002, 2.135494e+003
4.091542e+002, 2.122344e+003
4.096363e+002, 2.105120e+003
4.101184e+002, 2.085159e+003
4.106006e+002, 2.064027e+003
4.110827e+002, 2.038444e+003
4.115648e+002, 2.006204e+003
4.120469e+002, 1.967881e+003
4.125290e+002, 1.926088e+003
4.130111e+002, 1.882139e+003
4.134933e+002, 1.836037e+003
4.139754e+002, 1.787551e+003
4.144575e+002, 1.736322e+003
4.149396e+002, 1.683847e+003
4.154217e+002, 1.628203e+003
4.159038e+002, 1.572782e+003
4.163860e+002, 1.522094e+003
4.168681e+002, 1.477412e+003
4.173502e+002, 1.436206e+003
4.178323e+002, 1.396756e+003
4.183144e+002, 1.358986e+003
4.187965e+002, 1.323686e+003
4.192787e+002, 1.290896e+003
4.197608e+002, 1.260788e+003
4.202429e+002, 1.233255e+003
4.207250e+002, 1.208212e+003
4.212071e+002, 1.185743e+003
4.216892e+002, 1.165539e+003
4.221714e+002, 1.147954e+003
4.226535e+002, 1.134136e+003
4.231356e+002, 1.124166e+003
4.236177e+002, 1.115529e+003
4.240998e+002, 1.106409e+003
4.245819e+002, 1.097405e+003
4.250641e+002, 1.090698e+003
4.255462e+002, 1.086227e+003
4.260283e+002, 1.084010e+003
4.265104e+002, 1.084136e+003
4.269925e+002, 1.086515e+003
4.274746e+002, 1.091320e+003
4.279568e+002, 1.098780e+003
4.284389e+002, 1.107609e+003
4.289210e+002, 1.115799e+003
4.294031e+002, 1.122409e+003
4.298852e+002, 1.131500e+003
4.303673e+002, 1.144625e+003
4.308495e+002, 1.159078e+003
4.313316e+002, 1.172991e+003
4.318137e+002, 1.186473e+003
4.322958e+002, 1.200759e+003
4.327779e+002, 1.216781e+003
4.332600e+002, 1.234471e+003
4.337422e+002, 1.252996e+003
4.342243e+002, 1.272203e+003
4.347064e+002, 1.292509e+003
4.351885e+002, 1.315266e+003
4.356706e+002, 1.338501e+003
4.361527e+002, 1.359917e+003
4.366349e+002, 1.378871e+003
4.371170e+002, 1.396426e+003
4.375991e+002, 1.414141e+003
4.380812e+002, 1.432324e+003
4.385633e+002, 1.449426e+003
4.390454e+002, 1.465758e+003
4.395276e+002, 1.480528e+003
4.400097e+002, 1.493099e+003
4.404918e+002, 1.503760e+003
4.409739e+002, 1.513411e+003
4.414560e+002, 1.522582e+003
4.419381e+002, 1.531023e+003
4.424203e+002, 1.538305e+003
4.429024e+002, 1.544783e+003
4.433845e+002, 1.549038e+003
4.438666e+002, 1.549924e+003
4.443487e+002, 1.548859e+003
4.448308e+002, 1.546888e+003
4.453130e+002, 1.544193e+003
4.457951e+002, 1.540175e+003
4.462772e+002, 1.534288e+003
4.467593e+002, 1.526633e+003
4.472414e+002, 1.517693e+003
4.477235e+002, 1.507456e+003
4.482057e+002, 1.496106e+003
4.486878e+002, 1.483473e+003
4.491699e+002, 1.469801e+003
4.496520e+002, 1.455766e+003
4.501341e+002, 1.441888e+003
4.506162e+002, 1.427314e+003
4.510984e+002, 1.411021e+003
4.515805e+002, 1.393195e+003
4.520626e+002, 1.374864e+003
4.525447e+002, 1.356124e+003
4.530268e+002, 1.337502e+003
4.535089e+002, 1.320229e+003
4.539911e+002, 1.304359e+003
4.544732e+002, 1.288836e+003
4.549553e+002, 1.273443e+003
4.554374e+002, 1.258255e+003
4.559195e+002, 1.243149e+003
4.564016e+002, 1.228138e+003
4.568838e+002, 1.213834e+003
4.573659e+002, 1.200622e+003
4.578480e+002, 1.188510e+003
4.583301e+002, 1.177254e+003
4.588122e+002, 1.167068e+003
4.592943e+002, 1.157270e+003
4.597765e+002, 1.147280e+003
4.602586e+002, 1.137696e+003
4.607407e+002, 1.129264e+003
4.612228e+002, 1.122267e+003
4.617049e+002, 1.116406e+003
4.621870e+002, 1.111218e+003
4.626692e+002, 1.106614e+003
4.631513e+002, 1.103087e+003
4.636334e+002, 1.100148e+003
4.641155e+002, 1.098697e+003
4.645976e+002, 1.099553e+003
4.650797e+002, 1.102221e+003
4.655619e+002, 1.105729e+003
4.660440e+002, 1.109615e+003
4.665261e+002, 1.113681e+003
4.670082e+002, 1.117342e+003
4.674903e+002, 1.120602e+003
4.679724e+002, 1.123478e+003
4.684546e+002, 1.126870e+003
4.689367e+002, 1.129252e+003
4.694188e+002, 1.129654e+003
4.699009e+002, 1.127916e+003
4.703830e+002, 1.123973e+003
4.708651e+002, 1.117707e+003
4.713473e+002, 1.109182e+003
4.718294e+002, 1.098585e+003
4.723115e+002, 1.085841e+003
4.727936e+002, 1.071271e+003
4.732757e+002, 1.054599e+003
4.737578e+002, 1.036376e+003
4.742400e+002, 1.017615e+003
4.747221e+002, 9.984344e+002
4.752042e+002, 9.787717e+002
4.756863e+002, 9.584509e+002
4.761684e+002, 9.375692e+002
4.766505e+002, 9.164055e+002
4.771327e+002, 8.947921e+002
4.776148e+002, 8.735780e+002
4.780969e+002, 8.534923e+002
4.785790e+002, 8.347213e+002
4.790611e+002, 8.169453e+002
4.795432e+002, 8.008502e+002
4.800254e+002, 7.852501e+002
4.805075e+002, 7.691115e+002
4.809896e+002, 7.527204e+002
4.814717e+002, 7.370871e+002
4.819538e+002, 7.227364e+002
4.824359e+002, 7.095468e+002
4.829181e+002, 6.972146e+002
4.834002e+002, 6.862977e+002
4.838823e+002, 6.753962e+002
4.843644e+002, 6.643222e+002
4.848465e+002, 6.533873e+002
4.853286e+002, 6.428036e+002
4.858108e+002, 6.325865e+002
4.862929e+002, 6.226305e+002
4.867750e+002, 6.128036e+002
4.872571e+002, 6.031708e+002
4.877392e+002, 5.939629e+002
4.882213e+002, 5.850595e+002
4.887035e+002, 5.768340e+002
4.891856e+002, 5.695062e+002
4.896677e+002, 5.627128e+002
4.901498e+002, 5.562233e+002
4.906319e+002, 5.499630e+002
4.911140e+002, 5.435381e+002
4.915962e+002, 5.363034e+002
4.920783e+002, 5.284051e+002
4.925604e+002, 5.213685e+002
4.930425e+002, 5.156605e+002
4.935246e+002, 5.102320e+002
4.940067e+002, 5.041069e+002
4.944889e+002, 4.976592e+002
4.949710e+002, 4.917538e+002
4.954531e+002, 4.869973e+002
4.959352e+002, 4.823780e+002
4.964173e+002, 4.768623e+002
4.968994e+002, 4.707455e+002
4.973816e+002, 4.650412e+002
4.978637e+002, 4.601029e+002
4.983458e+002, 4.557450e+002
4.988279e+002, 4.518017e+002
4.993100e+002, 4.483570e+002
4.997921e+002, 4.449061e+002
5.002743e+002, 4.402199e+002
5.007564e+002, 4.365624e+002
5.012385e+002, 4.368676e+002
5.017206e+002, 4.396573e+002
5.022027e+002, 4.404742e+002
5.026848e+002, 4.366979e+002
5.031670e+002, 4.297722e+002
5.036491e+002, 4.239776e+002
5.041312e+002, 4.198880e+002
5.046133e+002, 4.160358e+002
5.050954e+002, 4.118716e+002
5.055775e+002, 4.082964e+002
5.060597e+002, 4.063864e+002
5.065418e+002, 4.057920e+002
5.070239e+002, 4.049725e+002
5.075060e+002, 4.025501e+002
5.079881e+002, 3.989771e+002
5.084702e+002, 3.964831e+002
5.089524e+002, 3.954980e+002
5.094345e+002, 3.946278e+002
5.099166e+002, 3.932565e+002
5.103987e+002, 3.918924e+002
5.108808e+002, 3.911303e+002
5.113629e+002, 3.910660e+002
5.118451e+002, 3.909406e+002
5.123271e+002, 3.903130e+002
5.128093e+002, 3.891906e+002
5.132914e+002, 3.873629e+002
5.137735e+002, 3.846141e+002
5.142556e+002, 3.822336e+002
5.147377e+002, 3.813481e+002
5.152198e+002, 3.815449e+002
5.157020e+002, 3.812775e+002
5.161841e+002, 3.804386e+002
5.166662e+002, 3.792333e+002
5.171483e+002, 3.775320e+002
5.176304e+002, 3.755825e+002
5.181125e+002, 3.737056e+002
5.185947e+002, 3.719869e+002
5.190768e+002, 3.705580e+002
5.195589e+002, 3.695615e+002
5.200410e+002, 3.690140e+002
5.205231e+002, 3.687273e+002
5.210052e+002, 3.695498e+002
5.214874e+002, 3.696437e+002
5.219695e+002, 3.674916e+002
5.224516e+002, 3.645661e+002
5.229337e+002, 3.632420e+002
5.234158e+002, 3.643242e+002
5.238979e+002, 3.661628e+002
5.243801e+002, 3.661507e+002
5.248622e+002, 3.638298e+002
5.253443e+002, 3.620696e+002
5.258264e+002, 3.610777e+002
5.263085e+002, 3.605511e+002
5.267906e+002, 3.605508e+002
5.272728e+002, 3.608719e+002
5.277549e+002, 3.610895e+002
5.282370e+002, 3.608985e+002
5.287191e+002, 3.608380e+002
5.292012e+002, 3.621156e+002
5.296833e+002, 3.645601e+002
5.301655e+002, 3.654401e+002
5.306476e+002, 3.634660e+002
5.311297e+002, 3.607241e+002
5.316118e+002, 3.595211e+002
5.320939e+002, 3.596492e+002
5.325760e+002, 3.599386e+002
5.330582e+002, 3.603105e+002
5.335403e+002, 3.606352e+002
5.340224e+002, 3.607269e+002
5.345045e+002, 3.606794e+002
5.349866e+002, 3.607260e+002
5.354688e+002, 3.609460e+002
5.359509e+002, 3.614474e+002
5.364330e+002, 3.624616e+002
5.369151e+002, 3.642509e+002
5.373972e+002, 3.659525e+002
5.378793e+002, 3.684487e+002
5.383615e+002, 3.700645e+002
5.388436e+002, 3.691890e+002
5.393257e+002, 3.667037e+002
5.398078e+002, 3.646510e+002
5.402899e+002, 3.641760e+002
5.407720e+002, 3.647700e+002
5.412542e+002, 3.653604e+002
5.417363e+002, 3.660224e+002
5.422184e+002, 3.664081e+002
5.427005e+002, 3.662261e+002
5.431826e+002, 3.659417e+002
5.436647e+002, 3.658496e+002
5.441469e+002, 3.659006e+002
5.446290e+002, 3.658276e+002
5.451111e+002, 3.651686e+002
5.455932e+002, 3.645499e+002
5.460753e+002, 3.650739e+002
5.465574e+002, 3.667018e+002
5.470396e+002, 3.684138e+002
5.475217e+002, 3.699707e+002
5.480038e+002, 3.712352e+002
5.484859e+002, 3.718343e+002
5.489680e+002, 3.716967e+002
5.494501e+002, 3.718072e+002
5.499323e+002, 3.723538e+002
5.504144e+002, 3.732036e+002
5.508965e+002, 3.746501e+002
5.513786e+002, 3.763647e+002
5.518607e+002, 3.772390e+002
5.523428e+002, 3.766024e+002
5.528250e+002, 3.751759e+002
5.533071e+002, 3.747722e+002
5.537892e+002, 3.761094e+002
5.542713e+002, 3.772004e+002
5.547534e+002, 3.777574e+002
5.552355e+002, 3.783609e+002
5.557177e+002, 3.794291e+002
5.561998e+002, 3.808319e+002
5.566819e+002, 3.821716e+002
5.571640e+002, 3.832158e+002
5.576461e+002, 3.840356e+002
5.581282e+002, 3.847426e+002
5.586104e+002, 3.853214e+002
5.590925e+002, 3.858901e+002
5.595746e+002, 3.863999e+002
5.600567e+002, 3.869932e+002
5.605388e+002, 3.874839e+002
5.610209e+002, 3.880006e+002
5.615031e+002, 3.895018e+002
5.619852e+002, 3.938799e+002
5.624673e+002, 3.982922e+002
5.629494e+002, 3.992943e+002
5.634315e+002, 3.974820e+002
5.639136e+002, 3.958493e+002
5.643958e+002, 3.955638e+002
5.648779e+002, 3.962279e+002
5.653600e+002, 3.971898e+002
5.658421e+002, 3.984559e+002
5.663242e+002, 4.000618e+002
5.668063e+002, 4.025382e+002
5.672885e+002, 4.048556e+002
5.677706e+002, 4.063869e+002
5.682527e+002, 4.073105e+002
5.687348e+002, 4.078965e+002
5.692169e+002, 4.082549e+002
5.696990e+002, 4.088470e+002
5.701812e+002, 4.108478e+002
5.706633e+002, 4.148568e+002
5.711454e+002, 4.178104e+002
5.716275e+002, 4.187545e+002
5.721096e+002, 4.193204e+002
5.725917e+002, 4.200645e+002
5.730739e+002, 4.210771e+002
5.735560e+002, 4.224829e+002
5.740381e+002, 4.243644e+002
5.745202e+002, 4.266078e+002
5.750023e+002, 4.293270e+002
5.754844e+002, 4.323836e+002
5.759666e+002, 4.348698e+002
5.764487e+002, 4.364329e+002
5.769308e+002, 4.378137e+002
5.774129e+002, 4.397232e+002
5.778950e+002, 4.421953e+002
5.783771e+002, 4.450380e+002
5.788593e+002, 4.485763e+002
5.793414e+002, 4.521372e+002
5.798235e+002, 4.553929e+002
5.803056e+002, 4.584828e+002
5.807877e+002, 4.615343e+002
5.812698e+002, 4.646281e+002
5.817520e+002, 4.679801e+002
5.822341e+002, 4.719936e+002
5.827162e+002, 4.768604e+002
5.831984e+002, 4.807776e+002
5.836805e+002, 4.822229e+002
5.841626e+002, 4.846280e+002
5.846447e+002, 4.894024e+002
5.851268e+002, 4.954234e+002
5.856089e+002, 5.012558e+002
5.860911e+002, 5.065126e+002
5.865732e+002, 5.119873e+002
5.870553e+002, 5.183906e+002
5.875374e+002, 5.256425e+002
5.880195e+002, 5.333733e+002
5.885016e+002, 5.416674e+002
5.889838e+002, 5.498859e+002
5.894659e+002, 5.570888e+002
5.899480e+002, 5.641107e+002
5.904301e+002, 5.733022e+002
5.909122e+002, 5.853943e+002
5.913943e+002, 5.981401e+002
5.918765e+002, 6.107492e+002
5.923586e+002, 6.237833e+002
5.928407e+002, 6.377610e+002
5.933228e+002, 6.527704e+002
5.938049e+002, 6.689014e+002
5.942870e+002, 6.863941e+002
5.947692e+002, 7.049380e+002
5.952513e+002, 7.234230e+002
5.957334e+002, 7.414315e+002
5.962155e+002, 7.600533e+002
5.966976e+002, 7.789276e+002
5.971797e+002, 7.987270e+002
5.976619e+002, 8.200150e+002
5.981440e+002, 8.427333e+002
5.986261e+002, 8.665526e+002
5.991082e+002, 8.911735e+002
5.995903e+002, 9.168631e+002
6.000724e+002, 9.439748e+002
6.005546e+002, 9.725016e+002
6.010367e+002, 1.002821e+003
6.015188e+002, 1.034987e+003
6.020009e+002, 1.069099e+003
6.024830e+002, 1.105552e+003
6.029651e+002, 1.144203e+003
6.034473e+002, 1.185447e+003
6.039294e+002, 1.228981e+003
6.044115e+002, 1.275307e+003
6.048936e+002, 1.325406e+003
6.053757e+002, 1.378203e+003
6.058578e+002, 1.432068e+003
6.063400e+002, 1.486202e+003
6.068221e+002, 1.539743e+003
6.073042e+002, 1.591911e+003
6.077863e+002, 1.643211e+003
6.082684e+002, 1.689625e+003
6.087505e+002, 1.735122e+003
6.092327e+002, 1.770105e+003
6.097148e+002, 1.792029e+003
6.101969e+002, 1.802088e+003
6.106790e+002, 1.801834e+003
6.111611e+002, 1.791614e+003
6.116432e+002, 1.771292e+003
6.121254e+002, 1.739201e+003
6.126075e+002, 1.696809e+003
6.130896e+002, 1.647777e+003
6.135717e+002, 1.591382e+003
6.140538e+002, 1.533597e+003
6.145359e+002, 1.476979e+003
6.150181e+002, 1.422132e+003
6.155002e+002, 1.371248e+003
6.159823e+002, 1.323307e+003
6.164644e+002, 1.280431e+003
6.169465e+002, 1.243350e+003
6.174286e+002, 1.211451e+003
6.179108e+002, 1.184651e+003
6.183929e+002, 1.162570e+003
6.188750e+002, 1.144645e+003
6.193571e+002, 1.130685e+003
6.198392e+002, 1.120230e+003
6.203214e+002, 1.111929e+003
6.208035e+002, 1.105255e+003
6.212856e+002, 1.102376e+003
6.217677e+002, 1.104921e+003
6.222498e+002, 1.110221e+003
6.227319e+002, 1.117009e+003
6.232141e+002, 1.125436e+003
6.236962e+002, 1.136086e+003
6.241783e+002, 1.149442e+003
6.246604e+002, 1.164660e+003
6.251425e+002, 1.180973e+003
6.256246e+002, 1.198561e+003
6.261068e+002, 1.217873e+003
6.265889e+002, 1.239075e+003
6.270710e+002, 1.261867e+003
6.275531e+002, 1.285808e+003
6.280352e+002, 1.310829e+003
6.285173e+002, 1.338222e+003
6.289995e+002, 1.368720e+003
6.294816e+002, 1.400043e+003
6.299637e+002, 1.431645e+003
6.304458e+002, 1.463843e+003
6.309279e+002, 1.497352e+003
6.314100e+002, 1.532022e+003
6.318922e+002, 1.566986e+003
6.323743e+002, 1.601352e+003
6.328564e+002, 1.635579e+003
6.333385e+002, 1.671381e+003
6.338206e+002, 1.708840e+003
6.343027e+002, 1.747633e+003
6.347849e+002, 1.789451e+003
6.352670e+002, 1.830870e+003
6.357491e+002, 1.868345e+003
6.362312e+002, 1.902431e+003
6.367133e+002, 1.936653e+003
6.371954e+002, 1.974079e+003
6.376776e+002, 2.010542e+003
6.381597e+002, 2.042814e+003
6.386418e+002, 2.071526e+003
6.391239e+002, 2.098542e+003
6.396060e+002, 2.124366e+003
6.400881e+002, 2.147493e+003
6.405703e+002, 2.165673e+003
6.410524e+002, 2.178579e+003
6.415345e+002, 2.190349e+003
6.420166e+002, 2.202311e+003
6.424987e+002, 2.211358e+003
6.429808e+002, 2.216176e+003
6.434630e+002, 2.218189e+003
6.439451e+002, 2.218635e+003
6.444272e+002, 2.217818e+003
6.449093e+002, 2.215847e+003
6.453914e+002, 2.212452e+003
6.458735e+002, 2.208027e+003
6.463557e+002, 2.203394e+003
6.468378e+002, 2.198500e+003
6.473199e+002, 2.194028e+003
6.478020e+002, 2.190385e+003
6.482841e+002, 2.187058e+003
6.487662e+002, 2.182865e+003
6.492484e+002, 2.177267e+003
6.497305e+002, 2.173737e+003
6.502126e+002, 2.172244e+003
6.506947e+002, 2.173194e+003
6.511768e+002, 2.178474e+003
6.516589e+002, 2.185910e+003
6.521411e+002, 2.191546e+003
6.526232e+002, 2.194075e+003
6.531053e+002, 2.195842e+003
6.535874e+002, 2.200285e+003
6.540695e+002, 2.207447e+003
6.545516e+002, 2.212551e+003
6.550338e+002, 2.215664e+003
6.555159e+002, 2.216505e+003
6.559980e+002, 2.216017e+003
6.564801e+002, 2.212530e+003
6.569622e+002, 2.203487e+003
6.574443e+002, 2.188370e+003
6.579265e+002, 2.170779e+003
6.584086e+002, 2.153461e+003
6.588907e+002, 2.133771e+003
6.593728e+002, 2.108023e+003
6.598549e+002, 2.076965e+003
6.603370e+002, 2.044405e+003
6.608192e+002, 2.012098e+003
6.613013e+002, 1.979343e+003
6.617834e+002, 1.945286e+003
6.622655e+002, 1.909777e+003
6.627476e+002, 1.873068e+003
6.632297e+002, 1.833798e+003
6.637119e+002, 1.794554e+003
6.641940e+002, 1.755228e+003
6.646761e+002, 1.716709e+003
6.651582e+002, 1.680557e+003
6.656403e+002, 1.647105e+003
6.661224e+002, 1.614934e+003
6.666046e+002, 1.582869e+003
6.670867e+002, 1.551101e+003
6.675688e+002, 1.519475e+003
6.680509e+002, 1.488166e+003
6.685330e+002, 1.458265e+003
6.690151e+002, 1.430189e+003
6.694973e+002, 1.404103e+003
6.699794e+002, 1.380584e+003
6.704615e+002, 1.361037e+003
6.709436e+002, 1.340475e+003
6.714257e+002, 1.318101e+003
6.719078e+002, 1.295548e+003
6.723900e+002, 1.273693e+003
6.728721e+002, 1.252231e+003
6.733542e+002, 1.230242e+003
6.738363e+002, 1.207444e+003
6.743184e+002, 1.185037e+003
6.748005e+002, 1.164488e+003
6.752827e+002, 1.145611e+003
6.757648e+002, 1.126973e+003
6.762469e+002, 1.108624e+003
6.767290e+002, 1.090527e+003
6.772111e+002, 1.072769e+003
6.776932e+002, 1.055127e+003
6.781754e+002, 1.037103e+003
6.786575e+002, 1.018592e+003
6.791396e+002, 1.000248e+003
6.796217e+002, 9.823743e+002
6.801038e+002, 9.643854e+002
6.805859e+002, 9.457081e+002
6.810681e+002, 9.265885e+002
6.815502e+002, 9.078969e+002
6.820323e+002, 8.900159e+002
6.825144e+002, 8.722040e+002
6.829965e+002, 8.533245e+002
6.834786e+002, 8.332275e+002
6.839608e+002, 8.151683e+002
6.844429e+002, 7.999508e+002
6.849250e+002, 7.854501e+002
6.854071e+002, 7.709918e+002
6.858892e+002, 7.567625e+002
6.863713e+002, 7.429793e+002
6.868535e+002, 7.296894e+002
6.873356e+002, 7.167011e+002
6.878177e+002, 7.034686e+002
6.882998e+002, 6.909105e+002
6.887819e+002, 6.800883e+002
6.892640e+002, 6.707620e+002
6.897462e+002, 6.623217e+002
6.902283e+002, 6.544758e+002
6.907104e+002, 6.467700e+002
6.911925e+002, 6.384892e+002
6.916746e+002, 6.294431e+002
6.921567e+002, 6.212963e+002
6.926389e+002, 6.140442e+002
6.931210e+002, 6.076769e+002
6.936031e+002, 6.024812e+002
6.940852e+002, 5.978933e+002
6.945673e+002, 5.934109e+002
6.950494e+002, 5.889439e+002
6.955316e+002, 5.845361e+002
6.960137e+002, 5.800244e+002
6.964958e+002, 5.757250e+002
6.969779e+002, 5.723267e+002
6.974600e+002, 5.696016e+002
6.979421e+002, 5.662484e+002
6.984243e+002, 5.617267e+002
6.989064e+002, 5.572904e+002
6.993885e+002, 5.545735e+002
6.998706e+002, 5.537186e+002
7.003527e+002, 5.527213e+002
7.008348e+002, 5.513013e+002
7.013170e+002, 5.500845e+002
7.017991e+002, 5.493395e+002
7.022812e+002, 5.487457e+002
7.027633e+002, 5.478988e+002
7.032454e+002, 5.468369e+002
7.037275e+002, 5.460837e+002
7.042097e+002, 5.460863e+002
7.046918e+002, 5.464838e+002
7.051739e+002, 5.464207e+002
7.056560e+002, 5.461098e+002
7.061381e+002, 5.471129e+002
7.066202e+002, 5.500182e+002
7.071024e+002, 5.534523e+002
7.075845e+002, 5.560052e+002
7.080666e+002, 5.577125e+002
7.085487e+002, 5.597306e+002
7.090308e+002, 5.623483e+002
7.095129e+002, 5.648741e+002
7.099951e+002, 5.668751e+002
7.104772e+002, 5.689998e+002
7.109593e+002, 5.720074e+002
7.114414e+002, 5.757051e+002
7.119235e+002, 5.790673e+002
7.124056e+002, 5.813412e+002
7.128878e+002, 5.833574e+002
7.133699e+002, 5.865024e+002
7.138520e+002, 5.906302e+002
7.143341e+002, 5.945930e+002
7.148162e+002, 5.981564e+002
7.152983e+002, 6.016953e+002
7.157805e+002, 6.055508e+002
7.162626e+002, 6.096434e+002
7.167447e+002, 6.135404e+002
7.172268e+002, 6.169250e+002
7.177089e+002, 6.205846e+002
7.181910e+002, 6.251674e+002
7.186732e+002, 6.295517e+002
7.191553e+002, 6.325399e+002
7.196374e+002, 6.346797e+002
7.201195e+002, 6.376912e+002
7.206016e+002, 6.425603e+002
7.210837e+002, 6.474381e+002
7.215659e+002, 6.493954e+002
7.220480e+002, 6.490212e+002
7.225301e+002, 6.497007e+002
7.230122e+002, 6.519523e+002
7.234943e+002, 6.541458e+002
7.239764e+002, 6.553216e+002
7.244586e+002, 6.557879e+002
7.249407e+002, 6.563624e+002
7.254228e+002, 6.573050e+002
7.259049e+002, 6.577014e+002
7.263870e+002, 6.573190e+002
7.268691e+002, 6.565589e+002
7.273513e+002, 6.555598e+002
7.278334e+002, 6.543620e+002
7.283155e+002, 6.529532e+002
7.287976e+002, 6.513427e+002
7.292797e+002, 6.497067e+002
7.297618e+002, 6.481166e+002
7.302440e+002, 6.466620e+002
7.307261e+002, 6.458787e+002
7.312082e+002, 6.458632e+002
7.316903e+002, 6.451448e+002
7.321724e+002, 6.426994e+002
7.326545e+002, 6.400306e+002
7.331367e+002, 6.395512e+002
7.336188e+002, 6.418733e+002
7.341009e+002, 6.429544e+002
7.345830e+002, 6.412897e+002
7.350651e+002, 6.401966e+002
7.355472e+002, 6.405856e+002
7.360294e+002, 6.422778e+002
7.365115e+002, 6.454337e+002
7.369936e+002, 6.497745e+002
7.374757e+002, 6.540633e+002
7.379578e+002, 6.572267e+002
7.384399e+002, 6.598766e+002
7.389221e+002, 6.632058e+002
7.394042e+002, 6.671979e+002
7.398863e+002, 6.717020e+002
7.403684e+002, 6.767019e+002
7.408505e+002, 6.821253e+002
7.413326e+002, 6.880256e+002
7.418148e+002, 6.943251e+002
7.422969e+002, 7.001202e+002
7.427790e+002, 7.045399e+002
7.432611e+002, 7.097068e+002
7.437432e+002, 7.162012e+002
7.442253e+002, 7.232243e+002
7.447075e+002, 7.302866e+002
7.451896e+002, 7.373768e+002
7.456717e+002, 7.446625e+002
7.461538e+002, 7.522465e+002
7.466359e+002, 7.600040e+002
7.471180e+002, 7.680541e+002
7.476002e+002, 7.761922e+002
7.480823e+002, 7.838069e+002
7.485644e+002, 7.908400e+002
7.490465e+002, 7.972873e+002
7.495286e+002, 8.029756e+002
7.500107e+002, 8.084152e+002
7.504929e+002, 8.149103e+002
7.509750e+002, 8.233428e+002
7.514571e+002, 8.307011e+002
7.519392e+002, 8.359554e+002
7.524213e+002, 8.413563e+002
7.529034e+002, 8.477654e+002
7.533856e+002, 8.548987e+002
7.538677e+002, 8.625881e+002
7.543498e+002, 8.707257e+002
7.548319e+002, 8.784009e+002
7.553140e+002, 8.845519e+002
7.557961e+002, 8.900128e+002
7.562783e+002, 8.959896e+002
7.567604e+002, 9.024982e+002
7.572425e+002, 9.097179e+002
7.577246e+002, 9.177024e+002
7.582067e+002, 9.260429e+002
7.586888e+002, 9.342885e+002
7.591710e+002, 9.424578e+002
7.596531e+002, 9.495241e+002
7.601352e+002, 9.547957e+002
7.606173e+002, 9.599614e+002
7.610994e+002, 9.656414e+002
7.615815e+002, 9.709955e+002
7.620637e+002, 9.754156e+002
7.625458e+002, 9.789520e+002
7.630279e+002, 9.820497e+002
7.635100e+002, 9.851228e+002
7.639921e+002, 9.873214e+002
7.644742e+002, 9.869534e+002
7.649564e+002, 9.855748e+002
7.654385e+002, 9.863987e+002
7.659206e+002, 9.895519e+002
7.664027e+002, 9.925393e+002
7.668848e+002, 9.937360e+002
7.673669e+002, 9.939260e+002
7.678491e+002, 9.950098e+002
7.683312e+002, 9.973419e+002
7.688133e+002, 9.992214e+002
7.692954e+002, 1.000100e+003
7.697775e+002, 1.001250e+003
7.702596e+002, 1.002738e+003
7.707418e+002, 1.005044e+003
7.712239e+002, 1.008864e+003
7.717060e+002, 1.014330e+003
7.721881e+002, 1.020780e+003
7.726702e+002, 1.028914e+003
7.731523e+002, 1.037071e+003
7.736345e+002, 1.043279e+003
7.741166e+002, 1.048585e+003
7.745987e+002, 1.055307e+003
7.750808e+002, 1.064020e+003
7.755629e+002, 1.073391e+003
7.760450e+002, 1.082263e+003
7.765272e+002, 1.090591e+003
7.770093e+002, 1.098148e+003
7.774914e+002, 1.104928e+003
7.779735e+002, 1.110962e+003
7.784556e+002, 1.115994e+003
7.789377e+002, 1.120786e+003
7.794199e+002, 1.126453e+003
7.799020e+002, 1.132566e+003
7.803841e+002, 1.137117e+003
7.808662e+002, 1.139837e+003
7.813483e+002, 1.141268e+003
7.818304e+002, 1.141329e+003
7.823126e+002, 1.140319e+003
7.827947e+002, 1.138937e+003
7.832768e+002, 1.136653e+003
7.837589e+002, 1.131736e+003
7.842410e+002, 1.123302e+003
7.847231e+002, 1.114110e+003
7.852053e+002, 1.108661e+003
7.856874e+002, 1.105388e+003
7.861695e+002, 1.097646e+003
7.866516e+002, 1.084981e+003
7.871337e+002, 1.070818e+003
7.876158e+002, 1.056570e+003
7.880980e+002, 1.041967e+003
7.885801e+002, 1.026475e+003
7.890622e+002, 1.010071e+003
7.895443e+002, 9.935068e+002
7.900264e+002, 9.781691e+002
7.905085e+002, 9.609996e+002
7.909907e+002, 9.398640e+002
7.914728e+002, 9.176389e+002
7.919549e+002, 8.967953e+002
7.924370e+002, 8.775699e+002
7.929191e+002, 8.589391e+002
7.934012e+002, 8.406257e+002
7.938834e+002, 8.226749e+002
7.943655e+002, 8.052096e+002
7.948476e+002, 7.881135e+002
7.953297e+002, 7.709550e+002
7.958118e+002, 7.537153e+002
7.962939e+002, 7.372914e+002
7.967761e+002, 7.222242e+002
7.972582e+002, 7.083908e+002
7.977403e+002, 6.957766e+002
7.982224e+002, 6.846082e+002
7.987045e+002, 6.733030e+002
7.991866e+002, 6.611862e+002
7.996688e+002, 6.499438e+002
8.001509e+002, 6.410548e+002
8.006330e+002, 6.330632e+002
8.011151e+002, 6.240284e+002
8.015972e+002, 6.137534e+002
8.020793e+002, 6.042337e+002
8.025615e+002, 5.963774e+002
8.030436e+002, 5.891243e+002
8.035257e+002, 5.820743e+002
8.040078e+002, 5.751274e+002
8.044899e+002, 5.684191e+002
8.049720e+002, 5.618530e+002
8.054542e+002, 5.547131e+002
8.059363e+002, 5.461826e+002
8.064184e+002, 5.372571e+002
8.069005e+002, 5.303440e+002
8.073826e+002, 5.253565e+002
8.078647e+002, 5.204014e+002
8.083469e+002, 5.151796e+002
8.088290e+002, 5.098871e+002
8.093111e+002, 5.046064e+002
8.097932e+002, 4.993755e+002
8.102753e+002, 4.943412e+002
8.107574e+002, 4.891778e+002
8.112396e+002, 4.848383e+002
8.117217e+002, 4.823123e+002
8.122038e+002, 4.794757e+002
8.126859e+002, 4.747892e+002
8.131680e+002, 4.695389e+002
8.136501e+002, 4.657176e+002
8.141323e+002, 4.636172e+002
8.146144e+002, 4.614178e+002
8.150965e+002, 4.576475e+002
8.155786e+002, 4.534612e+002
8.160607e+002, 4.501732e+002
8.165428e+002, 4.475819e+002
8.170250e+002, 4.451708e+002
8.175071e+002, 4.428031e+002
8.179892e+002, 4.405368e+002
8.184713e+002, 4.384554e+002
8.189534e+002, 4.364093e+002
8.194355e+002, 4.336802e+002
8.199177e+002, 4.298852e+002
8.203998e+002, 4.272350e+002
8.208819e+002, 4.266299e+002
8.213640e+002, 4.260790e+002
8.218461e+002, 4.241859e+002
8.223282e+002, 4.216030e+002
8.228104e+002, 4.196197e+002
8.232925e+002, 4.183991e+002
8.237746e+002, 4.172537e+002
8.242567e+002, 4.162881e+002
8.247388e+002, 4.151121e+002
8.252209e+002, 4.130975e+002
8.257031e+002, 4.109204e+002
8.261852e+002, 4.097342e+002
8.266673e+002, 4.096405e+002
8.271494e+002, 4.095065e+002
8.276315e+002, 4.084059e+002
8.281136e+002, 4.068240e+002
8.285958e+002, 4.055677e+002
8.290779e+002, 4.045613e+002
8.295600e+002, 4.034503e+002
8.300421e+002, 4.021658e+002
8.305242e+002, 4.006598e+002
8.310063e+002, 3.988111e+002
8.314885e+002, 3.968514e+002
8.319706e+002, 3.955234e+002
8.324527e+002, 3.949771e+002
8.329348e+002, 3.946633e+002
8.334169e+002, 3.949123e+002
8.338990e+002, 3.949606e+002
8.343812e+002, 3.940565e+002
8.348633e+002, 3.930398e+002
8.353454e+002, 3.933437e+002
8.358275e+002, 3.951487e+002
8.363096e+002, 3.957827e+002
8.367917e+002, 3.932186e+002
8.372739e+002, 3.904627e+002
8.377560e+002, 3.894520e+002
8.382381e+002, 3.893848e+002
8.387202e+002, 3.892216e+002
8.392023e+002, 3.887216e+002
8.396844e+002, 3.879054e+002
8.401666e+002, 3.867064e+002
8.406487e+002, 3.854915e+002
8.411308e+002, 3.851074e+002
8.416129e+002, 3.853822e+002
8.420950e+002, 3.849915e+002
8.425771e+002, 3.837318e+002
8.430593e+002, 3.826098e+002
8.435414e+002, 3.821307e+002
8.440235e+002, 3.821999e+002
8.445056e+002, 3.827419e+002
8.449877e+002, 3.839785e+002
8.454698e+002, 3.845622e+002
8.459520e+002, 3.842421e+002
8.464341e+002, 3.835796e+002
8.469162e+002, 3.824058e+002
8.473983e+002, 3.811801e+002
8.478804e+002, 3.802071e+002
8.483625e+002, 3.795359e+002
8.488447e+002, 3.792414e+002
8.493268e+002, 3.795529e+002
8.498089e+002, 3.799231e+002
8.502910e+002, 3.801464e+002
8.507731e+002, 3.801955e+002
8.512552e+002, 3.799708e+002
8.517374e+002, 3.795394e+002
8.522195e+002, 3.791552e+002
8.527016e+002, 3.789345e+002
8.531837e+002, 3.785799e+002
8.536658e+002, 3.774108e+002
8.541479e+002, 3.757363e+002
8.546301e+002, 3.752197e+002
8.551122e+002, 3.759109e+002
8.555943e+002, 3.762958e+002
8.560764e+002, 3.757961e+002
8.565585e+002, 3.750886e+002
8.570406e+002, 3.749225e+002
8.575228e+002, 3.752364e+002
8.580049e+002, 3.752735e+002
8.584870e+002, 3.748238e+002
8.589691e+002, 3.744586e+002
8.594512e+002, 3.744333e+002
8.599333e+002, 3.742964e+002
8.604155e+002, 3.735736e+002
8.608976e+002, 3.726429e+002
8.613797e+002, 3.722487e+002
8.618618e+002, 3.725977e+002
8.623439e+002, 3.730269e+002
8.628260e+002, 3.733967e+002
8.633082e+002, 3.736119e+002
8.637903e+002, 3.734455e+002
8.642724e+002, 3.731270e+002
8.647545e+002, 3.731780e+002
8.652366e+002, 3.736134e+002
8.657188e+002, 3.737728e+002
8.662009e+002, 3.730902e+002
8.666830e+002, 3.719073e+002
8.671651e+002, 3.706837e+002
8.676472e+002, 3.694981e+002
8.681293e+002, 3.689648e+002
8.686115e+002, 3.691960e+002
8.690936e+002, 3.695469e+002
8.695757e+002, 3.696035e+002
8.700578e+002, 3.696209e+002
8.705399e+002, 3.702286e+002
8.710220e+002, 3.717218e+002
8.715042e+002, 3.722560e+002
8.719863e+002, 3.710498e+002
8.724684e+002, 3.701401e+002
8.729505e+002, 3.705089e+002
8.734326e+002, 3.711729e+002
8.739147e+002, 3.713934e+002
8.743969e+002, 3.711637e+002
8.748790e+002, 3.705847e+002
8.753611e+002, 3.692679e+002
8.758432e+002, 3.681904e+002
8.763253e+002, 3.678891e+002
8.768074e+002, 3.678056e+002
8.772896e+002, 3.672348e+002
8.777717e+002, 3.665058e+002
8.782538e+002, 3.667234e+002
8.787359e+002, 3.682698e+002
8.792180e+002, 3.694665e+002
8.797001e+002, 3.681224e+002
8.801823e+002, 3.656992e+002
8.806644e+002, 3.649196e+002
8.811465e+002, 3.655469e+002
8.816286e+002, 3.665779e+002
8.821107e+002, 3.677131e+002
8.825928e+002, 3.683701e+002
8.830750e+002, 3.679164e+002
8.835571e+002, 3.668155e+002
8.840392e+002, 3.667755e+002
8.845213e+002, 3.680488e+002
8.850034e+002, 3.689092e+002
8.854855e+002, 3.691523e+002
8.859677e+002, 3.690946e+002
8.864498e+002, 3.687543e+002
8.869319e+002, 3.683175e+002
8.874140e+002, 3.681952e+002
8.878961e+002, 3.685181e+002
8.883782e+002, 3.682966e+002
8.888604e+002, 3.668757e+002
8.893425e+002, 3.657299e+002
8.898246e+002, 3.651455e+002
8.903067e+002, 3.650967e+002
8.907888e+002, 3.659421e+002
8.912709e+002, 3.672942e+002
8.917531e+002, 3.680000e+002
8.922352e+002, 3.675132e+002
8.927173e+002, 3.667862e+002
8.931994e+002, 3.661335e+002
8.936815e+002, 3.658365e+002
8.941636e+002, 3.667213e+002
8.946458e+002, 3.681933e+002
8.951279e+002, 3.684671e+002
8.956100e+002, 3.670903e+002
8.960921e+002, 3.656624e+002
8.965742e+002, 3.657445e+002
8.970563e+002, 3.668811e+002
8.975385e+002, 3.681779e+002
8.980206e+002, 3.695544e+002
8.985027e+002, 3.698321e+002
8.989848e+002, 3.687276e+002
8.994669e+002, 3.672808e+002
8.999490e+002, 3.660363e+002
9.004312e+002, 3.651310e+002
9.009133e+002, 3.649406e+002
9.013954e+002, 3.656935e+002
9.018775e+002, 3.660925e+002
9.023596e+002, 3.658786e+002
9.028417e+002, 3.657551e+002
9.033239e+002, 3.660215e+002
9.038060e+002, 3.664057e+002
9.042881e+002, 3.667747e+002
9.047702e+002, 3.670752e+002
9.052523e+002, 3.669628e+002
9.057344e+002, 3.655103e+002
9.062166e+002, 3.649604e+002
9.066987e+002, 3.668953e+002
9.071808e+002, 3.689213e+002
9.076629e+002, 3.691367e+002
9.081450e+002, 3.682290e+002
9.086271e+002, 3.676453e+002
9.091093e+002, 3.677675e+002
9.095914e+002, 3.680230e+002
9.100735e+002, 3.681050e+002
9.105556e+002, 3.680501e+002
9.110377e+002, 3.680024e+002
9.115198e+002, 3.678165e+002
9.120020e+002, 3.670303e+002
9.124841e+002, 3.656975e+002
9.129662e+002, 3.644832e+002
9.134483e+002, 3.637881e+002
9.139304e+002, 3.635679e+002
9.144125e+002, 3.638670e+002
9.148947e+002, 3.646165e+002
9.153768e+002, 3.653820e+002
9.158589e+002, 3.661700e+002
9.163410e+002, 3.662534e+002
9.168231e+002, 3.651659e+002
9.173052e+002, 3.641325e+002
9.177874e+002, 3.646673e+002
9.182695e+002, 3.665363e+002
9.187516e+002, 3.673747e+002
9.192337e+002, 3.665585e+002
9.197158e+002, 3.662417e+002
9.201979e+002, 3.671111e+002
9.206801e+002, 3.678914e+002
9.211622e+002, 3.676216e+002
9.216443e+002, 3.669228e+002
9.221264e+002, 3.668751e+002
9.226085e+002, 3.676520e+002
9.230906e+002, 3.680181e+002
9.235728e+002, 3.674179e+002
9.240549e+002, 3.668546e+002
9.245370e+002, 3.664361e+002
9.250191e+002, 3.664240e+002
9.255012e+002, 3.675229e+002
9.259833e+002, 3.692311e+002
9.264655e+002, 3.699377e+002
9.269476e+002, 3.687923e+002
9.274297e+002, 3.675991e+002
9.279118e+002, 3.677831e+002
9.283939e+002, 3.684323e+002
9.288760e+002, 3.684814e+002
9.293582e+002, 3.681624e+002
9.298403e+002, 3.682594e+002
9.303224e+002, 3.688922e+002
9.308045e+002, 3.692841e+002
9.312866e+002, 3.686845e+002
9.317687e+002, 3.677365e+002
9.322509e+002, 3.676906e+002
9.327330e+002, 3.683780e+002
9.332151e+002, 3.692089e+002
9.336972e+002, 3.700811e+002
9.341793e+002, 3.702791e+002
9.346614e+002, 3.693747e+002
9.351436e+002, 3.681744e+002
9.356257e+002, 3.679009e+002
9.361078e+002, 3.684953e+002
9.365899e+002, 3.687201e+002
9.370720e+002, 3.684464e+002
9.375541e+002, 3.683526e+002
9.380363e+002, 3.687214e+002
9.385184e+002, 3.689645e+002
9.390005e+002, 3.684364e+002
9.394826e+002, 3.675622e+002
9.399647e+002, 3.676192e+002
9.404468e+002, 3.691985e+002
9.409290e+002, 3.700797e+002
9.414111e+002, 3.692931e+002
9.418932e+002, 3.690630e+002
9.423753e+002, 3.707651e+002
9.428574e+002, 3.727279e+002
9.433395e+002, 3.733979e+002
9.438217e+002, 3.728766e+002
9.443038e+002, 3.720462e+002
9.447859e+002, 3.706111e+002
9.452680e+002, 3.698592e+002
9.457501e+002, 3.709055e+002
9.462322e+002, 3.721793e+002
9.467144e+002, 3.725738e+002
9.471965e+002, 3.723174e+002
9.476786e+002, 3.717794e+002
9.481607e+002, 3.711244e+002
9.486428e+002, 3.707485e+002
9.491249e+002, 3.709959e+002
9.496071e+002, 3.715155e+002
9.500892e+002, 3.722390e+002
9.505713e+002, 3.728504e+002
9.510534e+002, 3.724303e+002
9.515355e+002, 3.712993e+002
9.520176e+002, 3.710514e+002
9.524998e+002, 3.723867e+002
9.529819e+002, 3.742101e+002
9.534640e+002, 3.754765e+002
9.539461e+002, 3.761330e+002
9.544282e+002, 3.756480e+002
9.549103e+002, 3.742411e+002
9.553925e+002, 3.738481e+002
9.558746e+002, 3.748775e+002
9.563567e+002, 3.756477e+002
9.568388e+002, 3.748933e+002
9.573209e+002, 3.734730e+002
9.578030e+002, 3.733320e+002
9.582852e+002, 3.746043e+002
9.587673e+002, 3.756260e+002
9.592494e+002, 3.763896e+002
9.597315e+002, 3.769182e+002
9.602136e+002, 3.772151e+002
9.606957e+002, 3.772804e+002
9.611779e+002, 3.770334e+002
9.616600e+002, 3.765624e+002
9.621421e+002, 3.763511e+002
9.626242e+002, 3.766140e+002
9.631063e+002, 3.767115e+002
9.635884e+002, 3.763905e+002
9.640706e+002, 3.762204e+002
9.645527e+002, 3.764012e+002
9.650348e+002, 3.768409e+002
9.655169e+002, 3.775861e+002
9.659990e+002, 3.785863e+002
9.664811e+002, 3.792179e+002
9.669633e+002, 3.790868e+002
9.674454e+002, 3.790099e+002
9.679275e+002, 3.794119e+002
9.684096e+002, 3.796825e+002
9.688917e+002, 3.791192e+002
9.693738e+002, 3.782583e+002
9.698560e+002, 3.781254e+002
9.703381e+002, 3.788900e+002
9.708202e+002, 3.794898e+002
9.713023e+002, 3.789966e+002
9.717844e+002, 3.786578e+002
9.722665e+002, 3.796768e+002
9.727487e+002, 3.810516e+002
9.732308e+002, 3.814981e+002
9.737129e+002, 3.811871e+002
9.741950e+002, 3.810685e+002
9.746771e+002, 3.815076e+002
9.751592e+002, 3.818435e+002
9.756414e+002, 3.809570e+002
9.761235e+002, 3.800027e+002
9.766056e+002, 3.813275e+002
9.770877e+002, 3.837388e+002
9.775698e+002, 3.840007e+002
9.780519e+002, 3.819514e+002
9.785341e+002, 3.801721e+002
9.790162e+002, 3.801975e+002
9.794983e+002, 3.811639e+002
9.799804e+002, 3.820262e+002
9.804625e+002, 3.827535e+002
9.809446e+002, 3.832682e+002
9.814268e+002, 3.835527e+002
9.819089e+002, 3.832639e+002
9.823910e+002, 3.823040e+002
9.828731e+002, 3.818564e+002
9.833552e+002, 3.830302e+002
9.838373e+002, 3.848930e+002
9.843195e+002, 3.847780e+002
9.848016e+002, 3.825351e+002
9.852837e+002, 3.818679e+002
9.857658e+002, 3.831919e+002
9.862479e+002, 3.843640e+002
9.867300e+002, 3.846028e+002
9.872122e+002, 3.845710e+002
9.876943e+002, 3.849750e+002
9.881764e+002, 3.856771e+002
9.886585e+002, 3.858981e+002
9.891406e+002, 3.854243e+002
9.896227e+002, 3.850700e+002
9.901049e+002, 3.847708e+002
9.905870e+002, 3.847866e+002
9.910691e+002, 3.854978e+002
9.915512e+002, 3.863107e+002
9.920333e+002, 3.863962e+002
9.925154e+002, 3.857886e+002
9.929976e+002, 3.856296e+002
9.934797e+002, 3.865507e+002
9.939618e+002, 3.869583e+002
9.944439e+002, 3.862404e+002
9.949260e+002, 3.855902e+002
9.954081e+002, 3.855764e+002
9.958903e+002, 3.859652e+002
9.963724e+002, 3.864613e+002
9.968545e+002, 3.870401e+002
9.973366e+002, 3.876831e+002
9.978187e+002, 3.887627e+002
9.983008e+002, 3.893858e+002
9.987830e+002, 3.888960e+002
9.992651e+002, 3.882564e+002
9.997472e+002, 3.881212e+002
1.000229e+003, 3.883503e+002
1.000711e+003, 3.886757e+002
1.001194e+003, 3.890350e+002
1.001676e+003, 3.892451e+002
1.002158e+003, 3.887610e+002
1.002640e+003, 3.886657e+002
1.003122e+003, 3.901960e+002
1.003604e+003, 3.919492e+002
1.004086e+003, 3.922902e+002
1.004568e+003, 3.916328e+002
1.005050e+003, 3.912726e+002
1.005533e+003, 3.916185e+002
1.006015e+003, 3.922059e+002
1.006497e+003, 3.927067e+002
1.006979e+003, 3.933062e+002
1.007461e+003, 3.944701e+002
1.007943e+003, 3.956994e+002
1.008425e+003, 3.959110e+002
1.008907e+003, 3.954021e+002
1.009390e+003, 3.955753e+002
1.009872e+003, 3.970255e+002
1.010354e+003, 3.987968e+002
1.010836e+003, 4.001849e+002
1.011318e+003, 4.011501e+002
1.011800e+003, 4.013760e+002
1.012282e+003, 4.011785e+002
1.012764e+003, 4.012604e+002
1.013246e+003, 4.017580e+002
1.013729e+003, 4.027301e+002
1.014211e+003, 4.042281e+002
1.014693e+003, 4.056913e+002
1.015175e+003, 4.061534e+002
1.015657e+003, 4.060665e+002
1.016139e+003, 4.067589e+002
1.016621e+003, 4.081357e+002
1.017103e+003, 4.098870e+002
1.017586e+003, 4.118892e+002
1.018068e+003, 4.135251e+002
1.018550e+003, 4.144183e+002
1.019032e+003, 4.146403e+002
1.019514e+003, 4.139849e+002
1.019996e+003, 4.126764e+002
1.020478e+003, 4.124742e+002
1.020960e+003, 4.133465e+002
1.021442e+003, 4.142282e+002
1.021925e+003, 4.149117e+002
1.022407e+003, 4.149301e+002
1.022889e+003, 4.138916e+002
1.023371e+003, 4.122289e+002
1.023853e+003, 4.106829e+002
1.024335e+003, 4.092515e+002
1.024817e+003, 4.085827e+002
1.025299e+003, 4.088214e+002
1.025781e+003, 4.087069e+002
1.026264e+003, 4.079308e+002
1.026746e+003, 4.066661e+002
1.027228e+003, 4.048845e+002
1.027710e+003, 4.029922e+002
1.028192e+003, 4.020093e+002
1.028674e+003, 4.020631e+002
1.029156e+003, 4.020685e+002
1.029638e+003, 4.020226e+002
1.030120e+003, 4.019523e+002
1.030603e+003, 4.019209e+002
1.031085e+003, 4.017001e+002
1.031567e+003, 4.009050e+002
1.032049e+003, 3.999781e+002
1.032531e+003, 4.002362e+002
1.033013e+003, 4.022027e+002
1.033495e+003, 4.029218e+002
1.033977e+003, 4.016503e+002
1.034460e+003, 4.007437e+002
1.034942e+003, 4.011009e+002
1.035424e+003, 4.015376e+002
1.035906e+003, 4.010603e+002
1.036388e+003, 3.999794e+002
1.036870e+003, 3.990934e+002
1.037352e+003, 3.981530e+002
1.037834e+003, 3.983228e+002
1.038317e+003, 4.008169e+002
1.038799e+003, 4.025486e+002
1.039281e+003, 4.022520e+002
1.039763e+003, 4.015259e+002
1.040245e+003, 4.016772e+002
1.040727e+003, 4.023276e+002
1.041209e+003, 4.023642e+002
1.041691e+003, 4.015376e+002
1.042173e+003, 4.008891e+002
1.042656e+003, 4.003517e+002
1.043138e+003, 4.000961e+002
1.043620e+003, 4.001852e+002
1.044102e+003, 4.005470e+002
1.044584e+003, 4.013581e+002
1.045066e+003, 4.023611e+002
1.045548e+003, 4.028647e+002
1.046030e+003, 4.026670e+002
1.046512e+003, 4.025983e+002
1.046995e+003, 4.028295e+002
1.047477e+003, 4.030916e+002
1.047959e+003, 4.033568e+002
1.048441e+003, 4.035778e+002
1.048923e+003, 4.037867e+002
1.049405e+003, 4.039098e+002
1.049887e+003, 4.036068e+002
1.050369e+003, 4.025793e+002
1.050852e+003, 4.025266e+002
1.051334e+003, 4.049837e+002
1.051816e+003, 4.068766e+002
1.052298e+003, 4.068915e+002
1.052780e+003, 4.061665e+002
1.053262e+003, 4.053209e+002
1.053744e+003, 4.045667e+002
1.054226e+003, 4.042505e+002
1.054708e+003, 4.044903e+002
1.055191e+003, 4.046141e+002
1.055673e+003, 4.042663e+002
1.056155e+003, 4.039982e+002
1.056637e+003, 4.039224e+002
1.057119e+003, 4.041031e+002
1.057601e+003, 4.047552e+002
1.058083e+003, 4.056476e+002
1.058565e+003, 4.064184e+002
1.059047e+003, 4.070172e+002
1.059530e+003, 4.070777e+002
1.060012e+003, 4.055363e+002
1.060494e+003, 4.046515e+002
1.060976e+003, 4.060367e+002
1.061458e+003, 4.078676e+002
1.061940e+003, 4.087751e+002
1.062422e+003, 4.089269e+002
1.062904e+003, 4.087985e+002
1.063387e+003, 4.084901e+002
1.063869e+003, 4.083640e+002
1.064351e+003, 4.087570e+002
1.064833e+003, 4.091005e+002
1.065315e+003, 4.090592e+002
1.065797e+003, 4.089423e+002
1.066279e+003, 4.089413e+002
1.066761e+003, 4.090858e+002
1.067244e+003, 4.094874e+002
1.067726e+003, 4.101282e+002
1.068208e+003, 4.105083e+002
1.068690e+003, 4.102428e+002
1.069172e+003, 4.099189e+002
1.069654e+003, 4.096933e+002
1.070136e+003, 4.096191e+002
1.070618e+003, 4.096638e+002
1.071100e+003, 4.099260e+002
1.071583e+003, 4.108075e+002
1.072065e+003, 4.122136e+002
1.072547e+003, 4.129803e+002
1.073029e+003, 4.123989e+002
1.073511e+003, 4.115043e+002
1.073993e+003, 4.102647e+002
1.074475e+003, 4.094193e+002
1.074957e+003, 4.096865e+002
1.075439e+003, 4.106421e+002
1.075922e+003, 4.119534e+002
1.076404e+003, 4.133541e+002
1.076886e+003, 4.139092e+002
1.077368e+003, 4.127614e+002
1.077850e+003, 4.118873e+002
1.078332e+003, 4.126539e+002
1.078814e+003, 4.135587e+002
1.079297e+003, 4.133850e+002
1.079779e+003, 4.127581e+002
1.080261e+003, 4.126232e+002
1.080743e+003, 4.129486e+002
1.081225e+003, 4.129610e+002
1.081707e+003, 4.121606e+002
1.082189e+003, 4.118429e+002
1.082671e+003, 4.130652e+002
1.083153e+003, 4.144394e+002
1.083635e+003, 4.151928e+002
1.084118e+003, 4.155051e+002
1.084600e+003, 4.155919e+002
1.085082e+003, 4.154860e+002
1.085564e+003, 4.150996e+002
1.086046e+003, 4.143167e+002
1.086528e+003, 4.137731e+002
1.087010e+003, 4.140009e+002
1.087492e+003, 4.142290e+002
1.087975e+003, 4.139518e+002
1.088457e+003, 4.135264e+002
1.088939e+003, 4.131131e+002
1.089421e+003, 4.129176e+002
1.089903e+003, 4.134517e+002
1.090385e+003, 4.149090e+002
1.090867e+003, 4.160423e+002
1.091349e+003, 4.161999e+002
1.091832e+003, 4.161534e+002
1.092314e+003, 4.161690e+002
1.092796e+003, 4.162069e+002
1.093278e+003, 4.162862e+002
1.093760e+003, 4.163330e+002
1.094242e+003, 4.160901e+002
1.094724e+003, 4.155312e+002
1.095206e+003, 4.154494e+002
1.095688e+003, 4.166345e+002
1.096171e+003, 4.175942e+002
1.096653e+003, 4.176120e+002
1.097135e+003, 4.174318e+002
1.097617e+003, 4.175565e+002
1.098099e+003, 4.178254e+002
1.098581e+003, 4.179730e+002
1.099063e+003, 4.179700e+002
1.099545e+003, 4.178643e+002
1.100027e+003, 4.169165e+002
1.100510e+003, 4.171388e+002
1.100992e+003, 4.209443e+002
1.101474e+003, 4.238715e+002
1.101956e+003, 4.218582e+002
1.102438e+003, 4.188174e+002
1.102920e+003, 4.201758e+002
1.103402e+003, 4.250389e+002
1.103884e+003, 4.272324e+002
1.104367e+003, 4.245562e+002
1.104849e+003, 4.222783e+002
1.105331e+003, 4.215147e+002
1.105813e+003, 4.210395e+002
1.106295e+003, 4.201629e+002
1.106777e+003, 4.195586e+002
1.107259e+003, 4.202653e+002
1.107741e+003, 4.217057e+002
1.108224e+003, 4.219603e+002
1.108706e+003, 4.201982e+002
1.109188e+003, 4.200101e+002
1.109670e+003, 4.241016e+002
1.110152e+003, 4.264666e+002
1.110634e+003, 4.242118e+002
1.111116e+003, 4.213461e+002
1.111598e+003, 4.203506e+002
1.112080e+003, 4.206334e+002
1.112563e+003, 4.211202e+002
1.113045e+003, 4.218222e+002
1.113527e+003, 4.224946e+002
1.114009e+003, 4.231992e+002
1.114491e+003, 4.237928e+002
1.114973e+003, 4.246193e+002
1.115455e+003, 4.248275e+002
1.115937e+003, 4.232486e+002
1.116419e+003, 4.215108e+002
1.116902e+003, 4.220624e+002
1.117384e+003, 4.246239e+002
1.117866e+003, 4.257705e+002
1.118348e+003, 4.247040e+002
1.118830e+003, 4.239996e+002
1.119312e+003, 4.232271e+002
1.119794e+003, 4.240240e+002
1.120276e+003, 4.282558e+002
1.120759e+003, 4.321664e+002
1.121241e+003, 4.318362e+002
1.121723e+003, 4.285570e+002
1.122205e+003, 4.269462e+002
1.122687e+003, 4.273443e+002
1.123169e+003, 4.279465e+002
1.123651e+003, 4.291107e+002
1.124133e+003, 4.290910e+002
1.124615e+003, 4.269309e+002
1.125098e+003, 4.250865e+002
1.125580e+003, 4.253393e+002
1.126062e+003, 4.268352e+002
1.126544e+003, 4.280365e+002
1.127026e+003, 4.289343e+002
1.127508e+003, 4.290935e+002
1.127990e+003, 4.283800e+002
1.128472e+003, 4.281411e+002
1.128954e+003, 4.286420e+002
1.129437e+003, 4.291508e+002
1.129919e+003, 4.292873e+002
1.130401e+003, 4.294144e+002
1.130883e+003, 4.300516e+002
1.131365e+003, 4.309796e+002
1.131847e+003, 4.313322e+002
1.132329e+003, 4.311242e+002
1.132811e+003, 4.304955e+002
1.133294e+003, 4.294777e+002
1.133776e+003, 4.287645e+002
1.134258e+003, 4.285844e+002
1.134740e+003, 4.293654e+002
1.135222e+003, 4.316820e+002
1.135704e+003, 4.342602e+002
1.136186e+003, 4.340518e+002
1.136668e+003, 4.319799e+002
1.137151e+003, 4.320643e+002
1.137633e+003, 4.338605e+002
1.138115e+003, 4.345025e+002
1.138597e+003, 4.335638e+002
1.139079e+003, 4.328474e+002
1.139561e+003, 4.333614e+002
1.140043e+003, 4.341297e+002
1.140525e+003, 4.338170e+002
1.141007e+003, 4.330779e+002
1.141490e+003, 4.333229e+002
1.141972e+003, 4.340642e+002
1.142454e+003, 4.341113e+002
1.142936e+003, 4.335524e+002
1.143418e+003, 4.333080e+002
1.143900e+003, 4.336427e+002
1.144382e+003, 4.337599e+002
1.144864e+003, 4.326231e+002
1.145346e+003, 4.318724e+002
1.145829e+003, 4.339704e+002
1.146311e+003, 4.369254e+002
1.146793e+003, 4.384409e+002
1.147275e+003, 4.387054e+002
1.147757e+003, 4.380928e+002
1.148239e+003, 4.369918e+002
1.148721e+003, 4.364135e+002
1.149203e+003, 4.368360e+002
1.149686e+003, 4.377353e+002
1.150168e+003, 4.394506e+002
1.150650e+003, 4.407682e+002
1.151132e+003, 4.408277e+002
1.151614e+003, 4.399805e+002
1.152096e+003, 4.378926e+002
1.152578e+003, 4.354634e+002
1.153060e+003, 4.348553e+002
1.153542e+003, 4.366137e+002
1.154025e+003, 4.379921e+002
1.154507e+003, 4.374771e+002
1.154989e+003, 4.372163e+002
1.155471e+003, 4.379261e+002
1.155953e+003, 4.391549e+002
1.156435e+003, 4.414144e+002
1.156917e+003, 4.435167e+002
1.157399e+003, 4.433727e+002
1.157881e+003, 4.412355e+002
1.158364e+003, 4.404625e+002
1.158846e+003, 4.426162e+002
1.159328e+003, 4.437731e+002
1.159810e+003, 4.429926e+002
1.160292e+003, 4.421178e+002
1.160774e+003, 4.414234e+002
1.161256e+003, 4.411062e+002
1.161738e+003, 4.414793e+002
1.162221e+003, 4.422691e+002
1.162703e+003, 4.427696e+002
1.163185e+003, 4.428866e+002
1.163667e+003, 4.436026e+002
1.164149e+003, 4.454514e+002
1.164631e+003, 4.462219e+002
1.165113e+003, 4.451553e+002
1.165595e+003, 4.442455e+002
1.166078e+003, 4.445196e+002
1.166560e+003, 4.453474e+002
1.167042e+003, 4.459785e+002
1.167524e+003, 4.464572e+002
1.168006e+003, 4.469732e+002
1.168488e+003, 4.475289e+002
1.168970e+003, 4.482384e+002
1.169452e+003, 4.491270e+002
1.169934e+003, 4.493878e+002
1.170417e+003, 4.487647e+002
1.170899e+003, 4.484270e+002
1.171381e+003, 4.492818e+002
1.171863e+003, 4.505666e+002
1.172345e+003, 4.509398e+002
1.172827e+003, 4.506873e+002
1.173309e+003, 4.508960e+002
1.173791e+003, 4.513883e+002
1.174273e+003, 4.513609e+002
1.174756e+003, 4.508402e+002
1.175238e+003, 4.507112e+002
1.175720e+003, 4.512666e+002
1.176202e+003, 4.514042e+002
1.176684e+003, 4.497505e+002
1.177166e+003, 4.480435e+002
1.177648e+003, 4.488252e+002
1.178130e+003, 4.506864e+002
1.178613e+003, 4.517433e+002
1.179095e+003, 4.521312e+002
1.179577e+003, 4.522512e+002
1.180059e+003, 4.523338e+002
1.180541e+003, 4.529049e+002
1.181023e+003, 4.543134e+002
1.181505e+003, 4.554402e+002
1.181987e+003, 4.553578e+002
1.182469e+003, 4.550670e+002
1.182952e+003, 4.549409e+002
1.183434e+003, 4.551893e+002
1.183916e+003, 4.565154e+002
1.184398e+003, 4.581529e+002
1.184880e+003, 4.584108e+002
1.185362e+003, 4.571052e+002
1.185844e+003, 4.562944e+002
1.186326e+003, 4.568019e+002
1.186808e+003, 4.572973e+002
1.187291e+003, 4.574879e+002
1.187773e+003, 4.577022e+002
1.188255e+003, 4.579130e+002
1.188737e+003, 4.583691e+002
1.189219e+003, 4.597155e+002
1.189701e+003, 4.614056e+002
1.190183e+003, 4.616405e+002
1.190665e+003, 4.599986e+002
1.191148e+003, 4.590995e+002
1.191630e+003, 4.590752e+002
1.192112e+003, 4.594392e+002
1.192594e+003, 4.601624e+002
1.193076e+003, 4.611384e+002
1.193558e+003, 4.623567e+002
1.194040e+003, 4.636761e+002
1.194522e+003, 4.649214e+002
1.195005e+003, 4.660977e+002
1.195487e+003, 4.674131e+002
1.195969e+003, 4.688192e+002
1.196451e+003, 4.686849e+002
1.196933e+003, 4.670481e+002
1.197415e+003, 4.666618e+002
1.197897e+003, 4.681949e+002
1.198379e+003, 4.701747e+002
1.198861e+003, 4.716974e+002
1.199344e+003, 4.729460e+002
1.199826e+003, 4.742075e+002
1.200308e+003, 4.753636e+002
1.200790e+003, 4.759261e+002
1.201272e+003, 4.763066e+002
1.201754e+003, 4.775063e+002
1.202236e+003, 4.793924e+002
1.202718e+003, 4.813482e+002
1.203200e+003, 4.831385e+002
1.203683e+003, 4.845100e+002
1.204165e+003, 4.851549e+002
1.204647e+003, 4.857831e+002
1.205129e+003, 4.872324e+002
1.205611e+003, 4.885728e+002
1.206093e+003, 4.886893e+002
1.206575e+003, 4.884567e+002
1.207057e+003, 4.890185e+002
1.207540e+003, 4.902002e+002
1.208022e+003, 4.913091e+002
1.208504e+003, 4.922350e+002
1.208986e+003, 4.926433e+002
1.209468e+003, 4.922172e+002
1.209950e+003, 4.916210e+002
1.210432e+003, 4.909043e+002
1.210914e+003, 4.901589e+002
1.211396e+003, 4.893443e+002
1.211879e+003, 4.885921e+002
1.212361e+003, 4.880802e+002
1.212843e+003, 4.877379e+002
1.213325e+003, 4.872857e+002
1.213807e+003, 4.866981e+002
1.214289e+003, 4.860847e+002
1.214771e+003, 4.853189e+002
1.215253e+003, 4.852013e+002
1.215735e+003, 4.861342e+002
1.216218e+003, 4.863682e+002
1.216700e+003, 4.847591e+002
1.217182e+003, 4.830998e+002
1.217664e+003, 4.838359e+002
1.218146e+003, 4.859491e+002
1.218628e+003, 4.860580e+002
1.219110e+003, 4.845977e+002
1.219592e+003, 4.837269e+002
1.220075e+003, 4.835063e+002
1.220557e+003, 4.835728e+002
1.221039e+003, 4.837716e+002
1.221521e+003, 4.837257e+002
1.222003e+003, 4.832053e+002
1.222485e+003, 4.828669e+002
1.222967e+003, 4.836086e+002
1.223449e+003, 4.846491e+002
1.223932e+003, 4.852227e+002
1.224414e+003, 4.854443e+002
1.224896e+003, 4.853294e+002
1.225378e+003, 4.850488e+002
1.225860e+003, 4.849147e+002
1.226342e+003, 4.849446e+002
1.226824e+003, 4.848095e+002
1.227306e+003, 4.841255e+002
1.227788e+003, 4.840460e+002
1.228271e+003, 4.860390e+002
1.228753e+003, 4.873019e+002
1.229235e+003, 4.858065e+002
1.229717e+003, 4.839192e+002
1.230199e+003, 4.833034e+002
1.230681e+003, 4.837105e+002
1.231163e+003, 4.847234e+002
1.231645e+003, 4.863199e+002
1.232127e+003, 4.876328e+002
1.232610e+003, 4.888828e+002
1.233092e+003, 4.889965e+002
1.233574e+003, 4.874053e+002
1.234056e+003, 4.866219e+002
1.234538e+003, 4.875790e+002
1.235020e+003, 4.887138e+002
1.235502e+003, 4.888859e+002
1.235984e+003, 4.885003e+002
1.236467e+003, 4.881366e+002
1.236949e+003, 4.878698e+002
1.237431e+003, 4.883511e+002
1.237913e+003, 4.892289e+002
1.238395e+003, 4.885507e+002
1.238877e+003, 4.865679e+002
1.239359e+003, 4.854394e+002
1.239841e+003, 4.857209e+002
1.240323e+003, 4.861580e+002
1.240806e+003, 4.859110e+002
1.241288e+003, 4.857403e+002
1.241770e+003, 4.865170e+002
1.242252e+003, 4.875660e+002
1.242734e+003, 4.884081e+002
1.243216e+003, 4.889845e+002
1.243698e+003, 4.892554e+002
1.244180e+003, 4.892270e+002
1.244662e+003, 4.887733e+002
1.245145e+003, 4.879359e+002
1.245627e+003, 4.874687e+002
1.246109e+003, 4.881171e+002
1.246591e+003, 4.881435e+002
1.247073e+003, 4.865519e+002
1.247555e+003, 4.852593e+002
1.248037e+003, 4.850700e+002
1.248519e+003, 4.851972e+002
1.249002e+003, 4.850257e+002
1.249484e+003, 4.848885e+002
1.249966e+003, 4.854805e+002
1.250448e+003, 4.867350e+002
1.250930e+003, 4.875397e+002
1.251412e+003, 4.878999e+002
1.251894e+003, 4.876642e+002
1.252376e+003, 4.868011e+002
1.252859e+003, 4.856672e+002
1.253341e+003, 4.843806e+002
1.253823e+003, 4.839442e+002
1.254305e+003, 4.851378e+002
1.254787e+003, 4.865702e+002
1.255269e+003, 4.860586e+002
1.255751e+003, 4.846707e+002
1.256233e+003, 4.842446e+002
1.256715e+003, 4.845014e+002
1.257198e+003, 4.851461e+002
1.257680e+003, 4.859341e+002
1.258162e+003, 4.864424e+002
1.258644e+003, 4.866133e+002
1.259126e+003, 4.867563e+002
1.259608e+003, 4.871196e+002
1.260090e+003, 4.870067e+002
1.260572e+003, 4.858145e+002
1.261054e+003, 4.844439e+002
1.261537e+003, 4.825685e+002
1.262019e+003, 4.814587e+002
1.262501e+003, 4.827137e+002
1.262983e+003, 4.849809e+002
1.263465e+003, 4.861366e+002
1.263947e+003, 4.862813e+002
1.264429e+003, 4.863695e+002
1.264911e+003, 4.865244e+002
1.265394e+003, 4.860693e+002
1.265876e+003, 4.847126e+002
1.266358e+003, 4.841889e+002
1.266840e+003, 4.850456e+002
1.267322e+003, 4.855215e+002
1.267804e+003, 4.845922e+002
1.268286e+003, 4.833169e+002
1.268768e+003, 4.829592e+002
1.269250e+003, 4.832079e+002
1.269733e+003, 4.835804e+002
1.270215e+003, 4.839038e+002
1.270697e+003, 4.835653e+002
1.271179e+003, 4.828508e+002
1.271661e+003, 4.824499e+002
1.272143e+003, 4.825235e+002
1.272625e+003, 4.831893e+002
1.273107e+003, 4.844890e+002
1.273589e+003, 4.855814e+002
1.274072e+003, 4.858691e+002
1.274554e+003, 4.859531e+002
1.275036e+003, 4.862969e+002
1.275518e+003, 4.863460e+002
1.276000e+003, 4.850775e+002
1.276482e+003, 4.838235e+002
1.276964e+003, 4.845130e+002
1.277446e+003, 4.864820e+002
1.277929e+003, 4.872496e+002
1.278411e+003, 4.867005e+002
1.278893e+003, 4.860947e+002
1.279375e+003, 4.853159e+002
1.279857e+003, 4.849361e+002
1.280339e+003, 4.850057e+002
1.280821e+003, 4.856831e+002
1.281303e+003, 4.871397e+002
1.281786e+003, 4.886037e+002
1.282268e+003, 4.894521e+002
##END=



