##NAMES=Rosasite
##RRUFFID=R050294
##IDEAL CHEMISTRY=Cu^2+^Zn^2+^CO_3_(OH)_2_
##LOCALITY=79 mine, 4th level, Hayden, Gila County, Arizona, USA
##OWNER=RRUFF
##SOURCE=George Godas, John Callahan
##DESCRIPTION=Green botryoidal crust associated with intergrown smithsonite
##STATUS=The identification of this mineral has been confirmed by X-ray diffraction and chemical analysis
##URL=rruff.info/R050294
##MEASURED CHEMISTRY=(Cu_1.24_Zn_0.76_)_Î£=2_(CO_3_)(OH)_2_
113.7366, 48.07948
114.2187, 48.40883
114.7008, 48.70698
115.1829, 48.91316
115.6650, 48.20648
116.1471, 49.20523
116.6293, 49.82812
117.1114, 50.09528
117.5935, 48.94139
118.0756, 49.62250
118.5577, 49.56822
119.0398, 49.48379
119.5220, 50.42319
120.0041, 49.47599
120.4862, 50.39913
120.9683, 50.57566
121.4504, 51.09389
121.9325, 50.87220
122.4147, 50.87909
122.8968, 51.62609
123.3789, 51.96327
123.8610, 51.40053
124.3431, 51.74058
124.8252, 51.95948
125.3074, 51.97627
125.7895, 51.86337
126.2716, 51.75651
126.7537, 51.62333
127.2358, 51.56397
127.7179, 51.64941
128.2001, 51.80388
128.6822, 51.93181
129.1643, 51.97474
129.6464, 51.93709
130.1285, 51.87179
130.6106, 51.63064
131.0928, 51.50583
131.5749, 51.60352
132.0570, 51.88245
132.5391, 52.24849
133.0212, 52.62916
133.5033, 53.03956
133.9855, 53.35393
134.4676, 53.44777
134.9497, 53.56509
135.4318, 53.89761
135.9139, 54.44020
136.3960, 54.98191
136.8782, 55.24421
137.3603, 55.13963
137.8424, 55.25121
138.3245, 55.84082
138.8066, 56.57473
139.2887, 57.07026
139.7709, 57.23808
140.2530, 57.18250
140.7351, 56.89934
141.2172, 56.40886
141.6993, 56.10158
142.1814, 56.29740
142.6636, 56.85034
143.1457, 57.21052
143.6278, 57.16690
144.1099, 56.98980
144.5920, 56.93422
145.0741, 57.00171
145.5563, 57.05408
146.0384, 56.92878
146.5205, 56.59290
147.0026, 56.36453
147.4847, 56.46563
147.9668, 56.58388
148.4490, 56.50718
148.9311, 56.20356
149.4132, 55.84966
149.8953, 55.75619
150.3774, 56.19080
150.8595, 56.32166
151.3417, 55.99643
151.8238, 55.45616
152.3059, 54.82819
152.7880, 54.17551
153.2701, 53.55567
153.7522, 53.12600
154.2344, 53.11768
154.7165, 53.05780
155.1986, 52.90868
155.6807, 52.70472
156.1628, 52.48190
156.6449, 52.25572
157.1271, 52.03411
157.6092, 51.85387
158.0913, 51.68190
158.5734, 51.57440
159.0555, 51.53980
159.5376, 51.58134
160.0198, 51.72246
160.5019, 52.00935
160.9840, 52.38982
161.4661, 52.66236
161.9482, 52.74761
162.4303, 52.81398
162.9125, 52.93415
163.3946, 53.10975
163.8767, 53.40245
164.3588, 53.88036
164.8409, 54.50006
165.3230, 55.20354
165.8052, 56.06050
166.2873, 56.92335
166.7694, 57.47263
167.2515, 57.53200
167.7336, 57.90313
168.2157, 59.12258
168.6979, 60.81936
169.1800, 62.63514
169.6621, 64.47356
170.1442, 66.29539
170.6263, 67.99564
171.1084, 69.52617
171.5906, 70.99413
172.0727, 72.32731
172.5548, 73.65260
173.0369, 75.17315
173.5190, 77.05432
174.0011, 79.23382
174.4833, 81.18263
174.9654, 82.78421
175.4475, 84.24668
175.9296, 85.51137
176.4117, 86.66595
176.8938, 87.86770
177.3760, 89.24165
177.8581, 90.79453
178.3402, 92.25632
178.8223, 93.35976
179.3044, 94.63483
179.7865, 96.36339
180.2687, 98.45087
180.7508, 100.5809
181.2329, 102.4646
181.7150, 104.0771
182.1971, 105.8516
182.6792, 107.9778
183.1614, 110.0820
183.6435, 111.9635
184.1256, 113.6067
184.6077, 115.0919
185.0898, 116.4331
185.5719, 117.6238
186.0540, 119.0088
186.5362, 120.8452
187.0183, 122.7324
187.5004, 124.2523
187.9825, 125.3514
188.4646, 126.3465
188.9467, 127.6641
189.4289, 129.1645
189.9110, 130.2390
190.3931, 130.8438
190.8752, 130.9121
191.3573, 130.2946
191.8394, 128.8981
192.3216, 127.0163
192.8037, 124.9852
193.2858, 122.7117
193.7679, 119.8358
194.2500, 115.9995
194.7321, 111.4245
195.2143, 106.7618
195.6964, 102.1032
196.1785, 97.22435
196.6606, 91.81376
197.1427, 86.10130
197.6248, 80.64607
198.1070, 75.83895
198.5891, 71.63074
199.0712, 67.52373
199.5533, 63.45361
200.0354, 59.57936
200.5175, 55.90771
200.9997, 52.48335
201.4818, 49.40821
201.9639, 46.81771
202.4460, 44.71981
202.9281, 42.70918
203.4102, 40.82693
203.8924, 39.01693
204.3745, 37.20770
204.8566, 35.44740
205.3387, 33.89912
205.8208, 32.72996
206.3029, 31.98742
206.7851, 31.14163
207.2672, 30.06451
207.7493, 29.01386
208.2314, 28.09933
208.7135, 27.31295
209.1956, 26.58697
209.6778, 25.85767
210.1599, 25.11635
210.6420, 24.46857
211.1241, 23.90937
211.6062, 23.42753
212.0883, 23.04763
212.5705, 22.75362
213.0526, 22.47884
213.5347, 22.16335
214.0168, 21.80102
214.4989, 21.45003
214.9810, 21.08597
215.4632, 20.74930
215.9453, 20.45697
216.4274, 20.21254
216.9095, 20.03448
217.3916, 19.96675
217.8737, 20.00776
218.3559, 19.95300
218.8380, 19.75196
219.3201, 19.48404
219.8022, 19.16924
220.2843, 18.80954
220.7664, 18.53684
221.2486, 18.52806
221.7307, 18.71227
222.2128, 18.78049
222.6949, 18.58058
223.1770, 18.30056
223.6591, 18.17200
224.1413, 18.22231
224.6234, 18.27447
225.1055, 18.18780
225.5876, 18.01294
226.0697, 17.83026
226.5518, 17.59771
227.0340, 17.40143
227.5161, 17.41035
227.9982, 17.68904
228.4803, 17.94817
228.9624, 18.02705
229.4445, 17.98265
229.9267, 17.86578
230.4088, 17.66734
230.8909, 17.42885
231.3730, 17.21623
231.8551, 17.00692
232.3372, 16.88778
232.8194, 16.96346
233.3015, 17.11819
233.7836, 17.21767
234.2657, 17.19974
234.7478, 17.10654
235.2299, 17.03405
235.7121, 17.00059
236.1942, 16.94953
236.6763, 16.86025
237.1584, 16.74976
237.6405, 16.63178
238.1227, 16.50998
238.6048, 16.39002
239.0869, 16.28853
239.5690, 16.21951
240.0511, 16.14414
240.5332, 16.03261
241.0154, 15.92154
241.4975, 15.84747
241.9796, 15.82584
242.4617, 15.84734
242.9438, 15.88477
243.4259, 15.89887
243.9081, 16.00207
244.3902, 16.31609
244.8723, 16.66237
245.3544, 16.85178
245.8365, 16.81447
246.3186, 16.65244
246.8007, 16.60262
247.2829, 16.79522
247.7650, 16.91477
248.2471, 16.91999
248.7292, 16.86580
249.2113, 16.77818
249.6934, 16.67170
250.1756, 16.58483
250.6577, 16.59427
251.1398, 16.76320
251.6219, 16.94871
252.1040, 17.25612
252.5861, 17.52300
253.0683, 17.55126
253.5504, 17.29772
254.0325, 16.94656
254.5146, 16.79594
254.9967, 16.93314
255.4788, 17.14976
255.9610, 17.55008
256.4431, 17.96818
256.9252, 18.25151
257.4073, 18.36736
257.8894, 18.40055
258.3716, 18.45972
258.8537, 18.54915
259.3358, 18.66460
259.8179, 18.79328
260.3000, 18.95578
260.7821, 19.20140
261.2643, 19.53194
261.7464, 19.84635
262.2285, 20.01889
262.7106, 20.00269
263.1927, 20.08275
263.6748, 20.28252
264.1570, 20.56758
264.6391, 20.93698
265.1212, 21.38363
265.6033, 21.83981
266.0854, 22.24434
266.5675, 22.59073
267.0497, 22.90599
267.5318, 23.12402
268.0139, 23.35556
268.4960, 23.68024
268.9781, 24.10287
269.4602, 24.61294
269.9424, 25.25004
270.4245, 25.98017
270.9066, 26.57861
271.3887, 26.91963
271.8708, 27.22050
272.3529, 27.63177
272.8351, 28.15279
273.3172, 28.73132
273.7993, 29.34338
274.2814, 29.99764
274.7635, 30.69983
275.2456, 31.44769
275.7278, 32.24212
276.2099, 33.09304
276.6920, 33.99663
277.1741, 34.91975
277.6562, 35.82790
278.1383, 36.76108
278.6204, 37.76345
279.1025, 38.84391
279.5847, 39.99461
280.0668, 41.21100
280.5489, 42.49773
281.0310, 43.85700
281.5131, 45.30696
281.9952, 46.81902
282.4774, 48.38311
282.9595, 50.03502
283.4416, 51.53361
283.9237, 52.52942
284.4058, 53.18837
284.8879, 54.28028
285.3701, 56.20414
285.8522, 58.32308
286.3343, 59.94166
286.8164, 61.08537
287.2985, 62.19251
287.7806, 63.44574
288.2628, 64.84176
288.7449, 66.36070
289.2270, 68.02077
289.7091, 69.78278
290.1912, 71.70325
290.6733, 73.72061
291.1555, 75.65437
291.6376, 77.42293
292.1197, 79.03532
292.6018, 80.49944
293.0839, 81.72846
293.5660, 82.99450
294.0482, 84.59251
294.5303, 86.34120
295.0124, 87.92813
295.4945, 89.21897
295.9766, 90.27012
296.4587, 91.14137
296.9409, 91.78621
297.4230, 92.41248
297.9051, 93.40180
298.3872, 94.35998
298.8693, 94.76836
299.3514, 94.40757
299.8336, 93.56710
300.3157, 92.62617
300.7978, 91.60603
301.2799, 90.31688
301.7620, 88.59435
302.2441, 86.58958
302.7263, 84.38721
303.2084, 81.98711
303.6905, 79.45479
304.1726, 76.87102
304.6547, 74.24804
305.1368, 71.38123
305.6190, 67.95415
306.1011, 64.45785
306.5832, 61.28099
307.0653, 58.44574
307.5474, 55.74537
308.0295, 53.00297
308.5117, 50.23755
308.9938, 47.59555
309.4759, 45.02730
309.9580, 42.70824
310.4401, 40.80591
310.9222, 39.24879
311.4044, 37.76189
311.8865, 36.21244
312.3686, 34.60881
312.8507, 32.92199
313.3328, 31.00909
313.8149, 29.27414
314.2971, 27.93797
314.7792, 26.89333
315.2613, 25.94839
315.7434, 25.02881
316.2255, 24.14120
316.7076, 23.28186
317.1898, 22.41145
317.6719, 21.66308
318.1540, 21.30178
318.6361, 21.01042
319.1182, 20.37173
319.6003, 19.15566
320.0825, 17.84534
320.5646, 17.15809
321.0467, 17.19869
321.5288, 17.19523
322.0109, 16.89905
322.4930, 16.46031
322.9752, 15.94052
323.4573, 15.34693
323.9394, 14.80890
324.4215, 14.49374
324.9036, 14.39747
325.3857, 14.22409
325.8679, 13.87181
326.3500, 13.47701
326.8321, 13.11831
327.3142, 12.79996
327.7963, 12.52977
328.2784, 12.30972
328.7606, 12.14157
329.2427, 12.04512
329.7248, 12.07369
330.2069, 12.08395
330.6890, 11.98334
331.1711, 11.80382
331.6533, 11.60738
332.1354, 11.40531
332.6175, 11.21215
333.0996, 11.06698
333.5817, 10.98637
334.0638, 10.89786
334.5460, 10.78109
335.0281, 10.63067
335.5102, 10.41929
335.9923, 10.10812
336.4744, 9.804772
336.9565, 9.643670
337.4387, 9.632547
337.9208, 9.643642
338.4029, 9.656649
338.8850, 9.659085
339.3671, 9.638498
339.8492, 9.593070
340.3314, 9.535102
340.8135, 9.461138
341.2956, 9.376715
341.7777, 9.332235
342.2598, 9.384650
342.7419, 9.406574
343.2241, 9.247756
343.7062, 8.947149
344.1883, 8.706742
344.6704, 8.682376
345.1525, 8.775247
345.6346, 8.748981
346.1168, 8.549364
346.5989, 8.367311
347.0810, 8.396898
347.5631, 8.536219
348.0452, 8.605729
348.5273, 8.505178
349.0095, 8.364983
349.4916, 8.337923
349.9737, 8.426218
350.4558, 8.535379
350.9379, 8.664433
351.4200, 8.759774
351.9022, 8.736356
352.3843, 8.557914
352.8664, 8.350821
353.3485, 8.158742
353.8306, 7.997712
354.3127, 7.944906
354.7949, 8.054605
355.2770, 8.226319
355.7591, 8.367107
356.2412, 8.483071
356.7233, 8.485886
357.2054, 8.250207
357.6876, 7.911318
358.1697, 7.681718
358.6518, 7.593336
359.1339, 7.579565
359.6160, 7.615465
360.0981, 7.687120
360.5803, 7.717706
361.0624, 7.637739
361.5445, 7.558682
362.0266, 7.600841
362.5087, 7.747534
362.9908, 7.853091
363.4730, 7.817933
363.9551, 7.695930
364.4372, 7.664056
364.9193, 7.811149
365.4014, 7.895104
365.8835, 7.750804
366.3657, 7.479558
366.8478, 7.291460
367.3299, 7.263378
367.8120, 7.310747
368.2941, 7.294227
368.7762, 7.185417
369.2584, 7.141207
369.7405, 7.220294
370.2226, 7.351842
370.7047, 7.493177
371.1868, 7.631940
371.6689, 7.715905
372.1511, 7.684453
372.6332, 7.530798
373.1153, 7.439031
373.5974, 7.459848
374.0795, 7.485373
374.5616, 7.457114
375.0438, 7.391011
375.5259, 7.333745
376.0080, 7.311852
376.4901, 7.314997
376.9722, 7.307089
377.4543, 7.273237
377.9365, 7.247663
378.4186, 7.225628
378.9007, 7.217210
379.3828, 7.240020
379.8649, 7.297060
380.3470, 7.366659
380.8292, 7.418986
381.3113, 7.449645
381.7934, 7.474459
382.2755, 7.485003
382.7576, 7.497786
383.2397, 7.531856
383.7219, 7.579007
384.2040, 7.604681
384.6861, 7.573159
385.1682, 7.492982
385.6503, 7.503633
386.1324, 7.709712
386.6146, 7.894868
387.0967, 8.021009
387.5788, 8.104895
388.0609, 8.174604
388.5430, 8.241557
389.0251, 8.290625
389.5073, 8.279042
389.9894, 8.135760
390.4715, 8.084714
390.9536, 8.179648
391.4357, 8.323215
391.9178, 8.480432
392.4000, 8.632401
392.8821, 8.748167
393.3642, 8.782751
393.8463, 8.732361
394.3284, 8.730748
394.8105, 8.806388
395.2927, 8.902322
395.7748, 9.016541
396.2569, 9.133595
396.7390, 9.228047
397.2211, 9.282083
397.7032, 9.317312
398.1854, 9.386576
398.6675, 9.506661
399.1496, 9.610586
399.6317, 9.666063
400.1138, 9.707051
400.5959, 9.759791
401.0780, 9.828460
401.5602, 9.895090
402.0423, 9.956035
402.5244, 10.00762
403.0065, 9.999892
403.4886, 9.884541
403.9707, 9.770700
404.4529, 9.752677
404.9350, 9.798594
405.4171, 9.818577
405.8992, 9.772892
406.3813, 9.679884
406.8634, 9.561429
407.3456, 9.415236
407.8277, 9.259611
408.3098, 9.071640
408.7919, 8.895730
409.2740, 8.813999
409.7561, 8.868966
410.2383, 8.917020
410.7204, 8.846466
411.2025, 8.698436
411.6846, 8.605868
412.1667, 8.620557
412.6488, 8.644408
413.1310, 8.539614
413.6131, 8.310708
414.0952, 8.102783
414.5773, 7.891490
415.0594, 7.744586
415.5415, 7.770197
416.0237, 7.950904
416.5058, 8.120142
416.9879, 8.170798
417.4700, 8.118926
417.9521, 8.055330
418.4342, 7.950868
418.9164, 7.871116
419.3985, 7.857902
419.8806, 7.873038
420.3627, 7.846401
420.8448, 7.756257
421.3269, 7.666681
421.8091, 7.679675
422.2912, 7.853008
422.7733, 7.964500
423.2554, 8.031885
423.7375, 8.028521
424.2196, 7.886946
424.7018, 7.650924
425.1839, 7.445904
425.6660, 7.363783
426.1481, 7.388879
426.6302, 7.415526
427.1123, 7.515477
427.5945, 7.521296
428.0766, 7.299981
428.5587, 7.033677
429.0408, 6.924549
429.5229, 7.026208
430.0050, 7.204879
430.4872, 7.272366
430.9693, 7.202321
431.4514, 7.131094
431.9335, 7.066320
432.4156, 6.995606
432.8977, 6.868855
433.3799, 6.729565
433.8620, 6.691559
434.3441, 6.871035
434.8262, 7.164015
435.3083, 7.248026
435.7904, 7.044059
436.2726, 6.848681
436.7547, 6.760965
437.2368, 6.733214
437.7189, 6.749384
438.2010, 6.811556
438.6831, 6.845273
439.1653, 6.738312
439.6474, 6.529955
440.1295, 6.456360
440.6116, 6.621831
441.0937, 6.795214
441.5758, 6.740965
442.0580, 6.527277
442.5401, 6.355396
443.0222, 6.289938
443.5043, 6.285365
443.9864, 6.316109
444.4685, 6.376405
444.9507, 6.416896
445.4328, 6.406514
445.9149, 6.370257
446.3970, 6.376076
446.8791, 6.459842
447.3612, 6.480070
447.8434, 6.317123
448.3255, 6.107312
448.8076, 6.046340
449.2897, 6.158897
449.7718, 6.279417
450.2539, 6.240190
450.7361, 6.029377
451.2182, 5.917542
451.7003, 5.918695
452.1824, 5.985875
452.6645, 6.171976
453.1466, 6.397809
453.6288, 6.532335
454.1109, 6.518228
454.5930, 6.408020
455.0751, 6.302398
455.5572, 6.195381
456.0393, 6.106098
456.5215, 6.032595
457.0036, 5.975194
457.4857, 5.932138
457.9678, 5.904830
458.4499, 5.897433
458.9320, 5.915020
459.4142, 5.954689
459.8963, 6.003274
460.3784, 6.081738
460.8605, 6.129936
461.3426, 6.105713
461.8247, 6.062162
462.3069, 6.047286
462.7890, 6.073144
463.2711, 6.129481
463.7532, 6.229188
464.2353, 6.366129
464.7174, 6.444064
465.1996, 6.448142
465.6817, 6.395126
466.1638, 6.234550
466.6459, 6.026367
467.1280, 5.932874
467.6101, 6.088624
468.0923, 6.309070
468.5744, 6.394671
469.0565, 6.355795
469.5386, 6.278010
470.0207, 6.161203
470.5028, 6.065680
470.9850, 6.123909
471.4671, 6.363998
471.9492, 6.561443
472.4313, 6.666701
472.9134, 6.698319
473.3955, 6.655648
473.8777, 6.547930
474.3598, 6.426775
474.8419, 6.328259
475.3240, 6.251671
475.8061, 6.192806
476.2882, 6.154106
476.7704, 6.127162
477.2525, 6.113347
477.7346, 6.109324
478.2167, 6.110827
478.6988, 6.116897
479.1809, 6.129855
479.6631, 6.150296
480.1452, 6.173239
480.6273, 6.229500
481.1094, 6.399412
481.5915, 6.519423
482.0736, 6.490863
482.5558, 6.382987
483.0379, 6.321707
483.5200, 6.371591
484.0021, 6.474878
484.4842, 6.521431
484.9663, 6.500521
485.4485, 6.472199
485.9306, 6.432230
486.4127, 6.401870
486.8948, 6.397796
487.3769, 6.417562
487.8590, 6.444423
488.3412, 6.473207
488.8233, 6.501355
489.3054, 6.529411
489.7875, 6.559631
490.2696, 6.560966
490.7517, 6.478882
491.2339, 6.381177
491.7160, 6.406991
492.1981, 6.604229
492.6802, 6.783756
493.1623, 6.861918
493.6444, 6.873977
494.1266, 6.848476
494.6087, 6.793150
495.0908, 6.781820
495.5729, 6.908967
496.0550, 7.169436
496.5371, 7.241189
497.0193, 6.905620
497.5014, 6.664850
497.9835, 6.735840
498.4656, 6.971994
498.9477, 7.180658
499.4298, 7.293969
499.9120, 7.336138
500.3941, 7.338877
500.8762, 7.299080
501.3583, 7.231174
501.8404, 7.050060
502.3225, 6.927795
502.8047, 6.955608
503.2868, 7.083374
503.7689, 7.231416
504.2510, 7.372408
504.7331, 7.468306
505.2152, 7.425545
505.6974, 7.215878
506.1795, 7.044168
506.6616, 6.989961
507.1437, 6.950664
507.6258, 6.828885
508.1079, 6.642971
508.5901, 6.505081
509.0722, 6.512968
509.5543, 6.578506
510.0364, 6.568719
510.5185, 6.483809
511.0006, 6.394393
511.4828, 6.339653
511.9649, 6.294319
512.4470, 6.190722
512.9291, 5.991674
513.4112, 5.865966
513.8933, 5.935692
514.3754, 6.052733
514.8575, 6.042920
515.3397, 5.905874
515.8218, 5.780555
516.3039, 5.776991
516.7860, 5.871709
517.2681, 5.894706
517.7502, 5.784352
518.2324, 5.676935
518.7145, 5.541498
519.1966, 5.439445
519.6787, 5.478269
520.1608, 5.644912
520.6429, 5.763654
521.1251, 5.614958
521.6072, 5.211181
522.0893, 5.027689
522.5714, 5.199344
523.0535, 5.381829
523.5356, 5.481215
524.0178, 5.515196
524.4999, 5.495865
524.9820, 5.423616
525.4641, 5.325814
525.9462, 5.215921
526.4283, 5.099378
526.9105, 4.996566
527.3926, 4.910099
527.8747, 4.839762
528.3568, 4.779625
528.8389, 4.735837
529.3210, 4.729524
529.8032, 4.794887
530.2853, 4.861808
530.7674, 4.907358
531.2495, 4.924851
531.7316, 4.884690
532.2137, 4.777139
532.6959, 4.666496
533.1780, 4.635933
533.6601, 4.702307
534.1422, 4.744845
534.6243, 4.782266
535.1064, 4.780372
535.5886, 4.695967
536.0707, 4.572849
536.5528, 4.471487
537.0349, 4.416992
537.5170, 4.401010
537.9991, 4.423051
538.4813, 4.497611
538.9634, 4.534509
539.4455, 4.500174
539.9276, 4.459283
540.4097, 4.435425
540.8918, 4.427695
541.3740, 4.435712
541.8561, 4.468271
542.3382, 4.497423
542.8203, 4.485609
543.3024, 4.436229
543.7845, 4.375382
544.2667, 4.294792
544.7488, 4.233553
545.2309, 4.255047
545.7130, 4.348344
546.1951, 4.413096
546.6772, 4.439668
547.1594, 4.428258
547.6415, 4.343499
548.1236, 4.221652
548.6057, 4.156450
549.0878, 4.187608
549.5699, 4.259979
550.0521, 4.281717
550.5342, 4.230077
551.0163, 4.196315
551.4984, 4.182174
551.9805, 4.181243
552.4626, 4.220150
552.9448, 4.264894
553.4269, 4.231401
553.9090, 4.071446
554.3911, 3.903033
554.8732, 3.988559
555.3553, 4.393632
555.8375, 4.593739
556.3196, 4.389812
556.8017, 4.113293
557.2838, 3.961625
557.7659, 3.909801
558.2480, 3.886705
558.7302, 3.870236
559.2123, 3.868616
559.6944, 3.895008
560.1765, 3.945008
560.6586, 4.003839
561.1407, 4.072495
561.6229, 4.130052
562.1050, 4.147418
562.5871, 4.117205
563.0692, 4.092135
563.5513, 4.106024
564.0334, 4.091686
564.5156, 3.972855
564.9977, 3.810373
565.4798, 3.710063
565.9619, 3.714673
566.4440, 3.796983
566.9261, 3.943535
567.4083, 4.216147
567.8904, 4.300048
568.3725, 3.956814
568.8546, 3.666435
569.3367, 3.633317
569.8188, 3.752015
570.3010, 3.841875
570.7831, 3.834788
571.2652, 3.792987
571.7473, 3.790157
572.2294, 3.820669
572.7115, 3.840622
573.1937, 3.846065
573.6758, 3.831012
574.1579, 3.751760
574.6400, 3.641839
575.1221, 3.635495
575.6042, 3.853168
576.0864, 4.054268
576.5685, 4.132587
577.0506, 4.111653
577.5327, 3.990443
578.0148, 3.778733
578.4969, 3.600525
578.9791, 3.604457
579.4612, 3.801732
579.9433, 3.898658
580.4254, 3.786480
580.9075, 3.699714
581.3896, 3.700697
581.8718, 3.737938
582.3539, 3.761002
582.8360, 3.755684
583.3181, 3.725506
583.8002, 3.658608
584.2823, 3.563348
584.7645, 3.498967
585.2466, 3.460976
585.7287, 3.469156
586.2108, 3.588355
586.6929, 3.734086
587.1750, 3.771845
587.6572, 3.666350
588.1393, 3.567183
588.6214, 3.567976
589.1035, 3.601157
589.5856, 3.561506
590.0677, 3.449058
590.5499, 3.361313
591.0320, 3.367395
591.5141, 3.436656
591.9962, 3.454877
592.4783, 3.343313
592.9604, 3.291954
593.4426, 3.329502
593.9247, 3.404672
594.4068, 3.516446
594.8889, 3.636384
595.3710, 3.698819
595.8531, 3.653533
596.3353, 3.539528
596.8174, 3.436211
597.2995, 3.338274
597.7816, 3.286125
598.2637, 3.299631
598.7458, 3.352669
599.2280, 3.446998
599.7101, 3.567691
600.1922, 3.633687
600.6743, 3.549913
601.1564, 3.461444
601.6385, 3.529940
602.1207, 3.696186
602.6028, 3.772468
603.0849, 3.692130
603.5670, 3.552808
604.0491, 3.478706
604.5313, 3.481470
605.0134, 3.478179
605.4955, 3.452221
605.9776, 3.440005
606.4597, 3.486730
606.9418, 3.539330
607.4240, 3.511242
607.9061, 3.384970
608.3882, 3.252686
608.8703, 3.234837
609.3524, 3.320348
609.8345, 3.356843
610.3167, 3.328048
610.7988, 3.286434
611.2809, 3.243833
611.7630, 3.210044
612.2451, 3.199100
612.7272, 3.213955
613.2094, 3.243527
613.6915, 3.320715
614.1736, 3.388844
614.6557, 3.353577
615.1378, 3.224544
615.6199, 3.105660
616.1021, 3.058484
616.5842, 3.068437
617.0663, 3.097617
617.5484, 3.187605
618.0305, 3.224674
618.5126, 3.154082
618.9948, 3.086330
619.4769, 3.089702
619.9590, 3.146883
620.4411, 3.208483
620.9232, 3.252100
621.4053, 3.280493
621.8875, 3.306458
622.3696, 3.329350
622.8517, 3.292868
623.3338, 3.146673
623.8159, 3.019006
624.2980, 3.045725
624.7802, 3.180845
625.2623, 3.275655
625.7444, 3.303257
626.2265, 3.301422
626.7086, 3.270042
627.1907, 3.227372
627.6729, 3.201679
628.1550, 3.196732
628.6371, 3.192963
629.1192, 3.171168
629.6013, 3.135699
630.0834, 3.128058
630.5656, 3.208112
631.0477, 3.213461
631.5298, 3.027940
632.0119, 2.840805
632.4940, 2.811853
632.9761, 2.927209
633.4583, 3.043582
633.9404, 3.073747
634.4225, 3.057934
634.9046, 3.062492
635.3867, 3.084552
635.8688, 3.081474
636.3510, 3.030874
636.8331, 2.973516
637.3152, 2.970076
637.7973, 3.029681
638.2794, 3.023188
638.7615, 2.841692
639.2437, 2.713355
639.7258, 2.788739
640.2079, 2.951786
640.6900, 3.023763
641.1721, 2.966888
641.6542, 2.897400
642.1364, 2.952355
642.6185, 3.117646
643.1006, 3.204328
643.5827, 3.189091
644.0648, 3.145986
644.5469, 3.101613
645.0291, 3.039169
645.5112, 2.909306
645.9933, 2.711797
646.4754, 2.600415
646.9575, 2.720086
647.4396, 2.905813
647.9218, 2.973221
648.4039, 2.942597
648.8860, 2.937069
649.3681, 3.011907
649.8502, 3.086074
650.3323, 3.021958
650.8145, 2.762969
651.2966, 2.627021
651.7787, 2.675487
652.2608, 2.770509
652.7429, 2.919388
653.2250, 3.069592
653.7072, 3.152359
654.1893, 3.152801
654.6714, 3.127459
655.1535, 3.141104
655.6356, 3.171657
656.1177, 3.127231
656.5999, 2.993769
657.0820, 2.886463
657.5641, 2.864135
658.0462, 2.893255
658.5283, 2.914706
659.0104, 2.926366
659.4926, 2.942489
659.9747, 2.964235
660.4568, 2.991640
660.9389, 3.041657
661.4210, 3.094290
661.9031, 3.100981
662.3853, 3.044575
662.8674, 2.975676
663.3495, 2.973638
663.8316, 3.044913
664.3137, 3.076745
664.7958, 3.041579
665.2780, 3.017044
665.7601, 3.065545
666.2422, 3.129858
666.7243, 3.137192
667.2064, 3.073613
667.6885, 3.009342
668.1707, 2.970039
668.6528, 2.951766
669.1349, 2.953812
669.6170, 2.973541
670.0991, 3.009489
670.5812, 3.063624
671.0634, 3.108842
671.5455, 3.090305
672.0276, 2.977953
672.5097, 2.916920
672.9918, 2.934970
673.4739, 2.975995
673.9561, 3.049983
674.4382, 3.126086
674.9203, 3.162505
675.4024, 3.148787
675.8845, 3.122785
676.3666, 3.123506
676.8488, 3.131401
677.3309, 3.086254
677.8130, 2.987396
678.2951, 2.933643
678.7772, 2.986869
679.2593, 3.082318
679.7415, 3.100406
680.2236, 3.010759
680.7057, 2.932700
681.1878, 2.824033
681.6699, 2.771094
682.1520, 2.844681
682.6342, 2.987005
683.1163, 3.120934
683.5984, 3.221141
684.0805, 3.286995
684.5626, 3.304930
685.0447, 3.285213
685.5269, 3.288220
686.0090, 3.320709
686.4911, 3.340817
686.9732, 3.321437
687.4553, 3.288002
687.9374, 3.288673
688.4196, 3.329849
688.9017, 3.343426
689.3838, 3.284660
689.8659, 3.229856
690.3480, 3.215659
690.8301, 3.240075
691.3123, 3.306579
691.7944, 3.412020
692.2765, 3.519172
692.7586, 3.582426
693.2407, 3.605585
693.7228, 3.652654
694.2050, 3.759654
694.6871, 3.789940
695.1692, 3.602671
695.6513, 3.385835
696.1334, 3.353795
696.6155, 3.507499
697.0977, 3.658217
697.5798, 3.796641
698.0619, 3.869368
698.5440, 3.763325
699.0261, 3.577677
699.5082, 3.526775
699.9904, 3.666195
700.4725, 3.869142
700.9546, 4.008177
701.4367, 4.083712
701.9188, 4.092612
702.4009, 3.979748
702.8831, 3.910219
703.3652, 3.939404
703.8473, 4.016966
704.3294, 4.146431
704.8115, 4.306377
705.2936, 4.386538
705.7758, 4.260517
706.2579, 4.118461
706.7400, 4.125045
707.2221, 4.233201
707.7042, 4.338409
708.1863, 4.416403
708.6685, 4.505243
709.1505, 4.639657
709.6326, 4.815729
710.1147, 5.002824
710.5969, 5.194686
711.0790, 5.408808
711.5611, 5.649018
712.0432, 5.910246
712.5253, 6.167789
713.0074, 6.441197
713.4896, 6.791839
713.9717, 7.270771
714.4538, 7.782694
714.9359, 8.225130
715.4180, 8.640909
715.9001, 9.165142
716.3823, 9.809515
716.8644, 10.36184
717.3465, 10.64305
717.8286, 10.74880
718.3107, 11.04690
718.7928, 11.68387
719.2750, 12.23381
719.7571, 12.56179
720.2392, 12.92651
720.7213, 13.52049
721.2034, 14.22796
721.6855, 14.77850
722.1677, 15.03288
722.6498, 15.38902
723.1319, 16.23120
723.6140, 17.39846
724.0961, 18.58326
724.5782, 19.76167
725.0604, 20.91862
725.5425, 22.02025
726.0246, 23.18340
726.5067, 24.67825
726.9888, 26.64146
727.4709, 28.52439
727.9531, 30.50819
728.4352, 32.20260
728.9173, 33.64397
729.3994, 34.63625
729.8815, 34.98498
730.3636, 34.63924
730.8458, 33.47678
731.3279, 31.02381
731.8100, 27.89011
732.2921, 24.99275
732.7742, 22.33976
733.2563, 19.76351
733.7385, 17.18134
734.2206, 14.80667
734.7027, 12.92354
735.1848, 11.55350
735.6669, 10.34990
736.1490, 9.305167
736.6312, 8.452003
737.1133, 7.893124
737.5954, 7.447031
738.0775, 6.940460
738.5596, 6.382546
739.0417, 5.930517
739.5239, 5.701592
740.0060, 5.564589
740.4881, 5.400093
740.9702, 5.200660
741.4523, 4.909720
741.9344, 4.517145
742.4166, 4.186578
742.8987, 4.068396
743.3808, 4.115992
743.8629, 4.095539
744.3450, 3.958803
744.8271, 3.841311
745.3093, 3.740854
745.7914, 3.669763
746.2735, 3.662582
746.7556, 3.684566
747.2377, 3.662677
747.7198, 3.566192
748.2020, 3.457054
748.6841, 3.373163
749.1662, 3.311476
749.6483, 3.273210
750.1304, 3.254933
750.6125, 3.239728
751.0947, 3.220005
751.5768, 3.192997
752.0589, 3.152052
752.5410, 3.092884
753.0231, 3.040240
753.5052, 3.007340
753.9874, 2.962937
754.4695, 2.852471
754.9516, 2.753320
755.4337, 2.774901
755.9158, 2.922151
756.3979, 3.034646
756.8801, 3.006695
757.3622, 2.936163
757.8443, 2.905889
758.3264, 2.909665
758.8085, 2.948900
759.2906, 3.017109
759.7728, 3.038882
760.2549, 2.926024
760.7370, 2.712207
761.2191, 2.614445
761.7012, 2.670353
762.1833, 2.741494
762.6655, 2.821612
763.1476, 2.892850
763.6297, 2.961857
764.1118, 3.013066
764.5939, 2.998187
765.0760, 2.869588
765.5582, 2.751227
766.0403, 2.697914
766.5224, 2.689595
767.0045, 2.737868
767.4866, 2.813524
767.9688, 2.817069
768.4509, 2.695532
768.9330, 2.536512
769.4151, 2.493469
769.8972, 2.571079
770.3793, 2.633333
770.8615, 2.680083
771.3436, 2.704824
771.8257, 2.701259
772.3078, 2.675842
772.7899, 2.627178
773.2720, 2.550344
773.7542, 2.514069
774.2363, 2.543715
774.7184, 2.600072
775.2005, 2.678477
775.6826, 2.764163
776.1647, 2.861789
776.6469, 2.956425
777.1290, 2.979698
777.6111, 2.854636
778.0932, 2.656808
778.5753, 2.553901
779.0574, 2.543601
779.5396, 2.583939
780.0217, 2.687255
780.5038, 2.761742
780.9859, 2.712780
781.4680, 2.581756
781.9501, 2.553097
782.4323, 2.760597
782.9144, 2.846255
783.3965, 2.665915
783.8786, 2.488049
784.3607, 2.486873
784.8428, 2.590281
785.3250, 2.652847
785.8071, 2.628595
786.2892, 2.591435
786.7713, 2.616684
787.2534, 2.666223
787.7355, 2.652836
788.2177, 2.587070
788.6998, 2.564782
789.1819, 2.624094
789.6640, 2.710042
790.1461, 2.760152
790.6282, 2.774426
791.1104, 2.747982
791.5925, 2.623638
792.0746, 2.556118
792.5567, 2.629040
793.0388, 2.716212
793.5209, 2.704912
794.0031, 2.630322
794.4852, 2.628594
794.9673, 2.784864
795.4494, 2.933309
795.9315, 2.988497
796.4136, 2.965118
796.8958, 2.829969
797.3779, 2.625228
797.8600, 2.500049
798.3421, 2.532387
798.8242, 2.661329
799.3063, 2.825520
799.7885, 3.031696
800.2706, 3.058382
800.7527, 2.833986
801.2348, 2.646594
801.7169, 2.619500
802.1990, 2.677480
802.6812, 2.729152
803.1633, 2.774590
803.6454, 2.813979
804.1275, 2.860519
804.6096, 2.884767
805.0917, 2.869046
805.5739, 2.830061
806.0560, 2.767852
806.5381, 2.697352
807.0202, 2.661402
807.5023, 2.691162
807.9844, 2.748145
808.4666, 2.790426
808.9487, 2.815025
809.4308, 2.797254
809.9129, 2.733431
810.3950, 2.695028
810.8771, 2.731907
811.3593, 2.796715
811.8414, 2.784251
812.3235, 2.649801
812.8056, 2.607211
813.2877, 2.752352
813.7698, 2.870496
814.2520, 2.894336
814.7341, 2.871178
815.2162, 2.835553
815.6983, 2.795884
816.1804, 2.778934
816.6625, 2.814186
817.1447, 2.856668
817.6268, 2.874684
818.1089, 2.877409
818.5910, 2.873219
819.0731, 2.867464
819.5552, 2.881215
820.0374, 2.933778
820.5195, 2.984585
821.0016, 2.912303
821.4837, 2.709516
821.9658, 2.673929
822.4479, 2.871422
822.9301, 3.091829
823.4122, 3.258220
823.8943, 3.360459
824.3764, 3.367435
824.8585, 3.256953
825.3406, 3.167913
825.8228, 3.089381
826.3049, 3.051869
826.7870, 3.110997
827.2691, 3.186150
827.7512, 3.170189
828.2333, 3.076996
828.7155, 3.030609
829.1976, 3.111875
829.6797, 3.241354
830.1618, 3.371121
830.6439, 3.471402
831.1260, 3.449398
831.6082, 3.305939
832.0903, 3.135361
832.5724, 2.982531
833.0545, 2.885453
833.5366, 2.940091
834.0187, 3.180795
834.5009, 3.334209
834.9830, 3.388416
835.4651, 3.376441
835.9472, 3.248234
836.4293, 3.106881
836.9114, 3.075088
837.3936, 3.147584
837.8757, 3.207176
838.3578, 3.216076
838.8399, 3.233602
839.3220, 3.311408
839.8041, 3.387181
840.2863, 3.405310
840.7684, 3.362423
841.2505, 3.255486
841.7326, 3.069074
842.2147, 2.917362
842.6968, 2.982323
843.1790, 3.182635
843.6611, 3.280276
844.1432, 3.267708
844.6253, 3.264702
845.1074, 3.326898
845.5895, 3.384214
846.0717, 3.337746
846.5538, 3.187294
847.0359, 3.049057
847.5180, 2.881896
848.0001, 2.811476
848.4822, 2.961925
848.9644, 3.124074
849.4465, 3.144863
849.9286, 3.061610
850.4107, 2.986690
850.8928, 2.917958
851.3749, 2.904691
851.8571, 3.022492
852.3392, 3.151230
852.8213, 3.200978
853.3034, 3.181380
853.7855, 3.106679
854.2676, 2.989861
854.7498, 2.904174
855.2319, 2.930061
855.7140, 3.031117
856.1961, 3.155330
856.6782, 3.289141
857.1603, 3.322244
857.6425, 3.221539
858.1246, 3.101712
858.6067, 3.055658
859.0888, 3.068932
859.5709, 3.086869
860.0530, 3.102176
860.5352, 3.145218
861.0173, 3.278587
861.4994, 3.357695
861.9815, 3.263704
862.4636, 3.108180
862.9457, 3.028144
863.4279, 3.034535
863.9100, 3.100662
864.3921, 3.328701
864.8742, 3.491316
865.3563, 3.411170
865.8384, 3.233598
866.3206, 3.126909
866.8027, 3.104999
867.2848, 3.091868
867.7669, 3.039652
868.2490, 2.997024
868.7311, 3.063372
869.2133, 3.184993
869.6954, 3.190806
870.1775, 3.076514
870.6596, 2.963676
871.1417, 2.904599
871.6238, 2.891266
872.1060, 2.920927
872.5881, 2.992978
873.0702, 3.025109
873.5523, 3.006212
874.0344, 2.974437
874.5165, 2.922189
874.9987, 2.877303
875.4808, 2.885861
875.9629, 2.919775
876.4450, 2.885165
876.9271, 2.711060
877.4092, 2.609700
877.8914, 2.654326
878.3735, 2.750952
878.8556, 2.897509
879.3377, 3.033637
879.8198, 3.054052
880.3019, 2.949056
880.7841, 2.856495
881.2662, 2.892779
881.7483, 2.969321
882.2304, 2.982660
882.7125, 2.948783
883.1946, 2.887544
883.6768, 2.812016
884.1589, 2.779278
884.6410, 2.829894
885.1231, 2.921045
885.6052, 2.967643
886.0873, 2.968654
886.5695, 2.969721
887.0516, 2.972842
887.5337, 2.970788
888.0158, 2.958290
888.4979, 2.944283
888.9800, 2.946873
889.4622, 2.965825
889.9443, 2.940167
890.4264, 2.782736
890.9085, 2.706750
891.3906, 2.769190
891.8727, 2.882130
892.3549, 3.042309
892.8370, 3.198411
893.3191, 3.248394
893.8012, 3.157906
894.2833, 3.069280
894.7654, 3.080865
895.2476, 3.095381
895.7297, 2.993309
896.2118, 2.851752
896.6939, 2.830955
897.1760, 2.937190
897.6581, 3.013236
898.1403, 2.941518
898.6224, 2.806877
899.1045, 2.728510
899.5866, 2.706999
900.0687, 2.766638
900.5508, 2.906215
901.0330, 3.011745
901.5151, 3.030045
901.9972, 2.985142
902.4793, 2.901798
902.9614, 2.779923
903.4435, 2.714654
903.9257, 2.730384
904.4078, 2.738541
904.8899, 2.719321
905.3720, 2.689260
905.8541, 2.639201
906.3362, 2.589968
906.8184, 2.612388
907.3005, 2.754451
907.7826, 2.852172
908.2647, 2.859574
908.7468, 2.847496
909.2289, 2.846941
909.7111, 2.848404
910.1932, 2.844090
910.6753, 2.829094
911.1574, 2.784505
911.6395, 2.666331
912.1216, 2.567403
912.6038, 2.581729
913.0859, 2.650936
913.5680, 2.714737
914.0501, 2.753606
914.5322, 2.732967
915.0143, 2.638772
915.4965, 2.523087
915.9786, 2.423846
916.4607, 2.358140
916.9428, 2.416234
917.4249, 2.586406
917.9070, 2.700072
918.3892, 2.712609
918.8713, 2.708627
919.3534, 2.761878
919.8355, 2.837024
920.3176, 2.815496
920.7997, 2.657482
921.2819, 2.549465
921.7640, 2.495477
922.2461, 2.490053
922.7282, 2.560090
923.2103, 2.653956
923.6924, 2.719562
924.1746, 2.756757
924.6567, 2.743447
925.1388, 2.622632
925.6209, 2.530436
926.1030, 2.498118
926.5851, 2.495406
927.0673, 2.518328
927.5494, 2.550214
928.0315, 2.559987
928.5136, 2.539155
928.9957, 2.533450
929.4778, 2.598881
929.9600, 2.656894
930.4421, 2.625678
930.9242, 2.553443
931.4063, 2.525627
931.8884, 2.540878
932.3705, 2.530046
932.8527, 2.452044
933.3348, 2.348558
933.8169, 2.245951
934.2990, 2.166645
934.7811, 2.195939
935.2632, 2.320601
935.7454, 2.428629
936.2275, 2.483294
936.7096, 2.514722
937.1917, 2.554137
937.6738, 2.591638
938.1559, 2.580262
938.6381, 2.510756
939.1202, 2.474148
939.6023, 2.493457
940.0844, 2.496553
940.5665, 2.431760
941.0486, 2.350701
941.5308, 2.337902
942.0129, 2.400138
942.4950, 2.457204
942.9771, 2.562247
943.4592, 2.580853
943.9413, 2.406928
944.4235, 2.229806
944.9056, 2.158038
945.3877, 2.171492
945.8698, 2.229852
946.3519, 2.342128
946.8340, 2.434424
947.3162, 2.468544
947.7983, 2.500351
948.2804, 2.591113
948.7625, 2.673673
949.2446, 2.654319
949.7267, 2.547320
950.2089, 2.443144
950.6910, 2.369648
951.1731, 2.348234
951.6552, 2.430140
952.1373, 2.548231
952.6194, 2.635109
953.1016, 2.683283
953.5837, 2.675259
954.0658, 2.616189
954.5479, 2.574099
955.0300, 2.609696
955.5121, 2.685698
955.9943, 2.745701
956.4763, 2.786529
956.9584, 2.781671
957.4406, 2.733513
957.9227, 2.717455
958.4048, 2.771831
958.8869, 2.827472
959.3690, 2.787990
959.8511, 2.665640
960.3333, 2.551301
960.8154, 2.440901
961.2975, 2.374438
961.7796, 2.365654
962.2617, 2.379988
962.7438, 2.393758
963.2260, 2.418810
963.7081, 2.488310
964.1902, 2.623092
964.6723, 2.689659
965.1544, 2.635734
965.6365, 2.600188
966.1187, 2.619179
966.6008, 2.663364
967.0829, 2.744630
967.5650, 2.831768
968.0471, 2.821506
968.5292, 2.662584
969.0114, 2.528006
969.4935, 2.428476
969.9756, 2.372180
970.4577, 2.371918
970.9398, 2.409719
971.4219, 2.477905
971.9041, 2.567384
972.3862, 2.656372
972.8683, 2.767598
973.3504, 2.808154
973.8325, 2.638821
974.3146, 2.461046
974.7968, 2.479188
975.2789, 2.613588
975.7610, 2.716043
976.2431, 2.748918
976.7252, 2.736347
977.2073, 2.663966
977.6895, 2.605844
978.1716, 2.678426
978.6537, 2.802805
979.1358, 2.838992
979.6179, 2.795226
980.1000, 2.757155
980.5822, 2.755672
981.0643, 2.744944
981.5464, 2.654700
982.0285, 2.548906
982.5106, 2.613585
982.9927, 2.805197
983.4749, 2.914882
983.9570, 2.914603
984.4391, 2.857013
984.9212, 2.764909
985.4033, 2.677514
985.8854, 2.659343
986.3676, 2.699457
986.8497, 2.692347
987.3318, 2.630039
987.8139, 2.619136
988.2960, 2.687650
988.7781, 2.779347
989.2603, 2.869686
989.7424, 2.937380
990.2245, 2.928699
990.7066, 2.826006
991.1887, 2.800871
991.6708, 2.910623
992.1530, 2.949440
992.6351, 2.802081
993.1172, 2.673295
993.5993, 2.758040
994.0814, 2.972675
994.5635, 3.056365
995.0457, 2.955493
995.5278, 2.874722
996.0099, 2.766772
996.4920, 2.739889
996.9741, 2.908304
997.4562, 3.095709
997.9384, 3.135813
998.4205, 3.067874
998.9026, 3.045520
999.3847, 3.108129
999.8668, 3.162196
1000.349, 3.206508
1000.831, 3.218808
1001.313, 3.145299
1001.795, 3.064330
1002.277, 3.065929
1002.760, 3.144031
1003.242, 3.235671
1003.724, 3.343277
1004.206, 3.404132
1004.688, 3.362849
1005.170, 3.290597
1005.652, 3.210667
1006.134, 3.152729
1006.616, 3.163933
1007.099, 3.240669
1007.581, 3.325629
1008.063, 3.393147
1008.545, 3.454143
1009.027, 3.538268
1009.509, 3.604618
1009.991, 3.586954
1010.473, 3.517323
1010.956, 3.449047
1011.438, 3.407765
1011.920, 3.448867
1012.402, 3.643712
1012.884, 3.854842
1013.366, 3.877319
1013.848, 3.811760
1014.330, 3.840306
1014.812, 3.963022
1015.295, 4.162960
1015.777, 4.415335
1016.259, 4.549097
1016.741, 4.375755
1017.223, 4.088477
1017.705, 4.055433
1018.187, 4.212790
1018.669, 4.346888
1019.151, 4.442360
1019.634, 4.560081
1020.116, 4.721220
1020.598, 4.832805
1021.080, 4.778771
1021.562, 4.638637
1022.044, 4.667464
1022.526, 4.842167
1023.008, 4.897174
1023.491, 4.806317
1023.973, 4.758853
1024.455, 4.835448
1024.937, 4.971497
1025.419, 5.095713
1025.901, 5.213880
1026.383, 5.373629
1026.865, 5.584599
1027.348, 5.670912
1027.830, 5.593764
1028.312, 5.522068
1028.794, 5.526478
1029.276, 5.590035
1029.758, 5.701101
1030.240, 5.850080
1030.722, 5.942080
1031.204, 5.942241
1031.687, 6.055151
1032.169, 6.347480
1032.651, 6.617580
1033.133, 6.778317
1033.615, 6.854187
1034.097, 6.850485
1034.579, 6.779488
1035.061, 6.840821
1035.543, 7.094579
1036.026, 7.328557
1036.508, 7.548981
1036.990, 7.701987
1037.472, 7.728411
1037.954, 7.706657
1038.436, 7.717291
1038.918, 7.762901
1039.400, 7.939810
1039.883, 8.406856
1040.365, 8.703286
1040.847, 8.691441
1041.329, 8.651549
1041.811, 8.691491
1042.293, 8.780573
1042.775, 8.884730
1043.257, 9.003576
1043.740, 9.129183
1044.222, 9.290955
1044.704, 9.414139
1045.186, 9.467453
1045.668, 9.514269
1046.150, 9.576928
1046.632, 9.651576
1047.114, 9.716076
1047.596, 9.776453
1048.078, 9.914154
1048.561, 10.20480
1049.043, 10.46809
1049.525, 10.71224
1050.007, 10.89060
1050.489, 10.90817
1050.971, 10.89622
1051.453, 11.02720
1051.935, 11.29191
1052.418, 11.52201
1052.900, 11.60922
1053.382, 11.80108
1053.864, 12.28804
1054.346, 12.73061
1054.828, 12.88818
1055.310, 12.94725
1055.792, 13.14554
1056.275, 13.47461
1056.757, 13.75284
1057.239, 13.92516
1057.721, 14.07581
1058.203, 14.12884
1058.685, 14.27824
1059.167, 14.70495
1059.649, 15.23539
1060.131, 15.63235
1060.614, 15.92813
1061.096, 16.39003
1061.578, 17.18309
1062.060, 17.88192
1062.542, 18.19688
1063.024, 18.53936
1063.506, 19.17554
1063.988, 19.94399
1064.470, 20.62521
1064.953, 21.24860
1065.435, 22.00625
1065.917, 22.97508
1066.399, 24.01420
1066.881, 25.17492
1067.363, 26.26810
1067.845, 26.99561
1068.327, 27.73752
1068.810, 28.94003
1069.292, 30.53132
1069.774, 32.16066
1070.256, 33.71822
1070.738, 35.37836
1071.220, 37.10337
1071.702, 39.06812
1072.184, 41.42295
1072.667, 44.02272
1073.149, 46.71632
1073.631, 49.49837
1074.113, 52.31457
1074.595, 55.10823
1075.077, 58.35864
1075.559, 62.26960
1076.041, 66.67595
1076.523, 71.53851
1077.005, 76.79812
1077.488, 82.38361
1077.970, 88.34938
1078.452, 94.92041
1078.934, 102.1473
1079.416, 109.4631
1079.898, 116.8020
1080.380, 123.9852
1080.862, 130.6919
1081.344, 137.4680
1081.827, 144.7274
1082.309, 152.4447
1082.791, 160.4073
1083.273, 168.5944
1083.755, 176.8844
1084.237, 184.9978
1084.719, 193.5933
1085.201, 202.7736
1085.684, 212.7301
1086.166, 224.3627
1086.648, 236.4838
1087.130, 246.9702
1087.612, 255.7915
1088.094, 265.4393
1088.576, 277.4799
1089.058, 289.0900
1089.541, 299.9821
1090.023, 309.0888
1090.505, 316.3829
1090.987, 320.9872
1091.469, 322.0163
1091.951, 319.3666
1092.433, 313.2250
1092.915, 303.6035
1093.397, 290.6660
1093.880, 273.5816
1094.362, 254.2839
1094.844, 232.5196
1095.326, 210.3505
1095.808, 189.4783
1096.290, 170.2398
1096.772, 152.5587
1097.254, 136.5882
1097.736, 121.8703
1098.219, 108.1729
1098.701, 95.92081
1099.183, 85.39516
1099.665, 76.27050
1100.147, 68.36141
1100.629, 61.57856
1101.111, 55.83792
1101.593, 51.13778
1102.076, 46.90251
1102.558, 42.98820
1103.040, 39.47260
1103.522, 36.49076
1104.004, 33.78065
1104.486, 31.14679
1104.968, 28.67617
1105.450, 26.57531
1105.932, 24.85828
1106.415, 23.25257
1106.897, 21.72954
1107.379, 20.29047
1107.861, 18.84716
1108.343, 17.59079
1108.825, 16.69567
1109.307, 15.98522
1109.789, 15.25671
1110.271, 14.51034
1110.754, 13.81035
1111.236, 13.20531
1111.718, 12.56623
1112.200, 11.76441
1112.682, 11.07484
1113.164, 10.65811
1113.646, 10.33099
1114.128, 9.913987
1114.611, 9.448012
1115.093, 9.101628
1115.575, 8.960629
1116.057, 8.668603
1116.539, 7.996216
1117.021, 7.522257
1117.503, 7.478785
1117.985, 7.524676
1118.468, 7.495208
1118.950, 7.375915
1119.432, 7.122004
1119.914, 6.719969
1120.396, 6.340725
1120.878, 5.931482
1121.360, 5.668643
1121.842, 5.660563
1122.324, 5.639480
1122.807, 5.459443
1123.289, 5.220088
1123.771, 5.034136
1124.253, 4.903867
1124.735, 4.862258
1125.217, 4.972760
1125.699, 4.930918
1126.181, 4.662729
1126.663, 4.426755
1127.146, 4.306703
1127.628, 4.268404
1128.110, 4.304091
1128.592, 4.367878
1129.074, 4.308179
1129.556, 4.106024
1130.038, 3.998917
1130.520, 4.005071
1131.003, 3.963616
1131.485, 3.823764
1131.967, 3.739383
1132.449, 3.826418
1132.931, 3.953945
1133.413, 3.899563
1133.895, 3.689629
1134.377, 3.483668
1134.859, 3.283827
1135.342, 3.224525
1135.824, 3.320709
1136.306, 3.395760
1136.788, 3.373201
1137.270, 3.287692
1137.752, 3.162120
1138.234, 3.029260
1138.716, 2.980787
1139.198, 2.996592
1139.681, 2.983595
1140.163, 2.945328
1140.645, 2.943333
1141.127, 2.991461
1141.609, 3.053039
1142.091, 3.106457
1142.573, 3.135608
1143.055, 3.087882
1143.538, 3.016444
1144.020, 3.070824
1144.502, 3.181203
1144.984, 3.145309
1145.466, 2.966356
1145.948, 2.789604
1146.430, 2.678180
1146.912, 2.627788
1147.395, 2.647223
1147.877, 2.710777
1148.359, 2.843252
1148.841, 2.964277
1149.323, 2.935842
1149.805, 2.807597
1150.287, 2.706508
1150.769, 2.661302
1151.251, 2.623793
1151.734, 2.559669
1152.216, 2.521125
1152.698, 2.578068
1153.180, 2.638309
1153.662, 2.609008
1154.144, 2.547230
1154.626, 2.543933
1155.108, 2.582356
1155.590, 2.562736
1156.073, 2.440331
1156.555, 2.380610
1157.037, 2.500790
1157.519, 2.616290
1158.001, 2.660556
1158.483, 2.663136
1158.965, 2.644966
1159.447, 2.604039
1159.930, 2.517861
1160.412, 2.386681
1160.894, 2.306473
1161.376, 2.292430
1161.858, 2.322670
1162.340, 2.462165
1162.822, 2.559666
1163.304, 2.514884
1163.786, 2.450030
1164.269, 2.504522
1164.751, 2.625448
1165.233, 2.619423
1165.715, 2.437501
1166.197, 2.352731
1166.679, 2.414123
1167.161, 2.428324
1167.643, 2.330278
1168.125, 2.252119
1168.608, 2.275429
1169.090, 2.355493
1169.572, 2.432231
1170.054, 2.502857
1170.536, 2.545637
1171.018, 2.561027
1171.500, 2.529244
1171.982, 2.446139
1172.465, 2.386147
1172.947, 2.374996
1173.429, 2.398497
1173.911, 2.451432
1174.393, 2.500949
1174.875, 2.463203
1175.357, 2.371757
1175.839, 2.368174
1176.322, 2.430786
1176.804, 2.462180
1177.286, 2.447413
1177.768, 2.403416
1178.250, 2.339886
1178.732, 2.308656
1179.214, 2.396110
1179.696, 2.492258
1180.178, 2.419725
1180.661, 2.278257
1181.143, 2.210258
1181.625, 2.208895
1182.107, 2.239783
1182.589, 2.287143
1183.071, 2.331290
1183.553, 2.369405
1184.035, 2.375451
1184.517, 2.290443
1185.000, 2.216244
1185.482, 2.241474
1185.964, 2.301269
1186.446, 2.331320
1186.928, 2.334966
1187.410, 2.326238
1187.892, 2.306627
1188.374, 2.329891
1188.857, 2.498963
1189.339, 2.576073
1189.821, 2.422225
1190.303, 2.273082
1190.785, 2.235752
1191.267, 2.265869
1191.749, 2.335231
1192.231, 2.426425
1192.714, 2.472742
1193.196, 2.470008
1193.678, 2.430027
1194.160, 2.311683
1194.642, 2.279915
1195.124, 2.405929
1195.606, 2.510202
1196.088, 2.488784
1196.570, 2.389041
1197.052, 2.257167
1197.535, 2.120464
1198.017, 2.143640
1198.499, 2.321303
1198.981, 2.407289
1199.463, 2.389461
1199.945, 2.378603
1200.427, 2.406005
1200.909, 2.427654
1201.392, 2.412709
1201.874, 2.381314
1202.356, 2.378130
1202.838, 2.369957
1203.320, 2.221554
1203.802, 2.036433
1204.284, 2.113033
1204.766, 2.380809
1205.249, 2.492322
1205.731, 2.358193
1206.213, 2.233995
1206.695, 2.308453
1207.177, 2.368800
1207.659, 2.187037
1208.141, 1.987406
1208.623, 1.976671
1209.105, 2.060346
1209.588, 2.125013
1210.070, 2.161407
1210.552, 2.204708
1211.034, 2.269386
1211.516, 2.266754
1211.998, 2.092686
1212.480, 1.971573
1212.962, 1.974888
1213.444, 2.023576
1213.927, 2.102493
1214.409, 2.184666
1214.891, 2.248364
1215.373, 2.289959
1215.855, 2.286788
1216.337, 2.216502
1216.819, 2.206943
1217.301, 2.282709
1217.784, 2.326226
1218.266, 2.316145
1218.748, 2.245713
1219.230, 2.095019
1219.712, 1.959589
1220.194, 1.967514
1220.676, 2.080468
1221.158, 2.198917
1221.641, 2.311408
1222.123, 2.353873
1222.605, 2.328497
1223.087, 2.251896
1223.569, 2.138638
1224.051, 2.042988
1224.533, 1.994609
1225.015, 1.983564
1225.497, 2.033488
1225.979, 2.081720
1226.462, 2.022087
1226.944, 1.941051
1227.426, 1.964081
1227.908, 2.053529
1228.390, 2.121380
1228.872, 2.150503
1229.354, 2.161287
1229.836, 2.165514
1230.319, 2.138256
1230.801, 2.014684
1231.283, 1.931538
1231.765, 1.971697
1232.247, 2.050301
1232.729, 2.121617
1233.211, 2.174985
1233.693, 2.195853
1234.176, 2.184813
1234.658, 2.151997
1235.140, 2.059195
1235.622, 2.077685
1236.104, 2.268187
1236.586, 2.364554
1237.068, 2.266701
1237.550, 2.169760
1238.032, 2.224191
1238.515, 2.318439
1238.997, 2.248718
1239.479, 2.070574
1239.961, 2.020934
1240.443, 2.068706
1240.925, 2.069911
1241.407, 2.023852
1241.889, 2.002723
1242.371, 2.024237
1242.854, 2.051443
1243.336, 2.063700
1243.818, 2.061036
1244.300, 2.037799
1244.782, 2.005645
1245.264, 1.956685
1245.746, 1.920971
1246.228, 1.956028
1246.711, 2.023490
1247.193, 2.019699
1247.675, 1.942948
1248.157, 1.959157
1248.639, 2.201293
1249.121, 2.351244
1249.603, 2.322115
1250.085, 2.234037
1250.568, 2.043969
1251.050, 1.912730
1251.532, 1.992730
1252.014, 2.148178
1252.496, 2.141269
1252.978, 1.992042
1253.460, 1.927406
1253.942, 1.954625
1254.424, 1.993603
1254.906, 2.040769
1255.389, 2.036987
1255.871, 1.967432
1256.353, 1.940016
1256.835, 2.028219
1257.317, 2.130588
1257.799, 2.096615
1258.281, 2.010874
1258.763, 2.048163
1259.246, 2.131535
1259.728, 2.101182
1260.210, 2.004517
1260.692, 1.981561
1261.174, 2.046568
1261.656, 2.114635
1262.138, 2.153679
1262.620, 2.186042
1263.103, 2.250911
1263.585, 2.272013
1264.067, 2.185182
1264.549, 2.074928
1265.031, 1.961622
1265.513, 1.886755
1265.995, 1.920100
1266.477, 2.040141
1266.959, 2.143693
1267.442, 2.251119
1267.924, 2.238011
1268.406, 2.056203
1268.888, 1.986892
1269.370, 2.094915
1269.852, 2.233578
1270.334, 2.335920
1270.816, 2.364173
1271.298, 2.257750
1271.781, 2.107319
1272.263, 2.122729
1272.745, 2.226506
1273.227, 2.225837
1273.709, 2.152988
1274.191, 2.079059
1274.673, 2.035685
1275.155, 2.091644
1275.638, 2.260337
1276.120, 2.382482
1276.602, 2.351959
1277.084, 2.288578
1277.566, 2.229408
1278.048, 2.181838
1278.530, 2.152382
1279.012, 2.135145
1279.495, 2.128128
1279.977, 2.127802
1280.459, 2.120050
1280.941, 2.103642
1281.423, 2.141890
1281.905, 2.268575
1282.387, 2.313330
1282.869, 2.245872
1283.351, 2.210134
1283.833, 2.250602
1284.316, 2.317495
1284.798, 2.382632
1285.280, 2.409050
1285.762, 2.352695
1286.244, 2.214166
##END=



