##NAMES=Roscherite
##RRUFFID=R130054
##IDEAL CHEMISTRY=Ca_2_Mn^2+^_5_Be_4_(PO_4_)_6_(OH)_4_&#183;6H_2_O
##LOCALITY=Tip Top mine, Custer, South Dakota, USA
##OWNER=RRUFF
##SOURCE=Thomas A. Loomis
##DESCRIPTION=Yellowish-brown spheroidal aggregates, associated with R130055 whiteite-(CaMnMg)
##STATUS=The identification of this mineral is confirmed by single-crystal X-ray diffraction and chemical analysis.
##URL=rruff.info/R130054
##MEASURED CHEMISTRY=(Ca_1.95_K_0.04_Sr_0.02_Ba_0.01_)_1.02_(Mn_2.77_Fe_0.78_Mg_0.63_Al_0.16_Zn_0.07_)_4.41_Be_4_(P_1.03_O4)_6_(OH)_4_Â·6H_2_O ; Lighter, middle part. Be content assumed ideal.
8.975323e+001, 0.000000e+000
9.023535e+001, 1.188051e+002
9.071747e+001, 1.195832e+002
9.119958e+001, 1.194074e+002
9.168170e+001, 1.197547e+002
9.216382e+001, 1.191211e+002
9.264594e+001, 1.175769e+002
9.312805e+001, 1.156312e+002
9.361017e+001, 1.135949e+002
9.409229e+001, 1.112527e+002
9.457440e+001, 1.082953e+002
9.505651e+001, 1.055533e+002
9.553863e+001, 1.031259e+002
9.602074e+001, 1.009249e+002
9.650286e+001, 9.882461e+001
9.698498e+001, 9.669475e+001
9.746709e+001, 9.446343e+001
9.794921e+001, 9.279831e+001
9.843133e+001, 9.210569e+001
9.891344e+001, 9.135902e+001
9.939556e+001, 9.017928e+001
9.987768e+001, 8.869558e+001
1.003598e+002, 8.729420e+001
1.008419e+002, 8.616511e+001
1.013240e+002, 8.531984e+001
1.018061e+002, 8.463522e+001
1.022883e+002, 8.425635e+001
1.027704e+002, 8.392573e+001
1.032525e+002, 8.337141e+001
1.037346e+002, 8.254179e+001
1.042167e+002, 8.172294e+001
1.046988e+002, 8.110871e+001
1.051810e+002, 8.060920e+001
1.056631e+002, 8.010995e+001
1.061452e+002, 7.957588e+001
1.066273e+002, 7.900137e+001
1.071094e+002, 7.835768e+001
1.075915e+002, 7.758100e+001
1.080737e+002, 7.680185e+001
1.085558e+002, 7.611263e+001
1.090379e+002, 7.547029e+001
1.095200e+002, 7.476953e+001
1.100021e+002, 7.383406e+001
1.104842e+002, 7.253652e+001
1.109664e+002, 7.170879e+001
1.114485e+002, 7.169675e+001
1.119306e+002, 7.182575e+001
1.124127e+002, 7.183533e+001
1.128948e+002, 7.166489e+001
1.133769e+002, 7.137083e+001
1.138591e+002, 7.103154e+001
1.143412e+002, 7.060753e+001
1.148233e+002, 7.019731e+001
1.153054e+002, 6.982600e+001
1.157875e+002, 6.945443e+001
1.162696e+002, 6.902121e+001
1.167517e+002, 6.849759e+001
1.172339e+002, 6.795035e+001
1.177160e+002, 6.754497e+001
1.181981e+002, 6.726054e+001
1.186802e+002, 6.709903e+001
1.191623e+002, 6.712749e+001
1.196444e+002, 6.729027e+001
1.201266e+002, 6.744829e+001
1.206087e+002, 6.757715e+001
1.210908e+002, 6.762009e+001
1.215729e+002, 6.749232e+001
1.220550e+002, 6.710152e+001
1.225371e+002, 6.669726e+001
1.230193e+002, 6.652940e+001
1.235014e+002, 6.662656e+001
1.239835e+002, 6.671066e+001
1.244656e+002, 6.656328e+001
1.249477e+002, 6.636556e+001
1.254298e+002, 6.628616e+001
1.259120e+002, 6.639854e+001
1.263941e+002, 6.664350e+001
1.268762e+002, 6.691297e+001
1.273583e+002, 6.730911e+001
1.278404e+002, 6.754243e+001
1.283225e+002, 6.748909e+001
1.288047e+002, 6.726088e+001
1.292868e+002, 6.699160e+001
1.297689e+002, 6.675111e+001
1.302510e+002, 6.654393e+001
1.307331e+002, 6.643819e+001
1.312152e+002, 6.660428e+001
1.316974e+002, 6.671258e+001
1.321795e+002, 6.667424e+001
1.326616e+002, 6.650698e+001
1.331437e+002, 6.627776e+001
1.336258e+002, 6.604703e+001
1.341079e+002, 6.582477e+001
1.345901e+002, 6.550669e+001
1.350722e+002, 6.492760e+001
1.355543e+002, 6.439997e+001
1.360364e+002, 6.416757e+001
1.365185e+002, 6.422775e+001
1.370006e+002, 6.433837e+001
1.374828e+002, 6.423807e+001
1.379649e+002, 6.389074e+001
1.384470e+002, 6.343155e+001
1.389291e+002, 6.264883e+001
1.394112e+002, 6.184090e+001
1.398933e+002, 6.144062e+001
1.403755e+002, 6.161950e+001
1.408576e+002, 6.191355e+001
1.413397e+002, 6.163193e+001
1.418218e+002, 6.082916e+001
1.423039e+002, 6.012782e+001
1.427860e+002, 5.982124e+001
1.432681e+002, 5.982998e+001
1.437503e+002, 5.988579e+001
1.442324e+002, 6.002290e+001
1.447145e+002, 6.007453e+001
1.451966e+002, 5.987823e+001
1.456787e+002, 5.943488e+001
1.461608e+002, 5.894981e+001
1.466430e+002, 5.857616e+001
1.471251e+002, 5.831604e+001
1.476072e+002, 5.814326e+001
1.480893e+002, 5.822640e+001
1.485714e+002, 5.828566e+001
1.490535e+002, 5.814680e+001
1.495357e+002, 5.777819e+001
1.500178e+002, 5.729362e+001
1.504999e+002, 5.684064e+001
1.509820e+002, 5.636143e+001
1.514641e+002, 5.605146e+001
1.519462e+002, 5.608284e+001
1.524284e+002, 5.616837e+001
1.529105e+002, 5.605367e+001
1.533926e+002, 5.564907e+001
1.538747e+002, 5.508500e+001
1.543568e+002, 5.468463e+001
1.548389e+002, 5.448204e+001
1.553211e+002, 5.444105e+001
1.558032e+002, 5.469811e+001
1.562853e+002, 5.507200e+001
1.567674e+002, 5.534249e+001
1.572495e+002, 5.539648e+001
1.577316e+002, 5.528709e+001
1.582138e+002, 5.523704e+001
1.586959e+002, 5.518348e+001
1.591780e+002, 5.524468e+001
1.596601e+002, 5.552528e+001
1.601422e+002, 5.594978e+001
1.606243e+002, 5.633717e+001
1.611065e+002, 5.656339e+001
1.615886e+002, 5.668456e+001
1.620707e+002, 5.694590e+001
1.625528e+002, 5.757374e+001
1.630349e+002, 5.811846e+001
1.635170e+002, 5.816016e+001
1.639991e+002, 5.776303e+001
1.644813e+002, 5.757927e+001
1.649634e+002, 5.816454e+001
1.654455e+002, 5.922403e+001
1.659276e+002, 6.003706e+001
1.664097e+002, 6.036488e+001
1.668918e+002, 6.055071e+001
1.673740e+002, 6.101844e+001
1.678561e+002, 6.183539e+001
1.683382e+002, 6.260972e+001
1.688203e+002, 6.306457e+001
1.693024e+002, 6.334858e+001
1.697845e+002, 6.363163e+001
1.702667e+002, 6.399352e+001
1.707488e+002, 6.438150e+001
1.712309e+002, 6.469210e+001
1.717130e+002, 6.497352e+001
1.721951e+002, 6.506473e+001
1.726772e+002, 6.485064e+001
1.731594e+002, 6.445618e+001
1.736415e+002, 6.405460e+001
1.741236e+002, 6.375180e+001
1.746057e+002, 6.352593e+001
1.750878e+002, 6.324725e+001
1.755699e+002, 6.289737e+001
1.760521e+002, 6.250639e+001
1.765342e+002, 6.208608e+001
1.770163e+002, 6.163275e+001
1.774984e+002, 6.114452e+001
1.779805e+002, 6.061906e+001
1.784626e+002, 6.005526e+001
1.789448e+002, 5.943892e+001
1.794269e+002, 5.879872e+001
1.799090e+002, 5.807861e+001
1.803911e+002, 5.714501e+001
1.808732e+002, 5.609632e+001
1.813553e+002, 5.518671e+001
1.818375e+002, 5.465910e+001
1.823196e+002, 5.457644e+001
1.828017e+002, 5.425038e+001
1.832838e+002, 5.353308e+001
1.837659e+002, 5.276318e+001
1.842480e+002, 5.209234e+001
1.847301e+002, 5.152817e+001
1.852123e+002, 5.099518e+001
1.856944e+002, 5.040165e+001
1.861765e+002, 4.972680e+001
1.866586e+002, 4.932296e+001
1.871407e+002, 4.937911e+001
1.876228e+002, 4.956167e+001
1.881050e+002, 4.965682e+001
1.885871e+002, 4.963716e+001
1.890692e+002, 4.954259e+001
1.895513e+002, 4.940966e+001
1.900334e+002, 4.923446e+001
1.905155e+002, 4.897721e+001
1.909977e+002, 4.851351e+001
1.914798e+002, 4.802175e+001
1.919619e+002, 4.770134e+001
1.924440e+002, 4.758395e+001
1.929261e+002, 4.758924e+001
1.934082e+002, 4.773094e+001
1.938904e+002, 4.795881e+001
1.943725e+002, 4.809982e+001
1.948546e+002, 4.808844e+001
1.953367e+002, 4.795740e+001
1.958188e+002, 4.771700e+001
1.963009e+002, 4.725919e+001
1.967831e+002, 4.694126e+001
1.972652e+002, 4.718439e+001
1.977473e+002, 4.778673e+001
1.982294e+002, 4.822432e+001
1.987115e+002, 4.810804e+001
1.991936e+002, 4.757561e+001
1.996758e+002, 4.722870e+001
2.001579e+002, 4.718128e+001
2.006400e+002, 4.719038e+001
2.011221e+002, 4.709203e+001
2.016042e+002, 4.693451e+001
2.020863e+002, 4.684769e+001
2.025685e+002, 4.702192e+001
2.030506e+002, 4.742462e+001
2.035327e+002, 4.746731e+001
2.040148e+002, 4.677898e+001
2.044969e+002, 4.608984e+001
2.049790e+002, 4.561144e+001
2.054612e+002, 4.535247e+001
2.059433e+002, 4.529402e+001
2.064254e+002, 4.550610e+001
2.069075e+002, 4.602090e+001
2.073896e+002, 4.617301e+001
2.078717e+002, 4.546638e+001
2.083539e+002, 4.483049e+001
2.088360e+002, 4.463338e+001
2.093181e+002, 4.477928e+001
2.098002e+002, 4.493935e+001
2.102823e+002, 4.480642e+001
2.107644e+002, 4.433314e+001
2.112466e+002, 4.399909e+001
2.117287e+002, 4.389406e+001
2.122108e+002, 4.382993e+001
2.126929e+002, 4.379931e+001
2.131750e+002, 4.375803e+001
2.136571e+002, 4.360941e+001
2.141393e+002, 4.324889e+001
2.146214e+002, 4.263202e+001
2.151035e+002, 4.210938e+001
2.155856e+002, 4.169378e+001
2.160677e+002, 4.133516e+001
2.165498e+002, 4.096863e+001
2.170320e+002, 4.061886e+001
2.175141e+002, 4.039421e+001
2.179962e+002, 4.041729e+001
2.184783e+002, 4.072916e+001
2.189604e+002, 4.093456e+001
2.194425e+002, 4.106530e+001
2.199247e+002, 4.108156e+001
2.204068e+002, 4.089348e+001
2.208889e+002, 4.052788e+001
2.213710e+002, 4.016905e+001
2.218531e+002, 3.998586e+001
2.223352e+002, 3.999310e+001
2.228174e+002, 3.992924e+001
2.232995e+002, 3.981710e+001
2.237816e+002, 3.961988e+001
2.242637e+002, 3.924322e+001
2.247458e+002, 3.869688e+001
2.252279e+002, 3.819954e+001
2.257100e+002, 3.793650e+001
2.261922e+002, 3.789796e+001
2.266743e+002, 3.789062e+001
2.271564e+002, 3.792196e+001
2.276385e+002, 3.796896e+001
2.281206e+002, 3.800318e+001
2.286027e+002, 3.802218e+001
2.290849e+002, 3.806536e+001
2.295670e+002, 3.819804e+001
2.300491e+002, 3.837654e+001
2.305312e+002, 3.847906e+001
2.310133e+002, 3.839605e+001
2.314954e+002, 3.827748e+001
2.319776e+002, 3.832918e+001
2.324597e+002, 3.858124e+001
2.329418e+002, 3.879209e+001
2.334239e+002, 3.876171e+001
2.339060e+002, 3.859673e+001
2.343881e+002, 3.844952e+001
2.348703e+002, 3.835830e+001
2.353524e+002, 3.830073e+001
2.358345e+002, 3.823876e+001
2.363166e+002, 3.816162e+001
2.367987e+002, 3.812420e+001
2.372808e+002, 3.816831e+001
2.377630e+002, 3.826382e+001
2.382451e+002, 3.840030e+001
2.387272e+002, 3.861182e+001
2.392093e+002, 3.880861e+001
2.396914e+002, 3.879158e+001
2.401735e+002, 3.845102e+001
2.406557e+002, 3.825329e+001
2.411378e+002, 3.850199e+001
2.416199e+002, 3.892284e+001
2.421020e+002, 3.926910e+001
2.425841e+002, 3.945182e+001
2.430662e+002, 3.954135e+001
2.435484e+002, 3.965477e+001
2.440305e+002, 3.980315e+001
2.445126e+002, 3.994517e+001
2.449947e+002, 4.018154e+001
2.454768e+002, 4.035296e+001
2.459589e+002, 4.025994e+001
2.464410e+002, 3.982079e+001
2.469232e+002, 3.926729e+001
2.474053e+002, 3.901542e+001
2.478874e+002, 3.920785e+001
2.483695e+002, 3.937074e+001
2.488516e+002, 3.944230e+001
2.493337e+002, 3.944373e+001
2.498159e+002, 3.934479e+001
2.502980e+002, 3.914324e+001
2.507801e+002, 3.894831e+001
2.512622e+002, 3.898369e+001
2.517443e+002, 3.945088e+001
2.522264e+002, 3.968177e+001
2.527086e+002, 3.935685e+001
2.531907e+002, 3.898076e+001
2.536728e+002, 3.894701e+001
2.541549e+002, 3.933983e+001
2.546370e+002, 3.991658e+001
2.551191e+002, 4.032377e+001
2.556013e+002, 4.053215e+001
2.560834e+002, 4.060941e+001
2.565655e+002, 4.042990e+001
2.570476e+002, 4.023823e+001
2.575297e+002, 4.024030e+001
2.580118e+002, 4.044964e+001
2.584940e+002, 4.068186e+001
2.589761e+002, 4.067159e+001
2.594582e+002, 4.027447e+001
2.599403e+002, 3.999610e+001
2.604224e+002, 3.983509e+001
2.609045e+002, 3.976258e+001
2.613867e+002, 3.981713e+001
2.618688e+002, 3.997075e+001
2.623509e+002, 4.010637e+001
2.628330e+002, 4.008386e+001
2.633151e+002, 3.985178e+001
2.637972e+002, 3.963985e+001
2.642794e+002, 3.939854e+001
2.647615e+002, 3.921315e+001
2.652436e+002, 3.917413e+001
2.657257e+002, 3.925634e+001
2.662078e+002, 3.933950e+001
2.666899e+002, 3.930404e+001
2.671721e+002, 3.912997e+001
2.676542e+002, 3.895608e+001
2.681363e+002, 3.878703e+001
2.686184e+002, 3.861412e+001
2.691005e+002, 3.843626e+001
2.695826e+002, 3.825188e+001
2.700648e+002, 3.804673e+001
2.705469e+002, 3.779265e+001
2.710290e+002, 3.748421e+001
2.715111e+002, 3.735851e+001
2.719932e+002, 3.756480e+001
2.724753e+002, 3.776553e+001
2.729575e+002, 3.780025e+001
2.734396e+002, 3.770709e+001
2.739217e+002, 3.763079e+001
2.744038e+002, 3.768950e+001
2.748859e+002, 3.785504e+001
2.753680e+002, 3.776155e+001
2.758501e+002, 3.707284e+001
2.763322e+002, 3.654928e+001
2.768144e+002, 3.657653e+001
2.772965e+002, 3.696435e+001
2.777786e+002, 3.727751e+001
2.782607e+002, 3.727392e+001
2.787428e+002, 3.702610e+001
2.792249e+002, 3.683792e+001
2.797071e+002, 3.667993e+001
2.801892e+002, 3.659890e+001
2.806713e+002, 3.665450e+001
2.811534e+002, 3.678955e+001
2.816355e+002, 3.688604e+001
2.821176e+002, 3.688110e+001
2.825998e+002, 3.684859e+001
2.830819e+002, 3.699849e+001
2.835640e+002, 3.745866e+001
2.840461e+002, 3.783226e+001
2.845282e+002, 3.804291e+001
2.850103e+002, 3.811840e+001
2.854925e+002, 3.806349e+001
2.859746e+002, 3.786498e+001
2.864567e+002, 3.762679e+001
2.869388e+002, 3.752958e+001
2.874209e+002, 3.760183e+001
2.879030e+002, 3.770072e+001
2.883852e+002, 3.782588e+001
2.888673e+002, 3.795805e+001
2.893494e+002, 3.807016e+001
2.898315e+002, 3.815554e+001
2.903136e+002, 3.823397e+001
2.907957e+002, 3.834304e+001
2.912779e+002, 3.849402e+001
2.917600e+002, 3.857245e+001
2.922421e+002, 3.845945e+001
2.927242e+002, 3.832929e+001
2.932063e+002, 3.836488e+001
2.936884e+002, 3.858830e+001
2.941706e+002, 3.888813e+001
2.946527e+002, 3.922095e+001
2.951348e+002, 3.957200e+001
2.956169e+002, 3.967407e+001
2.960990e+002, 3.924265e+001
2.965811e+002, 3.875794e+001
2.970633e+002, 3.863742e+001
2.975454e+002, 3.887102e+001
2.980275e+002, 3.913287e+001
2.985096e+002, 3.923352e+001
2.989917e+002, 3.915621e+001
2.994738e+002, 3.893874e+001
2.999560e+002, 3.828933e+001
3.004381e+002, 3.776750e+001
3.009202e+002, 3.786080e+001
3.014023e+002, 3.842890e+001
3.018844e+002, 3.880707e+001
3.023665e+002, 3.859947e+001
3.028487e+002, 3.799384e+001
3.033308e+002, 3.757187e+001
3.038129e+002, 3.731710e+001
3.042950e+002, 3.723590e+001
3.047771e+002, 3.748606e+001
3.052592e+002, 3.792319e+001
3.057414e+002, 3.815539e+001
3.062235e+002, 3.800392e+001
3.067056e+002, 3.763646e+001
3.071877e+002, 3.735315e+001
3.076698e+002, 3.713784e+001
3.081519e+002, 3.701756e+001
3.086341e+002, 3.708992e+001
3.091162e+002, 3.724559e+001
3.095983e+002, 3.729026e+001
3.100804e+002, 3.716665e+001
3.105625e+002, 3.695829e+001
3.110446e+002, 3.672193e+001
3.115268e+002, 3.644090e+001
3.120089e+002, 3.633937e+001
3.124910e+002, 3.668707e+001
3.129731e+002, 3.713335e+001
3.134552e+002, 3.719631e+001
3.139373e+002, 3.679364e+001
3.144195e+002, 3.634732e+001
3.149016e+002, 3.627843e+001
3.153837e+002, 3.656041e+001
3.158658e+002, 3.671281e+001
3.163479e+002, 3.659948e+001
3.168300e+002, 3.641186e+001
3.173121e+002, 3.630471e+001
3.177943e+002, 3.627954e+001
3.182764e+002, 3.625661e+001
3.187585e+002, 3.615854e+001
3.192406e+002, 3.602624e+001
3.197227e+002, 3.602911e+001
3.202048e+002, 3.637435e+001
3.206870e+002, 3.664628e+001
3.211691e+002, 3.650874e+001
3.216512e+002, 3.608042e+001
3.221333e+002, 3.579104e+001
3.226154e+002, 3.586809e+001
3.230975e+002, 3.617634e+001
3.235797e+002, 3.637902e+001
3.240618e+002, 3.648923e+001
3.245439e+002, 3.650019e+001
3.250260e+002, 3.629056e+001
3.255081e+002, 3.599639e+001
3.259902e+002, 3.588999e+001
3.264724e+002, 3.607396e+001
3.269545e+002, 3.640694e+001
3.274366e+002, 3.670845e+001
3.279187e+002, 3.700352e+001
3.284008e+002, 3.715895e+001
3.288829e+002, 3.706327e+001
3.293651e+002, 3.685363e+001
3.298472e+002, 3.665288e+001
3.303293e+002, 3.648200e+001
3.308114e+002, 3.639947e+001
3.312935e+002, 3.648827e+001
3.317756e+002, 3.676535e+001
3.322578e+002, 3.700451e+001
3.327399e+002, 3.724489e+001
3.332220e+002, 3.740877e+001
3.337041e+002, 3.740310e+001
3.341862e+002, 3.724477e+001
3.346683e+002, 3.705393e+001
3.351505e+002, 3.688374e+001
3.356326e+002, 3.675753e+001
3.361147e+002, 3.680198e+001
3.365968e+002, 3.723043e+001
3.370789e+002, 3.758667e+001
3.375610e+002, 3.768580e+001
3.380432e+002, 3.756782e+001
3.385253e+002, 3.729904e+001
3.390074e+002, 3.688234e+001
3.394895e+002, 3.639996e+001
3.399716e+002, 3.608855e+001
3.404537e+002, 3.603530e+001
3.409359e+002, 3.596571e+001
3.414180e+002, 3.589522e+001
3.419001e+002, 3.575624e+001
3.423822e+002, 3.539455e+001
3.428643e+002, 3.476685e+001
3.433464e+002, 3.411226e+001
3.438286e+002, 3.378792e+001
3.443107e+002, 3.398366e+001
3.447928e+002, 3.396090e+001
3.452749e+002, 3.347211e+001
3.457570e+002, 3.293307e+001
3.462391e+002, 3.269770e+001
3.467213e+002, 3.277208e+001
3.472034e+002, 3.290147e+001
3.476855e+002, 3.286499e+001
3.481676e+002, 3.265311e+001
3.486497e+002, 3.242570e+001
3.491318e+002, 3.213012e+001
3.496140e+002, 3.187397e+001
3.500961e+002, 3.168515e+001
3.505782e+002, 3.157352e+001
3.510603e+002, 3.157612e+001
3.515424e+002, 3.173126e+001
3.520245e+002, 3.198136e+001
3.525067e+002, 3.207584e+001
3.529888e+002, 3.183805e+001
3.534709e+002, 3.166417e+001
3.539530e+002, 3.157029e+001
3.544351e+002, 3.157705e+001
3.549172e+002, 3.176097e+001
3.553994e+002, 3.214029e+001
3.558815e+002, 3.255850e+001
3.563636e+002, 3.273813e+001
3.568457e+002, 3.246429e+001
3.573278e+002, 3.238945e+001
3.578099e+002, 3.259391e+001
3.582920e+002, 3.291615e+001
3.587741e+002, 3.330598e+001
3.592563e+002, 3.372367e+001
3.597384e+002, 3.407263e+001
3.602205e+002, 3.423768e+001
3.607026e+002, 3.418179e+001
3.611847e+002, 3.430594e+001
3.616668e+002, 3.473565e+001
3.621490e+002, 3.520112e+001
3.626311e+002, 3.561585e+001
3.631132e+002, 3.600184e+001
3.635953e+002, 3.641685e+001
3.640774e+002, 3.690186e+001
3.645595e+002, 3.742836e+001
3.650417e+002, 3.786781e+001
3.655238e+002, 3.807207e+001
3.660059e+002, 3.839653e+001
3.664880e+002, 3.893726e+001
3.669701e+002, 3.958086e+001
3.674522e+002, 4.020727e+001
3.679344e+002, 4.077846e+001
3.684165e+002, 4.136342e+001
3.688986e+002, 4.211078e+001
3.693807e+002, 4.316024e+001
3.698628e+002, 4.397950e+001
3.703449e+002, 4.434832e+001
3.708271e+002, 4.467086e+001
3.713092e+002, 4.519274e+001
3.717913e+002, 4.588945e+001
3.722734e+002, 4.657121e+001
3.727555e+002, 4.707619e+001
3.732376e+002, 4.740695e+001
3.737198e+002, 4.765209e+001
3.742019e+002, 4.770935e+001
3.746840e+002, 4.780709e+001
3.751661e+002, 4.806989e+001
3.756482e+002, 4.840941e+001
3.761303e+002, 4.869347e+001
3.766125e+002, 4.886434e+001
3.770946e+002, 4.893259e+001
3.775767e+002, 4.890662e+001
3.780588e+002, 4.875145e+001
3.785409e+002, 4.859998e+001
3.790230e+002, 4.853175e+001
3.795052e+002, 4.845515e+001
3.799873e+002, 4.829797e+001
3.804694e+002, 4.804576e+001
3.809515e+002, 4.773188e+001
3.814336e+002, 4.739497e+001
3.819157e+002, 4.703362e+001
3.823979e+002, 4.660600e+001
3.828800e+002, 4.608973e+001
3.833621e+002, 4.551857e+001
3.838442e+002, 4.491842e+001
3.843263e+002, 4.429115e+001
3.848084e+002, 4.362538e+001
3.852906e+002, 4.284458e+001
3.857727e+002, 4.203941e+001
3.862548e+002, 4.143300e+001
3.867369e+002, 4.106940e+001
3.872190e+002, 4.075429e+001
3.877011e+002, 4.045948e+001
3.881833e+002, 4.011930e+001
3.886654e+002, 3.961621e+001
3.891475e+002, 3.887770e+001
3.896296e+002, 3.806447e+001
3.901117e+002, 3.727781e+001
3.905938e+002, 3.652213e+001
3.910760e+002, 3.584974e+001
3.915581e+002, 3.525661e+001
3.920402e+002, 3.478859e+001
3.925223e+002, 3.453986e+001
3.930044e+002, 3.452668e+001
3.934865e+002, 3.447448e+001
3.939687e+002, 3.426946e+001
3.944508e+002, 3.396170e+001
3.949329e+002, 3.362426e+001
3.954150e+002, 3.326308e+001
3.958971e+002, 3.288204e+001
3.963792e+002, 3.244077e+001
3.968614e+002, 3.196239e+001
3.973435e+002, 3.164735e+001
3.978256e+002, 3.164997e+001
3.983077e+002, 3.168734e+001
3.987898e+002, 3.153528e+001
3.992719e+002, 3.124884e+001
3.997540e+002, 3.104632e+001
4.002361e+002, 3.104743e+001
4.007183e+002, 3.118562e+001
4.012004e+002, 3.127457e+001
4.016825e+002, 3.131599e+001
4.021646e+002, 3.131569e+001
4.026467e+002, 3.121687e+001
4.031288e+002, 3.110311e+001
4.036110e+002, 3.108217e+001
4.040931e+002, 3.117521e+001
4.045752e+002, 3.131420e+001
4.050573e+002, 3.143253e+001
4.055394e+002, 3.154588e+001
4.060215e+002, 3.153565e+001
4.065037e+002, 3.130157e+001
4.069858e+002, 3.105666e+001
4.074679e+002, 3.090250e+001
4.079500e+002, 3.082447e+001
4.084321e+002, 3.077175e+001
4.089142e+002, 3.071746e+001
4.093964e+002, 3.064937e+001
4.098785e+002, 3.050776e+001
4.103606e+002, 3.015702e+001
4.108427e+002, 2.991089e+001
4.113248e+002, 2.985111e+001
4.118069e+002, 2.987399e+001
4.122891e+002, 2.990338e+001
4.127712e+002, 2.991004e+001
4.132533e+002, 2.987340e+001
4.137354e+002, 2.975221e+001
4.142175e+002, 2.951349e+001
4.146996e+002, 2.932035e+001
4.151818e+002, 2.918659e+001
4.156639e+002, 2.908848e+001
4.161460e+002, 2.900594e+001
4.166281e+002, 2.895232e+001
4.171102e+002, 2.897008e+001
4.175923e+002, 2.910956e+001
4.180745e+002, 2.931840e+001
4.185566e+002, 2.940348e+001
4.190387e+002, 2.929223e+001
4.195208e+002, 2.921775e+001
4.200029e+002, 2.920708e+001
4.204850e+002, 2.928584e+001
4.209672e+002, 2.952734e+001
4.214493e+002, 2.995448e+001
4.219314e+002, 3.038021e+001
4.224135e+002, 3.056180e+001
4.228956e+002, 3.051609e+001
4.233777e+002, 3.060733e+001
4.238599e+002, 3.094312e+001
4.243420e+002, 3.135737e+001
4.248241e+002, 3.169654e+001
4.253062e+002, 3.199405e+001
4.257883e+002, 3.237846e+001
4.262704e+002, 3.299607e+001
4.267526e+002, 3.369071e+001
4.272347e+002, 3.418215e+001
4.277168e+002, 3.445661e+001
4.281989e+002, 3.480270e+001
4.286810e+002, 3.536998e+001
4.291631e+002, 3.611719e+001
4.296453e+002, 3.692312e+001
4.301274e+002, 3.782916e+001
4.306095e+002, 3.870073e+001
4.310916e+002, 3.944586e+001
4.315737e+002, 4.010937e+001
4.320558e+002, 4.078880e+001
4.325380e+002, 4.150713e+001
4.330201e+002, 4.222748e+001
4.335022e+002, 4.291477e+001
4.339843e+002, 4.356705e+001
4.344664e+002, 4.415630e+001
4.349485e+002, 4.465524e+001
4.354307e+002, 4.511283e+001
4.359128e+002, 4.556533e+001
4.363949e+002, 4.600403e+001
4.368770e+002, 4.639714e+001
4.373591e+002, 4.672741e+001
4.378412e+002, 4.699548e+001
4.383234e+002, 4.719656e+001
4.388055e+002, 4.729683e+001
4.392876e+002, 4.737221e+001
4.397697e+002, 4.747884e+001
4.402518e+002, 4.753383e+001
4.407339e+002, 4.743081e+001
4.412160e+002, 4.716367e+001
4.416982e+002, 4.684169e+001
4.421803e+002, 4.659974e+001
4.426624e+002, 4.646220e+001
4.431445e+002, 4.622276e+001
4.436266e+002, 4.577740e+001
4.441087e+002, 4.533752e+001
4.445909e+002, 4.487177e+001
4.450730e+002, 4.447649e+001
4.455551e+002, 4.434794e+001
4.460372e+002, 4.462243e+001
4.465193e+002, 4.504507e+001
4.470014e+002, 4.501098e+001
4.474836e+002, 4.434836e+001
4.479657e+002, 4.374080e+001
4.484478e+002, 4.337335e+001
4.489299e+002, 4.305347e+001
4.494120e+002, 4.266486e+001
4.498941e+002, 4.220063e+001
4.503763e+002, 4.172001e+001
4.508584e+002, 4.117990e+001
4.513405e+002, 4.064307e+001
4.518226e+002, 4.046719e+001
4.523047e+002, 4.083710e+001
4.527868e+002, 4.112152e+001
4.532690e+002, 4.086409e+001
4.537511e+002, 4.030433e+001
4.542332e+002, 3.975247e+001
4.547153e+002, 3.927923e+001
4.551974e+002, 3.881836e+001
4.556795e+002, 3.821929e+001
4.561617e+002, 3.755790e+001
4.566438e+002, 3.720654e+001
4.571259e+002, 3.736464e+001
4.576080e+002, 3.766725e+001
4.580901e+002, 3.762093e+001
4.585722e+002, 3.723571e+001
4.590544e+002, 3.684785e+001
4.595365e+002, 3.650647e+001
4.600186e+002, 3.619494e+001
4.605007e+002, 3.589694e+001
4.609828e+002, 3.561411e+001
4.614649e+002, 3.537710e+001
4.619471e+002, 3.522653e+001
4.624292e+002, 3.511233e+001
4.629113e+002, 3.481553e+001
4.633934e+002, 3.413070e+001
4.638755e+002, 3.354512e+001
4.643576e+002, 3.310857e+001
4.648398e+002, 3.279467e+001
4.653219e+002, 3.260799e+001
4.658040e+002, 3.253288e+001
4.662861e+002, 3.250179e+001
4.667682e+002, 3.245196e+001
4.672503e+002, 3.239024e+001
4.677325e+002, 3.223412e+001
4.682146e+002, 3.183953e+001
4.686967e+002, 3.150355e+001
4.691788e+002, 3.137924e+001
4.696609e+002, 3.134458e+001
4.701430e+002, 3.118099e+001
4.706252e+002, 3.078412e+001
4.711073e+002, 3.034580e+001
4.715894e+002, 3.025597e+001
4.720715e+002, 3.062692e+001
4.725536e+002, 3.085604e+001
4.730357e+002, 3.090593e+001
4.735179e+002, 3.073352e+001
4.740000e+002, 3.014748e+001
4.744821e+002, 2.927020e+001
4.749642e+002, 2.855540e+001
4.754463e+002, 2.839158e+001
4.759284e+002, 2.853327e+001
4.764106e+002, 2.841490e+001
4.768927e+002, 2.799074e+001
4.773748e+002, 2.759713e+001
4.778569e+002, 2.739453e+001
4.783390e+002, 2.731736e+001
4.788211e+002, 2.726118e+001
4.793033e+002, 2.722828e+001
4.797854e+002, 2.719336e+001
4.802675e+002, 2.720384e+001
4.807496e+002, 2.718835e+001
4.812317e+002, 2.694195e+001
4.817138e+002, 2.641517e+001
4.821959e+002, 2.596668e+001
4.826780e+002, 2.597179e+001
4.831602e+002, 2.642053e+001
4.836423e+002, 2.660380e+001
4.841244e+002, 2.623007e+001
4.846065e+002, 2.592384e+001
4.850886e+002, 2.598691e+001
4.855707e+002, 2.627972e+001
4.860529e+002, 2.655352e+001
4.865350e+002, 2.671576e+001
4.870171e+002, 2.682760e+001
4.874992e+002, 2.698668e+001
4.879813e+002, 2.720734e+001
4.884634e+002, 2.744213e+001
4.889456e+002, 2.763342e+001
4.894277e+002, 2.788973e+001
4.899098e+002, 2.829742e+001
4.903919e+002, 2.881105e+001
4.908740e+002, 2.932109e+001
4.913561e+002, 2.975602e+001
4.918383e+002, 3.015525e+001
4.923204e+002, 3.063771e+001
4.928025e+002, 3.124435e+001
4.932846e+002, 3.181767e+001
4.937667e+002, 3.230104e+001
4.942488e+002, 3.275310e+001
4.947310e+002, 3.322840e+001
4.952131e+002, 3.372048e+001
4.956952e+002, 3.415698e+001
4.961773e+002, 3.447626e+001
4.966594e+002, 3.469976e+001
4.971415e+002, 3.488062e+001
4.976237e+002, 3.501927e+001
4.981058e+002, 3.511934e+001
4.985879e+002, 3.519304e+001
4.990700e+002, 3.522209e+001
4.995521e+002, 3.518126e+001
5.000342e+002, 3.507023e+001
5.005164e+002, 3.488699e+001
5.009985e+002, 3.456310e+001
5.014806e+002, 3.418308e+001
5.019627e+002, 3.390225e+001
5.024448e+002, 3.375381e+001
5.029269e+002, 3.365844e+001
5.034091e+002, 3.357078e+001
5.038912e+002, 3.349088e+001
5.043733e+002, 3.322154e+001
5.048554e+002, 3.257571e+001
5.053375e+002, 3.197235e+001
5.058196e+002, 3.158551e+001
5.063018e+002, 3.132873e+001
5.067839e+002, 3.106267e+001
5.072660e+002, 3.073783e+001
5.077481e+002, 3.041239e+001
5.082302e+002, 3.018453e+001
5.087123e+002, 3.008831e+001
5.091945e+002, 2.996550e+001
5.096766e+002, 2.988282e+001
5.101587e+002, 2.970631e+001
5.106408e+002, 2.925687e+001
5.111229e+002, 2.869190e+001
5.116050e+002, 2.833028e+001
5.120872e+002, 2.836612e+001
5.125693e+002, 2.856189e+001
5.130514e+002, 2.847006e+001
5.135335e+002, 2.804984e+001
5.140156e+002, 2.764924e+001
5.144977e+002, 2.731855e+001
5.149799e+002, 2.705759e+001
5.154620e+002, 2.687534e+001
5.159441e+002, 2.676315e+001
5.164262e+002, 2.666623e+001
5.169083e+002, 2.660280e+001
5.173904e+002, 2.651795e+001
5.178726e+002, 2.630431e+001
5.183547e+002, 2.597379e+001
5.188368e+002, 2.569986e+001
5.193189e+002, 2.557889e+001
5.198010e+002, 2.554579e+001
5.202831e+002, 2.545584e+001
5.207653e+002, 2.529176e+001
5.212474e+002, 2.513410e+001
5.217295e+002, 2.496850e+001
5.222116e+002, 2.483441e+001
5.226937e+002, 2.479896e+001
5.231758e+002, 2.484231e+001
5.236580e+002, 2.486365e+001
5.241401e+002, 2.479086e+001
5.246222e+002, 2.463621e+001
5.251043e+002, 2.445935e+001
5.255864e+002, 2.428143e+001
5.260685e+002, 2.404791e+001
5.265507e+002, 2.367460e+001
5.270328e+002, 2.330096e+001
5.275149e+002, 2.307272e+001
5.279970e+002, 2.298446e+001
5.284791e+002, 2.288545e+001
5.289612e+002, 2.261415e+001
5.294434e+002, 2.221272e+001
5.299255e+002, 2.194888e+001
5.304076e+002, 2.188091e+001
5.308897e+002, 2.181736e+001
5.313718e+002, 2.166375e+001
5.318539e+002, 2.147896e+001
5.323361e+002, 2.132900e+001
5.328182e+002, 2.123154e+001
5.333003e+002, 2.111355e+001
5.337824e+002, 2.089019e+001
5.342645e+002, 2.061901e+001
5.347466e+002, 2.040907e+001
5.352288e+002, 2.027217e+001
5.357109e+002, 2.023433e+001
5.361930e+002, 2.036783e+001
5.366751e+002, 2.062214e+001
5.371572e+002, 2.068851e+001
5.376393e+002, 2.042130e+001
5.381215e+002, 2.016279e+001
5.386036e+002, 2.001558e+001
5.390857e+002, 1.992661e+001
5.395678e+002, 1.984981e+001
5.400499e+002, 1.976660e+001
5.405320e+002, 1.963305e+001
5.410142e+002, 1.937537e+001
5.414963e+002, 1.898310e+001
5.419784e+002, 1.882838e+001
5.424604e+002, 1.919932e+001
5.429426e+002, 1.947194e+001
5.434247e+002, 1.945429e+001
5.439068e+002, 1.930647e+001
5.443889e+002, 1.917792e+001
5.448710e+002, 1.911626e+001
5.453531e+002, 1.915849e+001
5.458353e+002, 1.942467e+001
5.463174e+002, 1.988348e+001
5.467995e+002, 2.013336e+001
5.472816e+002, 2.008732e+001
5.477637e+002, 1.997186e+001
5.482458e+002, 1.986368e+001
5.487280e+002, 1.979250e+001
5.492101e+002, 1.982188e+001
5.496922e+002, 1.999036e+001
5.501743e+002, 2.020059e+001
5.506564e+002, 2.041322e+001
5.511385e+002, 2.062054e+001
5.516207e+002, 2.080985e+001
5.521028e+002, 2.097879e+001
5.525849e+002, 2.112063e+001
5.530670e+002, 2.122189e+001
5.535491e+002, 2.128278e+001
5.540313e+002, 2.137220e+001
5.545134e+002, 2.141812e+001
5.549955e+002, 2.157284e+001
5.554776e+002, 2.199196e+001
5.559597e+002, 2.249265e+001
5.564418e+002, 2.284085e+001
5.569240e+002, 2.298258e+001
5.574061e+002, 2.303476e+001
5.578882e+002, 2.312647e+001
5.583703e+002, 2.325854e+001
5.588524e+002, 2.339670e+001
5.593345e+002, 2.361280e+001
5.598167e+002, 2.372260e+001
5.602988e+002, 2.358767e+001
5.607809e+002, 2.336027e+001
5.612630e+002, 2.322038e+001
5.617451e+002, 2.321545e+001
5.622272e+002, 2.327709e+001
5.627094e+002, 2.338564e+001
5.631915e+002, 2.351518e+001
5.636736e+002, 2.358937e+001
5.641557e+002, 2.360653e+001
5.646378e+002, 2.352518e+001
5.651199e+002, 2.325925e+001
5.656021e+002, 2.286886e+001
5.660842e+002, 2.261912e+001
5.665663e+002, 2.254720e+001
5.670484e+002, 2.256064e+001
5.675305e+002, 2.272247e+001
5.680126e+002, 2.290780e+001
5.684948e+002, 2.294909e+001
5.689769e+002, 2.282467e+001
5.694590e+002, 2.262860e+001
5.699411e+002, 2.243487e+001
5.704232e+002, 2.224787e+001
5.709053e+002, 2.216576e+001
5.713875e+002, 2.226526e+001
5.718696e+002, 2.237171e+001
5.723517e+002, 2.246846e+001
5.728338e+002, 2.255372e+001
5.733159e+002, 2.264214e+001
5.737980e+002, 2.272868e+001
5.742802e+002, 2.276600e+001
5.747623e+002, 2.265081e+001
5.752444e+002, 2.244422e+001
5.757265e+002, 2.244451e+001
5.762086e+002, 2.271940e+001
5.766907e+002, 2.291098e+001
5.771729e+002, 2.277197e+001
5.776550e+002, 2.249273e+001
5.781371e+002, 2.239080e+001
5.786192e+002, 2.250818e+001
5.791013e+002, 2.263614e+001
5.795834e+002, 2.275348e+001
5.800656e+002, 2.280639e+001
5.805477e+002, 2.265777e+001
5.810298e+002, 2.234670e+001
5.815119e+002, 2.214867e+001
5.819940e+002, 2.225676e+001
5.824761e+002, 2.257021e+001
5.829583e+002, 2.274633e+001
5.834404e+002, 2.271347e+001
5.839225e+002, 2.264263e+001
5.844046e+002, 2.251005e+001
5.848867e+002, 2.236489e+001
5.853688e+002, 2.222001e+001
5.858510e+002, 2.209014e+001
5.863331e+002, 2.201151e+001
5.868152e+002, 2.202414e+001
5.872973e+002, 2.206935e+001
5.877794e+002, 2.200070e+001
5.882615e+002, 2.179968e+001
5.887437e+002, 2.159949e+001
5.892258e+002, 2.135789e+001
5.897079e+002, 2.121359e+001
5.901900e+002, 2.138273e+001
5.906721e+002, 2.180064e+001
5.911542e+002, 2.203821e+001
5.916364e+002, 2.176268e+001
5.921185e+002, 2.142684e+001
5.926006e+002, 2.145234e+001
5.930827e+002, 2.173969e+001
5.935648e+002, 2.198133e+001
5.940469e+002, 2.206524e+001
5.945291e+002, 2.207294e+001
5.950112e+002, 2.210747e+001
5.954933e+002, 2.215538e+001
5.959754e+002, 2.229907e+001
5.964575e+002, 2.264424e+001
5.969396e+002, 2.295332e+001
5.974218e+002, 2.315464e+001
5.979039e+002, 2.326444e+001
5.983860e+002, 2.328168e+001
5.988681e+002, 2.321195e+001
5.993502e+002, 2.316074e+001
5.998323e+002, 2.328451e+001
6.003145e+002, 2.357550e+001
6.007966e+002, 2.380506e+001
6.012787e+002, 2.395422e+001
6.017608e+002, 2.406053e+001
6.022429e+002, 2.418744e+001
6.027250e+002, 2.426957e+001
6.032072e+002, 2.417540e+001
6.036893e+002, 2.383114e+001
6.041714e+002, 2.348373e+001
6.046535e+002, 2.327372e+001
6.051356e+002, 2.312863e+001
6.056177e+002, 2.294793e+001
6.060999e+002, 2.271996e+001
6.065820e+002, 2.247334e+001
6.070641e+002, 2.222755e+001
6.075462e+002, 2.198312e+001
6.080283e+002, 2.173818e+001
6.085104e+002, 2.144736e+001
6.089926e+002, 2.122640e+001
6.094747e+002, 2.115662e+001
6.099568e+002, 2.109341e+001
6.104389e+002, 2.092189e+001
6.109210e+002, 2.065946e+001
6.114031e+002, 2.039414e+001
6.118853e+002, 2.016569e+001
6.123674e+002, 1.999437e+001
6.128495e+002, 1.995942e+001
6.133316e+002, 2.007959e+001
6.138137e+002, 2.010707e+001
6.142958e+002, 1.995288e+001
6.147780e+002, 1.972362e+001
6.152601e+002, 1.948207e+001
6.157422e+002, 1.924047e+001
6.162243e+002, 1.910048e+001
6.167064e+002, 1.914812e+001
6.171885e+002, 1.923830e+001
6.176707e+002, 1.932772e+001
6.181528e+002, 1.938334e+001
6.186349e+002, 1.930526e+001
6.191170e+002, 1.907074e+001
6.195991e+002, 1.883662e+001
6.200812e+002, 1.879143e+001
6.205634e+002, 1.894647e+001
6.210455e+002, 1.911833e+001
6.215276e+002, 1.935780e+001
6.220097e+002, 1.955002e+001
6.224918e+002, 1.964867e+001
6.229739e+002, 1.970166e+001
6.234561e+002, 1.972153e+001
6.239382e+002, 1.972376e+001
6.244203e+002, 1.981110e+001
6.249023e+002, 2.013534e+001
6.253845e+002, 2.059831e+001
6.258666e+002, 2.091368e+001
6.263487e+002, 2.106233e+001
6.268308e+002, 2.123548e+001
6.273129e+002, 2.153773e+001
6.277950e+002, 2.189949e+001
6.282772e+002, 2.218025e+001
6.287593e+002, 2.235370e+001
6.292414e+002, 2.258130e+001
6.297235e+002, 2.294893e+001
6.302056e+002, 2.332337e+001
6.306877e+002, 2.360128e+001
6.311699e+002, 2.381236e+001
6.316520e+002, 2.403185e+001
6.321341e+002, 2.429302e+001
6.326162e+002, 2.460531e+001
6.330983e+002, 2.503899e+001
6.335804e+002, 2.567770e+001
6.340626e+002, 2.599992e+001
6.345447e+002, 2.575568e+001
6.350268e+002, 2.550549e+001
6.355089e+002, 2.555996e+001
6.359910e+002, 2.574392e+001
6.364731e+002, 2.577006e+001
6.369553e+002, 2.553745e+001
6.374374e+002, 2.529671e+001
6.379195e+002, 2.524841e+001
6.384016e+002, 2.530877e+001
6.388837e+002, 2.534881e+001
6.393658e+002, 2.534873e+001
6.398480e+002, 2.524448e+001
6.403301e+002, 2.497685e+001
6.408122e+002, 2.459432e+001
6.412943e+002, 2.425648e+001
6.417764e+002, 2.400475e+001
6.422585e+002, 2.373990e+001
6.427407e+002, 2.349689e+001
6.432228e+002, 2.321067e+001
6.437049e+002, 2.274279e+001
6.441870e+002, 2.219979e+001
6.446691e+002, 2.184783e+001
6.451512e+002, 2.184432e+001
6.456334e+002, 2.201627e+001
6.461155e+002, 2.211068e+001
6.465976e+002, 2.212783e+001
6.470797e+002, 2.208782e+001
6.475618e+002, 2.198515e+001
6.480439e+002, 2.184358e+001
6.485261e+002, 2.166587e+001
6.490082e+002, 2.146270e+001
6.494903e+002, 2.127281e+001
6.499724e+002, 2.110739e+001
6.504545e+002, 2.094280e+001
6.509366e+002, 2.074139e+001
6.514188e+002, 2.055193e+001
6.519009e+002, 2.047768e+001
6.523830e+002, 2.049898e+001
6.528651e+002, 2.044189e+001
6.533472e+002, 2.015922e+001
6.538293e+002, 1.973855e+001
6.543115e+002, 1.951117e+001
6.547936e+002, 1.954258e+001
6.552757e+002, 1.961005e+001
6.557578e+002, 1.973626e+001
6.562399e+002, 1.984643e+001
6.567220e+002, 1.987152e+001
6.572042e+002, 1.984371e+001
6.576863e+002, 1.986985e+001
6.581684e+002, 2.003614e+001
6.586505e+002, 2.019742e+001
6.591326e+002, 2.023483e+001
6.596147e+002, 2.015725e+001
6.600969e+002, 1.995032e+001
6.605790e+002, 1.960653e+001
6.610611e+002, 1.928931e+001
6.615432e+002, 1.915342e+001
6.620253e+002, 1.917763e+001
6.625074e+002, 1.913447e+001
6.629896e+002, 1.887951e+001
6.634717e+002, 1.875021e+001
6.639538e+002, 1.886219e+001
6.644359e+002, 1.904367e+001
6.649180e+002, 1.918418e+001
6.654001e+002, 1.926616e+001
6.658823e+002, 1.930472e+001
6.663644e+002, 1.931206e+001
6.668465e+002, 1.927678e+001
6.673286e+002, 1.913258e+001
6.678107e+002, 1.888592e+001
6.682928e+002, 1.877662e+001
6.687750e+002, 1.888951e+001
6.692571e+002, 1.907892e+001
6.697392e+002, 1.924018e+001
6.702213e+002, 1.936544e+001
6.707034e+002, 1.940635e+001
6.711855e+002, 1.934737e+001
6.716677e+002, 1.922217e+001
6.721498e+002, 1.893759e+001
6.726319e+002, 1.865387e+001
6.731140e+002, 1.859331e+001
6.735961e+002, 1.874128e+001
6.740782e+002, 1.886468e+001
6.745604e+002, 1.877800e+001
6.750425e+002, 1.854869e+001
6.755246e+002, 1.839072e+001
6.760067e+002, 1.831005e+001
6.764888e+002, 1.827701e+001
6.769709e+002, 1.830976e+001
6.774531e+002, 1.836312e+001
6.779352e+002, 1.842509e+001
6.784173e+002, 1.848111e+001
6.788994e+002, 1.847378e+001
6.793815e+002, 1.834372e+001
6.798636e+002, 1.820701e+001
6.803458e+002, 1.817412e+001
6.808279e+002, 1.816267e+001
6.813100e+002, 1.800393e+001
6.817921e+002, 1.769078e+001
6.822742e+002, 1.741221e+001
6.827563e+002, 1.733688e+001
6.832385e+002, 1.740778e+001
6.837206e+002, 1.732072e+001
6.842027e+002, 1.692211e+001
6.846848e+002, 1.670211e+001
6.851669e+002, 1.686757e+001
6.856490e+002, 1.710640e+001
6.861312e+002, 1.729827e+001
6.866133e+002, 1.741685e+001
6.870954e+002, 1.741395e+001
6.875775e+002, 1.721992e+001
6.880596e+002, 1.698975e+001
6.885417e+002, 1.686522e+001
6.890239e+002, 1.680931e+001
6.895060e+002, 1.672746e+001
6.899881e+002, 1.660352e+001
6.904702e+002, 1.651188e+001
6.909523e+002, 1.652251e+001
6.914344e+002, 1.660453e+001
6.919166e+002, 1.660046e+001
6.923987e+002, 1.645452e+001
6.928808e+002, 1.630847e+001
6.933629e+002, 1.612091e+001
6.938450e+002, 1.597957e+001
6.943271e+002, 1.594298e+001
6.948093e+002, 1.599598e+001
6.952914e+002, 1.610575e+001
6.957735e+002, 1.628279e+001
6.962556e+002, 1.643300e+001
6.967377e+002, 1.640605e+001
6.972198e+002, 1.626155e+001
6.977020e+002, 1.623848e+001
6.981841e+002, 1.638281e+001
6.986662e+002, 1.649198e+001
6.991483e+002, 1.640992e+001
6.996304e+002, 1.619192e+001
7.001125e+002, 1.604962e+001
7.005947e+002, 1.605623e+001
7.010768e+002, 1.602863e+001
7.015589e+002, 1.597484e+001
7.020410e+002, 1.587713e+001
7.025231e+002, 1.564180e+001
7.030052e+002, 1.536751e+001
7.034874e+002, 1.526994e+001
7.039695e+002, 1.545395e+001
7.044516e+002, 1.572919e+001
7.049337e+002, 1.585595e+001
7.054158e+002, 1.586684e+001
7.058979e+002, 1.595571e+001
7.063801e+002, 1.616669e+001
7.068622e+002, 1.625394e+001
7.073442e+002, 1.601301e+001
7.078264e+002, 1.559741e+001
7.083085e+002, 1.541025e+001
7.087906e+002, 1.556404e+001
7.092727e+002, 1.564463e+001
7.097548e+002, 1.558563e+001
7.102369e+002, 1.548446e+001
7.107191e+002, 1.538790e+001
7.112012e+002, 1.529366e+001
7.116833e+002, 1.516873e+001
7.121654e+002, 1.500324e+001
7.126475e+002, 1.488156e+001
7.131296e+002, 1.494926e+001
7.136118e+002, 1.515885e+001
7.140939e+002, 1.523149e+001
7.145760e+002, 1.513872e+001
7.150581e+002, 1.504526e+001
7.155402e+002, 1.505038e+001
7.160223e+002, 1.507079e+001
7.165045e+002, 1.492187e+001
7.169866e+002, 1.454555e+001
7.174687e+002, 1.436332e+001
7.179508e+002, 1.456930e+001
7.184329e+002, 1.480808e+001
7.189150e+002, 1.493578e+001
7.193972e+002, 1.497080e+001
7.198793e+002, 1.494768e+001
7.203614e+002, 1.487906e+001
7.208435e+002, 1.477017e+001
7.213256e+002, 1.458974e+001
7.218077e+002, 1.438075e+001
7.222899e+002, 1.434833e+001
7.227720e+002, 1.452121e+001
7.232541e+002, 1.462671e+001
7.237362e+002, 1.456054e+001
7.242183e+002, 1.441854e+001
7.247004e+002, 1.427974e+001
7.251826e+002, 1.414522e+001
7.256647e+002, 1.412099e+001
7.261468e+002, 1.436873e+001
7.266289e+002, 1.454053e+001
7.271110e+002, 1.448290e+001
7.275931e+002, 1.430040e+001
7.280753e+002, 1.406799e+001
7.285574e+002, 1.382721e+001
7.290395e+002, 1.365741e+001
7.295216e+002, 1.363460e+001
7.300037e+002, 1.368767e+001
7.304858e+002, 1.363107e+001
7.309680e+002, 1.345846e+001
7.314501e+002, 1.337523e+001
7.319322e+002, 1.345072e+001
7.324143e+002, 1.355219e+001
7.328964e+002, 1.355622e+001
7.333785e+002, 1.349187e+001
7.338607e+002, 1.351375e+001
7.343428e+002, 1.371095e+001
7.348249e+002, 1.385553e+001
7.353070e+002, 1.389735e+001
7.357891e+002, 1.387265e+001
7.362712e+002, 1.378711e+001
7.367534e+002, 1.366291e+001
7.372355e+002, 1.354373e+001
7.377176e+002, 1.345049e+001
7.381997e+002, 1.336823e+001
7.386818e+002, 1.326955e+001
7.391639e+002, 1.315819e+001
7.396461e+002, 1.305198e+001
7.401282e+002, 1.293333e+001
7.406103e+002, 1.292218e+001
7.410924e+002, 1.315883e+001
7.415745e+002, 1.349361e+001
7.420566e+002, 1.356008e+001
7.425388e+002, 1.324129e+001
7.430209e+002, 1.308182e+001
7.435030e+002, 1.331510e+001
7.439851e+002, 1.352061e+001
7.444672e+002, 1.341175e+001
7.449493e+002, 1.315353e+001
7.454315e+002, 1.302310e+001
7.459136e+002, 1.309344e+001
7.463957e+002, 1.321081e+001
7.468778e+002, 1.322513e+001
7.473599e+002, 1.317121e+001
7.478420e+002, 1.313910e+001
7.483242e+002, 1.312771e+001
7.488063e+002, 1.321149e+001
7.492884e+002, 1.345952e+001
7.497705e+002, 1.370062e+001
7.502526e+002, 1.370679e+001
7.507347e+002, 1.345839e+001
7.512169e+002, 1.334871e+001
7.516990e+002, 1.354751e+001
7.521811e+002, 1.365280e+001
7.526632e+002, 1.347777e+001
7.531453e+002, 1.324376e+001
7.536274e+002, 1.316016e+001
7.541096e+002, 1.322045e+001
7.545917e+002, 1.328612e+001
7.550738e+002, 1.328148e+001
7.555559e+002, 1.324034e+001
7.560380e+002, 1.318185e+001
7.565201e+002, 1.312316e+001
7.570023e+002, 1.314630e+001
7.574844e+002, 1.326685e+001
7.579665e+002, 1.344242e+001
7.584486e+002, 1.366832e+001
7.589307e+002, 1.390279e+001
7.594128e+002, 1.400257e+001
7.598950e+002, 1.385905e+001
7.603771e+002, 1.377715e+001
7.608592e+002, 1.377710e+001
7.613413e+002, 1.381287e+001
7.618234e+002, 1.388395e+001
7.623055e+002, 1.396870e+001
7.627877e+002, 1.403429e+001
7.632698e+002, 1.407071e+001
7.637519e+002, 1.410787e+001
7.642340e+002, 1.418506e+001
7.647161e+002, 1.426801e+001
7.651982e+002, 1.429707e+001
7.656804e+002, 1.427788e+001
7.661625e+002, 1.425535e+001
7.666446e+002, 1.424744e+001
7.671267e+002, 1.423035e+001
7.676088e+002, 1.416211e+001
7.680909e+002, 1.403675e+001
7.685731e+002, 1.401122e+001
7.690552e+002, 1.417554e+001
7.695373e+002, 1.429234e+001
7.700194e+002, 1.427195e+001
7.705015e+002, 1.421697e+001
7.709836e+002, 1.422271e+001
7.714658e+002, 1.427281e+001
7.719479e+002, 1.425681e+001
7.724300e+002, 1.402447e+001
7.729121e+002, 1.386533e+001
7.733942e+002, 1.412480e+001
7.738763e+002, 1.452539e+001
7.743585e+002, 1.460244e+001
7.748406e+002, 1.433119e+001
7.753227e+002, 1.399472e+001
7.758048e+002, 1.376899e+001
7.762869e+002, 1.364199e+001
7.767690e+002, 1.360454e+001
7.772512e+002, 1.367629e+001
7.777333e+002, 1.370130e+001
7.782154e+002, 1.363973e+001
7.786975e+002, 1.358809e+001
7.791796e+002, 1.365624e+001
7.796617e+002, 1.374125e+001
7.801439e+002, 1.362700e+001
7.806260e+002, 1.322991e+001
7.811081e+002, 1.301789e+001
7.815902e+002, 1.328408e+001
7.820723e+002, 1.358918e+001
7.825544e+002, 1.368013e+001
7.830366e+002, 1.360398e+001
7.835187e+002, 1.340931e+001
7.840008e+002, 1.313901e+001
7.844829e+002, 1.295209e+001
7.849650e+002, 1.304098e+001
7.854471e+002, 1.329648e+001
7.859293e+002, 1.339317e+001
7.864114e+002, 1.332922e+001
7.868935e+002, 1.318594e+001
7.873756e+002, 1.294604e+001
7.878577e+002, 1.274891e+001
7.883398e+002, 1.275445e+001
7.888220e+002, 1.292860e+001
7.893040e+002, 1.298087e+001
7.897861e+002, 1.279288e+001
7.902682e+002, 1.265961e+001
7.907504e+002, 1.263984e+001
7.912325e+002, 1.264679e+001
7.917146e+002, 1.262097e+001
7.921967e+002, 1.257795e+001
7.926788e+002, 1.256343e+001
7.931609e+002, 1.259639e+001
7.936431e+002, 1.263741e+001
7.941252e+002, 1.265641e+001
7.946073e+002, 1.265811e+001
7.950894e+002, 1.265598e+001
7.955715e+002, 1.264726e+001
7.960536e+002, 1.260290e+001
7.965358e+002, 1.250774e+001
7.970179e+002, 1.240358e+001
7.975000e+002, 1.234815e+001
7.979821e+002, 1.234281e+001
7.984642e+002, 1.234997e+001
7.989464e+002, 1.238905e+001
7.994285e+002, 1.240542e+001
7.999106e+002, 1.240353e+001
8.003927e+002, 1.235899e+001
8.008748e+002, 1.217422e+001
8.013569e+002, 1.190787e+001
8.018391e+002, 1.184477e+001
8.023212e+002, 1.224533e+001
8.028033e+002, 1.259132e+001
8.032854e+002, 1.251506e+001
8.037675e+002, 1.229812e+001
8.042496e+002, 1.229740e+001
8.047318e+002, 1.248951e+001
8.052139e+002, 1.263241e+001
8.056960e+002, 1.259321e+001
8.061781e+002, 1.246532e+001
8.066602e+002, 1.239004e+001
8.071423e+002, 1.236371e+001
8.076245e+002, 1.235012e+001
8.081066e+002, 1.236052e+001
8.085887e+002, 1.230726e+001
8.090708e+002, 1.211338e+001
8.095529e+002, 1.188797e+001
8.100350e+002, 1.179792e+001
8.105172e+002, 1.186489e+001
8.109993e+002, 1.193672e+001
8.114814e+002, 1.213258e+001
8.119635e+002, 1.218242e+001
8.124456e+002, 1.180493e+001
8.129277e+002, 1.139774e+001
8.134099e+002, 1.141618e+001
8.138920e+002, 1.179360e+001
8.143741e+002, 1.206205e+001
8.148562e+002, 1.195013e+001
8.153383e+002, 1.172281e+001
8.158204e+002, 1.161168e+001
8.163026e+002, 1.160474e+001
8.167847e+002, 1.173750e+001
8.172668e+002, 1.198299e+001
8.177489e+002, 1.209648e+001
8.182310e+002, 1.192326e+001
8.187131e+002, 1.162765e+001
8.191953e+002, 1.153850e+001
8.196774e+002, 1.169643e+001
8.201595e+002, 1.181191e+001
8.206416e+002, 1.191230e+001
8.211237e+002, 1.191652e+001
8.216058e+002, 1.167586e+001
8.220880e+002, 1.140728e+001
8.225701e+002, 1.135646e+001
8.230522e+002, 1.152021e+001
8.235343e+002, 1.172448e+001
8.240164e+002, 1.206241e+001
8.244985e+002, 1.228099e+001
8.249807e+002, 1.217627e+001
8.254628e+002, 1.195647e+001
8.259449e+002, 1.187726e+001
8.264270e+002, 1.192216e+001
8.269091e+002, 1.187607e+001
8.273912e+002, 1.159464e+001
8.278734e+002, 1.128269e+001
8.283555e+002, 1.127286e+001
8.288376e+002, 1.148727e+001
8.293197e+002, 1.157937e+001
8.298018e+002, 1.151760e+001
8.302839e+002, 1.151348e+001
8.307661e+002, 1.169260e+001
8.312482e+002, 1.192129e+001
8.317303e+002, 1.197132e+001
8.322124e+002, 1.181068e+001
8.326945e+002, 1.170320e+001
8.331766e+002, 1.166609e+001
8.336588e+002, 1.166017e+001
8.341409e+002, 1.177751e+001
8.346230e+002, 1.184123e+001
8.351051e+002, 1.163594e+001
8.355872e+002, 1.122393e+001
8.360693e+002, 1.093380e+001
8.365515e+002, 1.089634e+001
8.370336e+002, 1.094868e+001
8.375157e+002, 1.105891e+001
8.379978e+002, 1.117356e+001
8.384799e+002, 1.123364e+001
8.389620e+002, 1.123878e+001
8.394442e+002, 1.120608e+001
8.399263e+002, 1.114344e+001
8.404084e+002, 1.107359e+001
8.408905e+002, 1.102847e+001
8.413726e+002, 1.100438e+001
8.418547e+002, 1.097361e+001
8.423369e+002, 1.093329e+001
8.428190e+002, 1.093682e+001
8.433011e+002, 1.101884e+001
8.437832e+002, 1.110649e+001
8.442653e+002, 1.110460e+001
8.447474e+002, 1.101663e+001
8.452296e+002, 1.099604e+001
8.457117e+002, 1.115312e+001
8.461938e+002, 1.121438e+001
8.466759e+002, 1.104094e+001
8.471580e+002, 1.087655e+001
8.476401e+002, 1.095214e+001
8.481223e+002, 1.114061e+001
8.486044e+002, 1.110951e+001
8.490865e+002, 1.070780e+001
8.495686e+002, 1.038543e+001
8.500507e+002, 1.046658e+001
8.505328e+002, 1.067953e+001
8.510150e+002, 1.076588e+001
8.514971e+002, 1.075035e+001
8.519792e+002, 1.074767e+001
8.524613e+002, 1.078653e+001
8.529434e+002, 1.077549e+001
8.534255e+002, 1.060389e+001
8.539077e+002, 1.033197e+001
8.543898e+002, 1.013365e+001
8.548719e+002, 1.000841e+001
8.553540e+002, 9.998882e+000
8.558361e+002, 1.013954e+001
8.563182e+002, 1.028535e+001
8.568004e+002, 1.033130e+001
8.572825e+002, 1.029738e+001
8.577646e+002, 1.024527e+001
8.582467e+002, 1.015958e+001
8.587288e+002, 1.008944e+001
8.592109e+002, 1.005162e+001
8.596931e+002, 1.000928e+001
8.601752e+002, 9.921982e+000
8.606573e+002, 9.838541e+000
8.611394e+002, 9.839972e+000
8.616215e+002, 9.927584e+000
8.621036e+002, 9.968243e+000
8.625858e+002, 9.811169e+000
8.630679e+002, 9.694675e+000
8.635500e+002, 9.850837e+000
8.640321e+002, 1.011213e+001
8.645142e+002, 1.027784e+001
8.649963e+002, 1.030682e+001
8.654785e+002, 1.016788e+001
8.659606e+002, 9.822356e+000
8.664427e+002, 9.465398e+000
8.669248e+002, 9.433865e+000
8.674069e+002, 9.667538e+000
8.678890e+002, 9.869400e+000
8.683712e+002, 1.002351e+001
8.688533e+002, 1.007963e+001
8.693354e+002, 1.000006e+001
8.698175e+002, 9.871291e+000
8.702996e+002, 9.806939e+000
8.707817e+002, 9.807297e+000
8.712639e+002, 9.818344e+000
8.717459e+002, 9.884814e+000
8.722280e+002, 9.883029e+000
8.727101e+002, 9.673797e+000
8.731923e+002, 9.501796e+000
8.736744e+002, 9.595651e+000
8.741565e+002, 9.829927e+000
8.746386e+002, 9.870047e+000
8.751207e+002, 9.569867e+000
8.756028e+002, 9.360635e+000
8.760850e+002, 9.483453e+000
8.765671e+002, 9.663867e+000
8.770492e+002, 9.695802e+000
8.775313e+002, 9.642450e+000
8.780134e+002, 9.655415e+000
8.784955e+002, 9.754720e+000
8.789777e+002, 9.791309e+000
8.794598e+002, 9.596622e+000
8.799419e+002, 9.334721e+000
8.804240e+002, 9.270316e+000
8.809061e+002, 9.371820e+000
8.813882e+002, 9.570083e+000
8.818704e+002, 9.841689e+000
8.823525e+002, 1.001564e+001
8.828346e+002, 9.975030e+000
8.833167e+002, 9.804905e+000
8.837988e+002, 9.673024e+000
8.842809e+002, 9.578947e+000
8.847631e+002, 9.523446e+000
8.852452e+002, 9.505275e+000
8.857273e+002, 9.531682e+000
8.862094e+002, 9.631175e+000
8.866915e+002, 9.749668e+000
8.871736e+002, 9.837223e+000
8.876558e+002, 9.892775e+000
8.881379e+002, 9.906892e+000
8.886200e+002, 9.879824e+000
8.891021e+002, 9.810603e+000
8.895842e+002, 9.622526e+000
8.900663e+002, 9.463872e+000
8.905485e+002, 9.475439e+000
8.910306e+002, 9.583357e+000
8.915127e+002, 9.619523e+000
8.919948e+002, 9.533891e+000
8.924769e+002, 9.477109e+000
8.929590e+002, 9.580738e+000
8.934412e+002, 9.731503e+000
8.939233e+002, 9.791568e+000
8.944054e+002, 9.808906e+000
8.948875e+002, 9.929639e+000
8.953696e+002, 1.015573e+001
8.958517e+002, 1.028669e+001
8.963339e+002, 1.015318e+001
8.968160e+002, 9.902762e+000
8.972981e+002, 9.839683e+000
8.977802e+002, 9.945723e+000
8.982623e+002, 1.005319e+001
8.987444e+002, 1.015249e+001
8.992266e+002, 1.017604e+001
8.997087e+002, 1.007880e+001
9.001908e+002, 9.922411e+000
9.006729e+002, 9.780348e+000
9.011550e+002, 9.646787e+000
9.016371e+002, 9.669879e+000
9.021193e+002, 9.969206e+000
9.026014e+002, 1.020342e+001
9.030835e+002, 1.028220e+001
9.035656e+002, 1.030288e+001
9.040477e+002, 1.031568e+001
9.045298e+002, 1.032383e+001
9.050120e+002, 1.033903e+001
9.054941e+002, 1.038101e+001
9.059762e+002, 1.037684e+001
9.064583e+002, 1.028908e+001
9.069404e+002, 1.017134e+001
9.074225e+002, 1.000391e+001
9.079047e+002, 9.854416e+000
9.083868e+002, 9.788623e+000
9.088689e+002, 9.828905e+000
9.093510e+002, 1.001606e+001
9.098331e+002, 1.049046e+001
9.103152e+002, 1.093512e+001
9.107974e+002, 1.093953e+001
9.112795e+002, 1.072073e+001
9.117616e+002, 1.070848e+001
9.122437e+002, 1.089542e+001
9.127258e+002, 1.099140e+001
9.132079e+002, 1.085879e+001
9.136901e+002, 1.063913e+001
9.141722e+002, 1.048659e+001
9.146543e+002, 1.041274e+001
9.151364e+002, 1.052285e+001
9.156185e+002, 1.082624e+001
9.161006e+002, 1.102959e+001
9.165828e+002, 1.103840e+001
9.170649e+002, 1.103961e+001
9.175470e+002, 1.120325e+001
9.180291e+002, 1.146928e+001
9.185112e+002, 1.161799e+001
9.189933e+002, 1.161715e+001
9.194755e+002, 1.158210e+001
9.199576e+002, 1.149481e+001
9.204397e+002, 1.139990e+001
9.209218e+002, 1.124678e+001
9.214039e+002, 1.113949e+001
9.218860e+002, 1.120593e+001
9.223682e+002, 1.144258e+001
9.228503e+002, 1.172064e+001
9.233324e+002, 1.216750e+001
9.238145e+002, 1.245758e+001
9.242966e+002, 1.238547e+001
9.247787e+002, 1.222331e+001
9.252609e+002, 1.211952e+001
9.257430e+002, 1.211267e+001
9.262251e+002, 1.226142e+001
9.267072e+002, 1.258729e+001
9.271893e+002, 1.290994e+001
9.276714e+002, 1.311737e+001
9.281536e+002, 1.325639e+001
9.286357e+002, 1.332799e+001
9.291178e+002, 1.338509e+001
9.295999e+002, 1.355031e+001
9.300820e+002, 1.382099e+001
9.305641e+002, 1.404645e+001
9.310463e+002, 1.411635e+001
9.315284e+002, 1.417548e+001
9.320105e+002, 1.450313e+001
9.324926e+002, 1.501891e+001
9.329747e+002, 1.537857e+001
9.334568e+002, 1.557078e+001
9.339390e+002, 1.573010e+001
9.344211e+002, 1.589756e+001
9.349032e+002, 1.613083e+001
9.353853e+002, 1.651732e+001
9.358674e+002, 1.700924e+001
9.363495e+002, 1.729074e+001
9.368317e+002, 1.727768e+001
9.373138e+002, 1.743770e+001
9.377959e+002, 1.789152e+001
9.382780e+002, 1.837327e+001
9.387601e+002, 1.873814e+001
9.392422e+002, 1.904577e+001
9.397244e+002, 1.940165e+001
9.402065e+002, 1.980920e+001
9.406886e+002, 2.024021e+001
9.411707e+002, 2.070778e+001
9.416528e+002, 2.118109e+001
9.421349e+002, 2.171527e+001
9.426171e+002, 2.219845e+001
9.430992e+002, 2.251169e+001
9.435813e+002, 2.271340e+001
9.440634e+002, 2.293920e+001
9.445455e+002, 2.319013e+001
9.450276e+002, 2.356514e+001
9.455098e+002, 2.417670e+001
9.459919e+002, 2.484408e+001
9.464740e+002, 2.552785e+001
9.469561e+002, 2.614329e+001
9.474382e+002, 2.654071e+001
9.479203e+002, 2.674417e+001
9.484025e+002, 2.695778e+001
9.488846e+002, 2.726203e+001
9.493667e+002, 2.768820e+001
9.498488e+002, 2.837810e+001
9.503309e+002, 2.914670e+001
9.508130e+002, 2.974579e+001
9.512952e+002, 3.015810e+001
9.517773e+002, 3.034459e+001
9.522594e+002, 3.032201e+001
9.527415e+002, 3.039564e+001
9.532236e+002, 3.090338e+001
9.537057e+002, 3.166048e+001
9.541878e+002, 3.222212e+001
9.546699e+002, 3.261602e+001
9.551520e+002, 3.299039e+001
9.556342e+002, 3.336963e+001
9.561163e+002, 3.390269e+001
9.565984e+002, 3.469778e+001
9.570805e+002, 3.554534e+001
9.575626e+002, 3.607925e+001
9.580447e+002, 3.631151e+001
9.585269e+002, 3.670621e+001
9.590090e+002, 3.729467e+001
9.594911e+002, 3.790355e+001
9.599732e+002, 3.843726e+001
9.604553e+002, 3.913134e+001
9.609374e+002, 4.026090e+001
9.614196e+002, 4.161312e+001
9.619017e+002, 4.257191e+001
9.623838e+002, 4.297839e+001
9.628659e+002, 4.347646e+001
9.633480e+002, 4.405386e+001
9.638301e+002, 4.473886e+001
9.643123e+002, 4.563826e+001
9.647944e+002, 4.656136e+001
9.652765e+002, 4.733038e+001
9.657586e+002, 4.797758e+001
9.662407e+002, 4.867080e+001
9.667228e+002, 4.948539e+001
9.672050e+002, 5.023928e+001
9.676871e+002, 5.092233e+001
9.681692e+002, 5.150490e+001
9.686513e+002, 5.180797e+001
9.691334e+002, 5.209050e+001
9.696155e+002, 5.271697e+001
9.700977e+002, 5.369924e+001
9.705798e+002, 5.472259e+001
9.710619e+002, 5.571151e+001
9.715440e+002, 5.660171e+001
9.720261e+002, 5.727636e+001
9.725082e+002, 5.789262e+001
9.729904e+002, 5.864760e+001
9.734725e+002, 5.947496e+001
9.739546e+002, 6.016076e+001
9.744367e+002, 6.065737e+001
9.749188e+002, 6.119790e+001
9.754009e+002, 6.200408e+001
9.758831e+002, 6.290749e+001
9.763652e+002, 6.366130e+001
9.768473e+002, 6.434570e+001
9.773294e+002, 6.515359e+001
9.778115e+002, 6.608968e+001
9.782936e+002, 6.703537e+001
9.787758e+002, 6.793917e+001
9.792579e+002, 6.877630e+001
9.797400e+002, 6.950591e+001
9.802221e+002, 7.015218e+001
9.807042e+002, 7.078593e+001
9.811863e+002, 7.139864e+001
9.816685e+002, 7.193164e+001
9.821506e+002, 7.237155e+001
9.826327e+002, 7.273512e+001
9.831148e+002, 7.304234e+001
9.835969e+002, 7.322605e+001
9.840790e+002, 7.309978e+001
9.845612e+002, 7.266060e+001
9.850433e+002, 7.246205e+001
9.855254e+002, 7.254786e+001
9.860075e+002, 7.263404e+001
9.864896e+002, 7.267544e+001
9.869717e+002, 7.260479e+001
9.874539e+002, 7.235426e+001
9.879360e+002, 7.196078e+001
9.884181e+002, 7.153036e+001
9.889002e+002, 7.103496e+001
9.893823e+002, 7.061808e+001
9.898644e+002, 7.037702e+001
9.903466e+002, 7.001926e+001
9.908287e+002, 6.936827e+001
9.913108e+002, 6.865611e+001
9.917929e+002, 6.811979e+001
9.922750e+002, 6.772273e+001
9.927571e+002, 6.725545e+001
9.932393e+002, 6.679433e+001
9.937214e+002, 6.613017e+001
9.942035e+002, 6.509786e+001
9.946856e+002, 6.405172e+001
9.951677e+002, 6.307868e+001
9.956498e+002, 6.219741e+001
9.961320e+002, 6.147362e+001
9.966141e+002, 6.087628e+001
9.970962e+002, 6.020002e+001
9.975783e+002, 5.926050e+001
9.980604e+002, 5.848640e+001
9.985425e+002, 5.823195e+001
9.990247e+002, 5.791970e+001
9.995068e+002, 5.716232e+001
9.999889e+002, 5.613426e+001
1.000471e+003, 5.504595e+001
1.000953e+003, 5.395782e+001
1.001435e+003, 5.301312e+001
1.001917e+003, 5.237165e+001
1.002399e+003, 5.173907e+001
1.002882e+003, 5.093916e+001
1.003364e+003, 5.009218e+001
1.003846e+003, 4.928123e+001
1.004328e+003, 4.851571e+001
1.004810e+003, 4.779725e+001
1.005292e+003, 4.711749e+001
1.005774e+003, 4.640337e+001
1.006256e+003, 4.554067e+001
1.006739e+003, 4.470982e+001
1.007221e+003, 4.413501e+001
1.007703e+003, 4.366673e+001
1.008185e+003, 4.302909e+001
1.008667e+003, 4.230769e+001
1.009149e+003, 4.188657e+001
1.009631e+003, 4.186715e+001
1.010113e+003, 4.174183e+001
1.010595e+003, 4.095990e+001
1.011078e+003, 3.993340e+001
1.011560e+003, 3.930046e+001
1.012042e+003, 3.890575e+001
1.012524e+003, 3.832743e+001
1.013006e+003, 3.758872e+001
1.013488e+003, 3.710294e+001
1.013970e+003, 3.704108e+001
1.014452e+003, 3.700996e+001
1.014935e+003, 3.651497e+001
1.015417e+003, 3.576522e+001
1.015899e+003, 3.530381e+001
1.016381e+003, 3.506777e+001
1.016863e+003, 3.476769e+001
1.017345e+003, 3.436686e+001
1.017827e+003, 3.398575e+001
1.018309e+003, 3.369000e+001
1.018791e+003, 3.338125e+001
1.019274e+003, 3.290852e+001
1.019756e+003, 3.231079e+001
1.020238e+003, 3.174495e+001
1.020720e+003, 3.121558e+001
1.021202e+003, 3.081324e+001
1.021684e+003, 3.055984e+001
1.022166e+003, 3.029218e+001
1.022648e+003, 2.990067e+001
1.023130e+003, 2.952465e+001
1.023613e+003, 2.943707e+001
1.024095e+003, 2.960348e+001
1.024577e+003, 2.939026e+001
1.025059e+003, 2.873179e+001
1.025541e+003, 2.827416e+001
1.026023e+003, 2.817417e+001
1.026505e+003, 2.810124e+001
1.026987e+003, 2.783352e+001
1.027469e+003, 2.750294e+001
1.027952e+003, 2.737265e+001
1.028434e+003, 2.745468e+001
1.028916e+003, 2.740997e+001
1.029398e+003, 2.721598e+001
1.029880e+003, 2.697711e+001
1.030362e+003, 2.672584e+001
1.030844e+003, 2.639379e+001
1.031326e+003, 2.589607e+001
1.031809e+003, 2.533159e+001
1.032291e+003, 2.490080e+001
1.032773e+003, 2.461817e+001
1.033255e+003, 2.434912e+001
1.033737e+003, 2.405566e+001
1.034219e+003, 2.387261e+001
1.034701e+003, 2.395367e+001
1.035183e+003, 2.394875e+001
1.035666e+003, 2.352893e+001
1.036148e+003, 2.292680e+001
1.036630e+003, 2.265510e+001
1.037112e+003, 2.279590e+001
1.037594e+003, 2.280724e+001
1.038076e+003, 2.265740e+001
1.038558e+003, 2.242526e+001
1.039040e+003, 2.202438e+001
1.039522e+003, 2.165427e+001
1.040005e+003, 2.143463e+001
1.040487e+003, 2.133834e+001
1.040969e+003, 2.134961e+001
1.041451e+003, 2.152792e+001
1.041933e+003, 2.149848e+001
1.042415e+003, 2.101334e+001
1.042897e+003, 2.065845e+001
1.043379e+003, 2.063015e+001
1.043861e+003, 2.067570e+001
1.044344e+003, 2.061509e+001
1.044826e+003, 2.051904e+001
1.045308e+003, 2.057915e+001
1.045790e+003, 2.086171e+001
1.046272e+003, 2.090651e+001
1.046754e+003, 2.038605e+001
1.047236e+003, 2.000870e+001
1.047718e+003, 2.010624e+001
1.048201e+003, 2.024773e+001
1.048683e+003, 2.009150e+001
1.049165e+003, 1.978137e+001
1.049647e+003, 1.961613e+001
1.050129e+003, 1.964281e+001
1.050611e+003, 1.964972e+001
1.051093e+003, 1.967000e+001
1.051575e+003, 1.956460e+001
1.052057e+003, 1.906722e+001
1.052540e+003, 1.864658e+001
1.053022e+003, 1.873989e+001
1.053504e+003, 1.911526e+001
1.053986e+003, 1.933099e+001
1.054468e+003, 1.932231e+001
1.054950e+003, 1.928352e+001
1.055432e+003, 1.928318e+001
1.055914e+003, 1.923738e+001
1.056396e+003, 1.906109e+001
1.056879e+003, 1.888378e+001
1.057361e+003, 1.882465e+001
1.057843e+003, 1.882520e+001
1.058325e+003, 1.874449e+001
1.058807e+003, 1.856616e+001
1.059289e+003, 1.850688e+001
1.059771e+003, 1.872136e+001
1.060253e+003, 1.895326e+001
1.060736e+003, 1.915128e+001
1.061218e+003, 1.928644e+001
1.061700e+003, 1.932737e+001
1.062182e+003, 1.929635e+001
1.062664e+003, 1.920901e+001
1.063146e+003, 1.907648e+001
1.063628e+003, 1.898090e+001
1.064110e+003, 1.895217e+001
1.064593e+003, 1.896492e+001
1.065075e+003, 1.905923e+001
1.065557e+003, 1.914109e+001
1.066039e+003, 1.911854e+001
1.066521e+003, 1.904495e+001
1.067003e+003, 1.900094e+001
1.067485e+003, 1.900041e+001
1.067967e+003, 1.902641e+001
1.068449e+003, 1.908033e+001
1.068932e+003, 1.914624e+001
1.069414e+003, 1.921474e+001
1.069896e+003, 1.929484e+001
1.070378e+003, 1.942025e+001
1.070860e+003, 1.954650e+001
1.071342e+003, 1.962339e+001
1.071824e+003, 1.963912e+001
1.072306e+003, 1.958484e+001
1.072788e+003, 1.942538e+001
1.073271e+003, 1.926935e+001
1.073753e+003, 1.912589e+001
1.074235e+003, 1.904733e+001
1.074717e+003, 1.914596e+001
1.075199e+003, 1.928592e+001
1.075681e+003, 1.924407e+001
1.076163e+003, 1.905425e+001
1.076645e+003, 1.900295e+001
1.077127e+003, 1.925899e+001
1.077610e+003, 1.943149e+001
1.078092e+003, 1.928384e+001
1.078574e+003, 1.905172e+001
1.079056e+003, 1.879024e+001
1.079538e+003, 1.860794e+001
1.080020e+003, 1.868078e+001
1.080502e+003, 1.894199e+001
1.080984e+003, 1.913779e+001
1.081467e+003, 1.919151e+001
1.081949e+003, 1.916825e+001
1.082431e+003, 1.902488e+001
1.082913e+003, 1.889746e+001
1.083395e+003, 1.889330e+001
1.083877e+003, 1.892998e+001
1.084359e+003, 1.896644e+001
1.084841e+003, 1.895535e+001
1.085323e+003, 1.876286e+001
1.085806e+003, 1.832343e+001
1.086288e+003, 1.802123e+001
1.086770e+003, 1.809673e+001
1.087252e+003, 1.825306e+001
1.087734e+003, 1.846112e+001
1.088216e+003, 1.857090e+001
1.088698e+003, 1.834595e+001
1.089180e+003, 1.794709e+001
1.089662e+003, 1.774981e+001
1.090145e+003, 1.783085e+001
1.090627e+003, 1.784011e+001
1.091109e+003, 1.751799e+001
1.091591e+003, 1.726778e+001
1.092073e+003, 1.736531e+001
1.092555e+003, 1.750146e+001
1.093037e+003, 1.742546e+001
1.093519e+003, 1.721793e+001
1.094002e+003, 1.702538e+001
1.094484e+003, 1.687340e+001
1.094966e+003, 1.675312e+001
1.095448e+003, 1.666530e+001
1.095930e+003, 1.660466e+001
1.096412e+003, 1.660073e+001
1.096894e+003, 1.658988e+001
1.097376e+003, 1.651510e+001
1.097859e+003, 1.641852e+001
1.098341e+003, 1.635846e+001
1.098823e+003, 1.633648e+001
1.099305e+003, 1.631405e+001
1.099787e+003, 1.626136e+001
1.100269e+003, 1.625199e+001
1.100751e+003, 1.634891e+001
1.101233e+003, 1.644102e+001
1.101715e+003, 1.644202e+001
1.102198e+003, 1.643523e+001
1.102680e+003, 1.657627e+001
1.103162e+003, 1.679281e+001
1.103644e+003, 1.678959e+001
1.104126e+003, 1.645300e+001
1.104608e+003, 1.612525e+001
1.105090e+003, 1.572024e+001
1.105572e+003, 1.552490e+001
1.106054e+003, 1.582159e+001
1.106537e+003, 1.619773e+001
1.107019e+003, 1.635677e+001
1.107501e+003, 1.632790e+001
1.107983e+003, 1.620956e+001
1.108465e+003, 1.600067e+001
1.108947e+003, 1.575166e+001
1.109429e+003, 1.531029e+001
1.109911e+003, 1.505197e+001
1.110394e+003, 1.514305e+001
1.110876e+003, 1.534251e+001
1.111358e+003, 1.560282e+001
1.111840e+003, 1.583333e+001
1.112322e+003, 1.587138e+001
1.112804e+003, 1.570642e+001
1.113286e+003, 1.553541e+001
1.113768e+003, 1.529585e+001
1.114250e+003, 1.515523e+001
1.114733e+003, 1.513846e+001
1.115215e+003, 1.520997e+001
1.115697e+003, 1.548493e+001
1.116179e+003, 1.571841e+001
1.116661e+003, 1.555832e+001
1.117143e+003, 1.507937e+001
1.117625e+003, 1.484575e+001
1.118107e+003, 1.501491e+001
1.118589e+003, 1.505202e+001
1.119072e+003, 1.488412e+001
1.119554e+003, 1.472148e+001
1.120036e+003, 1.462580e+001
1.120518e+003, 1.456219e+001
1.121000e+003, 1.449900e+001
1.121482e+003, 1.444568e+001
1.121964e+003, 1.443485e+001
1.122446e+003, 1.447764e+001
1.122929e+003, 1.449563e+001
1.123411e+003, 1.448760e+001
1.123893e+003, 1.445858e+001
1.124375e+003, 1.440954e+001
1.124857e+003, 1.433346e+001
1.125339e+003, 1.421039e+001
1.125821e+003, 1.409210e+001
1.126303e+003, 1.407724e+001
1.126786e+003, 1.415824e+001
1.127268e+003, 1.419947e+001
1.127750e+003, 1.420029e+001
1.128232e+003, 1.416630e+001
1.128714e+003, 1.409881e+001
1.129196e+003, 1.398155e+001
1.129678e+003, 1.379735e+001
1.130160e+003, 1.362083e+001
1.130642e+003, 1.353930e+001
1.131125e+003, 1.353114e+001
1.131607e+003, 1.352161e+001
1.132089e+003, 1.351211e+001
1.132571e+003, 1.354500e+001
1.133053e+003, 1.361973e+001
1.133535e+003, 1.360525e+001
1.134017e+003, 1.346191e+001
1.134499e+003, 1.334863e+001
1.134981e+003, 1.339445e+001
1.135464e+003, 1.351331e+001
1.135946e+003, 1.357773e+001
1.136428e+003, 1.357830e+001
1.136910e+003, 1.342643e+001
1.137392e+003, 1.316906e+001
1.137874e+003, 1.303796e+001
1.138356e+003, 1.306551e+001
1.138838e+003, 1.315723e+001
1.139321e+003, 1.326533e+001
1.139803e+003, 1.332589e+001
1.140285e+003, 1.323656e+001
1.140767e+003, 1.308166e+001
1.141249e+003, 1.302129e+001
1.141731e+003, 1.301383e+001
1.142213e+003, 1.295027e+001
1.142695e+003, 1.285064e+001
1.143177e+003, 1.283135e+001
1.143660e+003, 1.291937e+001
1.144142e+003, 1.301475e+001
1.144624e+003, 1.306751e+001
1.145106e+003, 1.304921e+001
1.145588e+003, 1.285961e+001
1.146070e+003, 1.263916e+001
1.146552e+003, 1.263483e+001
1.147034e+003, 1.270381e+001
1.147516e+003, 1.248401e+001
1.147999e+003, 1.202556e+001
1.148481e+003, 1.180455e+001
1.148963e+003, 1.205303e+001
1.149445e+003, 1.235662e+001
1.149927e+003, 1.253523e+001
1.150409e+003, 1.258314e+001
1.150891e+003, 1.243051e+001
1.151373e+003, 1.219887e+001
1.151856e+003, 1.195153e+001
1.152338e+003, 1.175323e+001
1.152820e+003, 1.175821e+001
1.153302e+003, 1.199644e+001
1.153784e+003, 1.210416e+001
1.154266e+003, 1.179660e+001
1.154748e+003, 1.157137e+001
1.155230e+003, 1.171349e+001
1.155713e+003, 1.185469e+001
1.156195e+003, 1.172389e+001
1.156677e+003, 1.148408e+001
1.157159e+003, 1.135614e+001
1.157641e+003, 1.133740e+001
1.158123e+003, 1.129851e+001
1.158605e+003, 1.117490e+001
1.159087e+003, 1.114281e+001
1.159569e+003, 1.132410e+001
1.160052e+003, 1.144576e+001
1.160534e+003, 1.143008e+001
1.161016e+003, 1.133616e+001
1.161498e+003, 1.116711e+001
1.161980e+003, 1.097273e+001
1.162462e+003, 1.086397e+001
1.162944e+003, 1.084736e+001
1.163426e+003, 1.085164e+001
1.163908e+003, 1.091440e+001
1.164391e+003, 1.087625e+001
1.164873e+003, 1.067714e+001
1.165355e+003, 1.048561e+001
1.165837e+003, 1.036749e+001
1.166319e+003, 1.033457e+001
1.166801e+003, 1.042907e+001
1.167283e+003, 1.059085e+001
1.167765e+003, 1.054970e+001
1.168247e+003, 1.029710e+001
1.168730e+003, 1.009673e+001
1.169212e+003, 9.960134e+000
1.169694e+003, 9.878701e+000
1.170176e+003, 9.850331e+000
1.170658e+003, 9.905490e+000
1.171140e+003, 1.008084e+001
1.171622e+003, 1.023876e+001
1.172104e+003, 1.011094e+001
1.172587e+003, 9.803414e+000
1.173069e+003, 9.688045e+000
1.173551e+003, 9.708811e+000
1.174033e+003, 9.620503e+000
1.174515e+003, 9.431664e+000
1.174997e+003, 9.398279e+000
1.175479e+003, 9.597692e+000
1.175961e+003, 9.711980e+000
1.176443e+003, 9.405910e+000
1.176926e+003, 9.052294e+000
1.177408e+003, 9.218140e+000
1.177890e+003, 9.555579e+000
1.178372e+003, 9.511544e+000
1.178854e+003, 9.256823e+000
1.179336e+003, 9.231833e+000
1.179818e+003, 9.432779e+000
1.180300e+003, 9.478308e+000
1.180782e+003, 9.187288e+000
1.181265e+003, 8.926505e+000
1.181747e+003, 8.936899e+000
1.182229e+003, 9.029767e+000
1.182711e+003, 9.141922e+000
1.183193e+003, 9.224747e+000
1.183675e+003, 9.235302e+000
1.184157e+003, 9.184587e+000
1.184639e+003, 9.052300e+000
1.185122e+003, 8.850874e+000
1.185604e+003, 8.811216e+000
1.186086e+003, 9.194971e+000
1.186568e+003, 9.404281e+000
1.187050e+003, 9.196979e+000
1.187532e+003, 8.974454e+000
1.188014e+003, 8.879401e+000
1.188496e+003, 8.867723e+000
1.188979e+003, 8.923629e+000
1.189461e+003, 9.020030e+000
1.189943e+003, 9.080683e+000
1.190425e+003, 9.106452e+000
1.190907e+003, 9.083498e+000
1.191389e+003, 8.972179e+000
1.191871e+003, 8.931582e+000
1.192353e+003, 9.015100e+000
1.192835e+003, 9.087319e+000
1.193318e+003, 9.077501e+000
1.193800e+003, 9.029615e+000
1.194282e+003, 8.985189e+000
1.194764e+003, 8.962162e+000
1.195246e+003, 9.023890e+000
1.195728e+003, 9.170560e+000
1.196210e+003, 9.508245e+000
1.196692e+003, 1.001539e+001
1.197174e+003, 1.014725e+001
1.197657e+003, 9.786886e+000
1.198139e+003, 9.410502e+000
1.198621e+003, 9.315258e+000
1.199103e+003, 9.312993e+000
1.199585e+003, 9.062311e+000
1.200067e+003, 8.800489e+000
1.200549e+003, 9.219190e+000
1.201031e+003, 9.909360e+000
1.201514e+003, 9.828759e+000
1.201996e+003, 9.177512e+000
1.202478e+003, 8.900718e+000
1.202960e+003, 9.206370e+000
1.203442e+003, 9.500434e+000
1.203924e+003, 9.442492e+000
1.204406e+003, 9.256008e+000
1.204888e+003, 9.025858e+000
1.205370e+003, 8.827941e+000
1.205853e+003, 8.721932e+000
1.206335e+003, 8.689741e+000
1.206817e+003, 8.735974e+000
1.207299e+003, 8.826242e+000
1.207781e+003, 8.879292e+000
1.208263e+003, 8.875566e+000
1.208745e+003, 8.899570e+000
1.209227e+003, 9.048873e+000
1.209709e+003, 9.111261e+000
1.210192e+003, 8.971313e+000
1.210674e+003, 8.819238e+000
1.211156e+003, 8.720771e+000
1.211638e+003, 8.681275e+000
1.212120e+003, 8.727406e+000
1.212602e+003, 8.833622e+000
1.213084e+003, 8.910467e+000
1.213566e+003, 8.974366e+000
1.214049e+003, 8.885100e+000
1.214531e+003, 8.533602e+000
1.215013e+003, 8.528907e+000
1.215495e+003, 9.093650e+000
1.215977e+003, 9.448271e+000
1.216459e+003, 9.134057e+000
1.216941e+003, 8.664658e+000
1.217423e+003, 8.684394e+000
1.217906e+003, 9.021297e+000
1.218388e+003, 9.150727e+000
1.218870e+003, 9.111720e+000
1.219352e+003, 9.121083e+000
1.219834e+003, 9.161789e+000
1.220316e+003, 9.050213e+000
1.220798e+003, 8.772441e+000
1.221280e+003, 8.512266e+000
1.221762e+003, 8.365306e+000
1.222245e+003, 8.336412e+000
1.222727e+003, 8.511209e+000
1.223209e+003, 8.724274e+000
1.223691e+003, 8.769514e+000
1.224173e+003, 8.750719e+000
1.224655e+003, 8.834723e+000
1.225137e+003, 8.950626e+000
1.225619e+003, 8.899652e+000
1.226101e+003, 8.689168e+000
1.226584e+003, 8.572511e+000
1.227066e+003, 8.664267e+000
1.227548e+003, 8.776795e+000
1.228030e+003, 8.873583e+000
1.228512e+003, 8.942080e+000
1.228994e+003, 9.004704e+000
1.229476e+003, 9.009717e+000
1.229958e+003, 8.858893e+000
1.230441e+003, 8.652206e+000
1.230923e+003, 8.583760e+000
1.231405e+003, 8.647078e+000
1.231887e+003, 8.611747e+000
1.232369e+003, 8.393439e+000
1.232851e+003, 8.346725e+000
1.233333e+003, 8.532496e+000
1.233815e+003, 8.743093e+000
1.234297e+003, 8.940830e+000
1.234780e+003, 9.021792e+000
1.235262e+003, 8.886831e+000
1.235744e+003, 8.694670e+000
1.236226e+003, 8.752307e+000
1.236708e+003, 8.968454e+000
1.237190e+003, 8.894381e+000
1.237672e+003, 8.627167e+000
1.238154e+003, 8.642987e+000
1.238636e+003, 8.920699e+000
1.239119e+003, 9.124101e+000
1.239601e+003, 9.152775e+000
1.240083e+003, 9.076427e+000
1.240565e+003, 8.912613e+000
1.241047e+003, 8.798676e+000
1.241529e+003, 8.949509e+000
1.242011e+003, 9.127010e+000
1.242493e+003, 9.071291e+000
1.242975e+003, 8.924703e+000
1.243458e+003, 8.867617e+000
1.243940e+003, 8.870670e+000
1.244422e+003, 8.821803e+000
1.244904e+003, 8.708364e+000
1.245386e+003, 8.632849e+000
1.245868e+003, 8.607458e+000
1.246350e+003, 8.648587e+000
1.246832e+003, 8.837290e+000
1.247315e+003, 8.986984e+000
1.247797e+003, 9.030966e+000
1.248279e+003, 9.014319e+000
1.248761e+003, 8.904456e+000
1.249243e+003, 8.821049e+000
1.249725e+003, 9.025126e+000
1.250207e+003, 9.485910e+000
1.250689e+003, 9.659696e+000
1.251172e+003, 9.524830e+000
1.251654e+003, 9.291362e+000
1.252136e+003, 8.965895e+000
1.252618e+003, 8.820434e+000
1.253100e+003, 8.935466e+000
1.253582e+003, 9.054616e+000
1.254064e+003, 8.996603e+000
1.254546e+003, 8.905853e+000
1.255028e+003, 9.037996e+000
1.255510e+003, 9.233474e+000
1.255993e+003, 9.146682e+000
1.256475e+003, 8.924856e+000
1.256957e+003, 8.784480e+000
1.257439e+003, 8.772336e+000
1.257921e+003, 8.984159e+000
1.258403e+003, 9.381616e+000
1.258885e+003, 9.687633e+000
1.259367e+003, 9.792974e+000
1.259850e+003, 9.759568e+000
1.260332e+003, 9.522932e+000
1.260814e+003, 9.277529e+000
1.261296e+003, 9.043632e+000
1.261778e+003, 8.908299e+000
1.262260e+003, 9.023785e+000
1.262742e+003, 9.228883e+000
1.263224e+003, 9.244985e+000
1.263707e+003, 9.101264e+000
1.264189e+003, 9.064206e+000
1.264671e+003, 9.203629e+000
1.265153e+003, 9.195520e+000
1.265635e+003, 8.992702e+000
1.266117e+003, 8.841534e+000
1.266599e+003, 8.793645e+000
1.267081e+003, 8.844581e+000
1.267563e+003, 9.004261e+000
1.268046e+003, 9.144901e+000
1.268528e+003, 9.095023e+000
1.269010e+003, 8.953876e+000
1.269492e+003, 8.966669e+000
1.269974e+003, 9.065686e+000
1.270456e+003, 9.081164e+000
1.270938e+003, 9.030323e+000
1.271420e+003, 8.969172e+000
1.271902e+003, 8.922177e+000
1.272385e+003, 8.923281e+000
1.272867e+003, 8.985733e+000
1.273349e+003, 9.083902e+000
1.273831e+003, 9.331088e+000
1.274313e+003, 9.431774e+000
1.274795e+003, 9.040594e+000
1.275277e+003, 8.678580e+000
1.275759e+003, 8.769435e+000
1.276242e+003, 9.016361e+000
1.276724e+003, 9.071016e+000
1.277206e+003, 8.981311e+000
1.277688e+003, 8.949986e+000
1.278170e+003, 8.981131e+000
1.278652e+003, 9.031540e+000
1.279134e+003, 9.079070e+000
1.279616e+003, 9.261337e+000
1.280099e+003, 9.649384e+000
1.280581e+003, 9.840068e+000
1.281063e+003, 9.666489e+000
1.281545e+003, 9.456484e+000
1.282027e+003, 9.474253e+000
1.282509e+003, 9.576951e+000
1.282991e+003, 9.510583e+000
1.283473e+003, 9.352701e+000
1.283955e+003, 9.271331e+000
##END=



