##NAMES=Roselite
##RRUFFID=R150066
##IDEAL CHEMISTRY=Ca_2_Co^2+^(As^5+^O_4_)_2_&#183;2H_2_O
##LOCALITY=Bou Azzer, Morocco
##OWNER=RRUFF
##SOURCE=William Pinch
##DESCRIPTION=Dark rose-pink elongated or thick tabular crystals, associated with quartz and calcite.
##STATUS=The identification of this mineral is confirmed by single-crystal X-ray diffraction and chemical analysis.
##URL=rruff.info/R150066
##MEASURED CHEMISTRY=Ca_1.96_(Co_0.63_Mg_0.26_Zn_0.04_Fe_0.02_Mn_0.01_)_Ʃ=0.96_(As_1.02_O_4_)_2_·2H_2_O
9.059570e+001, 4.346711e+002
9.107782e+001, 4.684700e+002
9.155994e+001, 4.805102e+002
9.204205e+001, 4.529295e+002
9.252417e+001, 4.158003e+002
9.300629e+001, 3.788389e+002
9.348840e+001, 3.437569e+002
9.397052e+001, 3.098852e+002
9.445264e+001, 2.794857e+002
9.493475e+001, 2.599803e+002
9.541687e+001, 2.437510e+002
9.589898e+001, 2.302917e+002
9.638110e+001, 2.195322e+002
9.686321e+001, 2.116435e+002
9.734533e+001, 2.064901e+002
9.782745e+001, 2.031168e+002
9.830956e+001, 2.007478e+002
9.879168e+001, 1.994909e+002
9.927380e+001, 1.988017e+002
9.975591e+001, 1.982393e+002
1.002380e+002, 1.979918e+002
1.007201e+002, 1.986420e+002
1.012023e+002, 2.003423e+002
1.016844e+002, 2.034408e+002
1.021665e+002, 2.080753e+002
1.026486e+002, 2.151488e+002
1.031307e+002, 2.231154e+002
1.036128e+002, 2.312729e+002
1.040950e+002, 2.401222e+002
1.045771e+002, 2.468473e+002
1.050592e+002, 2.494446e+002
1.055413e+002, 2.487922e+002
1.060234e+002, 2.454075e+002
1.065055e+002, 2.383463e+002
1.069877e+002, 2.285284e+002
1.074698e+002, 2.196685e+002
1.079519e+002, 2.118673e+002
1.084340e+002, 2.050281e+002
1.089161e+002, 1.989048e+002
1.093982e+002, 1.935447e+002
1.098804e+002, 1.891509e+002
1.103625e+002, 1.859179e+002
1.108446e+002, 1.839222e+002
1.113267e+002, 1.828050e+002
1.118088e+002, 1.830117e+002
1.122909e+002, 1.836327e+002
1.127731e+002, 1.842410e+002
1.132552e+002, 1.847851e+002
1.137373e+002, 1.855139e+002
1.142194e+002, 1.867901e+002
1.147015e+002, 1.890030e+002
1.151836e+002, 1.911565e+002
1.156658e+002, 1.931657e+002
1.161479e+002, 1.951626e+002
1.166300e+002, 1.969928e+002
1.171121e+002, 1.985470e+002
1.175942e+002, 2.004711e+002
1.180763e+002, 2.044742e+002
1.185584e+002, 2.106554e+002
1.190406e+002, 2.179607e+002
1.195227e+002, 2.250074e+002
1.200048e+002, 2.327416e+002
1.204869e+002, 2.435554e+002
1.209690e+002, 2.574978e+002
1.214511e+002, 2.767967e+002
1.219333e+002, 3.021677e+002
1.224154e+002, 3.316596e+002
1.228975e+002, 3.703750e+002
1.233796e+002, 4.259680e+002
1.238617e+002, 5.005118e+002
1.243438e+002, 5.752911e+002
1.248260e+002, 6.674775e+002
1.253081e+002, 7.454241e+002
1.257902e+002, 7.731385e+002
1.262723e+002, 7.306984e+002
1.267544e+002, 6.398174e+002
1.272365e+002, 5.451320e+002
1.277187e+002, 4.335961e+002
1.282008e+002, 3.417719e+002
1.286829e+002, 2.798768e+002
1.291650e+002, 2.401688e+002
1.296471e+002, 2.136298e+002
1.301292e+002, 1.955808e+002
1.306114e+002, 1.856321e+002
1.310935e+002, 1.782399e+002
1.315756e+002, 1.751542e+002
1.320577e+002, 1.730881e+002
1.325398e+002, 1.716359e+002
1.330219e+002, 1.706219e+002
1.335041e+002, 1.698955e+002
1.339862e+002, 1.692646e+002
1.344683e+002, 1.686098e+002
1.349504e+002, 1.691022e+002
1.354325e+002, 1.717667e+002
1.359146e+002, 1.745305e+002
1.363968e+002, 1.758831e+002
1.368789e+002, 1.758091e+002
1.373610e+002, 1.756955e+002
1.378431e+002, 1.771262e+002
1.383252e+002, 1.804388e+002
1.388073e+002, 1.840060e+002
1.392895e+002, 1.881621e+002
1.397716e+002, 1.923779e+002
1.402537e+002, 1.961637e+002
1.407358e+002, 1.994676e+002
1.412179e+002, 2.020451e+002
1.417000e+002, 2.032169e+002
1.421821e+002, 2.031259e+002
1.426643e+002, 2.029949e+002
1.431464e+002, 2.032480e+002
1.436285e+002, 2.038431e+002
1.441106e+002, 2.046102e+002
1.445927e+002, 2.054368e+002
1.450748e+002, 2.065628e+002
1.455570e+002, 2.080410e+002
1.460391e+002, 2.098763e+002
1.465212e+002, 2.122183e+002
1.470033e+002, 2.153464e+002
1.474854e+002, 2.193482e+002
1.479675e+002, 2.233317e+002
1.484497e+002, 2.268463e+002
1.489318e+002, 2.305237e+002
1.494139e+002, 2.346637e+002
1.498960e+002, 2.393278e+002
1.503781e+002, 2.445579e+002
1.508602e+002, 2.504212e+002
1.513424e+002, 2.572308e+002
1.518245e+002, 2.641570e+002
1.523066e+002, 2.703004e+002
1.527887e+002, 2.769399e+002
1.532708e+002, 2.852979e+002
1.537529e+002, 2.957599e+002
1.542351e+002, 3.076750e+002
1.547172e+002, 3.193884e+002
1.551993e+002, 3.297072e+002
1.556814e+002, 3.413068e+002
1.561635e+002, 3.546206e+002
1.566456e+002, 3.691747e+002
1.571278e+002, 3.846366e+002
1.576099e+002, 4.009429e+002
1.580920e+002, 4.176239e+002
1.585741e+002, 4.325612e+002
1.590562e+002, 4.470565e+002
1.595383e+002, 4.587684e+002
1.600205e+002, 4.667151e+002
1.605026e+002, 4.713614e+002
1.609847e+002, 4.736429e+002
1.614668e+002, 4.738542e+002
1.619489e+002, 4.720703e+002
1.624310e+002, 4.693046e+002
1.629131e+002, 4.653191e+002
1.633953e+002, 4.607167e+002
1.638774e+002, 4.553125e+002
1.643595e+002, 4.492407e+002
1.648416e+002, 4.439148e+002
1.653237e+002, 4.400480e+002
1.658058e+002, 4.377293e+002
1.662880e+002, 4.368411e+002
1.667701e+002, 4.375946e+002
1.672522e+002, 4.396070e+002
1.677343e+002, 4.423409e+002
1.682164e+002, 4.456588e+002
1.686985e+002, 4.503398e+002
1.691807e+002, 4.571500e+002
1.696628e+002, 4.654751e+002
1.701449e+002, 4.748585e+002
1.706270e+002, 4.850325e+002
1.711091e+002, 4.961802e+002
1.715912e+002, 5.087733e+002
1.720734e+002, 5.230853e+002
1.725555e+002, 5.385208e+002
1.730376e+002, 5.543176e+002
1.735197e+002, 5.710227e+002
1.740018e+002, 5.895427e+002
1.744839e+002, 6.103692e+002
1.749661e+002, 6.333817e+002
1.754482e+002, 6.575919e+002
1.759303e+002, 6.824395e+002
1.764124e+002, 7.095173e+002
1.768945e+002, 7.389342e+002
1.773766e+002, 7.707737e+002
1.778588e+002, 8.047701e+002
1.783409e+002, 8.408444e+002
1.788230e+002, 8.790741e+002
1.793051e+002, 9.201107e+002
1.797872e+002, 9.648019e+002
1.802693e+002, 1.011463e+003
1.807515e+002, 1.060041e+003
1.812336e+002, 1.110280e+003
1.817157e+002, 1.161421e+003
1.821978e+002, 1.213110e+003
1.826799e+002, 1.265565e+003
1.831620e+002, 1.315879e+003
1.836441e+002, 1.365692e+003
1.841263e+002, 1.412547e+003
1.846084e+002, 1.455640e+003
1.850905e+002, 1.494652e+003
1.855726e+002, 1.528890e+003
1.860547e+002, 1.557129e+003
1.865368e+002, 1.578393e+003
1.870190e+002, 1.598583e+003
1.875011e+002, 1.615936e+003
1.879832e+002, 1.633329e+003
1.884653e+002, 1.652889e+003
1.889474e+002, 1.674754e+003
1.894296e+002, 1.698168e+003
1.899117e+002, 1.724503e+003
1.903938e+002, 1.753189e+003
1.908759e+002, 1.773893e+003
1.913580e+002, 1.790172e+003
1.918401e+002, 1.795666e+003
1.923223e+002, 1.783310e+003
1.928044e+002, 1.751932e+003
1.932865e+002, 1.704155e+003
1.937686e+002, 1.635589e+003
1.942507e+002, 1.551099e+003
1.947328e+002, 1.461478e+003
1.952150e+002, 1.365229e+003
1.956971e+002, 1.266498e+003
1.961792e+002, 1.172401e+003
1.966613e+002, 1.082672e+003
1.971434e+002, 9.999752e+002
1.976255e+002, 9.257109e+002
1.981077e+002, 8.586289e+002
1.985898e+002, 7.984551e+002
1.990719e+002, 7.454220e+002
1.995540e+002, 6.989633e+002
2.000361e+002, 6.572692e+002
2.005182e+002, 6.205706e+002
2.010004e+002, 5.888459e+002
2.014825e+002, 5.619406e+002
2.019646e+002, 5.393216e+002
2.024467e+002, 5.200695e+002
2.029288e+002, 5.038630e+002
2.034109e+002, 4.906057e+002
2.038930e+002, 4.793375e+002
2.043752e+002, 4.708210e+002
2.048573e+002, 4.638655e+002
2.053394e+002, 4.585558e+002
2.058215e+002, 4.544851e+002
2.063036e+002, 4.508636e+002
2.067857e+002, 4.472907e+002
2.072679e+002, 4.438239e+002
2.077500e+002, 4.392835e+002
2.082321e+002, 4.334706e+002
2.087142e+002, 4.266664e+002
2.091963e+002, 4.187912e+002
2.096784e+002, 4.099503e+002
2.101606e+002, 4.003295e+002
2.106427e+002, 3.899938e+002
2.111248e+002, 3.789185e+002
2.116069e+002, 3.678763e+002
2.120890e+002, 3.568629e+002
2.125711e+002, 3.459096e+002
2.130533e+002, 3.348749e+002
2.135354e+002, 3.238712e+002
2.140175e+002, 3.130335e+002
2.144996e+002, 3.024599e+002
2.149817e+002, 2.920693e+002
2.154638e+002, 2.825735e+002
2.159460e+002, 2.738236e+002
2.164281e+002, 2.658341e+002
2.169102e+002, 2.586764e+002
2.173923e+002, 2.523104e+002
2.178744e+002, 2.464866e+002
2.183565e+002, 2.410492e+002
2.188387e+002, 2.360447e+002
2.193208e+002, 2.312485e+002
2.198029e+002, 2.262442e+002
2.202850e+002, 2.217224e+002
2.207671e+002, 2.181724e+002
2.212492e+002, 2.155696e+002
2.217314e+002, 2.135267e+002
2.222135e+002, 2.118535e+002
2.226956e+002, 2.105668e+002
2.231777e+002, 2.088319e+002
2.236598e+002, 2.059669e+002
2.241419e+002, 2.031508e+002
2.246240e+002, 2.013891e+002
2.251062e+002, 2.006968e+002
2.255883e+002, 2.002703e+002
2.260704e+002, 1.995857e+002
2.265525e+002, 1.986126e+002
2.270346e+002, 1.973372e+002
2.275167e+002, 1.952425e+002
2.279989e+002, 1.931674e+002
2.284810e+002, 1.919646e+002
2.289631e+002, 1.916908e+002
2.294452e+002, 1.917304e+002
2.299273e+002, 1.917325e+002
2.304094e+002, 1.917167e+002
2.308916e+002, 1.917372e+002
2.313737e+002, 1.918302e+002
2.318558e+002, 1.919482e+002
2.323379e+002, 1.919578e+002
2.328200e+002, 1.918123e+002
2.333021e+002, 1.918887e+002
2.337843e+002, 1.926364e+002
2.342664e+002, 1.937343e+002
2.347485e+002, 1.947203e+002
2.352306e+002, 1.955157e+002
2.357127e+002, 1.961185e+002
2.361948e+002, 1.966039e+002
2.366770e+002, 1.970512e+002
2.371591e+002, 1.970491e+002
2.376412e+002, 1.962371e+002
2.381233e+002, 1.948998e+002
2.386054e+002, 1.932070e+002
2.390875e+002, 1.910535e+002
2.395697e+002, 1.887925e+002
2.400518e+002, 1.869415e+002
2.405339e+002, 1.854706e+002
2.410160e+002, 1.845082e+002
2.414981e+002, 1.842869e+002
2.419802e+002, 1.844920e+002
2.424624e+002, 1.849218e+002
2.429445e+002, 1.855540e+002
2.434266e+002, 1.862380e+002
2.439087e+002, 1.868220e+002
2.443908e+002, 1.875071e+002
2.448729e+002, 1.874941e+002
2.453550e+002, 1.862208e+002
2.458372e+002, 1.844005e+002
2.463193e+002, 1.825116e+002
2.468014e+002, 1.806948e+002
2.472835e+002, 1.790687e+002
2.477656e+002, 1.780855e+002
2.482477e+002, 1.786286e+002
2.487299e+002, 1.775943e+002
2.492120e+002, 1.732662e+002
2.496941e+002, 1.680675e+002
2.501762e+002, 1.638423e+002
2.506583e+002, 1.611433e+002
2.511404e+002, 1.592437e+002
2.516226e+002, 1.568430e+002
2.521047e+002, 1.534655e+002
2.525868e+002, 1.507256e+002
2.530689e+002, 1.488477e+002
2.535510e+002, 1.474847e+002
2.540331e+002, 1.464936e+002
2.545153e+002, 1.458032e+002
2.549974e+002, 1.452641e+002
2.554795e+002, 1.446402e+002
2.559616e+002, 1.438573e+002
2.564437e+002, 1.431587e+002
2.569258e+002, 1.423668e+002
2.574080e+002, 1.417668e+002
2.578901e+002, 1.416395e+002
2.583722e+002, 1.419882e+002
2.588543e+002, 1.425049e+002
2.593364e+002, 1.427758e+002
2.598185e+002, 1.427026e+002
2.603007e+002, 1.426152e+002
2.607828e+002, 1.424987e+002
2.612649e+002, 1.423814e+002
2.617470e+002, 1.422659e+002
2.622291e+002, 1.421602e+002
2.627112e+002, 1.420674e+002
2.631934e+002, 1.419313e+002
2.636755e+002, 1.415392e+002
2.641576e+002, 1.419702e+002
2.646397e+002, 1.440910e+002
2.651218e+002, 1.461443e+002
2.656039e+002, 1.469624e+002
2.660861e+002, 1.466488e+002
2.665682e+002, 1.461689e+002
2.670503e+002, 1.464417e+002
2.675324e+002, 1.475464e+002
2.680145e+002, 1.490092e+002
2.684966e+002, 1.516999e+002
2.689788e+002, 1.539011e+002
2.694609e+002, 1.544318e+002
2.699430e+002, 1.535883e+002
2.704251e+002, 1.525805e+002
2.709072e+002, 1.523663e+002
2.713893e+002, 1.529692e+002
2.718715e+002, 1.538184e+002
2.723536e+002, 1.548598e+002
2.728357e+002, 1.561348e+002
2.733178e+002, 1.577427e+002
2.737999e+002, 1.596082e+002
2.742820e+002, 1.614935e+002
2.747642e+002, 1.631893e+002
2.752463e+002, 1.647587e+002
2.757284e+002, 1.669939e+002
2.762105e+002, 1.700339e+002
2.766926e+002, 1.734064e+002
2.771747e+002, 1.770078e+002
2.776568e+002, 1.808378e+002
2.781389e+002, 1.848782e+002
2.786211e+002, 1.891115e+002
2.791032e+002, 1.935567e+002
2.795853e+002, 1.983876e+002
2.800674e+002, 2.034092e+002
2.805495e+002, 2.089540e+002
2.810316e+002, 2.154534e+002
2.815138e+002, 2.224956e+002
2.819959e+002, 2.294118e+002
2.824780e+002, 2.359334e+002
2.829601e+002, 2.421042e+002
2.834422e+002, 2.479622e+002
2.839243e+002, 2.543906e+002
2.844065e+002, 2.590765e+002
2.848886e+002, 2.614629e+002
2.853707e+002, 2.618459e+002
2.858528e+002, 2.604143e+002
2.863349e+002, 2.571250e+002
2.868170e+002, 2.526340e+002
2.872992e+002, 2.477973e+002
2.877813e+002, 2.424004e+002
2.882634e+002, 2.374668e+002
2.887455e+002, 2.329305e+002
2.892276e+002, 2.290613e+002
2.897097e+002, 2.262212e+002
2.901919e+002, 2.244924e+002
2.906740e+002, 2.237329e+002
2.911561e+002, 2.238780e+002
2.916382e+002, 2.249886e+002
2.921203e+002, 2.266832e+002
2.926024e+002, 2.288593e+002
2.930846e+002, 2.316460e+002
2.935667e+002, 2.350931e+002
2.940488e+002, 2.392282e+002
2.945309e+002, 2.441767e+002
2.950130e+002, 2.499284e+002
2.954951e+002, 2.566342e+002
2.959773e+002, 2.649652e+002
2.964594e+002, 2.749897e+002
2.969415e+002, 2.866207e+002
2.974236e+002, 2.998315e+002
2.979057e+002, 3.145649e+002
2.983878e+002, 3.307579e+002
2.988700e+002, 3.480425e+002
2.993521e+002, 3.669725e+002
2.998342e+002, 3.890751e+002
3.003163e+002, 4.147533e+002
3.007984e+002, 4.429244e+002
3.012805e+002, 4.738159e+002
3.017627e+002, 5.070338e+002
3.022448e+002, 5.415455e+002
3.027269e+002, 5.776467e+002
3.032090e+002, 6.142466e+002
3.036911e+002, 6.488093e+002
3.041732e+002, 6.836346e+002
3.046554e+002, 7.135255e+002
3.051375e+002, 7.371415e+002
3.056196e+002, 7.541674e+002
3.061017e+002, 7.636193e+002
3.065838e+002, 7.649065e+002
3.070659e+002, 7.587287e+002
3.075481e+002, 7.452180e+002
3.080302e+002, 7.236877e+002
3.085123e+002, 7.003665e+002
3.089944e+002, 6.763698e+002
3.094765e+002, 6.520853e+002
3.099586e+002, 6.282283e+002
3.104408e+002, 6.049519e+002
3.109229e+002, 5.826193e+002
3.114050e+002, 5.618524e+002
3.118871e+002, 5.424106e+002
3.123692e+002, 5.251023e+002
3.128513e+002, 5.109499e+002
3.133335e+002, 4.986405e+002
3.138156e+002, 4.865484e+002
3.142977e+002, 4.744665e+002
3.147798e+002, 4.628917e+002
3.152619e+002, 4.521148e+002
3.157440e+002, 4.421963e+002
3.162262e+002, 4.335429e+002
3.167083e+002, 4.260512e+002
3.171904e+002, 4.199398e+002
3.176725e+002, 4.154370e+002
3.181546e+002, 4.125153e+002
3.186367e+002, 4.109879e+002
3.191188e+002, 4.108301e+002
3.196010e+002, 4.120995e+002
3.200831e+002, 4.142985e+002
3.205652e+002, 4.177123e+002
3.210473e+002, 4.217395e+002
3.215294e+002, 4.257244e+002
3.220115e+002, 4.299547e+002
3.224937e+002, 4.356021e+002
3.229758e+002, 4.433161e+002
3.234579e+002, 4.526495e+002
3.239400e+002, 4.621571e+002
3.244221e+002, 4.713592e+002
3.249042e+002, 4.816866e+002
3.253864e+002, 4.936133e+002
3.258685e+002, 5.070225e+002
3.263506e+002, 5.217474e+002
3.268327e+002, 5.377213e+002
3.273148e+002, 5.551472e+002
3.277969e+002, 5.742762e+002
3.282791e+002, 5.946368e+002
3.287612e+002, 6.181904e+002
3.292433e+002, 6.462869e+002
3.297254e+002, 6.772564e+002
3.302075e+002, 7.087889e+002
3.306896e+002, 7.404853e+002
3.311718e+002, 7.743856e+002
3.316539e+002, 8.131260e+002
3.321360e+002, 8.571577e+002
3.326181e+002, 9.017732e+002
3.331002e+002, 9.465587e+002
3.335823e+002, 9.917926e+002
3.340645e+002, 1.039349e+003
3.345466e+002, 1.088315e+003
3.350287e+002, 1.135409e+003
3.355108e+002, 1.179455e+003
3.359929e+002, 1.219124e+003
3.364750e+002, 1.247030e+003
3.369572e+002, 1.263172e+003
3.374393e+002, 1.269618e+003
3.379214e+002, 1.266476e+003
3.384035e+002, 1.254318e+003
3.388856e+002, 1.233771e+003
3.393677e+002, 1.204598e+003
3.398499e+002, 1.168585e+003
3.403320e+002, 1.129820e+003
3.408141e+002, 1.086464e+003
3.412962e+002, 1.044257e+003
3.417783e+002, 1.002637e+003
3.422604e+002, 9.632958e+002
3.427426e+002, 9.284210e+002
3.432247e+002, 8.987571e+002
3.437068e+002, 8.740514e+002
3.441889e+002, 8.540157e+002
3.446710e+002, 8.391097e+002
3.451531e+002, 8.296412e+002
3.456353e+002, 8.261341e+002
3.461174e+002, 8.278126e+002
3.465995e+002, 8.345317e+002
3.470816e+002, 8.460185e+002
3.475637e+002, 8.616891e+002
3.480458e+002, 8.810569e+002
3.485280e+002, 9.043524e+002
3.490101e+002, 9.301171e+002
3.494922e+002, 9.569875e+002
3.499743e+002, 9.871425e+002
3.504564e+002, 1.022247e+003
3.509385e+002, 1.061158e+003
3.514207e+002, 1.101704e+003
3.519028e+002, 1.142538e+003
3.523849e+002, 1.183674e+003
3.528670e+002, 1.225688e+003
3.533491e+002, 1.271898e+003
3.538312e+002, 1.314775e+003
3.543134e+002, 1.353662e+003
3.547955e+002, 1.388584e+003
3.552776e+002, 1.420701e+003
3.557597e+002, 1.450201e+003
3.562418e+002, 1.474589e+003
3.567239e+002, 1.489859e+003
3.572061e+002, 1.494234e+003
3.576882e+002, 1.491426e+003
3.581703e+002, 1.481561e+003
3.586524e+002, 1.465218e+003
3.591345e+002, 1.441971e+003
3.596166e+002, 1.412252e+003
3.600987e+002, 1.377979e+003
3.605808e+002, 1.340738e+003
3.610630e+002, 1.300504e+003
3.615451e+002, 1.257178e+003
3.620272e+002, 1.208676e+003
3.625093e+002, 1.159589e+003
3.629914e+002, 1.110888e+003
3.634735e+002, 1.062594e+003
3.639557e+002, 1.015186e+003
3.644378e+002, 9.687911e+002
3.649199e+002, 9.235656e+002
3.654020e+002, 8.801652e+002
3.658841e+002, 8.388523e+002
3.663662e+002, 7.993523e+002
3.668484e+002, 7.613798e+002
3.673305e+002, 7.253403e+002
3.678126e+002, 6.915232e+002
3.682947e+002, 6.601800e+002
3.687768e+002, 6.312465e+002
3.692589e+002, 6.046133e+002
3.697411e+002, 5.805146e+002
3.702232e+002, 5.583699e+002
3.707053e+002, 5.377952e+002
3.711874e+002, 5.192452e+002
3.716695e+002, 5.036229e+002
3.721516e+002, 4.904754e+002
3.726338e+002, 4.776969e+002
3.731159e+002, 4.632017e+002
3.735980e+002, 4.471236e+002
3.740801e+002, 4.332102e+002
3.745622e+002, 4.229571e+002
3.750443e+002, 4.131658e+002
3.755265e+002, 4.029427e+002
3.760086e+002, 3.923980e+002
3.764907e+002, 3.818301e+002
3.769728e+002, 3.712893e+002
3.774549e+002, 3.608598e+002
3.779370e+002, 3.507699e+002
3.784192e+002, 3.412389e+002
3.789013e+002, 3.314249e+002
3.793834e+002, 3.205188e+002
3.798655e+002, 3.095832e+002
3.803476e+002, 2.993076e+002
3.808297e+002, 2.898395e+002
3.813119e+002, 2.812448e+002
3.817940e+002, 2.739000e+002
3.822761e+002, 2.677656e+002
3.827582e+002, 2.615883e+002
3.832403e+002, 2.551322e+002
3.837224e+002, 2.486991e+002
3.842046e+002, 2.422984e+002
3.846867e+002, 2.360492e+002
3.851688e+002, 2.301921e+002
3.856509e+002, 2.249170e+002
3.861330e+002, 2.201721e+002
3.866151e+002, 2.158605e+002
3.870973e+002, 2.120582e+002
3.875794e+002, 2.084578e+002
3.880615e+002, 2.047593e+002
3.885436e+002, 2.011824e+002
3.890257e+002, 1.981149e+002
3.895078e+002, 1.958072e+002
3.899900e+002, 1.936966e+002
3.904721e+002, 1.912680e+002
3.909542e+002, 1.885609e+002
3.914363e+002, 1.859151e+002
3.919184e+002, 1.832772e+002
3.924005e+002, 1.809728e+002
3.928827e+002, 1.794737e+002
3.933648e+002, 1.787994e+002
3.938469e+002, 1.783364e+002
3.943290e+002, 1.778575e+002
3.948111e+002, 1.774417e+002
3.952932e+002, 1.772852e+002
3.957754e+002, 1.774403e+002
3.962575e+002, 1.775723e+002
3.967396e+002, 1.772626e+002
3.972217e+002, 1.765950e+002
3.977038e+002, 1.764385e+002
3.981859e+002, 1.769710e+002
3.986681e+002, 1.779011e+002
3.991501e+002, 1.790835e+002
3.996323e+002, 1.805096e+002
4.001144e+002, 1.821950e+002
4.005965e+002, 1.841709e+002
4.010786e+002, 1.863703e+002
4.015607e+002, 1.885811e+002
4.020428e+002, 1.907275e+002
4.025250e+002, 1.930120e+002
4.030071e+002, 1.955941e+002
4.034892e+002, 1.982773e+002
4.039713e+002, 2.007263e+002
4.044534e+002, 2.028826e+002
4.049355e+002, 2.051418e+002
4.054177e+002, 2.079932e+002
4.058998e+002, 2.115558e+002
4.063819e+002, 2.150767e+002
4.068640e+002, 2.185667e+002
4.073461e+002, 2.219969e+002
4.078282e+002, 2.249930e+002
4.083104e+002, 2.279133e+002
4.087925e+002, 2.315317e+002
4.092746e+002, 2.363638e+002
4.097567e+002, 2.423187e+002
4.102388e+002, 2.490370e+002
4.107209e+002, 2.563798e+002
4.112031e+002, 2.647845e+002
4.116852e+002, 2.743227e+002
4.121673e+002, 2.848850e+002
4.126494e+002, 2.964088e+002
4.131315e+002, 3.088655e+002
4.136136e+002, 3.222133e+002
4.140958e+002, 3.363145e+002
4.145779e+002, 3.511079e+002
4.150600e+002, 3.672002e+002
4.155421e+002, 3.864449e+002
4.160242e+002, 4.052153e+002
4.165063e+002, 4.221923e+002
4.169885e+002, 4.375929e+002
4.174706e+002, 4.520741e+002
4.179527e+002, 4.664644e+002
4.184348e+002, 4.800268e+002
4.189169e+002, 4.905965e+002
4.193990e+002, 4.983643e+002
4.198812e+002, 5.024003e+002
4.203633e+002, 5.021520e+002
4.208454e+002, 4.984629e+002
4.213275e+002, 4.915624e+002
4.218096e+002, 4.814820e+002
4.222917e+002, 4.693311e+002
4.227739e+002, 4.555650e+002
4.232560e+002, 4.403059e+002
4.237381e+002, 4.256293e+002
4.242202e+002, 4.119935e+002
4.247023e+002, 3.988506e+002
4.251844e+002, 3.858515e+002
4.256666e+002, 3.729405e+002
4.261487e+002, 3.597946e+002
4.266308e+002, 3.457222e+002
4.271129e+002, 3.315649e+002
4.275950e+002, 3.186615e+002
4.280771e+002, 3.069670e+002
4.285593e+002, 2.960073e+002
4.290414e+002, 2.852849e+002
4.295235e+002, 2.754327e+002
4.300056e+002, 2.676740e+002
4.304877e+002, 2.629245e+002
4.309698e+002, 2.581834e+002
4.314520e+002, 2.518577e+002
4.319341e+002, 2.445435e+002
4.324162e+002, 2.370223e+002
4.328983e+002, 2.293681e+002
4.333804e+002, 2.226734e+002
4.338625e+002, 2.185909e+002
4.343447e+002, 2.175855e+002
4.348268e+002, 2.156116e+002
4.353089e+002, 2.116338e+002
4.357910e+002, 2.074180e+002
4.362731e+002, 2.039491e+002
4.367552e+002, 2.012501e+002
4.372374e+002, 1.990878e+002
4.377195e+002, 1.973252e+002
4.382016e+002, 1.960003e+002
4.386837e+002, 1.953036e+002
4.391658e+002, 1.952245e+002
4.396479e+002, 1.958167e+002
4.401301e+002, 1.970834e+002
4.406122e+002, 1.990242e+002
4.410943e+002, 2.015922e+002
4.415764e+002, 2.047916e+002
4.420585e+002, 2.087638e+002
4.425406e+002, 2.136478e+002
4.430227e+002, 2.194777e+002
4.435049e+002, 2.260687e+002
4.439870e+002, 2.332713e+002
4.444691e+002, 2.414006e+002
4.449512e+002, 2.505930e+002
4.454333e+002, 2.607316e+002
4.459154e+002, 2.716251e+002
4.463976e+002, 2.830334e+002
4.468797e+002, 2.954474e+002
4.473618e+002, 3.100784e+002
4.478439e+002, 3.273686e+002
4.483260e+002, 3.455471e+002
4.488081e+002, 3.646905e+002
4.492903e+002, 3.844583e+002
4.497724e+002, 4.056966e+002
4.502545e+002, 4.279603e+002
4.507366e+002, 4.484619e+002
4.512187e+002, 4.656460e+002
4.517008e+002, 4.794184e+002
4.521830e+002, 4.890210e+002
4.526651e+002, 4.946303e+002
4.531472e+002, 4.954597e+002
4.536293e+002, 4.900827e+002
4.541114e+002, 4.797880e+002
4.545935e+002, 4.654018e+002
4.550757e+002, 4.463063e+002
4.555578e+002, 4.247903e+002
4.560399e+002, 4.017197e+002
4.565220e+002, 3.775713e+002
4.570041e+002, 3.537700e+002
4.574862e+002, 3.303142e+002
4.579684e+002, 3.081524e+002
4.584505e+002, 2.887754e+002
4.589326e+002, 2.720559e+002
4.594147e+002, 2.565707e+002
4.598968e+002, 2.420756e+002
4.603789e+002, 2.287880e+002
4.608611e+002, 2.169963e+002
4.613432e+002, 2.066378e+002
4.618253e+002, 1.973639e+002
4.623074e+002, 1.889241e+002
4.627895e+002, 1.813759e+002
4.632716e+002, 1.748056e+002
4.637538e+002, 1.698751e+002
4.642359e+002, 1.649788e+002
4.647180e+002, 1.594284e+002
4.652001e+002, 1.540537e+002
4.656822e+002, 1.497316e+002
4.661643e+002, 1.465999e+002
4.666465e+002, 1.442772e+002
4.671286e+002, 1.424318e+002
4.676107e+002, 1.411225e+002
4.680928e+002, 1.395730e+002
4.685749e+002, 1.373752e+002
4.690570e+002, 1.353697e+002
4.695392e+002, 1.337712e+002
4.700213e+002, 1.325161e+002
4.705034e+002, 1.314937e+002
4.709855e+002, 1.306526e+002
4.714676e+002, 1.300443e+002
4.719497e+002, 1.298232e+002
4.724319e+002, 1.300916e+002
4.729140e+002, 1.303038e+002
4.733961e+002, 1.305266e+002
4.738782e+002, 1.305367e+002
4.743603e+002, 1.302437e+002
4.748424e+002, 1.296339e+002
4.753246e+002, 1.286752e+002
4.758067e+002, 1.271161e+002
4.762888e+002, 1.252819e+002
4.767709e+002, 1.238832e+002
4.772530e+002, 1.229727e+002
4.777351e+002, 1.222108e+002
4.782173e+002, 1.215337e+002
4.786994e+002, 1.208643e+002
4.791815e+002, 1.201120e+002
4.796636e+002, 1.192960e+002
4.801457e+002, 1.183186e+002
4.806278e+002, 1.169678e+002
4.811100e+002, 1.154625e+002
4.815920e+002, 1.142276e+002
4.820742e+002, 1.133446e+002
4.825563e+002, 1.125596e+002
4.830384e+002, 1.116808e+002
4.835205e+002, 1.106985e+002
4.840026e+002, 1.095467e+002
4.844847e+002, 1.081289e+002
4.849669e+002, 1.066612e+002
4.854490e+002, 1.051241e+002
4.859311e+002, 1.036119e+002
4.864132e+002, 1.023393e+002
4.868953e+002, 1.013787e+002
4.873774e+002, 1.005004e+002
4.878596e+002, 9.931574e+001
4.883417e+002, 9.762478e+001
4.888238e+002, 9.615191e+001
4.893059e+002, 9.493477e+001
4.897880e+002, 9.386285e+001
4.902701e+002, 9.296432e+001
4.907523e+002, 9.216933e+001
4.912344e+002, 9.133618e+001
4.917165e+002, 9.036765e+001
4.921986e+002, 8.935004e+001
4.926807e+002, 8.853892e+001
4.931628e+002, 8.801712e+001
4.936450e+002, 8.747899e+001
4.941271e+002, 8.693173e+001
4.946092e+002, 8.629916e+001
4.950913e+002, 8.549355e+001
4.955734e+002, 8.452769e+001
4.960555e+002, 8.352669e+001
4.965377e+002, 8.253246e+001
4.970198e+002, 8.157876e+001
4.975019e+002, 8.074352e+001
4.979840e+002, 8.001094e+001
4.984661e+002, 7.948038e+001
4.989482e+002, 7.926598e+001
4.994304e+002, 7.927401e+001
4.999125e+002, 7.933738e+001
5.003946e+002, 7.951973e+001
5.008767e+002, 7.958099e+001
5.013588e+002, 7.935661e+001
5.018409e+002, 7.894367e+001
5.023231e+002, 7.851219e+001
5.028052e+002, 7.809803e+001
5.032873e+002, 7.762873e+001
5.037694e+002, 7.700240e+001
5.042515e+002, 7.620689e+001
5.047336e+002, 7.563072e+001
5.052158e+002, 7.539475e+001
5.056979e+002, 7.521589e+001
5.061800e+002, 7.501266e+001
5.066621e+002, 7.479566e+001
5.071442e+002, 7.459859e+001
5.076263e+002, 7.443164e+001
5.081085e+002, 7.425797e+001
5.085906e+002, 7.398270e+001
5.090727e+002, 7.348282e+001
5.095548e+002, 7.332629e+001
5.100369e+002, 7.400925e+001
5.105190e+002, 7.453925e+001
5.110012e+002, 7.443607e+001
5.114833e+002, 7.391557e+001
5.119654e+002, 7.339367e+001
5.124475e+002, 7.304910e+001
5.129296e+002, 7.289356e+001
5.134117e+002, 7.299307e+001
5.138939e+002, 7.338313e+001
5.143760e+002, 7.376404e+001
5.148581e+002, 7.411387e+001
5.153402e+002, 7.438918e+001
5.158223e+002, 7.458473e+001
5.163044e+002, 7.469252e+001
5.167866e+002, 7.466328e+001
5.172687e+002, 7.439228e+001
5.177508e+002, 7.402139e+001
5.182329e+002, 7.374667e+001
5.187150e+002, 7.356086e+001
5.191971e+002, 7.330977e+001
5.196793e+002, 7.288249e+001
5.201614e+002, 7.239115e+001
5.206435e+002, 7.210685e+001
5.211256e+002, 7.205865e+001
5.216077e+002, 7.207146e+001
5.220898e+002, 7.213952e+001
5.225720e+002, 7.224068e+001
5.230541e+002, 7.235205e+001
5.235362e+002, 7.247511e+001
5.240183e+002, 7.263976e+001
5.245004e+002, 7.287674e+001
5.249825e+002, 7.315862e+001
5.254647e+002, 7.333907e+001
5.259468e+002, 7.320438e+001
5.264289e+002, 7.328111e+001
5.269110e+002, 7.388308e+001
5.273931e+002, 7.451834e+001
5.278752e+002, 7.475689e+001
5.283574e+002, 7.457449e+001
5.288395e+002, 7.426511e+001
5.293216e+002, 7.407229e+001
5.298037e+002, 7.397508e+001
5.302858e+002, 7.384168e+001
5.307679e+002, 7.366119e+001
5.312501e+002, 7.347044e+001
5.317322e+002, 7.307317e+001
5.322143e+002, 7.277763e+001
5.326964e+002, 7.303133e+001
5.331785e+002, 7.399035e+001
5.336606e+002, 7.486475e+001
5.341428e+002, 7.490512e+001
5.346249e+002, 7.453869e+001
5.351070e+002, 7.486279e+001
5.355891e+002, 7.608254e+001
5.360712e+002, 7.708662e+001
5.365533e+002, 7.695393e+001
5.370355e+002, 7.586417e+001
5.375176e+002, 7.505798e+001
5.379997e+002, 7.450822e+001
5.384818e+002, 7.424082e+001
5.389639e+002, 7.439919e+001
5.394460e+002, 7.478000e+001
5.399282e+002, 7.518361e+001
5.404103e+002, 7.554494e+001
5.408924e+002, 7.581592e+001
5.413745e+002, 7.593510e+001
5.418566e+002, 7.589832e+001
5.423387e+002, 7.585268e+001
5.428209e+002, 7.571743e+001
5.433029e+002, 7.567470e+001
5.437850e+002, 7.586009e+001
5.442672e+002, 7.610868e+001
5.447493e+002, 7.619895e+001
5.452314e+002, 7.608138e+001
5.457135e+002, 7.596557e+001
5.461956e+002, 7.615371e+001
5.466777e+002, 7.660561e+001
5.471599e+002, 7.678217e+001
5.476420e+002, 7.648058e+001
5.481241e+002, 7.627392e+001
5.486062e+002, 7.667130e+001
5.490883e+002, 7.736864e+001
5.495704e+002, 7.788383e+001
5.500526e+002, 7.807800e+001
5.505347e+002, 7.820554e+001
5.510168e+002, 7.842844e+001
5.514989e+002, 7.869992e+001
5.519810e+002, 7.893311e+001
5.524631e+002, 7.911057e+001
5.529453e+002, 7.922403e+001
5.534274e+002, 7.925539e+001
5.539095e+002, 7.920396e+001
5.543916e+002, 7.916763e+001
5.548737e+002, 7.909940e+001
5.553558e+002, 7.909867e+001
5.558380e+002, 7.920316e+001
5.563201e+002, 7.938533e+001
5.568022e+002, 7.960906e+001
5.572843e+002, 7.986618e+001
5.577664e+002, 8.017457e+001
5.582485e+002, 8.058305e+001
5.587307e+002, 8.109732e+001
5.592128e+002, 8.149531e+001
5.596949e+002, 8.179012e+001
5.601770e+002, 8.193126e+001
5.606591e+002, 8.183397e+001
5.611412e+002, 8.162621e+001
5.616234e+002, 8.137157e+001
5.621055e+002, 8.105557e+001
5.625876e+002, 8.104416e+001
5.630697e+002, 8.212952e+001
5.635518e+002, 8.380797e+001
5.640339e+002, 8.419115e+001
5.645161e+002, 8.284514e+001
5.649982e+002, 8.130888e+001
5.654803e+002, 8.059993e+001
5.659624e+002, 8.062642e+001
5.664445e+002, 8.079550e+001
5.669266e+002, 8.128419e+001
5.674088e+002, 8.166299e+001
5.678909e+002, 8.150525e+001
5.683730e+002, 8.128918e+001
5.688551e+002, 8.188062e+001
5.693372e+002, 8.328755e+001
5.698193e+002, 8.440287e+001
5.703015e+002, 8.406555e+001
5.707836e+002, 8.239070e+001
5.712657e+002, 8.165147e+001
5.717478e+002, 8.287703e+001
5.722299e+002, 8.367274e+001
5.727120e+002, 8.331477e+001
5.731942e+002, 8.260598e+001
5.736763e+002, 8.230996e+001
5.741584e+002, 8.253230e+001
5.746405e+002, 8.284150e+001
5.751226e+002, 8.279526e+001
5.756047e+002, 8.251450e+001
5.760869e+002, 8.255486e+001
5.765690e+002, 8.300491e+001
5.770511e+002, 8.340541e+001
5.775332e+002, 8.354753e+001
5.780153e+002, 8.349866e+001
5.784974e+002, 8.334070e+001
5.789796e+002, 8.301925e+001
5.794617e+002, 8.284270e+001
5.799438e+002, 8.302870e+001
5.804259e+002, 8.336055e+001
5.809080e+002, 8.362907e+001
5.813901e+002, 8.380521e+001
5.818723e+002, 8.387940e+001
5.823544e+002, 8.383073e+001
5.828365e+002, 8.370398e+001
5.833186e+002, 8.365085e+001
5.838007e+002, 8.372316e+001
5.842828e+002, 8.379511e+001
5.847650e+002, 8.395042e+001
5.852471e+002, 8.403432e+001
5.857292e+002, 8.386839e+001
5.862113e+002, 8.353072e+001
5.866934e+002, 8.327293e+001
5.871755e+002, 8.326211e+001
5.876577e+002, 8.341064e+001
5.881398e+002, 8.353045e+001
5.886219e+002, 8.361967e+001
5.891040e+002, 8.368533e+001
5.895861e+002, 8.367239e+001
5.900682e+002, 8.370158e+001
5.905504e+002, 8.387625e+001
5.910325e+002, 8.418533e+001
5.915146e+002, 8.456687e+001
5.919967e+002, 8.501256e+001
5.924788e+002, 8.551320e+001
5.929609e+002, 8.616252e+001
5.934431e+002, 8.686277e+001
5.939252e+002, 8.730505e+001
5.944073e+002, 8.736524e+001
5.948894e+002, 8.724125e+001
5.953715e+002, 8.721444e+001
5.958536e+002, 8.733681e+001
5.963358e+002, 8.731497e+001
5.968179e+002, 8.699606e+001
5.973000e+002, 8.672472e+001
5.977821e+002, 8.654295e+001
5.982642e+002, 8.651271e+001
5.987463e+002, 8.671135e+001
5.992285e+002, 8.716446e+001
5.997106e+002, 8.781239e+001
6.001927e+002, 8.874104e+001
6.006748e+002, 8.992693e+001
6.011569e+002, 9.056059e+001
6.016390e+002, 9.037775e+001
6.021212e+002, 9.012684e+001
6.026033e+002, 9.025701e+001
6.030854e+002, 9.058305e+001
6.035675e+002, 9.082153e+001
6.040496e+002, 9.089829e+001
6.045317e+002, 9.101189e+001
6.050139e+002, 9.130331e+001
6.054960e+002, 9.167657e+001
6.059781e+002, 9.200333e+001
6.064602e+002, 9.226494e+001
6.069423e+002, 9.247133e+001
6.074244e+002, 9.261616e+001
6.079066e+002, 9.272369e+001
6.083887e+002, 9.290524e+001
6.088708e+002, 9.318787e+001
6.093529e+002, 9.351278e+001
6.098350e+002, 9.395427e+001
6.103171e+002, 9.437431e+001
6.107993e+002, 9.464072e+001
6.112814e+002, 9.478979e+001
6.117635e+002, 9.497543e+001
6.122456e+002, 9.531171e+001
6.127277e+002, 9.571581e+001
6.132098e+002, 9.599351e+001
6.136920e+002, 9.612967e+001
6.141741e+002, 9.634147e+001
6.146562e+002, 9.672720e+001
6.151383e+002, 9.714662e+001
6.156204e+002, 9.740287e+001
6.161025e+002, 9.753958e+001
6.165847e+002, 9.784889e+001
6.170668e+002, 9.854618e+001
6.175489e+002, 9.927749e+001
6.180310e+002, 9.982957e+001
6.185131e+002, 1.002484e+002
6.189952e+002, 1.006107e+002
6.194774e+002, 1.009440e+002
6.199595e+002, 1.013057e+002
6.204416e+002, 1.017714e+002
6.209237e+002, 1.023530e+002
6.214058e+002, 1.028900e+002
6.218879e+002, 1.033706e+002
6.223701e+002, 1.038193e+002
6.228522e+002, 1.041877e+002
6.233343e+002, 1.045558e+002
6.238164e+002, 1.050605e+002
6.242985e+002, 1.057038e+002
6.247806e+002, 1.062430e+002
6.252628e+002, 1.063100e+002
6.257448e+002, 1.061442e+002
6.262269e+002, 1.064825e+002
6.267090e+002, 1.073907e+002
6.271912e+002, 1.081700e+002
6.276733e+002, 1.084131e+002
6.281554e+002, 1.084318e+002
6.286375e+002, 1.088512e+002
6.291196e+002, 1.097354e+002
6.296017e+002, 1.105995e+002
6.300839e+002, 1.113846e+002
6.305660e+002, 1.121192e+002
6.310481e+002, 1.126626e+002
6.315302e+002, 1.131872e+002
6.320123e+002, 1.141801e+002
6.324944e+002, 1.158616e+002
6.329766e+002, 1.177201e+002
6.334587e+002, 1.188166e+002
6.339408e+002, 1.189678e+002
6.344229e+002, 1.193183e+002
6.349050e+002, 1.199585e+002
6.353871e+002, 1.207062e+002
6.358693e+002, 1.215613e+002
6.363514e+002, 1.224342e+002
6.368335e+002, 1.231899e+002
6.373156e+002, 1.237873e+002
6.377977e+002, 1.242958e+002
6.382798e+002, 1.246536e+002
6.387620e+002, 1.249859e+002
6.392441e+002, 1.256227e+002
6.397262e+002, 1.265816e+002
6.402083e+002, 1.274015e+002
6.406904e+002, 1.277226e+002
6.411725e+002, 1.277499e+002
6.416547e+002, 1.281754e+002
6.421368e+002, 1.293099e+002
6.426189e+002, 1.304030e+002
6.431010e+002, 1.314987e+002
6.435831e+002, 1.325114e+002
6.440652e+002, 1.333729e+002
6.445474e+002, 1.341085e+002
6.450295e+002, 1.347838e+002
6.455116e+002, 1.354215e+002
6.459937e+002, 1.360541e+002
6.464758e+002, 1.366467e+002
6.469579e+002, 1.372024e+002
6.474401e+002, 1.382145e+002
6.479222e+002, 1.399895e+002
6.484043e+002, 1.417314e+002
6.488864e+002, 1.428219e+002
6.493685e+002, 1.433880e+002
6.498506e+002, 1.437702e+002
6.503328e+002, 1.437827e+002
6.508149e+002, 1.439430e+002
6.512970e+002, 1.447005e+002
6.517791e+002, 1.455806e+002
6.522612e+002, 1.458930e+002
6.527433e+002, 1.456545e+002
6.532255e+002, 1.455320e+002
6.537076e+002, 1.460678e+002
6.541897e+002, 1.469949e+002
6.546718e+002, 1.472246e+002
6.551539e+002, 1.462417e+002
6.556360e+002, 1.458093e+002
6.561182e+002, 1.464309e+002
6.566003e+002, 1.474578e+002
6.570824e+002, 1.487546e+002
6.575645e+002, 1.501882e+002
6.580466e+002, 1.515043e+002
6.585287e+002, 1.529924e+002
6.590109e+002, 1.537204e+002
6.594930e+002, 1.522243e+002
6.599751e+002, 1.492793e+002
6.604572e+002, 1.470475e+002
6.609393e+002, 1.460059e+002
6.614214e+002, 1.454415e+002
6.619036e+002, 1.447858e+002
6.623857e+002, 1.440407e+002
6.628678e+002, 1.432403e+002
6.633499e+002, 1.421239e+002
6.638320e+002, 1.413069e+002
6.643141e+002, 1.412114e+002
6.647963e+002, 1.411508e+002
6.652784e+002, 1.405249e+002
6.657605e+002, 1.393964e+002
6.662426e+002, 1.382334e+002
6.667247e+002, 1.372863e+002
6.672068e+002, 1.365236e+002
6.676890e+002, 1.359053e+002
6.681711e+002, 1.354285e+002
6.686532e+002, 1.350118e+002
6.691353e+002, 1.346948e+002
6.696174e+002, 1.343038e+002
6.700995e+002, 1.336996e+002
6.705817e+002, 1.328714e+002
6.710638e+002, 1.318657e+002
6.715459e+002, 1.304121e+002
6.720280e+002, 1.291139e+002
6.725101e+002, 1.284484e+002
6.729922e+002, 1.278754e+002
6.734744e+002, 1.266305e+002
6.739565e+002, 1.247669e+002
6.744386e+002, 1.230846e+002
6.749207e+002, 1.222137e+002
6.754028e+002, 1.219262e+002
6.758849e+002, 1.214922e+002
6.763671e+002, 1.208942e+002
6.768492e+002, 1.202254e+002
6.773313e+002, 1.194717e+002
6.778134e+002, 1.186801e+002
6.782955e+002, 1.179263e+002
6.787776e+002, 1.171758e+002
6.792598e+002, 1.162954e+002
6.797419e+002, 1.150852e+002
6.802240e+002, 1.139558e+002
6.807061e+002, 1.131567e+002
6.811882e+002, 1.125925e+002
6.816703e+002, 1.121451e+002
6.821525e+002, 1.117782e+002
6.826346e+002, 1.114457e+002
6.831167e+002, 1.111307e+002
6.835988e+002, 1.107938e+002
6.840809e+002, 1.102126e+002
6.845630e+002, 1.092268e+002
6.850452e+002, 1.083508e+002
6.855273e+002, 1.075561e+002
6.860094e+002, 1.069835e+002
6.864915e+002, 1.068811e+002
6.869736e+002, 1.070816e+002
6.874557e+002, 1.070756e+002
6.879379e+002, 1.065281e+002
6.884200e+002, 1.059720e+002
6.889021e+002, 1.056015e+002
6.893842e+002, 1.056256e+002
6.898663e+002, 1.070207e+002
6.903484e+002, 1.099063e+002
6.908306e+002, 1.120995e+002
6.913127e+002, 1.117744e+002
6.917948e+002, 1.094394e+002
6.922769e+002, 1.076271e+002
6.927590e+002, 1.063567e+002
6.932411e+002, 1.056218e+002
6.937233e+002, 1.056529e+002
6.942054e+002, 1.059704e+002
6.946875e+002, 1.065140e+002
6.951696e+002, 1.070915e+002
6.956517e+002, 1.072417e+002
6.961339e+002, 1.066042e+002
6.966160e+002, 1.059735e+002
6.970981e+002, 1.063484e+002
6.975802e+002, 1.074766e+002
6.980623e+002, 1.082293e+002
6.985444e+002, 1.083522e+002
6.990266e+002, 1.095038e+002
6.995087e+002, 1.134254e+002
6.999908e+002, 1.189208e+002
7.004729e+002, 1.213481e+002
7.009550e+002, 1.180169e+002
7.014371e+002, 1.156528e+002
7.019193e+002, 1.144991e+002
7.024014e+002, 1.141824e+002
7.028835e+002, 1.148578e+002
7.033656e+002, 1.161289e+002
7.038477e+002, 1.173324e+002
7.043298e+002, 1.181937e+002
7.048120e+002, 1.187593e+002
7.052941e+002, 1.189557e+002
7.057762e+002, 1.188687e+002
7.062583e+002, 1.189657e+002
7.067404e+002, 1.193319e+002
7.072225e+002, 1.195549e+002
7.077046e+002, 1.192658e+002
7.081867e+002, 1.187697e+002
7.086688e+002, 1.189144e+002
7.091509e+002, 1.201338e+002
7.096331e+002, 1.208500e+002
7.101152e+002, 1.206954e+002
7.105973e+002, 1.202688e+002
7.110794e+002, 1.198410e+002
7.115615e+002, 1.194181e+002
7.120436e+002, 1.189329e+002
7.125258e+002, 1.183604e+002
7.130079e+002, 1.178037e+002
7.134900e+002, 1.174261e+002
7.139721e+002, 1.171793e+002
7.144542e+002, 1.167632e+002
7.149363e+002, 1.161453e+002
7.154185e+002, 1.155274e+002
7.159006e+002, 1.150047e+002
7.163827e+002, 1.145379e+002
7.168648e+002, 1.141005e+002
7.173469e+002, 1.137412e+002
7.178290e+002, 1.131415e+002
7.183112e+002, 1.120289e+002
7.187933e+002, 1.109350e+002
7.192754e+002, 1.101645e+002
7.197575e+002, 1.095641e+002
7.202396e+002, 1.088788e+002
7.207217e+002, 1.080530e+002
7.212039e+002, 1.072239e+002
7.216860e+002, 1.063974e+002
7.221681e+002, 1.057032e+002
7.226502e+002, 1.059306e+002
7.231323e+002, 1.072852e+002
7.236144e+002, 1.078040e+002
7.240966e+002, 1.065943e+002
7.245787e+002, 1.047072e+002
7.250608e+002, 1.032679e+002
7.255429e+002, 1.022615e+002
7.260250e+002, 1.014579e+002
7.265071e+002, 1.007370e+002
7.269893e+002, 1.003422e+002
7.274714e+002, 1.006716e+002
7.279535e+002, 1.011896e+002
7.284356e+002, 1.012470e+002
7.289177e+002, 1.008175e+002
7.293998e+002, 1.003680e+002
7.298820e+002, 1.002712e+002
7.303641e+002, 1.003200e+002
7.308462e+002, 9.995879e+001
7.313283e+002, 9.916650e+001
7.318104e+002, 9.861694e+001
7.322925e+002, 9.852238e+001
7.327747e+002, 9.849616e+001
7.332568e+002, 9.817274e+001
7.337389e+002, 9.764117e+001
7.342210e+002, 9.737294e+001
7.347031e+002, 9.756904e+001
7.351852e+002, 9.771558e+001
7.356674e+002, 9.761331e+001
7.361495e+002, 9.749805e+001
7.366316e+002, 9.761256e+001
7.371137e+002, 9.788731e+001
7.375958e+002, 9.810525e+001
7.380779e+002, 9.816659e+001
7.385601e+002, 9.806495e+001
7.390422e+002, 9.763307e+001
7.395243e+002, 9.694689e+001
7.400064e+002, 9.680500e+001
7.404885e+002, 9.736919e+001
7.409706e+002, 9.803188e+001
7.414528e+002, 9.848345e+001
7.419349e+002, 9.879956e+001
7.424170e+002, 9.916357e+001
7.428991e+002, 9.964585e+001
7.433812e+002, 9.993945e+001
7.438633e+002, 9.977937e+001
7.443455e+002, 9.967601e+001
7.448276e+002, 9.989714e+001
7.453097e+002, 1.003535e+002
7.457918e+002, 1.009286e+002
7.462739e+002, 1.015702e+002
7.467560e+002, 1.021908e+002
7.472382e+002, 1.027574e+002
7.477203e+002, 1.032257e+002
7.482024e+002, 1.033681e+002
7.486845e+002, 1.031738e+002
7.491666e+002, 1.031283e+002
7.496487e+002, 1.034049e+002
7.501309e+002, 1.038605e+002
7.506130e+002, 1.043326e+002
7.510951e+002, 1.048139e+002
7.515772e+002, 1.054408e+002
7.520593e+002, 1.062195e+002
7.525414e+002, 1.071175e+002
7.530236e+002, 1.082294e+002
7.535057e+002, 1.093862e+002
7.539878e+002, 1.104068e+002
7.544699e+002, 1.113135e+002
7.549520e+002, 1.122503e+002
7.554341e+002, 1.132136e+002
7.559163e+002, 1.144370e+002
7.563984e+002, 1.166181e+002
7.568805e+002, 1.194140e+002
7.573626e+002, 1.211236e+002
7.578447e+002, 1.214188e+002
7.583268e+002, 1.215132e+002
7.588090e+002, 1.221702e+002
7.592911e+002, 1.233649e+002
7.597732e+002, 1.250341e+002
7.602553e+002, 1.276083e+002
7.607374e+002, 1.298923e+002
7.612195e+002, 1.315666e+002
7.617017e+002, 1.333040e+002
7.621838e+002, 1.354004e+002
7.626659e+002, 1.377762e+002
7.631480e+002, 1.402894e+002
7.636301e+002, 1.428949e+002
7.641122e+002, 1.456589e+002
7.645944e+002, 1.486837e+002
7.650765e+002, 1.518708e+002
7.655586e+002, 1.549806e+002
7.660407e+002, 1.580872e+002
7.665228e+002, 1.615360e+002
7.670049e+002, 1.654807e+002
7.674871e+002, 1.697190e+002
7.679692e+002, 1.739748e+002
7.684513e+002, 1.782794e+002
7.689334e+002, 1.825277e+002
7.694155e+002, 1.864475e+002
7.698976e+002, 1.907914e+002
7.703798e+002, 1.957576e+002
7.708619e+002, 2.011680e+002
7.713440e+002, 2.070416e+002
7.718261e+002, 2.132508e+002
7.723082e+002, 2.192432e+002
7.727903e+002, 2.244429e+002
7.732725e+002, 2.298808e+002
7.737546e+002, 2.362734e+002
7.742367e+002, 2.433393e+002
7.747188e+002, 2.509076e+002
7.752009e+002, 2.587826e+002
7.756830e+002, 2.662815e+002
7.761652e+002, 2.729780e+002
7.766473e+002, 2.790947e+002
7.771294e+002, 2.850226e+002
7.776115e+002, 2.906821e+002
7.780936e+002, 2.968487e+002
7.785757e+002, 3.039779e+002
7.790579e+002, 3.108806e+002
7.795400e+002, 3.167773e+002
7.800221e+002, 3.220792e+002
7.805042e+002, 3.274856e+002
7.809863e+002, 3.332122e+002
7.814684e+002, 3.382818e+002
7.819506e+002, 3.421830e+002
7.824327e+002, 3.456302e+002
7.829148e+002, 3.490656e+002
7.833969e+002, 3.523908e+002
7.838790e+002, 3.552889e+002
7.843611e+002, 3.577298e+002
7.848433e+002, 3.601356e+002
7.853254e+002, 3.629497e+002
7.858075e+002, 3.659920e+002
7.862896e+002, 3.685940e+002
7.867717e+002, 3.707357e+002
7.872538e+002, 3.731266e+002
7.877360e+002, 3.758994e+002
7.882181e+002, 3.790571e+002
7.887002e+002, 3.824280e+002
7.891823e+002, 3.861281e+002
7.896644e+002, 3.910341e+002
7.901465e+002, 3.987986e+002
7.906286e+002, 4.053648e+002
7.911107e+002, 4.093250e+002
7.915928e+002, 4.130273e+002
7.920750e+002, 4.179721e+002
7.925571e+002, 4.238768e+002
7.930392e+002, 4.297479e+002
7.935213e+002, 4.351129e+002
7.940034e+002, 4.412979e+002
7.944855e+002, 4.498082e+002
7.949677e+002, 4.597972e+002
7.954498e+002, 4.695030e+002
7.959319e+002, 4.790239e+002
7.964140e+002, 4.893158e+002
7.968961e+002, 5.008116e+002
7.973782e+002, 5.132339e+002
7.978604e+002, 5.260804e+002
7.983425e+002, 5.393704e+002
7.988246e+002, 5.544226e+002
7.993067e+002, 5.717889e+002
7.997888e+002, 5.900057e+002
8.002709e+002, 6.081506e+002
8.007531e+002, 6.274570e+002
8.012352e+002, 6.483190e+002
8.017173e+002, 6.709988e+002
8.021994e+002, 6.961716e+002
8.026815e+002, 7.241325e+002
8.031636e+002, 7.543985e+002
8.036458e+002, 7.863920e+002
8.041279e+002, 8.204875e+002
8.046100e+002, 8.569048e+002
8.050921e+002, 8.956949e+002
8.055742e+002, 9.372571e+002
8.060563e+002, 9.814509e+002
8.065385e+002, 1.029454e+003
8.070206e+002, 1.082783e+003
8.075027e+002, 1.141460e+003
8.079848e+002, 1.204194e+003
8.084669e+002, 1.270743e+003
8.089490e+002, 1.343809e+003
8.094312e+002, 1.424400e+003
8.099133e+002, 1.511821e+003
8.103954e+002, 1.604765e+003
8.108775e+002, 1.703200e+003
8.113596e+002, 1.808878e+003
8.118417e+002, 1.919864e+003
8.123239e+002, 2.039803e+003
8.128060e+002, 2.169080e+003
8.132881e+002, 2.307856e+003
8.137702e+002, 2.456123e+003
8.142523e+002, 2.612965e+003
8.147344e+002, 2.776115e+003
8.152166e+002, 2.946118e+003
8.156987e+002, 3.117792e+003
8.161808e+002, 3.287278e+003
8.166629e+002, 3.451960e+003
8.171450e+002, 3.607893e+003
8.176271e+002, 3.753773e+003
8.181093e+002, 3.890784e+003
8.185914e+002, 4.023028e+003
8.190735e+002, 4.125624e+003
8.195556e+002, 4.134247e+003
8.200377e+002, 4.021661e+003
8.205198e+002, 3.995248e+003
8.210020e+002, 4.116835e+003
8.214841e+002, 4.207560e+003
8.219662e+002, 4.195083e+003
8.224483e+002, 4.121779e+003
8.229304e+002, 4.028388e+003
8.234125e+002, 3.915911e+003
8.238947e+002, 3.792783e+003
8.243768e+002, 3.655347e+003
8.248589e+002, 3.514744e+003
8.253410e+002, 3.373245e+003
8.258231e+002, 3.232093e+003
8.263052e+002, 3.091687e+003
8.267874e+002, 2.953236e+003
8.272695e+002, 2.819432e+003
8.277516e+002, 2.690633e+003
8.282337e+002, 2.569452e+003
8.287158e+002, 2.459063e+003
8.291979e+002, 2.359155e+003
8.296801e+002, 2.268507e+003
8.301622e+002, 2.187470e+003
8.306443e+002, 2.114939e+003
8.311264e+002, 2.050634e+003
8.316085e+002, 1.994979e+003
8.320906e+002, 1.948527e+003
8.325728e+002, 1.912123e+003
8.330549e+002, 1.880154e+003
8.335370e+002, 1.851629e+003
8.340191e+002, 1.829531e+003
8.345012e+002, 1.815783e+003
8.349833e+002, 1.807409e+003
8.354655e+002, 1.802401e+003
8.359476e+002, 1.800574e+003
8.364297e+002, 1.801792e+003
8.369118e+002, 1.806817e+003
8.373939e+002, 1.813616e+003
8.378760e+002, 1.822681e+003
8.383582e+002, 1.831914e+003
8.388403e+002, 1.839692e+003
8.393224e+002, 1.845351e+003
8.398045e+002, 1.848151e+003
8.402866e+002, 1.847754e+003
8.407687e+002, 1.843746e+003
8.412509e+002, 1.836457e+003
8.417330e+002, 1.825292e+003
8.422151e+002, 1.806610e+003
8.426972e+002, 1.780380e+003
8.431793e+002, 1.747913e+003
8.436614e+002, 1.709630e+003
8.441436e+002, 1.665938e+003
8.446257e+002, 1.617054e+003
8.451078e+002, 1.562981e+003
8.455899e+002, 1.507821e+003
8.460720e+002, 1.451276e+003
8.465541e+002, 1.394364e+003
8.470363e+002, 1.335269e+003
8.475184e+002, 1.277480e+003
8.480005e+002, 1.222526e+003
8.484826e+002, 1.170431e+003
8.489647e+002, 1.120699e+003
8.494468e+002, 1.073209e+003
8.499290e+002, 1.028173e+003
8.504111e+002, 9.854875e+002
8.508932e+002, 9.452584e+002
8.513753e+002, 9.069169e+002
8.518574e+002, 8.709164e+002
8.523395e+002, 8.384443e+002
8.528217e+002, 8.099299e+002
8.533038e+002, 7.838847e+002
8.537859e+002, 7.591358e+002
8.542680e+002, 7.360126e+002
8.547501e+002, 7.161375e+002
8.552322e+002, 6.994694e+002
8.557144e+002, 6.840892e+002
8.561965e+002, 6.695983e+002
8.566786e+002, 6.567336e+002
8.571607e+002, 6.462627e+002
8.576428e+002, 6.377872e+002
8.581249e+002, 6.299851e+002
8.586071e+002, 6.229641e+002
8.590892e+002, 6.164330e+002
8.595713e+002, 6.097602e+002
8.600534e+002, 6.042891e+002
8.605355e+002, 6.001500e+002
8.610176e+002, 5.976417e+002
8.614998e+002, 5.975465e+002
8.619819e+002, 5.998036e+002
8.624640e+002, 6.021740e+002
8.629461e+002, 6.038062e+002
8.634282e+002, 6.052289e+002
8.639103e+002, 6.065118e+002
8.643925e+002, 6.079636e+002
8.648746e+002, 6.104054e+002
8.653567e+002, 6.135585e+002
8.658388e+002, 6.161158e+002
8.663209e+002, 6.174078e+002
8.668030e+002, 6.171030e+002
8.672852e+002, 6.144601e+002
8.677673e+002, 6.097184e+002
8.682494e+002, 6.039360e+002
8.687315e+002, 5.971677e+002
8.692136e+002, 5.900393e+002
8.696957e+002, 5.829736e+002
8.701779e+002, 5.749933e+002
8.706600e+002, 5.648735e+002
8.711421e+002, 5.525895e+002
8.716242e+002, 5.391547e+002
8.721063e+002, 5.243663e+002
8.725884e+002, 5.087762e+002
8.730705e+002, 4.919921e+002
8.735526e+002, 4.749904e+002
8.740347e+002, 4.583123e+002
8.745168e+002, 4.419349e+002
8.749990e+002, 4.253547e+002
8.754811e+002, 4.083549e+002
8.759632e+002, 3.919358e+002
8.764453e+002, 3.768301e+002
8.769274e+002, 3.621717e+002
8.774095e+002, 3.469410e+002
8.778917e+002, 3.318637e+002
8.783738e+002, 3.182790e+002
8.788559e+002, 3.064224e+002
8.793380e+002, 2.951949e+002
8.798201e+002, 2.836300e+002
8.803022e+002, 2.723485e+002
8.807844e+002, 2.624026e+002
8.812665e+002, 2.535810e+002
8.817486e+002, 2.451584e+002
8.822307e+002, 2.370260e+002
8.827128e+002, 2.295837e+002
8.831949e+002, 2.231293e+002
8.836771e+002, 2.174805e+002
8.841592e+002, 2.124600e+002
8.846413e+002, 2.082228e+002
8.851234e+002, 2.033316e+002
8.856055e+002, 1.975696e+002
8.860876e+002, 1.916445e+002
8.865698e+002, 1.855679e+002
8.870519e+002, 1.796513e+002
8.875340e+002, 1.741706e+002
8.880161e+002, 1.691320e+002
8.884982e+002, 1.643607e+002
8.889803e+002, 1.598521e+002
8.894625e+002, 1.556194e+002
8.899446e+002, 1.516501e+002
8.904267e+002, 1.479483e+002
8.909088e+002, 1.447384e+002
8.913909e+002, 1.417449e+002
8.918730e+002, 1.383933e+002
8.923552e+002, 1.344802e+002
8.928373e+002, 1.307892e+002
8.933194e+002, 1.279864e+002
8.938015e+002, 1.255059e+002
8.942836e+002, 1.227431e+002
8.947657e+002, 1.198418e+002
8.952479e+002, 1.171528e+002
8.957300e+002, 1.147631e+002
8.962121e+002, 1.125631e+002
8.966942e+002, 1.104815e+002
8.971763e+002, 1.085607e+002
8.976584e+002, 1.069610e+002
8.981406e+002, 1.056496e+002
8.986227e+002, 1.042497e+002
8.991048e+002, 1.027299e+002
8.995869e+002, 1.011037e+002
9.000690e+002, 9.933078e+001
9.005511e+002, 9.756790e+001
9.010333e+002, 9.607935e+001
9.015154e+002, 9.488826e+001
9.019975e+002, 9.342070e+001
9.024796e+002, 9.133826e+001
9.029617e+002, 8.959750e+001
9.034438e+002, 8.850657e+001
9.039260e+002, 8.768653e+001
9.044081e+002, 8.694130e+001
9.048902e+002, 8.626012e+001
9.053723e+002, 8.564875e+001
9.058544e+002, 8.516846e+001
9.063365e+002, 8.459122e+001
9.068187e+002, 8.393414e+001
9.073008e+002, 8.309071e+001
9.077829e+002, 8.190443e+001
9.082650e+002, 8.054843e+001
9.087471e+002, 7.920325e+001
9.092292e+002, 7.792971e+001
9.097114e+002, 7.673586e+001
9.101935e+002, 7.542716e+001
9.106756e+002, 7.453083e+001
9.111577e+002, 7.516843e+001
9.116398e+002, 7.635758e+001
9.121219e+002, 7.611960e+001
9.126041e+002, 7.451293e+001
9.130862e+002, 7.281164e+001
9.135683e+002, 7.161818e+001
9.140504e+002, 7.087678e+001
9.145325e+002, 7.066521e+001
9.150146e+002, 7.084920e+001
9.154968e+002, 7.057989e+001
9.159789e+002, 6.983846e+001
9.164610e+002, 6.921233e+001
9.169431e+002, 6.886961e+001
9.174252e+002, 6.854387e+001
9.179073e+002, 6.797579e+001
9.183895e+002, 6.727872e+001
9.188716e+002, 6.688448e+001
9.193537e+002, 6.696629e+001
9.198358e+002, 6.691044e+001
9.203179e+002, 6.681850e+001
9.208000e+002, 6.643606e+001
9.212822e+002, 6.531608e+001
9.217643e+002, 6.407667e+001
9.222464e+002, 6.336779e+001
9.227285e+002, 6.319208e+001
9.232106e+002, 6.328879e+001
9.236927e+002, 6.405721e+001
9.241749e+002, 6.450471e+001
9.246570e+002, 6.404398e+001
9.251391e+002, 6.343424e+001
9.256212e+002, 6.326217e+001
9.261033e+002, 6.341909e+001
9.265854e+002, 6.361390e+001
9.270676e+002, 6.376633e+001
9.275497e+002, 6.379312e+001
9.280318e+002, 6.361265e+001
9.285139e+002, 6.330555e+001
9.289960e+002, 6.291270e+001
9.294781e+002, 6.246702e+001
9.299603e+002, 6.196947e+001
9.304424e+002, 6.145893e+001
9.309245e+002, 6.111296e+001
9.314066e+002, 6.106093e+001
9.318887e+002, 6.113269e+001
9.323708e+002, 6.113350e+001
9.328530e+002, 6.103044e+001
9.333351e+002, 6.057682e+001
9.338172e+002, 5.979366e+001
9.342993e+002, 5.924573e+001
9.347814e+002, 5.915389e+001
9.352635e+002, 5.929762e+001
9.357457e+002, 5.949514e+001
9.362278e+002, 5.968268e+001
9.367099e+002, 5.942416e+001
9.371920e+002, 5.857316e+001
9.376741e+002, 5.790099e+001
9.381563e+002, 5.747276e+001
9.386384e+002, 5.728826e+001
9.391205e+002, 5.745774e+001
9.396026e+002, 5.778058e+001
9.400847e+002, 5.789563e+001
9.405668e+002, 5.776604e+001
9.410490e+002, 5.764658e+001
9.415311e+002, 5.755241e+001
9.420132e+002, 5.744755e+001
9.424953e+002, 5.730543e+001
9.429774e+002, 5.716887e+001
9.434595e+002, 5.701009e+001
9.439417e+002, 5.688975e+001
9.444238e+002, 5.700594e+001
9.449059e+002, 5.751664e+001
9.453880e+002, 5.780266e+001
9.458701e+002, 5.736791e+001
9.463522e+002, 5.693254e+001
9.468344e+002, 5.700707e+001
9.473165e+002, 5.735831e+001
9.477986e+002, 5.772530e+001
9.482807e+002, 5.801653e+001
9.487628e+002, 5.811187e+001
9.492449e+002, 5.785125e+001
9.497271e+002, 5.762202e+001
9.502092e+002, 5.795033e+001
9.506913e+002, 5.845896e+001
9.511734e+002, 5.841192e+001
9.516555e+002, 5.799772e+001
9.521376e+002, 5.808339e+001
9.526198e+002, 5.891352e+001
9.531019e+002, 5.969950e+001
9.535840e+002, 5.960809e+001
9.540661e+002, 5.903584e+001
9.545482e+002, 5.895680e+001
9.550303e+002, 5.930146e+001
9.555124e+002, 5.962882e+001
9.559945e+002, 5.987754e+001
9.564766e+002, 6.005096e+001
9.569587e+002, 6.012579e+001
9.574409e+002, 6.028511e+001
9.579230e+002, 6.091460e+001
9.584051e+002, 6.199885e+001
9.588872e+002, 6.232209e+001
9.593693e+002, 6.162986e+001
9.598514e+002, 6.127798e+001
9.603336e+002, 6.160535e+001
9.608157e+002, 6.225029e+001
9.612978e+002, 6.310950e+001
9.617799e+002, 6.398275e+001
9.622620e+002, 6.426466e+001
9.627441e+002, 6.367792e+001
9.632263e+002, 6.335506e+001
9.637084e+002, 6.332108e+001
9.641905e+002, 6.352447e+001
9.646726e+002, 6.415037e+001
9.651547e+002, 6.483783e+001
9.656368e+002, 6.519743e+001
9.661190e+002, 6.533010e+001
9.666011e+002, 6.574007e+001
9.670832e+002, 6.671545e+001
9.675653e+002, 6.751125e+001
9.680474e+002, 6.776781e+001
9.685295e+002, 6.802175e+001
9.690117e+002, 6.877119e+001
9.694938e+002, 6.959451e+001
9.699759e+002, 6.978536e+001
9.704580e+002, 6.936471e+001
9.709401e+002, 6.917403e+001
9.714222e+002, 6.966837e+001
9.719044e+002, 7.034562e+001
9.723865e+002, 7.104827e+001
9.728686e+002, 7.164999e+001
9.733507e+002, 7.194247e+001
9.738328e+002, 7.203270e+001
9.743149e+002, 7.217566e+001
9.747971e+002, 7.244527e+001
9.752792e+002, 7.272738e+001
9.757613e+002, 7.290598e+001
9.762434e+002, 7.307474e+001
9.767255e+002, 7.350354e+001
9.772076e+002, 7.397018e+001
9.776898e+002, 7.390927e+001
9.781719e+002, 7.335674e+001
9.786540e+002, 7.283138e+001
9.791361e+002, 7.257754e+001
9.796182e+002, 7.245550e+001
9.801003e+002, 7.234877e+001
9.805825e+002, 7.221240e+001
9.810646e+002, 7.196896e+001
9.815467e+002, 7.158796e+001
9.820288e+002, 7.071852e+001
9.825109e+002, 6.929671e+001
9.829930e+002, 6.786460e+001
9.834752e+002, 6.679527e+001
9.839573e+002, 6.585133e+001
9.844394e+002, 6.450991e+001
9.849215e+002, 6.276773e+001
9.854036e+002, 6.145811e+001
9.858857e+002, 6.063394e+001
9.863679e+002, 5.996566e+001
9.868500e+002, 5.940879e+001
9.873321e+002, 5.884199e+001
9.878142e+002, 5.814296e+001
9.882963e+002, 5.738109e+001
9.887784e+002, 5.679870e+001
9.892606e+002, 5.651399e+001
9.897427e+002, 5.597958e+001
9.902248e+002, 5.502533e+001
9.907069e+002, 5.414606e+001
9.911890e+002, 5.348848e+001
9.916711e+002, 5.297089e+001
9.921533e+002, 5.256120e+001
9.926354e+002, 5.223283e+001
9.931175e+002, 5.183490e+001
9.935996e+002, 5.145814e+001
9.940817e+002, 5.085212e+001
9.945638e+002, 4.971446e+001
9.950460e+002, 4.870028e+001
9.955281e+002, 4.815453e+001
9.960102e+002, 4.779619e+001
9.964923e+002, 4.730957e+001
9.969744e+002, 4.670647e+001
9.974565e+002, 4.621752e+001
9.979387e+002, 4.593840e+001
9.984208e+002, 4.569109e+001
9.989029e+002, 4.534737e+001
9.993850e+002, 4.511125e+001
9.998671e+002, 4.527681e+001
1.000349e+003, 4.554613e+001
1.000831e+003, 4.550814e+001
1.001313e+003, 4.511334e+001
1.001796e+003, 4.454153e+001
1.002278e+003, 4.359449e+001
1.002760e+003, 4.290425e+001
1.003242e+003, 4.307608e+001
1.003724e+003, 4.343469e+001
1.004206e+003, 4.339656e+001
1.004688e+003, 4.303022e+001
1.005170e+003, 4.253803e+001
1.005653e+003, 4.199272e+001
1.006135e+003, 4.148748e+001
1.006617e+003, 4.103365e+001
1.007099e+003, 4.070388e+001
1.007581e+003, 4.069961e+001
1.008063e+003, 4.077963e+001
1.008545e+003, 4.062952e+001
1.009027e+003, 4.024205e+001
1.009509e+003, 3.964726e+001
1.009992e+003, 3.888359e+001
1.010474e+003, 3.819625e+001
1.010956e+003, 3.772065e+001
1.011438e+003, 3.754026e+001
1.011920e+003, 3.797796e+001
1.012402e+003, 3.875510e+001
1.012884e+003, 3.942082e+001
1.013366e+003, 3.979133e+001
1.013849e+003, 3.926707e+001
1.014331e+003, 3.761094e+001
1.014813e+003, 3.586497e+001
1.015295e+003, 3.521260e+001
1.015777e+003, 3.532074e+001
1.016259e+003, 3.555816e+001
1.016741e+003, 3.582540e+001
1.017223e+003, 3.550523e+001
1.017705e+003, 3.457733e+001
1.018188e+003, 3.385972e+001
1.018670e+003, 3.377970e+001
1.019152e+003, 3.398765e+001
1.019634e+003, 3.404008e+001
1.020116e+003, 3.395289e+001
1.020598e+003, 3.379530e+001
1.021080e+003, 3.356880e+001
1.021562e+003, 3.327198e+001
1.022044e+003, 3.289702e+001
1.022527e+003, 3.259383e+001
1.023009e+003, 3.245318e+001
1.023491e+003, 3.241157e+001
1.023973e+003, 3.238895e+001
1.024455e+003, 3.237685e+001
1.024937e+003, 3.221549e+001
1.025419e+003, 3.188476e+001
1.025901e+003, 3.157050e+001
1.026384e+003, 3.129289e+001
1.026866e+003, 3.109858e+001
1.027348e+003, 3.102983e+001
1.027830e+003, 3.103314e+001
1.028312e+003, 3.101176e+001
1.028794e+003, 3.096432e+001
1.029276e+003, 3.094856e+001
1.029758e+003, 3.103144e+001
1.030240e+003, 3.088253e+001
1.030723e+003, 3.033103e+001
1.031205e+003, 2.978551e+001
1.031687e+003, 2.948240e+001
1.032169e+003, 2.939136e+001
1.032651e+003, 2.945250e+001
1.033133e+003, 2.966628e+001
1.033615e+003, 2.998886e+001
1.034097e+003, 3.017730e+001
1.034579e+003, 3.111481e+001
1.035062e+003, 3.395586e+001
1.035544e+003, 3.605702e+001
1.036026e+003, 3.522047e+001
1.036508e+003, 3.271318e+001
1.036990e+003, 3.116110e+001
1.037472e+003, 3.072094e+001
1.037954e+003, 3.036850e+001
1.038436e+003, 3.017636e+001
1.038919e+003, 2.994755e+001
1.039401e+003, 2.912826e+001
1.039883e+003, 2.883609e+001
1.040365e+003, 3.060303e+001
1.040847e+003, 3.315240e+001
1.041329e+003, 3.351537e+001
1.041811e+003, 3.105454e+001
1.042293e+003, 2.981193e+001
1.042776e+003, 3.108830e+001
1.043258e+003, 3.186079e+001
1.043740e+003, 3.116667e+001
1.044222e+003, 3.021133e+001
1.044704e+003, 2.964162e+001
1.045186e+003, 2.940694e+001
1.045668e+003, 2.943309e+001
1.046150e+003, 2.976816e+001
1.046632e+003, 2.998214e+001
1.047115e+003, 3.001589e+001
1.047597e+003, 2.994239e+001
1.048079e+003, 2.962967e+001
1.048561e+003, 2.936106e+001
1.049043e+003, 2.903339e+001
1.049525e+003, 2.899453e+001
1.050007e+003, 3.028809e+001
1.050489e+003, 3.326362e+001
1.050971e+003, 3.458312e+001
1.051454e+003, 3.226985e+001
1.051936e+003, 3.003326e+001
1.052418e+003, 2.875491e+001
1.052900e+003, 2.814055e+001
1.053382e+003, 2.832699e+001
1.053864e+003, 2.886209e+001
1.054346e+003, 2.892851e+001
1.054828e+003, 2.839715e+001
1.055311e+003, 2.805313e+001
1.055793e+003, 2.826499e+001
1.056275e+003, 2.847734e+001
1.056757e+003, 2.849496e+001
1.057239e+003, 2.844990e+001
1.057721e+003, 2.847491e+001
1.058203e+003, 2.849566e+001
1.058685e+003, 2.831436e+001
1.059167e+003, 2.791106e+001
1.059650e+003, 2.767951e+001
1.060132e+003, 2.790049e+001
1.060614e+003, 2.810899e+001
1.061096e+003, 2.808668e+001
1.061578e+003, 2.802696e+001
1.062060e+003, 2.813308e+001
1.062542e+003, 2.828086e+001
1.063024e+003, 2.821755e+001
1.063506e+003, 2.792224e+001
1.063989e+003, 2.767944e+001
1.064471e+003, 2.749944e+001
1.064953e+003, 2.752091e+001
1.065435e+003, 2.799232e+001
1.065917e+003, 2.849698e+001
1.066399e+003, 2.874412e+001
1.066881e+003, 2.879461e+001
1.067363e+003, 2.873942e+001
1.067846e+003, 2.861184e+001
1.068328e+003, 2.849772e+001
1.068810e+003, 2.838967e+001
1.069292e+003, 2.837007e+001
1.069774e+003, 2.862284e+001
1.070256e+003, 2.882896e+001
1.070738e+003, 2.869210e+001
1.071220e+003, 2.838780e+001
1.071703e+003, 2.813232e+001
1.072185e+003, 2.797922e+001
1.072667e+003, 2.796259e+001
1.073149e+003, 2.810361e+001
1.073631e+003, 2.836157e+001
1.074113e+003, 2.897224e+001
1.074595e+003, 2.942658e+001
1.075077e+003, 2.921993e+001
1.075559e+003, 2.871733e+001
1.076042e+003, 2.837001e+001
1.076524e+003, 2.822964e+001
1.077006e+003, 2.820791e+001
1.077488e+003, 2.839428e+001
1.077970e+003, 2.830789e+001
1.078452e+003, 2.735395e+001
1.078934e+003, 2.645772e+001
1.079416e+003, 2.620242e+001
1.079898e+003, 2.638755e+001
1.080380e+003, 2.696883e+001
1.080863e+003, 2.772029e+001
1.081345e+003, 2.806673e+001
1.081827e+003, 2.780492e+001
1.082309e+003, 2.725957e+001
1.082791e+003, 2.618143e+001
1.083273e+003, 2.531982e+001
1.083755e+003, 2.534128e+001
1.084237e+003, 2.565960e+001
1.084720e+003, 2.570347e+001
1.085202e+003, 2.546654e+001
1.085684e+003, 2.508756e+001
1.086166e+003, 2.457459e+001
1.086648e+003, 2.421275e+001
1.087130e+003, 2.419443e+001
1.087612e+003, 2.426800e+001
1.088094e+003, 2.440653e+001
1.088577e+003, 2.448621e+001
1.089059e+003, 2.429936e+001
1.089541e+003, 2.399557e+001
1.090023e+003, 2.392626e+001
1.090505e+003, 2.416400e+001
1.090987e+003, 2.435003e+001
1.091469e+003, 2.442824e+001
1.091951e+003, 2.432501e+001
1.092433e+003, 2.375146e+001
1.092916e+003, 2.323402e+001
1.093398e+003, 2.328061e+001
1.093880e+003, 2.363692e+001
1.094362e+003, 2.388856e+001
1.094844e+003, 2.396370e+001
1.095326e+003, 2.388113e+001
1.095808e+003, 2.345161e+001
1.096290e+003, 2.315385e+001
1.096772e+003, 2.330222e+001
1.097255e+003, 2.346116e+001
1.097737e+003, 2.331773e+001
1.098219e+003, 2.303715e+001
1.098701e+003, 2.283368e+001
1.099183e+003, 2.273016e+001
1.099665e+003, 2.268078e+001
1.100147e+003, 2.267056e+001
1.100629e+003, 2.272327e+001
1.101112e+003, 2.290086e+001
1.101594e+003, 2.307615e+001
1.102076e+003, 2.324063e+001
1.102558e+003, 2.333054e+001
1.103040e+003, 2.324002e+001
1.103522e+003, 2.301588e+001
1.104004e+003, 2.284316e+001
1.104486e+003, 2.276638e+001
1.104969e+003, 2.268289e+001
1.105451e+003, 2.252155e+001
1.105933e+003, 2.242064e+001
1.106415e+003, 2.250261e+001
1.106897e+003, 2.259522e+001
1.107379e+003, 2.250529e+001
1.107861e+003, 2.232938e+001
1.108343e+003, 2.235991e+001
1.108825e+003, 2.270035e+001
1.109307e+003, 2.276773e+001
1.109790e+003, 2.227234e+001
1.110272e+003, 2.184033e+001
1.110754e+003, 2.160358e+001
1.111236e+003, 2.145806e+001
1.111718e+003, 2.131147e+001
1.112200e+003, 2.122793e+001
1.112682e+003, 2.139209e+001
1.113164e+003, 2.183059e+001
1.113647e+003, 2.195951e+001
1.114129e+003, 2.151766e+001
1.114611e+003, 2.119794e+001
1.115093e+003, 2.101744e+001
1.115575e+003, 2.101107e+001
1.116057e+003, 2.134213e+001
1.116539e+003, 2.171423e+001
1.117021e+003, 2.169431e+001
1.117504e+003, 2.137772e+001
1.117986e+003, 2.143812e+001
1.118468e+003, 2.160727e+001
1.118950e+003, 2.296548e+001
1.119432e+003, 2.706055e+001
1.119914e+003, 2.913487e+001
1.120396e+003, 2.684658e+001
1.120878e+003, 2.340669e+001
1.121360e+003, 2.129766e+001
1.121843e+003, 2.032305e+001
1.122325e+003, 1.998803e+001
1.122807e+003, 2.041665e+001
1.123289e+003, 2.074515e+001
1.123771e+003, 2.098122e+001
1.124253e+003, 2.108455e+001
1.124735e+003, 2.101899e+001
1.125217e+003, 2.089091e+001
1.125699e+003, 2.073740e+001
1.126182e+003, 2.063414e+001
1.126664e+003, 2.075628e+001
1.127146e+003, 2.107589e+001
1.127628e+003, 2.099578e+001
1.128110e+003, 2.043202e+001
1.128592e+003, 2.029821e+001
1.129074e+003, 2.078419e+001
1.129556e+003, 2.115616e+001
1.130039e+003, 2.107767e+001
1.130521e+003, 2.076501e+001
1.131003e+003, 2.044051e+001
1.131485e+003, 2.011603e+001
1.131967e+003, 1.980292e+001
1.132449e+003, 1.951118e+001
1.132931e+003, 1.944974e+001
1.133413e+003, 1.962463e+001
1.133896e+003, 1.968122e+001
1.134378e+003, 1.951296e+001
1.134860e+003, 2.013690e+001
1.135342e+003, 2.254565e+001
1.135824e+003, 2.514497e+001
1.136306e+003, 2.451995e+001
1.136788e+003, 2.166961e+001
1.137270e+003, 2.049819e+001
1.137752e+003, 2.074745e+001
1.138234e+003, 2.091915e+001
1.138717e+003, 2.073758e+001
1.139199e+003, 2.054996e+001
1.139681e+003, 2.053401e+001
1.140163e+003, 2.052402e+001
1.140645e+003, 2.030327e+001
1.141127e+003, 1.999222e+001
1.141609e+003, 1.970269e+001
1.142091e+003, 1.953711e+001
1.142574e+003, 1.989467e+001
1.143056e+003, 2.059562e+001
1.143538e+003, 2.091838e+001
1.144020e+003, 2.067560e+001
1.144502e+003, 2.033864e+001
1.144984e+003, 2.008366e+001
1.145466e+003, 2.025181e+001
1.145948e+003, 2.177617e+001
1.146431e+003, 2.346353e+001
1.146913e+003, 2.379850e+001
1.147395e+003, 2.314328e+001
1.147877e+003, 2.206806e+001
1.148359e+003, 2.086765e+001
1.148841e+003, 2.004843e+001
1.149323e+003, 1.984286e+001
1.149805e+003, 1.989770e+001
1.150287e+003, 2.017436e+001
1.150770e+003, 2.042292e+001
1.151252e+003, 2.043710e+001
1.151734e+003, 2.034881e+001
1.152216e+003, 2.028872e+001
1.152698e+003, 2.025501e+001
1.153180e+003, 2.020779e+001
1.153662e+003, 2.013859e+001
1.154144e+003, 2.004943e+001
1.154626e+003, 1.942635e+001
1.155109e+003, 1.951577e+001
1.155591e+003, 2.154473e+001
1.156073e+003, 2.351158e+001
1.156555e+003, 2.441992e+001
1.157037e+003, 2.437715e+001
1.157519e+003, 2.320635e+001
1.158001e+003, 2.117081e+001
1.158483e+003, 1.992186e+001
1.158966e+003, 1.994300e+001
1.159448e+003, 2.002528e+001
1.159930e+003, 2.016487e+001
1.160412e+003, 2.025944e+001
1.160894e+003, 2.024027e+001
1.161376e+003, 2.021550e+001
1.161858e+003, 2.028236e+001
1.162340e+003, 2.039120e+001
1.162822e+003, 2.045078e+001
1.163305e+003, 2.047312e+001
1.163787e+003, 2.028814e+001
1.164269e+003, 1.974009e+001
1.164751e+003, 1.945793e+001
1.165233e+003, 1.959134e+001
1.165715e+003, 1.980268e+001
1.166197e+003, 1.994122e+001
1.166679e+003, 2.004883e+001
1.167161e+003, 2.011513e+001
1.167644e+003, 2.025387e+001
1.168126e+003, 2.118079e+001
1.168608e+003, 2.295969e+001
1.169090e+003, 2.333082e+001
1.169572e+003, 2.215488e+001
1.170054e+003, 2.121736e+001
1.170536e+003, 2.100719e+001
1.171018e+003, 2.104114e+001
1.171500e+003, 2.100065e+001
1.171983e+003, 2.092516e+001
1.172465e+003, 2.087235e+001
1.172947e+003, 2.083839e+001
1.173429e+003, 2.077919e+001
1.173911e+003, 2.072838e+001
1.174393e+003, 2.088336e+001
1.174875e+003, 2.119993e+001
1.175357e+003, 2.132980e+001
1.175840e+003, 2.115277e+001
1.176322e+003, 2.091168e+001
1.176804e+003, 2.081800e+001
1.177286e+003, 2.073341e+001
1.177768e+003, 2.035620e+001
1.178250e+003, 1.997403e+001
1.178732e+003, 2.010084e+001
1.179214e+003, 2.051512e+001
1.179697e+003, 2.075644e+001
1.180179e+003, 2.076860e+001
1.180661e+003, 2.072380e+001
1.181143e+003, 2.068986e+001
1.181625e+003, 2.063479e+001
1.182107e+003, 2.053373e+001
1.182589e+003, 2.041188e+001
1.183071e+003, 2.031814e+001
1.183553e+003, 2.018286e+001
1.184036e+003, 1.981283e+001
1.184518e+003, 1.940526e+001
1.185000e+003, 1.935373e+001
1.185482e+003, 1.969776e+001
1.185964e+003, 2.005233e+001
1.186446e+003, 2.040169e+001
1.186928e+003, 2.064174e+001
1.187410e+003, 2.069546e+001
1.187892e+003, 2.071158e+001
1.188375e+003, 2.078668e+001
1.188857e+003, 2.081907e+001
1.189339e+003, 2.064436e+001
1.189821e+003, 2.037167e+001
1.190303e+003, 2.032355e+001
1.190785e+003, 2.053013e+001
1.191267e+003, 2.081315e+001
1.191749e+003, 2.131829e+001
1.192232e+003, 2.146076e+001
1.192714e+003, 2.105034e+001
1.193196e+003, 2.052414e+001
1.193678e+003, 2.003369e+001
1.194160e+003, 1.973478e+001
1.194642e+003, 1.985965e+001
1.195124e+003, 2.028943e+001
1.195606e+003, 2.054648e+001
1.196089e+003, 2.063924e+001
1.196571e+003, 2.080798e+001
1.197053e+003, 2.105725e+001
1.197535e+003, 2.126880e+001
1.198017e+003, 2.141214e+001
1.198499e+003, 2.152538e+001
1.198981e+003, 2.163499e+001
1.199463e+003, 2.167951e+001
1.199945e+003, 2.152778e+001
1.200427e+003, 2.129213e+001
1.200910e+003, 2.117921e+001
1.201392e+003, 2.116540e+001
1.201874e+003, 2.068642e+001
1.202356e+003, 2.031904e+001
1.202838e+003, 2.240296e+001
1.203320e+003, 2.707179e+001
1.203802e+003, 3.067162e+001
1.204284e+003, 3.112207e+001
1.204767e+003, 2.975231e+001
1.205249e+003, 2.619767e+001
1.205731e+003, 2.271096e+001
1.206213e+003, 2.123648e+001
1.206695e+003, 2.089786e+001
1.207177e+003, 2.073442e+001
1.207659e+003, 2.063368e+001
1.208141e+003, 2.073983e+001
1.208624e+003, 2.109930e+001
1.209106e+003, 2.133040e+001
1.209588e+003, 2.133664e+001
1.210070e+003, 2.121281e+001
1.210552e+003, 2.070572e+001
1.211034e+003, 2.039718e+001
1.211516e+003, 2.082787e+001
1.211998e+003, 2.137744e+001
1.212480e+003, 2.137712e+001
1.212963e+003, 2.098851e+001
1.213445e+003, 2.084339e+001
1.213927e+003, 2.102769e+001
1.214409e+003, 2.101113e+001
1.214891e+003, 2.074655e+001
1.215373e+003, 2.044816e+001
1.215855e+003, 2.012829e+001
1.216337e+003, 1.991856e+001
1.216819e+003, 1.989849e+001
1.217302e+003, 1.998200e+001
1.217784e+003, 2.009125e+001
1.218266e+003, 2.017573e+001
1.218748e+003, 2.000399e+001
1.219230e+003, 1.966012e+001
1.219712e+003, 1.958254e+001
1.220194e+003, 1.975546e+001
1.220676e+003, 1.999372e+001
1.221159e+003, 2.023641e+001
1.221641e+003, 2.042990e+001
1.222123e+003, 2.054631e+001
1.222605e+003, 2.059644e+001
1.223087e+003, 2.053948e+001
1.223569e+003, 2.047421e+001
1.224051e+003, 2.050450e+001
1.224533e+003, 2.060231e+001
1.225016e+003, 2.078728e+001
1.225498e+003, 2.098473e+001
1.225980e+003, 2.100512e+001
1.226462e+003, 2.087137e+001
1.226944e+003, 2.083807e+001
1.227426e+003, 2.077320e+001
1.227908e+003, 2.147358e+001
1.228390e+003, 2.482769e+001
1.228872e+003, 2.687476e+001
1.229354e+003, 2.463285e+001
1.229837e+003, 2.173080e+001
1.230319e+003, 2.119880e+001
1.230801e+003, 2.187487e+001
1.231283e+003, 2.143914e+001
1.231765e+003, 1.994527e+001
1.232247e+003, 1.933801e+001
1.232729e+003, 1.998374e+001
1.233211e+003, 2.038599e+001
1.233694e+003, 2.041539e+001
1.234176e+003, 2.043917e+001
1.234658e+003, 2.056433e+001
1.235140e+003, 2.073397e+001
1.235622e+003, 2.092087e+001
1.236104e+003, 2.107380e+001
1.236586e+003, 2.110906e+001
1.237068e+003, 2.103285e+001
1.237551e+003, 2.079750e+001
1.238033e+003, 2.047357e+001
1.238515e+003, 2.040822e+001
1.238997e+003, 2.058182e+001
1.239479e+003, 2.075580e+001
1.239961e+003, 2.084188e+001
1.240443e+003, 2.079368e+001
1.240925e+003, 2.057047e+001
1.241407e+003, 2.026073e+001
1.241890e+003, 1.983522e+001
1.242372e+003, 1.948389e+001
1.242854e+003, 1.934569e+001
1.243336e+003, 1.942581e+001
1.243818e+003, 1.989337e+001
1.244300e+003, 2.051337e+001
1.244782e+003, 2.076589e+001
1.245264e+003, 2.060028e+001
1.245746e+003, 2.055252e+001
1.246229e+003, 2.092591e+001
1.246711e+003, 2.112012e+001
1.247193e+003, 2.091062e+001
1.247675e+003, 2.067281e+001
1.248157e+003, 2.049845e+001
1.248639e+003, 2.038115e+001
1.249121e+003, 2.033416e+001
1.249603e+003, 2.032320e+001
1.250085e+003, 2.028121e+001
1.250568e+003, 2.021274e+001
1.251050e+003, 2.021027e+001
1.251532e+003, 2.028584e+001
1.252014e+003, 2.029722e+001
1.252496e+003, 2.023333e+001
1.252978e+003, 2.007524e+001
1.253460e+003, 1.981842e+001
1.253942e+003, 1.968164e+001
1.254425e+003, 1.982505e+001
1.254907e+003, 2.006318e+001
1.255389e+003, 2.018511e+001
1.255871e+003, 2.018795e+001
1.256353e+003, 1.996821e+001
1.256835e+003, 1.967893e+001
1.257317e+003, 1.963403e+001
1.257799e+003, 1.976963e+001
1.258281e+003, 1.987765e+001
1.258764e+003, 1.990806e+001
1.259246e+003, 1.990565e+001
1.259728e+003, 1.989444e+001
1.260210e+003, 1.983219e+001
1.260692e+003, 1.961757e+001
1.261174e+003, 1.945512e+001
1.261656e+003, 1.945812e+001
1.262138e+003, 1.953319e+001
1.262620e+003, 1.959600e+001
1.263103e+003, 1.969161e+001
1.263585e+003, 1.998407e+001
1.264067e+003, 2.041168e+001
1.264549e+003, 2.039945e+001
1.265031e+003, 1.969046e+001
1.265513e+003, 1.943799e+001
1.265995e+003, 1.973844e+001
1.266477e+003, 2.012569e+001
1.266960e+003, 2.052674e+001
1.267442e+003, 2.076130e+001
1.267924e+003, 2.070792e+001
1.268406e+003, 2.064989e+001
1.268888e+003, 2.098411e+001
1.269370e+003, 2.144650e+001
1.269852e+003, 2.130398e+001
1.270334e+003, 2.085586e+001
1.270817e+003, 2.101532e+001
1.271299e+003, 2.149713e+001
1.271781e+003, 2.131524e+001
1.272263e+003, 2.050423e+001
1.272745e+003, 1.988027e+001
1.273227e+003, 1.975581e+001
1.273709e+003, 1.986954e+001
1.274191e+003, 2.024848e+001
1.274673e+003, 2.057028e+001
1.275156e+003, 2.063995e+001
1.275638e+003, 2.063962e+001
1.276120e+003, 2.075257e+001
1.276602e+003, 2.081406e+001
1.277084e+003, 2.055687e+001
1.277566e+003, 2.009390e+001
1.278048e+003, 1.980553e+001
1.278530e+003, 1.969922e+001
1.279012e+003, 1.971057e+001
1.279495e+003, 1.985280e+001
1.279977e+003, 2.008525e+001
1.280459e+003, 2.044108e+001
1.280941e+003, 2.069968e+001
1.281423e+003, 2.078521e+001
1.281905e+003, 2.068085e+001
1.282387e+003, 2.033725e+001
1.282869e+003, 2.000111e+001
1.283352e+003, 2.020338e+001
1.283834e+003, 2.066548e+001
1.284316e+003, 2.078910e+001
1.284798e+003, 2.057517e+001
##END=



