##NAMES=Rossmanite
##RRUFFID=R070702
##IDEAL CHEMISTRY=[box](LiAl_2_)Al_6_(Si_6_O_18_)(BO_3_)_3_(OH)_3_OH
##LOCALITY=Tanco Mine (Bernic Lake Mine), Bernic Lake, Lac-du-Bonnet area, Manitoba, Canada
##OWNER=RRUFF
##SOURCE=Michael Scott
##DESCRIPTION=Light pink prismatic crystals associated with pollucite
##STATUS=The identification of this mineral has been made only by X-ray diffraction.
##URL=rruff.info/R070702
186.9823, 783.7226
187.4645, 763.2369
187.9466, 754.9179
188.4287, 766.1750
188.9108, 783.3751
189.3929, 801.5046
189.8750, 818.3182
190.3572, 830.7456
190.8393, 832.7556
191.3214, 813.2729
191.8035, 802.0421
192.2856, 805.2590
192.7677, 812.9865
193.2499, 816.8124
193.7320, 813.7380
194.2141, 806.8601
194.6962, 803.1152
195.1783, 805.5648
195.6604, 807.9866
196.1426, 811.2158
196.6247, 814.0647
197.1068, 814.9621
197.5889, 813.1364
198.0710, 809.3209
198.5531, 805.9637
199.0353, 803.5613
199.5174, 801.0087
199.9995, 797.1300
200.4816, 793.0469
200.9637, 790.9586
201.4458, 792.3087
201.9280, 796.2612
202.4101, 798.7067
202.8922, 800.0118
203.3743, 799.8517
203.8564, 794.0150
204.3385, 785.6042
204.8207, 785.5220
205.3028, 803.4508
205.7849, 834.3853
206.2670, 850.7260
206.7491, 837.1655
207.2312, 823.5145
207.7134, 831.1188
208.1955, 857.5184
208.6776, 880.6317
209.1597, 882.9521
209.6418, 869.5865
210.1239, 866.3298
210.6061, 880.8179
211.0882, 901.3072
211.5703, 918.7557
212.0524, 932.9649
212.5345, 945.0774
213.0166, 954.9438
213.4988, 963.2184
213.9809, 971.3668
214.4630, 979.1696
214.9451, 987.2335
215.4272, 995.5726
215.9093, 1003.644
216.3915, 1014.454
216.8736, 1029.320
217.3557, 1048.378
217.8378, 1073.471
218.3199, 1115.049
218.8020, 1161.022
219.2842, 1185.954
219.7663, 1182.320
220.2484, 1174.131
220.7305, 1176.341
221.2126, 1185.710
221.6947, 1196.209
222.1769, 1207.196
222.6590, 1217.352
223.1411, 1222.265
223.6232, 1220.405
224.1053, 1215.373
224.5874, 1210.104
225.0696, 1203.867
225.5517, 1194.802
226.0338, 1183.639
226.5159, 1169.444
226.9980, 1144.893
227.4801, 1097.037
227.9623, 1055.752
228.4444, 1039.278
228.9265, 1041.173
229.4086, 1044.169
229.8907, 1036.909
230.3729, 1019.793
230.8550, 999.6024
231.3371, 972.4840
231.8192, 946.3487
232.3013, 922.7131
232.7834, 902.4445
233.2656, 887.5565
233.7477, 880.9957
234.2298, 883.0377
234.7119, 884.5807
235.1940, 886.6309
235.6761, 887.1003
236.1583, 883.7856
236.6404, 877.7670
237.1225, 872.5236
237.6046, 872.2330
238.0867, 877.9253
238.5688, 878.7974
239.0510, 867.6723
239.5331, 857.5771
240.0152, 853.0760
240.4973, 854.1146
240.9794, 858.5347
241.4615, 865.4593
241.9437, 876.1188
242.4258, 881.7590
242.9079, 875.5975
243.3900, 870.2753
243.8721, 873.4723
244.3542, 883.4999
244.8364, 891.8962
245.3185, 888.3414
245.8006, 868.2634
246.2827, 858.9108
246.7648, 872.8922
247.2469, 886.0612
247.7291, 885.0307
248.2112, 871.3134
248.6933, 856.5720
249.1754, 853.6869
249.6575, 866.5910
250.1396, 874.6322
250.6218, 877.1064
251.1039, 876.0834
251.5860, 870.5916
252.0681, 861.7769
252.5502, 853.2462
253.0323, 849.7814
253.5145, 854.6274
253.9966, 850.4986
254.4787, 827.1028
254.9608, 804.9867
255.4429, 797.5435
255.9250, 803.2894
256.4072, 809.0450
256.8893, 799.1437
257.3714, 765.1454
257.8535, 751.4755
258.3356, 772.1367
258.8177, 796.7231
259.2999, 811.7307
259.7820, 815.5263
260.2641, 811.8065
260.7462, 803.5482
261.2283, 788.7928
261.7104, 778.2662
262.1926, 769.2068
262.6747, 765.4752
263.1568, 773.9379
263.6389, 791.7790
264.1210, 807.1784
264.6031, 807.3221
265.0853, 787.7164
265.5674, 775.5278
266.0495, 773.7700
266.5316, 775.1890
267.0137, 775.2614
267.4958, 774.5024
267.9780, 777.3940
268.4601, 789.4496
268.9422, 813.8602
269.4243, 826.8363
269.9064, 823.1416
270.3885, 815.2678
270.8707, 809.3819
271.3528, 805.2767
271.8349, 798.7678
272.3170, 785.2870
272.7991, 763.0789
273.2813, 748.8491
273.7634, 742.6080
274.2455, 742.1183
274.7276, 750.3249
275.2097, 764.3815
275.6918, 776.5934
276.1740, 780.6496
276.6561, 776.2336
277.1382, 767.6794
277.6203, 753.1249
278.1024, 737.2593
278.5845, 721.6260
279.0667, 706.2831
279.5488, 690.2709
280.0309, 672.1052
280.5130, 651.5298
280.9951, 640.5569
281.4772, 645.7247
281.9594, 651.8775
282.4415, 656.0941
282.9236, 656.9466
283.4057, 651.6543
283.8878, 637.3560
284.3699, 614.7535
284.8521, 598.5999
285.3342, 590.5363
285.8163, 586.1734
286.2984, 585.0103
286.7805, 586.5682
287.2626, 590.8859
287.7448, 598.5711
288.2269, 608.6386
288.7090, 612.7382
289.1911, 608.4785
289.6732, 601.4950
290.1554, 589.5647
290.6375, 576.1368
291.1196, 567.2922
291.6017, 566.6567
292.0838, 572.4832
292.5659, 576.3240
293.0481, 578.8344
293.5302, 578.6251
294.0123, 573.1805
294.4944, 565.3822
294.9765, 559.3850
295.4586, 557.2228
295.9408, 557.7131
296.4229, 556.9991
296.9050, 551.1282
297.3871, 548.7647
297.8692, 554.5472
298.3513, 562.7715
298.8335, 566.5792
299.3156, 563.1452
299.7977, 554.9063
300.2798, 547.3924
300.7619, 538.7784
301.2440, 533.5872
301.7262, 532.2119
302.2083, 534.0505
302.6904, 540.0752
303.1725, 550.2034
303.6546, 561.0362
304.1367, 565.8552
304.6189, 557.4189
305.1010, 554.6876
305.5831, 563.5409
306.0652, 573.8946
306.5473, 576.3354
307.0294, 569.3900
307.5116, 560.4079
307.9937, 560.9117
308.4758, 579.8567
308.9579, 586.3841
309.4400, 569.2225
309.9221, 550.2566
310.4043, 544.0175
310.8864, 551.5750
311.3685, 551.1572
311.8506, 565.8918
312.3327, 574.3494
312.8148, 576.8671
313.2970, 555.6546
313.7791, 565.0848
314.2612, 562.2347
314.7433, 558.8810
315.2254, 572.6240
315.7076, 554.8630
316.1897, 568.3348
316.6718, 574.4882
317.1539, 556.6542
317.6360, 544.3495
318.1181, 554.2602
318.6003, 578.2764
319.0824, 596.1209
319.5645, 591.0465
320.0466, 565.1795
320.5287, 551.9574
321.0108, 564.6425
321.4930, 576.5651
321.9751, 581.8180
322.4572, 582.2859
322.9393, 581.2307
323.4214, 580.3380
323.9035, 579.7113
324.3857, 580.2043
324.8678, 585.4884
325.3499, 586.0343
325.8320, 571.5201
326.3141, 554.7448
326.7962, 552.7761
327.2784, 574.4103
327.7605, 606.3682
328.2426, 618.6533
328.7247, 599.7925
329.2068, 585.8503
329.6889, 585.9277
330.1711, 592.0746
330.6532, 587.7795
331.1353, 600.7992
331.6174, 607.5418
332.0995, 608.3447
332.5816, 585.4171
333.0638, 593.1321
333.5459, 588.5671
334.0280, 583.4985
334.5101, 595.5266
334.9922, 576.0507
335.4743, 587.8076
335.9565, 587.0966
336.4386, 592.0920
336.9207, 584.7315
337.4028, 581.1872
337.8849, 590.0030
338.3670, 591.9749
338.8492, 583.1916
339.3313, 588.5497
339.8134, 568.6422
340.2955, 570.9055
340.7776, 582.7348
341.2597, 574.5729
341.7419, 580.1567
342.2240, 576.6635
342.7061, 590.4767
343.1882, 598.7883
343.6703, 589.9466
344.1524, 573.1409
344.6346, 569.7273
345.1167, 583.6234
345.5988, 598.0331
346.0809, 600.7220
346.5630, 596.9877
347.0451, 594.7726
347.5273, 598.1498
348.0094, 602.0480
348.4915, 598.5984
348.9736, 587.5517
349.4557, 580.8773
349.9378, 586.7170
350.4200, 600.0117
350.9021, 610.5670
351.3842, 617.6638
351.8663, 622.3749
352.3484, 625.9360
352.8305, 627.8835
353.3127, 624.8581
353.7948, 612.6611
354.2769, 598.8468
354.7590, 597.3294
355.2411, 609.8569
355.7232, 625.4988
356.2054, 642.9274
356.6875, 660.4047
357.1696, 674.8891
357.6517, 685.6207
358.1338, 693.4722
358.6159, 698.6865
359.0981, 700.2582
359.5802, 704.8739
360.0623, 717.1276
360.5444, 730.5383
361.0265, 737.7664
361.5086, 738.3374
361.9908, 738.4348
362.4729, 743.7957
362.9550, 755.1549
363.4371, 766.0563
363.9192, 773.8019
364.4013, 783.5499
364.8835, 800.6553
365.3656, 822.6110
365.8477, 840.4337
366.3298, 846.4086
366.8119, 843.3384
367.2940, 857.3594
367.7762, 902.9209
368.2583, 947.6360
368.7404, 987.8915
369.2225, 1022.150
369.7046, 1047.089
370.1867, 1060.858
370.6689, 1068.669
371.1510, 1084.124
371.6331, 1119.561
372.1152, 1143.862
372.5974, 1150.819
373.0795, 1149.833
373.5616, 1147.245
374.0437, 1145.116
374.5258, 1143.545
375.0079, 1144.524
375.4901, 1152.953
375.9722, 1148.273
376.4543, 1120.958
376.9364, 1089.142
377.4185, 1059.396
377.9006, 1032.893
378.3828, 1009.093
378.8649, 988.8982
379.3470, 971.9980
379.8291, 951.0338
380.3112, 922.2537
380.7933, 894.1536
381.2755, 868.8005
381.7576, 846.4378
382.2397, 827.5382
382.7218, 812.9503
383.2039, 801.2842
383.6860, 788.9741
384.1682, 774.9069
384.6503, 763.4960
385.1324, 760.8893
385.6145, 759.8725
386.0966, 752.0098
386.5787, 733.5230
387.0609, 714.8341
387.5430, 708.8345
388.0251, 714.5314
388.5072, 714.0355
388.9893, 699.8527
389.4714, 680.1703
389.9536, 664.2251
390.4357, 652.0367
390.9178, 642.4047
391.3999, 633.8713
391.8820, 627.6636
392.3641, 627.1877
392.8463, 633.8527
393.3284, 642.3015
393.8105, 647.3924
394.2926, 649.3510
394.7747, 651.7210
395.2568, 655.5488
395.7390, 659.4824
396.2211, 663.4282
396.7032, 666.9304
397.1853, 667.8102
397.6674, 664.8649
398.1495, 657.9608
398.6317, 646.6711
399.1138, 618.0574
399.5959, 600.3016
400.0780, 610.3455
400.5601, 635.5568
401.0422, 654.7217
401.5244, 659.0750
402.0065, 654.4994
402.4886, 653.3572
402.9707, 662.0676
403.4528, 664.1616
403.9349, 653.4186
404.4171, 640.4591
404.8992, 633.7723
405.3813, 634.4092
405.8634, 637.9219
406.3455, 639.7693
406.8276, 640.0118
407.3098, 638.2212
407.7919, 637.4892
408.2740, 631.6633
408.7561, 611.5057
409.2382, 584.5884
409.7203, 566.9341
410.2025, 569.9199
410.6846, 588.3667
411.1667, 602.7239
411.6488, 610.8358
412.1309, 618.6964
412.6130, 633.8325
413.0952, 646.9496
413.5773, 646.5049
414.0594, 628.0442
414.5415, 603.5011
415.0236, 588.5969
415.5057, 583.9275
415.9879, 572.7890
416.4700, 544.0322
416.9521, 515.1715
417.4342, 502.5363
417.9163, 505.6277
418.3984, 510.6007
418.8806, 509.1968
419.3627, 504.6429
419.8448, 505.1583
420.3269, 512.9052
420.8090, 519.1596
421.2911, 515.8638
421.7733, 504.8648
422.2554, 494.5558
422.7375, 484.8575
423.2196, 477.0292
423.7017, 472.9591
424.1838, 471.8443
424.6660, 469.9314
425.1481, 464.9144
425.6302, 458.4792
426.1123, 456.0440
426.5944, 462.6851
427.0765, 464.8394
427.5587, 455.6676
428.0408, 442.8969
428.5229, 434.6768
429.0050, 433.1790
429.4871, 436.9745
429.9692, 445.5669
430.4514, 463.3528
430.9335, 469.3938
431.4156, 455.5645
431.8977, 440.0412
432.3798, 430.0510
432.8619, 425.7489
433.3441, 424.9246
433.8262, 426.3431
434.3083, 429.7386
434.7904, 434.1396
435.2725, 442.2527
435.7546, 446.8860
436.2368, 443.4948
436.7189, 437.7813
437.2010, 436.1636
437.6831, 440.7690
438.1652, 446.9272
438.6473, 447.8109
439.1295, 442.9202
439.6116, 440.7621
440.0937, 445.6028
440.5758, 450.6105
441.0579, 449.6347
441.5400, 443.5297
442.0222, 439.0323
442.5043, 440.3747
442.9864, 445.4030
443.4685, 449.8712
443.9506, 453.3510
444.4327, 458.0085
444.9149, 467.8578
445.3970, 479.7069
445.8791, 483.2463
446.3612, 471.6682
446.8433, 458.5643
447.3254, 451.1974
447.8076, 448.0978
448.2897, 445.5305
448.7718, 442.0062
449.2539, 438.8506
449.7360, 438.9255
450.2181, 446.1734
450.7003, 447.9098
451.1824, 437.2669
451.6645, 425.4274
452.1466, 421.9631
452.6287, 426.9060
453.1108, 433.8771
453.5930, 437.7464
454.0751, 438.4938
454.5572, 436.2003
455.0393, 425.1023
455.5215, 417.1447
456.0036, 418.5324
456.4857, 423.3437
456.9678, 421.7758
457.4499, 409.2273
457.9320, 394.6570
458.4142, 396.1472
458.8963, 419.3712
459.3784, 435.9553
459.8605, 438.0115
460.3426, 433.9756
460.8247, 426.0669
461.3069, 415.4996
461.7890, 407.8264
462.2711, 409.4596
462.7532, 416.5920
463.2353, 417.7441
463.7174, 410.6850
464.1996, 404.1873
464.6817, 404.3140
465.1638, 409.2463
465.6459, 414.5234
466.1280, 420.5336
466.6101, 425.7658
467.0923, 430.5872
467.5744, 433.9640
468.0565, 431.9438
468.5386, 422.3182
469.0207, 409.7813
469.5028, 402.0309
469.9850, 399.9308
470.4671, 400.8532
470.9492, 406.2534
471.4313, 413.4912
471.9134, 422.4273
472.3955, 431.8214
472.8777, 438.2151
473.3598, 438.8125
473.8419, 433.9098
474.3240, 426.6961
474.8061, 412.8497
475.2882, 402.0401
475.7704, 394.6440
476.2525, 391.5971
476.7346, 394.9250
477.2167, 405.2618
477.6988, 418.2115
478.1809, 429.3901
478.6631, 439.2078
479.1452, 442.4583
479.6273, 435.5081
480.1094, 424.6791
480.5915, 411.0464
481.0736, 396.5273
481.5558, 387.7334
482.0379, 390.8019
482.5200, 400.1345
483.0021, 407.0818
483.4842, 411.5158
483.9663, 417.1884
484.4485, 427.6387
484.9306, 439.5363
485.4127, 444.5069
485.8948, 438.9323
486.3769, 434.2136
486.8590, 436.6761
487.3412, 441.3495
487.8233, 439.5364
488.3054, 429.7441
488.7875, 420.6528
489.2696, 422.6061
489.7517, 438.1071
490.2339, 446.7423
490.7160, 444.2216
491.1981, 440.5310
491.6802, 439.7869
492.1623, 440.4403
492.6444, 438.8733
493.1266, 433.1212
493.6087, 425.7975
494.0908, 421.9998
494.5729, 420.8763
495.0550, 425.7439
495.5371, 447.7215
496.0193, 467.6886
496.5014, 472.7709
496.9835, 463.5396
497.4656, 450.7341
497.9477, 437.9417
498.4298, 427.3784
498.9120, 426.4074
499.3941, 436.9027
499.8762, 448.9158
500.3583, 458.0797
500.8404, 464.4547
501.3225, 468.4984
501.8047, 470.1408
502.2868, 469.6488
502.7689, 465.7791
503.2510, 460.1417
503.7331, 454.3533
504.2152, 448.7124
504.6974, 447.3826
505.1795, 456.8101
505.6616, 481.1397
506.1437, 495.7194
506.6258, 495.1309
507.1079, 491.3927
507.5901, 487.5556
508.0722, 484.9835
508.5543, 485.3072
509.0364, 489.4400
509.5185, 496.5699
510.0006, 506.5062
510.4828, 524.6934
510.9649, 531.2656
511.4470, 509.1718
511.9291, 485.7541
512.4113, 479.3535
512.8934, 489.4299
513.3755, 501.3065
513.8576, 504.4774
514.3397, 502.0606
514.8218, 503.4415
515.3040, 510.0422
515.7861, 513.1754
516.2682, 505.3278
516.7503, 491.5490
517.2324, 483.7595
517.7145, 483.7202
518.1967, 486.8848
518.6788, 495.2297
519.1609, 504.3013
519.6430, 505.2952
520.1251, 496.4759
520.6072, 486.5087
521.0894, 485.1085
521.5715, 493.7921
522.0536, 498.7285
522.5357, 500.1740
523.0178, 498.2805
523.4999, 489.7303
523.9821, 478.7549
524.4642, 471.9156
524.9463, 472.1243
525.4284, 476.1129
525.9105, 478.6269
526.3926, 479.6337
526.8748, 479.2597
527.3569, 475.6063
527.8390, 472.4074
528.3211, 472.2921
528.8032, 474.6187
529.2853, 476.7514
529.7675, 478.2670
530.2496, 478.3763
530.7317, 475.0196
531.2138, 468.3566
531.6959, 462.9128
532.1780, 461.6537
532.6602, 461.7274
533.1423, 455.4763
533.6244, 438.0895
534.1065, 429.3846
534.5886, 442.3316
535.0707, 459.5442
535.5529, 463.9941
536.0350, 455.3843
536.5171, 443.9352
536.9992, 436.9935
537.4813, 434.4378
537.9634, 435.0908
538.4456, 443.1950
538.9277, 448.6205
539.4098, 447.8249
539.8919, 445.0619
540.3740, 444.0697
540.8561, 445.6951
541.3383, 448.7708
541.8204, 453.3953
542.3025, 459.0009
542.7846, 461.3864
543.2667, 460.1187
543.7488, 456.1448
544.2310, 447.6482
544.7131, 437.1527
545.1952, 429.4657
545.6773, 423.2956
546.1594, 422.9750
546.6415, 437.6849
547.1237, 459.0687
547.6058, 468.4728
548.0879, 460.8005
548.5700, 446.6894
549.0521, 438.1192
549.5342, 435.9266
550.0164, 434.5841
550.4985, 434.9000
550.9806, 435.0537
551.4627, 433.9882
551.9448, 432.4108
552.4269, 431.5734
552.9091, 432.0254
553.3912, 432.9685
553.8733, 434.0590
554.3554, 435.9739
554.8375, 432.3394
555.3196, 414.5248
555.8018, 400.2478
556.2839, 405.2401
556.7660, 423.4470
557.2481, 434.6216
557.7302, 425.2002
558.2123, 410.8325
558.6945, 409.6519
559.1766, 418.6960
559.6587, 422.2078
560.1408, 413.2120
560.6229, 399.5337
561.1050, 394.4105
561.5872, 402.9392
562.0693, 405.8293
562.5514, 396.2828
563.0335, 386.9468
563.5156, 387.2248
563.9977, 394.1566
564.4799, 398.9077
564.9620, 396.1713
565.4441, 389.2093
565.9262, 386.1954
566.4083, 388.5107
566.8904, 390.6712
567.3726, 394.5810
567.8547, 395.7203
568.3368, 388.3904
568.8189, 374.4643
569.3010, 364.3027
569.7831, 365.8763
570.2653, 372.9337
570.7474, 376.4066
571.2295, 376.5631
571.7116, 378.2519
572.1937, 384.7730
572.6758, 392.3500
573.1580, 392.6292
573.6401, 381.6347
574.1222, 374.3998
574.6043, 375.0473
575.0864, 377.7476
575.5685, 378.2127
576.0507, 376.7408
576.5328, 375.9955
577.0149, 377.8613
577.4970, 381.2639
577.9791, 382.6453
578.4612, 381.1991
578.9434, 379.7159
579.4255, 379.3065
579.9076, 378.5475
580.3897, 375.7953
580.8718, 371.3911
581.3539, 368.1542
581.8361, 366.9018
582.3182, 368.1232
582.8003, 373.4034
583.2824, 382.5657
583.7645, 392.6120
584.2466, 403.1756
584.7288, 412.3874
585.2109, 415.4709
585.6930, 409.1970
586.1751, 404.9742
586.6572, 408.0518
587.1393, 410.0552
587.6215, 402.7732
588.1036, 388.5414
588.5857, 376.3481
589.0678, 372.1965
589.5499, 373.0795
590.0320, 368.2228
590.5142, 351.9185
590.9963, 346.7196
591.4784, 370.5137
591.9605, 396.1760
592.4426, 405.2023
592.9247, 398.3565
593.4069, 387.8659
593.8890, 377.1363
594.3711, 367.2409
594.8532, 358.3578
595.3353, 350.9476
595.8174, 348.7219
596.2996, 353.7718
596.7817, 363.6226
597.2638, 374.0506
597.7459, 387.4824
598.2280, 395.3937
598.7101, 397.3484
599.1923, 394.2486
599.6744, 380.1058
600.1565, 361.6340
600.6386, 355.0454
601.1207, 370.7117
601.6028, 395.6083
602.0850, 402.8131
602.5671, 389.5987
603.0492, 374.5421
603.5313, 354.3551
604.0134, 340.6563
604.4955, 347.6007
604.9777, 369.9225
605.4598, 383.2677
605.9419, 372.5453
606.4240, 356.8534
606.9061, 350.2008
607.3882, 351.0629
607.8704, 355.8496
608.3525, 363.6072
608.8346, 371.4247
609.3167, 375.1461
609.7988, 374.1155
610.2809, 371.6454
610.7631, 366.4172
611.2452, 361.2954
611.7273, 356.0849
612.2094, 351.9835
612.6915, 350.9964
613.1736, 353.9543
613.6558, 358.7996
614.1379, 363.8473
614.6200, 368.8831
615.1021, 371.7654
615.5842, 371.7205
616.0663, 370.7727
616.5485, 369.6466
617.0306, 368.7954
617.5127, 369.9747
617.9948, 378.0131
618.4769, 382.3940
618.9590, 376.2809
619.4412, 365.5716
619.9233, 357.3236
620.4054, 353.2031
620.8875, 352.1320
621.3696, 353.4591
621.8517, 357.0062
622.3339, 359.7572
622.8160, 360.7982
623.2981, 362.5831
623.7802, 367.6819
624.2623, 372.5821
624.7444, 372.1817
625.2266, 365.8959
625.7087, 363.3397
626.1908, 376.2837
626.6729, 394.4807
627.1550, 399.1151
627.6371, 389.8831
628.1193, 378.9102
628.6014, 372.0373
629.0835, 368.6907
629.5656, 367.5020
630.0477, 368.9485
630.5298, 372.0111
631.0120, 377.1009
631.4941, 383.4585
631.9762, 391.8894
632.4583, 401.1936
632.9404, 408.8531
633.4225, 413.6888
633.9047, 415.3853
634.3868, 411.0604
634.8689, 400.0614
635.3510, 396.0839
635.8331, 405.2140
636.3152, 417.2825
636.7974, 422.6065
637.2795, 422.4306
637.7616, 422.5565
638.2437, 423.0424
638.7258, 424.9069
639.2079, 431.4299
639.6901, 438.9673
640.1722, 439.3560
640.6543, 430.9039
641.1364, 422.7350
641.6185, 426.7578
642.1006, 443.6646
642.5828, 454.1642
643.0649, 454.0941
643.5470, 453.7650
644.0291, 456.6682
644.5112, 460.9094
644.9933, 464.8714
645.4755, 468.3752
645.9576, 470.0377
646.4397, 467.8530
646.9218, 463.7116
647.4039, 461.2270
647.8860, 460.4226
648.3682, 458.4131
648.8503, 453.5679
649.3324, 446.3110
649.8145, 437.4754
650.2966, 418.7445
650.7787, 412.7226
651.2609, 432.2558
651.7430, 452.2922
652.2251, 458.2183
652.7072, 452.1495
653.1893, 442.7085
653.6714, 433.8128
654.1536, 425.0802
654.6357, 415.4057
655.1178, 404.9940
655.5999, 396.3759
656.0820, 389.9523
656.5641, 385.6906
657.0463, 384.4293
657.5284, 385.9745
658.0105, 385.3726
658.4926, 381.6172
658.9747, 376.9012
659.4568, 371.2790
659.9390, 365.4592
660.4211, 359.6891
660.9033, 354.3292
661.3854, 350.5548
661.8675, 348.7092
662.3496, 349.4246
662.8317, 358.6468
663.3138, 381.4764
663.7960, 396.5869
664.2781, 392.3970
664.7602, 379.8522
665.2423, 372.2772
665.7244, 370.1778
666.2065, 366.5620
666.6887, 356.6004
667.1708, 346.5567
667.6529, 341.9810
668.1350, 341.6797
668.6171, 341.7054
669.0992, 340.3602
669.5814, 339.2839
670.0635, 341.9618
670.5456, 350.0342
671.0277, 353.2933
671.5098, 347.9019
671.9919, 342.5389
672.4741, 341.3977
672.9562, 342.2804
673.4383, 341.7017
673.9204, 338.4271
674.4025, 335.7579
674.8846, 335.8229
675.3668, 337.8035
675.8489, 341.4832
676.3310, 346.3731
676.8131, 349.0438
677.2952, 347.0645
677.7773, 341.7497
678.2595, 337.0740
678.7416, 330.8640
679.2237, 329.5045
679.7058, 341.5857
680.1879, 350.4430
680.6700, 342.4910
681.1522, 323.9204
681.6343, 311.6154
682.1164, 313.7425
682.5985, 322.7873
683.0806, 335.8671
683.5627, 349.5282
684.0449, 349.1556
684.5270, 330.7285
685.0091, 312.5743
685.4912, 310.8349
685.9733, 324.2174
686.4554, 337.2579
686.9376, 351.4254
687.4197, 363.2355
687.9018, 374.2446
688.3839, 381.3463
688.8660, 379.2475
689.3481, 369.8251
689.8303, 362.8342
690.3124, 366.6563
690.7945, 374.6039
691.2766, 374.7567
691.7587, 367.7775
692.2408, 360.4128
692.7230, 353.4915
693.2051, 350.3731
693.6872, 355.7015
694.1693, 370.3723
694.6514, 383.1816
695.1335, 397.4146
695.6157, 405.9889
696.0978, 400.4496
696.5799, 391.6854
697.0620, 392.6512
697.5441, 405.0472
698.0262, 419.7302
698.5084, 428.1747
698.9905, 433.1800
699.4726, 443.2233
699.9547, 458.5855
700.4368, 473.7644
700.9189, 488.2323
701.4011, 499.1681
701.8832, 500.8947
702.3653, 490.2855
702.8474, 485.8315
703.3295, 487.6358
703.8116, 495.6946
704.2938, 518.2393
704.7759, 543.7672
705.2580, 553.4196
705.7401, 543.0963
706.2222, 530.5516
706.7043, 536.1014
707.1865, 555.2145
707.6686, 568.8010
708.1507, 576.4519
708.6328, 579.2824
709.1149, 575.9365
709.5970, 569.9770
710.0792, 568.1378
710.5613, 572.0636
711.0434, 573.3990
711.5255, 573.2098
712.0076, 568.6937
712.4897, 553.4984
712.9719, 534.4139
713.4540, 523.4208
713.9361, 524.4523
714.4182, 528.6252
714.9003, 525.4301
715.3824, 516.2883
715.8646, 508.8529
716.3467, 503.5110
716.8288, 499.4319
717.3109, 496.7118
717.7930, 494.6495
718.2751, 491.5264
718.7573, 486.3594
719.2394, 483.2979
719.7215, 490.3876
720.2036, 492.1339
720.6857, 471.9355
721.1678, 441.9971
721.6500, 425.8131
722.1321, 432.3259
722.6142, 445.5143
723.0963, 447.5158
723.5784, 439.8786
724.0605, 429.3986
724.5427, 415.4489
725.0248, 405.1299
725.5069, 403.2685
725.9890, 406.4218
726.4711, 407.2057
726.9532, 405.3054
727.4354, 401.9170
727.9175, 393.6641
728.3996, 387.3123
728.8817, 387.8166
729.3638, 392.5862
729.8459, 397.3051
730.3281, 400.4010
730.8102, 401.3347
731.2923, 397.6658
731.7744, 391.2116
732.2565, 389.4529
732.7386, 393.1922
733.2208, 397.4529
733.7029, 399.7228
734.1850, 400.7800
734.6671, 402.2339
735.1492, 403.8337
735.6313, 406.4835
736.1135, 416.2026
736.5956, 420.7264
737.0777, 407.6027
737.5598, 387.4435
738.0419, 378.2216
738.5240, 386.0635
739.0062, 399.4931
739.4883, 409.5139
739.9704, 416.6173
740.4525, 421.9642
740.9346, 425.6310
741.4167, 427.3889
741.8989, 426.4313
742.3810, 425.0996
742.8631, 428.7251
743.3452, 441.7821
743.8273, 446.7344
744.3094, 433.8209
744.7916, 424.2294
745.2737, 428.9011
745.7558, 440.3245
746.2379, 447.8078
746.7200, 448.6140
747.2021, 447.4434
747.6843, 447.5943
748.1664, 447.9814
748.6485, 446.2602
749.1306, 442.8160
749.6127, 441.2004
750.0948, 443.3925
750.5770, 445.3408
751.0591, 439.6977
751.5412, 424.2667
752.0233, 413.8112
752.5054, 412.5513
752.9875, 410.9143
753.4697, 404.4705
753.9518, 396.9412
754.4339, 392.4337
754.9160, 391.5707
755.3981, 392.5361
755.8802, 397.8992
756.3624, 401.9681
756.8445, 396.5944
757.3266, 385.1859
757.8087, 378.0023
758.2908, 378.5374
758.7729, 381.7261
759.2551, 381.3453
759.7372, 377.4624
760.2193, 373.8680
760.7014, 370.3872
761.1835, 367.6851
761.6656, 366.8556
762.1478, 366.2352
762.6299, 363.7982
763.1120, 359.5254
763.5941, 355.6276
764.0762, 354.2062
764.5583, 351.5931
765.0405, 342.3528
765.5226, 331.9573
766.0047, 329.6285
766.4868, 336.6272
766.9689, 345.9076
767.4510, 352.4130
767.9332, 355.5062
768.4153, 351.1514
768.8974, 338.3353
769.3795, 330.6171
769.8616, 333.2170
770.3438, 338.7380
770.8259, 340.0095
771.3080, 337.0064
771.7901, 333.4839
772.2722, 325.6362
772.7543, 322.1803
773.2365, 330.0798
773.7186, 339.5911
774.2007, 340.8036
774.6828, 334.6923
775.1649, 329.7281
775.6470, 331.3217
776.1292, 335.5886
776.6113, 338.1821
777.0934, 339.0599
777.5755, 337.9854
778.0576, 334.8911
778.5397, 329.9248
779.0219, 322.7053
779.5040, 314.0750
779.9861, 308.1183
780.4682, 306.1992
780.9503, 304.3355
781.4324, 298.9863
781.9146, 296.8710
782.3967, 304.9607
782.8788, 318.3802
783.3609, 326.2319
783.8430, 324.5212
784.3251, 320.2255
784.8073, 318.1613
785.2894, 315.6048
785.7715, 307.0331
786.2536, 294.0744
786.7357, 284.4607
787.2178, 282.1879
787.7000, 284.6505
788.1821, 287.3216
788.6642, 290.0677
789.1463, 295.9542
789.6284, 308.2599
790.1105, 315.9001
790.5927, 312.3413
791.0748, 301.6536
791.5569, 288.9347
792.0390, 271.5481
792.5211, 264.7082
793.0032, 282.4587
793.4854, 298.9456
793.9675, 296.0890
794.4496, 284.6349
794.9317, 283.4199
795.4138, 296.1345
795.8959, 307.3881
796.3781, 299.6245
796.8602, 282.1398
797.3423, 277.2259
797.8244, 283.6642
798.3065, 287.4580
798.7886, 283.9105
799.2708, 278.8348
799.7529, 278.8734
800.2350, 283.9541
800.7171, 287.2696
801.1992, 288.5109
801.6813, 288.3823
802.1635, 287.1591
802.6456, 284.5999
803.1277, 278.6446
803.6098, 270.8150
804.0919, 267.2656
804.5740, 272.8851
805.0562, 279.0480
805.5383, 278.8710
806.0204, 276.3547
806.5025, 278.3733
806.9846, 284.5144
807.4667, 287.9893
807.9489, 284.2202
808.4310, 276.5364
808.9131, 270.7809
809.3952, 266.8385
809.8773, 268.8376
810.3594, 279.0769
810.8416, 289.8387
811.3237, 298.3436
811.8058, 303.3621
812.2879, 300.4530
812.7700, 283.2470
813.2521, 274.9382
813.7343, 285.9129
814.2164, 296.1677
814.6985, 293.0847
815.1806, 284.2771
815.6627, 282.8759
816.1448, 291.8606
816.6270, 300.1126
817.1091, 297.8379
817.5912, 290.6898
818.0733, 287.5847
818.5554, 287.2732
819.0375, 283.4664
819.5197, 274.1391
820.0018, 263.7887
820.4839, 256.7056
820.9660, 253.0501
821.4481, 255.7710
821.9302, 268.9091
822.4124, 276.8634
822.8945, 273.6205
823.3766, 266.9325
823.8587, 260.4972
824.3408, 255.5685
824.8230, 258.5754
825.3051, 281.9891
825.7872, 297.5552
826.2693, 290.5554
826.7515, 277.6163
827.2336, 273.4647
827.7157, 276.7488
828.1978, 277.6909
828.6799, 270.8513
829.1620, 265.3927
829.6442, 275.6080
830.1263, 295.3669
830.6084, 307.4724
831.0905, 310.6551
831.5726, 308.2495
832.0547, 301.0803
832.5369, 292.6209
833.0190, 289.1605
833.5011, 291.6090
833.9832, 293.5104
834.4653, 297.1607
834.9474, 296.5513
835.4296, 283.5589
835.9117, 269.2927
836.3938, 265.9598
836.8759, 273.6698
837.3580, 278.9756
837.8401, 276.4575
838.3223, 273.3207
838.8044, 272.8083
839.2865, 273.8806
839.7686, 274.8569
840.2507, 275.8446
840.7328, 278.7064
841.2150, 285.1696
841.6971, 292.8963
842.1792, 298.6193
842.6613, 302.4814
843.1434, 306.4063
843.6255, 310.7609
844.1077, 307.8235
844.5898, 290.2390
845.0719, 267.0700
845.5540, 263.2109
846.0361, 289.5773
846.5182, 301.5608
847.0004, 286.6187
847.4825, 274.3650
847.9646, 283.1097
848.4467, 298.3893
848.9288, 299.9828
849.4109, 284.7594
849.8931, 274.8361
850.3752, 280.9437
850.8573, 288.7415
851.3394, 288.1307
851.8215, 284.9402
852.3036, 289.2749
852.7858, 301.5874
853.2679, 312.1537
853.7500, 313.1888
854.2321, 309.4110
854.7142, 308.7587
855.1964, 310.1488
855.6785, 308.0121
856.1606, 301.3985
856.6427, 296.2360
857.1248, 297.3631
857.6069, 302.0829
858.0891, 302.1577
858.5712, 296.3157
859.0533, 289.9124
859.5354, 280.3793
860.0175, 274.6454
860.4996, 278.7881
860.9818, 287.7716
861.4639, 293.9617
861.9460, 296.8144
862.4281, 298.5401
862.9102, 297.6448
863.3923, 297.7954
863.8745, 302.1527
864.3566, 307.9651
864.8387, 313.0958
865.3208, 316.3174
865.8029, 314.1519
866.2850, 299.5875
866.7672, 283.7133
867.2493, 282.2267
867.7314, 290.7831
868.2135, 298.9109
868.6956, 304.5363
869.1777, 309.1646
869.6599, 314.2103
870.1420, 317.6203
870.6241, 312.4228
871.1062, 296.9150
871.5883, 288.1685
872.0704, 287.8463
872.5526, 293.5952
873.0347, 308.5216
873.5168, 325.4650
873.9989, 330.8739
874.4810, 321.7030
874.9631, 311.4654
875.4453, 292.2690
875.9274, 281.6277
876.4095, 292.5716
876.8916, 309.8012
877.3737, 318.0811
877.8558, 316.1746
878.3380, 311.0074
878.8201, 304.3219
879.3022, 297.0865
879.7843, 287.8129
880.2664, 279.5658
880.7485, 278.1615
881.2307, 282.8398
881.7128, 287.2152
882.1949, 287.4627
882.6770, 287.0918
883.1591, 294.5399
883.6412, 307.0924
884.1234, 286.8182
884.6055, 301.0879
885.0876, 309.0804
885.5697, 311.1330
886.0518, 289.4554
886.5339, 298.4205
887.0161, 295.1054
887.4982, 291.2867
887.9803, 304.5646
888.4624, 286.3385
888.9445, 304.5307
889.4266, 301.8842
889.9088, 299.0461
890.3909, 296.3079
890.8730, 294.8341
891.3551, 295.5750
891.8372, 296.3629
892.3193, 295.3985
892.8015, 295.3036
893.2836, 301.4231
893.7657, 309.3866
894.2478, 308.7626
894.7299, 295.5816
895.2120, 280.9074
895.6942, 272.7661
896.1763, 269.1410
896.6584, 268.0612
897.1405, 268.9219
897.6226, 269.4793
898.1047, 269.3647
898.5869, 272.9594
899.0690, 286.2054
899.5511, 304.5220
900.0332, 311.7957
900.5153, 307.7101
900.9974, 299.5172
901.4796, 286.7095
901.9617, 277.3949
902.4438, 278.1807
902.9259, 285.6352
903.4080, 290.1176
903.8901, 291.2736
904.3723, 290.2356
904.8544, 284.0944
905.3365, 279.3885
905.8186, 279.3667
906.3007, 281.3609
906.7828, 282.2796
907.2650, 281.9044
907.7471, 281.8228
908.2292, 283.4785
908.7113, 284.2200
909.1934, 282.5711
909.6755, 279.6328
910.1577, 275.7732
910.6398, 271.6953
911.1219, 268.7328
911.6040, 267.0276
912.0861, 268.3976
912.5682, 277.0013
913.0504, 288.6791
913.5325, 296.8090
914.0146, 301.1499
914.4967, 303.7479
914.9788, 305.3994
915.4609, 303.8098
915.9431, 293.8910
916.4252, 278.5404
916.9073, 274.0133
917.3894, 280.6540
917.8715, 286.4338
918.3536, 288.5355
918.8358, 288.6081
919.3179, 287.6995
919.8000, 286.1583
920.2821, 285.4646
920.7642, 285.4669
921.2463, 286.7769
921.7285, 290.7646
922.2106, 294.2589
922.6927, 298.2563
923.1748, 299.6708
923.6569, 290.4373
924.1390, 267.0160
924.6212, 257.5731
925.1033, 278.1401
925.5854, 298.2405
926.0675, 307.3439
926.5496, 309.6580
927.0317, 308.5328
927.5139, 305.0585
927.9960, 300.3765
928.4781, 294.1576
928.9602, 288.7383
929.4423, 285.8214
929.9244, 284.6569
930.4066, 285.6853
930.8887, 287.5415
931.3708, 285.1362
931.8529, 276.8626
932.3350, 271.6845
932.8171, 285.1088
933.2993, 306.7337
933.7814, 308.4848
934.2635, 293.4534
934.7456, 277.2346
935.2277, 263.5994
935.7098, 257.5098
936.1920, 264.1108
936.6741, 278.7463
937.1562, 288.0124
937.6383, 291.6898
938.1204, 291.6673
938.6025, 287.0404
939.0847, 281.8383
939.5668, 276.7874
940.0489, 273.8321
940.5310, 276.8099
941.0131, 286.8754
941.4952, 294.1539
941.9774, 297.6844
942.4595, 299.8435
942.9416, 300.6799
943.4237, 300.6880
943.9058, 297.3748
944.3879, 293.3529
944.8701, 298.4938
945.3522, 323.0499
945.8343, 338.3368
946.3164, 329.1309
946.7985, 316.3509
947.2806, 315.0343
947.7628, 318.5059
948.2449, 312.7313
948.7270, 295.7074
949.2091, 283.6487
949.6912, 289.8864
950.1733, 301.0812
950.6555, 305.9483
951.1376, 307.8955
951.6197, 313.8379
952.1018, 322.8620
952.5839, 326.9731
953.0660, 321.4889
953.5482, 312.1033
954.0303, 304.3550
954.5124, 298.7459
954.9945, 298.0680
955.4766, 301.4114
955.9587, 301.7622
956.4409, 296.7734
956.9230, 293.7026
957.4051, 300.8673
957.8872, 315.3773
958.3693, 327.1443
958.8514, 336.4215
959.3336, 335.4200
959.8157, 319.8918
960.2978, 310.3077
960.7799, 322.1077
961.2620, 342.5517
961.7441, 343.0728
962.2263, 317.1606
962.7084, 307.4391
963.1905, 323.9214
963.6726, 336.6307
964.1547, 335.1192
964.6368, 328.4496
965.1190, 323.6851
965.6011, 321.0867
966.0832, 322.4094
966.5653, 332.1454
967.0474, 339.0420
967.5295, 341.8780
968.0117, 342.0826
968.4938, 338.0722
968.9759, 332.9856
969.4580, 332.0103
969.9401, 336.0507
970.4222, 339.0473
970.9044, 337.3759
971.3865, 336.1965
971.8686, 340.0302
972.3507, 344.3403
972.8328, 342.5585
973.3149, 336.5656
973.7971, 334.9520
974.2792, 342.7464
974.7613, 348.6492
975.2434, 340.3164
975.7255, 328.4470
976.2076, 324.5539
976.6898, 327.5757
977.1719, 335.2007
977.6540, 345.7943
978.1361, 354.2057
978.6182, 356.2261
979.1003, 354.0671
979.5825, 350.2736
980.0646, 345.3017
980.5467, 339.8452
981.0288, 334.3044
981.5109, 329.3837
981.9930, 325.3030
982.4752, 325.3347
982.9573, 337.3376
983.4394, 357.6119
983.9215, 365.0262
984.4036, 359.7370
984.8857, 349.5739
985.3679, 335.4208
985.8500, 327.9291
986.3321, 337.3067
986.8142, 355.8423
987.2963, 359.6652
987.7784, 345.6420
988.2606, 340.1340
988.7427, 347.6705
989.2249, 350.5595
989.7070, 339.5060
990.1891, 324.8914
990.6712, 319.1417
991.1533, 321.9261
991.6354, 326.3592
992.1176, 335.1725
992.5997, 339.8909
993.0818, 338.4731
993.5639, 334.1968
994.0460, 325.3271
994.5281, 316.2205
995.0103, 316.3075
995.4924, 327.9355
995.9745, 337.2949
996.4566, 345.0577
996.9387, 348.9331
997.4208, 345.9465
997.9030, 340.8258
998.3851, 337.3291
998.8672, 335.0212
999.3493, 331.2115
999.8314, 323.0428
1000.314, 319.3615
1000.796, 324.4875
1001.278, 332.6673
1001.760, 344.3981
1002.242, 354.9309
1002.724, 357.1169
1003.206, 351.1900
1003.688, 346.2360
1004.170, 348.2317
1004.653, 348.9524
1005.135, 339.8434
1005.617, 330.2933
1006.099, 332.3179
1006.581, 341.1756
1007.063, 345.2114
1007.545, 340.9412
1008.027, 332.9200
1008.510, 319.3387
1008.992, 308.2874
1009.474, 311.9503
1009.956, 322.1486
1010.438, 323.2541
1010.920, 316.3419
1011.402, 315.9036
1011.884, 329.7271
1012.366, 344.2921
1012.849, 341.7123
1013.331, 331.4289
1013.813, 332.1323
1014.295, 340.2478
1014.777, 342.4155
1015.259, 336.1938
1015.741, 329.2762
1016.223, 327.0270
1016.706, 328.4558
1017.188, 333.4190
1017.670, 340.5230
1018.152, 345.6200
1018.634, 348.0514
1019.116, 343.4119
1019.598, 330.2027
1020.080, 319.5058
1020.562, 324.3752
1021.045, 339.0706
1021.527, 344.3261
1022.009, 340.9599
1022.491, 341.5215
1022.973, 347.7488
1023.455, 352.2570
1023.937, 351.2914
1024.419, 346.7816
1024.901, 340.5278
1025.384, 333.0750
1025.866, 331.8011
1026.348, 337.3734
1026.830, 343.1261
1027.312, 348.0903
1027.794, 351.1150
1028.276, 350.4565
1028.758, 349.3098
1029.240, 355.8763
1029.723, 371.9426
1030.205, 380.1233
1030.687, 379.1049
1031.169, 374.0147
1031.651, 364.0944
1032.133, 355.4780
1032.615, 354.3396
1033.097, 358.4135
1033.580, 359.1551
1034.062, 355.6610
1034.544, 351.0694
1035.026, 342.6000
1035.508, 339.2294
1035.990, 348.2670
1036.472, 358.6916
1036.954, 357.4341
1037.437, 346.0033
1037.919, 339.7350
1038.401, 341.1762
1038.883, 342.9160
1039.365, 346.5887
1039.847, 347.7585
1040.329, 341.1103
1040.811, 333.1078
1041.293, 332.8541
1041.776, 340.6762
1042.258, 348.8837
1042.740, 362.5943
1043.222, 369.1236
1043.704, 359.3793
1044.186, 350.4525
1044.668, 354.7821
1045.150, 364.7557
1045.632, 366.0941
1046.115, 356.4752
1046.597, 351.9006
1047.079, 356.5906
1047.561, 362.3983
1048.043, 371.8690
1048.525, 377.7404
1049.007, 370.1785
1049.489, 356.1407
1049.972, 352.3684
1050.454, 363.0314
1050.936, 372.6766
1051.418, 379.2863
1051.900, 383.8720
1052.382, 386.9038
1052.864, 388.0002
1053.346, 384.7100
1053.828, 379.2874
1054.311, 379.0152
1054.793, 387.3828
1055.275, 393.7663
1055.757, 390.0038
1056.239, 390.3824
1056.721, 410.7716
1057.203, 432.0387
1057.685, 430.9333
1058.167, 411.1125
1058.650, 395.5002
1059.132, 390.2447
1059.614, 388.1566
1060.096, 389.5443
1060.578, 390.5855
1061.060, 385.4201
1061.542, 380.8967
1062.024, 387.8204
1062.507, 404.9097
1062.989, 418.3994
1063.471, 423.9071
1063.953, 425.4340
1064.435, 423.7601
1064.917, 419.3430
1065.399, 409.0725
1065.881, 398.0911
1066.364, 393.6320
1066.846, 396.3283
1067.328, 401.5709
1067.810, 412.2985
1068.292, 418.1598
1068.774, 407.3706
1069.256, 397.1466
1069.738, 405.2857
1070.220, 421.3187
1070.703, 426.0115
1071.185, 416.7496
1071.667, 408.0310
1072.149, 407.5122
1072.631, 406.6062
1073.113, 399.8950
1073.595, 392.4325
1074.077, 388.1448
1074.560, 386.4809
1075.042, 386.6508
1075.524, 388.2949
1076.006, 387.6686
1076.488, 377.2070
1076.970, 371.5988
1077.452, 385.0993
1077.934, 400.7273
1078.417, 403.4751
1078.899, 395.9845
1079.381, 382.9538
1079.863, 365.5142
1080.345, 358.2911
1080.827, 381.2309
1081.309, 399.1965
1081.791, 387.1840
1082.273, 367.3922
1082.755, 358.9654
1083.238, 360.4667
1083.720, 365.1138
1084.202, 371.4597
1084.684, 376.2950
1085.166, 377.8347
1085.648, 377.9937
1086.130, 377.3976
1086.612, 376.2174
1087.095, 373.3098
1087.577, 370.2443
1088.059, 371.2390
1088.541, 377.7473
1089.023, 381.9663
1089.505, 382.0106
1089.987, 377.3585
1090.469, 362.3846
1090.952, 347.1021
1091.434, 339.9912
1091.916, 340.5817
1092.398, 347.3226
1092.880, 361.0184
1093.362, 369.7463
1093.844, 368.6601
1094.326, 362.2440
1094.808, 346.4625
1095.291, 331.5622
1095.773, 329.5519
1096.255, 335.5717
1096.737, 335.3227
1097.219, 324.4369
1097.701, 318.1027
1098.183, 325.6190
1098.665, 332.8853
1099.147, 333.3516
1099.630, 331.4590
1100.112, 331.5038
1100.594, 332.4395
1101.076, 330.3432
1101.558, 323.6375
1102.040, 319.6505
1102.522, 322.7056
1103.004, 325.5374
1103.487, 324.8578
1103.969, 323.4953
1104.451, 324.1400
1104.933, 325.9270
1105.415, 326.8585
1105.897, 327.0246
1106.379, 324.3750
1106.861, 314.3523
1107.344, 307.0768
1107.826, 304.3532
1108.308, 306.6693
1108.790, 318.8572
1109.272, 335.2783
1109.754, 343.0645
1110.236, 340.0718
1110.718, 334.8045
1111.200, 322.7280
1111.682, 315.7445
1112.165, 320.6656
1112.647, 327.4465
1113.129, 330.4577
1113.611, 330.1516
1114.093, 326.9970
1114.575, 319.7480
1115.057, 315.9940
1115.539, 319.6038
1116.022, 320.7430
1116.504, 317.0910
1116.986, 311.3618
1117.468, 301.8990
1117.950, 293.3686
1118.432, 296.5410
1118.914, 313.9505
1119.396, 321.8179
1119.879, 316.6099
1120.361, 308.6865
1120.843, 294.9561
1121.325, 287.1836
1121.807, 294.9780
1122.289, 309.9521
1122.771, 318.2153
1123.253, 319.7180
1123.735, 315.4642
1124.218, 301.3566
1124.700, 296.0829
1125.182, 306.6734
1125.664, 313.5788
1126.146, 304.3987
1126.628, 290.0215
1127.110, 286.9821
1127.592, 294.3410
1128.074, 298.3702
1128.557, 298.6418
1129.039, 298.1642
1129.521, 296.9820
1130.003, 297.1589
1130.485, 300.0362
1130.967, 303.2456
1131.449, 303.8970
1131.931, 302.1448
1132.414, 297.1232
1132.896, 288.9064
1133.378, 290.1060
1133.860, 302.1235
1134.342, 308.8242
1134.824, 303.2759
1135.306, 294.5993
1135.788, 292.3678
1136.271, 294.5891
1136.753, 296.1936
1137.235, 297.2861
1137.717, 299.0972
1138.199, 301.3146
1138.681, 300.5464
1139.163, 295.7637
1139.645, 289.7202
1140.127, 283.9825
1140.609, 280.5563
1141.092, 285.1081
1141.574, 293.9283
1142.056, 297.6182
1142.538, 296.7850
1143.020, 296.7888
1143.502, 298.3151
1143.984, 294.7252
1144.466, 279.6601
1144.949, 265.0035
1145.431, 265.7466
1145.913, 274.7641
1146.395, 284.2931
1146.877, 292.6965
1147.359, 297.8089
1147.841, 299.5860
1148.323, 300.1747
1148.806, 301.0699
1149.288, 298.6318
1149.770, 284.1616
1150.252, 271.0185
1150.734, 275.3827
1151.216, 286.1166
1151.698, 287.5258
1152.180, 280.0185
1152.662, 271.0407
1153.145, 261.4910
1153.627, 260.5718
1154.109, 282.8470
1154.591, 302.2568
1155.073, 302.8527
1155.555, 295.6508
1156.037, 289.1812
1156.519, 284.0984
1157.001, 278.5691
1157.484, 271.6663
1157.966, 270.7895
1158.448, 287.0192
1158.930, 296.0887
1159.412, 283.4401
1159.894, 270.3203
1160.376, 272.8828
1160.858, 282.7182
1161.341, 284.7041
1161.823, 278.1339
1162.305, 273.5537
1162.787, 272.3941
1163.269, 270.3314
1163.751, 263.3887
1164.233, 262.1288
1164.715, 275.1911
1165.198, 291.0158
1165.680, 296.1436
1166.162, 291.5615
1166.644, 282.5822
1167.126, 266.0245
1167.608, 261.0420
1168.090, 271.4855
1168.572, 279.3421
1169.054, 277.4238
1169.536, 276.2832
1170.019, 262.7631
1170.501, 277.8447
1170.983, 286.6492
1171.465, 289.5138
1171.947, 268.6483
1172.429, 278.4253
1172.911, 275.9222
1173.393, 272.9154
1173.876, 287.0069
1174.358, 269.5928
1174.840, 295.2107
1175.322, 285.7001
1175.804, 271.8636
1176.286, 276.2511
1176.768, 291.8690
1177.250, 297.8333
1177.733, 292.7890
1178.215, 286.2061
1178.697, 282.1992
1179.179, 281.4452
1179.661, 287.6987
1180.143, 294.1748
1180.625, 291.8456
1181.107, 286.2014
1181.589, 284.7656
1182.072, 286.2862
1182.554, 285.6850
1183.036, 282.0987
1183.518, 280.1752
1184.000, 283.3118
1184.482, 286.7992
1184.964, 290.7745
1185.446, 291.6031
1185.928, 280.7058
1186.411, 268.8399
1186.893, 273.7462
1187.375, 292.9879
1187.857, 303.2253
1188.339, 295.7465
1188.821, 290.0378
1189.303, 288.3297
1189.785, 289.1445
1190.268, 295.3133
1190.750, 300.5571
1191.232, 299.1304
1191.714, 293.4819
1192.196, 289.3973
1192.678, 286.3914
1193.160, 288.9161
1193.642, 300.7222
1194.125, 305.8187
1194.607, 300.0624
1195.089, 290.9988
1195.571, 281.1450
1196.053, 275.3467
1196.535, 282.4888
1197.017, 298.8885
1197.499, 303.9844
1197.981, 298.2711
1198.464, 291.0105
1198.946, 283.2788
1199.428, 275.9684
1199.910, 269.4770
1200.392, 268.4143
1200.874, 278.0836
1201.356, 291.3803
1201.838, 297.0000
1202.320, 297.2729
1202.803, 296.4401
1203.285, 294.5743
1203.767, 289.3326
1204.249, 281.8976
1204.731, 279.6228
1205.213, 286.6690
1205.695, 295.2426
1206.177, 303.2528
1206.660, 306.0645
1207.142, 293.1010
1207.624, 278.0587
1208.106, 279.6403
1208.588, 291.6863
1209.070, 295.5573
1209.552, 287.0130
1210.034, 282.7638
1210.516, 293.7599
1210.999, 300.3460
1211.481, 292.3540
1211.963, 284.5909
1212.445, 286.9046
1212.927, 292.9491
1213.409, 294.2851
1213.891, 291.7899
1214.373, 291.8455
1214.855, 295.4999
1215.338, 298.9796
1215.820, 302.9807
1216.302, 304.4783
1216.784, 302.3619
1217.266, 297.9734
1217.748, 291.5486
1218.230, 285.5795
1218.712, 285.6342
1219.195, 290.8759
1219.677, 293.7788
1220.159, 294.6414
1220.641, 296.3084
1221.123, 299.1374
1221.605, 302.4289
1222.087, 305.8135
1222.569, 307.2489
1223.052, 303.9823
1223.534, 298.9653
1224.016, 296.4329
1224.498, 295.0810
1224.980, 292.9084
1225.462, 290.1440
1225.944, 286.1264
1226.426, 282.0398
1226.908, 284.3367
1227.391, 298.6048
1227.873, 310.2238
1228.355, 311.9405
1228.837, 308.3425
1229.319, 297.9533
1229.801, 287.1831
1230.283, 279.2557
1230.765, 276.3684
1231.247, 285.8177
1231.730, 312.2003
1232.212, 322.2807
1232.694, 303.6098
1233.176, 290.2188
1233.658, 285.0007
1234.140, 287.6287
1234.622, 302.6324
1235.104, 316.1890
1235.587, 311.1173
1236.069, 293.1104
1236.551, 284.0250
1237.033, 283.8356
1237.515, 291.3456
1237.997, 305.9951
1238.479, 311.5083
1238.961, 304.3508
1239.443, 293.9355
1239.926, 285.4134
1240.408, 283.6249
1240.890, 302.7605
1241.372, 326.7330
1241.854, 323.9288
1242.336, 307.4165
1242.818, 298.8283
1243.300, 299.0111
1243.783, 304.2386
1244.265, 312.3779
1244.747, 315.5949
1245.229, 308.1747
1245.711, 298.3971
1246.193, 284.6795
1246.675, 276.3610
1247.157, 282.8878
1247.640, 295.1847
1248.122, 304.1846
1248.604, 309.9716
1249.086, 316.0502
1249.568, 324.8881
1250.050, 323.1537
1250.532, 301.8034
1251.014, 292.0462
1251.496, 304.1809
1251.979, 313.7417
1252.461, 307.2566
1252.943, 295.3234
1253.425, 290.3401
1253.907, 291.6354
1254.389, 298.5612
1254.871, 309.9461
1255.353, 317.5797
1255.835, 320.8060
1256.318, 317.0636
1256.800, 307.0364
1257.282, 299.9225
1257.764, 301.2621
1258.246, 305.4120
1258.728, 305.9546
1259.210, 306.8979
1259.692, 316.0248
1260.175, 325.6613
1260.657, 324.3380
1261.139, 315.7983
1261.621, 310.2310
1262.103, 309.2992
1262.585, 306.5043
1263.067, 294.4112
1263.549, 289.6163
1264.031, 304.8144
1264.514, 315.4884
1264.996, 308.9496
1265.478, 297.5381
1265.960, 288.1868
1266.442, 283.6352
1266.924, 292.8582
1267.406, 316.7905
1267.888, 323.8877
1268.370, 312.7726
1268.853, 301.2987
1269.335, 291.7365
1269.817, 289.5757
1270.299, 297.1078
1270.781, 305.7281
##END=



