##NAMES=Ruizite
##RRUFFID=R060930
##IDEAL CHEMISTRY=Ca_2_Mn^3+^_2_Si_4_O_11_(OH)_4_&#183;2H_2_O
##LOCALITY=Christmas mine, Gila County, Arizona, USA
##OWNER=RRUFF
##SOURCE=Bob Jenkins
##DESCRIPTION=Orange, massive and radial acicular crystals
##STATUS=The identification of this mineral is confirmed by single-crystal X-ray diffraction and chemical analysis.
##URL=rruff.info/R060930
##MEASURED CHEMISTRY=(Ca_1.98_Mg_0.03_)_Σ2.01_(Mn^3+^_1.95_Fe^3+^_0.08_V^3+^_0.01_)_Σ2.04_Si_3.96_O_11_(OH)_4_·2H_2_O						
118.2281, 403.9448
118.7102, 401.8248
119.1923, 399.8241
119.6744, 398.6829
120.1566, 398.6362
120.6387, 398.6557
121.1208, 397.9386
121.6029, 396.8098
122.0850, 395.9395
122.5671, 395.7597
123.0493, 395.9482
123.5314, 396.2007
124.0135, 396.4803
124.4956, 396.7499
124.9777, 396.9047
125.4598, 396.9817
125.9420, 397.1465
126.4241, 397.5948
126.9062, 398.1849
127.3883, 398.6423
127.8704, 398.8382
128.3525, 398.9630
128.8347, 399.3317
129.3168, 399.9337
129.7989, 400.5624
130.2810, 400.9443
130.7631, 401.1801
131.2452, 401.7264
131.7274, 402.8320
132.2095, 404.2639
132.6916, 405.4093
133.1737, 406.2652
133.6558, 406.9290
134.1379, 407.3393
134.6201, 407.5088
135.1022, 408.1137
135.5843, 409.5989
136.0664, 411.7840
136.5485, 413.1017
137.0306, 413.3122
137.5128, 413.2370
137.9949, 413.9917
138.4770, 415.7723
138.9591, 417.4262
139.4412, 418.5916
139.9233, 419.2301
140.4055, 419.6496
140.8876, 419.6927
141.3697, 419.6653
141.8518, 420.0969
142.3339, 421.1133
142.8160, 422.2825
143.2982, 423.4624
143.7803, 424.6278
144.2624, 425.8468
144.7445, 427.0966
145.2266, 428.4122
145.7087, 429.8531
146.1909, 431.7606
146.6730, 433.3999
147.1551, 434.4561
147.6372, 434.3761
148.1193, 434.6374
148.6014, 435.2440
149.0836, 436.1951
149.5657, 437.5304
150.0478, 439.7064
150.5299, 441.8713
151.0120, 443.6663
151.4941, 444.5634
151.9763, 445.6839
152.4584, 447.1026
152.9405, 448.7798
153.4226, 450.5501
153.9047, 452.1216
154.3868, 453.9586
154.8690, 456.3131
155.3511, 460.1071
155.8332, 463.4626
156.3153, 465.7690
156.7974, 467.1766
157.2795, 468.9171
157.7617, 471.2992
158.2438, 474.0931
158.7259, 477.1341
159.2080, 480.4672
159.6901, 483.9768
160.1722, 487.6140
160.6544, 491.3866
161.1365, 495.3867
161.6186, 499.5625
162.1007, 503.9863
162.5828, 508.8281
163.0649, 514.5599
163.5471, 520.3144
164.0292, 525.6835
164.5113, 530.6478
164.9934, 535.4776
165.4755, 539.9637
165.9576, 544.4915
166.4398, 549.4726
166.9219, 555.2405
167.4040, 561.4542
167.8861, 567.9040
168.3682, 574.6176
168.8503, 581.3828
169.3325, 588.1190
169.8146, 594.8425
170.2967, 601.4757
170.7788, 607.9421
171.2609, 614.4338
171.7430, 621.0175
172.2252, 627.7263
172.7073, 634.6093
173.1894, 641.6786
173.6715, 649.0143
174.1536, 656.5275
174.6357, 664.8323
175.1179, 673.1695
175.6000, 680.5873
176.0821, 686.8684
176.5642, 692.6208
177.0463, 698.5652
177.5284, 704.5045
178.0106, 709.7379
178.4927, 714.1187
178.9748, 717.5341
179.4569, 719.6201
179.9390, 720.2858
180.4211, 719.9540
180.9033, 719.3907
181.3854, 718.3938
181.8675, 716.0507
182.3496, 711.2643
182.8317, 704.7897
183.3138, 698.0701
183.7960, 691.2551
184.2781, 684.3881
184.7602, 677.8373
185.2423, 671.4756
185.7244, 664.7949
186.2065, 656.9799
186.6887, 648.4404
187.1708, 640.6556
187.6529, 633.9169
188.1350, 627.7236
188.6171, 621.3075
189.0992, 614.6277
189.5814, 608.3052
190.0635, 602.7880
190.5456, 597.9474
191.0277, 593.4059
191.5098, 589.0687
191.9919, 585.0369
192.4741, 581.7287
192.9562, 579.1818
193.4383, 576.8116
193.9204, 574.0364
194.4025, 570.9216
194.8846, 568.6807
195.3668, 567.6145
195.8489, 567.3173
196.3310, 566.8398
196.8131, 566.1491
197.2952, 565.5193
197.7773, 565.0234
198.2595, 564.6553
198.7416, 564.8497
199.2237, 565.8098
199.7058, 567.2422
200.1879, 568.2509
200.6700, 568.7370
201.1522, 569.3099
201.6343, 570.3943
202.1164, 572.0233
202.5985, 573.8812
203.0806, 575.9535
203.5627, 578.2006
204.0449, 580.4611
204.5270, 582.7120
205.0091, 585.0379
205.4912, 587.4114
205.9733, 589.7590
206.4554, 592.6041
206.9376, 596.1118
207.4197, 600.1191
207.9018, 604.0870
208.3839, 607.8961
208.8660, 611.9986
209.3481, 616.7479
209.8303, 622.3299
210.3124, 627.8605
210.7945, 633.2543
211.2766, 638.5173
211.7587, 643.8034
212.2408, 649.0170
212.7230, 654.4961
213.2051, 660.5917
213.6872, 667.4935
214.1693, 674.3632
214.6514, 681.0120
215.1335, 687.5410
215.6157, 694.3584
216.0978, 702.1542
216.5799, 709.0291
217.0620, 713.5260
217.5441, 714.6807
218.0262, 716.2908
218.5084, 718.9914
218.9905, 722.4691
219.4726, 725.1724
219.9547, 727.4569
220.4368, 728.4684
220.9189, 727.3973
221.4011, 723.2926
221.8832, 719.7308
222.3653, 717.5717
222.8474, 716.2079
223.3295, 712.4951
223.8116, 705.3629
224.2938, 697.7250
224.7759, 691.3405
225.2580, 686.7267
225.7401, 682.2177
226.2222, 677.5834
226.7043, 672.9536
227.1865, 668.6678
227.6686, 664.8185
228.1507, 661.2878
228.6328, 658.0499
229.1149, 655.0912
229.5970, 652.4788
230.0792, 650.2996
230.5613, 648.4785
231.0434, 646.8712
231.5255, 645.8785
232.0076, 644.5687
232.4897, 642.4540
232.9719, 639.3736
233.4540, 635.8773
233.9361, 631.8510
234.4182, 627.4231
234.9003, 623.0145
235.3824, 618.8666
235.8646, 614.3903
236.3467, 609.2697
236.8288, 603.3041
237.3109, 597.0504
237.7930, 590.1516
238.2751, 582.9932
238.7573, 577.0125
239.2394, 572.6555
239.7215, 568.8019
240.2036, 564.8365
240.6857, 560.2497
241.1678, 556.7267
241.6500, 554.6088
242.1321, 553.4620
242.6142, 552.0739
243.0963, 549.8512
243.5784, 548.2827
244.0605, 548.0316
244.5427, 549.3888
245.0248, 551.3268
245.5069, 553.9486
245.9890, 557.1302
246.4711, 560.4747
246.9532, 563.6405
247.4354, 567.5981
247.9175, 572.7350
248.3996, 579.3279
248.8817, 586.3197
249.3638, 593.7552
249.8459, 601.5783
250.3281, 609.7577
250.8102, 618.6683
251.2923, 627.3316
251.7744, 635.4875
252.2565, 642.9616
252.7386, 650.4685
253.2208, 658.5296
253.7029, 666.2358
254.1850, 672.3066
254.6671, 676.5670
255.1492, 679.5316
255.6313, 681.3705
256.1135, 682.1425
256.5956, 681.2634
257.0777, 678.3900
257.5598, 674.1872
258.0419, 669.5256
258.5240, 664.5588
259.0062, 658.8945
259.4883, 652.5220
259.9704, 645.6130
260.4525, 636.9037
260.9346, 625.7293
261.4167, 613.7200
261.8989, 602.7359
262.3810, 593.1398
262.8631, 583.8701
263.3452, 574.7198
263.8273, 565.5885
264.3094, 557.3292
264.7916, 549.9651
265.2737, 543.2448
265.7558, 536.8593
266.2379, 530.8979
266.7200, 525.1454
267.2021, 519.5390
267.6843, 514.0880
268.1664, 508.5815
268.6485, 502.8745
269.1306, 497.4213
269.6127, 492.7356
270.0948, 488.9711
270.5770, 485.2798
271.0591, 481.4365
271.5412, 477.5898
272.0233, 474.4093
272.5054, 472.0308
272.9875, 470.0700
273.4697, 468.2917
273.9518, 466.6752
274.4339, 465.2982
274.9160, 464.2722
275.3981, 463.4380
275.8802, 462.1901
276.3624, 460.4199
276.8445, 458.7545
277.3266, 457.6573
277.8087, 457.1719
278.2908, 456.6514
278.7729, 456.0430
279.2551, 455.3815
279.7372, 454.8258
280.2193, 454.4228
280.7014, 453.8146
281.1835, 452.7092
281.6656, 451.1158
282.1478, 449.6281
282.6299, 448.2691
283.1120, 447.0249
283.5941, 445.9904
284.0762, 445.1828
284.5583, 444.1290
285.0405, 442.3947
285.5226, 440.0899
286.0047, 438.3053
286.4868, 437.1378
286.9689, 436.1849
287.4510, 434.7265
287.9332, 432.8073
288.4153, 431.3794
288.8974, 431.2108
289.3795, 431.8622
289.8616, 431.6245
290.3438, 430.4211
290.8259, 428.8482
291.3080, 427.4435
291.7901, 426.2115
292.2722, 425.0982
292.7543, 424.0805
293.2365, 423.1848
293.7186, 422.5645
294.2007, 422.2297
294.6828, 421.8820
295.1649, 421.1072
295.6470, 420.0800
296.1292, 419.3609
296.6113, 419.1689
297.0934, 419.2890
297.5755, 419.5850
298.0576, 420.0117
298.5397, 420.0858
299.0219, 419.1215
299.5040, 417.5698
299.9861, 416.3989
300.4682, 415.8075
300.9503, 415.6392
301.4324, 415.9576
301.9146, 416.6297
302.3967, 417.1009
302.8788, 416.6824
303.3609, 415.9557
303.8430, 415.8122
304.3251, 416.4604
304.8073, 417.3597
305.2894, 418.1475
305.7715, 418.8063
306.2536, 419.3193
306.7357, 419.6271
307.2178, 419.7937
307.7000, 419.8356
308.1821, 419.7340
308.6642, 419.6461
309.1463, 419.9205
309.6284, 420.2419
310.1105, 420.1225
310.5927, 418.7880
311.0748, 417.3464
311.5569, 416.7064
312.0390, 416.8817
312.5211, 416.9538
313.0032, 416.2243
313.4854, 415.1925
313.9675, 414.3983
314.4496, 414.2857
314.9317, 414.2258
315.4138, 413.8657
315.8959, 413.2682
316.3781, 412.7859
316.8602, 412.6985
317.3423, 412.7235
317.8244, 412.6610
318.3065, 412.4769
318.7886, 412.1902
319.2708, 411.5263
319.7529, 410.7242
320.2350, 410.4583
320.7171, 411.3259
321.1992, 412.4757
321.6813, 413.5401
322.1635, 414.5717
322.6456, 415.2691
323.1277, 415.3679
323.6098, 415.1215
324.0919, 414.9558
324.5740, 414.6597
325.0562, 414.7044
325.5383, 415.4149
326.0204, 417.1007
326.5025, 418.2322
326.9846, 418.2778
327.4667, 417.9046
327.9489, 417.8226
328.4310, 418.2151
328.9131, 418.7169
329.3952, 419.3125
329.8773, 420.0081
330.3594, 420.6922
330.8416, 421.3427
331.3237, 421.9967
331.8058, 422.6767
332.2879, 423.3885
332.7700, 424.1163
333.2521, 424.8607
333.7343, 425.6219
334.2164, 426.3920
334.6985, 427.0708
335.1806, 427.8902
335.6627, 429.0426
336.1448, 430.7228
336.6270, 432.0624
337.1091, 432.8867
337.5912, 433.4586
338.0733, 434.3088
338.5554, 435.4420
339.0375, 436.8265
339.5197, 438.6506
340.0018, 440.9630
340.4839, 442.4209
340.9660, 442.7419
341.4481, 442.7655
341.9302, 443.6497
342.4124, 445.4725
342.8945, 447.1574
343.3766, 448.3400
343.8587, 449.1312
344.3408, 450.0726
344.8229, 451.1608
345.3051, 452.3876
345.7872, 453.7376
346.2693, 455.2085
346.7514, 456.7819
347.2335, 458.2847
347.7156, 460.0932
348.1978, 463.6645
348.6799, 468.7867
349.1620, 472.7434
349.6441, 472.5339
350.1262, 469.8864
350.6083, 469.0327
351.0905, 470.7365
351.5726, 473.3207
352.0547, 474.9004
352.5368, 475.7560
353.0189, 476.7377
353.5010, 478.2173
353.9832, 480.0811
354.4653, 482.3073
354.9474, 484.9265
355.4295, 487.4977
355.9116, 489.5633
356.3937, 491.3934
356.8759, 493.3621
357.3580, 495.4981
357.8401, 497.9277
358.3222, 501.0184
358.8043, 504.6441
359.2864, 507.8780
359.7686, 509.8993
360.2507, 511.5051
360.7328, 513.3293
361.2149, 515.4927
361.6970, 517.9481
362.1791, 521.2769
362.6613, 524.8963
363.1434, 527.4711
363.6255, 527.2263
364.1076, 526.9100
364.5897, 527.9650
365.0718, 531.0173
365.5540, 533.7219
366.0361, 535.6207
366.5182, 536.9700
367.0003, 538.0787
367.4824, 538.8856
367.9645, 539.5637
368.4467, 540.0818
368.9288, 540.4256
369.4109, 540.9570
369.8930, 541.9463
370.3751, 542.9329
370.8572, 543.5809
371.3394, 543.4733
371.8215, 543.7571
372.3036, 544.7648
372.7857, 546.2158
373.2678, 547.0042
373.7499, 546.5402
374.2321, 546.4584
374.7142, 547.7432
375.1963, 550.9474
375.6784, 553.0872
376.1605, 553.8197
376.6426, 553.8912
377.1248, 554.4495
377.6069, 555.5917
378.0890, 556.6473
378.5711, 557.3510
379.0532, 557.7648
379.5353, 558.3689
380.0175, 559.2373
380.4996, 559.9591
380.9817, 560.2247
381.4638, 560.0320
381.9459, 559.2262
382.4280, 557.5170
382.9102, 555.5302
383.3923, 554.7881
383.8744, 555.1406
384.3565, 555.1537
384.8386, 553.5963
385.3207, 551.0886
385.8029, 548.9500
386.2850, 547.3251
386.7671, 545.8730
387.2492, 544.2997
387.7313, 542.6205
388.2134, 540.8997
388.6956, 539.0216
389.1777, 537.2397
389.6598, 535.8893
390.1419, 534.9548
390.6240, 533.9453
391.1061, 532.5394
391.5883, 530.9114
392.0704, 529.2048
392.5525, 527.1595
393.0346, 525.4741
393.5167, 524.7988
393.9988, 524.7592
394.4810, 524.2894
394.9631, 522.4307
395.4452, 520.5068
395.9273, 519.2104
396.4094, 518.7891
396.8915, 518.4511
397.3737, 518.0500
397.8558, 517.6481
398.3379, 517.3227
398.8200, 517.0930
399.3021, 516.9130
399.7842, 516.8214
400.2664, 516.8121
400.7485, 516.6240
401.2306, 516.0571
401.7127, 515.4955
402.1948, 515.1672
402.6769, 515.0582
403.1591, 515.2609
403.6412, 516.0861
404.1233, 517.0844
404.6054, 517.0373
405.0875, 515.6193
405.5696, 514.1219
406.0518, 513.0498
406.5339, 512.4155
407.0160, 511.9808
407.4981, 511.8311
407.9802, 511.6798
408.4623, 511.1486
408.9445, 510.2479
409.4266, 509.3596
409.9087, 508.5381
410.3908, 507.8431
410.8729, 507.4750
411.3550, 507.4297
411.8372, 507.4662
412.3193, 507.5827
412.8014, 507.6392
413.2835, 507.2106
413.7656, 506.1308
414.2477, 504.9831
414.7299, 504.4320
415.2120, 504.3002
415.6941, 504.1848
416.1762, 504.0724
416.6583, 503.7548
417.1404, 502.9139
417.6226, 501.5537
418.1047, 500.2418
418.5868, 499.1703
419.0689, 498.3484
419.5510, 497.7668
420.0331, 497.3995
420.5153, 497.3124
420.9974, 497.8489
421.4795, 498.7185
421.9616, 499.1567
422.4437, 498.3816
422.9258, 497.6567
423.4080, 497.5406
423.8901, 498.2206
424.3722, 498.9980
424.8543, 499.9645
425.3364, 500.9521
425.8185, 501.7824
426.3007, 502.2871
426.7828, 502.9035
427.2649, 503.7126
427.7470, 504.6872
428.2291, 505.6503
428.7112, 506.4650
429.1934, 507.4859
429.6755, 509.1363
430.1576, 511.7104
430.6397, 513.2367
431.1218, 513.4144
431.6039, 512.9221
432.0861, 512.8005
432.5682, 513.0745
433.0503, 513.3524
433.5324, 513.4142
434.0145, 513.3969
434.4966, 513.9418
434.9788, 515.0771
435.4609, 516.0618
435.9430, 516.1022
436.4251, 515.5038
436.9072, 515.1774
437.3893, 515.4155
437.8715, 515.6417
438.3536, 515.1824
438.8357, 514.1714
439.3178, 512.9820
439.7999, 511.4601
440.2820, 510.0496
440.7642, 509.4160
441.2463, 509.5838
441.7284, 509.3404
442.2105, 507.7643
442.6926, 505.5593
443.1747, 503.3955
443.6569, 501.4113
444.1390, 499.5229
444.6211, 497.6692
445.1032, 495.8864
445.5853, 494.3423
446.0674, 493.5831
446.5496, 492.6090
447.0317, 490.9863
447.5138, 488.4623
447.9959, 486.0870
448.4780, 483.9279
448.9601, 481.8777
449.4423, 479.7447
449.9244, 477.2662
450.4065, 475.3530
450.8886, 474.3427
451.3707, 473.9945
451.8528, 473.2345
452.3350, 471.9731
452.8171, 470.5308
453.2992, 468.9798
453.7813, 467.3039
454.2634, 465.6777
454.7455, 463.9667
455.2277, 462.6714
455.7098, 462.7347
456.1919, 463.9463
456.6740, 464.8971
457.1561, 465.0321
457.6382, 464.7007
458.1204, 464.4749
458.6025, 464.3327
459.0846, 464.1162
459.5667, 463.4279
460.0488, 462.7225
460.5309, 462.6750
461.0131, 463.4939
461.4952, 464.4492
461.9773, 464.9264
462.4594, 465.2304
462.9415, 465.8143
463.4236, 466.9506
463.9058, 468.2952
464.3879, 469.8949
464.8700, 471.6658
465.3521, 473.0940
465.8342, 473.4025
466.3163, 473.8197
466.7985, 475.1044
467.2806, 478.1624
467.7627, 480.5060
468.2448, 481.6865
468.7269, 482.2840
469.2090, 483.0939
469.6912, 484.0567
470.1733, 485.3851
470.6554, 487.3160
471.1375, 489.7372
471.6196, 491.5952
472.1017, 492.8907
472.5839, 493.6203
473.0660, 493.6590
473.5481, 492.9999
474.0302, 492.3421
474.5123, 491.7226
474.9944, 491.1781
475.4766, 490.9962
475.9587, 491.0606
476.4408, 490.5858
476.9229, 489.1322
477.4050, 487.0475
477.8871, 484.7635
478.3693, 482.3092
478.8514, 479.9159
479.3335, 477.9228
479.8156, 475.9990
480.2977, 473.6642
480.7798, 470.6538
481.2620, 467.8695
481.7441, 466.1928
482.2262, 464.9919
482.7083, 463.3363
483.1904, 460.6360
483.6725, 457.6769
484.1547, 454.5487
484.6368, 451.3130
485.1189, 448.5162
485.6010, 446.8163
486.0831, 445.1048
486.5652, 442.8037
487.0474, 439.4393
487.5295, 436.4431
488.0116, 433.7907
488.4937, 431.5576
488.9758, 429.9497
489.4579, 429.2524
489.9401, 428.2866
490.4222, 426.6852
490.9043, 424.6054
491.3864, 422.6503
491.8685, 420.7995
492.3506, 419.1716
492.8328, 417.8676
493.3149, 416.8629
493.7970, 416.1654
494.2791, 415.8774
494.7612, 415.3684
495.2433, 413.4217
495.7255, 410.6596
496.2076, 408.6651
496.6897, 408.4277
497.1718, 408.8038
497.6539, 408.9366
498.1360, 408.8167
498.6182, 408.3975
499.1003, 407.3245
499.5824, 406.1688
500.0645, 405.3966
500.5466, 405.1458
501.0287, 404.8185
501.5109, 403.9212
501.9930, 402.9990
502.4751, 402.6091
502.9572, 403.6815
503.4393, 404.2458
503.9214, 403.7872
504.4036, 402.6460
504.8857, 402.0133
505.3678, 402.0980
505.8499, 402.3278
506.3320, 402.5287
506.8141, 402.7143
507.2963, 402.6717
507.7784, 402.3565
508.2605, 401.9329
508.7426, 401.5430
509.2247, 401.1858
509.7068, 400.8468
510.1890, 400.5201
510.6711, 400.2130
511.1532, 399.8937
511.6353, 399.5878
512.1174, 399.4320
512.5995, 399.6706
513.0817, 399.9987
513.5638, 400.0497
514.0459, 399.8207
514.5280, 399.4693
515.0101, 399.0009
515.4922, 398.5066
515.9744, 398.0820
516.4565, 397.7794
516.9386, 397.4862
517.4207, 397.2349
517.9028, 396.9612
518.3849, 396.5580
518.8671, 395.9478
519.3492, 395.2684
519.8313, 394.4879
520.3134, 393.6269
520.7955, 392.9188
521.2776, 392.4466
521.7598, 391.9946
522.2419, 391.4327
522.7240, 390.7219
523.2061, 390.1145
523.6882, 389.6827
524.1703, 389.1977
524.6525, 388.2015
525.1346, 386.7417
525.6167, 385.6421
526.0988, 385.2182
526.5809, 385.1947
527.0630, 385.0952
527.5452, 384.9514
528.0273, 384.9240
528.5094, 385.2780
528.9915, 385.7127
529.4736, 385.9069
529.9557, 385.8343
530.4379, 385.5676
530.9200, 384.9073
531.4021, 384.1826
531.8842, 383.7148
532.3663, 383.6361
532.8484, 383.7300
533.3306, 383.8571
533.8127, 384.1230
534.2948, 384.7622
534.7769, 386.4115
535.2590, 387.7220
535.7411, 388.2593
536.2233, 388.0555
536.7054, 388.2071
537.1875, 388.8638
537.6696, 389.5995
538.1517, 390.0913
538.6339, 390.3009
539.1160, 390.8418
539.5981, 391.8372
540.0802, 392.9138
540.5623, 393.4977
541.0444, 393.6913
541.5266, 394.1013
542.0087, 394.9857
542.4908, 396.0946
542.9729, 397.1104
543.4550, 398.0332
543.9371, 398.9048
544.4193, 399.4760
544.9014, 400.1915
545.3835, 401.5408
545.8656, 403.5950
546.3477, 405.5761
546.8298, 407.0882
547.3120, 408.4577
547.7941, 409.9314
548.2762, 411.2924
548.7583, 413.1327
549.2404, 416.0163
549.7225, 419.2457
550.2047, 421.6050
550.6868, 422.7154
551.1689, 423.6286
551.6510, 424.2665
552.1331, 424.8599
552.6152, 427.2608
553.0974, 431.8383
553.5795, 436.4187
554.0616, 439.2132
554.5437, 440.6376
555.0258, 443.2129
555.5079, 447.2022
555.9901, 451.5411
556.4722, 455.1401
556.9543, 458.3071
557.4364, 461.6259
557.9185, 465.0826
558.4006, 469.0531
558.8828, 474.2067
559.3649, 480.1105
559.8470, 485.8830
560.3291, 491.2131
560.8112, 496.2620
561.2933, 500.8624
561.7755, 505.0031
562.2576, 509.8861
562.7397, 516.3713
563.2218, 523.0029
563.7039, 529.1116
564.1860, 534.5497
564.6682, 539.8675
565.1503, 545.0565
565.6324, 550.2198
566.1145, 555.3731
566.5966, 560.5449
567.0787, 566.0712
567.5609, 572.3356
568.0430, 578.6353
568.5251, 583.3082
569.0072, 586.4801
569.4893, 588.7730
569.9714, 590.4705
570.4536, 591.5547
570.9357, 591.9871
571.4178, 591.7725
571.8999, 591.0065
572.3820, 589.8256
572.8641, 588.0676
573.3463, 585.6414
573.8284, 582.5717
574.3105, 578.6259
574.7926, 573.5447
575.2747, 567.6057
575.7568, 561.1738
576.2390, 554.0275
576.7211, 546.5773
577.2032, 538.5802
577.6853, 530.3041
578.1674, 523.0134
578.6495, 517.0002
579.1317, 511.1275
579.6138, 504.9147
580.0959, 498.4212
580.5780, 492.0905
581.0601, 485.8597
581.5422, 479.9214
582.0244, 474.3091
582.5065, 469.0869
582.9886, 464.5826
583.4707, 460.8278
583.9528, 457.4554
584.4349, 454.1635
584.9171, 451.0189
585.3992, 448.1244
585.8813, 445.7798
586.3634, 443.3897
586.8455, 440.5435
587.3276, 437.4439
587.8098, 434.7627
588.2919, 433.0421
588.7740, 431.3247
589.2561, 429.2132
589.7382, 426.6904
590.2203, 424.7497
590.7025, 423.7037
591.1846, 422.7121
591.6667, 421.0828
592.1488, 418.7224
592.6309, 417.1183
593.1130, 416.4354
593.5952, 416.0599
594.0773, 415.2128
594.5594, 414.0283
595.0415, 413.0674
595.5236, 412.5745
596.0057, 412.1555
596.4879, 411.2606
596.9700, 410.1002
597.4521, 409.1743
597.9342, 408.9252
598.4163, 408.7851
598.8984, 408.4437
599.3806, 407.9111
599.8627, 407.3864
600.3448, 407.1273
600.8269, 406.6934
601.3090, 405.7659
601.7911, 404.0615
602.2733, 402.9976
602.7554, 402.8127
603.2375, 402.9304
603.7196, 402.8607
604.2017, 402.5979
604.6838, 402.1432
605.1660, 401.3969
605.6481, 400.6856
606.1302, 400.7594
606.6123, 401.4166
607.0944, 401.6948
607.5765, 400.9719
608.0587, 399.9599
608.5408, 399.3798
609.0229, 399.1934
609.5050, 399.2473
609.9871, 399.9179
610.4692, 400.4343
610.9514, 400.1870
611.4335, 399.0862
611.9156, 398.1936
612.3977, 397.7639
612.8798, 397.5748
613.3619, 397.5205
613.8441, 397.7132
614.3262, 397.7610
614.8083, 397.6017
615.2904, 397.3895
615.7725, 397.2713
616.2546, 397.2413
616.7368, 397.5010
617.2189, 398.1874
617.7010, 399.0273
618.1831, 399.5682
618.6652, 399.8376
619.1473, 399.9353
619.6295, 399.7108
620.1116, 399.4713
620.5937, 399.5180
621.0758, 399.8251
621.5579, 400.2705
622.0400, 400.8587
622.5222, 401.5059
623.0043, 402.1318
623.4864, 402.6911
623.9685, 403.4552
624.4506, 404.8638
624.9327, 406.1382
625.4149, 406.6472
625.8970, 405.8813
626.3791, 405.9539
626.8612, 407.1922
627.3433, 408.8486
627.8254, 409.8379
628.3076, 410.1927
628.7897, 410.6259
629.2718, 411.3395
629.7539, 412.1808
630.2360, 412.8454
630.7181, 413.4172
631.2003, 414.1533
631.6824, 415.3413
632.1645, 416.6266
632.6466, 417.8752
633.1287, 419.0388
633.6108, 419.7777
634.0930, 419.4037
634.5751, 419.0679
635.0572, 419.4059
635.5393, 420.5924
636.0214, 421.6877
636.5035, 422.7758
636.9857, 423.6682
637.4678, 424.1686
637.9499, 424.2204
638.4320, 424.2629
638.9141, 424.3143
639.3962, 424.3777
639.8784, 424.6055
640.3605, 424.8896
640.8426, 424.7328
641.3247, 423.8732
641.8068, 422.7561
642.2889, 421.8636
642.7711, 421.0863
643.2532, 420.1490
643.7353, 418.5016
644.2174, 417.0936
644.6995, 416.6582
645.1816, 417.0103
645.6638, 416.8373
646.1459, 415.5677
646.6280, 414.1217
647.1101, 412.8343
647.5922, 411.7469
648.0743, 410.0853
648.5565, 407.5508
649.0386, 405.2311
649.5207, 404.2545
650.0028, 404.4283
650.4849, 404.0741
650.9670, 403.0364
651.4492, 401.7411
651.9313, 400.4836
652.4134, 399.3273
652.8955, 398.4427
653.3776, 397.9597
653.8597, 397.5203
654.3419, 397.0777
654.8240, 396.4923
655.3061, 395.5551
655.7882, 393.4624
656.2703, 391.8824
656.7524, 391.5428
657.2346, 391.9908
657.7167, 391.8518
658.1988, 390.8448
658.6809, 389.9061
659.1630, 389.4014
659.6451, 389.2309
660.1273, 388.7685
660.6094, 387.9877
661.0915, 387.2353
661.5736, 386.8060
662.0557, 386.5338
662.5378, 386.0513
663.0200, 385.3377
663.5021, 384.6800
663.9842, 384.2686
664.4663, 384.0104
664.9484, 383.8287
665.4305, 383.7119
665.9127, 383.6613
666.3948, 383.8942
666.8769, 384.0804
667.3590, 383.8481
667.8411, 382.7836
668.3232, 382.2218
668.8054, 382.4528
669.2875, 383.0272
669.7696, 383.1294
670.2517, 382.7490
670.7338, 382.3839
671.2159, 382.1469
671.6981, 382.0469
672.1802, 382.1855
672.6623, 382.4962
673.1444, 382.7488
673.6265, 382.9223
674.1086, 382.9108
674.5908, 382.5170
675.0729, 381.8136
675.5550, 381.2411
676.0371, 380.9977
676.5192, 380.8710
677.0013, 380.8204
677.4835, 380.8716
677.9656, 380.6729
678.4477, 380.0314
678.9298, 379.4874
679.4119, 379.4109
679.8940, 379.8036
680.3762, 380.5758
680.8583, 381.8297
681.3404, 382.8291
681.8225, 382.4149
682.3046, 381.2536
682.7867, 380.7858
683.2689, 381.4523
683.7510, 382.3636
684.2331, 383.1270
684.7152, 383.6627
685.1973, 383.8493
685.6794, 383.0797
686.1616, 382.6583
686.6437, 383.1154
687.1258, 383.9908
687.6079, 384.4904
688.0900, 384.5860
688.5721, 384.3294
689.0543, 383.5788
689.5364, 382.5821
690.0185, 382.1224
690.5006, 382.1829
690.9827, 382.2646
691.4648, 381.9146
691.9470, 381.5297
692.4291, 381.8837
692.9112, 382.8402
693.3933, 383.6448
693.8754, 383.8756
694.3575, 383.8306
694.8397, 383.6189
695.3218, 383.2322
695.8039, 383.0207
696.2860, 383.1563
696.7681, 383.3672
697.2502, 383.5084
697.7324, 383.5389
698.2145, 383.7726
698.6966, 384.3002
699.1787, 384.7817
699.6608, 384.7146
700.1429, 384.2602
700.6251, 384.3364
701.1072, 385.1611
701.5893, 385.9348
702.0714, 385.7020
702.5535, 384.9517
703.0356, 384.3898
703.5178, 384.2202
703.9999, 384.2617
704.4820, 384.6317
704.9641, 385.1153
705.4462, 385.3643
705.9283, 385.0044
706.4105, 384.9989
706.8926, 385.6079
707.3747, 386.5621
707.8568, 387.2188
708.3389, 387.5646
708.8210, 387.8670
709.3032, 388.2256
709.7853, 388.5937
710.2674, 388.8438
710.7495, 389.0071
711.2316, 389.2002
711.7137, 389.6012
712.1959, 389.9609
712.6780, 390.0349
713.1601, 389.8634
713.6422, 389.7709
714.1243, 389.6715
714.6064, 389.8551
715.0886, 390.6129
715.5707, 391.9850
716.0528, 392.4942
716.5349, 391.7366
717.0170, 391.1625
717.4991, 392.0107
717.9813, 394.0233
718.4634, 395.1442
718.9455, 395.3015
719.4276, 395.0824
719.9097, 394.7276
720.3918, 394.4162
720.8740, 394.3707
721.3561, 394.6157
721.8382, 395.1686
722.3203, 396.4855
722.8024, 397.8528
723.2845, 398.6279
723.7667, 398.2068
724.2488, 398.1820
724.7309, 398.8075
725.2130, 399.5542
725.6951, 399.7204
726.1772, 399.2519
726.6594, 399.0755
727.1415, 399.4102
727.6236, 399.8602
728.1057, 399.8748
728.5878, 399.5699
729.0699, 399.2362
729.5521, 398.9156
730.0342, 398.6847
730.5163, 398.6806
730.9984, 398.7892
731.4805, 398.8054
731.9626, 398.8207
732.4448, 398.5456
732.9269, 397.6484
733.4090, 396.4965
733.8911, 396.2364
734.3732, 397.1434
734.8553, 397.8018
735.3375, 397.6581
735.8196, 397.0630
736.3017, 396.9818
736.7838, 397.3282
737.2659, 397.5748
737.7480, 397.2200
738.2302, 396.7917
738.7123, 396.8677
739.1944, 397.3444
739.6765, 397.6845
740.1586, 397.5953
740.6407, 397.4171
741.1229, 397.3864
741.6050, 397.4854
742.0871, 397.0371
742.5692, 395.6679
743.0513, 394.6300
743.5334, 394.7500
744.0156, 395.8667
744.4977, 396.6250
744.9798, 397.0300
745.4619, 397.2570
745.9440, 397.4093
746.4261, 397.4743
746.9083, 397.3355
747.3904, 396.9764
747.8725, 396.8678
748.3546, 397.4258
748.8367, 398.1610
749.3188, 398.8165
749.8010, 399.4675
750.2831, 399.5513
750.7652, 398.7074
751.2473, 397.8409
751.7294, 397.8610
752.2115, 398.7480
752.6937, 398.8603
753.1758, 398.0242
753.6579, 396.9574
754.1400, 396.2806
754.6221, 395.9141
755.1042, 395.7647
755.5864, 395.8774
756.0685, 395.9778
756.5506, 395.8596
757.0327, 395.6945
757.5148, 395.6602
757.9969, 395.9926
758.4791, 396.1076
758.9612, 395.8615
759.4433, 395.5529
759.9254, 395.6075
760.4075, 396.0456
760.8896, 396.2853
761.3718, 396.2058
761.8539, 395.9914
762.3360, 395.7575
762.8181, 395.5859
763.3002, 395.6774
763.7823, 396.2455
764.2645, 396.8072
764.7466, 397.0502
765.2287, 397.1340
765.7108, 397.3119
766.1929, 398.1025
766.6750, 398.2663
767.1572, 397.3716
767.6393, 396.0515
768.1214, 395.5498
768.6035, 395.9315
769.0856, 396.1986
769.5677, 396.0024
770.0499, 395.7503
770.5320, 396.2357
771.0141, 397.1776
771.4962, 397.8593
771.9783, 397.7725
772.4604, 397.5530
772.9426, 397.6443
773.4247, 397.8383
773.9068, 397.6344
774.3889, 396.5665
774.8710, 395.6776
775.3531, 395.1277
775.8353, 394.8816
776.3174, 394.8726
776.7995, 395.1100
777.2816, 395.4530
777.7637, 395.8614
778.2458, 396.3412
778.7280, 397.0865
779.2101, 397.9444
779.6922, 398.4097
780.1743, 397.7132
780.6564, 397.0863
781.1385, 397.3852
781.6207, 398.3486
782.1028, 398.7515
782.5849, 398.0670
783.0670, 397.5280
783.5491, 397.3938
784.0313, 397.6576
784.5134, 398.5132
784.9955, 399.9792
785.4776, 401.0206
785.9597, 401.0421
786.4418, 400.4354
786.9240, 399.6011
787.4061, 398.6318
787.8882, 397.8810
788.3703, 397.4066
788.8524, 397.3286
789.3345, 397.9925
789.8167, 399.2552
790.2988, 399.9533
790.7809, 399.8139
791.2630, 399.5944
791.7451, 399.5153
792.2272, 399.5713
792.7094, 399.8340
793.1915, 400.2866
793.6736, 400.5125
794.1557, 399.9211
794.6378, 399.1830
795.1199, 399.2212
795.6021, 399.9086
796.0842, 400.6454
796.5663, 401.5287
797.0484, 402.0554
797.5305, 401.6621
798.0126, 400.5275
798.4948, 400.2197
798.9769, 401.0258
799.4590, 401.9833
799.9411, 402.7830
800.4232, 403.3994
800.9053, 403.5739
801.3875, 403.3519
801.8696, 403.1705
802.3517, 403.4057
802.8338, 403.7276
803.3159, 403.6587
803.7980, 403.3094
804.2802, 403.3632
804.7623, 404.7381
805.2444, 405.8031
805.7265, 405.7776
806.2086, 404.8278
806.6907, 404.4351
807.1729, 404.6346
807.6550, 405.2610
808.1371, 406.7148
808.6192, 408.3405
809.1013, 407.8643
809.5834, 405.6935
810.0656, 404.1464
810.5477, 405.2946
811.0298, 406.9540
811.5119, 407.5850
811.9940, 407.2892
812.4761, 407.2666
812.9583, 408.1814
813.4404, 408.7647
813.9225, 408.3810
814.4046, 407.3206
814.8867, 407.4938
815.3688, 408.9625
815.8510, 410.3974
816.3331, 411.1222
816.8152, 411.3737
817.2973, 411.2784
817.7794, 410.9813
818.2615, 411.0822
818.7437, 412.2593
819.2258, 413.5220
819.7079, 414.5599
820.1900, 415.3058
820.6721, 415.4870
821.1542, 414.7261
821.6364, 414.2451
822.1185, 414.5822
822.6006, 415.4238
823.0827, 415.7209
823.5648, 415.5282
824.0469, 415.2915
824.5291, 415.3351
825.0112, 415.3789
825.4933, 414.9998
825.9754, 414.3828
826.4575, 414.0993
826.9396, 414.7193
827.4218, 415.2575
827.9039, 415.4128
828.3860, 415.3010
828.8681, 415.2290
829.3502, 415.1393
829.8323, 415.4897
830.3145, 416.7148
830.7966, 418.1240
831.2787, 418.2227
831.7608, 417.3568
832.2429, 416.6008
832.7250, 416.3487
833.2072, 416.4355
833.6893, 417.2072
834.1714, 418.2448
834.6535, 418.3496
835.1356, 416.5962
835.6177, 415.5398
836.0999, 415.8155
836.5820, 416.8582
837.0641, 417.3721
837.5462, 417.4121
838.0283, 417.6258
838.5104, 418.3124
838.9926, 419.0836
839.4747, 419.4838
839.9568, 419.6653
840.4389, 419.9008
840.9210, 420.1010
841.4031, 420.5824
841.8853, 421.5894
842.3674, 422.8166
842.8495, 423.8994
843.3316, 424.8802
843.8137, 425.4482
844.2958, 425.4933
844.7780, 425.2585
845.2601, 424.8804
845.7422, 424.5218
846.2243, 424.6195
846.7064, 425.4641
847.1885, 426.3441
847.6707, 426.8485
848.1528, 427.1682
848.6349, 427.5370
849.1170, 428.2134
849.5991, 428.4500
850.0812, 427.9510
850.5634, 427.4792
851.0455, 428.0601
851.5276, 429.5436
852.0097, 430.7910
852.4918, 431.6770
852.9739, 432.2111
853.4561, 432.2929
853.9382, 432.0917
854.4203, 431.6763
854.9024, 430.8167
855.3845, 430.5861
855.8666, 431.5492
856.3488, 432.8777
856.8309, 434.1638
857.3130, 435.5094
857.7951, 435.7960
858.2772, 434.8177
858.7593, 434.1196
859.2415, 435.7191
859.7236, 438.2472
860.2057, 439.2823
860.6878, 438.6199
861.1699, 437.8766
861.6520, 437.7350
862.1342, 437.8459
862.6163, 438.0800
863.0984, 438.4411
863.5805, 438.5801
864.0626, 438.3957
864.5447, 438.3195
865.0269, 438.7964
865.5090, 439.5614
865.9911, 439.5829
866.4732, 438.9488
866.9553, 438.2287
867.4374, 437.4249
867.9196, 436.9638
868.4017, 437.5184
868.8838, 438.8716
869.3659, 439.3661
869.8480, 438.3048
870.3301, 437.3126
870.8123, 436.7722
871.2944, 436.6576
871.7765, 437.0599
872.2586, 437.9083
872.7407, 438.5392
873.2228, 438.6206
873.7050, 438.3819
874.1871, 437.7354
874.6692, 436.9820
875.1513, 436.7714
875.6334, 438.1998
876.1155, 439.0715
876.5977, 438.8436
877.0798, 437.9897
877.5619, 437.2613
878.0440, 436.6468
878.5261, 436.3902
879.0082, 436.5879
879.4904, 437.0266
879.9725, 437.4877
880.4546, 437.9757
880.9367, 438.4904
881.4188, 438.9945
881.9009, 439.6016
882.3831, 440.4796
882.8652, 441.4037
883.3473, 442.1160
883.8294, 442.5494
884.3115, 443.0966
884.7936, 443.8147
885.2758, 444.5002
885.7579, 444.8310
886.2400, 444.9991
886.7221, 445.4737
887.2042, 446.3251
887.6863, 447.2081
888.1685, 447.9126
888.6506, 448.5932
889.1327, 449.3144
889.6148, 450.0533
890.0969, 451.1039
890.5790, 452.6075
891.0612, 454.0531
891.5433, 454.9349
892.0254, 455.5123
892.5075, 456.8230
892.9896, 458.8039
893.4717, 460.9232
893.9539, 463.1344
894.4360, 465.1533
894.9181, 466.8156
895.4002, 468.1317
895.8823, 469.0502
896.3644, 468.9799
896.8466, 469.7129
897.3287, 471.8943
897.8108, 475.0754
898.2929, 478.4333
898.7750, 481.8582
899.2571, 484.6603
899.7393, 486.2196
900.2214, 487.6051
900.7035, 489.4888
901.1856, 491.8476
901.6677, 494.6017
902.1498, 497.6863
902.6320, 501.3627
903.1141, 505.9291
903.5962, 510.7538
904.0783, 514.8302
904.5604, 518.2493
905.0425, 521.7723
905.5247, 525.4796
906.0068, 529.5002
906.4889, 534.0096
906.9710, 538.8758
907.4531, 543.9675
907.9352, 549.3655
908.4174, 554.7926
908.8995, 560.0110
909.3816, 565.5259
909.8637, 571.6054
910.3458, 578.3206
910.8279, 585.0760
911.3101, 591.8638
911.7922, 598.9996
912.2743, 606.5549
912.7564, 614.6782
913.2385, 623.6624
913.7206, 633.4327
914.2028, 643.4315
914.6849, 653.5342
915.1670, 663.8293
915.6491, 674.5232
916.1312, 685.3902
916.6133, 695.2552
917.0955, 704.1378
917.5776, 713.8292
918.0597, 725.7091
918.5418, 737.7921
919.0239, 748.1007
919.5060, 756.7401
919.9882, 763.7729
920.4703, 768.7695
920.9524, 772.8572
921.4345, 776.9823
921.9166, 779.7043
922.3987, 778.9492
922.8809, 774.5400
923.3630, 769.1066
923.8451, 762.9737
924.3272, 755.4788
924.8093, 745.3834
925.2914, 733.8093
925.7736, 722.5283
926.2557, 711.9307
926.7378, 700.4113
927.2199, 686.6147
927.7020, 672.7734
928.1841, 659.8976
928.6663, 648.0460
929.1484, 637.1511
929.6305, 627.1682
930.1126, 617.2658
930.5947, 606.1053
931.0768, 595.0738
931.5590, 586.2228
932.0411, 579.1474
932.5232, 572.6169
933.0053, 566.2468
933.4874, 560.1543
933.9695, 554.2536
934.4517, 548.6492
934.9338, 543.3885
935.4159, 538.5099
935.8980, 534.2382
936.3801, 530.8007
936.8622, 527.8032
937.3444, 524.9569
937.8265, 522.2668
938.3086, 519.7669
938.7907, 518.0007
939.2728, 515.3588
939.7549, 510.7552
940.2371, 506.0621
940.7192, 502.9328
941.2013, 501.4462
941.6834, 498.9623
942.1655, 495.3464
942.6476, 491.8445
943.1298, 489.5494
943.6119, 487.9374
944.0940, 486.6028
944.5761, 485.4720
945.0582, 484.0705
945.5403, 482.3085
946.0225, 480.1736
946.5046, 477.3585
946.9867, 474.2448
947.4688, 472.6029
947.9509, 472.3518
948.4330, 471.8867
948.9152, 470.3271
949.3973, 468.5507
949.8794, 467.3943
950.3615, 466.6247
950.8436, 465.8253
951.3257, 464.7838
951.8079, 463.9084
952.2900, 463.3369
952.7721, 462.7851
953.2542, 461.7755
953.7363, 460.4112
954.2184, 459.5741
954.7006, 459.4081
955.1827, 459.1928
955.6648, 458.0734
956.1469, 456.8267
956.6290, 456.2097
957.1111, 456.3871
957.5933, 456.3866
958.0754, 456.0814
958.5575, 455.7743
959.0396, 455.5742
959.5217, 455.4968
960.0038, 455.6995
960.4860, 456.1141
960.9681, 456.3867
961.4502, 456.2795
961.9323, 456.0182
962.4144, 455.3090
962.8965, 454.6167
963.3787, 455.0132
963.8608, 456.9658
964.3429, 458.8818
964.8250, 460.6794
965.3071, 462.1588
965.7892, 462.7124
966.2714, 462.7599
966.7535, 463.5338
967.2356, 465.3827
967.7177, 466.8302
968.1998, 466.5007
968.6819, 465.9108
969.1641, 466.2226
969.6462, 467.5385
970.1283, 468.4536
970.6104, 468.9644
971.0925, 469.1561
971.5746, 468.8383
972.0568, 468.3715
972.5389, 468.5853
973.0210, 469.2437
973.5031, 469.5648
973.9852, 469.1231
974.4673, 468.3921
974.9495, 467.2203
975.4316, 466.0110
975.9137, 465.6588
976.3958, 466.2489
976.8779, 466.2121
977.3600, 465.2274
977.8422, 463.8205
978.3243, 462.1980
978.8064, 460.6612
979.2885, 459.7348
979.7706, 459.7012
980.2527, 459.2670
980.7349, 458.1265
981.2170, 456.6788
981.6991, 455.0209
982.1812, 453.2145
982.6633, 451.7906
983.1454, 450.7385
983.6276, 449.9860
984.1097, 449.7014
984.5918, 449.4939
985.0739, 449.0224
985.5560, 448.3941
986.0381, 447.9613
986.5203, 448.1634
987.0024, 447.6195
987.4845, 445.9372
987.9666, 443.8856
988.4487, 442.5615
988.9308, 441.7948
989.4130, 441.0746
989.8951, 440.3287
990.3772, 439.5536
990.8593, 438.4911
991.3414, 437.6110
991.8235, 437.3570
992.3057, 437.7593
992.7878, 437.9171
993.2699, 437.8128
993.7520, 437.5862
994.2341, 437.3488
994.7162, 437.0036
995.1984, 436.1544
995.6805, 435.0522
996.1626, 434.4093
996.6447, 435.2604
997.1268, 435.5693
997.6089, 434.3805
998.0911, 432.8712
998.5732, 432.8964
999.0553, 434.4351
999.5374, 435.4775
1000.020, 435.7580
1000.502, 435.5589
1000.984, 434.9624
1001.466, 434.1210
1001.948, 433.0242
1002.430, 431.6255
1002.912, 430.8520
1003.394, 430.9189
1003.876, 431.2924
1004.359, 431.8599
1004.841, 432.5117
1005.323, 432.9704
1005.805, 433.2180
1006.287, 433.1328
1006.769, 432.1204
1007.251, 431.4806
1007.733, 432.4146
1008.216, 433.8787
1008.698, 434.3907
1009.180, 433.6823
1009.662, 432.9593
1010.144, 432.2440
1010.626, 431.7033
1011.108, 431.6749
1011.590, 431.8540
1012.072, 431.6069
1012.555, 430.9425
1013.037, 430.8406
1013.519, 432.4420
1014.001, 433.7125
1014.483, 433.8706
1014.965, 433.2735
1015.447, 433.1953
1015.929, 433.5731
1016.411, 433.7093
1016.894, 433.2833
1017.376, 432.7681
1017.858, 432.3854
1018.340, 432.2510
1018.822, 432.5630
1019.304, 433.6298
1019.786, 434.4395
1020.268, 435.0238
1020.751, 435.2820
1021.233, 435.0804
1021.715, 434.5070
1022.197, 433.5721
1022.679, 432.3977
1023.161, 431.6800
1023.643, 432.0341
1024.125, 432.6185
1024.607, 433.2369
1025.090, 433.7968
1025.572, 433.9888
1026.054, 433.7580
1026.536, 434.0801
1027.018, 435.2643
1027.500, 436.4445
1027.982, 436.8986
1028.464, 436.7164
1028.947, 435.8319
1029.429, 434.0231
1029.911, 432.7206
1030.393, 432.1049
1030.875, 431.8265
1031.357, 431.7653
1031.839, 431.8986
1032.321, 432.2080
1032.803, 432.6537
1033.286, 433.0631
1033.768, 433.5169
1034.250, 433.7251
1034.732, 433.4583
1035.214, 432.9052
1035.696, 432.2263
1036.178, 431.2361
1036.660, 431.2631
1037.143, 432.5371
1037.625, 433.8676
1038.107, 434.2057
1038.589, 433.9433
1039.071, 433.3379
1039.553, 432.4619
1040.035, 432.0932
1040.517, 433.0504
1041.000, 433.4354
1041.482, 432.3453
1041.964, 430.7437
1042.446, 431.4843
1042.928, 433.8874
1043.410, 434.9940
1043.892, 433.4837
1044.374, 431.9118
1044.856, 431.9552
1045.339, 432.5785
1045.821, 432.8794
1046.303, 432.8191
1046.785, 432.5223
1047.267, 431.9457
1047.749, 431.5264
1048.231, 431.5513
1048.713, 431.9063
1049.195, 432.7839
1049.677, 433.8811
1050.160, 434.3221
1050.642, 433.0020
1051.124, 432.2298
1051.606, 432.4518
1052.088, 433.0048
1052.570, 432.8115
1053.052, 432.1617
1053.534, 432.3719
1054.017, 433.6240
1054.499, 434.7189
1054.981, 434.8304
1055.463, 434.6142
1055.945, 434.3054
1056.427, 433.9980
1056.909, 434.3070
1057.391, 435.2991
1057.874, 436.1912
1058.356, 436.7262
1058.838, 437.0361
1059.320, 437.3506
1059.802, 437.5184
1060.284, 437.2228
1060.766, 435.6937
1061.248, 435.5557
1061.730, 437.4736
1062.213, 439.6171
1062.695, 440.6959
1063.177, 440.9409
1063.659, 441.1190
1064.141, 441.2353
1064.623, 441.3130
1065.105, 441.0948
1065.587, 441.1387
1066.070, 442.0004
1066.552, 443.0719
1067.034, 443.4175
1067.516, 443.0142
1067.998, 442.4513
1068.480, 441.7621
1068.962, 441.3029
1069.444, 441.7485
1069.927, 442.3242
1070.409, 442.1543
1070.891, 441.2012
1071.373, 440.9208
1071.855, 441.6401
1072.337, 442.2162
1072.819, 442.2195
1073.301, 442.0196
1073.783, 442.3806
1074.266, 443.0311
1074.748, 443.3218
1075.230, 442.7690
1075.712, 442.7447
1076.194, 444.2777
1076.676, 445.6840
1077.158, 445.7168
1077.640, 444.5915
1078.122, 444.7975
1078.604, 446.1613
1079.087, 447.2164
1079.569, 446.7375
1080.051, 446.1181
1080.533, 446.2301
1081.015, 446.7346
1081.497, 446.9720
1081.979, 446.8473
1082.461, 446.8895
1082.944, 447.1613
1083.426, 447.4331
1083.908, 447.5648
1084.390, 447.5208
1084.872, 447.1249
1085.354, 446.4253
1085.836, 446.0379
1086.318, 446.0713
1086.801, 446.3909
1087.283, 447.0861
1087.765, 447.8676
1088.247, 448.4207
1088.729, 448.6049
1089.211, 447.8106
1089.693, 445.6041
1090.175, 444.0383
1090.657, 444.6659
1091.140, 445.5099
1091.622, 445.3961
1092.104, 444.5065
1092.586, 444.5018
1093.068, 445.2885
1093.550, 445.7461
1094.032, 445.2524
1094.514, 444.4500
1094.997, 443.4946
1095.479, 442.6658
1095.961, 442.3512
1096.443, 442.7094
1096.925, 443.0884
1097.407, 443.5232
1097.889, 443.7460
1098.371, 443.0937
1098.854, 442.4179
1099.336, 443.4260
1099.818, 445.4750
1100.300, 445.9597
1100.782, 442.8907
1101.264, 440.6563
1101.746, 439.8734
1102.228, 439.9543
1102.710, 440.4719
1103.193, 441.1769
1103.675, 441.4163
1104.157, 441.1143
1104.639, 440.7490
1105.121, 440.5177
1105.603, 440.2696
1106.085, 439.8766
1106.567, 439.4582
1107.049, 439.4698
1107.531, 439.8468
1108.014, 440.0774
1108.496, 439.9961
1108.978, 439.8322
1109.460, 439.4767
1109.942, 439.3104
1110.424, 439.7888
1110.906, 440.9446
1111.388, 441.6526
1111.871, 441.9047
1112.353, 441.7645
1112.835, 440.8335
1113.317, 440.0750
1113.799, 441.1773
1114.281, 442.9860
1114.763, 443.5199
1115.245, 441.3490
1115.728, 440.3277
1116.210, 440.7292
1116.692, 441.4132
1117.174, 441.3225
1117.656, 440.9297
1118.138, 441.1334
1118.620, 441.8301
1119.102, 442.5067
1119.584, 443.3102
1120.067, 443.5336
1120.549, 442.8242
1121.031, 441.8708
1121.513, 441.7303
1121.995, 442.1189
1122.477, 441.9957
1122.959, 441.2693
1123.441, 440.6468
1123.924, 440.6158
1124.406, 440.6303
1124.888, 440.2726
1125.370, 439.8698
1125.852, 440.6277
1126.334, 442.4010
1126.816, 443.3970
1127.298, 443.1259
1127.781, 442.4316
1128.263, 441.4210
1128.745, 440.6653
1129.227, 440.8993
1129.709, 442.0450
1130.191, 442.1749
1130.673, 441.2143
1131.155, 440.4298
1131.637, 440.3921
1132.120, 440.6313
1132.602, 440.7289
1133.084, 440.7501
1133.566, 440.7467
1134.048, 440.5900
1134.530, 440.9534
1135.012, 442.0081
1135.494, 442.8755
1135.976, 442.6174
1136.458, 442.0690
1136.941, 442.7801
1137.423, 444.2768
1137.905, 445.3999
1138.387, 446.1793
1138.869, 445.7890
1139.351, 443.6073
1139.833, 441.5215
1140.315, 441.7623
1140.798, 443.4139
1141.280, 444.3384
1141.762, 444.5464
1142.244, 444.7171
1142.726, 445.2153
1143.208, 445.5860
1143.690, 445.7280
1144.172, 445.7080
1144.655, 445.5634
1145.137, 445.3463
1145.619, 445.2579
1146.101, 445.3283
1146.583, 445.4599
1147.065, 445.4928
1147.547, 445.7303
1148.029, 446.4857
1148.511, 447.4557
1148.994, 447.7617
1149.476, 447.4456
1149.958, 446.7060
1150.440, 445.3989
1150.922, 444.6215
1151.404, 445.6739
1151.886, 447.1291
1152.368, 447.8467
1152.851, 447.9082
1153.333, 448.3516
1153.815, 449.1732
1154.297, 449.8594
1154.779, 450.1668
1155.261, 450.3695
1155.743, 450.8393
1156.225, 451.2612
1156.708, 451.1585
1157.190, 450.4042
1157.672, 450.0845
1158.154, 450.2291
1158.636, 450.6034
1159.118, 451.4669
1159.600, 452.0705
1160.082, 450.9142
1160.564, 449.1156
1161.047, 448.7252
1161.529, 450.9589
1162.011, 452.3127
1162.493, 452.6740
1162.975, 452.6221
1163.457, 452.3813
1163.939, 452.1497
1164.421, 452.2811
1164.903, 452.6577
1165.385, 452.9232
1165.868, 452.9971
1166.350, 452.8808
1166.832, 452.4568
1167.314, 452.1472
1167.796, 452.5200
1168.278, 453.2504
1168.760, 453.8613
1169.242, 454.3063
1169.725, 454.4965
1170.207, 453.9998
1170.689, 453.9409
1171.171, 454.7477
1171.653, 455.5728
1172.135, 454.7302
1172.617, 453.1156
1173.099, 452.9507
1173.582, 454.4506
1174.064, 455.6583
1174.546, 455.6960
1175.028, 455.5094
1175.510, 455.2569
1175.992, 454.9994
1176.474, 454.8365
1176.956, 454.7743
1177.438, 454.8499
1177.921, 455.0766
1178.403, 455.3755
1178.885, 455.8009
1179.367, 456.2181
1179.849, 456.6695
1180.331, 457.0175
1180.813, 456.5174
1181.295, 455.4943
1181.778, 455.2274
1182.260, 456.2383
1182.742, 457.4087
1183.224, 458.4589
1183.706, 459.2975
1184.188, 459.8735
1184.670, 460.2017
1185.152, 460.2561
1185.635, 460.0918
1186.117, 459.9840
1186.599, 459.9413
1187.081, 460.1663
1187.563, 461.2949
1188.045, 462.2454
1188.527, 462.0651
1189.009, 460.8765
1189.491, 460.2321
1189.974, 460.0920
1190.456, 460.1672
1190.938, 460.5596
1191.420, 460.8024
1191.902, 460.2762
1192.384, 459.7838
1192.866, 460.2768
1193.348, 461.7911
1193.830, 462.4308
1194.313, 462.2535
1194.795, 462.0152
1195.277, 462.1525
1195.759, 462.3638
1196.241, 462.3519
1196.723, 462.4077
1197.205, 463.0781
1197.687, 464.4028
1198.169, 464.6808
1198.652, 463.8810
1199.134, 463.2072
1199.616, 463.9771
1200.098, 464.5983
1200.580, 463.7640
1201.062, 462.3208
1201.544, 461.6164
1202.026, 461.6620
1202.509, 462.2587
1202.991, 463.3984
1203.473, 464.2012
1203.955, 463.3656
1204.437, 462.6383
1204.919, 463.5630
1205.401, 465.3058
1205.883, 465.9527
1206.365, 465.4785
1206.848, 465.0889
1207.330, 464.9369
1207.812, 464.9044
1208.294, 464.5400
1208.776, 464.5965
1209.258, 466.2520
1209.740, 468.6568
1210.222, 469.1942
1210.705, 467.8481
1211.187, 467.1433
1211.669, 467.5791
1212.151, 468.2551
1212.633, 468.7702
1213.115, 468.9765
1213.597, 468.4735
1214.079, 467.5801
1214.562, 467.4706
1215.044, 468.1292
1215.526, 468.8284
1216.008, 469.4365
1216.490, 469.8819
1216.972, 470.0474
1217.454, 470.0700
1217.936, 469.9636
1218.418, 469.7910
1218.901, 469.8858
1219.383, 470.2368
1219.865, 470.7796
1220.347, 471.6199
1220.829, 472.1266
1221.311, 471.2981
1221.793, 470.4235
1222.275, 470.5911
1222.757, 471.6181
1223.240, 472.0717
1223.722, 472.0026
1224.204, 472.0187
1224.686, 472.3700
1225.168, 472.7408
1225.650, 473.1776
1226.132, 473.3057
1226.614, 472.6871
1227.096, 471.4836
1227.579, 471.1102
1228.061, 471.5236
1228.543, 472.4449
1229.025, 474.1629
1229.507, 475.3957
1229.989, 474.8420
1230.471, 473.9576
1230.953, 473.9200
1231.436, 474.6079
1231.918, 474.9601
1232.400, 474.9988
1232.882, 474.8712
1233.364, 474.4705
1233.846, 474.2358
1234.328, 474.4056
1234.810, 474.8201
1235.292, 475.4303
1235.775, 476.1968
1236.257, 476.8370
1236.739, 477.3569
1237.221, 477.7909
1237.703, 478.1578
1238.185, 478.4459
1238.667, 478.6966
1239.149, 478.8044
1239.632, 478.5001
1240.114, 477.9559
1240.596, 478.3943
1241.078, 479.5726
1241.560, 480.4842
1242.042, 480.4112
1242.524, 480.3690
1243.006, 480.4698
1243.489, 480.8442
1243.971, 481.8075
1244.453, 483.1310
1244.935, 483.8276
1245.417, 483.9971
1245.899, 483.9930
1246.381, 483.8494
1246.863, 483.6904
1247.345, 483.4418
1247.828, 483.3548
1248.310, 483.7466
1248.792, 484.4378
1249.274, 484.9553
1249.756, 485.3463
1250.238, 485.7939
1250.720, 486.6615
1251.202, 487.0417
1251.684, 486.6283
1252.167, 486.3058
1252.649, 487.0415
1253.131, 488.3024
1253.613, 489.1717
1254.095, 489.6563
1254.577, 489.8453
1255.059, 489.6783
1255.541, 489.2458
1256.023, 488.3670
1256.506, 487.8564
1256.988, 488.7032
1257.470, 490.1730
1257.952, 491.4136
1258.434, 492.3905
1258.916, 493.0329
1259.398, 493.3221
1259.880, 493.3671
1260.363, 493.1325
1260.845, 492.9383
1261.327, 493.1421
1261.809, 493.4504
1262.291, 493.6436
1262.773, 493.6747
1263.255, 493.3799
1263.737, 492.5542
1264.219, 492.5164
1264.702, 493.4086
1265.184, 494.2307
1265.666, 494.0604
1266.148, 493.6648
1266.630, 493.5720
1267.112, 493.7189
1267.594, 493.8953
1268.076, 494.0924
1268.559, 494.6637
1269.041, 495.6236
1269.523, 496.1742
1270.005, 495.1847
1270.487, 494.2607
1270.969, 494.5123
1271.451, 495.3016
1271.933, 495.8292
1272.416, 496.1081
1272.898, 496.2485
1273.380, 496.2944
1273.862, 496.7068
1274.344, 498.6065
1274.826, 499.7920
1275.308, 499.1940
1275.790, 497.9431
1276.272, 497.4203
1276.755, 497.4547
1277.237, 497.3165
1277.719, 497.0360
1278.201, 497.1140
1278.683, 498.6120
1279.165, 499.1321
1279.647, 497.6839
1280.129, 496.2558
1280.611, 497.6025
1281.094, 500.3842
1281.576, 501.8473
1282.058, 502.0418
1282.540, 501.9031
1283.022, 501.3341
1283.504, 501.1203
1283.986, 501.4045
1284.468, 501.8163
1284.950, 501.9784
1285.433, 502.0521
1285.915, 502.1929
1286.397, 502.4308
1286.879, 502.8686
1287.361, 503.5861
1287.843, 504.1170
1288.325, 504.3841
1288.807, 504.7720
1289.290, 505.8578
1289.772, 506.9846
1290.254, 507.5114
1290.736, 507.6459
1291.218, 507.9294
1291.700, 508.3609
1292.182, 509.0423
1292.664, 509.9728
1293.146, 510.6628
1293.629, 510.2827
1294.111, 510.0976
1294.593, 511.2853
1295.075, 512.7724
1295.557, 513.0172
1296.039, 512.2441
1296.521, 512.3357
1297.003, 513.3123
1297.486, 514.5023
1297.968, 515.9410
1298.450, 517.0873
1298.932, 517.8542
1299.414, 518.2938
1299.896, 518.3616
1300.378, 518.1821
1300.860, 517.9748
1301.343, 517.8411
1301.825, 518.0884
##END=



