##NAMES=Ruizite
##RRUFFID=R140132
##IDEAL CHEMISTRY=Ca_2_Mn^3+^_2_Si_4_O_11_(OH)_4_&#183;2H_2_O
##LOCALITY=Cornwall, Lebanon County, Pennsylvania, USA
##OWNER=RRUFF
##SOURCE=Marcus Origlieri
##DESCRIPTION=Reddish brown acicular crystals
##STATUS=The identification of this mineral is confirmed by single-crystal X-ray diffraction and chemical analysis.
##URL=rruff.info/R140132
##MEASURED CHEMISTRY=(Ca_1.96_Mg_0.02_)_Σ1.98_(Mn^3+^_1.97_Fe^3+^_0.04_Al_0.01_)_Σ2.02_Si_4.00_O_11_(OH)_4_·2H_2_O
91.71167, 294.5726
92.19379, 297.3065
92.67590, 297.8738
93.15802, 297.9987
93.64014, 299.3748
94.12225, 301.4397
94.60437, 302.4017
95.08649, 301.7464
95.56860, 299.7462
96.05072, 297.0188
96.53284, 293.7930
97.01495, 290.5597
97.49707, 287.4157
97.97919, 284.3336
98.46130, 282.2029
98.94342, 281.5426
99.42554, 282.2041
99.90765, 282.3323
100.3898, 281.7566
100.8719, 281.0238
101.3540, 280.8368
101.8361, 281.1403
102.3182, 282.0385
102.8004, 283.7022
103.2825, 286.3405
103.7646, 288.7445
104.2467, 290.7579
104.7288, 292.6282
105.2109, 294.9415
105.6931, 297.9399
106.1752, 301.0663
106.6573, 304.1903
107.1394, 307.9079
107.6215, 310.6591
108.1036, 311.8547
108.5858, 311.8929
109.0679, 312.8605
109.5500, 315.7426
110.0321, 318.8385
110.5142, 321.2289
110.9963, 322.1084
111.4785, 323.2164
111.9606, 324.8693
112.4427, 327.0449
112.9248, 329.0355
113.4069, 330.6124
113.8890, 332.0358
114.3712, 333.5338
114.8533, 336.2147
115.3354, 338.0076
115.8175, 337.9538
116.2996, 335.8871
116.7817, 333.7333
117.2639, 332.0970
117.7460, 330.7676
118.2281, 329.4795
118.7102, 328.0379
119.1923, 326.6631
119.6744, 325.5019
120.1566, 324.5782
120.6387, 323.7819
121.1208, 322.9098
121.6029, 322.1033
122.0850, 321.6681
122.5671, 322.3024
123.0493, 323.1322
123.5314, 323.1451
124.0135, 321.9104
124.4956, 320.4738
124.9777, 319.7604
125.4598, 319.6728
125.9420, 319.8881
126.4241, 320.3269
126.9062, 320.9032
127.3883, 321.4944
127.8704, 322.1507
128.3525, 322.7026
128.8347, 322.7739
129.3168, 322.3895
129.7989, 322.0253
130.2810, 322.1731
130.7631, 322.6972
131.2452, 323.0321
131.7274, 322.9568
132.2095, 322.6420
132.6916, 322.5585
133.1737, 322.7326
133.6558, 322.9823
134.1379, 323.1106
134.6201, 323.1230
135.1022, 323.2088
135.5843, 323.4012
136.0664, 323.7080
136.5485, 324.1981
137.0306, 324.9002
137.5128, 325.7271
137.9949, 326.6848
138.4770, 327.8554
138.9591, 328.7465
139.4412, 329.1050
139.9233, 328.8699
140.4055, 328.8783
140.8876, 329.2385
141.3697, 329.7202
141.8518, 329.8636
142.3339, 329.3830
142.8160, 329.1983
143.2982, 329.7716
143.7803, 331.5030
144.2624, 332.6544
144.7445, 332.9225
145.2266, 332.7061
145.7087, 332.9252
146.1909, 333.9045
146.6730, 334.9162
147.1551, 335.6787
147.6372, 336.0028
148.1193, 336.3894
148.6014, 336.7603
149.0836, 337.1858
149.5657, 337.9286
150.0478, 339.0830
150.5299, 340.4613
151.0120, 341.9948
151.4941, 344.2008
151.9763, 345.9295
152.4584, 347.0303
152.9405, 347.5811
153.4226, 348.0243
153.9047, 347.9004
154.3868, 347.9916
154.8690, 348.7237
155.3511, 350.6935
155.8332, 352.7169
156.3153, 354.6935
156.7974, 356.6038
157.2795, 358.3086
157.7617, 359.5631
158.2438, 360.7206
158.7259, 362.0370
159.2080, 363.3262
159.6901, 365.0237
160.1722, 367.5910
160.6544, 370.9662
161.1365, 373.8844
161.6186, 375.2536
162.1007, 376.2131
162.5828, 377.8493
163.0649, 381.2302
163.5471, 384.7395
164.0292, 387.5361
164.5113, 389.5868
164.9934, 391.7179
165.4755, 394.3583
165.9576, 397.3156
166.4398, 400.3145
166.9219, 403.4625
167.4040, 406.5039
167.8861, 409.0589
168.3682, 411.0827
168.8503, 413.3763
169.3325, 416.7750
169.8146, 420.7664
170.2967, 424.4691
170.7788, 427.1796
171.2609, 429.6656
171.7430, 432.5399
172.2252, 435.8609
172.7073, 439.5356
173.1894, 443.9831
173.6715, 448.7990
174.1536, 452.9289
174.6357, 455.5368
175.1179, 457.4061
175.6000, 459.4911
176.0821, 461.8840
176.5642, 464.2904
177.0463, 466.6867
177.5284, 468.9257
178.0106, 470.5221
178.4927, 470.9186
178.9748, 470.5822
179.4569, 470.3307
179.9390, 470.3029
180.4211, 470.1323
180.9033, 469.4955
181.3854, 468.3753
181.8675, 466.7199
182.3496, 464.0931
182.8317, 460.9326
183.3138, 458.1862
183.7960, 456.0530
184.2781, 454.1350
184.7602, 451.9032
185.2423, 449.3710
185.7244, 446.8466
186.2065, 444.4229
186.6887, 442.1225
187.1708, 439.9938
187.6529, 438.0432
188.1350, 436.2601
188.6171, 434.6486
189.0992, 433.1956
189.5814, 431.9784
190.0635, 431.0589
190.5456, 430.4165
191.0277, 430.0137
191.5098, 429.8905
191.9919, 429.9309
192.4741, 429.8440
192.9562, 429.6167
193.4383, 429.5525
193.9204, 429.8578
194.4025, 430.5233
194.8846, 431.4212
195.3668, 432.5898
195.8489, 433.9214
196.3310, 435.1917
196.8131, 436.4040
197.2952, 437.5139
197.7773, 438.2870
198.2595, 438.6935
198.7416, 439.8776
199.2237, 442.1838
199.7058, 445.1672
200.1879, 447.5052
200.6700, 449.0931
201.1522, 450.6239
201.6343, 452.5468
202.1164, 454.8810
202.5985, 457.4686
203.0806, 460.3160
203.5627, 463.3670
204.0449, 466.4085
204.5270, 469.4284
205.0091, 472.4677
205.4912, 475.5584
205.9733, 478.7059
206.4554, 481.8422
206.9376, 484.9248
207.4197, 487.9899
207.9018, 491.2707
208.3839, 494.7568
208.8660, 498.5097
209.3481, 502.6294
209.8303, 507.2755
210.3124, 511.6797
210.7945, 515.7156
211.2766, 519.4497
211.7587, 523.3143
212.2408, 527.3964
212.7230, 531.4537
213.2051, 535.4653
213.6872, 539.5970
214.1693, 543.0378
214.6514, 545.3928
215.1335, 546.9745
215.6157, 549.2970
216.0978, 552.9041
216.5799, 556.2521
217.0620, 558.2579
217.5441, 558.4528
218.0262, 558.6816
218.5084, 559.3093
218.9905, 560.1175
219.4726, 560.0719
219.9547, 559.2199
220.4368, 557.4579
220.9189, 554.6298
221.4011, 550.3385
221.8832, 546.0306
222.3653, 541.9907
222.8474, 538.0409
223.3295, 533.0165
223.8116, 526.4828
224.2938, 519.7508
224.7759, 513.5865
225.2580, 508.1377
225.7401, 503.0152
226.2222, 498.1851
226.7043, 493.6511
227.1865, 489.1793
227.6686, 484.6792
228.1507, 480.4970
228.6328, 476.9536
229.1149, 474.4119
229.5970, 471.6748
230.0792, 468.6718
230.5613, 465.4269
231.0434, 462.0798
231.5255, 458.4785
232.0076, 455.0746
232.4897, 452.2560
232.9719, 450.5667
233.4540, 448.2392
233.9361, 444.9369
234.4182, 440.9599
234.9003, 437.3217
235.3824, 434.2375
235.8646, 431.1827
236.3467, 427.8604
236.8288, 424.0152
237.3109, 420.4544
237.7930, 417.2370
238.2751, 414.2888
238.7573, 411.4570
239.2394, 408.5325
239.7215, 406.0058
240.2036, 404.1419
240.6857, 403.3327
241.1678, 402.2489
241.6500, 400.6036
242.1321, 398.7617
242.6142, 397.6304
243.0963, 397.3382
243.5784, 397.5895
244.0605, 398.3439
244.5427, 399.9029
245.0248, 401.1836
245.5069, 402.0074
245.9890, 402.6342
246.4711, 403.5710
246.9532, 404.7083
247.4354, 406.3628
247.9175, 408.7123
248.3996, 411.9979
248.8817, 415.2513
249.3638, 418.4322
249.8459, 421.6143
250.3281, 424.9529
250.8102, 428.5902
251.2923, 432.1671
251.7744, 435.6736
252.2565, 439.1904
252.7386, 442.1512
253.2208, 444.3860
253.7029, 446.1893
254.1850, 448.2141
254.6671, 451.1290
255.1492, 452.9222
255.6313, 452.6376
256.1135, 449.8504
256.5956, 447.9685
257.0777, 447.7469
257.5598, 447.7094
258.0419, 445.7075
258.5240, 440.9302
259.0062, 436.0648
259.4883, 431.8759
259.9704, 428.5080
260.4525, 424.6537
260.9346, 420.1746
261.4167, 415.4432
261.8989, 410.8364
262.3810, 406.3370
262.8631, 402.1495
263.3452, 398.4802
263.8273, 395.2842
264.3094, 391.8060
264.7916, 387.8238
265.2737, 383.8451
265.7558, 380.2919
266.2379, 377.2363
266.7200, 374.4835
267.2021, 372.0691
267.6843, 369.9517
268.1664, 367.5589
268.6485, 364.7371
269.1306, 361.9600
269.6127, 359.6937
270.0948, 358.0431
270.5770, 356.4220
271.0591, 354.6918
271.5412, 352.9277
272.0233, 351.4783
272.5054, 350.4072
272.9875, 349.5268
273.4697, 348.7724
273.9518, 348.1764
274.4339, 347.4131
274.9160, 346.3744
275.3981, 345.1901
275.8802, 344.1694
276.3624, 343.2899
276.8445, 342.7400
277.3266, 342.9002
277.8087, 343.8664
278.2908, 344.0334
278.7729, 343.0371
279.2551, 341.4544
279.7372, 340.6735
280.2193, 340.8029
280.7014, 341.0260
281.1835, 340.8404
281.6656, 340.2556
282.1478, 339.9478
282.6299, 340.0111
283.1120, 340.2256
283.5941, 340.1711
284.0762, 339.8289
284.5583, 339.5926
285.0405, 339.7191
285.5226, 340.1586
286.0047, 340.4424
286.4868, 340.5485
286.9689, 340.5609
287.4510, 340.6060
287.9332, 340.6774
288.4153, 340.6608
288.8974, 340.4710
289.3795, 340.1537
289.8616, 339.8326
290.3438, 339.4851
290.8259, 339.2865
291.3080, 339.5665
291.7901, 340.2328
292.2722, 340.7418
292.7543, 340.8416
293.2365, 340.6991
293.7186, 340.7025
294.2007, 340.8537
294.6828, 341.0389
295.1649, 341.2373
295.6470, 341.4012
296.1292, 341.3605
296.6113, 340.9986
297.0934, 340.4931
297.5755, 340.0976
298.0576, 339.8083
298.5397, 339.5935
299.0219, 339.4542
299.5040, 339.3700
299.9861, 339.2954
300.4682, 339.2189
300.9503, 339.1640
301.4324, 339.2454
301.9146, 339.4086
302.3967, 339.4175
302.8788, 338.7995
303.3609, 338.0388
303.8430, 337.9507
304.3251, 338.7912
304.8073, 339.7497
305.2894, 340.0954
305.7715, 339.9744
306.2536, 339.7554
306.7357, 339.4395
307.2178, 339.2081
307.7000, 339.3078
308.1821, 339.7818
308.6642, 340.2937
309.1463, 340.5929
309.6284, 340.7621
310.1105, 340.9365
310.5927, 341.1609
311.0748, 341.4138
311.5569, 341.7367
312.0390, 342.1265
312.5211, 342.3930
313.0032, 342.2546
313.4854, 342.0112
313.9675, 341.9838
314.4496, 342.6318
314.9317, 343.2107
315.4138, 343.2518
315.8959, 342.8536
316.3781, 342.6048
316.8602, 342.9822
317.3423, 343.4866
317.8244, 343.7162
318.3065, 343.1395
318.7886, 342.9140
319.2708, 343.8272
319.7529, 345.4390
320.2350, 346.5151
320.7171, 346.2697
321.1992, 345.6976
321.6813, 345.2345
322.1635, 344.8573
322.6456, 344.7601
323.1277, 345.0082
323.6098, 345.5496
324.0919, 346.3026
324.5740, 347.4786
325.0562, 348.6459
325.5383, 349.7225
326.0204, 350.7567
326.5025, 351.4833
326.9846, 351.5304
327.4667, 351.4108
327.9489, 351.6721
328.4310, 352.7158
328.9131, 353.7090
329.3952, 354.5352
329.8773, 355.1943
330.3594, 355.8204
330.8416, 356.3970
331.3237, 356.9507
331.8058, 357.5048
332.2879, 358.1335
332.7700, 358.6203
333.2521, 358.8296
333.7343, 358.8653
334.2164, 359.2521
334.6985, 360.0878
335.1806, 361.1057
335.6627, 362.1931
336.1448, 363.3781
336.6270, 364.4935
337.1091, 365.4702
337.5912, 366.4101
338.0733, 367.6026
338.5554, 369.1624
339.0375, 370.5735
339.5197, 371.6095
340.0018, 372.2465
340.4839, 372.7675
340.9660, 373.0843
341.4481, 373.4562
341.9302, 374.2637
342.4124, 375.5441
342.8945, 376.8046
343.3766, 377.8072
343.8587, 378.6750
344.3408, 380.1844
344.8229, 382.4266
345.3051, 384.6279
345.7872, 385.9804
346.2693, 386.5987
346.7514, 387.2526
347.2335, 388.0274
347.7156, 389.0058
348.1978, 390.5318
348.6799, 392.5529
349.1620, 394.3731
349.6441, 395.2255
350.1262, 395.5544
350.6083, 396.4564
351.0905, 398.1571
351.5726, 400.1393
352.0547, 401.7871
352.5368, 403.2174
353.0189, 404.7848
353.5010, 406.8661
353.9832, 409.0864
354.4653, 410.9289
354.9474, 412.3739
355.4295, 413.7929
355.9116, 415.4757
356.3937, 417.3306
356.8759, 419.1955
357.3580, 421.0355
357.8401, 422.8644
358.3222, 424.6891
358.8043, 426.5220
359.2864, 428.3369
359.7686, 430.1147
360.2507, 431.8829
360.7328, 433.6362
361.2149, 435.3448
361.6970, 437.1084
362.1791, 438.9476
362.6613, 440.8643
363.1434, 442.8684
363.6255, 444.9463
364.1076, 447.1163
364.5897, 449.4796
365.0718, 452.1408
365.5540, 454.4908
366.0361, 456.2886
366.5182, 457.7610
367.0003, 459.1808
367.4824, 460.4119
367.9645, 461.7738
368.4467, 463.5275
368.9288, 465.6880
369.4109, 467.3051
369.8930, 467.7301
370.3751, 468.1263
370.8572, 469.2954
371.3394, 471.6469
371.8215, 474.0932
372.3036, 476.7487
372.7857, 479.4406
373.2678, 481.5082
373.7499, 482.5687
374.2321, 483.7046
374.7142, 485.5095
375.1963, 488.2698
375.6784, 490.4929
376.1605, 492.0736
376.6426, 493.2189
377.1248, 494.1476
377.6069, 494.8405
378.0890, 495.4873
378.5711, 496.1737
379.0532, 496.8765
379.5353, 497.4428
380.0175, 497.9189
380.4996, 498.0567
380.9817, 497.4818
381.4638, 496.2773
381.9459, 495.0599
382.4280, 493.8916
382.9102, 492.8721
383.3923, 492.2997
383.8744, 492.1318
384.3565, 492.0200
384.8386, 492.0366
385.3207, 491.9017
385.8029, 490.8781
386.2850, 488.7496
386.7671, 486.4480
387.2492, 484.9977
387.7313, 484.0985
388.2134, 483.0956
388.6956, 481.5985
389.1777, 479.9478
389.6598, 478.3697
390.1419, 476.8876
390.6240, 475.6062
391.1061, 474.6770
391.5883, 473.9414
392.0704, 473.1958
392.5525, 472.0590
393.0346, 471.3669
393.5167, 471.7889
393.9988, 472.9852
394.4810, 473.9963
394.9631, 474.0894
395.4452, 474.2255
395.9273, 474.8945
396.4094, 476.2464
396.8915, 477.8277
397.3737, 480.0075
397.8558, 482.2175
398.3379, 483.7572
398.8200, 483.3989
399.3021, 483.5817
399.7842, 484.9692
400.2664, 487.5501
400.7485, 489.8407
401.2306, 491.7043
401.7127, 493.3707
402.1948, 494.9160
402.6769, 496.0506
403.1591, 497.7289
403.6412, 500.2844
404.1233, 503.2799
404.6054, 505.6320
405.0875, 507.0977
405.5696, 508.5792
406.0518, 510.5581
406.5339, 513.0663
407.0160, 515.0520
407.4981, 516.4381
407.9802, 517.4951
408.4623, 518.5300
408.9445, 519.5487
409.4266, 520.3498
409.9087, 520.8196
410.3908, 521.1047
410.8729, 521.7570
411.3550, 522.7538
411.8372, 523.2220
412.3193, 522.2843
412.8014, 520.3757
413.2835, 518.4185
413.7656, 516.4492
414.2477, 514.7117
414.7299, 513.8176
415.2120, 513.3816
415.6941, 512.5142
416.1762, 510.5720
416.6583, 508.1246
417.1404, 505.6632
417.6226, 503.1663
418.1047, 500.4842
418.5868, 497.0890
419.0689, 493.6419
419.5510, 490.7472
420.0331, 488.9977
420.5153, 487.2747
420.9974, 485.1703
421.4795, 482.7934
421.9616, 480.4993
422.4437, 478.1418
422.9258, 476.0729
423.4080, 474.5848
423.8901, 473.9679
424.3722, 472.9160
424.8543, 470.7740
425.3364, 468.4347
425.8185, 466.7813
426.3007, 466.1718
426.7828, 465.7189
427.2649, 465.3474
427.7470, 465.0449
428.2291, 464.7006
428.7112, 464.2251
429.1934, 463.8586
429.6755, 463.8151
430.1576, 464.2286
430.6397, 464.1544
431.1218, 463.3380
431.6039, 462.3888
432.0861, 462.5029
432.5682, 463.7792
433.0503, 464.5942
433.5324, 464.2873
434.0145, 463.1177
434.4966, 461.8597
434.9788, 460.5098
435.4609, 459.3126
435.9430, 458.3044
436.4251, 457.6003
436.9072, 457.6920
437.3893, 458.9953
437.8715, 460.2738
438.3536, 459.9761
438.8357, 458.4815
439.3178, 456.8485
439.7999, 455.5566
440.2820, 454.3989
440.7642, 453.1716
441.2463, 451.8467
441.7284, 450.6380
442.2105, 449.9138
442.6926, 449.2231
443.1747, 448.1236
443.6569, 446.1473
444.1390, 444.1499
444.6211, 442.3944
445.1032, 440.8173
445.5853, 439.2938
446.0674, 437.9130
446.5496, 436.4776
447.0317, 434.8776
447.5138, 432.9995
447.9959, 431.3444
448.4780, 430.0163
448.9601, 428.8477
449.4423, 427.6241
449.9244, 426.1709
450.4065, 425.1031
450.8886, 424.6938
451.3707, 424.7318
451.8528, 424.2415
452.3350, 423.0596
452.8171, 421.8131
453.2992, 420.8018
453.7813, 420.0183
454.2634, 419.3127
454.7455, 418.6768
455.2277, 418.0812
455.7098, 417.3414
456.1919, 416.5290
456.6740, 416.1475
457.1561, 416.5728
457.6382, 417.3530
458.1204, 417.6631
458.6025, 417.5671
459.0846, 417.4940
459.5667, 417.7783
460.0488, 418.2488
460.5309, 418.6902
461.0131, 419.0707
461.4952, 419.4388
461.9773, 419.6540
462.4594, 419.9129
462.9415, 420.5076
463.4236, 421.7228
463.9058, 423.1239
464.3879, 424.5226
464.8700, 425.9183
465.3521, 427.5027
465.8342, 429.6898
466.3163, 431.8214
466.7985, 433.4982
467.2806, 434.2462
467.7627, 435.3483
468.2448, 437.0212
468.7269, 438.9622
469.2090, 440.7902
469.6912, 442.6017
470.1733, 444.1429
470.6554, 445.2808
471.1375, 446.0636
471.6196, 446.9389
472.1017, 447.8828
472.5839, 448.9847
473.0660, 450.6315
473.5481, 452.8293
474.0302, 453.7723
474.5123, 453.0410
474.9944, 451.8036
475.4766, 451.9682
475.9587, 453.3074
476.4408, 454.3410
476.9229, 454.3656
477.4050, 453.8004
477.8871, 453.1746
478.3693, 452.5165
478.8514, 452.0523
479.3335, 452.4672
479.8156, 452.9428
480.2977, 452.2535
480.7798, 449.7366
481.2620, 447.6028
481.7441, 447.6879
482.2262, 448.8444
482.7083, 449.3814
483.1904, 448.2032
483.6725, 446.8142
484.1547, 445.6029
484.6368, 444.6021
485.1189, 443.9858
485.6010, 444.5378
486.0831, 444.8724
486.5652, 444.2128
487.0474, 441.7242
487.5295, 440.0512
488.0116, 439.6083
488.4937, 439.6925
488.9758, 439.3368
489.4579, 438.4662
489.9401, 437.3674
490.4222, 436.0579
490.9043, 434.5793
491.3864, 433.0327
491.8685, 431.3946
492.3506, 429.8103
492.8328, 428.3351
493.3149, 426.9913
493.7970, 425.9325
494.2791, 425.2293
494.7612, 424.5043
495.2433, 423.2219
495.7255, 421.5672
496.2076, 419.9907
496.6897, 418.6305
497.1718, 417.4503
497.6539, 416.4800
498.1360, 415.6949
498.6182, 414.9743
499.1003, 414.3698
499.5824, 413.7345
500.0645, 412.9501
500.5466, 411.9417
501.0287, 411.0052
501.5109, 410.0536
501.9930, 409.2841
502.4751, 408.9076
502.9572, 409.8131
503.4393, 410.0613
503.9214, 409.0733
504.4036, 407.2555
504.8857, 405.9904
505.3678, 405.3848
505.8499, 405.1404
506.3320, 405.2682
506.8141, 405.8233
507.2963, 405.9074
507.7784, 405.4055
508.2605, 404.7444
508.7426, 404.3451
509.2247, 404.1928
509.7068, 404.1102
510.1890, 404.1501
510.6711, 404.0811
511.1532, 403.3976
511.6353, 402.2036
512.1174, 401.0297
512.5995, 400.0492
513.0817, 399.2795
513.5638, 398.9030
514.0459, 398.8907
514.5280, 398.6613
515.0101, 397.4185
515.4922, 396.0071
515.9744, 395.3255
516.4565, 396.1310
516.9386, 396.5410
517.4207, 395.6123
517.9028, 393.9686
518.3849, 392.6303
518.8671, 392.0124
519.3492, 391.4482
519.8313, 390.7998
520.3134, 390.0755
520.7955, 389.3141
521.2776, 388.4677
521.7598, 387.6441
522.2419, 386.9330
522.7240, 386.3680
523.2061, 385.6192
523.6882, 384.5236
524.1703, 383.5733
524.6525, 383.7108
525.1346, 384.8409
525.6167, 385.3774
526.0988, 384.7681
526.5809, 383.4732
527.0630, 382.0487
527.5452, 380.5825
528.0273, 379.5234
528.5094, 379.4679
528.9915, 379.7833
529.4736, 379.6252
529.9557, 378.9073
530.4379, 378.4706
530.9200, 379.3408
531.4021, 380.4808
531.8842, 380.8296
532.3663, 379.3418
532.8484, 378.1666
533.3306, 377.9745
533.8127, 378.4426
534.2948, 378.9049
534.7769, 379.4671
535.2590, 379.8303
535.7411, 379.7921
536.2233, 379.3784
536.7054, 379.5115
537.1875, 380.5193
537.6696, 381.4523
538.1517, 381.5393
538.6339, 380.6807
539.1160, 380.3659
539.5981, 380.7160
540.0802, 381.5151
540.5623, 382.8326
541.0444, 384.4916
541.5266, 385.4517
542.0087, 384.9758
542.4908, 384.1152
542.9729, 384.4252
543.4550, 385.6900
543.9371, 387.0580
544.4193, 387.9227
544.9014, 388.7791
545.3835, 390.1673
545.8656, 392.1653
546.3477, 393.9359
546.8298, 395.0668
547.3120, 395.8815
547.7941, 396.6214
548.2762, 396.7202
548.7583, 397.5944
549.2404, 400.0098
549.7225, 403.0588
550.2047, 405.1423
550.6868, 405.6568
551.1689, 406.3713
551.6510, 407.7268
552.1331, 409.6496
552.6152, 411.7032
553.0974, 413.9429
553.5795, 416.0663
554.0616, 417.7974
554.5437, 419.2185
555.0258, 420.6785
555.5079, 422.1619
555.9901, 424.0148
556.4722, 426.7821
556.9543, 430.1920
557.4364, 433.7133
557.9185, 437.3540
558.4006, 440.8017
558.8828, 443.6952
559.3649, 446.2159
559.8470, 448.8570
560.3291, 451.6967
560.8112, 454.7831
561.2933, 458.2937
561.7755, 462.2261
562.2576, 465.9214
562.7397, 468.8186
563.2218, 471.7838
563.7039, 475.2908
564.1860, 479.6379
564.6682, 483.8196
565.1503, 487.9645
565.6324, 491.8520
566.1145, 495.0165
566.5966, 497.3978
567.0787, 499.9961
567.5609, 503.1191
568.0430, 506.4884
568.5251, 509.6316
569.0072, 512.5269
569.4893, 514.7332
569.9714, 515.5758
570.4536, 515.8156
570.9357, 516.7036
571.4178, 518.1964
571.8999, 519.3319
572.3820, 519.6487
572.8641, 519.2167
573.3463, 518.0127
573.8284, 515.8068
574.3105, 513.4037
574.7926, 510.8533
575.2747, 508.2975
575.7568, 505.9310
576.2390, 503.9205
576.7211, 501.8614
577.2032, 499.8326
577.6853, 497.7033
578.1674, 494.9713
578.6495, 491.3443
579.1317, 487.9878
579.6138, 485.5034
580.0959, 483.7681
580.5780, 481.7028
581.0601, 479.2588
581.5422, 476.8571
582.0244, 475.1460
582.5065, 473.7154
582.9886, 471.4161
583.4707, 467.9044
583.9528, 464.3999
584.4349, 462.1254
584.9171, 460.5226
585.3992, 458.7657
585.8813, 456.6619
586.3634, 454.2263
586.8455, 451.2556
587.3276, 447.9335
587.8098, 444.8815
588.2919, 442.2983
588.7740, 439.9143
589.2561, 437.6223
589.7382, 435.4171
590.2203, 433.5644
590.7025, 432.3721
591.1846, 431.0128
591.6667, 428.7848
592.1488, 425.5841
592.6309, 422.9648
593.1130, 421.0432
593.5952, 419.4253
594.0773, 417.6178
594.5594, 415.6981
595.0415, 414.0104
595.5236, 412.6819
596.0057, 411.5176
596.4879, 410.2307
596.9700, 408.9464
597.4521, 407.9716
597.9342, 407.7176
598.4163, 407.5718
598.8984, 407.2975
599.3806, 406.8665
599.8627, 406.1450
600.3448, 404.8619
600.8269, 403.4771
601.3090, 402.1236
601.7911, 400.6801
602.2733, 399.7650
602.7554, 399.5699
603.2375, 399.6314
603.7196, 399.5752
604.2017, 399.4078
604.6838, 398.9849
605.1660, 398.1719
605.6481, 397.3657
606.1302, 397.4640
606.6123, 398.2307
607.0944, 398.5368
607.5765, 397.6274
608.0587, 396.3890
608.5408, 395.7452
609.0229, 395.6293
609.5050, 395.7816
609.9871, 396.2686
610.4692, 396.8197
610.9514, 397.3576
611.4335, 397.8912
611.9156, 398.0783
612.3977, 397.3237
612.8798, 396.6024
613.3619, 396.5363
613.8441, 397.5818
614.3262, 398.1676
614.8083, 398.1499
615.2904, 397.8826
615.7725, 397.7509
616.2546, 397.7543
616.7368, 397.9955
617.2189, 398.5697
617.7010, 399.2758
618.1831, 399.6686
618.6652, 399.8447
619.1473, 400.1962
619.6295, 401.0201
620.1116, 402.0357
620.5937, 403.0140
621.0758, 403.9440
621.5579, 404.8075
622.0400, 405.3853
622.5222, 406.0366
623.0043, 407.0053
623.4864, 408.3757
623.9685, 409.7018
624.4506, 411.1714
624.9327, 412.3896
625.4149, 412.9713
625.8970, 412.4435
626.3791, 412.7636
626.8612, 414.2369
627.3433, 416.1650
627.8254, 417.5934
628.3076, 418.5410
628.7897, 419.3671
629.2718, 420.0375
629.7539, 420.8392
630.2360, 422.2981
630.7181, 424.2813
631.2003, 426.3516
631.6824, 428.8578
632.1645, 430.9264
632.6466, 431.4559
633.1287, 430.7178
633.6108, 430.4677
634.0930, 431.7014
634.5751, 433.2495
635.0572, 434.5529
635.5393, 435.5608
636.0214, 436.4762
636.5035, 437.2820
636.9857, 438.0147
637.4678, 438.7344
637.9499, 439.4754
638.4320, 439.9209
638.9141, 440.0245
639.3962, 439.8907
639.8784, 439.6906
640.3605, 439.3837
640.8426, 438.7592
641.3247, 437.6828
641.8068, 436.4225
642.2889, 435.1463
642.7711, 433.9113
643.2532, 432.8107
643.7353, 432.2150
644.2174, 431.4720
644.6995, 430.1075
645.1816, 428.2383
645.6638, 426.6543
646.1459, 425.7513
646.6280, 424.8690
647.1101, 423.7369
647.5922, 422.3357
648.0743, 421.2249
648.5565, 420.5675
649.0386, 419.7812
649.5207, 418.1986
650.0028, 415.9647
650.4849, 414.4449
650.9670, 413.8011
651.4492, 413.4777
651.9313, 412.9884
652.4134, 412.3872
652.8955, 411.7912
653.3776, 411.2375
653.8597, 410.6584
654.3419, 410.2492
654.8240, 409.7330
655.3061, 408.6895
655.7882, 406.1279
656.2703, 404.0465
656.7524, 403.1197
657.2346, 402.9997
657.7167, 402.6697
658.1988, 402.0252
658.6809, 401.4145
659.1630, 400.9190
659.6451, 400.5514
660.1273, 400.5439
660.6094, 400.9246
661.0915, 401.0025
661.5736, 399.8795
662.0557, 398.2428
662.5378, 397.5580
663.0200, 397.8911
663.5021, 398.3402
663.9842, 398.2199
664.4663, 397.9402
664.9484, 397.9188
665.4305, 398.3554
665.9127, 398.6734
666.3948, 398.7817
666.8769, 398.6804
667.3590, 398.3492
667.8411, 397.5479
668.3232, 397.0815
668.8054, 397.2004
669.2875, 397.4792
669.7696, 396.9219
670.2517, 395.4984
670.7338, 394.8458
671.2159, 395.7238
671.6981, 397.2638
672.1802, 398.1075
672.6623, 398.3295
673.1444, 398.2303
673.6265, 397.6577
674.1086, 397.0721
674.5908, 396.8501
675.0729, 396.9525
675.5550, 397.0498
676.0371, 397.0677
676.5192, 397.0398
677.0013, 396.9261
677.4835, 396.6973
677.9656, 396.7515
678.4477, 397.1823
678.9298, 397.7293
679.4119, 398.2352
679.8940, 398.7039
680.3762, 399.1895
680.8583, 399.7541
681.3404, 399.9707
681.8225, 398.9810
682.3046, 397.3850
682.7867, 396.4652
683.2689, 396.6204
683.7510, 397.0469
684.2331, 397.3903
684.7152, 397.5866
685.1973, 397.5457
685.6794, 396.6087
686.1616, 396.2014
686.6437, 397.1705
687.1258, 398.6780
687.6079, 399.1138
688.0900, 397.9380
688.5721, 397.1172
689.0543, 397.2568
689.5364, 397.9733
690.0185, 398.1013
690.5006, 397.6555
690.9827, 397.1984
691.4648, 397.1569
691.9470, 397.1973
692.4291, 396.6585
692.9112, 395.6570
693.3933, 394.8454
693.8754, 394.5332
694.3575, 394.5676
694.8397, 394.9748
695.3218, 395.7979
695.8039, 396.4131
696.2860, 396.8312
696.7681, 396.9443
697.2502, 396.6075
697.7324, 395.6680
698.2145, 395.0500
698.6966, 394.7574
699.1787, 394.7818
699.6608, 395.3337
700.1429, 396.2525
700.6251, 396.7106
701.1072, 396.5424
701.5893, 396.2192
702.0714, 396.1381
702.5535, 396.2189
703.0356, 396.3603
703.5178, 396.6156
703.9999, 396.7710
704.4820, 396.6776
704.9641, 396.4483
705.4462, 396.2527
705.9283, 395.9960
706.4105, 395.9428
706.8926, 396.1620
707.3747, 396.5877
707.8568, 397.0944
708.3389, 397.6945
708.8210, 398.2700
709.3032, 398.7932
709.7853, 399.2621
710.2674, 399.6994
710.7495, 400.0858
711.2316, 400.3196
711.7137, 400.0387
712.1959, 399.8364
712.6780, 400.4599
713.1601, 401.7277
713.6422, 402.2796
714.1243, 400.6404
714.6064, 399.2831
715.0886, 399.4211
715.5707, 401.1196
716.0528, 401.8693
716.5349, 401.2886
717.0170, 400.7524
717.4991, 401.3838
717.9813, 402.9678
718.4634, 403.6952
718.9455, 403.4893
719.4276, 403.2077
719.9097, 403.5820
720.3918, 404.3306
720.8740, 405.1224
721.3561, 405.9399
721.8382, 406.6269
722.3203, 407.0992
722.8024, 407.4159
723.2845, 407.6385
723.7667, 407.8535
724.2488, 407.7808
724.7309, 407.1343
725.2130, 406.4990
725.6951, 406.7085
726.1772, 407.8425
726.6594, 408.5270
727.1415, 408.4443
727.6236, 408.1437
728.1057, 408.5266
728.5878, 409.2992
729.0699, 409.6914
729.5521, 409.3411
730.0342, 408.7187
730.5163, 407.8981
730.9984, 407.0711
731.4805, 406.5780
731.9626, 406.8667
732.4448, 407.0742
732.9269, 407.1552
733.4090, 407.0329
733.8911, 406.3233
734.3732, 404.7484
734.8553, 403.8311
735.3375, 404.3955
735.8196, 405.6559
736.3017, 405.2410
736.7838, 403.4541
737.2659, 402.1464
737.7480, 402.8373
738.2302, 404.0904
738.7123, 404.7368
739.1944, 404.7891
739.6765, 404.4375
740.1586, 403.2224
740.6407, 402.1115
741.1229, 401.6847
741.6050, 401.8940
742.0871, 401.5742
742.5692, 400.3037
743.0513, 399.5028
743.5334, 400.2892
744.0156, 402.3745
744.4977, 403.1931
744.9798, 402.7529
745.4619, 401.9602
745.9440, 401.1935
746.4261, 400.6522
746.9083, 400.6029
747.3904, 401.0711
747.8725, 401.8376
748.3546, 403.3395
748.8367, 404.6937
749.3188, 405.1800
749.8010, 404.3882
750.2831, 404.1009
750.7652, 404.6498
751.2473, 405.1826
751.7294, 404.9186
752.2115, 403.8731
752.6937, 403.0217
753.1758, 402.4008
753.6579, 402.1173
754.1400, 402.4732
754.6221, 403.1817
755.1042, 403.7726
755.5864, 404.1265
756.0685, 404.4830
756.5506, 405.2807
757.0327, 405.9909
757.5148, 406.0524
757.9969, 404.6151
758.4791, 403.7551
758.9612, 403.6275
759.4433, 403.8998
759.9254, 404.2077
760.4075, 404.5503
760.8896, 404.9402
761.3718, 405.4022
761.8539, 405.8217
762.3360, 405.9920
762.8181, 406.0127
763.3002, 406.1110
763.7823, 406.4597
764.2645, 406.7105
764.7466, 406.6510
765.2287, 406.3827
765.7108, 406.0512
766.1929, 405.4109
766.6750, 405.1061
767.1572, 405.2603
767.6393, 405.7287
768.1214, 406.3463
768.6035, 407.1411
769.0856, 407.6269
769.5677, 407.5980
770.0499, 407.3641
770.5320, 407.3415
771.0141, 407.4981
771.4962, 407.7589
771.9783, 408.3403
772.4604, 408.7494
772.9426, 408.5980
773.4247, 408.0895
773.9068, 407.6910
774.3889, 407.3422
774.8710, 407.3105
775.3531, 407.8665
775.8353, 408.6721
776.3174, 408.6025
776.7995, 407.6121
777.2816, 406.8506
777.7637, 406.8676
778.2458, 407.2201
778.7280, 407.1214
779.2101, 406.7162
779.6922, 406.4640
780.1743, 406.5810
780.6564, 406.9123
781.1385, 407.4261
781.6207, 408.1002
782.1028, 408.8617
782.5849, 410.0383
783.0670, 410.7522
783.5491, 410.5887
784.0313, 409.8268
784.5134, 409.6830
784.9955, 410.1640
785.4776, 410.4494
785.9597, 409.7661
786.4418, 408.9312
786.9240, 409.5147
787.4061, 411.1501
787.8882, 412.4938
788.3703, 412.7608
788.8524, 412.6510
789.3345, 412.3663
789.8167, 411.9537
790.2988, 411.6813
790.7809, 411.6670
791.2630, 411.5671
791.7451, 411.1107
792.2272, 410.5100
792.7094, 410.8876
793.1915, 412.1979
793.6736, 413.3174
794.1557, 413.4682
794.6378, 413.1445
795.1199, 412.6922
795.6021, 412.2419
796.0842, 412.3319
796.5663, 413.9517
797.0484, 415.4374
797.5305, 415.8116
798.0126, 415.2362
798.4948, 415.2443
798.9769, 416.1004
799.4590, 416.8969
799.9411, 417.2424
800.4232, 417.2366
800.9053, 417.1490
801.3875, 417.0023
801.8696, 417.0085
802.3517, 417.4847
802.8338, 418.0417
803.3159, 418.1458
803.7980, 417.9101
804.2802, 418.0405
804.7623, 419.1550
805.2444, 420.2614
805.7265, 420.9836
806.2086, 421.3588
806.6907, 421.7511
807.1729, 422.1723
807.6550, 422.5475
808.1371, 422.9785
808.6192, 423.2812
809.1013, 422.7471
809.5834, 421.5322
810.0656, 420.5218
810.5477, 420.3711
811.0298, 420.5038
811.5119, 420.5809
811.9940, 420.5971
812.4761, 420.6119
812.9583, 420.5979
813.4404, 420.6472
813.9225, 420.8067
814.4046, 421.0594
814.8867, 421.3188
815.3688, 421.5872
815.8510, 421.7874
816.3331, 421.7879
816.8152, 421.7422
817.2973, 421.8270
817.7794, 422.0667
818.2615, 422.5800
818.7437, 423.9665
819.2258, 425.0946
819.7079, 425.2875
820.1900, 424.6541
820.6721, 424.1916
821.1542, 423.8398
821.6364, 423.8084
822.1185, 424.3541
822.6006, 425.1771
823.0827, 425.1830
823.5648, 424.4702
824.0469, 423.8195
824.5291, 423.6447
825.0112, 423.7251
825.4933, 423.9737
825.9754, 424.3197
826.4575, 424.5331
826.9396, 424.5254
827.4218, 424.3883
827.9039, 424.0354
828.3860, 423.5927
828.8681, 423.4426
829.3502, 423.5585
829.8323, 424.1894
830.3145, 425.7256
830.7966, 427.4481
831.2787, 427.7451
831.7608, 427.0260
832.2429, 426.5559
832.7250, 427.4232
833.2072, 428.1822
833.6893, 427.7750
834.1714, 426.6815
834.6535, 426.2066
835.1356, 426.7537
835.6177, 427.3517
836.0999, 427.9526
836.5820, 428.4102
837.0641, 428.1304
837.5462, 427.2220
838.0283, 426.9948
838.5104, 428.1595
838.9926, 429.6346
839.4747, 430.2464
839.9568, 430.3118
840.4389, 430.3910
840.9210, 430.7302
841.4031, 431.0227
841.8853, 431.2487
842.3674, 431.3589
842.8495, 431.1647
843.3316, 430.4962
843.8137, 430.4692
844.2958, 431.4663
844.7780, 432.6305
845.2601, 432.4506
845.7422, 431.4629
846.2243, 430.9790
846.7064, 431.4695
847.1885, 432.2236
847.6707, 433.2780
848.1528, 434.1721
848.6349, 434.3102
849.1170, 432.8801
849.5991, 432.1560
850.0812, 432.3802
850.5634, 433.0083
851.0455, 433.5705
851.5276, 434.0394
852.0097, 434.0199
852.4918, 433.3697
852.9739, 432.9287
853.4561, 433.9055
853.9382, 435.2878
854.4203, 435.8271
854.9024, 434.9296
855.3845, 434.4546
855.8666, 434.9658
856.3488, 435.8222
856.8309, 436.6866
857.3130, 437.6089
857.7951, 438.0770
858.2772, 438.0161
858.7593, 437.9265
859.2415, 438.3150
859.7236, 438.9360
860.2057, 439.3649
860.6878, 439.5645
861.1699, 439.8026
861.6520, 440.2868
862.1342, 440.7921
862.6163, 441.3101
863.0984, 441.8715
863.5805, 441.6840
864.0626, 440.4614
864.5447, 439.3649
865.0269, 439.2321
865.5090, 439.7285
865.9911, 439.5426
866.4732, 438.7998
866.9553, 438.3349
867.4374, 438.7934
867.9196, 439.6068
868.4017, 440.7196
868.8838, 441.9681
869.3659, 442.2123
869.8480, 440.4614
870.3301, 439.2541
870.8123, 439.4607
871.2944, 440.6533
871.7765, 441.3158
872.2586, 441.5020
872.7407, 441.9862
873.2228, 443.5412
873.7050, 445.0390
874.1871, 445.1248
874.6692, 444.2849
875.1513, 443.5762
875.6334, 443.0787
876.1155, 443.1237
876.5977, 444.0753
877.0798, 445.3745
877.5619, 445.8732
878.0440, 445.4901
878.5261, 445.5856
879.0082, 446.5671
879.4904, 447.7660
879.9725, 448.2980
880.4546, 448.4417
880.9367, 448.6682
881.4188, 449.0724
881.9009, 449.6422
882.3831, 450.6731
882.8652, 451.6812
883.3473, 452.1330
883.8294, 451.8441
884.3115, 451.7108
884.7936, 451.7408
885.2758, 452.0267
885.7579, 452.7083
886.2400, 453.7138
886.7221, 454.9970
887.2042, 456.5744
887.6863, 457.9167
888.1685, 458.5019
888.6506, 458.9218
889.1327, 459.6013
889.6148, 460.6005
890.0969, 461.5227
890.5790, 462.3011
891.0612, 463.1690
891.5433, 464.2232
892.0254, 465.4691
892.5075, 467.0684
892.9896, 468.9619
893.4717, 470.6590
893.9539, 471.7814
894.4360, 472.6977
894.9181, 473.4505
895.4002, 474.1572
895.8823, 475.4546
896.3644, 477.7627
896.8466, 479.9322
897.3287, 481.6542
897.8108, 483.0751
898.2929, 484.3494
898.7750, 485.6059
899.2571, 487.7269
899.7393, 491.6021
900.2214, 495.6252
900.7035, 498.1079
901.1856, 499.8680
901.6677, 502.2255
902.1498, 505.6024
902.6320, 509.5433
903.1141, 514.2748
903.5962, 519.2517
904.0783, 523.6097
904.5604, 527.4268
905.0425, 531.1623
905.5247, 534.7758
906.0068, 539.0031
906.4889, 544.8849
906.9710, 551.5869
907.4531, 558.1837
907.9352, 564.5464
908.4174, 570.9694
908.8995, 577.5193
909.3816, 584.1605
909.8637, 590.5358
910.3458, 596.7244
910.8279, 604.7380
911.3101, 614.6136
911.7922, 624.3001
912.2743, 631.6804
912.7564, 638.4990
913.2385, 646.6942
913.7206, 656.1956
914.2028, 665.8846
914.6849, 675.8533
915.1670, 685.4711
915.6491, 694.5922
916.1312, 703.2219
916.6133, 711.3547
917.0955, 719.0255
917.5776, 726.2579
918.0597, 733.1246
918.5418, 739.6002
919.0239, 746.3137
919.5060, 752.5250
919.9882, 756.7131
920.4703, 757.2462
920.9524, 757.2402
921.4345, 757.7552
921.9166, 757.5653
922.3987, 754.9653
922.8809, 749.8107
923.3630, 743.9681
923.8451, 737.5339
924.3272, 730.8789
924.8093, 724.7396
925.2914, 718.5145
925.7736, 711.4731
926.2557, 703.3914
926.7378, 695.0245
927.2199, 686.2152
927.7020, 677.6577
928.1841, 669.7037
928.6663, 662.3914
929.1484, 655.3986
929.6305, 648.6672
930.1126, 642.3771
930.5947, 636.4209
931.0768, 631.0071
931.5590, 626.4492
932.0411, 622.6784
932.5232, 619.6725
933.0053, 618.5392
933.4874, 616.6931
933.9695, 613.1874
934.4517, 608.7068
934.9338, 604.6434
935.4159, 601.0237
935.8980, 598.3885
936.3801, 597.3713
936.8622, 596.2726
937.3444, 592.8561
937.8265, 588.1556
938.3086, 583.6439
938.7907, 579.9368
939.2728, 576.0534
939.7549, 571.8145
940.2371, 567.4069
940.7192, 562.8499
941.2013, 558.1531
941.6834, 553.3026
942.1655, 548.2822
942.6476, 543.6780
943.1298, 540.4026
943.6119, 537.6013
944.0940, 534.2682
944.5761, 530.3353
945.0582, 526.6105
945.5403, 523.3710
946.0225, 520.2455
946.5046, 517.0217
946.9867, 513.8621
947.4688, 511.5604
947.9509, 510.0775
948.4330, 508.3354
948.9152, 505.6175
949.3973, 502.8133
949.8794, 500.7121
950.3615, 499.1495
950.8436, 497.8288
951.3257, 496.9267
951.8079, 495.9344
952.2900, 494.7556
952.7721, 493.5762
953.2542, 492.7126
953.7363, 492.0970
954.2184, 491.1283
954.7006, 489.7030
955.1827, 488.3597
955.6648, 487.5551
956.1469, 487.0001
956.6290, 486.3712
957.1111, 485.5820
957.5933, 485.4306
958.0754, 486.2998
958.5575, 487.0806
959.0396, 487.1990
959.5217, 486.8400
960.0038, 486.4828
960.4860, 486.1874
960.9681, 486.2680
961.4502, 487.2911
961.9323, 488.3291
962.4144, 488.8724
962.8965, 489.0173
963.3787, 488.9165
963.8608, 488.2167
964.3429, 488.2794
964.8250, 489.4399
965.3071, 490.9813
965.7892, 491.9353
966.2714, 492.4819
966.7535, 493.0580
967.2356, 493.7278
967.7177, 494.4751
968.1998, 495.5611
968.6819, 496.4901
969.1641, 496.7395
969.6462, 496.2237
970.1283, 496.6254
970.6104, 498.1868
971.0925, 499.3358
971.5746, 498.7978
972.0568, 497.4601
972.5389, 496.8934
973.0210, 496.9227
973.5031, 496.9924
973.9852, 496.9680
974.4673, 496.8306
974.9495, 496.6018
975.4316, 496.2509
975.9137, 495.7230
976.3958, 495.0240
976.8779, 494.1480
977.3600, 493.0707
977.8422, 491.9543
978.3243, 490.9480
978.8064, 490.0064
979.2885, 489.0964
979.7706, 488.2250
980.2527, 487.3288
980.7349, 486.4103
981.2170, 485.4409
981.6991, 484.3986
982.1812, 483.2920
982.6633, 482.1634
983.1454, 481.0321
983.6276, 480.1670
984.1097, 479.9869
984.5918, 479.8817
985.0739, 479.3458
985.5560, 478.5199
986.0381, 477.8288
986.5203, 477.5858
987.0024, 476.8104
987.4845, 475.1408
987.9666, 473.3712
988.4487, 472.9537
988.9308, 473.3781
989.4130, 473.0030
989.8951, 471.4421
990.3772, 469.9961
990.8593, 469.4934
991.3414, 469.3436
991.8235, 469.1779
992.3057, 468.9865
992.7878, 468.6539
993.2699, 468.1740
993.7520, 467.5645
994.2341, 466.6644
994.7162, 465.7627
995.1984, 465.5019
995.6805, 465.6613
996.1626, 465.6492
996.6447, 465.1896
997.1268, 464.5768
997.6089, 463.6770
998.0911, 462.8181
998.5732, 462.5182
999.0553, 462.7695
999.5374, 463.0260
1000.020, 463.2096
1000.502, 463.4510
1000.984, 464.1410
1001.466, 464.7603
1001.948, 464.7160
1002.430, 463.8803
1002.912, 463.1120
1003.394, 462.3854
1003.876, 461.8965
1004.359, 461.6314
1004.841, 461.7229
1005.323, 463.1289
1005.805, 465.3952
1006.287, 466.5875
1006.769, 465.0445
1007.251, 463.3086
1007.733, 462.4407
1008.216, 462.3112
1008.698, 462.8183
1009.180, 464.3369
1009.662, 464.9944
1010.144, 464.5999
1010.626, 463.8077
1011.108, 462.9459
1011.590, 462.2662
1012.072, 462.2395
1012.555, 462.8656
1013.037, 463.5954
1013.519, 464.4008
1014.001, 465.1010
1014.483, 465.7914
1014.965, 466.2799
1015.447, 465.5591
1015.929, 463.7974
1016.411, 462.9029
1016.894, 463.8193
1017.376, 465.0457
1017.858, 465.1595
1018.340, 464.8623
1018.822, 465.1131
1019.304, 466.7003
1019.786, 466.9323
1020.268, 465.2445
1020.751, 463.7174
1021.233, 464.3715
1021.715, 466.3271
1022.197, 467.2824
1022.679, 467.3043
1023.161, 467.0449
1023.643, 466.3581
1024.125, 465.9768
1024.607, 466.4000
1025.090, 467.2408
1025.572, 467.6461
1026.054, 467.5659
1026.536, 467.9283
1027.018, 469.0669
1027.500, 469.9475
1027.982, 469.2353
1028.464, 467.7701
1028.947, 466.4161
1029.429, 465.2558
1029.911, 464.6991
1030.393, 465.2185
1030.875, 465.4321
1031.357, 464.4103
1031.839, 462.6544
1032.321, 461.9348
1032.803, 462.0714
1033.286, 462.2570
1033.768, 462.2486
1034.250, 462.0332
1034.732, 461.2773
1035.214, 460.4659
1035.696, 460.3222
1036.178, 460.9684
1036.660, 461.6925
1037.143, 462.5244
1037.625, 462.9113
1038.107, 461.8963
1038.589, 460.4141
1039.071, 459.6204
1039.553, 459.5643
1040.035, 459.6777
1040.517, 459.9935
1041.000, 460.2131
1041.482, 460.2049
1041.964, 460.1010
1042.446, 460.3176
1042.928, 460.7403
1043.410, 460.8324
1043.892, 460.3036
1044.374, 459.8354
1044.856, 460.0739
1045.339, 460.4074
1045.821, 460.2340
1046.303, 459.4464
1046.785, 458.9310
1047.267, 458.6944
1047.749, 458.6813
1048.231, 459.0713
1048.713, 459.5145
1049.195, 459.3537
1049.677, 458.8585
1050.160, 458.8148
1050.642, 460.3750
1051.124, 460.9737
1051.606, 459.8826
1052.088, 458.4037
1052.570, 458.5027
1053.052, 459.7415
1053.534, 460.4405
1054.017, 460.3947
1054.499, 460.0231
1054.981, 458.9602
1055.463, 458.2344
1055.945, 458.9251
1056.427, 460.6366
1056.909, 460.8816
1057.391, 459.5132
1057.874, 458.4056
1058.356, 458.1910
1058.838, 458.5435
1059.320, 459.6669
1059.802, 460.8597
1060.284, 461.0288
1060.766, 459.0416
1061.248, 458.2941
1061.730, 459.4683
1062.213, 460.7629
1062.695, 460.7363
1063.177, 459.7998
1063.659, 459.4010
1064.141, 459.4674
1064.623, 459.6674
1065.105, 459.7655
1065.587, 460.0324
1066.070, 460.7662
1066.552, 461.6266
1067.034, 462.0943
1067.516, 462.1552
1067.998, 462.0927
1068.480, 461.9083
1068.962, 461.9121
1069.444, 462.5050
1069.927, 463.3345
1070.409, 464.2736
1070.891, 465.2590
1071.373, 465.4743
1071.855, 464.5713
1072.337, 463.8519
1072.819, 463.7352
1073.301, 464.0001
1073.783, 464.3705
1074.266, 464.7907
1074.748, 465.1193
1075.230, 465.2246
1075.712, 465.5107
1076.194, 466.4403
1076.676, 467.1790
1077.158, 467.0887
1077.640, 466.2852
1078.122, 465.9121
1078.604, 465.9634
1079.087, 466.3952
1079.569, 467.9404
1080.051, 469.0536
1080.533, 468.2856
1081.015, 466.6347
1081.497, 465.8880
1081.979, 466.1506
1082.461, 467.0835
1082.944, 468.7841
1083.426, 470.3026
1083.908, 470.4231
1084.390, 470.0269
1084.872, 470.1415
1085.354, 470.8030
1085.836, 471.5508
1086.318, 472.7220
1086.801, 473.1886
1087.283, 472.5084
1087.765, 471.2727
1088.247, 470.5241
1088.729, 470.1032
1089.211, 469.5161
1089.693, 468.5331
1090.175, 468.0207
1090.657, 468.8314
1091.140, 469.7488
1091.622, 470.1469
1092.104, 470.0655
1092.586, 469.7047
1093.068, 469.1028
1093.550, 468.7603
1094.032, 469.1468
1094.514, 469.4958
1094.997, 468.9069
1095.479, 468.1156
1095.961, 468.2026
1096.443, 469.6730
1096.925, 470.2702
1097.407, 469.8759
1097.889, 469.3378
1098.371, 469.1684
1098.854, 469.3399
1099.336, 470.1071
1099.818, 471.2325
1100.300, 471.7968
1100.782, 470.9933
1101.264, 470.7218
1101.746, 471.4327
1102.228, 472.3114
1102.710, 472.1127
1103.193, 471.2589
1103.675, 470.7239
1104.157, 470.6298
1104.639, 470.8586
1105.121, 471.7017
1105.603, 472.4798
1106.085, 472.9614
1106.567, 473.1893
1107.049, 473.2127
1107.531, 473.0649
1108.014, 472.9645
1108.496, 472.8895
1108.978, 473.1450
1109.460, 474.3097
1109.942, 475.6200
1110.424, 476.3766
1110.906, 476.5566
1111.388, 476.7395
1111.871, 476.9428
1112.353, 476.8711
1112.835, 476.2706
1113.317, 475.4649
1113.799, 474.7183
1114.281, 474.0528
1114.763, 473.4838
1115.245, 472.8382
1115.728, 472.8096
1116.210, 473.6219
1116.692, 474.3339
1117.174, 473.8407
1117.656, 472.8730
1118.138, 473.0481
1118.620, 474.0275
1119.102, 474.3013
1119.584, 472.3245
1120.067, 471.0390
1120.549, 471.0660
1121.031, 471.6516
1121.513, 471.8139
1121.995, 471.6794
1122.477, 471.7130
1122.959, 471.9534
1123.441, 472.1389
1123.924, 472.0848
1124.406, 471.9915
1124.888, 471.9220
1125.370, 471.8965
1125.852, 471.9054
1126.334, 471.9778
1126.816, 472.5505
1127.298, 473.9331
1127.781, 474.7990
1128.263, 473.3444
1128.745, 471.6087
1129.227, 471.5365
1129.709, 473.0421
1130.191, 473.4434
1130.673, 472.6676
1131.155, 471.9511
1131.637, 471.7343
1132.120, 471.8886
1132.602, 472.5161
1133.084, 473.3225
1133.566, 473.8680
1134.048, 474.0215
1134.530, 474.1873
1135.012, 474.3667
1135.494, 474.5373
1135.976, 474.6797
1136.458, 474.8097
1136.941, 474.9350
1137.423, 475.0705
1137.905, 475.2491
1138.387, 475.5844
1138.869, 475.8217
1139.351, 475.9877
1139.833, 475.9653
1140.315, 475.3477
1140.798, 474.5391
1141.280, 474.7439
1141.762, 475.8063
1142.244, 476.4731
1142.726, 475.4410
1143.208, 475.0759
1143.690, 476.2686
1144.172, 477.8940
1144.655, 478.1577
1145.137, 477.3561
1145.619, 476.6167
1146.101, 476.0839
1146.583, 475.7797
1147.065, 475.7190
1147.547, 475.9201
1148.029, 476.4667
1148.511, 477.2232
1148.994, 477.9381
1149.476, 478.5637
1149.958, 478.4879
1150.440, 477.3746
1150.922, 476.5469
1151.404, 477.1294
1151.886, 478.2319
1152.368, 479.3018
1152.851, 480.2877
1153.333, 480.8459
1153.815, 480.9678
1154.297, 481.0301
1154.779, 481.1390
1155.261, 481.2965
1155.743, 481.6861
1156.225, 482.0148
1156.708, 481.8210
1157.190, 480.9662
1157.672, 480.6837
1158.154, 481.0391
1158.636, 481.4337
1159.118, 481.5997
1159.600, 481.5747
1160.082, 481.0962
1160.564, 480.5573
1161.047, 480.7125
1161.529, 482.3000
1162.011, 483.0120
1162.493, 482.7126
1162.975, 482.1034
1163.457, 481.4144
1163.939, 480.9499
1164.421, 481.5905
1164.903, 482.8273
1165.385, 483.0855
1165.868, 480.9302
1166.350, 479.8776
1166.832, 480.4303
1167.314, 481.4401
1167.796, 481.7025
1168.278, 481.5932
1168.760, 481.8412
1169.242, 482.4037
1169.725, 482.7277
1170.207, 482.2380
1170.689, 482.1867
1171.171, 482.9814
1171.653, 483.8775
1172.135, 483.5141
1172.617, 482.5241
1173.099, 482.4055
1173.582, 483.3116
1174.064, 484.2339
1174.546, 484.9864
1175.028, 485.4250
1175.510, 485.3830
1175.992, 485.1498
1176.474, 485.3254
1176.956, 485.7881
1177.438, 486.2213
1177.921, 486.5782
1178.403, 486.7902
1178.885, 486.8746
1179.367, 486.7136
1179.849, 486.0700
1180.331, 485.2836
1180.813, 485.6086
1181.295, 486.7482
1181.778, 487.5062
1182.260, 487.3713
1182.742, 487.5057
1183.224, 488.7922
1183.706, 490.1533
1184.188, 491.0051
1184.670, 491.4246
1185.152, 491.9053
1185.635, 492.3448
1186.117, 492.1741
1186.599, 490.7362
1187.081, 489.5713
1187.563, 489.8335
1188.045, 490.3310
1188.527, 490.0496
1189.009, 489.1003
1189.491, 489.1035
1189.974, 489.9084
1190.456, 490.3908
1190.938, 489.4180
1191.420, 488.7695
1191.902, 489.8727
1192.384, 491.3318
1192.866, 491.8095
1193.348, 491.2911
1193.830, 490.1927
1194.313, 488.5910
1194.795, 487.4077
1195.277, 487.2383
1195.759, 487.5820
1196.241, 488.7234
1196.723, 489.8900
1197.205, 489.9443
1197.687, 488.8441
1198.169, 488.4594
1198.652, 488.8534
1199.134, 489.3176
1199.616, 489.3217
1200.098, 489.3094
1200.580, 489.7414
1201.062, 490.2390
1201.544, 489.9883
1202.026, 488.9493
1202.509, 488.9611
1202.991, 490.1935
1203.473, 491.2939
1203.955, 490.8726
1204.437, 490.3961
1204.919, 491.1288
1205.401, 492.4065
1205.883, 492.6120
1206.365, 491.7112
1206.848, 491.3632
1207.330, 491.8229
1207.812, 492.1291
1208.294, 491.0111
1208.776, 489.9698
1209.258, 490.2293
1209.740, 491.3929
1210.222, 492.5246
1210.705, 493.6434
1211.187, 494.1744
1211.669, 493.9660
1212.151, 493.7233
1212.633, 494.1637
1213.115, 494.6535
1213.597, 494.5977
1214.079, 494.2036
1214.562, 494.2369
1215.044, 494.6916
1215.526, 495.2765
1216.008, 495.9766
1216.490, 496.5236
1216.972, 496.5152
1217.454, 496.4319
1217.936, 496.6557
1218.418, 497.1182
1218.901, 497.5629
1219.383, 497.9734
1219.865, 497.9659
1220.347, 497.2944
1220.829, 496.7185
1221.311, 497.0294
1221.793, 497.4563
1222.275, 497.3315
1222.757, 496.7728
1223.240, 496.6992
1223.722, 497.0877
1224.204, 497.6507
1224.686, 498.4618
1225.168, 498.9457
1225.650, 498.3086
1226.132, 497.5747
1226.614, 497.6088
1227.096, 498.2966
1227.579, 498.5321
1228.061, 498.3674
1228.543, 498.2361
1229.025, 498.2564
1229.507, 498.4489
1229.989, 499.0580
1230.471, 499.6277
1230.953, 499.7892
1231.436, 499.5807
1231.918, 499.3584
1232.400, 499.1190
1232.882, 498.8484
1233.364, 498.3603
1233.846, 498.1769
1234.328, 498.8274
1234.810, 499.6435
1235.292, 500.1593
1235.775, 500.4059
1236.257, 500.6783
1236.739, 500.9452
1237.221, 501.0202
1237.703, 500.5709
1238.185, 500.3313
1238.667, 500.9224
1239.149, 501.4761
1239.632, 501.1973
1240.114, 500.3142
1240.596, 500.2873
1241.078, 500.9286
1241.560, 501.4442
1242.042, 501.1805
1242.524, 501.1872
1243.006, 501.8734
1243.489, 502.6797
1243.971, 503.2116
1244.453, 503.4976
1244.935, 503.4932
1245.417, 503.3126
1245.899, 503.3791
1246.381, 504.1414
1246.863, 504.7851
1247.345, 505.2273
1247.828, 505.4717
1248.310, 505.3936
1248.792, 505.1564
1249.274, 505.1664
1249.756, 505.4066
1250.238, 505.7896
1250.720, 506.3368
1251.202, 507.0706
1251.684, 508.3155
1252.167, 508.9658
1252.649, 507.2758
1253.131, 504.7045
1253.613, 504.3188
1254.095, 505.5548
1254.577, 506.4463
1255.059, 506.4058
1255.541, 506.0104
1256.023, 505.0355
1256.506, 504.5715
1256.988, 506.4087
1257.470, 508.7765
1257.952, 508.8393
1258.434, 507.3174
1258.916, 506.5363
1259.398, 507.1205
1259.880, 507.3424
1260.363, 507.0186
1260.845, 506.8798
1261.327, 508.2614
1261.809, 509.5346
1262.291, 508.4383
1262.773, 505.9628
1263.255, 504.9146
1263.737, 505.7875
1264.219, 506.0775
1264.702, 505.5842
1265.184, 505.0424
1265.666, 504.8923
1266.148, 505.0416
1266.630, 505.5687
1267.112, 506.3084
1267.594, 506.9478
1268.076, 507.5020
1268.559, 507.7725
1269.041, 507.7485
1269.523, 507.6606
1270.005, 507.7677
1270.487, 507.7479
1270.969, 507.3649
1271.451, 506.7586
1271.933, 505.8546
1272.416, 504.7514
1272.898, 504.9989
1273.380, 506.5583
1273.862, 507.8247
1274.344, 507.5742
1274.826, 507.2196
1275.308, 507.2435
1275.790, 507.4324
1276.272, 507.5516
1276.755, 507.6057
1277.237, 507.5041
1277.719, 507.3043
1278.201, 507.4010
1278.683, 508.5429
1279.165, 509.1044
1279.647, 508.5158
1280.129, 507.8264
1280.611, 508.4527
1281.094, 509.7432
1281.576, 510.4219
1282.058, 510.4662
1282.540, 510.0814
1283.022, 508.7337
1283.504, 508.1726
1283.986, 508.7583
1284.468, 509.4890
1284.950, 509.1167
1285.433, 508.4633
1285.915, 508.6382
1286.397, 509.5104
1286.879, 510.4265
1287.361, 511.3597
1287.843, 512.2111
1288.325, 512.9968
1288.807, 513.4733
1289.290, 513.1945
1289.772, 512.7369
1290.254, 512.6188
1290.736, 512.7039
1291.218, 512.6375
1291.700, 512.4156
1292.182, 511.9127
1292.664, 511.1215
1293.146, 510.8055
1293.629, 511.8913
1294.111, 513.1757
1294.593, 514.3954
1295.075, 515.1015
1295.557, 514.1900
1296.039, 512.0078
1296.521, 511.8507
1297.003, 513.5920
1297.486, 514.6807
1297.968, 512.5505
1298.450, 511.4278
1298.932, 512.9055
1299.414, 514.8797
1299.896, 514.7743
1300.378, 513.3984
1300.860, 513.0359
1301.343, 513.5740
1301.825, 513.9880
##END=



