##NAMES=Russellite
##RRUFFID=R060860
##IDEAL CHEMISTRY=Bi_2_WO_6_
##LOCALITY=Castle-an-Dinas mine, Saint Columb Major, Cornwall, England
##OWNER=RRUFF
##SOURCE=Michael Scott
##DESCRIPTION=Brownish-yellow granular
##STATUS=The identification of this mineral has been confirmed by X-ray diffraction and chemical analysis
##URL=rruff.info/R060860
##MEASURED CHEMISTRY=lighter phase: (Bi_1.94_Fe^3+^_0.06_)_Σ=2_W_1.00_O_6_; darker phase: (Bi_1.95_Fe^3+^_0.05_)_Σ=2_W_1.00_O_6_; 
135.5044, 25595.24
135.9865, 25915.10
136.4686, 26259.35
136.9508, 26601.21
137.4329, 26921.99
137.9150, 27218.75
138.3971, 27493.98
138.8792, 27738.44
139.3613, 27956.55
139.8434, 28214.70
140.3256, 28533.49
140.8077, 28864.42
141.2898, 29159.89
141.7719, 29407.80
142.2540, 29646.85
142.7361, 29884.86
143.2183, 30125.75
143.7004, 30354.62
144.1825, 30563.70
144.6646, 30764.76
145.1467, 30970.84
145.6288, 31174.10
146.1110, 31393.61
146.5931, 31638.85
147.0752, 31940.64
147.5573, 32206.87
148.0394, 32422.64
148.5215, 32600.07
149.0037, 32779.43
149.4858, 32978.55
149.9679, 33162.29
150.4500, 33317.59
150.9321, 33417.98
151.4142, 33520.91
151.8964, 33632.82
152.3785, 33752.93
152.8606, 33868.20
153.3427, 34014.80
153.8248, 34139.89
154.3069, 34211.03
154.7890, 34170.84
155.2712, 34136.59
155.7533, 34142.54
156.2354, 34190.82
156.7175, 34213.54
157.1996, 34181.77
157.6817, 34124.83
158.1639, 34070.14
158.6460, 34016.98
159.1281, 33970.33
159.6102, 33935.88
160.0923, 33916.20
160.5744, 33881.42
161.0566, 33810.62
161.5387, 33717.42
162.0208, 33621.80
162.5029, 33519.22
162.9850, 33421.69
163.4671, 33341.83
163.9493, 33292.89
164.4314, 33225.04
164.9135, 33108.15
165.3956, 32955.30
165.8777, 32793.96
166.3598, 32625.44
166.8420, 32461.57
167.3241, 32311.54
167.8062, 32176.68
168.2883, 32060.03
168.7704, 31969.46
169.2525, 31900.96
169.7346, 31837.57
170.2168, 31752.05
170.6989, 31673.79
171.1810, 31638.99
171.6631, 31679.15
172.1452, 31741.87
172.6273, 31778.58
173.1095, 31792.94
173.5916, 31814.72
174.0737, 31872.58
174.5558, 31951.01
175.0379, 32022.89
175.5201, 32068.52
176.0022, 32109.71
176.4843, 32173.66
176.9664, 32259.64
177.4485, 32355.53
177.9306, 32456.77
178.4128, 32559.57
178.8949, 32657.44
179.3770, 32732.08
179.8591, 32803.73
180.3412, 32916.70
180.8233, 33076.93
181.3055, 33241.88
181.7876, 33363.23
182.2697, 33448.80
182.7518, 33536.14
183.2339, 33645.94
183.7160, 33770.34
184.1982, 33880.11
184.6803, 33967.71
185.1624, 34061.28
185.6445, 34214.66
186.1266, 34419.11
186.6087, 34612.37
187.0908, 34749.71
187.5730, 34843.10
188.0551, 34936.52
188.5372, 35033.38
189.0193, 35134.75
189.5014, 35248.13
189.9835, 35374.58
190.4657, 35499.72
190.9478, 35614.04
191.4299, 35719.54
191.9120, 35824.27
192.3941, 35932.17
192.8762, 36037.36
193.3584, 36120.22
193.8405, 36178.42
194.3226, 36239.61
194.8047, 36323.71
195.2868, 36430.80
195.7689, 36550.68
196.2511, 36693.86
196.7332, 36846.06
197.2153, 36943.11
197.6974, 36974.61
198.1795, 37005.85
198.6616, 37095.26
199.1438, 37247.40
199.6259, 37413.55
200.1080, 37591.08
200.5901, 37776.19
201.0722, 37938.48
201.5543, 38075.75
202.0364, 38198.33
202.5186, 38308.11
203.0007, 38399.02
203.4828, 38512.24
203.9649, 38669.19
204.4470, 38864.39
204.9291, 39009.82
205.4113, 39089.16
205.8934, 39149.87
206.3755, 39245.00
206.8576, 39377.33
207.3397, 39531.84
207.8218, 39725.00
208.3040, 39961.47
208.7861, 40098.18
209.2682, 40097.83
209.7503, 40051.46
210.2324, 40090.52
210.7145, 40245.50
211.1967, 40395.55
211.6788, 40499.11
212.1609, 40549.61
212.6430, 40614.17
213.1251, 40696.04
213.6072, 40790.18
214.0894, 40891.69
214.5715, 41006.00
215.0536, 41114.55
215.5357, 41202.91
216.0178, 41259.50
216.4999, 41349.87
216.9820, 41493.29
217.4642, 41652.50
217.9463, 41750.83
218.4284, 41749.92
218.9105, 41760.14
219.3926, 41837.30
219.8747, 42020.02
220.3569, 42139.53
220.8390, 42170.85
221.3211, 42150.54
221.8032, 42165.23
222.2853, 42235.40
222.7674, 42307.13
223.2496, 42357.20
223.7317, 42383.59
224.2138, 42397.74
224.6959, 42394.20
225.1780, 42381.80
225.6601, 42382.61
226.1423, 42395.95
226.6244, 42424.12
227.1065, 42471.14
227.5886, 42551.92
228.0707, 42614.74
228.5528, 42648.18
229.0350, 42662.19
229.5171, 42692.78
229.9992, 42742.28
230.4813, 42803.70
230.9634, 42873.31
231.4455, 42951.85
231.9276, 43039.69
232.4098, 43148.09
232.8919, 43267.77
233.3740, 43349.27
233.8561, 43377.33
234.3382, 43389.55
234.8203, 43404.30
235.3025, 43411.63
235.7846, 43443.25
236.2667, 43500.65
236.7488, 43584.81
237.2309, 43699.52
237.7130, 43860.45
238.1952, 44031.29
238.6773, 44192.73
239.1594, 44353.00
239.6415, 44485.60
240.1236, 44572.41
240.6057, 44625.52
241.0879, 44726.27
241.5700, 44901.11
242.0521, 45089.80
242.5342, 45251.05
243.0163, 45363.39
243.4984, 45490.11
243.9806, 45636.88
244.4627, 45801.63
244.9448, 45977.68
245.4269, 46181.42
245.9090, 46373.02
246.3911, 46522.00
246.8732, 46594.90
247.3554, 46690.48
247.8375, 46832.07
248.3196, 47009.92
248.8017, 47147.42
249.2838, 47232.04
249.7659, 47290.21
250.2481, 47340.29
250.7302, 47383.01
251.2123, 47420.79
251.6944, 47455.95
252.1765, 47489.52
252.6586, 47521.50
253.1408, 47557.93
253.6229, 47590.13
254.1050, 47611.52
254.5871, 47617.63
255.0692, 47627.51
255.5513, 47643.92
256.0334, 47666.87
256.5156, 47694.32
256.9977, 47724.20
257.4798, 47760.80
257.9619, 47812.93
258.4440, 47899.94
258.9261, 47948.23
259.4083, 47934.74
259.8904, 47867.18
260.3725, 47815.11
260.8546, 47763.64
261.3367, 47746.58
261.8188, 47801.21
262.3010, 47964.13
262.7831, 48090.26
263.2652, 48148.87
263.7473, 48151.65
264.2294, 48184.44
264.7115, 48260.95
265.1937, 48342.02
265.6758, 48392.45
266.1579, 48397.48
266.6400, 48426.88
267.1221, 48506.59
267.6042, 48621.05
268.0864, 48661.55
268.5685, 48591.20
269.0506, 48527.99
269.5327, 48565.13
270.0148, 48723.15
270.4969, 48899.08
270.9791, 49090.84
271.4612, 49290.78
271.9433, 49451.32
272.4254, 49564.41
272.9075, 49661.62
273.3896, 49746.11
273.8718, 49802.92
274.3539, 49949.14
274.8360, 50238.86
275.3181, 50615.64
275.8002, 50866.36
276.2823, 50968.03
276.7645, 51021.34
277.2466, 51080.73
277.7287, 51142.01
278.2108, 51253.07
278.6929, 51438.46
279.1750, 51663.93
279.6572, 51823.44
280.1393, 51906.64
280.6214, 51972.73
281.1035, 52065.20
281.5856, 52184.23
282.0677, 52283.09
282.5499, 52352.97
283.0320, 52402.22
283.5141, 52456.84
283.9962, 52519.93
284.4783, 52562.42
284.9604, 52543.17
285.4425, 52468.84
285.9247, 52452.21
286.4068, 52517.56
286.8889, 52627.61
287.3710, 52702.04
287.8531, 52740.29
288.3352, 52797.14
288.8174, 52916.13
289.2995, 53088.10
289.7816, 53256.57
290.2637, 53410.96
290.7458, 53562.13
291.2279, 53714.79
291.7101, 53870.36
292.1922, 54057.96
292.6743, 54323.76
293.1564, 54638.80
293.6385, 54889.23
294.1206, 55048.54
294.6028, 55187.59
295.0849, 55429.63
295.5670, 55755.66
296.0491, 56049.34
296.5312, 56213.77
297.0133, 56303.05
297.4955, 56446.51
297.9776, 56661.11
298.4597, 56890.40
298.9418, 57063.59
299.4239, 57193.21
299.9060, 57317.85
300.3882, 57501.20
300.8703, 57677.64
301.3524, 57720.95
301.8345, 57612.08
302.3166, 57446.72
302.7987, 57314.53
303.2809, 57194.05
303.7630, 57032.98
304.2451, 56837.82
304.7272, 56571.68
305.2093, 56167.12
305.6914, 55608.38
306.1736, 55029.85
306.6557, 54555.12
307.1378, 54122.71
307.6199, 53625.41
308.1020, 52994.92
308.5841, 52293.74
309.0663, 51543.61
309.5484, 50738.87
310.0305, 49987.23
310.5126, 49392.62
310.9947, 48871.78
311.4768, 48329.55
311.9590, 47689.06
312.4411, 47049.27
312.9232, 46474.19
313.4053, 45959.78
313.8874, 45485.28
314.3695, 45036.47
314.8517, 44614.06
315.3337, 44216.86
315.8159, 43856.67
316.2980, 43511.23
316.7801, 43166.48
317.2622, 42825.91
317.7443, 42498.66
318.2264, 42196.62
318.7086, 41908.73
319.1907, 41627.45
319.6728, 41333.00
320.1549, 41068.67
320.6370, 40859.25
321.1191, 40692.59
321.6013, 40525.07
322.0834, 40347.14
322.5655, 40165.16
323.0476, 39980.94
323.5297, 39782.10
324.0118, 39599.30
324.4940, 39439.62
324.9761, 39298.34
325.4582, 39164.63
325.9403, 39048.88
326.4224, 38930.23
326.9045, 38801.21
327.3867, 38665.69
327.8688, 38510.52
328.3509, 38309.86
328.8330, 38094.77
329.3151, 37914.15
329.7972, 37810.54
330.2794, 37695.32
330.7615, 37541.68
331.2436, 37339.40
331.7257, 37135.83
332.2078, 36917.73
332.6899, 36705.89
333.1721, 36529.93
333.6542, 36417.73
334.1363, 36296.73
334.6184, 36147.32
335.1005, 35969.64
335.5826, 35791.20
336.0648, 35604.54
336.5469, 35426.79
337.0290, 35278.42
337.5111, 35173.27
337.9932, 35049.09
338.4753, 34883.95
338.9575, 34686.19
339.4396, 34519.44
339.9217, 34392.19
340.4038, 34270.49
340.8859, 34119.56
341.3680, 33936.60
341.8502, 33767.27
342.3323, 33625.63
342.8144, 33501.35
343.2965, 33368.87
343.7786, 33226.24
344.2607, 33089.29
344.7429, 32972.77
345.2250, 32875.19
345.7071, 32767.88
346.1892, 32642.49
346.6713, 32515.53
347.1534, 32404.88
347.6355, 32311.36
348.1176, 32239.79
348.5998, 32206.21
349.0819, 32195.40
349.5640, 32167.10
350.0461, 32117.32
350.5282, 32046.07
351.0103, 31930.35
351.4925, 31787.20
351.9746, 31670.24
352.4567, 31639.07
352.9388, 31636.44
353.4209, 31574.65
353.9030, 31448.86
354.3852, 31316.69
354.8673, 31219.43
355.3494, 31150.24
355.8315, 31097.31
356.3136, 31091.30
356.7957, 31076.80
357.2779, 30998.43
357.7600, 30861.65
358.2421, 30726.02
358.7242, 30618.57
359.2063, 30531.81
359.6884, 30458.93
360.1706, 30407.94
360.6527, 30358.05
361.1348, 30293.25
361.6169, 30218.84
362.0990, 30157.59
362.5811, 30138.22
363.0633, 30119.45
363.5454, 30073.94
364.0275, 29978.84
364.5096, 29889.04
364.9917, 29820.99
365.4738, 29766.79
365.9560, 29709.96
366.4381, 29637.93
366.9202, 29572.69
367.4023, 29523.46
367.8844, 29496.97
368.3665, 29470.50
368.8487, 29451.42
369.3308, 29429.47
369.8129, 29391.88
370.2950, 29329.63
370.7771, 29263.48
371.2592, 29191.36
371.7414, 29111.95
372.2235, 29058.29
372.7056, 29040.87
373.1877, 29037.36
373.6698, 29027.29
374.1519, 29004.69
374.6341, 28989.47
375.1162, 28988.73
375.5983, 28997.20
376.0804, 28990.34
376.5625, 28968.54
377.0446, 28929.65
377.5267, 28867.91
378.0089, 28780.46
378.4910, 28697.21
378.9731, 28620.33
379.4552, 28550.94
379.9373, 28493.08
380.4194, 28446.96
380.9016, 28411.23
381.3837, 28391.90
381.8658, 28385.29
382.3479, 28367.85
382.8300, 28338.42
383.3121, 28303.35
383.7943, 28260.83
384.2764, 28216.41
384.7585, 28192.75
385.2406, 28212.87
385.7227, 28254.04
386.2048, 28273.65
386.6870, 28271.70
387.1691, 28270.36
387.6512, 28300.34
388.1333, 28339.16
388.6154, 28349.80
389.0975, 28303.72
389.5797, 28244.60
390.0618, 28212.19
390.5439, 28199.50
391.0260, 28181.46
391.5081, 28128.54
391.9902, 28074.86
392.4724, 28051.00
392.9545, 28076.75
393.4366, 28103.10
393.9187, 28107.09
394.4008, 28098.44
394.8829, 28094.27
395.3651, 28111.26
395.8472, 28124.95
396.3293, 28118.31
396.8114, 28081.57
397.2935, 28068.85
397.7756, 28112.69
398.2578, 28173.63
398.7399, 28211.99
399.2220, 28199.12
399.7041, 28190.77
400.1862, 28195.10
400.6683, 28211.31
401.1505, 28225.35
401.6326, 28225.22
402.1147, 28235.73
402.5968, 28277.46
403.0789, 28375.63
403.5610, 28444.66
404.0432, 28470.83
404.5253, 28468.83
405.0074, 28474.60
405.4895, 28485.52
405.9716, 28512.95
406.4537, 28573.37
406.9359, 28670.74
407.4180, 28728.17
407.9001, 28737.38
408.3822, 28726.35
408.8643, 28728.68
409.3464, 28744.15
409.8285, 28770.36
410.3106, 28812.16
410.7928, 28862.00
411.2749, 28901.79
411.7570, 28931.76
412.2391, 28951.32
412.7212, 28959.70
413.2033, 28957.52
413.6855, 28944.99
414.1676, 28918.38
414.6497, 28887.48
415.1318, 28855.83
415.6139, 28826.98
416.0960, 28815.13
416.5782, 28846.00
417.0603, 28887.45
417.5424, 28913.60
418.0245, 28924.34
418.5066, 28902.68
418.9887, 28815.80
419.4709, 28695.93
419.9530, 28587.40
420.4351, 28508.71
420.9172, 28443.55
421.3993, 28390.15
421.8814, 28348.63
422.3636, 28307.59
422.8457, 28273.16
423.3278, 28234.04
423.8099, 28183.11
424.2920, 28097.42
424.7741, 28026.84
425.2563, 27983.46
425.7384, 27958.54
426.2205, 27925.59
426.7026, 27882.93
427.1847, 27833.89
427.6668, 27775.55
428.1490, 27697.93
428.6311, 27648.77
429.1132, 27637.99
429.5953, 27643.28
430.0774, 27630.24
430.5595, 27592.04
431.0417, 27566.28
431.5238, 27568.22
432.0059, 27591.79
432.4880, 27606.05
432.9701, 27612.17
433.4522, 27602.06
433.9344, 27561.08
434.4165, 27494.70
434.8986, 27429.28
435.3807, 27362.18
435.8628, 27312.80
436.3449, 27334.80
436.8271, 27411.85
437.3092, 27462.76
437.7913, 27413.28
438.2734, 27321.19
438.7555, 27263.23
439.2376, 27245.76
439.7197, 27248.27
440.2018, 27275.06
440.6840, 27306.72
441.1661, 27315.53
441.6482, 27261.29
442.1303, 27207.10
442.6124, 27187.88
443.0945, 27199.14
443.5767, 27213.60
444.0588, 27221.20
444.5409, 27228.88
445.0230, 27242.15
445.5051, 27271.10
445.9872, 27289.91
446.4694, 27290.72
446.9515, 27280.33
447.4336, 27271.18
447.9157, 27278.40
448.3978, 27270.02
448.8799, 27226.26
449.3621, 27138.72
449.8442, 27107.36
450.3263, 27164.19
450.8084, 27235.32
451.2905, 27248.23
451.7726, 27181.23
452.2548, 27144.95
452.7369, 27167.25
453.2190, 27221.64
453.7011, 27229.14
454.1832, 27184.84
454.6653, 27133.35
455.1475, 27093.21
455.6296, 27065.59
456.1117, 27062.53
456.5938, 27089.85
457.0759, 27114.97
457.5580, 27090.91
458.0402, 27031.94
458.5223, 26980.56
459.0044, 26945.00
459.4865, 26930.65
459.9686, 26962.86
460.4507, 27032.36
460.9329, 27079.04
461.4150, 27031.53
461.8971, 26959.04
462.3792, 26927.40
462.8613, 26962.82
463.3434, 27010.12
463.8256, 27053.28
464.3077, 27089.84
464.7898, 27116.13
465.2719, 27127.79
465.7540, 27131.45
466.2361, 27124.01
466.7183, 27102.96
467.2004, 27096.73
467.6825, 27126.04
468.1646, 27157.40
468.6467, 27166.50
469.1288, 27128.78
469.6110, 27113.53
470.0930, 27142.93
470.5752, 27191.47
471.0573, 27175.43
471.5394, 27061.67
472.0215, 26974.77
472.5036, 26984.66
472.9857, 27092.02
473.4679, 27152.23
473.9500, 27157.29
474.4321, 27143.18
474.9142, 27157.13
475.3963, 27192.69
475.8784, 27202.51
476.3606, 27167.13
476.8427, 27109.10
477.3248, 27056.53
477.8069, 27012.17
478.2890, 26989.50
478.7711, 27024.59
479.2533, 27074.95
479.7354, 27078.95
480.2175, 27019.11
480.6996, 26971.35
481.1817, 27002.22
481.6638, 27071.49
482.1460, 27124.60
482.6281, 27113.10
483.1102, 27107.68
483.5923, 27148.19
484.0744, 27225.98
484.5565, 27272.37
485.0387, 27216.85
485.5208, 27166.29
486.0029, 27182.41
486.4850, 27337.38
486.9671, 27420.52
487.4492, 27395.82
487.9314, 27318.67
488.4135, 27274.97
488.8956, 27279.75
489.3777, 27286.36
489.8598, 27285.88
490.3419, 27278.94
490.8241, 27262.57
491.3062, 27235.29
491.7883, 27208.31
492.2704, 27189.31
492.7525, 27178.38
493.2346, 27174.76
493.7168, 27180.68
494.1989, 27186.76
494.6810, 27171.68
495.1631, 27142.82
495.6452, 27127.95
496.1273, 27145.05
496.6095, 27180.15
497.0916, 27227.64
497.5737, 27284.87
498.0558, 27320.96
498.5379, 27291.55
499.0201, 27244.43
499.5022, 27225.93
499.9843, 27261.81
500.4664, 27300.40
500.9485, 27324.27
501.4306, 27338.89
501.9127, 27353.56
502.3948, 27369.61
502.8770, 27386.64
503.3591, 27402.32
503.8412, 27415.54
504.3233, 27439.50
504.8054, 27480.71
505.2875, 27524.01
505.7697, 27558.46
506.2518, 27581.45
506.7339, 27603.80
507.2160, 27628.26
507.6981, 27649.70
508.1802, 27652.94
508.6624, 27636.44
509.1445, 27628.41
509.6266, 27651.44
510.1087, 27692.45
510.5908, 27698.69
511.0729, 27669.60
511.5551, 27644.03
512.0372, 27663.67
512.5193, 27709.68
513.0014, 27745.94
513.4835, 27762.12
513.9656, 27773.87
514.4478, 27789.16
514.9299, 27809.26
515.4120, 27836.87
515.8941, 27875.50
516.3762, 27919.14
516.8583, 27968.48
517.3405, 28023.66
517.8226, 28066.28
518.3047, 28088.48
518.7868, 28098.59
519.2689, 28101.75
519.7510, 28089.99
520.2332, 28083.15
520.7153, 28079.88
521.1974, 28082.38
521.6795, 28098.96
522.1616, 28140.26
522.6437, 28168.04
523.1259, 28168.58
523.6080, 28144.44
524.0901, 28107.41
524.5722, 28051.72
525.0543, 28015.97
525.5364, 28046.03
526.0186, 28125.82
526.5007, 28185.52
526.9828, 28212.86
527.4649, 28223.08
527.9470, 28239.00
528.4291, 28252.16
528.9113, 28242.15
529.3934, 28155.83
529.8755, 28075.37
530.3576, 28086.43
530.8397, 28177.49
531.3218, 28242.23
531.8040, 28200.34
532.2861, 28135.52
532.7682, 28110.58
533.2503, 28169.38
533.7324, 28194.04
534.2145, 28127.89
534.6967, 28033.74
535.1788, 28000.50
535.6609, 28087.03
536.1430, 28140.58
536.6251, 28118.41
537.1072, 28035.55
537.5894, 27995.35
538.0715, 28006.80
538.5536, 28032.31
539.0357, 28044.38
539.5178, 28044.83
539.9999, 28075.75
540.4821, 28143.06
540.9642, 28218.76
541.4463, 28280.11
541.9284, 28323.66
542.4105, 28336.88
542.8926, 28291.36
543.3748, 28241.86
543.8569, 28262.32
544.3390, 28333.73
544.8211, 28389.71
545.3032, 28371.50
545.7853, 28343.98
546.2675, 28355.75
546.7495, 28417.94
547.2316, 28473.58
547.7137, 28506.66
548.1959, 28526.74
548.6780, 28542.99
549.1601, 28572.69
549.6422, 28575.95
550.1243, 28538.32
550.6064, 28476.43
551.0886, 28427.85
551.5707, 28387.31
552.0528, 28375.52
552.5349, 28413.87
553.0170, 28494.58
553.4991, 28524.03
553.9813, 28494.48
554.4634, 28464.44
554.9455, 28495.85
555.4276, 28570.94
555.9097, 28624.92
556.3918, 28645.63
556.8740, 28650.76
557.3561, 28653.05
557.8382, 28654.43
558.3203, 28658.61
558.8024, 28665.75
559.2845, 28678.04
559.7667, 28697.71
560.2488, 28724.24
560.7309, 28754.74
561.2130, 28794.36
561.6951, 28832.69
562.1772, 28865.85
562.6594, 28897.30
563.1415, 28911.34
563.6236, 28892.15
564.1057, 28866.00
564.5878, 28859.91
565.0699, 28876.15
565.5521, 28906.03
566.0342, 28954.68
566.5163, 29011.28
566.9984, 29043.07
567.4805, 29048.46
567.9626, 29056.19
568.4448, 29087.85
568.9269, 29132.67
569.4090, 29159.53
569.8911, 29167.93
570.3732, 29173.19
570.8553, 29188.39
571.3375, 29208.23
571.8196, 29222.75
572.3017, 29223.24
572.7838, 29234.38
573.2659, 29287.30
573.7480, 29356.13
574.2302, 29399.82
574.7123, 29379.26
575.1944, 29360.22
575.6765, 29361.43
576.1586, 29382.07
576.6407, 29407.59
577.1229, 29450.52
577.6050, 29483.10
578.0871, 29490.20
578.5692, 29467.51
579.0513, 29443.93
579.5334, 29415.14
580.0156, 29397.20
580.4977, 29409.30
580.9798, 29450.04
581.4619, 29508.14
581.9440, 29586.04
582.4261, 29670.59
582.9083, 29752.13
583.3904, 29824.12
583.8725, 29867.61
584.3546, 29831.40
584.8367, 29791.32
585.3188, 29825.23
585.8010, 29930.29
586.2831, 30007.87
586.7652, 29979.12
587.2473, 29933.34
587.7294, 29933.87
588.2115, 30028.80
588.6937, 30088.68
589.1758, 30087.53
589.6579, 30061.62
590.1400, 30055.87
590.6221, 30079.26
591.1042, 30100.22
591.5864, 30113.81
592.0685, 30120.73
592.5506, 30118.17
593.0327, 30105.38
593.5148, 30101.70
593.9969, 30120.98
594.4791, 30157.09
594.9612, 30198.16
595.4433, 30244.11
595.9254, 30282.15
596.4075, 30294.20
596.8896, 30295.85
597.3718, 30306.24
597.8539, 30331.03
598.3360, 30360.96
598.8181, 30400.35
599.3002, 30439.96
599.7823, 30466.30
600.2645, 30453.93
600.7466, 30454.04
601.2287, 30485.88
601.7108, 30539.90
602.1929, 30568.95
602.6750, 30556.47
603.1572, 30550.86
603.6393, 30578.46
604.1214, 30638.55
604.6035, 30674.91
605.0856, 30682.38
605.5677, 30692.33
606.0499, 30744.68
606.5320, 30825.06
607.0141, 30886.56
607.4962, 30920.71
607.9783, 30935.46
608.4604, 30924.44
608.9425, 30900.86
609.4246, 30889.33
609.9067, 30904.85
610.3889, 30929.34
610.8710, 30961.95
611.3531, 30998.49
611.8352, 31020.82
612.3173, 31013.34
612.7994, 31002.88
613.2816, 30996.76
613.7637, 30993.90
614.2458, 31009.42
614.7279, 31049.95
615.2100, 31098.89
615.6921, 31145.58
616.1743, 31190.99
616.6564, 31226.68
617.1385, 31251.18
617.6206, 31268.47
618.1027, 31282.24
618.5848, 31293.02
619.0670, 31301.77
619.5491, 31293.08
620.0312, 31299.10
620.5133, 31373.58
620.9954, 31493.43
621.4775, 31582.40
621.9597, 31563.80
622.4418, 31539.45
622.9239, 31568.94
623.4060, 31661.43
623.8881, 31736.07
624.3702, 31789.73
624.8524, 31817.62
625.3345, 31810.99
625.8166, 31748.36
626.2987, 31711.93
626.7808, 31702.39
627.2629, 31719.22
627.7451, 31777.54
628.2272, 31874.81
628.7093, 31941.57
629.1914, 31956.65
629.6735, 31940.33
630.1556, 31909.59
630.6378, 31872.41
631.1199, 31855.94
631.6020, 31904.21
632.0841, 31956.54
632.5662, 31943.38
633.0483, 31872.88
633.5305, 31837.99
634.0126, 32006.84
634.4947, 32122.12
634.9768, 32186.70
635.4589, 32048.75
635.9410, 32172.32
636.4232, 32191.11
636.9053, 32205.57
637.3874, 32365.96
637.8695, 32257.47
638.3516, 32415.54
638.8337, 32467.21
639.3159, 32567.58
639.7980, 32562.49
640.2801, 32589.97
640.7622, 32521.81
641.2443, 32561.17
641.7264, 32607.52
642.2086, 32642.89
642.6907, 32670.36
643.1728, 32699.09
643.6549, 32722.40
644.1370, 32759.29
644.6191, 32833.72
645.1013, 32953.75
645.5834, 33042.21
646.0655, 33047.23
646.5476, 33049.66
647.0297, 33096.47
647.5118, 33206.87
647.9940, 33308.00
648.4761, 33398.29
648.9582, 33479.51
649.4403, 33554.62
649.9224, 33621.96
650.4045, 33684.02
650.8867, 33739.29
651.3688, 33792.66
651.8509, 33859.41
652.3330, 33932.41
652.8151, 33988.88
653.2972, 33990.08
653.7794, 33994.57
654.2615, 34055.56
654.7436, 34163.50
655.2257, 34251.91
655.7078, 34287.28
656.1899, 34312.30
656.6721, 34345.34
657.1542, 34386.88
657.6363, 34437.91
658.1184, 34501.02
658.6005, 34569.17
659.0826, 34631.71
659.5648, 34686.80
660.0469, 34772.28
660.5290, 34901.22
661.0111, 35025.82
661.4932, 35065.81
661.9753, 35049.80
662.4575, 35057.82
662.9396, 35123.48
663.4217, 35209.11
663.9038, 35276.84
664.3859, 35341.91
664.8680, 35436.05
665.3502, 35625.28
665.8323, 35792.47
666.3144, 35873.42
666.7965, 35876.62
667.2786, 35930.06
667.7607, 36057.51
668.2429, 36196.93
668.7250, 36318.84
669.2071, 36420.31
669.6892, 36544.28
670.1713, 36693.84
670.6534, 36841.89
671.1355, 36960.83
671.6176, 37059.11
672.0997, 37163.98
672.5818, 37280.57
673.0640, 37394.38
673.5461, 37482.91
674.0282, 37565.80
674.5103, 37671.61
674.9924, 37839.04
675.4745, 37993.43
675.9567, 38090.65
676.4388, 38164.24
676.9209, 38280.10
677.4030, 38479.43
677.8851, 38658.57
678.3672, 38786.05
678.8494, 38878.71
679.3315, 39000.16
679.8136, 39149.02
680.2957, 39320.73
680.7778, 39515.36
681.2599, 39726.59
681.7421, 39931.84
682.2242, 40131.81
682.7063, 40327.15
683.1884, 40505.54
683.6705, 40688.84
684.1526, 40914.61
684.6348, 41198.30
685.1169, 41439.62
685.5990, 41557.56
686.0811, 41643.66
686.5632, 41775.93
687.0453, 41984.68
687.5275, 42190.42
688.0096, 42386.76
688.4917, 42586.79
688.9738, 42831.18
689.4559, 43125.97
689.9380, 43356.18
690.4202, 43481.88
690.9023, 43558.34
691.3844, 43653.05
691.8665, 43771.15
692.3486, 43933.66
692.8307, 44192.36
693.3129, 44464.70
693.7950, 44697.04
694.2771, 44890.49
694.7592, 45053.30
695.2413, 45164.52
695.7234, 45269.42
696.2056, 45390.14
696.6877, 45528.10
697.1698, 45644.32
697.6519, 45727.65
698.1340, 45813.48
698.6161, 45938.48
699.0983, 46101.51
699.5804, 46199.38
700.0625, 46223.70
700.5446, 46238.29
701.0267, 46307.20
701.5089, 46408.70
701.9910, 46507.22
702.4731, 46600.67
702.9552, 46672.37
703.4373, 46688.92
703.9194, 46685.86
704.4016, 46706.16
704.8837, 46794.92
705.3658, 46860.54
705.8479, 46874.32
706.3300, 46866.32
706.8121, 46890.29
707.2943, 46951.32
707.7764, 47029.91
708.2585, 47134.23
708.7406, 47243.08
709.2227, 47286.92
709.7048, 47274.74
710.1870, 47271.63
710.6691, 47325.84
711.1512, 47399.21
711.6333, 47446.28
712.1154, 47471.89
712.5975, 47506.53
713.0797, 47586.18
713.5618, 47660.89
714.0439, 47697.01
714.5260, 47684.31
715.0081, 47687.51
715.4902, 47712.12
715.9724, 47744.33
716.4545, 47771.72
716.9366, 47791.62
717.4187, 47843.42
717.9008, 47936.71
718.3829, 48018.48
718.8651, 48022.38
719.3472, 47974.53
719.8293, 47938.40
720.3114, 47929.71
720.7935, 47921.16
721.2756, 47882.01
721.7578, 47835.35
722.2399, 47810.21
722.7220, 47881.67
723.2041, 47891.13
723.6862, 47782.54
724.1683, 47610.54
724.6505, 47461.14
725.1326, 47339.74
725.6147, 47225.37
726.0968, 47117.88
726.5789, 47010.99
727.0610, 46885.50
727.5432, 46743.98
728.0253, 46608.07
728.5074, 46513.07
728.9895, 46411.39
729.4716, 46224.07
729.9537, 45974.49
730.4359, 45765.25
730.9180, 45672.63
731.4001, 45601.58
731.8822, 45512.59
732.3643, 45402.93
732.8464, 45279.60
733.3285, 45130.04
733.8106, 44985.65
734.2927, 44860.40
734.7748, 44754.77
735.2570, 44671.21
735.7391, 44613.32
736.2212, 44539.37
736.7033, 44384.65
737.1854, 44196.71
737.6675, 44066.34
738.1497, 44008.74
738.6318, 43978.02
739.1139, 43986.16
739.5960, 43986.76
740.0781, 43932.27
740.5602, 43753.03
741.0424, 43637.60
741.5245, 43624.58
742.0066, 43657.89
742.4887, 43679.57
742.9708, 43688.50
743.4529, 43687.23
743.9351, 43672.21
744.4172, 43651.42
744.8993, 43624.01
745.3814, 43598.05
745.8635, 43607.00
746.3456, 43676.80
746.8278, 43756.41
747.3099, 43803.31
747.7920, 43829.10
748.2741, 43856.38
748.7562, 43908.86
749.2383, 43945.57
749.7205, 43958.20
750.2026, 43951.00
750.6847, 43927.90
751.1668, 43881.50
751.6489, 43849.82
752.1310, 43836.94
752.6132, 43854.63
753.0953, 43963.77
753.5774, 44153.94
754.0595, 44315.93
754.5416, 44353.85
755.0237, 44357.48
755.5059, 44413.95
755.9880, 44519.59
756.4701, 44636.57
756.9522, 44753.23
757.4343, 44870.89
757.9164, 44991.99
758.3986, 45115.94
758.8807, 45228.80
759.3628, 45327.17
759.8449, 45421.74
760.3270, 45517.09
760.8091, 45614.80
761.2913, 45718.23
761.7734, 45827.31
762.2555, 45960.83
762.7376, 46166.93
763.2197, 46394.61
763.7018, 46564.47
764.1840, 46651.40
764.6661, 46781.99
765.1482, 47021.50
765.6303, 47314.48
766.1124, 47621.77
766.5945, 47971.07
767.0767, 48256.70
767.5588, 48446.91
768.0409, 48619.50
768.5230, 48862.74
769.0051, 49167.78
769.4872, 49461.42
769.9694, 49728.80
770.4515, 50012.12
770.9336, 50384.34
771.4157, 50797.47
771.8978, 51173.48
772.3799, 51472.18
772.8621, 51767.77
773.3442, 52097.74
773.8263, 52441.94
774.3084, 52771.70
774.7905, 53079.40
775.2726, 53389.27
775.7548, 53701.75
776.2369, 54024.66
776.7190, 54369.26
777.2011, 54738.09
777.6832, 55109.06
778.1653, 55467.43
778.6475, 55846.45
779.1296, 56307.32
779.6117, 56818.76
780.0938, 57317.15
780.5759, 57736.01
781.0580, 58164.46
781.5402, 58647.32
782.0223, 59161.60
782.5044, 59641.82
782.9865, 60067.44
783.4686, 60488.94
783.9507, 60927.14
784.4329, 61361.71
784.9150, 61745.27
785.3971, 62083.97
785.8792, 62434.29
786.3613, 62838.15
786.8434, 63264.36
787.3256, 63711.56
787.8077, 64153.16
788.2898, 64501.24
788.7719, 64619.01
789.2540, 64729.48
789.7361, 64931.30
790.2183, 65213.31
790.7004, 65476.60
791.1825, 65741.14
791.6646, 65938.03
792.1467, 66013.38
792.6288, 65999.79
793.1110, 66044.56
793.5930, 66141.76
794.0751, 66233.61
794.5573, 66313.45
795.0394, 66347.52
795.5215, 66293.46
796.0036, 66155.51
796.4857, 65975.70
796.9678, 65757.86
797.4500, 65515.52
797.9321, 65247.80
798.4142, 64956.92
798.8963, 64679.52
799.3784, 64420.23
799.8605, 64152.95
800.3427, 63849.61
800.8248, 63523.81
801.3069, 63214.63
801.7890, 62924.07
802.2711, 62660.25
802.7532, 62458.72
803.2354, 62265.86
803.7175, 62021.96
804.1996, 61718.10
804.6817, 61432.03
805.1638, 61203.56
805.6459, 60975.76
806.1281, 60714.88
806.6102, 60413.23
807.0923, 60159.13
807.5744, 59955.53
808.0565, 59777.89
808.5386, 59629.53
809.0208, 59488.12
809.5029, 59295.43
809.9850, 59046.52
810.4671, 58795.97
810.9492, 58569.29
811.4313, 58362.27
811.9135, 58169.27
812.3956, 57984.52
812.8777, 57841.45
813.3598, 57775.08
813.8419, 57704.31
814.3240, 57580.25
814.8062, 57403.73
815.2883, 57162.17
815.7704, 56850.51
816.2525, 56540.73
816.7346, 56310.31
817.2167, 56119.32
817.6989, 55907.36
818.1810, 55666.86
818.6631, 55419.93
819.1452, 55170.13
819.6273, 54920.86
820.1094, 54677.68
820.5916, 54441.24
821.0737, 54205.61
821.5558, 53970.70
822.0379, 53741.86
822.5200, 53536.74
823.0021, 53348.16
823.4843, 53121.67
823.9664, 52853.44
824.4485, 52579.53
824.9306, 52339.64
825.4127, 52104.48
825.8948, 51834.48
826.3770, 51511.56
826.8591, 51207.23
827.3412, 50927.57
827.8233, 50682.72
828.3054, 50498.35
828.7875, 50400.26
829.2697, 50220.32
829.7518, 49947.02
830.2339, 49632.22
830.7160, 49308.15
831.1981, 48976.15
831.6802, 48618.01
832.1624, 48223.63
832.6445, 47890.31
833.1266, 47750.74
833.6087, 47650.37
834.0908, 47462.77
834.5729, 47138.88
835.0551, 46825.44
835.5372, 46505.65
836.0193, 46225.75
836.5014, 46048.92
836.9835, 45965.97
837.4656, 45789.71
837.9478, 45507.64
838.4299, 45233.70
838.9120, 45095.36
839.3941, 45005.77
839.8762, 44851.08
840.3583, 44607.18
840.8405, 44374.00
841.3226, 44183.63
841.8047, 44020.03
842.2868, 43883.31
842.7689, 43785.14
843.2510, 43623.19
843.7332, 43378.96
844.2153, 43138.86
844.6974, 42989.39
845.1795, 42896.67
845.6616, 42775.07
846.1437, 42618.44
846.6259, 42444.49
847.1080, 42225.11
847.5901, 42021.64
848.0722, 41898.02
848.5543, 41888.39
849.0364, 41797.95
849.5186, 41584.77
850.0007, 41350.90
850.4828, 41150.67
850.9649, 40983.79
851.4470, 40841.63
851.9291, 40725.84
852.4113, 40612.81
852.8934, 40484.23
853.3755, 40349.07
853.8576, 40206.72
854.3397, 40059.92
854.8218, 39946.88
855.3040, 39901.65
855.7860, 39874.38
856.2681, 39845.73
856.7502, 39815.46
857.2324, 39775.18
857.7145, 39726.18
858.1966, 39658.25
858.6787, 39530.84
859.1608, 39389.50
859.6429, 39356.62
860.1251, 39416.32
860.6072, 39449.85
861.0893, 39371.46
861.5714, 39264.73
862.0535, 39174.19
862.5356, 39101.44
863.0178, 39012.10
863.4999, 38898.50
863.9820, 38784.79
864.4641, 38675.37
864.9462, 38576.71
865.4283, 38529.62
865.9105, 38527.82
866.3926, 38521.82
866.8747, 38497.01
867.3568, 38445.68
867.8389, 38341.98
868.3210, 38204.11
868.8032, 38095.70
869.2853, 38062.04
869.7674, 38026.66
870.2495, 37971.30
870.7316, 37904.07
871.2137, 37855.63
871.6959, 37826.80
872.1780, 37779.78
872.6601, 37682.95
873.1422, 37583.06
873.6243, 37548.64
874.1064, 37559.33
874.5886, 37566.27
875.0707, 37542.66
875.5528, 37519.63
876.0349, 37520.96
876.5170, 37522.39
876.9991, 37467.59
877.4813, 37332.35
877.9634, 37253.75
878.4455, 37271.16
878.9276, 37332.72
879.4097, 37375.73
879.8918, 37395.11
880.3740, 37374.33
880.8561, 37290.70
881.3382, 37200.45
881.8203, 37123.81
882.3024, 37061.43
882.7845, 37014.49
883.2667, 36986.79
883.7488, 36964.41
884.2309, 36944.56
884.7130, 36932.98
885.1951, 36953.41
885.6772, 36990.91
886.1594, 36979.28
886.6415, 36900.55
887.1236, 36813.00
887.6057, 36745.16
888.0878, 36700.67
888.5699, 36688.14
889.0521, 36730.12
889.5342, 36749.62
890.0163, 36734.46
890.4984, 36711.52
890.9805, 36699.61
891.4626, 36698.37
891.9448, 36707.36
892.4269, 36726.53
892.9090, 36739.35
893.3911, 36731.55
893.8732, 36708.82
894.3553, 36675.19
894.8375, 36629.59
895.3196, 36578.04
895.8017, 36491.18
896.2838, 36431.93
896.7659, 36447.11
897.2480, 36528.46
897.7302, 36500.86
898.2123, 36361.55
898.6944, 36237.93
899.1765, 36244.50
899.6586, 36294.54
900.1407, 36276.69
900.6229, 36201.63
901.1050, 36126.41
901.5871, 36069.76
902.0692, 36020.73
902.5513, 35971.77
903.0334, 35926.78
903.5156, 35904.02
903.9977, 35906.23
904.4798, 35901.00
904.9619, 35871.91
905.4440, 35834.00
905.9261, 35815.17
906.4083, 35806.30
906.8904, 35786.32
907.3725, 35718.16
907.8546, 35670.19
908.3367, 35691.68
908.8188, 35736.40
909.3010, 35727.09
909.7831, 35647.27
910.2652, 35588.60
910.7473, 35565.77
911.2294, 35564.36
911.7115, 35583.01
912.1937, 35605.08
912.6758, 35586.05
913.1579, 35495.19
913.6400, 35427.26
914.1221, 35455.66
914.6042, 35508.73
915.0864, 35519.57
915.5685, 35471.73
916.0506, 35430.33
916.5327, 35394.83
917.0148, 35369.52
917.4969, 35361.57
917.9790, 35366.58
918.4611, 35381.60
918.9432, 35406.26
919.4254, 35408.39
919.9075, 35330.56
920.3896, 35256.25
920.8717, 35247.51
921.3538, 35306.11
921.8359, 35359.29
922.3181, 35411.71
922.8002, 35440.55
923.2823, 35416.01
923.7644, 35365.25
924.2465, 35376.61
924.7286, 35435.73
925.2108, 35484.41
925.6929, 35468.74
926.1750, 35456.60
926.6571, 35507.36
927.1392, 35591.18
927.6213, 35603.75
928.1035, 35513.99
928.5856, 35438.44
929.0677, 35405.84
929.5498, 35394.27
930.0319, 35360.40
930.5140, 35313.84
930.9962, 35281.83
931.4783, 35275.55
931.9604, 35280.90
932.4425, 35295.48
932.9246, 35314.54
933.4067, 35332.43
933.8889, 35348.20
934.3710, 35367.75
934.8531, 35400.26
935.3352, 35412.07
935.8173, 35343.26
936.2994, 35226.86
936.7816, 35162.99
937.2637, 35161.91
937.7458, 35179.03
938.2279, 35209.80
938.7100, 35229.46
939.1921, 35211.70
939.6743, 35153.14
940.1564, 35117.77
940.6385, 35114.10
941.1206, 35109.20
941.6027, 35082.97
942.0848, 35043.84
942.5670, 35004.29
943.0491, 34970.23
943.5312, 34965.92
944.0133, 35065.72
944.4954, 35135.89
944.9775, 35072.01
945.4597, 34926.10
945.9418, 34866.61
946.4239, 34924.41
946.9060, 34974.11
947.3881, 34993.23
947.8702, 34987.36
948.3524, 34954.45
948.8345, 34904.80
949.3166, 34861.54
949.7987, 34825.90
950.2808, 34809.75
950.7629, 34833.10
951.2451, 34870.24
951.7272, 34897.46
952.2093, 34918.71
952.6914, 34905.05
953.1735, 34844.22
953.6556, 34794.15
954.1378, 34830.21
954.6199, 34907.21
955.1020, 34936.04
955.5841, 34912.32
956.0662, 34890.35
956.5483, 34889.91
957.0305, 34904.50
957.5126, 34934.93
957.9947, 34978.99
958.4768, 35028.21
958.9589, 35088.65
959.4410, 35108.30
959.9232, 35037.59
960.4053, 34941.43
960.8874, 34932.32
961.3695, 34979.42
961.8516, 35005.98
962.3337, 34946.69
962.8159, 34907.10
963.2980, 34923.26
963.7801, 34964.72
964.2622, 34993.00
964.7443, 35007.80
965.2264, 35013.56
965.7086, 35010.85
966.1907, 35000.40
966.6728, 34974.16
967.1549, 34944.92
967.6370, 34931.32
968.1191, 34939.86
968.6013, 34947.51
969.0834, 34943.14
969.5655, 34945.06
970.0476, 34968.32
970.5297, 35010.18
971.0118, 35029.50
971.4940, 35026.41
971.9761, 35010.98
972.4582, 34983.38
972.9403, 34951.59
973.4224, 34907.75
973.9045, 34862.96
974.3867, 34859.98
974.8688, 34936.93
975.3509, 35006.81
975.8330, 35057.01
976.3151, 35088.42
976.7972, 35090.63
977.2794, 35071.45
977.7615, 35074.06
978.2436, 35118.59
978.7257, 35157.39
979.2078, 35142.61
979.6899, 35109.70
980.1720, 35097.28
980.6541, 35116.49
981.1362, 35138.74
981.6183, 35173.37
982.1005, 35186.41
982.5826, 35128.97
983.0647, 35032.87
983.5468, 34991.34
984.0289, 35003.98
984.5110, 35030.68
984.9932, 35087.16
985.4753, 35115.91
985.9574, 35058.54
986.4395, 34946.10
986.9216, 34894.68
987.4037, 34910.93
987.8859, 34956.06
988.3680, 35030.93
988.8501, 35104.27
989.3322, 35121.64
989.8143, 35103.54
990.2964, 35089.17
990.7786, 35092.71
991.2607, 35097.32
991.7428, 35098.25
992.2249, 35099.75
992.7070, 35111.12
993.1891, 35134.09
993.6713, 35116.81
994.1534, 35055.19
994.6355, 35004.02
995.1176, 35014.85
995.5997, 35054.06
996.0818, 35101.10
996.5640, 35151.61
997.0461, 35162.47
997.5282, 35087.79
998.0103, 35043.54
998.4924, 35078.84
998.9745, 35156.11
999.4567, 35155.71
999.9388, 35097.65
1000.421, 35081.35
1000.903, 35174.92
1001.385, 35260.08
1001.867, 35234.07
1002.349, 35165.32
1002.831, 35147.54
1003.314, 35208.71
1003.796, 35253.57
1004.278, 35280.88
1004.760, 35291.23
1005.242, 35283.13
1005.724, 35259.93
1006.206, 35221.80
1006.688, 35171.00
1007.171, 35130.32
1007.653, 35107.37
1008.135, 35101.04
1008.617, 35115.83
1009.099, 35145.64
1009.581, 35161.16
1010.063, 35162.01
1010.545, 35171.06
1011.027, 35201.38
1011.510, 35233.19
1011.992, 35242.27
1012.474, 35237.56
1012.956, 35232.47
1013.438, 35219.63
1013.920, 35227.28
1014.402, 35273.30
1014.884, 35311.54
1015.367, 35284.11
1015.849, 35208.57
1016.331, 35185.80
1016.813, 35218.36
1017.295, 35249.45
1017.777, 35217.76
1018.259, 35194.81
1018.741, 35250.37
1019.223, 35363.73
1019.706, 35394.39
1020.188, 35313.80
1020.670, 35271.27
1021.152, 35324.69
1021.634, 35410.79
1022.116, 35417.45
1022.598, 35381.99
1023.080, 35379.14
1023.563, 35454.94
1024.045, 35509.35
1024.527, 35492.80
1025.009, 35469.02
1025.491, 35493.63
1025.973, 35566.05
1026.455, 35587.76
1026.937, 35557.94
1027.419, 35536.64
1027.901, 35579.61
1028.384, 35639.20
1028.866, 35693.11
1029.348, 35732.70
1029.830, 35714.25
1030.312, 35597.35
1030.794, 35526.87
1031.276, 35549.70
1031.758, 35607.04
1032.241, 35578.75
1032.723, 35504.75
1033.205, 35490.30
1033.687, 35583.18
1034.169, 35656.71
1034.651, 35619.18
1035.133, 35570.96
1035.615, 35592.57
1036.098, 35688.84
1036.580, 35695.68
1037.062, 35608.59
1037.544, 35551.75
1038.026, 35653.08
1038.508, 35784.02
1038.990, 35806.13
1039.472, 35746.48
1039.954, 35694.03
1040.437, 35664.02
1040.919, 35646.11
1041.401, 35640.10
1041.883, 35646.16
1042.365, 35677.05
1042.847, 35721.01
1043.329, 35733.55
1043.811, 35705.47
1044.293, 35681.61
1044.776, 35704.31
1045.258, 35724.69
1045.740, 35703.70
1046.222, 35645.78
1046.704, 35626.41
1047.186, 35648.16
1047.668, 35673.58
1048.150, 35681.47
1048.633, 35688.63
1049.115, 35714.92
1049.597, 35755.04
1050.079, 35799.54
1050.561, 35861.61
1051.043, 35905.12
1051.525, 35929.48
1052.007, 35932.86
1052.490, 35887.86
1052.972, 35819.60
1053.454, 35838.23
1053.936, 35945.43
1054.418, 36032.69
1054.900, 36008.71
1055.382, 35972.29
1055.864, 35973.90
1056.346, 36003.80
1056.828, 36030.35
1057.311, 36053.20
1057.793, 36073.38
1058.275, 36096.28
1058.757, 36103.52
1059.239, 36055.34
1059.721, 35988.50
1060.203, 35954.68
1060.685, 35985.80
1061.168, 35991.74
1061.650, 35958.88
1062.132, 35924.71
1062.614, 35916.25
1063.096, 35926.55
1063.578, 35929.66
1064.060, 35928.61
1064.542, 35937.66
1065.025, 35988.05
1065.507, 36022.26
1065.989, 36005.43
1066.471, 35964.28
1066.953, 35931.60
1067.435, 35906.65
1067.917, 35913.15
1068.399, 35959.23
1068.881, 35998.11
1069.364, 35944.84
1069.846, 35695.96
1070.328, 35960.92
1070.810, 36118.73
1071.292, 36175.15
1071.774, 35826.51
1072.256, 36000.91
1072.738, 35965.71
1073.220, 35921.91
1073.703, 36169.98
1074.185, 35880.26
1074.667, 36123.66
1075.149, 36154.25
1075.631, 36282.23
1076.113, 36182.82
1076.595, 36247.48
1077.077, 36251.57
1077.559, 36198.10
1078.042, 36152.80
1078.524, 36117.46
1079.006, 36089.48
1079.488, 36070.67
1079.970, 36057.02
1080.452, 36039.02
1080.934, 36025.34
1081.416, 36036.14
1081.899, 36068.84
1082.381, 36145.68
1082.863, 36283.81
1083.345, 36413.15
1083.827, 36427.14
1084.309, 36388.54
1084.791, 36388.70
1085.273, 36445.74
1085.755, 36481.92
1086.238, 36473.00
1086.720, 36458.41
1087.202, 36448.43
1087.684, 36447.57
1088.166, 36485.21
1088.648, 36546.65
1089.130, 36575.95
1089.612, 36528.55
1090.094, 36487.33
1090.577, 36501.77
1091.059, 36531.80
1091.541, 36535.76
1092.023, 36509.28
1092.505, 36517.27
1092.987, 36560.86
1093.469, 36603.98
1093.951, 36605.74
1094.434, 36608.15
1094.916, 36661.27
1095.398, 36745.31
1095.880, 36783.80
1096.362, 36751.50
1096.844, 36741.39
1097.326, 36773.28
1097.808, 36810.59
1098.291, 36798.48
1098.773, 36764.36
1099.255, 36752.29
1099.737, 36768.48
1100.219, 36802.38
1100.701, 36890.82
1101.183, 36940.29
1101.665, 36901.32
1102.147, 36812.21
1102.630, 36792.68
1103.112, 36827.77
1103.594, 36862.68
1104.076, 36882.13
1104.558, 36888.23
1105.040, 36852.25
1105.522, 36825.77
1106.004, 36863.30
1106.486, 36972.73
1106.969, 37011.38
1107.451, 36979.52
1107.933, 36945.32
1108.415, 36955.69
1108.897, 36980.96
1109.379, 37006.35
1109.861, 37027.48
1110.343, 37033.82
1110.826, 37023.52
1111.308, 37009.11
1111.790, 36992.75
1112.272, 36971.81
1112.754, 36938.14
1113.236, 36900.77
1113.718, 36866.73
1114.200, 36837.52
1114.682, 36831.73
1115.165, 36847.55
1115.647, 36899.87
1116.129, 37017.07
1116.611, 37138.84
1117.093, 37118.35
1117.575, 37002.96
1118.057, 36922.30
1118.539, 36911.45
1119.021, 36920.96
1119.504, 36948.88
1119.986, 36974.31
1120.468, 36984.64
1120.950, 36982.54
1121.432, 36990.50
1121.914, 37007.28
1122.396, 37017.00
1122.878, 37002.33
1123.361, 36992.93
1123.843, 37022.54
1124.325, 37060.41
1124.807, 37054.89
1125.289, 36983.39
1125.771, 37005.57
1126.253, 37131.80
1126.735, 37260.44
1127.218, 37322.15
1127.700, 37338.09
1128.182, 37301.87
1128.664, 37233.19
1129.146, 37208.57
1129.628, 37238.78
1130.110, 37294.95
1130.592, 37383.32
1131.074, 37460.05
1131.557, 37453.46
1132.039, 37406.75
1132.521, 37381.61
1133.003, 37385.14
1133.485, 37430.76
1133.967, 37583.15
1134.449, 37675.82
1134.931, 37646.76
1135.413, 37546.57
1135.896, 37467.26
1136.378, 37413.46
1136.860, 37403.36
1137.342, 37462.63
1137.824, 37497.27
1138.306, 37439.48
1138.788, 37378.39
1139.270, 37360.23
1139.752, 37379.55
1140.235, 37408.35
1140.717, 37443.67
1141.199, 37474.47
1141.681, 37491.74
1142.163, 37505.23
1142.645, 37520.70
1143.127, 37533.36
1143.609, 37538.69
1144.092, 37537.22
1144.574, 37523.95
1145.056, 37499.46
1145.538, 37489.50
1146.020, 37537.55
1146.502, 37586.73
1146.984, 37604.34
1147.466, 37586.45
1147.948, 37518.59
1148.431, 37376.13
1148.913, 37306.19
1149.395, 37328.98
1149.877, 37407.15
1150.359, 37550.20
1150.841, 37693.07
1151.323, 37757.57
1151.805, 37740.39
1152.287, 37738.21
1152.770, 37761.10
1153.252, 37779.61
1153.734, 37780.71
1154.216, 37785.10
1154.698, 37849.12
1155.180, 37927.73
1155.662, 37937.42
1156.144, 37844.52
1156.627, 37806.51
1157.109, 37867.69
1157.591, 37929.17
1158.073, 37950.38
1158.555, 37942.02
1159.037, 37917.80
1159.519, 37885.07
1160.001, 37858.84
1160.484, 37829.91
1160.966, 37842.00
1161.448, 37949.29
1161.930, 38032.78
1162.412, 37983.00
1162.894, 37841.18
1163.376, 37818.22
1163.858, 37890.81
1164.340, 37950.66
1164.823, 37951.29
1165.305, 37925.47
1165.787, 37865.22
1166.269, 37802.70
1166.751, 37763.62
1167.233, 37750.73
1167.715, 37812.86
1168.197, 37945.32
1168.679, 38031.15
1169.162, 37921.51
1169.644, 37829.75
1170.126, 37896.85
1170.608, 38034.73
1171.090, 38092.95
1171.572, 38072.59
1172.054, 38072.20
1172.536, 38104.59
1173.019, 38140.30
1173.501, 38160.67
1173.983, 38172.17
1174.465, 38173.57
1174.947, 38169.78
1175.429, 38178.88
1175.911, 38201.42
1176.393, 38231.61
1176.875, 38271.46
1177.358, 38304.17
1177.840, 38304.06
1178.322, 38297.09
1178.804, 38315.28
1179.286, 38358.80
1179.768, 38358.14
1180.250, 38306.81
1180.732, 38283.59
1181.214, 38325.69
1181.697, 38392.36
1182.179, 38448.36
1182.661, 38498.56
1183.143, 38551.99
1183.625, 38614.04
1184.107, 38649.70
1184.589, 38656.21
1185.071, 38649.92
1185.554, 38641.00
1186.036, 38622.65
1186.518, 38575.88
1187.000, 38516.94
1187.482, 38474.75
1187.964, 38437.42
1188.446, 38471.93
1188.928, 38604.80
1189.411, 38700.73
1189.893, 38604.34
1190.375, 38446.69
1190.857, 38420.33
1191.339, 38486.41
1191.821, 38528.29
1192.303, 38506.97
1192.785, 38497.46
1193.267, 38501.41
1193.750, 38527.79
1194.232, 38627.66
1194.714, 38730.60
1195.196, 38705.34
1195.678, 38574.00
1196.160, 38486.84
1196.642, 38476.50
1197.124, 38508.75
1197.606, 38592.46
1198.089, 38680.63
1198.571, 38724.89
1199.053, 38727.56
1199.535, 38663.60
1200.017, 38539.02
1200.499, 38490.79
1200.981, 38586.01
1201.463, 38677.56
1201.945, 38733.98
1202.428, 38763.04
1202.910, 38772.35
1203.392, 38763.10
1203.874, 38721.92
1204.356, 38639.00
1204.838, 38626.73
1205.320, 38756.09
1205.802, 38848.14
1206.285, 38830.21
1206.767, 38761.28
1207.249, 38736.73
1207.731, 38750.70
1208.213, 38800.86
1208.695, 38900.75
1209.177, 38971.80
1209.659, 38998.61
1210.141, 39004.07
1210.624, 38981.34
1211.106, 38961.58
1211.588, 39042.73
1212.070, 39175.42
1212.552, 39248.89
1213.034, 39198.89
1213.516, 39168.74
1213.998, 39192.26
1214.480, 39202.43
1214.963, 39143.24
1215.445, 39052.01
1215.927, 39021.20
1216.409, 39036.46
1216.891, 39061.60
1217.373, 39092.23
1217.855, 39122.36
1218.337, 39157.25
1218.820, 39183.05
1219.302, 39191.58
1219.784, 39182.92
1220.266, 39133.07
1220.748, 39064.59
1221.230, 39047.96
1221.712, 39171.05
1222.194, 39251.52
1222.677, 39265.10
1223.159, 39252.63
1223.641, 39232.38
1224.123, 39220.92
1224.605, 39271.45
1225.087, 39367.07
1225.569, 39435.48
1226.051, 39446.43
1226.533, 39426.28
1227.016, 39356.93
1227.498, 39303.46
1227.980, 39357.22
1228.462, 39467.95
1228.944, 39556.67
1229.426, 39615.86
1229.908, 39631.56
1230.390, 39555.43
1230.872, 39514.35
1231.355, 39532.24
1231.837, 39576.75
1232.319, 39620.80
1232.801, 39657.22
1233.283, 39665.52
1233.765, 39647.97
1234.247, 39646.79
1234.729, 39674.13
1235.212, 39705.98
1235.694, 39737.76
1236.176, 39770.79
1236.658, 39807.54
1237.140, 39845.10
1237.622, 39877.91
1238.104, 39904.75
1238.586, 39941.16
1239.068, 40007.97
1239.551, 40025.46
1240.033, 39962.32
1240.515, 39877.50
1240.997, 39844.82
1241.479, 39843.64
1241.961, 39849.68
1242.443, 39861.00
1242.925, 39869.84
1243.407, 39871.68
1243.890, 39889.29
1244.372, 39932.45
1244.854, 39984.37
1245.336, 40011.18
1245.818, 40037.93
1246.300, 40104.13
1246.782, 40220.25
1247.264, 40282.85
1247.747, 40281.79
1248.229, 40278.36
1248.711, 40301.95
1249.193, 40311.57
1249.675, 40224.91
1250.157, 40121.18
1250.639, 40107.99
1251.121, 40198.20
1251.604, 40252.77
1252.086, 40272.55
1252.568, 40258.35
1253.050, 40200.97
1253.532, 40134.71
1254.014, 40061.64
1254.496, 40018.64
1254.978, 40063.28
1255.460, 40195.15
1255.943, 40269.54
1256.425, 40285.41
1256.907, 40302.16
1257.389, 40362.41
1257.871, 40396.49
1258.353, 40306.61
1258.835, 40196.75
1259.317, 40183.63
1259.799, 40266.25
1260.281, 40236.95
1260.764, 40110.13
1261.246, 40038.60
1261.728, 40131.05
1262.210, 40235.73
1262.692, 40286.93
1263.174, 40301.11
1263.656, 40286.31
1264.138, 40247.18
1264.621, 40221.06
1265.103, 40207.79
1265.585, 40201.67
1266.067, 40195.64
1266.549, 40204.44
1267.031, 40241.76
1267.513, 40286.74
1267.995, 40320.98
1268.478, 40348.45
1268.960, 40394.45
1269.442, 40456.47
1269.924, 40527.47
1270.406, 40606.91
1270.888, 40691.27
1271.370, 40796.12
1271.852, 40873.32
1272.334, 40856.92
1272.817, 40788.69
1273.299, 40795.34
1273.781, 40855.73
1274.263, 40903.85
1274.745, 40910.62
1275.227, 40913.92
1275.709, 40918.14
1276.191, 40919.91
1276.673, 40929.67
1277.156, 40929.38
1277.638, 40863.81
1278.120, 40764.58
1278.602, 40716.04
1279.084, 40764.34
1279.566, 40796.70
1280.048, 40806.15
1280.530, 40819.84
1281.013, 40869.12
1281.495, 40926.29
1281.977, 40965.24
1282.459, 40985.99
1282.941, 40985.12
1283.423, 40948.90
1283.905, 40960.84
1284.387, 41028.14
1284.870, 41080.16
1285.352, 41034.55
1285.834, 40981.24
1286.316, 40988.05
1286.798, 41034.06
1287.280, 41077.55
1287.762, 41118.28
1288.244, 41177.89
1288.726, 41254.09
1289.208, 41287.17
1289.691, 41178.64
1290.173, 41085.36
1290.655, 41106.02
1291.137, 41174.13
1291.619, 41223.84
1292.101, 41251.83
1292.583, 41248.21
1293.065, 41224.89
1293.548, 41206.43
1294.030, 41188.83
1294.512, 41194.98
##END=



