##NAMES=Rutherfordine
##RRUFFID=R100018
##IDEAL CHEMISTRY=(U^6+^O_2_)CO_3_
##LOCALITY=Shinkolobwe mine, Katanga, Congo
##OWNER=RRUFF
##SOURCE=William Pinch
##DESCRIPTION=Pale yellow radiating laths
##STATUS=The identification of this mineral has been confirmed by single-crystal X-ray diffraction.
##URL=rruff.info/R100018
91.66309, 512.2985
92.14520, 512.9398
92.62732, 516.0912
93.10944, 518.5662
93.59155, 519.8776
94.07367, 519.6939
94.55579, 518.7751
95.03790, 517.1265
95.52002, 514.4550
96.00214, 510.7170
96.48425, 506.3370
96.96637, 501.2936
97.44849, 496.3342
97.93060, 491.9316
98.41272, 487.6664
98.89484, 483.1085
99.37695, 478.9684
99.85907, 475.4386
100.3412, 472.2397
100.8233, 468.8769
101.3054, 465.7335
101.7875, 463.5317
102.2697, 462.8008
102.7518, 463.4197
103.2339, 462.6855
103.7160, 459.2022
104.1981, 456.0137
104.6802, 454.3751
105.1624, 454.2387
105.6445, 454.8339
106.1266, 455.5677
106.6087, 456.4153
107.0908, 457.1885
107.5729, 457.9280
108.0551, 458.5479
108.5372, 458.8458
109.0193, 458.6660
109.5014, 458.5134
109.9835, 458.8179
110.4656, 459.5053
110.9478, 460.4674
111.4299, 461.6450
111.9120, 463.0416
112.3941, 464.6474
112.8762, 465.8567
113.3583, 467.9470
113.8405, 471.7808
114.3226, 477.3118
114.8047, 483.7357
115.2868, 489.7337
115.7689, 494.3555
116.2510, 501.7397
116.7332, 513.7056
117.2153, 527.2031
117.6974, 540.5256
118.1795, 553.0900
118.6616, 565.0688
119.1437, 576.8100
119.6259, 589.4435
120.1080, 600.2248
120.5901, 609.2692
121.0722, 616.4403
121.5543, 620.9815
122.0364, 622.2364
122.5186, 621.1586
123.0007, 623.0673
123.4828, 629.7969
123.9649, 636.7646
124.4470, 641.7307
124.9291, 645.3297
125.4113, 650.1454
125.8934, 658.2844
126.3755, 669.2094
126.8576, 679.1981
127.3397, 686.5237
127.8218, 693.8694
128.3040, 704.2455
128.7861, 718.0986
129.2682, 732.4345
129.7503, 744.8011
130.2324, 756.2015
130.7145, 768.1639
131.1967, 780.5960
131.6788, 794.0178
132.1609, 810.1161
132.6430, 830.1588
133.1251, 851.6880
133.6072, 872.0524
134.0894, 892.5679
134.5715, 916.1493
135.0536, 945.0114
135.5357, 979.4457
136.0178, 1017.118
136.4999, 1062.345
136.9821, 1107.150
137.4642, 1153.942
137.9463, 1199.733
138.4284, 1235.606
138.9105, 1251.966
139.3926, 1247.245
139.8748, 1222.496
140.3569, 1168.645
140.8390, 1105.193
141.3211, 1041.296
141.8032, 980.6237
142.2853, 925.5247
142.7675, 880.6484
143.2496, 849.1979
143.7317, 823.6954
144.2138, 804.7424
144.6959, 791.3420
145.1780, 782.7592
145.6602, 779.1005
146.1423, 778.9875
146.6244, 779.6346
147.1065, 780.2980
147.5886, 783.0689
148.0707, 789.6225
148.5529, 799.1749
149.0350, 808.8711
149.5171, 817.2306
149.9992, 825.6606
150.4813, 836.1785
150.9634, 849.1871
151.4456, 863.3622
151.9277, 878.1786
152.4098, 893.8737
152.8919, 908.5948
153.3740, 922.1174
153.8561, 934.0246
154.3383, 943.6717
154.8204, 950.5715
155.3025, 955.7579
155.7846, 962.0690
156.2667, 973.1312
156.7488, 976.5909
157.2310, 971.2684
157.7131, 957.6084
158.1952, 935.0353
158.6773, 902.9190
159.1594, 862.7971
159.6415, 820.2686
160.1237, 769.2191
160.6058, 722.8478
161.0879, 683.3109
161.5700, 649.7667
162.0521, 621.0978
162.5342, 596.7120
163.0164, 576.4316
163.4985, 559.9840
163.9806, 548.8929
164.4627, 539.5626
164.9448, 531.4418
165.4269, 524.3304
165.9091, 518.2111
166.3912, 513.0018
166.8733, 508.7844
167.3554, 505.8088
167.8375, 503.6370
168.3196, 502.8003
168.8018, 504.4066
169.2839, 508.1768
169.7660, 511.7770
170.2481, 512.9609
170.7302, 511.8275
171.2123, 511.8940
171.6945, 514.9550
172.1766, 518.3984
172.6587, 519.1408
173.1408, 516.5931
173.6229, 513.8738
174.1050, 514.5557
174.5872, 517.4399
175.0693, 519.2765
175.5514, 518.6752
176.0335, 516.4519
176.5156, 514.0743
176.9977, 511.3419
177.4799, 509.0265
177.9620, 507.7416
178.4441, 507.2338
178.9262, 506.9562
179.4083, 506.3413
179.8904, 505.5607
180.3726, 505.8953
180.8547, 508.4156
181.3368, 510.8570
181.8189, 511.8247
182.3010, 511.7510
182.7831, 511.8861
183.2653, 513.4229
183.7474, 516.4896
184.2295, 519.0416
184.7116, 520.4431
185.1937, 521.8322
185.6758, 523.4139
186.1580, 525.2921
186.6401, 527.5798
187.1222, 530.3958
187.6043, 533.7711
188.0864, 537.5872
188.5685, 541.8421
189.0507, 546.4678
189.5328, 552.0510
190.0149, 558.2791
190.4970, 563.8320
190.9791, 567.2451
191.4612, 568.0128
191.9434, 567.6314
192.4255, 566.2392
192.9076, 563.8113
193.3897, 559.9670
193.8718, 554.7845
194.3539, 549.0665
194.8361, 543.6764
195.3182, 538.3096
195.8003, 534.5820
196.2824, 532.0726
196.7645, 531.4330
197.2466, 533.9001
197.7288, 539.7871
198.2109, 547.0229
198.6930, 553.0417
199.1751, 557.8153
199.6572, 561.8635
200.1393, 564.6979
200.6215, 567.0141
201.1036, 569.7667
201.5857, 573.1910
202.0678, 577.0482
202.5499, 581.2946
203.0320, 585.8807
203.5142, 590.2296
203.9963, 593.7000
204.4784, 596.7926
204.9605, 600.7305
205.4426, 605.9250
205.9247, 611.7087
206.4069, 617.6039
206.8890, 623.5841
207.3711, 629.1232
207.8532, 633.8566
208.3353, 637.8892
208.8174, 641.6630
209.2996, 645.3314
209.7817, 648.5649
210.2638, 651.0558
210.7459, 652.8857
211.2280, 654.5833
211.7101, 656.4670
212.1923, 658.5320
212.6744, 660.8360
213.1565, 664.4415
213.6386, 667.1796
214.1207, 667.9606
214.6028, 666.8721
215.0850, 664.6272
215.5671, 661.9614
216.0492, 658.9765
216.5313, 654.6729
217.0134, 648.9772
217.4955, 641.8525
217.9777, 632.6322
218.4598, 621.6971
218.9419, 610.1702
219.4240, 599.3055
219.9061, 589.3795
220.3882, 578.7330
220.8704, 565.1353
221.3525, 552.6777
221.8346, 543.4481
222.3167, 537.2802
222.7988, 532.5564
223.2809, 527.5334
223.7631, 521.7219
224.2452, 517.7330
224.7273, 516.3461
225.2094, 515.7431
225.6915, 515.4564
226.1736, 515.2159
226.6558, 514.5764
227.1379, 512.9274
227.6200, 509.7717
228.1021, 507.9999
228.5842, 508.6725
229.0663, 509.6100
229.5485, 509.1826
230.0306, 507.5328
230.5127, 506.3062
230.9948, 507.3006
231.4769, 511.1270
231.9590, 513.8365
232.4412, 515.4569
232.9233, 516.0809
233.4054, 515.5483
233.8875, 513.9459
234.3696, 511.8093
234.8517, 509.7023
235.3339, 507.6302
235.8160, 504.6771
236.2981, 500.0937
236.7802, 495.1974
237.2623, 490.8021
237.7444, 487.0144
238.2266, 483.7626
238.7087, 480.9532
239.1908, 478.6972
239.6729, 477.2141
240.1550, 476.5490
240.6371, 476.6530
241.1193, 477.6985
241.6014, 479.6826
242.0835, 481.9820
242.5656, 484.6048
243.0477, 487.1793
243.5298, 488.3841
244.0120, 487.4266
244.4941, 485.4581
244.9762, 483.7632
245.4583, 482.4104
245.9404, 480.0738
246.4225, 475.2813
246.9047, 468.9306
247.3868, 463.0317
247.8689, 458.1985
248.3510, 453.6206
248.8331, 448.1599
249.3152, 441.6593
249.7974, 435.7311
250.2795, 431.3967
250.7616, 428.1144
251.2437, 425.2214
251.7258, 422.4326
252.2079, 420.1981
252.6901, 419.3492
253.1722, 420.1105
253.6543, 420.5724
254.1364, 419.4385
254.6185, 417.7640
255.1006, 416.4085
255.5828, 415.4351
256.0649, 415.1885
256.5470, 416.4173
257.0291, 419.4037
257.5112, 422.1111
257.9933, 423.4780
258.4755, 424.4810
258.9576, 425.9108
259.4397, 427.9733
259.9218, 430.0653
260.4039, 431.8430
260.8860, 433.5641
261.3682, 433.4953
261.8503, 430.3734
262.3324, 425.7242
262.8145, 419.5487
263.2966, 411.9720
263.7787, 404.9893
264.2609, 401.4673
264.7430, 402.2828
265.2251, 401.6254
265.7072, 395.8434
266.1893, 390.4195
266.6714, 388.7113
267.1536, 390.7849
267.6357, 393.8331
268.1178, 395.1072
268.5999, 394.4503
269.0820, 392.9044
269.5641, 388.6094
270.0463, 384.9533
270.5284, 383.7299
271.0105, 384.7392
271.4926, 386.4845
271.9747, 387.7787
272.4568, 388.6719
272.9390, 388.7070
273.4211, 386.2587
273.9032, 384.3595
274.3853, 384.4530
274.8674, 386.0884
275.3495, 387.8414
275.8317, 388.5458
276.3138, 388.1842
276.7959, 387.8537
277.2780, 387.6944
277.7601, 387.4256
278.2422, 386.8646
278.7244, 386.1373
279.2065, 385.4681
279.6886, 384.9874
280.1707, 384.7056
280.6528, 384.7592
281.1349, 385.8496
281.6171, 386.5255
282.0992, 386.0923
282.5813, 385.1489
283.0634, 384.6514
283.5455, 385.2012
284.0276, 386.4864
284.5098, 387.0779
284.9919, 386.2862
285.4740, 385.5879
285.9561, 385.0207
286.4382, 384.6970
286.9203, 384.6674
287.4025, 384.9536
287.8846, 385.6621
288.3667, 387.1767
288.8488, 391.1693
289.3309, 393.5260
289.8130, 393.3016
290.2952, 391.7978
290.7773, 389.9092
291.2594, 388.0196
291.7415, 386.4142
292.2236, 385.6353
292.7057, 386.0591
293.1879, 386.7891
293.6700, 389.0998
294.1521, 390.8591
294.6342, 389.7482
295.1163, 385.6771
295.5984, 381.1299
296.0806, 379.5391
296.5627, 382.4450
297.0448, 383.9379
297.5269, 383.1025
298.0090, 381.8629
298.4911, 381.4342
298.9733, 381.8023
299.4554, 382.1073
299.9375, 381.4061
300.4196, 379.4156
300.9017, 378.3253
301.3839, 378.4175
301.8660, 378.9503
302.3481, 379.6613
302.8302, 380.5523
303.3123, 381.8550
303.7944, 383.8862
304.2766, 386.5809
304.7587, 387.7666
305.2408, 386.2835
305.7229, 384.6636
306.2050, 383.7256
306.6871, 383.0910
307.1693, 381.8843
307.6514, 379.5474
308.1335, 376.4815
308.6156, 374.5784
309.0977, 375.0564
309.5798, 375.3226
310.0620, 375.2980
310.5441, 374.8645
311.0262, 373.6310
311.5083, 371.4529
311.9904, 369.0385
312.4725, 367.9951
312.9547, 370.1664
313.4368, 371.2171
313.9189, 370.3827
314.4010, 368.9251
314.8831, 367.8137
315.3652, 367.3285
315.8474, 367.2910
316.3295, 367.4718
316.8116, 367.9201
317.2937, 368.4936
317.7758, 369.7990
318.2579, 370.7432
318.7401, 370.3059
319.2222, 368.6516
319.7043, 366.9129
320.1864, 366.1762
320.6685, 366.5304
321.1506, 367.2195
321.6328, 368.5804
322.1149, 369.8855
322.5970, 370.9590
323.0791, 371.7500
323.5612, 372.1916
324.0433, 372.2184
324.5255, 371.8676
325.0076, 371.5477
325.4897, 371.6811
325.9718, 371.3638
326.4539, 369.8453
326.9360, 367.9133
327.4182, 366.7408
327.9003, 366.8995
328.3824, 367.9453
328.8645, 368.6225
329.3466, 368.5194
329.8287, 368.5855
330.3109, 369.0309
330.7930, 369.5638
331.2751, 369.6763
331.7572, 369.3102
332.2393, 369.1869
332.7214, 370.6539
333.2036, 375.3936
333.6857, 377.7203
334.1678, 376.1715
334.6499, 373.8326
335.1320, 372.3304
335.6141, 371.8993
336.0963, 372.1033
336.5784, 372.5693
337.0605, 373.3387
337.5426, 374.0180
338.0247, 374.7156
338.5068, 375.2215
338.9890, 375.4954
339.4711, 375.5182
339.9532, 375.2257
340.4353, 374.5370
340.9174, 373.5380
341.3995, 372.7803
341.8817, 372.7732
342.3638, 372.3844
342.8459, 370.9648
343.3280, 369.2563
343.8101, 368.1195
344.2922, 367.9211
344.7744, 368.4038
345.2565, 369.0755
345.7386, 370.1930
346.2207, 370.9833
346.7028, 371.6107
347.1849, 371.8129
347.6671, 371.1495
348.1492, 369.6633
348.6313, 368.0768
349.1134, 367.3207
349.5955, 367.6348
350.0776, 367.7355
350.5598, 367.9322
351.0419, 367.6247
351.5240, 366.1793
352.0061, 363.9461
352.4882, 361.8438
352.9703, 360.5576
353.4525, 360.0380
353.9346, 359.8517
354.4167, 360.1176
354.8988, 360.5986
355.3809, 361.7022
355.8630, 362.8273
356.3452, 363.0151
356.8273, 361.6900
357.3094, 359.6717
357.7915, 358.7738
358.2736, 359.3216
358.7557, 360.1878
359.2379, 362.0870
359.7200, 363.5965
360.2021, 363.1427
360.6842, 360.4714
361.1663, 357.5931
361.6484, 357.0189
362.1306, 359.0043
362.6127, 360.2445
363.0948, 359.9160
363.5769, 359.1565
364.0590, 358.3856
364.5411, 357.7006
365.0233, 357.3107
365.5054, 357.3409
365.9875, 357.7774
366.4696, 358.7220
366.9517, 360.7029
367.4338, 362.1367
367.9160, 361.8687
368.3981, 360.6670
368.8802, 359.6692
369.3623, 359.3962
369.8444, 359.3151
370.3265, 358.5250
370.8087, 356.9117
371.2908, 355.5851
371.7729, 355.0252
372.2550, 354.9380
372.7371, 355.0376
373.2192, 355.3061
373.7014, 355.7195
374.1835, 356.5445
374.6656, 357.5849
375.1477, 357.8155
375.6298, 356.6320
376.1119, 355.2752
376.5941, 355.0938
377.0762, 355.8791
377.5583, 356.5074
378.0404, 356.4619
378.5225, 356.0645
379.0046, 355.7785
379.4868, 355.6409
379.9689, 355.4875
380.4510, 355.1061
380.9331, 354.6378
381.4152, 354.5041
381.8973, 354.9916
382.3795, 355.5321
382.8616, 355.7717
383.3437, 355.7518
383.8258, 355.5720
384.3079, 355.1469
384.7900, 354.7739
385.2722, 355.1883
385.7543, 356.6212
386.2364, 357.8035
386.7185, 358.4073
387.2006, 358.5587
387.6827, 358.2729
388.1649, 357.5526
388.6470, 356.8388
389.1291, 356.5819
389.6112, 356.8511
390.0933, 357.2239
390.5754, 358.4929
391.0576, 359.1764
391.5397, 357.5646
392.0218, 354.4134
392.5039, 352.4534
392.9860, 353.5958
393.4681, 356.9207
393.9503, 357.9387
394.4324, 354.5316
394.9145, 351.6452
395.3966, 349.8362
395.8787, 348.9891
396.3608, 349.1272
396.8430, 350.2177
397.3251, 351.8423
397.8072, 353.4501
398.2893, 355.3350
398.7714, 356.3305
399.2535, 356.0489
399.7357, 355.3622
400.2178, 354.4310
400.6999, 353.4912
401.1820, 353.0456
401.6641, 353.5796
402.1462, 354.9755
402.6284, 355.7035
403.1105, 354.9460
403.5926, 354.4667
404.0747, 355.0282
404.5568, 355.8534
405.0389, 355.9331
405.5211, 354.8799
406.0032, 353.2885
406.4853, 352.0938
406.9674, 351.1769
407.4495, 351.0211
407.9316, 352.4574
408.4138, 354.0333
408.8959, 355.1447
409.3780, 355.6842
409.8601, 355.6275
410.3422, 354.7889
410.8243, 353.2668
411.3065, 351.7247
411.7886, 349.5451
412.2707, 348.4555
412.7528, 350.1021
413.2349, 352.9273
413.7170, 354.7065
414.1992, 354.5516
414.6813, 353.3316
415.1634, 351.8432
415.6455, 350.0351
416.1276, 349.0304
416.6097, 349.8296
417.0919, 350.9911
417.5740, 350.7966
418.0561, 349.1904
418.5382, 347.9778
419.0203, 348.5225
419.5024, 350.0898
419.9846, 351.1091
420.4667, 351.3645
420.9488, 351.2952
421.4309, 351.1168
421.9130, 350.8783
422.3951, 350.7592
422.8773, 351.0421
423.3594, 351.2188
423.8415, 350.6274
424.3236, 349.5490
424.8057, 349.1447
425.2878, 350.0604
425.7700, 351.6295
426.2521, 352.5334
426.7342, 352.9767
427.2163, 352.4057
427.6984, 349.4095
428.1805, 346.0810
428.6627, 344.7164
429.1448, 345.5716
429.6269, 347.3028
430.1090, 348.8036
430.5911, 350.0974
431.0732, 350.7483
431.5554, 350.3885
432.0375, 349.9350
432.5196, 349.5067
433.0017, 349.2370
433.4838, 349.4608
433.9659, 350.3432
434.4481, 351.3851
434.9302, 351.4236
435.4123, 349.6009
435.8944, 348.3173
436.3765, 347.6063
436.8586, 347.3731
437.3408, 347.9886
437.8229, 349.1668
438.3050, 349.8333
438.7871, 348.7441
439.2692, 346.0850
439.7513, 345.1774
440.2335, 347.4115
440.7156, 349.4712
441.1977, 350.6358
441.6798, 351.0013
442.1619, 350.5560
442.6440, 349.2259
443.1262, 347.6171
443.6083, 346.4770
444.0904, 345.8143
444.5725, 345.5111
445.0546, 345.6180
445.5367, 346.0425
446.0189, 346.9293
446.5010, 348.1441
446.9831, 348.9750
447.4652, 348.8357
447.9473, 348.1354
448.4294, 347.6201
448.9116, 347.3263
449.3937, 347.0726
449.8758, 346.8991
450.3579, 346.6317
450.8400, 345.8338
451.3221, 343.9936
451.8043, 342.6323
452.2864, 342.9785
452.7685, 344.3374
453.2506, 345.2305
453.7327, 345.2710
454.2148, 344.8885
454.6970, 344.5073
455.1791, 344.1092
455.6612, 343.9118
456.1433, 344.0135
456.6254, 344.2284
457.1075, 344.6958
457.5897, 345.2054
458.0718, 345.0155
458.5539, 343.5825
459.0360, 341.6247
459.5181, 341.3968
460.0002, 345.8588
460.4824, 348.0864
460.9645, 345.8809
461.4466, 342.8646
461.9287, 342.3677
462.4108, 344.4782
462.8929, 346.5316
463.3751, 345.6113
463.8572, 341.6777
464.3393, 339.9324
464.8214, 342.6708
465.3035, 344.8536
465.7856, 344.2866
466.2678, 342.7230
466.7499, 342.6904
467.2320, 345.2158
467.7141, 348.4767
468.1962, 349.8758
468.6783, 349.2863
469.1605, 348.1885
469.6426, 346.3065
470.1247, 344.5142
470.6068, 343.4906
471.0889, 343.1057
471.5710, 342.7864
472.0532, 342.0651
472.5353, 341.3337
473.0174, 341.3097
473.4995, 342.0197
473.9816, 342.8831
474.4637, 344.0607
474.9459, 344.8864
475.4280, 343.8638
475.9101, 340.0826
476.3922, 337.3427
476.8743, 338.0902
477.3564, 340.3495
477.8386, 341.1781
478.3207, 340.1073
478.8028, 338.6184
479.2849, 338.0070
479.7670, 338.2864
480.2491, 338.6656
480.7313, 339.3209
481.2134, 339.8682
481.6955, 340.0860
482.1776, 340.1359
482.6597, 340.1891
483.1418, 340.3201
483.6240, 340.6849
484.1061, 341.6986
484.5882, 344.0857
485.0703, 345.0172
485.5524, 343.2932
486.0345, 341.3878
486.5167, 340.3642
486.9988, 340.0739
487.4809, 339.9888
487.9630, 339.8539
488.4451, 339.5991
488.9272, 338.8398
489.4094, 337.1263
489.8915, 336.3217
490.3736, 338.1141
490.8557, 340.1817
491.3378, 340.8476
491.8199, 340.0307
492.3021, 338.9467
492.7842, 338.3303
493.2663, 338.0360
493.7484, 337.7604
494.2305, 337.5134
494.7126, 337.0875
495.1948, 335.8837
495.6769, 334.5786
496.1590, 334.9040
496.6411, 338.1280
497.1232, 340.7009
497.6053, 340.1747
498.0875, 338.0703
498.5696, 337.2989
499.0517, 338.5334
499.5338, 339.7694
500.0159, 338.6332
500.4980, 334.7759
500.9802, 332.7503
501.4623, 333.2502
501.9444, 334.5586
502.4265, 337.1870
502.9086, 339.8835
503.3907, 340.2528
503.8729, 337.3964
504.3550, 333.5086
504.8371, 332.6897
505.3192, 336.5340
505.8013, 339.0546
506.2834, 339.8517
506.7656, 339.7290
507.2477, 337.8033
507.7298, 335.2480
508.2119, 334.7916
508.6940, 338.6069
509.1761, 344.1391
509.6583, 345.9733
510.1404, 343.5284
510.6225, 340.5815
511.1046, 337.0429
511.5867, 334.4479
512.0688, 334.8353
512.5510, 338.0495
513.0331, 340.2992
513.5152, 338.9720
513.9973, 336.0215
514.4794, 334.1408
514.9615, 333.4411
515.4437, 333.3690
515.9258, 333.8366
516.4079, 334.5609
516.8900, 334.6445
517.3721, 333.7442
517.8542, 333.0199
518.3364, 332.9642
518.8185, 333.0632
519.3006, 332.6730
519.7827, 331.7941
520.2648, 331.0411
520.7469, 331.0115
521.2291, 331.6234
521.7112, 331.6337
522.1933, 330.3284
522.6754, 329.2655
523.1575, 328.8707
523.6396, 328.6852
524.1218, 328.1252
524.6039, 327.1192
525.0860, 326.2594
525.5681, 326.2905
526.0502, 327.1913
526.5323, 327.8945
527.0145, 328.4886
527.4966, 328.7090
527.9787, 328.1031
528.4608, 327.1822
528.9429, 326.7079
529.4250, 326.9792
529.9072, 327.3211
530.3893, 327.0030
530.8714, 326.2894
531.3535, 326.1697
531.8356, 326.9546
532.3177, 327.8092
532.7999, 327.9914
533.2820, 327.4926
533.7641, 326.8362
534.2462, 325.2149
534.7283, 324.3070
535.2104, 325.9381
535.6926, 328.5544
536.1747, 329.0434
536.6568, 326.4380
537.1389, 323.1328
537.6210, 322.6392
538.1031, 325.9172
538.5853, 327.7313
539.0674, 326.8013
539.5495, 325.8581
540.0316, 326.0791
540.5137, 326.8321
540.9958, 326.9631
541.4780, 325.9651
541.9601, 324.5322
542.4422, 323.7608
542.9243, 323.7149
543.4064, 323.3733
543.8885, 322.0489
544.3707, 321.1678
544.8528, 322.0791
545.3349, 324.1449
545.8170, 325.7113
546.2991, 326.3397
546.7813, 326.1659
547.2634, 324.8970
547.7455, 322.8421
548.2276, 321.1203
548.7097, 319.9967
549.1918, 319.6664
549.6740, 320.6812
550.1561, 323.4921
550.6382, 324.9457
551.1203, 323.9879
551.6024, 322.6925
552.0845, 321.8853
552.5667, 321.5933
553.0488, 321.9278
553.5309, 322.9292
554.0130, 323.9373
554.4951, 323.5704
554.9772, 321.0449
555.4594, 319.5423
555.9415, 319.9085
556.4236, 320.5153
556.9057, 320.9579
557.3878, 321.1562
557.8699, 320.9649
558.3521, 320.1769
558.8342, 319.4012
559.3163, 319.6647
559.7984, 320.9195
560.2805, 321.8555
560.7626, 322.2462
561.2448, 322.1589
561.7269, 321.4275
562.2090, 320.1975
562.6911, 319.1036
563.1732, 317.6569
563.6553, 316.9546
564.1375, 318.4589
564.6196, 321.2271
565.1017, 322.9864
565.5838, 322.9337
566.0659, 321.8456
566.5480, 320.7476
567.0302, 319.5738
567.5123, 318.6565
567.9944, 317.8769
568.4765, 317.4372
568.9586, 317.8525
569.4407, 318.5239
569.9229, 318.4165
570.4050, 317.1388
570.8871, 315.5881
571.3692, 315.1843
571.8513, 315.9998
572.3334, 316.3057
572.8156, 315.4720
573.2977, 314.8991
573.7798, 315.6721
574.2619, 317.2173
574.7440, 318.5607
575.2261, 319.6922
575.7083, 320.1252
576.1904, 318.7679
576.6725, 316.4988
577.1546, 315.7414
577.6367, 317.1172
578.1188, 318.6779
578.6010, 318.5276
579.0831, 316.6679
579.5652, 315.2294
580.0473, 313.7635
580.5294, 313.1827
581.0115, 314.5790
581.4937, 316.5661
581.9758, 317.3676
582.4579, 316.6982
582.9400, 315.8534
583.4221, 316.2879
583.9042, 317.9289
584.3864, 319.0376
584.8685, 319.5851
585.3506, 319.6381
585.8327, 318.8876
586.3148, 317.8693
586.7969, 317.2141
587.2791, 317.0368
587.7612, 316.6649
588.2433, 315.1602
588.7254, 313.2982
589.2075, 312.9121
589.6896, 314.1418
590.1718, 315.0189
590.6539, 314.1593
591.1360, 312.2892
591.6181, 311.6831
592.1002, 313.2918
592.5823, 314.1017
593.0645, 312.9010
593.5466, 311.3872
594.0287, 310.9965
594.5108, 311.6152
594.9929, 312.2630
595.4750, 312.2843
595.9572, 311.9513
596.4393, 312.2452
596.9214, 313.7997
597.4035, 314.2206
597.8856, 311.6054
598.3677, 309.0612
598.8499, 308.3807
599.3320, 309.3024
599.8141, 310.6137
600.2962, 312.1266
600.7783, 313.3873
601.2604, 313.6650
601.7426, 313.1139
602.2247, 312.6682
602.7068, 312.6397
603.1889, 312.6803
603.6710, 312.3464
604.1531, 311.5713
604.6353, 310.9757
605.1174, 310.5942
605.5995, 310.3471
606.0816, 310.1622
606.5637, 310.1047
607.0458, 310.4052
607.5280, 311.0807
608.0101, 311.6807
608.4922, 311.6544
608.9743, 310.9872
609.4564, 309.9839
609.9385, 307.9977
610.4207, 306.7545
610.9028, 307.2726
611.3849, 308.6016
611.8670, 309.7477
612.3491, 310.5343
612.8312, 311.1547
613.3134, 311.6965
613.7955, 312.1706
614.2776, 312.7636
614.7597, 313.4592
615.2418, 313.5606
615.7239, 312.5931
616.2061, 310.8371
616.6882, 309.0146
617.1703, 306.5303
617.6524, 305.1112
618.1345, 305.7180
618.6166, 306.6464
619.0988, 306.4364
619.5809, 305.5518
620.0630, 305.5631
620.5451, 307.4126
621.0272, 310.0818
621.5093, 311.5590
621.9915, 311.7352
622.4736, 311.4363
622.9557, 310.4594
623.4378, 309.4131
623.9199, 308.5986
624.4020, 308.0283
624.8842, 307.7654
625.3663, 307.9116
625.8484, 308.2213
626.3305, 308.7002
626.8126, 309.1812
627.2947, 309.2660
627.7769, 308.8836
628.2590, 308.3760
628.7411, 308.0430
629.2232, 307.8646
629.7053, 307.6037
630.1874, 307.0875
630.6696, 306.7102
631.1517, 306.7007
631.6338, 306.7061
632.1159, 306.3698
632.5980, 305.7244
633.0801, 305.1018
633.5623, 304.6856
634.0444, 304.4973
634.5265, 304.6396
635.0086, 305.1317
635.4907, 305.6935
635.9728, 306.2508
636.4550, 306.8385
636.9371, 307.7675
637.4192, 308.9793
637.9013, 309.2348
638.3834, 307.6854
638.8655, 305.8068
639.3477, 304.1639
639.8298, 302.8644
640.3119, 302.0759
640.7940, 301.8283
641.2761, 301.9405
641.7582, 302.2657
642.2404, 302.8099
642.7225, 303.0291
643.2046, 302.4434
643.6867, 302.2863
644.1688, 303.3366
644.6509, 304.6377
645.1331, 305.1573
645.6152, 304.8051
646.0973, 304.4917
646.5794, 304.8072
647.0615, 305.4888
647.5436, 306.3702
648.0258, 307.3594
648.5079, 307.5785
648.9900, 306.5102
649.4721, 304.9272
649.9542, 304.1147
650.4363, 304.3566
650.9185, 304.3615
651.4006, 303.7852
651.8827, 303.3618
652.3648, 303.5561
652.8469, 304.0475
653.3290, 304.3753
653.8112, 304.3893
654.2933, 304.2028
654.7754, 303.8937
655.2575, 303.4773
655.7396, 303.0506
656.2217, 302.5453
656.7039, 302.2730
657.1860, 302.5341
657.6681, 303.0269
658.1502, 303.3029
658.6323, 303.3822
659.1144, 303.1132
659.5966, 301.3282
660.0787, 300.0924
660.5608, 302.2716
661.0429, 306.5092
661.5250, 308.6864
662.0071, 306.9648
662.4893, 303.5035
662.9714, 301.9793
663.4535, 302.9068
663.9356, 303.0011
664.4177, 301.3585
664.8998, 300.0692
665.3820, 300.1763
665.8641, 300.9329
666.3462, 301.2066
666.8283, 300.6922
667.3104, 300.7010
667.7925, 303.2280
668.2747, 306.3080
668.7568, 306.2948
669.2389, 303.3000
669.7210, 300.2303
670.2031, 298.4493
670.6852, 297.8582
671.1674, 298.3870
671.6495, 300.8666
672.1316, 302.2197
672.6137, 301.7069
673.0958, 300.9778
673.5779, 300.5844
674.0601, 300.4799
674.5422, 300.5563
675.0243, 300.7792
675.5064, 301.0079
675.9885, 301.1279
676.4706, 301.1368
676.9528, 300.9752
677.4349, 300.6114
677.9170, 300.3120
678.3991, 300.1860
678.8812, 300.2348
679.3633, 300.5598
679.8455, 301.3975
680.3276, 301.6940
680.8097, 300.1040
681.2918, 299.1329
681.7739, 301.4279
682.2560, 305.2377
682.7382, 307.0584
683.2203, 305.5696
683.7024, 302.4673
684.1845, 299.4032
684.6666, 296.4355
685.1487, 295.2392
685.6309, 296.3148
686.1130, 297.8795
686.5951, 299.2591
687.0772, 300.5650
687.5593, 302.0735
688.0414, 303.9095
688.5236, 305.1767
689.0057, 305.5586
689.4878, 305.3261
689.9699, 304.0895
690.4520, 302.4666
690.9341, 302.0642
691.4163, 303.4764
691.8984, 305.4001
692.3805, 305.9201
692.8626, 304.9162
693.3447, 304.4703
693.8268, 305.0777
694.3090, 305.3798
694.7911, 303.7524
695.2732, 302.2311
695.7553, 303.6080
696.2374, 308.1907
696.7195, 311.4988
697.2017, 310.3116
697.6838, 307.9113
698.1659, 307.4495
698.6480, 308.6533
699.1301, 310.6139
699.6122, 313.0025
700.0944, 314.8417
700.5765, 314.5719
701.0586, 311.9704
701.5407, 311.1126
702.0228, 312.9818
702.5049, 315.2140
702.9871, 318.3471
703.4692, 320.8097
703.9513, 320.8315
704.4334, 318.4539
704.9155, 315.6845
705.3976, 313.5854
705.8798, 311.6736
706.3619, 309.2701
706.8440, 306.5602
707.3261, 304.1729
707.8082, 302.2697
708.2903, 300.8567
708.7725, 300.0211
709.2546, 299.7511
709.7367, 299.0757
710.2188, 296.9019
710.7009, 295.8598
711.1830, 297.0600
711.6652, 298.9069
712.1473, 300.6438
712.6294, 301.9175
713.1115, 301.8776
713.5936, 299.3820
714.0757, 296.3167
714.5579, 295.0317
715.0400, 295.1504
715.5221, 295.3682
716.0042, 295.4023
716.4863, 295.4838
716.9684, 295.8529
717.4506, 296.4392
717.9327, 296.7589
718.4148, 296.9393
718.8969, 296.6368
719.3790, 295.1771
719.8611, 293.8263
720.3433, 293.3794
720.8254, 293.7422
721.3075, 294.5311
721.7896, 295.6876
722.2717, 296.8367
722.7538, 297.6493
723.2360, 298.1072
723.7181, 298.0098
724.2002, 297.3102
724.6823, 296.7357
725.1644, 296.8317
725.6465, 297.2974
726.1287, 297.2374
726.6108, 296.4643
727.0929, 295.4856
727.5750, 294.1170
728.0571, 292.7352
728.5392, 291.1402
729.0214, 289.7793
729.5035, 289.5862
729.9856, 290.8972
730.4677, 292.2534
730.9498, 291.9096
731.4319, 290.7201
731.9141, 290.9783
732.3962, 292.7225
732.8783, 294.1040
733.3604, 294.2713
733.8425, 293.6360
734.3246, 292.7064
734.8068, 291.1258
735.2889, 290.8738
735.7710, 293.6351
736.2531, 295.5896
736.7352, 294.8305
737.2173, 293.1302
737.6995, 292.5721
738.1816, 293.4006
738.6637, 294.1960
739.1458, 293.8649
739.6279, 292.9681
740.1100, 292.2835
740.5922, 291.8190
741.0743, 291.7538
741.5564, 292.2026
742.0385, 292.5277
742.5206, 291.9297
743.0027, 290.4888
743.4849, 290.0786
743.9670, 292.1682
744.4491, 293.2611
744.9312, 292.2036
745.4133, 290.7596
745.8954, 289.7517
746.3776, 289.4770
746.8597, 290.6227
747.3418, 294.2531
747.8239, 297.5315
748.3060, 296.8361
748.7881, 293.6308
749.2703, 291.8537
749.7524, 291.9608
750.2345, 291.3967
750.7166, 288.2108
751.1987, 283.8380
751.6808, 282.2443
752.1630, 284.7254
752.6451, 287.0295
753.1272, 289.8417
753.6093, 291.7390
754.0914, 291.8705
754.5735, 290.8772
755.0557, 289.3687
755.5378, 287.4108
756.0199, 286.2713
756.5020, 287.4792
756.9841, 289.4870
757.4662, 289.8427
757.9484, 289.0819
758.4305, 290.1164
758.9126, 294.0910
759.3947, 297.8310
759.8768, 296.9255
760.3589, 291.3120
760.8411, 288.4975
761.3232, 289.9308
761.8053, 291.5277
762.2874, 292.7028
762.7695, 293.3643
763.2516, 293.2321
763.7338, 292.4385
764.2159, 291.6588
764.6980, 290.9626
765.1801, 290.5307
765.6622, 290.2832
766.1443, 290.4711
766.6265, 291.3753
767.1086, 293.0915
767.5907, 295.9205
768.0728, 300.1882
768.5549, 305.1815
769.0370, 308.8082
769.5192, 310.5515
770.0013, 314.3231
770.4834, 321.7543
770.9655, 328.9595
771.4476, 334.4124
771.9297, 337.8857
772.4119, 338.4208
772.8940, 334.9396
773.3761, 332.8468
773.8582, 334.0217
774.3403, 336.6617
774.8224, 339.7112
775.3046, 343.2121
775.7867, 347.6588
776.2688, 353.1031
776.7509, 358.5032
777.2330, 362.7706
777.7151, 366.1412
778.1973, 369.4545
778.6794, 372.6632
779.1615, 376.3607
779.6436, 380.7693
780.1257, 385.6339
780.6078, 390.6721
781.0900, 395.9175
781.5721, 401.7039
782.0542, 407.9950
782.5363, 414.8249
783.0184, 424.6001
783.5005, 432.9348
783.9827, 438.1428
784.4648, 438.8054
784.9469, 431.9007
785.4290, 415.2625
785.9111, 394.7531
786.3932, 374.7042
786.8754, 356.2179
787.3575, 342.8515
787.8396, 334.7947
788.3217, 329.1159
788.8038, 324.5824
789.2859, 321.0092
789.7681, 318.1159
790.2502, 315.9577
790.7323, 314.2639
791.2144, 313.1100
791.6965, 312.3612
792.1786, 312.4201
792.6608, 312.5644
793.1429, 311.8889
793.6250, 310.4665
794.1071, 309.4970
794.5892, 310.1996
795.0714, 310.8357
795.5535, 309.3990
796.0356, 307.1236
796.5177, 306.7112
796.9998, 308.2548
797.4819, 309.0726
797.9641, 307.1572
798.4462, 303.5694
798.9283, 301.0509
799.4104, 299.7361
799.8925, 298.4792
800.3746, 297.0944
800.8568, 295.9285
801.3389, 295.1670
801.8210, 294.7527
802.3031, 294.6747
802.7852, 295.1354
803.2673, 294.9867
803.7495, 293.2040
804.2316, 291.6201
804.7137, 291.2731
805.1958, 291.7875
805.6779, 292.8118
806.1600, 294.1202
806.6422, 295.1581
807.1243, 295.7389
807.6064, 295.5070
808.0885, 293.0931
808.5706, 288.8706
809.0527, 286.0079
809.5349, 285.2750
810.0170, 285.1915
810.4991, 284.5859
810.9812, 283.6986
811.4633, 283.5534
811.9454, 284.8273
812.4276, 285.5860
812.9097, 285.2615
813.3918, 285.0307
813.8739, 285.6888
814.3560, 286.6485
814.8381, 286.9422
815.3203, 286.3506
815.8024, 285.7228
816.2845, 285.6455
816.7666, 285.6266
817.2487, 285.0996
817.7308, 284.2466
818.2130, 283.4754
818.6951, 282.9132
819.1772, 282.6014
819.6593, 282.6628
820.1414, 282.8975
820.6235, 282.4122
821.1057, 281.0404
821.5878, 280.1798
822.0699, 280.0978
822.5520, 280.5035
823.0341, 281.3267
823.5162, 282.4638
823.9984, 283.6635
824.4805, 285.3124
824.9626, 286.1202
825.4447, 285.4037
825.9268, 284.3813
826.4089, 283.3828
826.8911, 282.6585
827.3732, 282.5548
827.8553, 283.1180
828.3374, 283.9235
828.8195, 285.0013
829.3016, 285.8975
829.7838, 285.5592
830.2659, 284.4168
830.7480, 284.0927
831.2301, 284.9559
831.7122, 286.1568
832.1943, 287.1092
832.6765, 287.6381
833.1586, 286.6725
833.6407, 282.9761
834.1228, 282.1749
834.6049, 287.2207
835.0870, 291.5625
835.5692, 290.8481
836.0513, 287.5401
836.5334, 284.8833
837.0155, 282.9852
837.4976, 282.2944
837.9797, 284.0615
838.4619, 285.8535
838.9440, 286.0397
839.4261, 285.4873
839.9082, 285.3769
840.3903, 285.9385
840.8724, 286.8370
841.3546, 287.9875
841.8367, 289.0748
842.3188, 289.3169
842.8009, 288.9913
843.2830, 289.6455
843.7651, 291.5220
844.2473, 292.9056
844.7294, 292.7329
845.2115, 291.3796
845.6936, 289.5023
846.1757, 286.6365
846.6578, 285.1631
847.1400, 285.3302
847.6221, 286.5548
848.1042, 289.8692
848.5863, 293.2937
849.0684, 294.6919
849.5505, 294.1337
850.0327, 293.6144
850.5148, 293.8847
850.9969, 294.0367
851.4790, 292.9643
851.9611, 292.0041
852.4432, 292.8347
852.9254, 295.2331
853.4075, 298.0700
853.8896, 300.8736
854.3717, 302.9199
854.8538, 302.5517
855.3359, 300.6953
855.8181, 301.2341
856.3002, 304.2000
856.7823, 305.5667
857.2644, 303.5451
857.7465, 300.4560
858.2286, 299.1877
858.7108, 299.6954
859.1929, 300.1591
859.6750, 300.4385
860.1571, 300.9560
860.6392, 302.5223
861.1213, 303.6026
861.6035, 302.4090
862.0856, 300.1420
862.5677, 299.7842
863.0498, 302.3657
863.5319, 305.0545
864.0140, 306.9018
864.4962, 308.4842
864.9783, 310.1182
865.4604, 311.8391
865.9425, 313.5179
866.4246, 315.1941
866.9067, 317.3984
867.3889, 320.5237
867.8710, 324.4643
868.3531, 328.0881
868.8352, 332.1631
869.3173, 339.5777
869.7994, 350.8972
870.2816, 367.1354
870.7637, 388.2675
871.2458, 416.6464
871.7279, 458.4432
872.2100, 515.6235
872.6921, 580.6897
873.1743, 664.5553
873.6564, 735.9627
874.1385, 785.6240
874.6206, 814.5958
875.1027, 817.4061
875.5848, 795.6182
876.0670, 784.4025
876.5491, 789.3756
877.0312, 804.2748
877.5133, 828.6266
877.9954, 860.8395
878.4775, 902.1234
878.9597, 949.8231
879.4418, 998.7728
879.9239, 1046.707
880.4060, 1095.918
880.8881, 1147.322
881.3702, 1201.620
881.8524, 1256.015
882.3345, 1314.088
882.8166, 1386.097
883.2987, 1475.699
883.7808, 1585.189
884.2629, 1718.954
884.7451, 1872.254
885.2272, 2049.745
885.7093, 2269.862
886.1914, 2349.269
886.6735, 2252.683
887.1556, 2036.229
887.6378, 1684.036
888.1199, 1270.278
888.6020, 948.7898
889.0841, 730.4600
889.5662, 567.4873
890.0483, 482.6738
890.5305, 423.6166
891.0126, 384.2348
891.4947, 357.5465
891.9768, 340.3816
892.4589, 330.6655
892.9410, 322.7795
893.4232, 314.9918
893.9053, 308.2110
894.3874, 303.2896
894.8695, 299.4336
895.3516, 296.2434
895.8337, 293.2765
896.3159, 289.3068
896.7980, 284.0089
897.2801, 279.5842
897.7622, 278.9464
898.2443, 280.4306
898.7264, 279.3723
899.2086, 276.2061
899.6907, 274.4517
900.1728, 274.9198
900.6549, 275.7979
901.1370, 275.8718
901.6191, 275.1396
902.1013, 273.2729
902.5834, 269.4355
903.0655, 268.0698
903.5476, 271.2294
904.0297, 272.8204
904.5118, 268.8594
904.9940, 263.5141
905.4761, 262.2355
905.9582, 264.7328
906.4403, 265.8907
906.9224, 263.9429
907.4045, 262.5733
907.8867, 263.5380
908.3688, 264.4785
908.8509, 262.8747
909.3330, 260.1275
909.8151, 259.5168
910.2972, 262.0729
910.7794, 264.7536
911.2615, 265.8250
911.7436, 265.9390
912.2257, 265.1214
912.7078, 264.0630
913.1899, 264.5002
913.6721, 266.3961
914.1542, 267.5493
914.6363, 266.3630
915.1184, 263.9183
915.6005, 261.5739
916.0826, 259.5480
916.5648, 259.4511
917.0469, 261.4081
917.5290, 263.1790
918.0111, 263.8784
918.4932, 263.6744
918.9753, 262.5517
919.4575, 260.6380
919.9396, 260.3476
920.4217, 262.7657
920.9038, 263.7965
921.3859, 262.2063
921.8680, 260.0057
922.3502, 257.9487
922.8323, 256.3413
923.3144, 255.9054
923.7965, 256.9156
924.2786, 257.9885
924.7607, 259.5028
925.2429, 260.4348
925.7250, 259.9311
926.2071, 259.0180
926.6892, 258.7420
927.1713, 259.0427
927.6534, 259.1308
928.1356, 258.4452
928.6177, 258.2120
929.0998, 260.1385
929.5819, 262.1802
930.0640, 261.8142
930.5461, 259.8068
931.0283, 257.9913
931.5104, 256.9897
931.9925, 256.7921
932.4746, 257.7263
932.9567, 259.0069
933.4388, 259.1995
933.9210, 258.4864
934.4031, 257.3424
934.8852, 255.9034
935.3673, 254.8624
935.8494, 254.5869
936.3315, 254.9961
936.8137, 256.1823
937.2958, 258.0993
937.7779, 258.8841
938.2600, 258.3724
938.7421, 257.4374
939.2242, 256.0390
939.7064, 254.8546
940.1885, 254.5038
940.6706, 254.7776
941.1527, 254.9172
941.6348, 254.8225
942.1169, 254.8261
942.5991, 254.9906
943.0812, 255.1815
943.5633, 255.1626
944.0454, 255.2912
944.5275, 256.3211
945.0096, 258.0220
945.4918, 258.6100
945.9739, 256.7701
946.4560, 255.2085
946.9381, 255.1614
947.4202, 255.3273
947.9023, 254.4879
948.3845, 253.2238
948.8666, 252.8870
949.3487, 253.7160
949.8308, 254.2385
950.3129, 252.6978
950.7950, 251.2435
951.2772, 252.5255
951.7593, 254.9806
952.2414, 256.0605
952.7235, 255.6956
953.2056, 255.2618
953.6877, 255.4324
954.1699, 255.2734
954.6520, 252.6744
955.1341, 249.1020
955.6162, 249.6905
956.0983, 253.5834
956.5804, 254.6938
957.0626, 251.6321
957.5447, 248.2247
958.0268, 247.2035
958.5089, 248.2052
958.9910, 251.1531
959.4731, 256.3558
959.9553, 257.7011
960.4374, 254.1536
960.9195, 250.9556
961.4016, 250.0251
961.8837, 249.9506
962.3658, 249.1928
962.8480, 247.9555
963.3301, 247.8656
963.8122, 250.0508
964.2943, 250.9200
964.7764, 249.0611
965.2585, 247.5311
965.7407, 248.1726
966.2228, 249.6032
966.7049, 250.1075
967.1870, 249.6649
967.6691, 249.4771
968.1512, 250.0652
968.6334, 250.3629
969.1155, 249.7279
969.5976, 249.1211
970.0797, 249.4611
970.5618, 250.2109
971.0439, 250.2394
971.5261, 249.3072
972.0082, 248.5510
972.4903, 248.9531
972.9724, 249.1604
973.4545, 247.4641
973.9366, 245.6728
974.4188, 246.4944
974.9009, 249.2188
975.3830, 251.0053
975.8651, 250.6922
976.3472, 249.3577
976.8293, 247.0929
977.3115, 244.9780
977.7936, 244.8476
978.2757, 245.9583
978.7578, 246.3528
979.2399, 245.8621
979.7220, 245.9729
980.2042, 247.6812
980.6863, 249.9046
981.1684, 251.0850
981.6505, 251.4187
982.1326, 251.5389
982.6147, 251.4588
983.0969, 251.1224
983.5790, 250.5129
984.0611, 249.3235
984.5432, 247.0956
985.0253, 244.6318
985.5074, 244.3991
985.9896, 246.4716
986.4717, 247.6539
986.9538, 247.7397
987.4359, 247.1004
987.9180, 245.5389
988.4001, 244.4269
988.8823, 245.4785
989.3644, 248.2305
989.8465, 249.5699
990.3286, 249.0323
990.8107, 248.5466
991.2928, 248.3276
991.7750, 247.9450
992.2571, 246.9033
992.7392, 245.9112
993.2213, 246.2103
993.7034, 247.7928
994.1855, 247.9584
994.6677, 244.9848
995.1498, 243.1904
995.6319, 243.9218
996.1140, 244.6875
996.5961, 243.5156
997.0782, 242.0202
997.5604, 243.1146
998.0425, 247.0444
998.5246, 249.3054
999.0067, 247.6226
999.4888, 246.3051
999.9709, 247.4963
1000.453, 248.5689
1000.935, 246.9073
1001.417, 243.9637
1001.899, 242.7838
1002.382, 243.9776
1002.864, 244.9433
1003.346, 244.2526
1003.828, 243.4734
1004.310, 243.2277
1004.792, 243.5339
1005.274, 244.9215
1005.756, 246.7688
1006.238, 247.5112
1006.721, 246.6423
1007.203, 245.6996
1007.685, 245.8170
1008.167, 246.2518
1008.649, 246.5869
1009.131, 246.6244
1009.613, 245.8139
1010.095, 244.4163
1010.578, 243.4162
1011.060, 243.2588
1011.542, 243.3795
1012.024, 243.3215
1012.506, 243.1309
1012.988, 242.5068
1013.470, 241.8934
1013.952, 242.6874
1014.434, 244.7945
1014.917, 246.6223
1015.399, 247.3021
1015.881, 247.2411
1016.363, 246.8786
1016.845, 246.2132
1017.327, 245.0008
1017.809, 243.4459
1018.291, 242.6510
1018.773, 242.7624
1019.256, 242.5494
1019.738, 241.1747
1020.220, 239.6024
1020.702, 239.6259
1021.184, 240.9720
1021.666, 241.7095
1022.148, 241.8577
1022.630, 241.9798
1023.113, 242.2241
1023.595, 242.0223
1024.077, 240.8407
1024.559, 239.4969
1025.041, 240.0497
1025.523, 242.5293
1026.005, 242.5161
1026.487, 239.5688
1026.969, 237.9336
1027.452, 238.8270
1027.934, 240.5795
1028.416, 242.1080
1028.898, 243.2976
1029.380, 243.8433
1029.862, 243.6926
1030.344, 243.1639
1030.826, 241.8863
1031.309, 241.6536
1031.791, 243.3988
1032.273, 245.1947
1032.755, 245.5585
1033.237, 244.8692
1033.719, 244.1796
1034.201, 243.6239
1034.683, 242.2711
1035.166, 238.8359
1035.648, 237.5572
1036.130, 240.9981
1036.612, 244.6770
1037.094, 244.8999
1037.576, 242.7701
1038.058, 241.4504
1038.540, 241.1194
1039.022, 240.9789
1039.505, 241.4739
1039.987, 241.4352
1040.469, 240.0712
1040.951, 238.6101
1041.433, 237.9124
1041.915, 237.8512
1042.397, 238.1246
1042.879, 238.8518
1043.361, 239.5120
1043.844, 240.9300
1044.326, 241.1531
1044.808, 238.2027
1045.290, 235.3079
1045.772, 235.0492
1046.254, 236.6698
1046.736, 238.3074
1047.218, 240.0354
1047.700, 241.0130
1048.183, 240.2329
1048.665, 239.9205
1049.147, 241.3317
1049.629, 242.8569
1050.111, 243.2688
1050.593, 242.8178
1051.075, 242.1236
1051.557, 241.1749
1052.040, 240.4664
1052.522, 240.1977
1053.004, 240.0470
1053.486, 239.7196
1053.968, 239.6413
1054.450, 240.4743
1054.932, 241.7251
1055.414, 242.4536
1055.896, 242.5518
1056.379, 241.7256
1056.861, 238.0709
1057.343, 235.8725
1057.825, 238.2921
1058.307, 241.3758
1058.789, 241.8699
1059.271, 240.6511
1059.753, 239.8762
1060.236, 239.9460
1060.718, 239.9904
1061.200, 239.4632
1061.682, 239.2099
1062.164, 240.2894
1062.646, 241.1140
1063.128, 239.6476
1063.610, 237.2717
1064.093, 236.9432
1064.575, 239.1192
1065.057, 240.4638
1065.539, 238.7882
1066.021, 237.3177
1066.503, 237.7064
1066.985, 238.5831
1067.467, 238.9182
1067.949, 238.9195
1068.432, 239.1592
1068.914, 239.6896
1069.396, 239.8914
1069.878, 239.0643
1070.360, 238.5412
1070.842, 239.7403
1071.324, 240.6583
1071.806, 238.9265
1072.288, 236.2459
1072.771, 235.6103
1073.253, 237.1423
1073.735, 238.1969
1074.217, 237.4001
1074.699, 236.6547
1075.181, 236.8376
1075.663, 237.4187
1076.145, 238.3195
1076.627, 239.1747
1077.110, 239.2369
1077.592, 238.7108
1078.074, 239.1325
1078.556, 241.8950
1079.038, 243.3571
1079.520, 239.9295
1080.002, 236.6409
1080.484, 237.7293
1080.967, 240.5641
1081.449, 241.8086
1081.931, 241.3972
1082.413, 240.9028
1082.895, 240.8247
1083.377, 240.6810
1083.859, 240.1057
1084.341, 239.5633
1084.823, 239.4426
1085.306, 239.4330
1085.788, 239.1083
1086.270, 238.5842
1086.752, 238.3455
1087.234, 238.5755
1087.716, 238.6100
1088.198, 237.6674
1088.680, 237.0647
1089.163, 237.7609
1089.645, 238.9126
1090.127, 239.8438
1090.609, 240.5277
1091.091, 241.2460
1091.573, 242.0703
1092.055, 242.0514
1092.537, 239.5440
1093.020, 237.8078
1093.502, 239.1773
1093.984, 241.0071
1094.466, 241.2928
1094.948, 240.4970
1095.430, 239.3907
1095.912, 238.1933
1096.394, 237.7547
1096.876, 238.5785
1097.359, 239.8520
1097.841, 242.3205
1098.323, 244.0672
1098.805, 242.7366
1099.287, 240.6116
1099.769, 241.1210
1100.251, 244.1008
1100.733, 246.1200
1101.215, 245.4297
1101.698, 245.7763
1102.180, 248.0766
1102.662, 251.7162
1103.144, 256.6375
1103.626, 262.5583
1104.108, 269.0939
1104.590, 276.3906
1105.072, 285.3117
1105.554, 296.6138
1106.037, 307.3087
1106.519, 317.7776
1107.001, 326.4079
1107.483, 332.3705
1107.965, 336.5459
1108.447, 338.3896
1108.929, 339.3139
1109.411, 342.2954
1109.894, 347.7681
1110.376, 353.9972
1110.858, 360.5351
1111.340, 368.2912
1111.822, 378.7575
1112.304, 389.1122
1112.786, 397.6034
1113.268, 405.0787
1113.750, 412.7289
1114.233, 420.5638
1114.715, 428.5809
1115.197, 436.9441
1115.679, 445.2368
1116.161, 457.0566
1116.643, 463.9843
1117.125, 464.3503
1117.607, 456.6538
1118.090, 437.3340
1118.572, 408.1939
1119.054, 378.6913
1119.536, 346.6158
1120.018, 319.6787
1120.500, 298.3784
1120.982, 281.2675
1121.464, 268.3298
1121.947, 259.0592
1122.429, 253.9098
1122.911, 251.5537
1123.393, 248.5644
1123.875, 244.6905
1124.357, 242.2169
1124.839, 241.4338
1125.321, 241.2078
1125.803, 241.6424
1126.286, 241.6965
1126.768, 240.6509
1127.250, 239.0985
1127.732, 237.8485
1128.214, 236.9428
1128.696, 237.0107
1129.178, 238.2275
1129.660, 239.1350
1130.142, 239.6823
1130.625, 238.9689
1131.107, 236.3130
1131.589, 234.1093
1132.071, 235.0582
1132.553, 237.9443
1133.035, 239.0550
1133.517, 238.4566
1133.999, 237.7252
1134.481, 236.9279
1134.964, 236.1889
1135.446, 235.5440
1135.928, 235.2735
1136.410, 235.6040
1136.892, 236.2084
1137.374, 236.5835
1137.856, 236.7629
1138.338, 236.9303
1138.821, 237.0362
1139.303, 236.5474
1139.785, 235.5804
1140.267, 235.6013
1140.749, 237.2613
1141.231, 239.2764
1141.713, 240.5830
1142.195, 241.0352
1142.677, 239.9917
1143.160, 238.0494
1143.642, 236.2658
1144.124, 234.8692
1144.606, 234.1284
1145.088, 234.0961
1145.570, 234.7507
1146.052, 236.3830
1146.534, 237.5070
1147.017, 235.4397
1147.499, 232.9504
1147.981, 233.9637
1148.463, 236.8672
1148.945, 238.9112
1149.427, 239.7393
1149.909, 240.1175
1150.391, 240.3572
1150.874, 239.6774
1151.356, 236.0533
1151.838, 233.1425
1152.320, 234.3500
1152.802, 236.8354
1153.284, 238.1758
1153.766, 238.3891
1154.248, 237.8466
1154.730, 236.7252
1155.213, 235.8625
1155.695, 235.5425
1156.177, 235.5085
1156.659, 236.2080
1157.141, 236.5506
1157.623, 235.0235
1158.105, 233.5033
1158.587, 234.7597
1159.069, 237.8899
1159.552, 238.9214
1160.034, 236.4025
1160.516, 235.3538
1160.998, 237.4487
1161.480, 239.2912
1161.962, 240.6794
1162.444, 240.9812
1162.926, 238.8711
1163.408, 236.0974
1163.891, 235.4985
1164.373, 237.0456
1164.855, 238.8700
1165.337, 241.5845
1165.819, 242.7731
1166.301, 241.8120
1166.783, 240.4815
1167.265, 239.1489
1167.748, 238.5405
1168.230, 239.6445
1168.712, 241.5382
1169.194, 241.3443
1169.676, 238.9478
1170.158, 237.8339
1170.640, 238.0643
1171.122, 238.1215
1171.604, 237.6798
1172.087, 237.9324
1172.569, 239.6144
1173.051, 241.4188
1173.533, 241.6706
1174.015, 240.7574
1174.497, 239.3843
1174.979, 237.8352
1175.461, 237.3274
1175.944, 237.7943
1176.426, 238.4592
1176.908, 239.0711
1177.390, 239.7650
1177.872, 240.7298
1178.354, 241.2981
1178.836, 240.3660
1179.318, 238.8111
1179.801, 237.5709
1180.283, 236.8244
1180.765, 236.8493
1181.247, 237.5925
1181.729, 239.1734
1182.211, 241.5500
1182.693, 242.8015
1183.175, 240.8534
1183.657, 238.6240
1184.140, 237.6892
1184.622, 237.4659
1185.104, 237.0724
1185.586, 237.3019
1186.068, 240.3889
1186.550, 245.4914
1187.032, 247.5608
1187.514, 244.2026
1187.996, 241.7499
1188.479, 242.2219
1188.961, 242.7554
1189.443, 242.0830
1189.925, 241.4825
1190.407, 242.2493
1190.889, 243.5273
1191.371, 243.7245
1191.853, 242.8285
1192.335, 242.8515
1192.818, 244.4804
1193.300, 245.1236
1193.782, 244.3126
1194.264, 243.3449
1194.746, 242.6937
1195.228, 241.9240
1195.710, 240.5203
1196.192, 238.9973
1196.675, 238.8182
1197.157, 239.8801
1197.639, 239.4458
1198.121, 237.6049
1198.603, 237.4156
1199.085, 239.2725
1199.567, 240.9123
1200.049, 241.3109
1200.531, 241.6649
1201.014, 243.3693
1201.496, 245.3186
1201.978, 244.9772
1202.460, 243.6810
1202.942, 245.2384
1203.424, 248.1391
1203.906, 247.3282
1204.388, 242.9264
1204.871, 239.8385
1205.353, 240.3259
1205.835, 241.9959
1206.317, 243.7469
1206.799, 245.1862
1207.281, 246.2020
1207.763, 246.5802
1208.245, 245.7994
1208.728, 244.3799
1209.210, 243.0534
1209.692, 241.9773
1210.174, 241.2944
1210.656, 241.2000
1211.138, 241.1316
1211.620, 240.4513
1212.102, 240.4765
1212.584, 242.3888
1213.067, 244.4527
1213.549, 245.6082
1214.031, 245.9503
1214.513, 245.5233
1214.995, 244.3303
1215.477, 243.1914
1215.959, 241.7608
1216.441, 241.8648
1216.923, 244.0638
1217.406, 246.0144
1217.888, 246.9727
1218.370, 247.0948
1218.852, 246.3827
1219.334, 245.3980
1219.816, 245.4983
1220.298, 246.3005
1220.780, 245.3152
1221.262, 243.1002
1221.745, 242.5813
1222.227, 243.9057
1222.709, 245.7667
1223.191, 247.5845
1223.673, 248.6470
1224.155, 248.2104
1224.637, 247.4165
1225.119, 247.7430
1225.602, 248.2161
1226.084, 247.2709
1226.566, 245.9181
1227.048, 245.9603
1227.530, 247.0696
1228.012, 247.6600
1228.494, 247.3008
1228.976, 247.1876
1229.458, 247.8503
1229.941, 248.7147
1230.423, 250.0850
1230.905, 251.0502
1231.387, 250.2141
1231.869, 249.4290
1232.351, 251.6074
1232.833, 255.3682
1233.315, 256.1490
1233.798, 253.2400
1234.280, 251.6739
1234.762, 251.8889
1235.244, 252.0021
1235.726, 251.7261
1236.208, 251.4340
1236.690, 251.3361
1237.172, 250.9715
1237.655, 249.6546
1238.137, 248.2850
1238.619, 249.8081
1239.101, 253.2366
1239.583, 253.1413
1240.065, 250.4842
1240.547, 250.2825
1241.029, 252.8077
1241.511, 254.8533
1241.994, 255.0988
1242.476, 254.2024
1242.958, 252.1467
1243.440, 250.2224
1243.922, 249.7771
1244.404, 249.9605
1244.886, 249.9075
1245.368, 249.8939
1245.850, 250.5616
1246.333, 251.6839
1246.815, 252.3992
1247.297, 252.4991
1247.779, 252.4614
1248.261, 252.2223
1248.743, 252.1080
1249.225, 252.5316
1249.707, 252.6217
1250.189, 251.7496
1250.672, 250.6848
1251.154, 249.8981
1251.636, 249.7061
1252.118, 251.3694
1252.600, 255.0720
1253.082, 256.1817
1253.564, 254.5049
1254.046, 253.4013
1254.529, 253.3389
1255.011, 254.0200
1255.493, 255.3064
1255.975, 255.3840
1256.457, 252.3129
1256.939, 248.7849
1257.421, 248.8686
1257.903, 251.3889
1258.385, 255.9915
1258.868, 260.5648
1259.350, 260.6805
1259.832, 257.3664
1260.314, 254.6565
1260.796, 253.6709
1261.278, 253.3282
1261.760, 253.4439
1262.242, 253.5137
1262.725, 253.0360
1263.207, 252.8365
1263.689, 253.5495
1264.171, 254.5285
1264.653, 255.5678
1265.135, 256.2592
1265.617, 255.5907
1266.099, 253.5848
1266.582, 252.8819
1267.064, 253.9255
1267.546, 254.4391
1268.028, 254.2223
1268.510, 253.7755
1268.992, 253.1818
1269.474, 253.1009
1269.956, 254.0118
1270.438, 255.3725
1270.921, 256.7374
1271.403, 257.6434
1271.885, 256.3421
1272.367, 254.0330
1272.849, 253.4737
1273.331, 254.3848
1273.813, 255.7703
1274.295, 257.1320
1274.777, 257.5148
1275.260, 256.4045
1275.742, 255.3574
1276.224, 254.9773
1276.706, 255.1818
1277.188, 256.9188
1277.670, 258.1423
1278.152, 256.8629
1278.634, 254.6501
1279.116, 253.3311
1279.599, 252.9070
1280.081, 253.4079
1280.563, 255.1701
1281.045, 255.7293
1281.527, 254.7811
1282.009, 253.8522
1282.491, 253.0333
1282.973, 253.5602
1283.456, 256.0598
1283.938, 258.5369
1284.420, 259.2877
1284.902, 258.7771
1285.384, 257.5947
##END=



