##NAMES=Rutile
##RRUFFID=R120008
##IDEAL CHEMISTRY=Ti^4+^O_2_
##LOCALITY=Golconda, Minas Gerais, Brazil
##OWNER=RRUFF
##SOURCE=Rob Lavinsky
##DESCRIPTION=Black fragments, variety struverite
##STATUS=The identification of this mineral has been confirmed by single-crystal X-ray diffraction.
##URL=rruff.info/R120008
9.049219e+001, 2.006977e+002
9.097430e+001, 2.014904e+002
9.145642e+001, 2.014661e+002
9.193854e+001, 2.006527e+002
9.242065e+001, 1.992858e+002
9.290277e+001, 1.973114e+002
9.338489e+001, 1.949131e+002
9.386700e+001, 1.925412e+002
9.434912e+001, 1.906305e+002
9.483124e+001, 1.887827e+002
9.531335e+001, 1.858066e+002
9.579547e+001, 1.815060e+002
9.627759e+001, 1.774230e+002
9.675970e+001, 1.756578e+002
9.724182e+001, 1.760582e+002
9.772394e+001, 1.763710e+002
9.820605e+001, 1.755639e+002
9.868817e+001, 1.737172e+002
9.917029e+001, 1.718946e+002
9.965240e+001, 1.701049e+002
1.001345e+002, 1.683229e+002
1.006166e+002, 1.664902e+002
1.010988e+002, 1.645501e+002
1.015809e+002, 1.627314e+002
1.020630e+002, 1.612829e+002
1.025451e+002, 1.603542e+002
1.030272e+002, 1.589023e+002
1.035093e+002, 1.565215e+002
1.039915e+002, 1.536013e+002
1.044736e+002, 1.518305e+002
1.049557e+002, 1.519109e+002
1.054378e+002, 1.521460e+002
1.059199e+002, 1.512869e+002
1.064020e+002, 1.484415e+002
1.068842e+002, 1.461548e+002
1.073663e+002, 1.449283e+002
1.078484e+002, 1.447909e+002
1.083305e+002, 1.442307e+002
1.088126e+002, 1.430738e+002
1.092947e+002, 1.415944e+002
1.097769e+002, 1.400417e+002
1.102590e+002, 1.382960e+002
1.107411e+002, 1.365986e+002
1.112232e+002, 1.350666e+002
1.117053e+002, 1.338036e+002
1.121874e+002, 1.322776e+002
1.126696e+002, 1.300717e+002
1.131517e+002, 1.276873e+002
1.136338e+002, 1.257740e+002
1.141159e+002, 1.248385e+002
1.145980e+002, 1.240589e+002
1.150801e+002, 1.231078e+002
1.155623e+002, 1.218218e+002
1.160444e+002, 1.206859e+002
1.165265e+002, 1.200769e+002
1.170086e+002, 1.197066e+002
1.174907e+002, 1.190040e+002
1.179728e+002, 1.173801e+002
1.184550e+002, 1.155897e+002
1.189371e+002, 1.141170e+002
1.194192e+002, 1.131932e+002
1.199013e+002, 1.124042e+002
1.203834e+002, 1.116103e+002
1.208655e+002, 1.108037e+002
1.213477e+002, 1.099504e+002
1.218298e+002, 1.089643e+002
1.223119e+002, 1.079536e+002
1.227940e+002, 1.070380e+002
1.232761e+002, 1.062866e+002
1.237582e+002, 1.056143e+002
1.242404e+002, 1.050622e+002
1.247225e+002, 1.046060e+002
1.252046e+002, 1.039408e+002
1.256867e+002, 1.026237e+002
1.261688e+002, 1.009498e+002
1.266509e+002, 9.946459e+001
1.271331e+002, 9.849641e+001
1.276152e+002, 9.779871e+001
1.280973e+002, 9.708039e+001
1.285794e+002, 9.635253e+001
1.290615e+002, 9.546908e+001
1.295436e+002, 9.398891e+001
1.300258e+002, 9.210040e+001
1.305079e+002, 9.066035e+001
1.309900e+002, 9.020927e+001
1.314721e+002, 9.051685e+001
1.319542e+002, 9.104797e+001
1.324363e+002, 9.193740e+001
1.329185e+002, 9.256651e+001
1.334006e+002, 9.170396e+001
1.338827e+002, 8.934240e+001
1.343648e+002, 8.707790e+001
1.348469e+002, 8.579900e+001
1.353290e+002, 8.544250e+001
1.358112e+002, 8.508072e+001
1.362933e+002, 8.462491e+001
1.367754e+002, 8.416518e+001
1.372575e+002, 8.411626e+001
1.377396e+002, 8.466501e+001
1.382217e+002, 8.475795e+001
1.387039e+002, 8.333581e+001
1.391860e+002, 8.003350e+001
1.396681e+002, 7.785325e+001
1.401502e+002, 7.743044e+001
1.406323e+002, 7.831796e+001
1.411144e+002, 7.852457e+001
1.415966e+002, 7.783548e+001
1.420787e+002, 7.687012e+001
1.425608e+002, 7.608879e+001
1.430429e+002, 7.555962e+001
1.435250e+002, 7.503120e+001
1.440071e+002, 7.446964e+001
1.444893e+002, 7.388037e+001
1.449714e+002, 7.325504e+001
1.454535e+002, 7.251149e+001
1.459356e+002, 7.181576e+001
1.464177e+002, 7.134582e+001
1.468998e+002, 7.118710e+001
1.473820e+002, 7.111464e+001
1.478641e+002, 7.119088e+001
1.483462e+002, 7.149906e+001
1.488283e+002, 7.134562e+001
1.493104e+002, 7.027747e+001
1.497925e+002, 6.895989e+001
1.502747e+002, 6.815556e+001
1.507568e+002, 6.856450e+001
1.512389e+002, 6.878391e+001
1.517210e+002, 6.842110e+001
1.522031e+002, 6.720185e+001
1.526852e+002, 6.628249e+001
1.531674e+002, 6.580989e+001
1.536495e+002, 6.561211e+001
1.541316e+002, 6.543526e+001
1.546137e+002, 6.529377e+001
1.550958e+002, 6.514217e+001
1.555779e+002, 6.494735e+001
1.560601e+002, 6.464177e+001
1.565422e+002, 6.444740e+001
1.570243e+002, 6.431542e+001
1.575064e+002, 6.432019e+001
1.579885e+002, 6.460561e+001
1.584706e+002, 6.560359e+001
1.589528e+002, 6.659580e+001
1.594349e+002, 6.721734e+001
1.599170e+002, 6.716405e+001
1.603991e+002, 6.717922e+001
1.608812e+002, 6.745477e+001
1.613633e+002, 6.795080e+001
1.618455e+002, 6.856255e+001
1.623276e+002, 6.900266e+001
1.628097e+002, 6.969512e+001
1.632918e+002, 7.098601e+001
1.637739e+002, 7.353944e+001
1.642560e+002, 7.588369e+001
1.647382e+002, 7.715432e+001
1.652203e+002, 7.760884e+001
1.657024e+002, 7.823283e+001
1.661845e+002, 7.936715e+001
1.666666e+002, 8.094583e+001
1.671487e+002, 8.292273e+001
1.676309e+002, 8.572837e+001
1.681130e+002, 8.849302e+001
1.685951e+002, 9.049075e+001
1.690772e+002, 9.185781e+001
1.695593e+002, 9.336296e+001
1.700414e+002, 9.570433e+001
1.705236e+002, 9.838005e+001
1.710057e+002, 1.007483e+002
1.714878e+002, 1.022480e+002
1.719699e+002, 1.036643e+002
1.724520e+002, 1.059613e+002
1.729341e+002, 1.090457e+002
1.734163e+002, 1.115933e+002
1.738984e+002, 1.121016e+002
1.743805e+002, 1.114944e+002
1.748626e+002, 1.112961e+002
1.753447e+002, 1.121734e+002
1.758268e+002, 1.136843e+002
1.763090e+002, 1.155111e+002
1.767911e+002, 1.176416e+002
1.772732e+002, 1.197161e+002
1.777553e+002, 1.209758e+002
1.782374e+002, 1.213909e+002
1.787195e+002, 1.214657e+002
1.792017e+002, 1.210675e+002
1.796838e+002, 1.206076e+002
1.801659e+002, 1.207547e+002
1.806480e+002, 1.215296e+002
1.811301e+002, 1.225987e+002
1.816122e+002, 1.237538e+002
1.820944e+002, 1.249730e+002
1.825765e+002, 1.261492e+002
1.830586e+002, 1.270986e+002
1.835407e+002, 1.279953e+002
1.840228e+002, 1.293536e+002
1.845049e+002, 1.312300e+002
1.849871e+002, 1.331994e+002
1.854692e+002, 1.347177e+002
1.859513e+002, 1.358571e+002
1.864334e+002, 1.369145e+002
1.869155e+002, 1.381555e+002
1.873976e+002, 1.394458e+002
1.878798e+002, 1.402542e+002
1.883619e+002, 1.404664e+002
1.888440e+002, 1.405591e+002
1.893261e+002, 1.413865e+002
1.898082e+002, 1.428797e+002
1.902903e+002, 1.440285e+002
1.907725e+002, 1.439763e+002
1.912546e+002, 1.430000e+002
1.917367e+002, 1.427786e+002
1.922188e+002, 1.435004e+002
1.927009e+002, 1.446751e+002
1.931830e+002, 1.455460e+002
1.936652e+002, 1.461117e+002
1.941473e+002, 1.465550e+002
1.946294e+002, 1.470040e+002
1.951115e+002, 1.474431e+002
1.955936e+002, 1.476286e+002
1.960757e+002, 1.474988e+002
1.965579e+002, 1.471965e+002
1.970400e+002, 1.470223e+002
1.975221e+002, 1.469970e+002
1.980042e+002, 1.468839e+002
1.984863e+002, 1.464008e+002
1.989684e+002, 1.455405e+002
1.994506e+002, 1.451599e+002
1.999327e+002, 1.454031e+002
2.004148e+002, 1.460435e+002
2.008969e+002, 1.466548e+002
2.013790e+002, 1.472640e+002
2.018611e+002, 1.477435e+002
2.023433e+002, 1.479522e+002
2.028254e+002, 1.478560e+002
2.033075e+002, 1.479527e+002
2.037896e+002, 1.483914e+002
2.042717e+002, 1.489441e+002
2.047538e+002, 1.488639e+002
2.052360e+002, 1.479178e+002
2.057181e+002, 1.471866e+002
2.062002e+002, 1.475273e+002
2.066823e+002, 1.491942e+002
2.071644e+002, 1.501834e+002
2.076465e+002, 1.500908e+002
2.081287e+002, 1.493521e+002
2.086108e+002, 1.493716e+002
2.090929e+002, 1.504234e+002
2.095750e+002, 1.514728e+002
2.100571e+002, 1.517440e+002
2.105392e+002, 1.509730e+002
2.110214e+002, 1.507212e+002
2.115035e+002, 1.513018e+002
2.119856e+002, 1.524336e+002
2.124677e+002, 1.531565e+002
2.129498e+002, 1.533950e+002
2.134319e+002, 1.534099e+002
2.139141e+002, 1.533232e+002
2.143962e+002, 1.530889e+002
2.148783e+002, 1.529519e+002
2.153604e+002, 1.530292e+002
2.158425e+002, 1.532084e+002
2.163246e+002, 1.529455e+002
2.168067e+002, 1.519494e+002
2.172889e+002, 1.510636e+002
2.177710e+002, 1.508844e+002
2.182531e+002, 1.517385e+002
2.187352e+002, 1.523042e+002
2.192173e+002, 1.523620e+002
2.196994e+002, 1.520442e+002
2.201816e+002, 1.519563e+002
2.206637e+002, 1.520829e+002
2.211458e+002, 1.524490e+002
2.216279e+002, 1.531771e+002
2.221100e+002, 1.546236e+002
2.225921e+002, 1.554731e+002
2.230743e+002, 1.554372e+002
2.235564e+002, 1.547200e+002
2.240385e+002, 1.542684e+002
2.245206e+002, 1.541849e+002
2.250027e+002, 1.542237e+002
2.254848e+002, 1.542574e+002
2.259670e+002, 1.543213e+002
2.264491e+002, 1.542804e+002
2.269312e+002, 1.539899e+002
2.274133e+002, 1.535748e+002
2.278954e+002, 1.536667e+002
2.283775e+002, 1.544848e+002
2.288597e+002, 1.554864e+002
2.293418e+002, 1.564072e+002
2.298239e+002, 1.574435e+002
2.303060e+002, 1.579106e+002
2.307881e+002, 1.575347e+002
2.312702e+002, 1.565180e+002
2.317524e+002, 1.558274e+002
2.322345e+002, 1.555132e+002
2.327166e+002, 1.554518e+002
2.331987e+002, 1.556077e+002
2.336808e+002, 1.561066e+002
2.341629e+002, 1.565483e+002
2.346451e+002, 1.569922e+002
2.351272e+002, 1.573657e+002
2.356093e+002, 1.573098e+002
2.360914e+002, 1.564932e+002
2.365735e+002, 1.557019e+002
2.370556e+002, 1.553921e+002
2.375378e+002, 1.557860e+002
2.380199e+002, 1.561809e+002
2.385020e+002, 1.565227e+002
2.389841e+002, 1.568436e+002
2.394662e+002, 1.573033e+002
2.399483e+002, 1.581953e+002
2.404305e+002, 1.588370e+002
2.409126e+002, 1.588182e+002
2.413947e+002, 1.577630e+002
2.418768e+002, 1.568748e+002
2.423589e+002, 1.561790e+002
2.428410e+002, 1.556896e+002
2.433232e+002, 1.554708e+002
2.438053e+002, 1.556442e+002
2.442874e+002, 1.559217e+002
2.447695e+002, 1.561979e+002
2.452516e+002, 1.566308e+002
2.457337e+002, 1.566512e+002
2.462159e+002, 1.558641e+002
2.466980e+002, 1.546954e+002
2.471801e+002, 1.546292e+002
2.476622e+002, 1.563820e+002
2.481443e+002, 1.581465e+002
2.486264e+002, 1.590584e+002
2.491086e+002, 1.588847e+002
2.495907e+002, 1.583939e+002
2.500728e+002, 1.573616e+002
2.505549e+002, 1.560874e+002
2.510370e+002, 1.554369e+002
2.515191e+002, 1.558350e+002
2.520013e+002, 1.561871e+002
2.524834e+002, 1.559255e+002
2.529655e+002, 1.546034e+002
2.534476e+002, 1.538826e+002
2.539297e+002, 1.540116e+002
2.544118e+002, 1.546336e+002
2.548940e+002, 1.549669e+002
2.553761e+002, 1.549631e+002
2.558582e+002, 1.547534e+002
2.563403e+002, 1.543203e+002
2.568224e+002, 1.534966e+002
2.573046e+002, 1.530141e+002
2.577867e+002, 1.529854e+002
2.582688e+002, 1.532242e+002
2.587509e+002, 1.533770e+002
2.592330e+002, 1.534007e+002
2.597151e+002, 1.534196e+002
2.601973e+002, 1.535283e+002
2.606794e+002, 1.538132e+002
2.611615e+002, 1.537452e+002
2.616436e+002, 1.531279e+002
2.621257e+002, 1.523306e+002
2.626078e+002, 1.520170e+002
2.630900e+002, 1.523779e+002
2.635721e+002, 1.527818e+002
2.640542e+002, 1.530151e+002
2.645363e+002, 1.530577e+002
2.650184e+002, 1.530914e+002
2.655005e+002, 1.530944e+002
2.659827e+002, 1.531205e+002
2.664648e+002, 1.533132e+002
2.669469e+002, 1.538167e+002
2.674290e+002, 1.540612e+002
2.679111e+002, 1.538124e+002
2.683932e+002, 1.530362e+002
2.688754e+002, 1.522779e+002
2.693575e+002, 1.514650e+002
2.698396e+002, 1.507744e+002
2.703217e+002, 1.504970e+002
2.708038e+002, 1.507364e+002
2.712859e+002, 1.509848e+002
2.717681e+002, 1.511702e+002
2.722502e+002, 1.512827e+002
2.727323e+002, 1.509509e+002
2.732144e+002, 1.499992e+002
2.736965e+002, 1.489687e+002
2.741786e+002, 1.484943e+002
2.746608e+002, 1.486777e+002
2.751429e+002, 1.488357e+002
2.756250e+002, 1.487419e+002
2.761071e+002, 1.484627e+002
2.765892e+002, 1.485883e+002
2.770714e+002, 1.492499e+002
2.775535e+002, 1.499372e+002
2.780356e+002, 1.501347e+002
2.785177e+002, 1.497970e+002
2.789998e+002, 1.494183e+002
2.794819e+002, 1.490492e+002
2.799641e+002, 1.487227e+002
2.804462e+002, 1.486498e+002
2.809283e+002, 1.488833e+002
2.814104e+002, 1.491399e+002
2.818925e+002, 1.491939e+002
2.823746e+002, 1.490443e+002
2.828568e+002, 1.488326e+002
2.833389e+002, 1.485782e+002
2.838210e+002, 1.482855e+002
2.843031e+002, 1.479683e+002
2.847852e+002, 1.476314e+002
2.852673e+002, 1.472527e+002
2.857495e+002, 1.468282e+002
2.862316e+002, 1.463573e+002
2.867137e+002, 1.457526e+002
2.871958e+002, 1.449198e+002
2.876779e+002, 1.440752e+002
2.881600e+002, 1.437604e+002
2.886422e+002, 1.439833e+002
2.891243e+002, 1.441921e+002
2.896064e+002, 1.439068e+002
2.900885e+002, 1.432553e+002
2.905706e+002, 1.429564e+002
2.910527e+002, 1.431301e+002
2.915349e+002, 1.435291e+002
2.920170e+002, 1.438560e+002
2.924991e+002, 1.440958e+002
2.929812e+002, 1.441373e+002
2.934633e+002, 1.437599e+002
2.939454e+002, 1.431199e+002
2.944276e+002, 1.427419e+002
2.949097e+002, 1.426862e+002
2.953918e+002, 1.427650e+002
2.958739e+002, 1.428041e+002
2.963560e+002, 1.427952e+002
2.968381e+002, 1.426977e+002
2.973203e+002, 1.423970e+002
2.978024e+002, 1.420137e+002
2.982845e+002, 1.418810e+002
2.987666e+002, 1.420397e+002
2.992487e+002, 1.420939e+002
2.997308e+002, 1.413759e+002
3.002130e+002, 1.401861e+002
3.006951e+002, 1.394048e+002
3.011772e+002, 1.397859e+002
3.016593e+002, 1.405773e+002
3.021414e+002, 1.406259e+002
3.026235e+002, 1.399454e+002
3.031057e+002, 1.391628e+002
3.035878e+002, 1.387146e+002
3.040699e+002, 1.385423e+002
3.045520e+002, 1.385734e+002
3.050341e+002, 1.390364e+002
3.055162e+002, 1.394589e+002
3.059984e+002, 1.392346e+002
3.064805e+002, 1.384468e+002
3.069626e+002, 1.376474e+002
3.074447e+002, 1.372727e+002
3.079268e+002, 1.370969e+002
3.084089e+002, 1.367834e+002
3.088911e+002, 1.359958e+002
3.093732e+002, 1.354344e+002
3.098553e+002, 1.360479e+002
3.103374e+002, 1.374615e+002
3.108195e+002, 1.384170e+002
3.113016e+002, 1.378047e+002
3.117838e+002, 1.366087e+002
3.122659e+002, 1.356916e+002
3.127480e+002, 1.352800e+002
3.132301e+002, 1.350254e+002
3.137122e+002, 1.347990e+002
3.141943e+002, 1.345732e+002
3.146765e+002, 1.342953e+002
3.151586e+002, 1.337884e+002
3.156407e+002, 1.333303e+002
3.161228e+002, 1.331309e+002
3.166049e+002, 1.332807e+002
3.170870e+002, 1.334222e+002
3.175692e+002, 1.332882e+002
3.180513e+002, 1.330742e+002
3.185334e+002, 1.330546e+002
3.190155e+002, 1.339154e+002
3.194976e+002, 1.344781e+002
3.199797e+002, 1.339799e+002
3.204619e+002, 1.322594e+002
3.209440e+002, 1.309262e+002
3.214261e+002, 1.307525e+002
3.219082e+002, 1.310688e+002
3.223903e+002, 1.312441e+002
3.228724e+002, 1.310504e+002
3.233546e+002, 1.307934e+002
3.238367e+002, 1.305336e+002
3.243188e+002, 1.302727e+002
3.248009e+002, 1.300114e+002
3.252830e+002, 1.297933e+002
3.257651e+002, 1.295526e+002
3.262473e+002, 1.292480e+002
3.267294e+002, 1.287950e+002
3.272115e+002, 1.283770e+002
3.276936e+002, 1.280099e+002
3.281757e+002, 1.276968e+002
3.286578e+002, 1.274244e+002
3.291400e+002, 1.270583e+002
3.296221e+002, 1.268490e+002
3.301042e+002, 1.269297e+002
3.305863e+002, 1.277058e+002
3.310684e+002, 1.281001e+002
3.315505e+002, 1.279693e+002
3.320327e+002, 1.274798e+002
3.325148e+002, 1.269838e+002
3.329969e+002, 1.264019e+002
3.334790e+002, 1.259070e+002
3.339611e+002, 1.255072e+002
3.344432e+002, 1.251302e+002
3.349254e+002, 1.251831e+002
3.354075e+002, 1.259890e+002
3.358896e+002, 1.269447e+002
3.363717e+002, 1.271484e+002
3.368538e+002, 1.262689e+002
3.373359e+002, 1.254198e+002
3.378180e+002, 1.248714e+002
3.383001e+002, 1.246230e+002
3.387823e+002, 1.246250e+002
3.392644e+002, 1.250032e+002
3.397465e+002, 1.253904e+002
3.402286e+002, 1.253349e+002
3.407107e+002, 1.247207e+002
3.411928e+002, 1.244031e+002
3.416750e+002, 1.246572e+002
3.421571e+002, 1.253000e+002
3.426392e+002, 1.255849e+002
3.431213e+002, 1.254713e+002
3.436034e+002, 1.252387e+002
3.440855e+002, 1.250826e+002
3.445677e+002, 1.250000e+002
3.450498e+002, 1.248847e+002
3.455319e+002, 1.247423e+002
3.460140e+002, 1.245332e+002
3.464961e+002, 1.240936e+002
3.469782e+002, 1.234384e+002
3.474604e+002, 1.229043e+002
3.479425e+002, 1.227807e+002
3.484246e+002, 1.229502e+002
3.489067e+002, 1.229485e+002
3.493888e+002, 1.227119e+002
3.498709e+002, 1.225000e+002
3.503531e+002, 1.228351e+002
3.508352e+002, 1.235229e+002
3.513173e+002, 1.238427e+002
3.517994e+002, 1.229463e+002
3.522815e+002, 1.216679e+002
3.527636e+002, 1.216238e+002
3.532458e+002, 1.228117e+002
3.537279e+002, 1.239864e+002
3.542100e+002, 1.240342e+002
3.546921e+002, 1.233585e+002
3.551742e+002, 1.226350e+002
3.556563e+002, 1.219016e+002
3.561385e+002, 1.213780e+002
3.566206e+002, 1.213788e+002
3.571027e+002, 1.218214e+002
3.575848e+002, 1.222926e+002
3.580669e+002, 1.224941e+002
3.585490e+002, 1.226357e+002
3.590312e+002, 1.229688e+002
3.595133e+002, 1.237104e+002
3.599954e+002, 1.242751e+002
3.604775e+002, 1.241983e+002
3.609596e+002, 1.237011e+002
3.614417e+002, 1.232539e+002
3.619239e+002, 1.231271e+002
3.624060e+002, 1.230402e+002
3.628881e+002, 1.228058e+002
3.633702e+002, 1.223587e+002
3.638523e+002, 1.220155e+002
3.643344e+002, 1.220105e+002
3.648166e+002, 1.221179e+002
3.652987e+002, 1.220795e+002
3.657808e+002, 1.215645e+002
3.662629e+002, 1.211700e+002
3.667450e+002, 1.210591e+002
3.672271e+002, 1.212350e+002
3.677093e+002, 1.215350e+002
3.681914e+002, 1.222816e+002
3.686735e+002, 1.229307e+002
3.691556e+002, 1.231239e+002
3.696377e+002, 1.221598e+002
3.701198e+002, 1.216004e+002
3.706020e+002, 1.217313e+002
3.710841e+002, 1.223392e+002
3.715662e+002, 1.226449e+002
3.720483e+002, 1.224228e+002
3.725304e+002, 1.221664e+002
3.730125e+002, 1.220871e+002
3.734947e+002, 1.222700e+002
3.739768e+002, 1.223823e+002
3.744589e+002, 1.223990e+002
3.749410e+002, 1.223661e+002
3.754231e+002, 1.223394e+002
3.759052e+002, 1.222852e+002
3.763874e+002, 1.223384e+002
3.768695e+002, 1.225632e+002
3.773516e+002, 1.229605e+002
3.778337e+002, 1.234150e+002
3.783158e+002, 1.240411e+002
3.787979e+002, 1.244407e+002
3.792801e+002, 1.239115e+002
3.797622e+002, 1.223720e+002
3.802443e+002, 1.217299e+002
3.807264e+002, 1.226860e+002
3.812085e+002, 1.244923e+002
3.816906e+002, 1.249837e+002
3.821728e+002, 1.241328e+002
3.826549e+002, 1.232805e+002
3.831370e+002, 1.235831e+002
3.836191e+002, 1.246943e+002
3.841012e+002, 1.251369e+002
3.845833e+002, 1.246209e+002
3.850655e+002, 1.239008e+002
3.855476e+002, 1.241114e+002
3.860297e+002, 1.250149e+002
3.865118e+002, 1.257400e+002
3.869939e+002, 1.256502e+002
3.874760e+002, 1.252259e+002
3.879582e+002, 1.251315e+002
3.884403e+002, 1.253831e+002
3.889224e+002, 1.258606e+002
3.894045e+002, 1.268992e+002
3.898866e+002, 1.279910e+002
3.903687e+002, 1.283869e+002
3.908509e+002, 1.273607e+002
3.913330e+002, 1.260809e+002
3.918151e+002, 1.251134e+002
3.922972e+002, 1.245146e+002
3.927793e+002, 1.244827e+002
3.932614e+002, 1.258144e+002
3.937436e+002, 1.273035e+002
3.942257e+002, 1.280473e+002
3.947078e+002, 1.275783e+002
3.951899e+002, 1.270997e+002
3.956720e+002, 1.271541e+002
3.961541e+002, 1.274458e+002
3.966363e+002, 1.275003e+002
3.971184e+002, 1.269195e+002
3.976005e+002, 1.263449e+002
3.980826e+002, 1.259425e+002
3.985647e+002, 1.257125e+002
3.990468e+002, 1.257396e+002
3.995290e+002, 1.264768e+002
4.000111e+002, 1.272251e+002
4.004932e+002, 1.274143e+002
4.009753e+002, 1.264063e+002
4.014574e+002, 1.256916e+002
4.019395e+002, 1.254275e+002
4.024217e+002, 1.255635e+002
4.029038e+002, 1.259135e+002
4.033859e+002, 1.266879e+002
4.038680e+002, 1.273685e+002
4.043501e+002, 1.276777e+002
4.048322e+002, 1.274921e+002
4.053144e+002, 1.273765e+002
4.057965e+002, 1.274010e+002
4.062786e+002, 1.274138e+002
4.067607e+002, 1.270511e+002
4.072428e+002, 1.261807e+002
4.077249e+002, 1.256746e+002
4.082071e+002, 1.259838e+002
4.086892e+002, 1.269395e+002
4.091713e+002, 1.274796e+002
4.096534e+002, 1.275820e+002
4.101355e+002, 1.273913e+002
4.106176e+002, 1.268970e+002
4.110998e+002, 1.261676e+002
4.115819e+002, 1.255925e+002
4.120640e+002, 1.252015e+002
4.125461e+002, 1.250745e+002
4.130282e+002, 1.255519e+002
4.135103e+002, 1.265153e+002
4.139925e+002, 1.272791e+002
4.144746e+002, 1.274171e+002
4.149567e+002, 1.271158e+002
4.154388e+002, 1.265653e+002
4.159209e+002, 1.257402e+002
4.164030e+002, 1.250011e+002
4.168852e+002, 1.246315e+002
4.173673e+002, 1.245470e+002
4.178494e+002, 1.246043e+002
4.183315e+002, 1.250221e+002
4.188136e+002, 1.253397e+002
4.192957e+002, 1.252180e+002
4.197779e+002, 1.247069e+002
4.202600e+002, 1.241264e+002
4.207421e+002, 1.234096e+002
4.212242e+002, 1.228122e+002
4.217063e+002, 1.225717e+002
4.221884e+002, 1.229621e+002
4.226706e+002, 1.232577e+002
4.231527e+002, 1.232052e+002
4.236348e+002, 1.229501e+002
4.241169e+002, 1.227664e+002
4.245990e+002, 1.228985e+002
4.250811e+002, 1.229080e+002
4.255633e+002, 1.225290e+002
4.260454e+002, 1.216361e+002
4.265275e+002, 1.212467e+002
4.270096e+002, 1.218028e+002
4.274917e+002, 1.225053e+002
4.279738e+002, 1.226658e+002
4.284560e+002, 1.219437e+002
4.289381e+002, 1.213868e+002
4.294202e+002, 1.211283e+002
4.299023e+002, 1.211133e+002
4.303844e+002, 1.211868e+002
4.308665e+002, 1.214078e+002
4.313487e+002, 1.215463e+002
4.318308e+002, 1.214184e+002
4.323129e+002, 1.210023e+002
4.327950e+002, 1.208475e+002
4.332771e+002, 1.210440e+002
4.337592e+002, 1.212799e+002
4.342414e+002, 1.210429e+002
4.347235e+002, 1.203859e+002
4.352056e+002, 1.199709e+002
4.356877e+002, 1.201916e+002
4.361698e+002, 1.206591e+002
4.366519e+002, 1.204258e+002
4.371341e+002, 1.195298e+002
4.376162e+002, 1.186689e+002
4.380983e+002, 1.183160e+002
4.385804e+002, 1.183484e+002
4.390625e+002, 1.186477e+002
4.395446e+002, 1.193098e+002
4.400268e+002, 1.198411e+002
4.405089e+002, 1.195486e+002
4.409910e+002, 1.188061e+002
4.414731e+002, 1.183827e+002
4.419552e+002, 1.190088e+002
4.424373e+002, 1.197561e+002
4.429195e+002, 1.200686e+002
4.434016e+002, 1.199273e+002
4.438837e+002, 1.195584e+002
4.443658e+002, 1.187766e+002
4.448479e+002, 1.179548e+002
4.453300e+002, 1.173899e+002
4.458122e+002, 1.171517e+002
4.462943e+002, 1.171465e+002
4.467764e+002, 1.174942e+002
4.472585e+002, 1.180663e+002
4.477406e+002, 1.185360e+002
4.482227e+002, 1.191530e+002
4.487049e+002, 1.193853e+002
4.491870e+002, 1.188999e+002
4.496691e+002, 1.174737e+002
4.501512e+002, 1.167354e+002
4.506333e+002, 1.170105e+002
4.511154e+002, 1.176292e+002
4.515976e+002, 1.179699e+002
4.520797e+002, 1.179581e+002
4.525618e+002, 1.179082e+002
4.530439e+002, 1.178449e+002
4.535260e+002, 1.177892e+002
4.540081e+002, 1.178592e+002
4.544903e+002, 1.180965e+002
4.549724e+002, 1.181902e+002
4.554545e+002, 1.177693e+002
4.559366e+002, 1.169631e+002
4.564187e+002, 1.167779e+002
4.569008e+002, 1.173279e+002
4.573830e+002, 1.180427e+002
4.578651e+002, 1.182322e+002
4.583472e+002, 1.180259e+002
4.588293e+002, 1.178358e+002
4.593114e+002, 1.178272e+002
4.597935e+002, 1.178633e+002
4.602757e+002, 1.176898e+002
4.607578e+002, 1.173678e+002
4.612399e+002, 1.172051e+002
4.617220e+002, 1.176605e+002
4.622041e+002, 1.182183e+002
4.626862e+002, 1.183047e+002
4.631684e+002, 1.177165e+002
4.636505e+002, 1.172153e+002
4.641326e+002, 1.173814e+002
4.646147e+002, 1.178132e+002
4.650968e+002, 1.179929e+002
4.655789e+002, 1.173245e+002
4.660611e+002, 1.168322e+002
4.665432e+002, 1.170236e+002
4.670253e+002, 1.178139e+002
4.675074e+002, 1.181910e+002
4.679895e+002, 1.176643e+002
4.684716e+002, 1.170010e+002
4.689538e+002, 1.165429e+002
4.694359e+002, 1.162835e+002
4.699180e+002, 1.162725e+002
4.704001e+002, 1.166856e+002
4.708822e+002, 1.172236e+002
4.713643e+002, 1.174401e+002
4.718465e+002, 1.172762e+002
4.723286e+002, 1.169282e+002
4.728107e+002, 1.162996e+002
4.732928e+002, 1.155172e+002
4.737749e+002, 1.153738e+002
4.742570e+002, 1.159638e+002
4.747392e+002, 1.167043e+002
4.752213e+002, 1.172346e+002
4.757034e+002, 1.175577e+002
4.761855e+002, 1.176884e+002
4.766676e+002, 1.176238e+002
4.771497e+002, 1.173846e+002
4.776319e+002, 1.167739e+002
4.781140e+002, 1.159672e+002
4.785961e+002, 1.155506e+002
4.790782e+002, 1.161146e+002
4.795603e+002, 1.169950e+002
4.800424e+002, 1.174823e+002
4.805246e+002, 1.175958e+002
4.810067e+002, 1.174837e+002
4.814888e+002, 1.171791e+002
4.819709e+002, 1.167263e+002
4.824530e+002, 1.160942e+002
4.829352e+002, 1.150835e+002
4.834173e+002, 1.143790e+002
4.838994e+002, 1.145561e+002
4.843815e+002, 1.151408e+002
4.848636e+002, 1.154102e+002
4.853457e+002, 1.149199e+002
4.858279e+002, 1.143859e+002
4.863100e+002, 1.140368e+002
4.867921e+002, 1.138742e+002
4.872742e+002, 1.135083e+002
4.877563e+002, 1.125484e+002
4.882384e+002, 1.117809e+002
4.887206e+002, 1.117325e+002
4.892027e+002, 1.128473e+002
4.896848e+002, 1.134577e+002
4.901669e+002, 1.133859e+002
4.906490e+002, 1.129782e+002
4.911311e+002, 1.127757e+002
4.916133e+002, 1.128080e+002
4.920954e+002, 1.128603e+002
4.925775e+002, 1.129006e+002
4.930596e+002, 1.129002e+002
4.935417e+002, 1.127812e+002
4.940238e+002, 1.125450e+002
4.945060e+002, 1.121233e+002
4.949881e+002, 1.111135e+002
4.954702e+002, 1.098978e+002
4.959523e+002, 1.095887e+002
4.964344e+002, 1.105141e+002
4.969165e+002, 1.115034e+002
4.973987e+002, 1.112253e+002
4.978808e+002, 1.101893e+002
4.983629e+002, 1.093615e+002
4.988450e+002, 1.091733e+002
4.993271e+002, 1.092975e+002
4.998092e+002, 1.097532e+002
5.002914e+002, 1.104388e+002
5.007735e+002, 1.107766e+002
5.012556e+002, 1.103628e+002
5.017377e+002, 1.096790e+002
5.022198e+002, 1.089582e+002
5.027019e+002, 1.081106e+002
5.031841e+002, 1.075234e+002
5.036662e+002, 1.074202e+002
5.041483e+002, 1.075310e+002
5.046304e+002, 1.075465e+002
5.051125e+002, 1.074187e+002
5.055946e+002, 1.072857e+002
5.060768e+002, 1.072509e+002
5.065589e+002, 1.072341e+002
5.070410e+002, 1.067461e+002
5.075231e+002, 1.055795e+002
5.080052e+002, 1.045228e+002
5.084873e+002, 1.039293e+002
5.089695e+002, 1.038075e+002
5.094516e+002, 1.042593e+002
5.099337e+002, 1.054322e+002
5.104158e+002, 1.065581e+002
5.108979e+002, 1.066461e+002
5.113800e+002, 1.058837e+002
5.118622e+002, 1.050786e+002
5.123443e+002, 1.043617e+002
5.128264e+002, 1.038244e+002
5.133085e+002, 1.036945e+002
5.137906e+002, 1.038718e+002
5.142728e+002, 1.039963e+002
5.147549e+002, 1.038224e+002
5.152370e+002, 1.035378e+002
5.157191e+002, 1.033032e+002
5.162012e+002, 1.031343e+002
5.166833e+002, 1.029487e+002
5.171655e+002, 1.026866e+002
5.176476e+002, 1.024025e+002
5.181297e+002, 1.021409e+002
5.186118e+002, 1.017841e+002
5.190939e+002, 1.016098e+002
5.195760e+002, 1.018808e+002
5.200582e+002, 1.023523e+002
5.205403e+002, 1.024400e+002
5.210224e+002, 1.018359e+002
5.215045e+002, 1.012759e+002
5.219866e+002, 1.009736e+002
5.224688e+002, 1.009272e+002
5.229509e+002, 1.008135e+002
5.234330e+002, 1.005898e+002
5.239151e+002, 1.003923e+002
5.243972e+002, 1.003432e+002
5.248793e+002, 1.004455e+002
5.253615e+002, 1.005289e+002
5.258436e+002, 1.005743e+002
5.263257e+002, 1.006059e+002
5.268078e+002, 1.005798e+002
5.272899e+002, 1.005411e+002
5.277720e+002, 1.007345e+002
5.282542e+002, 1.015591e+002
5.287363e+002, 1.024266e+002
5.292184e+002, 1.024082e+002
5.297005e+002, 1.016455e+002
5.301826e+002, 1.009110e+002
5.306647e+002, 1.007389e+002
5.311469e+002, 1.007671e+002
5.316290e+002, 1.006500e+002
5.321111e+002, 1.002864e+002
5.325932e+002, 1.000570e+002
5.330753e+002, 1.003175e+002
5.335574e+002, 1.007006e+002
5.340396e+002, 1.008209e+002
5.345217e+002, 1.002653e+002
5.350038e+002, 9.985526e+001
5.354859e+002, 9.978662e+001
5.359680e+002, 9.995012e+001
5.364501e+002, 1.000114e+002
5.369323e+002, 9.999897e+001
5.374144e+002, 9.982888e+001
5.378965e+002, 9.937894e+001
5.383786e+002, 9.863528e+001
5.388607e+002, 9.831230e+001
5.393428e+002, 9.852129e+001
5.398250e+002, 9.881200e+001
5.403071e+002, 9.869902e+001
5.407892e+002, 9.823853e+001
5.412713e+002, 9.798124e+001
5.417534e+002, 9.804848e+001
5.422355e+002, 9.823830e+001
5.427177e+002, 9.817394e+001
5.431998e+002, 9.797778e+001
5.436819e+002, 9.804341e+001
5.441640e+002, 9.907593e+001
5.446461e+002, 1.000838e+002
5.451282e+002, 9.986584e+001
5.456104e+002, 9.863353e+001
5.460925e+002, 9.770449e+001
5.465746e+002, 9.796423e+001
5.470567e+002, 9.861901e+001
5.475388e+002, 9.922103e+001
5.480209e+002, 9.979258e+001
5.485031e+002, 1.000049e+002
5.489852e+002, 9.944837e+001
5.494673e+002, 9.866308e+001
5.499494e+002, 9.822124e+001
5.504315e+002, 9.833324e+001
5.509136e+002, 9.848531e+001
5.513958e+002, 9.871160e+001
5.518779e+002, 9.892168e+001
5.523600e+002, 9.877523e+001
5.528421e+002, 9.812973e+001
5.533242e+002, 9.762986e+001
5.538063e+002, 9.766280e+001
5.542885e+002, 9.812393e+001
5.547706e+002, 9.804070e+001
5.552527e+002, 9.734895e+001
5.557348e+002, 9.679375e+001
5.562169e+002, 9.735814e+001
5.566990e+002, 9.855205e+001
5.571812e+002, 9.901460e+001
5.576633e+002, 9.837865e+001
5.581454e+002, 9.758804e+001
5.586275e+002, 9.754091e+001
5.591096e+002, 9.797910e+001
5.595917e+002, 9.844683e+001
5.600739e+002, 9.887595e+001
5.605560e+002, 9.917707e+001
5.610381e+002, 9.937898e+001
5.615202e+002, 9.943568e+001
5.620023e+002, 9.916068e+001
5.624844e+002, 9.789327e+001
5.629666e+002, 9.680756e+001
5.634487e+002, 9.651795e+001
5.639308e+002, 9.720814e+001
5.644129e+002, 9.778433e+001
5.648950e+002, 9.831340e+001
5.653771e+002, 9.865327e+001
5.658593e+002, 9.861529e+001
5.663414e+002, 9.805555e+001
5.668235e+002, 9.774636e+001
5.673056e+002, 9.781004e+001
5.677877e+002, 9.807799e+001
5.682698e+002, 9.825729e+001
5.687520e+002, 9.835478e+001
5.692341e+002, 9.845812e+001
5.697162e+002, 9.865826e+001
5.701983e+002, 9.884991e+001
5.706804e+002, 9.877761e+001
5.711625e+002, 9.848251e+001
5.716447e+002, 9.824216e+001
5.721268e+002, 9.835987e+001
5.726089e+002, 9.855111e+001
5.730910e+002, 9.849339e+001
5.735731e+002, 9.811098e+001
5.740552e+002, 9.780160e+001
5.745374e+002, 9.780370e+001
5.750195e+002, 9.793310e+001
5.755016e+002, 9.801671e+001
5.759837e+002, 9.776458e+001
5.764658e+002, 9.778539e+001
5.769479e+002, 9.841854e+001
5.774301e+002, 9.928984e+001
5.779122e+002, 9.961442e+001
5.783943e+002, 9.899782e+001
5.788764e+002, 9.864140e+001
5.793585e+002, 9.901767e+001
5.798406e+002, 9.996219e+001
5.803228e+002, 1.002707e+002
5.808049e+002, 9.987181e+001
5.812870e+002, 9.929814e+001
5.817691e+002, 9.872261e+001
5.822512e+002, 9.824142e+001
5.827333e+002, 9.837911e+001
5.832155e+002, 9.923242e+001
5.836976e+002, 1.000611e+002
5.841797e+002, 1.000157e+002
5.846617e+002, 9.952177e+001
5.851439e+002, 9.932971e+001
5.856260e+002, 9.990240e+001
5.861081e+002, 1.003564e+002
5.865902e+002, 9.999704e+001
5.870723e+002, 9.915163e+001
5.875544e+002, 9.846004e+001
5.880366e+002, 9.807067e+001
5.885187e+002, 9.788226e+001
5.890008e+002, 9.788484e+001
5.894829e+002, 9.807590e+001
5.899650e+002, 9.838955e+001
5.904471e+002, 9.894100e+001
5.909293e+002, 9.946305e+001
5.914114e+002, 9.985524e+001
5.918935e+002, 1.001361e+002
5.923756e+002, 1.000814e+002
5.928577e+002, 9.955473e+001
5.933398e+002, 9.905952e+001
5.938220e+002, 9.927479e+001
5.943041e+002, 1.000844e+002
5.947862e+002, 1.005337e+002
5.952683e+002, 1.003682e+002
5.957504e+002, 1.000090e+002
5.962325e+002, 1.000330e+002
5.967147e+002, 1.003058e+002
5.971968e+002, 1.004749e+002
5.976789e+002, 1.001874e+002
5.981610e+002, 9.990836e+001
5.986431e+002, 1.000152e+002
5.991252e+002, 1.004410e+002
5.996074e+002, 1.008617e+002
6.000895e+002, 1.012336e+002
6.005716e+002, 1.015147e+002
6.010537e+002, 1.017039e+002
6.015358e+002, 1.018173e+002
6.020179e+002, 1.017003e+002
6.025001e+002, 1.010069e+002
6.029822e+002, 1.004264e+002
6.034643e+002, 1.005899e+002
6.039464e+002, 1.018326e+002
6.044285e+002, 1.024590e+002
6.049106e+002, 1.022405e+002
6.053928e+002, 1.016213e+002
6.058749e+002, 1.012411e+002
6.063570e+002, 1.010835e+002
6.068391e+002, 1.009323e+002
6.073212e+002, 1.006368e+002
6.078033e+002, 1.004197e+002
6.082855e+002, 1.007480e+002
6.087676e+002, 1.014827e+002
6.092497e+002, 1.021264e+002
6.097318e+002, 1.023654e+002
6.102139e+002, 1.024254e+002
6.106960e+002, 1.024173e+002
6.111782e+002, 1.023545e+002
6.116603e+002, 1.023787e+002
6.121424e+002, 1.026099e+002
6.126245e+002, 1.028928e+002
6.131066e+002, 1.031498e+002
6.135887e+002, 1.034486e+002
6.140709e+002, 1.035473e+002
6.145530e+002, 1.033611e+002
6.150351e+002, 1.030543e+002
6.155172e+002, 1.027545e+002
6.159993e+002, 1.024132e+002
6.164814e+002, 1.023376e+002
6.169636e+002, 1.026801e+002
6.174457e+002, 1.031451e+002
6.179278e+002, 1.029848e+002
6.184099e+002, 1.022886e+002
6.188920e+002, 1.019944e+002
6.193741e+002, 1.029159e+002
6.198563e+002, 1.041476e+002
6.203384e+002, 1.041617e+002
6.208205e+002, 1.031836e+002
6.213026e+002, 1.023439e+002
6.217847e+002, 1.023313e+002
6.222668e+002, 1.026789e+002
6.227490e+002, 1.031544e+002
6.232311e+002, 1.037654e+002
6.237132e+002, 1.041311e+002
6.241953e+002, 1.039497e+002
6.246774e+002, 1.036269e+002
6.251595e+002, 1.034297e+002
6.256417e+002, 1.032710e+002
6.261238e+002, 1.034850e+002
6.266059e+002, 1.043887e+002
6.270880e+002, 1.053201e+002
6.275701e+002, 1.052171e+002
6.280522e+002, 1.039337e+002
6.285344e+002, 1.030885e+002
6.290165e+002, 1.031620e+002
6.294986e+002, 1.036423e+002
6.299807e+002, 1.033554e+002
6.304628e+002, 1.024868e+002
6.309449e+002, 1.020422e+002
6.314271e+002, 1.029663e+002
6.319092e+002, 1.042710e+002
6.323913e+002, 1.048959e+002
6.328734e+002, 1.049086e+002
6.333555e+002, 1.047777e+002
6.338376e+002, 1.047210e+002
6.343198e+002, 1.046056e+002
6.348019e+002, 1.042817e+002
6.352840e+002, 1.036459e+002
6.357661e+002, 1.032799e+002
6.362482e+002, 1.034616e+002
6.367303e+002, 1.037445e+002
6.372125e+002, 1.038265e+002
6.376946e+002, 1.036406e+002
6.381767e+002, 1.034139e+002
6.386588e+002, 1.030766e+002
6.391409e+002, 1.028386e+002
6.396230e+002, 1.031406e+002
6.401052e+002, 1.039357e+002
6.405873e+002, 1.044395e+002
6.410694e+002, 1.043229e+002
6.415515e+002, 1.040440e+002
6.420336e+002, 1.044184e+002
6.425157e+002, 1.052193e+002
6.429979e+002, 1.057894e+002
6.434800e+002, 1.056403e+002
6.439621e+002, 1.052752e+002
6.444442e+002, 1.049214e+002
6.449263e+002, 1.046168e+002
6.454084e+002, 1.045414e+002
6.458906e+002, 1.050466e+002
6.463727e+002, 1.055410e+002
6.468548e+002, 1.057331e+002
6.473369e+002, 1.055888e+002
6.478190e+002, 1.054126e+002
6.483011e+002, 1.051985e+002
6.487833e+002, 1.049644e+002
6.492654e+002, 1.046805e+002
6.497475e+002, 1.043225e+002
6.502296e+002, 1.042032e+002
6.507117e+002, 1.043613e+002
6.511938e+002, 1.046682e+002
6.516760e+002, 1.050946e+002
6.521581e+002, 1.055514e+002
6.526402e+002, 1.057102e+002
6.531223e+002, 1.053558e+002
6.536044e+002, 1.049522e+002
6.540865e+002, 1.049501e+002
6.545687e+002, 1.051921e+002
6.550508e+002, 1.053743e+002
6.555329e+002, 1.054712e+002
6.560150e+002, 1.053991e+002
6.564971e+002, 1.049449e+002
6.569792e+002, 1.042339e+002
6.574614e+002, 1.039192e+002
6.579435e+002, 1.042905e+002
6.584256e+002, 1.046863e+002
6.589077e+002, 1.049283e+002
6.593898e+002, 1.050155e+002
6.598719e+002, 1.048475e+002
6.603541e+002, 1.043377e+002
6.608362e+002, 1.039770e+002
6.613183e+002, 1.042801e+002
6.618004e+002, 1.050400e+002
6.622825e+002, 1.054284e+002
6.627646e+002, 1.053886e+002
6.632468e+002, 1.051887e+002
6.637289e+002, 1.050248e+002
6.642110e+002, 1.048602e+002
6.646931e+002, 1.046291e+002
6.651752e+002, 1.042649e+002
6.656573e+002, 1.039749e+002
6.661395e+002, 1.039580e+002
6.666216e+002, 1.040237e+002
6.671037e+002, 1.039370e+002
6.675858e+002, 1.032523e+002
6.680679e+002, 1.029749e+002
6.685500e+002, 1.034514e+002
6.690322e+002, 1.042599e+002
6.695143e+002, 1.044048e+002
6.699964e+002, 1.037388e+002
6.704785e+002, 1.031286e+002
6.709606e+002, 1.028187e+002
6.714427e+002, 1.027548e+002
6.719249e+002, 1.028596e+002
6.724070e+002, 1.031105e+002
6.728891e+002, 1.033280e+002
6.733712e+002, 1.033569e+002
6.738533e+002, 1.033226e+002
6.743354e+002, 1.033639e+002
6.748176e+002, 1.034808e+002
6.752997e+002, 1.036254e+002
6.757818e+002, 1.039459e+002
6.762639e+002, 1.041549e+002
6.767460e+002, 1.040139e+002
6.772281e+002, 1.033646e+002
6.777103e+002, 1.029034e+002
6.781924e+002, 1.026726e+002
6.786745e+002, 1.026173e+002
6.791566e+002, 1.027473e+002
6.796387e+002, 1.031397e+002
6.801208e+002, 1.033253e+002
6.806030e+002, 1.032374e+002
6.810851e+002, 1.030553e+002
6.815672e+002, 1.029338e+002
6.820493e+002, 1.028968e+002
6.825314e+002, 1.031332e+002
6.830135e+002, 1.038848e+002
6.834957e+002, 1.044463e+002
6.839778e+002, 1.036711e+002
6.844599e+002, 1.022131e+002
6.849420e+002, 1.013303e+002
6.854241e+002, 1.020311e+002
6.859063e+002, 1.028030e+002
6.863884e+002, 1.031309e+002
6.868705e+002, 1.030870e+002
6.873526e+002, 1.029401e+002
6.878347e+002, 1.025664e+002
6.883168e+002, 1.023088e+002
6.887990e+002, 1.023174e+002
6.892811e+002, 1.025329e+002
6.897632e+002, 1.025213e+002
6.902453e+002, 1.022467e+002
6.907274e+002, 1.019999e+002
6.912095e+002, 1.020018e+002
6.916917e+002, 1.021593e+002
6.921738e+002, 1.021706e+002
6.926559e+002, 1.020393e+002
6.931380e+002, 1.019311e+002
6.936201e+002, 1.020184e+002
6.941022e+002, 1.021555e+002
6.945844e+002, 1.021837e+002
6.950665e+002, 1.020599e+002
6.955486e+002, 1.019731e+002
6.960307e+002, 1.019342e+002
6.965128e+002, 1.019923e+002
6.969949e+002, 1.021969e+002
6.974771e+002, 1.026502e+002
6.979592e+002, 1.030606e+002
6.984413e+002, 1.035447e+002
6.989234e+002, 1.038331e+002
6.994055e+002, 1.034209e+002
6.998876e+002, 1.022896e+002
7.003698e+002, 1.016135e+002
7.008519e+002, 1.016866e+002
7.013340e+002, 1.020549e+002
7.018161e+002, 1.021680e+002
7.022982e+002, 1.020741e+002
7.027803e+002, 1.018837e+002
7.032625e+002, 1.015484e+002
7.037446e+002, 1.012409e+002
7.042267e+002, 1.010036e+002
7.047088e+002, 1.008836e+002
7.051909e+002, 1.009902e+002
7.056730e+002, 1.019833e+002
7.061552e+002, 1.024677e+002
7.066373e+002, 1.017062e+002
7.071194e+002, 1.001130e+002
7.076015e+002, 9.973509e+001
7.080836e+002, 1.009822e+002
7.085657e+002, 1.022074e+002
7.090479e+002, 1.027274e+002
7.095300e+002, 1.026885e+002
7.100121e+002, 1.026900e+002
7.104942e+002, 1.027283e+002
7.109763e+002, 1.027390e+002
7.114584e+002, 1.026406e+002
7.119406e+002, 1.025096e+002
7.124227e+002, 1.024106e+002
7.129048e+002, 1.023511e+002
7.133869e+002, 1.024138e+002
7.138690e+002, 1.027329e+002
7.143511e+002, 1.031210e+002
7.148333e+002, 1.035084e+002
7.153154e+002, 1.039854e+002
7.157975e+002, 1.040810e+002
7.162796e+002, 1.035437e+002
7.167617e+002, 1.029375e+002
7.172438e+002, 1.027182e+002
7.177260e+002, 1.029247e+002
7.182081e+002, 1.031361e+002
7.186902e+002, 1.033285e+002
7.191723e+002, 1.035206e+002
7.196544e+002, 1.037336e+002
7.201365e+002, 1.039609e+002
7.206187e+002, 1.041999e+002
7.211008e+002, 1.044806e+002
7.215829e+002, 1.046823e+002
7.220650e+002, 1.046795e+002
7.225471e+002, 1.045548e+002
7.230292e+002, 1.044189e+002
7.235114e+002, 1.042473e+002
7.239935e+002, 1.041346e+002
7.244756e+002, 1.040935e+002
7.249577e+002, 1.041164e+002
7.254398e+002, 1.041894e+002
7.259219e+002, 1.042979e+002
7.264041e+002, 1.045012e+002
7.268862e+002, 1.048221e+002
7.273683e+002, 1.052347e+002
7.278504e+002, 1.057837e+002
7.283325e+002, 1.064148e+002
7.288146e+002, 1.067406e+002
7.292968e+002, 1.063726e+002
7.297789e+002, 1.057884e+002
7.302610e+002, 1.054494e+002
7.307431e+002, 1.053395e+002
7.312252e+002, 1.054049e+002
7.317073e+002, 1.059051e+002
7.321895e+002, 1.063026e+002
7.326716e+002, 1.062350e+002
7.331537e+002, 1.057492e+002
7.336358e+002, 1.056266e+002
7.341179e+002, 1.060477e+002
7.346000e+002, 1.065300e+002
7.350822e+002, 1.068861e+002
7.355643e+002, 1.071279e+002
7.360464e+002, 1.073876e+002
7.365285e+002, 1.076746e+002
7.370106e+002, 1.078049e+002
7.374927e+002, 1.074446e+002
7.379749e+002, 1.069170e+002
7.384570e+002, 1.068157e+002
7.389391e+002, 1.071618e+002
7.394212e+002, 1.075699e+002
7.399033e+002, 1.080249e+002
7.403854e+002, 1.083046e+002
7.408676e+002, 1.081207e+002
7.413497e+002, 1.071889e+002
7.418318e+002, 1.068652e+002
7.423139e+002, 1.077018e+002
7.427960e+002, 1.086172e+002
7.432781e+002, 1.088042e+002
7.437603e+002, 1.081095e+002
7.442424e+002, 1.077834e+002
7.447245e+002, 1.078860e+002
7.452066e+002, 1.082420e+002
7.456887e+002, 1.089182e+002
7.461708e+002, 1.096925e+002
7.466530e+002, 1.098386e+002
7.471351e+002, 1.090912e+002
7.476172e+002, 1.084782e+002
7.480993e+002, 1.090093e+002
7.485814e+002, 1.099808e+002
7.490635e+002, 1.105906e+002
7.495457e+002, 1.103623e+002
7.500278e+002, 1.102518e+002
7.505099e+002, 1.105791e+002
7.509920e+002, 1.109497e+002
7.514741e+002, 1.108185e+002
7.519562e+002, 1.099768e+002
7.524384e+002, 1.095476e+002
7.529205e+002, 1.097681e+002
7.534026e+002, 1.102702e+002
7.538847e+002, 1.103805e+002
7.543668e+002, 1.102428e+002
7.548489e+002, 1.105002e+002
7.553311e+002, 1.116213e+002
7.558132e+002, 1.126830e+002
7.562953e+002, 1.125194e+002
7.567774e+002, 1.117863e+002
7.572595e+002, 1.116371e+002
7.577416e+002, 1.133045e+002
7.582238e+002, 1.145694e+002
7.587059e+002, 1.147422e+002
7.591880e+002, 1.142399e+002
7.596701e+002, 1.138770e+002
7.601522e+002, 1.136529e+002
7.606343e+002, 1.135811e+002
7.611165e+002, 1.137121e+002
7.615986e+002, 1.139515e+002
7.620807e+002, 1.140311e+002
7.625628e+002, 1.139888e+002
7.630449e+002, 1.140467e+002
7.635270e+002, 1.144221e+002
7.640092e+002, 1.148405e+002
7.644913e+002, 1.148860e+002
7.649734e+002, 1.147410e+002
7.654555e+002, 1.149742e+002
7.659376e+002, 1.161830e+002
7.664197e+002, 1.173873e+002
7.669019e+002, 1.184069e+002
7.673840e+002, 1.191720e+002
7.678661e+002, 1.191889e+002
7.683482e+002, 1.181054e+002
7.688303e+002, 1.173222e+002
7.693124e+002, 1.175659e+002
7.697946e+002, 1.184794e+002
7.702767e+002, 1.186905e+002
7.707588e+002, 1.182876e+002
7.712409e+002, 1.180973e+002
7.717230e+002, 1.189396e+002
7.722051e+002, 1.200134e+002
7.726873e+002, 1.204493e+002
7.731694e+002, 1.203224e+002
7.736515e+002, 1.203323e+002
7.741336e+002, 1.209607e+002
7.746157e+002, 1.215539e+002
7.750978e+002, 1.218227e+002
7.755800e+002, 1.217783e+002
7.760621e+002, 1.216681e+002
7.765442e+002, 1.214214e+002
7.770263e+002, 1.213134e+002
7.775084e+002, 1.215913e+002
7.779905e+002, 1.221437e+002
7.784727e+002, 1.223983e+002
7.789548e+002, 1.223711e+002
7.794369e+002, 1.223609e+002
7.799190e+002, 1.226938e+002
7.804011e+002, 1.230705e+002
7.808832e+002, 1.230756e+002
7.813654e+002, 1.226937e+002
7.818475e+002, 1.226392e+002
7.823296e+002, 1.236356e+002
7.828117e+002, 1.245605e+002
7.832938e+002, 1.247436e+002
7.837759e+002, 1.240675e+002
7.842581e+002, 1.240881e+002
7.847402e+002, 1.250034e+002
7.852223e+002, 1.260013e+002
7.857044e+002, 1.265472e+002
7.861865e+002, 1.267165e+002
7.866686e+002, 1.268149e+002
7.871508e+002, 1.268523e+002
7.876329e+002, 1.267748e+002
7.881150e+002, 1.262873e+002
7.885971e+002, 1.258256e+002
7.890792e+002, 1.259103e+002
7.895613e+002, 1.266693e+002
7.900435e+002, 1.272420e+002
7.905256e+002, 1.270068e+002
7.910077e+002, 1.269036e+002
7.914898e+002, 1.275013e+002
7.919719e+002, 1.289338e+002
7.924540e+002, 1.301252e+002
7.929362e+002, 1.310829e+002
7.934183e+002, 1.316766e+002
7.939004e+002, 1.314690e+002
7.943825e+002, 1.308237e+002
7.948646e+002, 1.309119e+002
7.953467e+002, 1.318273e+002
7.958289e+002, 1.326360e+002
7.963110e+002, 1.325325e+002
7.967931e+002, 1.321095e+002
7.972752e+002, 1.318327e+002
7.977573e+002, 1.317747e+002
7.982394e+002, 1.318184e+002
7.987216e+002, 1.319944e+002
7.992037e+002, 1.322180e+002
7.996858e+002, 1.324234e+002
8.001679e+002, 1.325954e+002
8.006500e+002, 1.329038e+002
8.011321e+002, 1.333685e+002
8.016143e+002, 1.338728e+002
8.020964e+002, 1.342816e+002
8.025785e+002, 1.346613e+002
8.030606e+002, 1.351637e+002
8.035427e+002, 1.358115e+002
8.040248e+002, 1.364684e+002
8.045070e+002, 1.370319e+002
8.049891e+002, 1.375915e+002
8.054712e+002, 1.382633e+002
8.059533e+002, 1.392131e+002
8.064354e+002, 1.397219e+002
8.069175e+002, 1.394978e+002
8.073997e+002, 1.392523e+002
8.078818e+002, 1.397092e+002
8.083639e+002, 1.408334e+002
8.088460e+002, 1.409594e+002
8.093281e+002, 1.399511e+002
8.098102e+002, 1.389420e+002
8.102924e+002, 1.391325e+002
8.107745e+002, 1.398686e+002
8.112566e+002, 1.402299e+002
8.117387e+002, 1.400505e+002
8.122208e+002, 1.399417e+002
8.127029e+002, 1.402300e+002
8.131851e+002, 1.406236e+002
8.136672e+002, 1.409029e+002
8.141493e+002, 1.409997e+002
8.146314e+002, 1.412704e+002
8.151135e+002, 1.417410e+002
8.155956e+002, 1.423146e+002
8.160778e+002, 1.430543e+002
8.165599e+002, 1.438530e+002
8.170420e+002, 1.440915e+002
8.175241e+002, 1.437253e+002
8.180062e+002, 1.433432e+002
8.184883e+002, 1.434118e+002
8.189705e+002, 1.436821e+002
8.194526e+002, 1.438840e+002
8.199347e+002, 1.439479e+002
8.204168e+002, 1.442111e+002
8.208989e+002, 1.450803e+002
8.213810e+002, 1.458528e+002
8.218632e+002, 1.461347e+002
8.223453e+002, 1.458661e+002
8.228274e+002, 1.457503e+002
8.233095e+002, 1.458343e+002
8.237916e+002, 1.458135e+002
8.242737e+002, 1.451850e+002
8.247559e+002, 1.443579e+002
8.252380e+002, 1.443014e+002
8.257201e+002, 1.450485e+002
8.262022e+002, 1.457346e+002
8.266843e+002, 1.458070e+002
8.271664e+002, 1.456600e+002
8.276486e+002, 1.454530e+002
8.281307e+002, 1.451440e+002
8.286128e+002, 1.453633e+002
8.290949e+002, 1.465706e+002
8.295770e+002, 1.475087e+002
8.300591e+002, 1.473744e+002
8.305413e+002, 1.462708e+002
8.310234e+002, 1.452447e+002
8.315055e+002, 1.442994e+002
8.319876e+002, 1.437586e+002
8.324697e+002, 1.441968e+002
8.329518e+002, 1.449366e+002
8.334340e+002, 1.451706e+002
8.339161e+002, 1.448960e+002
8.343982e+002, 1.447904e+002
8.348803e+002, 1.455362e+002
8.353624e+002, 1.460503e+002
8.358445e+002, 1.457944e+002
8.363267e+002, 1.448097e+002
8.368088e+002, 1.438926e+002
8.372909e+002, 1.429561e+002
8.377730e+002, 1.425309e+002
8.382551e+002, 1.433378e+002
8.387372e+002, 1.447408e+002
8.392194e+002, 1.450736e+002
8.397015e+002, 1.444656e+002
8.401836e+002, 1.436637e+002
8.406657e+002, 1.429266e+002
8.411478e+002, 1.422832e+002
8.416299e+002, 1.417953e+002
8.421121e+002, 1.414430e+002
8.425942e+002, 1.410827e+002
8.430763e+002, 1.408377e+002
8.435584e+002, 1.403136e+002
8.440405e+002, 1.391676e+002
8.445226e+002, 1.377161e+002
8.450048e+002, 1.374274e+002
8.454869e+002, 1.382178e+002
8.459690e+002, 1.388152e+002
8.464511e+002, 1.384687e+002
8.469332e+002, 1.377001e+002
8.474153e+002, 1.369817e+002
8.478975e+002, 1.363004e+002
8.483796e+002, 1.356175e+002
8.488617e+002, 1.348297e+002
8.493438e+002, 1.341512e+002
8.498259e+002, 1.337690e+002
8.503080e+002, 1.335104e+002
8.507902e+002, 1.327735e+002
8.512723e+002, 1.313818e+002
8.517544e+002, 1.307264e+002
8.522365e+002, 1.315476e+002
8.527186e+002, 1.327742e+002
8.532007e+002, 1.323067e+002
8.536829e+002, 1.306677e+002
8.541650e+002, 1.292880e+002
8.546471e+002, 1.288875e+002
8.551292e+002, 1.286549e+002
8.556113e+002, 1.283542e+002
8.560934e+002, 1.279241e+002
8.565756e+002, 1.272300e+002
8.570577e+002, 1.261072e+002
8.575398e+002, 1.250360e+002
8.580219e+002, 1.240000e+002
8.585040e+002, 1.231130e+002
8.589861e+002, 1.226446e+002
8.594683e+002, 1.225235e+002
8.599504e+002, 1.224484e+002
8.604325e+002, 1.224541e+002
8.609146e+002, 1.221368e+002
8.613967e+002, 1.207794e+002
8.618788e+002, 1.190379e+002
8.623610e+002, 1.177102e+002
8.628431e+002, 1.171825e+002
8.633252e+002, 1.167642e+002
8.638073e+002, 1.165307e+002
8.642894e+002, 1.162393e+002
8.647715e+002, 1.155994e+002
8.652537e+002, 1.145879e+002
8.657358e+002, 1.137645e+002
8.662179e+002, 1.131901e+002
8.667000e+002, 1.126379e+002
8.671821e+002, 1.117849e+002
8.676642e+002, 1.108440e+002
8.681464e+002, 1.101735e+002
8.686285e+002, 1.098597e+002
8.691106e+002, 1.095284e+002
8.695927e+002, 1.089910e+002
8.700748e+002, 1.084190e+002
8.705569e+002, 1.079812e+002
8.710391e+002, 1.077526e+002
8.715212e+002, 1.070237e+002
8.720033e+002, 1.056272e+002
8.724854e+002, 1.043968e+002
8.729675e+002, 1.042566e+002
8.734496e+002, 1.046863e+002
8.739318e+002, 1.044335e+002
8.744139e+002, 1.034946e+002
8.748960e+002, 1.023756e+002
8.753781e+002, 1.010023e+002
8.758602e+002, 9.986464e+001
8.763423e+002, 9.943790e+001
8.768245e+002, 9.973523e+001
8.773066e+002, 9.964753e+001
8.777887e+002, 9.902863e+001
8.782708e+002, 9.838039e+001
8.787529e+002, 9.799656e+001
8.792350e+002, 9.770512e+001
8.797172e+002, 9.667055e+001
8.801993e+002, 9.505783e+001
8.806814e+002, 9.383787e+001
8.811635e+002, 9.384361e+001
8.816456e+002, 9.416657e+001
8.821277e+002, 9.432420e+001
8.826099e+002, 9.426192e+001
8.830920e+002, 9.383094e+001
8.835741e+002, 9.266325e+001
8.840562e+002, 9.155624e+001
8.845383e+002, 9.049205e+001
8.850204e+002, 8.965538e+001
8.855026e+002, 8.967323e+001
8.859847e+002, 9.046765e+001
8.864668e+002, 9.088344e+001
8.869489e+002, 9.052072e+001
8.874310e+002, 8.980883e+001
8.879131e+002, 8.898098e+001
8.883953e+002, 8.819996e+001
8.888774e+002, 8.771896e+001
8.893595e+002, 8.802560e+001
8.898416e+002, 8.799716e+001
8.903237e+002, 8.727230e+001
8.908058e+002, 8.633469e+001
8.912880e+002, 8.566456e+001
8.917701e+002, 8.528323e+001
8.922522e+002, 8.495629e+001
8.927343e+002, 8.466513e+001
8.932164e+002, 8.440764e+001
8.936985e+002, 8.435667e+001
8.941807e+002, 8.426376e+001
8.946628e+002, 8.362733e+001
8.951449e+002, 8.225916e+001
8.956270e+002, 8.122051e+001
8.961091e+002, 8.106846e+001
8.965912e+002, 8.121726e+001
8.970734e+002, 8.134508e+001
8.975555e+002, 8.145818e+001
8.980376e+002, 8.148438e+001
8.985197e+002, 8.143407e+001
8.990018e+002, 8.124149e+001
8.994839e+002, 8.081299e+001
8.999661e+002, 8.023252e+001
9.004482e+002, 7.953162e+001
9.009303e+002, 7.876798e+001
9.014124e+002, 7.830956e+001
9.018945e+002, 7.873144e+001
9.023766e+002, 7.910510e+001
9.028588e+002, 7.893169e+001
9.033409e+002, 7.831562e+001
9.038230e+002, 7.770129e+001
9.043051e+002, 7.703897e+001
9.047872e+002, 7.655637e+001
9.052693e+002, 7.635391e+001
9.057515e+002, 7.633382e+001
9.062336e+002, 7.638158e+001
9.067157e+002, 7.644721e+001
9.071978e+002, 7.638164e+001
9.076799e+002, 7.594479e+001
9.081620e+002, 7.559023e+001
9.086442e+002, 7.574106e+001
9.091263e+002, 7.602760e+001
9.096084e+002, 7.580694e+001
9.100905e+002, 7.479512e+001
9.105726e+002, 7.401240e+001
9.110547e+002, 7.354053e+001
9.115369e+002, 7.331876e+001
9.120190e+002, 7.345674e+001
9.125011e+002, 7.376844e+001
9.129832e+002, 7.363075e+001
9.134653e+002, 7.285422e+001
9.139474e+002, 7.219204e+001
9.144296e+002, 7.217103e+001
9.149117e+002, 7.243767e+001
9.153938e+002, 7.277263e+001
9.158759e+002, 7.326877e+001
9.163580e+002, 7.324953e+001
9.168401e+002, 7.251299e+001
9.173223e+002, 7.175737e+001
9.178044e+002, 7.151909e+001
9.182865e+002, 7.165627e+001
9.187686e+002, 7.158974e+001
9.192507e+002, 7.134803e+001
9.197328e+002, 7.123857e+001
9.202150e+002, 7.175011e+001
9.206971e+002, 7.218779e+001
9.211792e+002, 7.192482e+001
9.216613e+002, 7.109425e+001
9.221434e+002, 7.086233e+001
9.226255e+002, 7.164903e+001
9.231077e+002, 7.207652e+001
9.235898e+002, 7.162062e+001
9.240719e+002, 7.070139e+001
9.245540e+002, 7.026328e+001
9.250361e+002, 7.022202e+001
9.255182e+002, 7.025215e+001
9.260004e+002, 7.028153e+001
9.264825e+002, 7.026077e+001
9.269646e+002, 7.015001e+001
9.274467e+002, 6.997042e+001
9.279288e+002, 6.974032e+001
9.284109e+002, 6.931448e+001
9.288931e+002, 6.919371e+001
9.293752e+002, 6.955727e+001
9.298573e+002, 6.991066e+001
9.303394e+002, 6.953869e+001
9.308215e+002, 6.867757e+001
9.313036e+002, 6.815024e+001
9.317858e+002, 6.805825e+001
9.322679e+002, 6.823090e+001
9.327500e+002, 6.889603e+001
9.332321e+002, 6.951823e+001
9.337142e+002, 6.963982e+001
9.341964e+002, 6.914431e+001
9.346785e+002, 6.877986e+001
9.351606e+002, 6.858943e+001
9.356427e+002, 6.843385e+001
9.361248e+002, 6.823860e+001
9.366069e+002, 6.802392e+001
9.370891e+002, 6.787441e+001
9.375712e+002, 6.777872e+001
9.380533e+002, 6.769148e+001
9.385354e+002, 6.762605e+001
9.390175e+002, 6.752141e+001
9.394996e+002, 6.735048e+001
9.399818e+002, 6.710922e+001
9.404639e+002, 6.675389e+001
9.409460e+002, 6.608315e+001
9.414281e+002, 6.588914e+001
9.419102e+002, 6.647076e+001
9.423923e+002, 6.728246e+001
9.428745e+002, 6.737775e+001
9.433566e+002, 6.697452e+001
9.438387e+002, 6.670107e+001
9.443208e+002, 6.673314e+001
9.448029e+002, 6.682796e+001
9.452850e+002, 6.701920e+001
9.457672e+002, 6.710063e+001
9.462493e+002, 6.682984e+001
9.467314e+002, 6.608321e+001
9.472135e+002, 6.548536e+001
9.476956e+002, 6.501095e+001
9.481777e+002, 6.477509e+001
9.486599e+002, 6.501273e+001
9.491420e+002, 6.552487e+001
9.496241e+002, 6.593095e+001
9.501062e+002, 6.619218e+001
9.505883e+002, 6.612537e+001
9.510704e+002, 6.518525e+001
9.515526e+002, 6.432623e+001
9.520347e+002, 6.410576e+001
9.525168e+002, 6.438118e+001
9.529989e+002, 6.468437e+001
9.534810e+002, 6.505525e+001
9.539631e+002, 6.525412e+001
9.544453e+002, 6.518156e+001
9.549274e+002, 6.495866e+001
9.554095e+002, 6.465299e+001
9.558916e+002, 6.437070e+001
9.563737e+002, 6.436835e+001
9.568558e+002, 6.499033e+001
9.573380e+002, 6.540332e+001
9.578201e+002, 6.519621e+001
9.583022e+002, 6.473382e+001
9.587843e+002, 6.432143e+001
9.592664e+002, 6.394174e+001
9.597485e+002, 6.374517e+001
9.602307e+002, 6.376123e+001
9.607128e+002, 6.377723e+001
9.611949e+002, 6.347865e+001
9.616770e+002, 6.312716e+001
9.621591e+002, 6.326091e+001
9.626412e+002, 6.386206e+001
9.631234e+002, 6.405176e+001
9.636055e+002, 6.292242e+001
9.640876e+002, 6.200093e+001
9.645697e+002, 6.189238e+001
9.650518e+002, 6.240612e+001
9.655339e+002, 6.270498e+001
9.660161e+002, 6.278920e+001
9.664982e+002, 6.289129e+001
9.669803e+002, 6.318052e+001
9.674624e+002, 6.339478e+001
9.679445e+002, 6.309834e+001
9.684266e+002, 6.255700e+001
9.689088e+002, 6.221596e+001
9.693909e+002, 6.257544e+001
9.698730e+002, 6.255370e+001
9.703551e+002, 6.179984e+001
9.708372e+002, 6.101481e+001
9.713193e+002, 6.102350e+001
9.718015e+002, 6.172739e+001
9.722836e+002, 6.220723e+001
9.727657e+002, 6.239025e+001
9.732478e+002, 6.238755e+001
9.737299e+002, 6.213246e+001
9.742120e+002, 6.184624e+001
9.746942e+002, 6.171290e+001
9.751763e+002, 6.175061e+001
9.756584e+002, 6.182738e+001
9.761405e+002, 6.193208e+001
9.766226e+002, 6.209375e+001
9.771047e+002, 6.238226e+001
9.775869e+002, 6.268594e+001
9.780690e+002, 6.267866e+001
9.785511e+002, 6.240583e+001
9.790332e+002, 6.203051e+001
9.795153e+002, 6.149403e+001
9.799974e+002, 6.104583e+001
9.804796e+002, 6.093089e+001
9.809617e+002, 6.093466e+001
9.814438e+002, 6.071247e+001
9.819259e+002, 6.003761e+001
9.824080e+002, 5.986895e+001
9.828901e+002, 6.034510e+001
9.833723e+002, 6.096667e+001
9.838544e+002, 6.125254e+001
9.843365e+002, 6.132111e+001
9.848186e+002, 6.136388e+001
9.853007e+002, 6.140136e+001
9.857828e+002, 6.147628e+001
9.862650e+002, 6.179487e+001
9.867471e+002, 6.194690e+001
9.872292e+002, 6.166938e+001
9.877113e+002, 6.107751e+001
9.881934e+002, 6.081504e+001
9.886755e+002, 6.089665e+001
9.891577e+002, 6.094074e+001
9.896398e+002, 6.076603e+001
9.901219e+002, 6.054433e+001
9.906040e+002, 6.049109e+001
9.910861e+002, 6.053332e+001
9.915682e+002, 6.054647e+001
9.920504e+002, 6.039368e+001
9.925325e+002, 6.038048e+001
9.930146e+002, 6.061554e+001
9.934967e+002, 6.087685e+001
9.939788e+002, 6.088965e+001
9.944609e+002, 6.070641e+001
9.949431e+002, 6.087121e+001
9.954252e+002, 6.141093e+001
9.959073e+002, 6.184419e+001
9.963894e+002, 6.179578e+001
9.968715e+002, 6.153007e+001
9.973536e+002, 6.120344e+001
9.978358e+002, 6.083197e+001
9.983179e+002, 6.044694e+001
9.988000e+002, 6.004308e+001
9.992821e+002, 5.961617e+001
9.997642e+002, 5.908354e+001
1.000246e+003, 5.863803e+001
1.000728e+003, 5.878703e+001
1.001211e+003, 5.933959e+001
1.001693e+003, 5.980137e+001
1.002175e+003, 5.998048e+001
1.002657e+003, 6.014373e+001
1.003139e+003, 6.058021e+001
1.003621e+003, 6.091933e+001
1.004103e+003, 6.077311e+001
1.004585e+003, 6.000454e+001
1.005068e+003, 5.955614e+001
1.005550e+003, 5.944241e+001
1.006032e+003, 5.946888e+001
1.006514e+003, 5.953476e+001
1.006996e+003, 5.962174e+001
1.007478e+003, 5.973507e+001
1.007960e+003, 5.985797e+001
1.008442e+003, 5.990862e+001
1.008924e+003, 5.986288e+001
1.009407e+003, 5.972901e+001
1.009889e+003, 5.945678e+001
1.010371e+003, 5.914320e+001
1.010853e+003, 5.902364e+001
1.011335e+003, 5.906200e+001
1.011817e+003, 5.901909e+001
1.012299e+003, 5.882224e+001
1.012781e+003, 5.861621e+001
1.013263e+003, 5.842423e+001
1.013746e+003, 5.833090e+001
1.014228e+003, 5.847994e+001
1.014710e+003, 5.896937e+001
1.015192e+003, 5.916630e+001
1.015674e+003, 5.900554e+001
1.016156e+003, 5.876122e+001
1.016638e+003, 5.854229e+001
1.017120e+003, 5.838107e+001
1.017603e+003, 5.832258e+001
1.018085e+003, 5.837872e+001
1.018567e+003, 5.859551e+001
1.019049e+003, 5.913630e+001
1.019531e+003, 5.966971e+001
1.020013e+003, 6.018077e+001
1.020495e+003, 6.057650e+001
1.020977e+003, 6.071696e+001
1.021459e+003, 6.059936e+001
1.021942e+003, 6.020773e+001
1.022424e+003, 5.948940e+001
1.022906e+003, 5.888741e+001
1.023388e+003, 5.888404e+001
1.023870e+003, 5.915030e+001
1.024352e+003, 5.942406e+001
1.024834e+003, 5.968517e+001
1.025316e+003, 5.970875e+001
1.025799e+003, 5.934162e+001
1.026281e+003, 5.905019e+001
1.026763e+003, 5.904546e+001
1.027245e+003, 5.922071e+001
1.027727e+003, 5.934466e+001
1.028209e+003, 5.940961e+001
1.028691e+003, 5.937912e+001
1.029173e+003, 5.913891e+001
1.029656e+003, 5.896011e+001
1.030138e+003, 5.902837e+001
1.030620e+003, 5.918523e+001
1.031102e+003, 5.927895e+001
1.031584e+003, 5.931999e+001
1.032066e+003, 5.919410e+001
1.032548e+003, 5.887893e+001
1.033030e+003, 5.857688e+001
1.033512e+003, 5.838062e+001
1.033995e+003, 5.834283e+001
1.034477e+003, 5.871311e+001
1.034959e+003, 5.937935e+001
1.035441e+003, 5.962223e+001
1.035923e+003, 5.884919e+001
1.036405e+003, 5.829765e+001
1.036887e+003, 5.827862e+001
1.037369e+003, 5.852549e+001
1.037851e+003, 5.849044e+001
1.038334e+003, 5.826091e+001
1.038816e+003, 5.819659e+001
1.039298e+003, 5.842297e+001
1.039780e+003, 5.861536e+001
1.040262e+003, 5.847114e+001
1.040744e+003, 5.829397e+001
1.041226e+003, 5.835907e+001
1.041708e+003, 5.869044e+001
1.042191e+003, 5.885302e+001
1.042673e+003, 5.883038e+001
1.043155e+003, 5.880646e+001
1.043637e+003, 5.898672e+001
1.044119e+003, 5.913078e+001
1.044601e+003, 5.879810e+001
1.045083e+003, 5.817619e+001
1.045565e+003, 5.770709e+001
1.046047e+003, 5.763465e+001
1.046530e+003, 5.756509e+001
1.047012e+003, 5.748851e+001
1.047494e+003, 5.736906e+001
1.047976e+003, 5.705334e+001
1.048458e+003, 5.663809e+001
1.048940e+003, 5.669857e+001
1.049422e+003, 5.726265e+001
1.049904e+003, 5.777703e+001
1.050386e+003, 5.793569e+001
1.050869e+003, 5.790359e+001
1.051351e+003, 5.766753e+001
1.051833e+003, 5.731445e+001
1.052315e+003, 5.716332e+001
1.052797e+003, 5.722059e+001
1.053279e+003, 5.751134e+001
1.053761e+003, 5.820739e+001
1.054243e+003, 5.870356e+001
1.054726e+003, 5.783416e+001
1.055208e+003, 5.645183e+001
1.055690e+003, 5.582820e+001
1.056172e+003, 5.657232e+001
1.056654e+003, 5.692223e+001
1.057136e+003, 5.657295e+001
1.057618e+003, 5.610819e+001
1.058100e+003, 5.585317e+001
1.058583e+003, 5.576749e+001
1.059065e+003, 5.572510e+001
1.059547e+003, 5.571474e+001
1.060029e+003, 5.568348e+001
1.060511e+003, 5.560634e+001
1.060993e+003, 5.550173e+001
1.061475e+003, 5.529467e+001
1.061957e+003, 5.510915e+001
1.062439e+003, 5.516302e+001
1.062922e+003, 5.550670e+001
1.063404e+003, 5.559843e+001
1.063886e+003, 5.537152e+001
1.064368e+003, 5.512854e+001
1.064850e+003, 5.504200e+001
1.065332e+003, 5.514177e+001
1.065814e+003, 5.564286e+001
1.066296e+003, 5.648279e+001
1.066778e+003, 5.676481e+001
1.067261e+003, 5.611652e+001
1.067743e+003, 5.563265e+001
1.068225e+003, 5.566624e+001
1.068707e+003, 5.588329e+001
1.069189e+003, 5.563251e+001
1.069671e+003, 5.508492e+001
1.070153e+003, 5.463622e+001
1.070635e+003, 5.439624e+001
1.071118e+003, 5.422016e+001
1.071600e+003, 5.401958e+001
1.072082e+003, 5.391298e+001
1.072564e+003, 5.403321e+001
1.073046e+003, 5.434307e+001
1.073528e+003, 5.429026e+001
1.074010e+003, 5.390880e+001
1.074492e+003, 5.367483e+001
1.074974e+003, 5.398823e+001
1.075457e+003, 5.437832e+001
1.075939e+003, 5.460886e+001
1.076421e+003, 5.464038e+001
1.076903e+003, 5.435067e+001
1.077385e+003, 5.349244e+001
1.077867e+003, 5.316077e+001
1.078349e+003, 5.351752e+001
1.078831e+003, 5.391484e+001
1.079313e+003, 5.365336e+001
1.079796e+003, 5.310388e+001
1.080278e+003, 5.282809e+001
1.080760e+003, 5.281525e+001
1.081242e+003, 5.278923e+001
1.081724e+003, 5.246471e+001
1.082206e+003, 5.242221e+001
1.082688e+003, 5.290822e+001
1.083170e+003, 5.357350e+001
1.083652e+003, 5.371429e+001
1.084135e+003, 5.347075e+001
1.084617e+003, 5.343316e+001
1.085099e+003, 5.376864e+001
1.085581e+003, 5.387794e+001
1.086063e+003, 5.304608e+001
1.086545e+003, 5.221547e+001
1.087027e+003, 5.202763e+001
1.087509e+003, 5.240779e+001
1.087992e+003, 5.253880e+001
1.088474e+003, 5.241751e+001
1.088956e+003, 5.232357e+001
1.089438e+003, 5.233433e+001
1.089920e+003, 5.248247e+001
1.090402e+003, 5.311483e+001
1.090884e+003, 5.376817e+001
1.091366e+003, 5.372790e+001
1.091849e+003, 5.244445e+001
1.092331e+003, 5.178974e+001
1.092813e+003, 5.193223e+001
1.093295e+003, 5.213282e+001
1.093777e+003, 5.169625e+001
1.094259e+003, 5.102392e+001
1.094741e+003, 5.093473e+001
1.095223e+003, 5.128394e+001
1.095705e+003, 5.153804e+001
1.096188e+003, 5.149158e+001
1.096670e+003, 5.131864e+001
1.097152e+003, 5.097124e+001
1.097634e+003, 5.061939e+001
1.098116e+003, 5.042213e+001
1.098598e+003, 5.040190e+001
1.099080e+003, 5.085907e+001
1.099562e+003, 5.180665e+001
1.100044e+003, 5.231097e+001
1.100527e+003, 5.120830e+001
1.101009e+003, 5.010085e+001
1.101491e+003, 4.995882e+001
1.101973e+003, 5.048103e+001
1.102455e+003, 5.073307e+001
1.102937e+003, 5.071342e+001
1.103419e+003, 5.081189e+001
1.103901e+003, 5.118525e+001
1.104384e+003, 5.145392e+001
1.104866e+003, 5.105658e+001
1.105348e+003, 5.049294e+001
1.105830e+003, 5.028160e+001
1.106312e+003, 5.052132e+001
1.106794e+003, 5.072846e+001
1.107276e+003, 5.089443e+001
1.107758e+003, 5.107452e+001
1.108240e+003, 5.137096e+001
1.108723e+003, 5.160223e+001
1.109205e+003, 5.137966e+001
1.109687e+003, 5.090380e+001
1.110169e+003, 5.056913e+001
1.110651e+003, 5.065507e+001
1.111133e+003, 5.054705e+001
1.111615e+003, 5.009940e+001
1.112097e+003, 4.963953e+001
1.112579e+003, 4.948643e+001
1.113062e+003, 4.951896e+001
1.113544e+003, 4.914670e+001
1.114026e+003, 4.850640e+001
1.114508e+003, 4.828949e+001
1.114990e+003, 4.947548e+001
1.115472e+003, 5.032797e+001
1.115954e+003, 5.009275e+001
1.116436e+003, 4.941967e+001
1.116919e+003, 4.911003e+001
1.117401e+003, 4.913673e+001
1.117883e+003, 4.919378e+001
1.118365e+003, 4.925501e+001
1.118847e+003, 4.918106e+001
1.119329e+003, 4.857563e+001
1.119811e+003, 4.807916e+001
1.120293e+003, 4.831286e+001
1.120776e+003, 4.900866e+001
1.121258e+003, 4.921065e+001
1.121740e+003, 4.886610e+001
1.122222e+003, 4.849352e+001
1.122704e+003, 4.814923e+001
1.123186e+003, 4.802765e+001
1.123668e+003, 4.863527e+001
1.124150e+003, 4.936811e+001
1.124632e+003, 4.951184e+001
1.125115e+003, 4.891113e+001
1.125597e+003, 4.860284e+001
1.126079e+003, 4.871102e+001
1.126561e+003, 4.873065e+001
1.127043e+003, 4.843385e+001
1.127525e+003, 4.800728e+001
1.128007e+003, 4.764072e+001
1.128489e+003, 4.740150e+001
1.128971e+003, 4.746319e+001
1.129454e+003, 4.811697e+001
1.129936e+003, 4.833810e+001
1.130418e+003, 4.774468e+001
1.130900e+003, 4.728495e+001
1.131382e+003, 4.767827e+001
1.131864e+003, 4.858185e+001
1.132346e+003, 4.906128e+001
1.132828e+003, 4.914874e+001
1.133311e+003, 4.895037e+001
1.133793e+003, 4.810321e+001
1.134275e+003, 4.752290e+001
1.134757e+003, 4.747299e+001
1.135239e+003, 4.768026e+001
1.135721e+003, 4.801569e+001
1.136203e+003, 4.842631e+001
1.136685e+003, 4.836859e+001
1.137167e+003, 4.787995e+001
1.137650e+003, 4.752815e+001
1.138132e+003, 4.792631e+001
1.138614e+003, 4.824734e+001
1.139096e+003, 4.794350e+001
1.139578e+003, 4.736811e+001
1.140060e+003, 4.709957e+001
1.140542e+003, 4.714471e+001
1.141024e+003, 4.703054e+001
1.141506e+003, 4.669185e+001
1.141989e+003, 4.651124e+001
1.142471e+003, 4.691948e+001
1.142953e+003, 4.749250e+001
1.143435e+003, 4.803494e+001
1.143917e+003, 4.846721e+001
1.144399e+003, 4.850454e+001
1.144881e+003, 4.808459e+001
1.145363e+003, 4.768701e+001
1.145846e+003, 4.742273e+001
1.146328e+003, 4.720516e+001
1.146810e+003, 4.695378e+001
1.147292e+003, 4.669582e+001
1.147774e+003, 4.643789e+001
1.148256e+003, 4.618033e+001
1.148738e+003, 4.601432e+001
1.149220e+003, 4.590521e+001
1.149703e+003, 4.605403e+001
1.150185e+003, 4.666703e+001
1.150667e+003, 4.730074e+001
1.151149e+003, 4.726984e+001
1.151631e+003, 4.682283e+001
1.152113e+003, 4.631335e+001
1.152595e+003, 4.573638e+001
1.153077e+003, 4.540259e+001
1.153559e+003, 4.534619e+001
1.154042e+003, 4.548781e+001
1.154524e+003, 4.591456e+001
1.155006e+003, 4.640295e+001
1.155488e+003, 4.638124e+001
1.155970e+003, 4.602196e+001
1.156452e+003, 4.574575e+001
1.156934e+003, 4.576716e+001
1.157416e+003, 4.572719e+001
1.157898e+003, 4.550949e+001
1.158381e+003, 4.533807e+001
1.158863e+003, 4.544781e+001
1.159345e+003, 4.574134e+001
1.159827e+003, 4.575734e+001
1.160309e+003, 4.558141e+001
1.160791e+003, 4.556144e+001
1.161273e+003, 4.614185e+001
1.161755e+003, 4.651339e+001
1.162238e+003, 4.640916e+001
1.162720e+003, 4.609751e+001
1.163202e+003, 4.582450e+001
1.163684e+003, 4.558807e+001
1.164166e+003, 4.526493e+001
1.164648e+003, 4.489316e+001
1.165130e+003, 4.488647e+001
1.165612e+003, 4.604163e+001
1.166094e+003, 4.695900e+001
1.166577e+003, 4.683117e+001
1.167059e+003, 4.625643e+001
1.167541e+003, 4.619122e+001
1.168023e+003, 4.658171e+001
1.168505e+003, 4.671801e+001
1.168987e+003, 4.652702e+001
1.169469e+003, 4.629634e+001
1.169951e+003, 4.624524e+001
1.170433e+003, 4.619622e+001
1.170916e+003, 4.599043e+001
1.171398e+003, 4.571692e+001
1.171880e+003, 4.564428e+001
1.172362e+003, 4.576762e+001
1.172844e+003, 4.567916e+001
1.173326e+003, 4.526125e+001
1.173808e+003, 4.495220e+001
1.174290e+003, 4.517891e+001
1.174773e+003, 4.561067e+001
1.175255e+003, 4.610029e+001
1.175737e+003, 4.658400e+001
1.176219e+003, 4.668669e+001
1.176701e+003, 4.638774e+001
1.177183e+003, 4.617567e+001
1.177665e+003, 4.621893e+001
1.178147e+003, 4.625450e+001
1.178630e+003, 4.590161e+001
1.179112e+003, 4.550840e+001
1.179594e+003, 4.551591e+001
1.180076e+003, 4.593792e+001
1.180558e+003, 4.584095e+001
1.181040e+003, 4.513426e+001
1.181522e+003, 4.485104e+001
1.182004e+003, 4.562411e+001
1.182486e+003, 4.646422e+001
1.182969e+003, 4.610010e+001
1.183451e+003, 4.529783e+001
1.183933e+003, 4.505031e+001
1.184415e+003, 4.559045e+001
1.184897e+003, 4.574454e+001
1.185379e+003, 4.546825e+001
1.185861e+003, 4.507391e+001
1.186343e+003, 4.461489e+001
1.186825e+003, 4.426531e+001
1.187308e+003, 4.417353e+001
1.187790e+003, 4.435525e+001
1.188272e+003, 4.494997e+001
1.188754e+003, 4.647051e+001
1.189236e+003, 4.666952e+001
1.189718e+003, 4.526809e+001
1.190200e+003, 4.398128e+001
1.190682e+003, 4.412324e+001
1.191165e+003, 4.483369e+001
1.191647e+003, 4.512237e+001
1.192129e+003, 4.510817e+001
1.192611e+003, 4.501465e+001
1.193093e+003, 4.474854e+001
1.193575e+003, 4.472577e+001
1.194057e+003, 4.499011e+001
1.194539e+003, 4.534492e+001
1.195021e+003, 4.582136e+001
1.195504e+003, 4.616992e+001
1.195986e+003, 4.583392e+001
1.196468e+003, 4.508441e+001
1.196950e+003, 4.475695e+001
1.197432e+003, 4.537432e+001
1.197914e+003, 4.547017e+001
1.198396e+003, 4.480719e+001
1.198878e+003, 4.415786e+001
1.199360e+003, 4.439926e+001
1.199843e+003, 4.502399e+001
1.200325e+003, 4.532115e+001
1.200807e+003, 4.533767e+001
1.201289e+003, 4.539410e+001
1.201771e+003, 4.570809e+001
1.202253e+003, 4.565296e+001
1.202735e+003, 4.505334e+001
1.203217e+003, 4.442020e+001
1.203700e+003, 4.437688e+001
1.204182e+003, 4.462817e+001
1.204664e+003, 4.472401e+001
1.205146e+003, 4.468060e+001
1.205628e+003, 4.485545e+001
1.206110e+003, 4.560058e+001
1.206592e+003, 4.583385e+001
1.207074e+003, 4.525831e+001
1.207557e+003, 4.449172e+001
1.208039e+003, 4.421418e+001
1.208521e+003, 4.429226e+001
1.209003e+003, 4.470684e+001
1.209485e+003, 4.540275e+001
1.209967e+003, 4.560289e+001
1.210449e+003, 4.500639e+001
1.210931e+003, 4.443511e+001
1.211413e+003, 4.400842e+001
1.211896e+003, 4.379729e+001
1.212378e+003, 4.401466e+001
1.212860e+003, 4.443666e+001
1.213342e+003, 4.474083e+001
1.213824e+003, 4.489250e+001
1.214306e+003, 4.503114e+001
1.214788e+003, 4.514278e+001
1.215270e+003, 4.536920e+001
1.215752e+003, 4.584983e+001
1.216235e+003, 4.620264e+001
1.216717e+003, 4.564776e+001
1.217199e+003, 4.472696e+001
1.217681e+003, 4.420813e+001
1.218163e+003, 4.421510e+001
1.218645e+003, 4.444830e+001
1.219127e+003, 4.498262e+001
1.219609e+003, 4.540562e+001
1.220092e+003, 4.560109e+001
1.220574e+003, 4.559979e+001
1.221056e+003, 4.527967e+001
1.221538e+003, 4.487693e+001
1.222020e+003, 4.478360e+001
1.222502e+003, 4.512487e+001
1.222984e+003, 4.523397e+001
1.223466e+003, 4.504153e+001
1.223948e+003, 4.471324e+001
1.224431e+003, 4.414977e+001
1.224913e+003, 4.380566e+001
1.225395e+003, 4.480972e+001
1.225877e+003, 4.622786e+001
1.226359e+003, 4.665169e+001
1.226841e+003, 4.553351e+001
1.227323e+003, 4.515448e+001
1.227805e+003, 4.576203e+001
1.228287e+003, 4.613034e+001
1.228770e+003, 4.561281e+001
1.229252e+003, 4.485411e+001
1.229734e+003, 4.470724e+001
1.230216e+003, 4.489362e+001
1.230698e+003, 4.505980e+001
1.231180e+003, 4.515722e+001
1.231662e+003, 4.518938e+001
1.232144e+003, 4.513181e+001
1.232627e+003, 4.517144e+001
1.233109e+003, 4.550822e+001
1.233591e+003, 4.578988e+001
1.234073e+003, 4.548145e+001
1.234555e+003, 4.491729e+001
1.235037e+003, 4.451929e+001
1.235519e+003, 4.431190e+001
1.236001e+003, 4.446503e+001
1.236484e+003, 4.504193e+001
1.236966e+003, 4.538471e+001
1.237448e+003, 4.493579e+001
1.237930e+003, 4.445699e+001
1.238412e+003, 4.497141e+001
1.238894e+003, 4.579775e+001
1.239376e+003, 4.589592e+001
1.239858e+003, 4.506615e+001
1.240340e+003, 4.491573e+001
1.240823e+003, 4.548460e+001
1.241305e+003, 4.585437e+001
1.241787e+003, 4.539204e+001
1.242269e+003, 4.473881e+001
1.242751e+003, 4.420695e+001
1.243233e+003, 4.395211e+001
1.243715e+003, 4.427535e+001
1.244197e+003, 4.528263e+001
1.244679e+003, 4.554923e+001
1.245162e+003, 4.509275e+001
1.245644e+003, 4.466705e+001
1.246126e+003, 4.468817e+001
1.246608e+003, 4.485986e+001
1.247090e+003, 4.510685e+001
1.247572e+003, 4.531269e+001
1.248054e+003, 4.532946e+001
1.248536e+003, 4.514795e+001
1.249019e+003, 4.510558e+001
1.249501e+003, 4.518940e+001
1.249983e+003, 4.524866e+001
1.250465e+003, 4.504870e+001
1.250947e+003, 4.499419e+001
1.251429e+003, 4.553442e+001
1.251911e+003, 4.612767e+001
1.252393e+003, 4.618388e+001
1.252875e+003, 4.574862e+001
1.253358e+003, 4.586232e+001
1.253840e+003, 4.641602e+001
1.254322e+003, 4.669156e+001
1.254804e+003, 4.595789e+001
1.255286e+003, 4.534801e+001
1.255768e+003, 4.548435e+001
1.256250e+003, 4.565092e+001
1.256732e+003, 4.501234e+001
1.257214e+003, 4.382648e+001
1.257697e+003, 4.386060e+001
1.258179e+003, 4.487922e+001
1.258661e+003, 4.576322e+001
1.259143e+003, 4.597791e+001
1.259625e+003, 4.603972e+001
1.260107e+003, 4.601139e+001
1.260589e+003, 4.594722e+001
1.261071e+003, 4.595912e+001
1.261554e+003, 4.595755e+001
1.262036e+003, 4.547324e+001
1.262518e+003, 4.470470e+001
1.263000e+003, 4.431520e+001
1.263482e+003, 4.496301e+001
1.263964e+003, 4.537636e+001
1.264446e+003, 4.540150e+001
1.264928e+003, 4.528220e+001
1.265411e+003, 4.518901e+001
1.265893e+003, 4.510902e+001
1.266375e+003, 4.493047e+001
1.266857e+003, 4.474824e+001
1.267339e+003, 4.482916e+001
1.267821e+003, 4.569732e+001
1.268303e+003, 4.592608e+001
1.268785e+003, 4.534771e+001
1.269267e+003, 4.465760e+001
1.269750e+003, 4.435840e+001
1.270232e+003, 4.430798e+001
1.270714e+003, 4.434758e+001
1.271196e+003, 4.448390e+001
1.271678e+003, 4.476265e+001
1.272160e+003, 4.527499e+001
1.272642e+003, 4.563409e+001
1.273124e+003, 4.582775e+001
1.273606e+003, 4.587244e+001
1.274089e+003, 4.566231e+001
1.274571e+003, 4.542090e+001
1.275053e+003, 4.526012e+001
1.275535e+003, 4.525267e+001
1.276017e+003, 4.558125e+001
1.276499e+003, 4.637500e+001
1.276981e+003, 4.657336e+001
1.277463e+003, 4.616204e+001
1.277946e+003, 4.551775e+001
1.278428e+003, 4.459111e+001
1.278910e+003, 4.384388e+001
1.279392e+003, 4.355820e+001
1.279874e+003, 4.364530e+001
1.280356e+003, 4.407473e+001
1.280838e+003, 4.482896e+001
1.281320e+003, 4.546464e+001
1.281802e+003, 4.595024e+001
1.282285e+003, 4.612031e+001
1.282767e+003, 4.545404e+001
1.283249e+003, 4.502351e+001
1.283731e+003, 4.543895e+001
1.284213e+003, 4.599876e+001
1.284695e+003, 4.604395e+001
1.285177e+003, 4.570392e+001
1.285659e+003, 4.560666e+001
1.286141e+003, 4.570276e+001
1.286624e+003, 4.577021e+001
1.287106e+003, 4.562316e+001
1.287588e+003, 4.559380e+001
1.288070e+003, 4.579331e+001
1.288552e+003, 4.596743e+001
1.289034e+003, 4.581940e+001
1.289516e+003, 4.553269e+001
1.289998e+003, 4.553072e+001
1.290481e+003, 4.573680e+001
1.290963e+003, 4.594958e+001
1.291445e+003, 4.607160e+001
1.291927e+003, 4.633132e+001
1.292409e+003, 4.682524e+001
1.292891e+003, 4.707937e+001
1.293373e+003, 4.656989e+001
1.293855e+003, 4.577778e+001
1.294338e+003, 4.507637e+001
1.294820e+003, 4.461379e+001
1.295302e+003, 4.476882e+001
1.295784e+003, 4.574517e+001
1.296266e+003, 4.645033e+001
1.296748e+003, 4.687906e+001
1.297230e+003, 4.713292e+001
1.297712e+003, 4.743547e+001
1.298194e+003, 4.739592e+001
1.298677e+003, 4.615434e+001
1.299159e+003, 4.476110e+001
1.299641e+003, 4.458110e+001
1.300123e+003, 4.565387e+001
1.300605e+003, 4.607420e+001
1.301087e+003, 4.592609e+001
1.301569e+003, 4.599079e+001
1.302051e+003, 4.703187e+001
1.302533e+003, 4.775541e+001
1.303016e+003, 4.771422e+001
##END=



