##NAMES=Rutile
##RRUFFID=R120008
##IDEAL CHEMISTRY=Ti^4+^O_2_
##LOCALITY=Golconda, Minas Gerais, Brazil
##OWNER=RRUFF
##SOURCE=Rob Lavinsky
##DESCRIPTION=Black fragments, variety struverite
##STATUS=The identification of this mineral has been confirmed by single-crystal X-ray diffraction.
##URL=rruff.info/R120008
9.112140e+001, 0.000000e+000
9.160352e+001, 6.426352e+002
9.208563e+001, 6.421880e+002
9.256775e+001, 6.421217e+002
9.304987e+001, 6.423849e+002
9.353198e+001, 6.432164e+002
9.401410e+001, 6.375715e+002
9.449622e+001, 6.256901e+002
9.497833e+001, 6.100507e+002
9.546045e+001, 5.923841e+002
9.594257e+001, 5.725795e+002
9.642468e+001, 5.548024e+002
9.690680e+001, 5.391385e+002
9.738892e+001, 5.254162e+002
9.787103e+001, 5.143746e+002
9.835315e+001, 5.048555e+002
9.883527e+001, 4.949004e+002
9.931738e+001, 4.837940e+002
9.979950e+001, 4.710159e+002
1.002816e+002, 4.593919e+002
1.007637e+002, 4.483230e+002
1.012458e+002, 4.382881e+002
1.017280e+002, 4.298074e+002
1.022101e+002, 4.228805e+002
1.026922e+002, 4.173044e+002
1.031743e+002, 4.129821e+002
1.036564e+002, 4.096874e+002
1.041385e+002, 4.071472e+002
1.046207e+002, 4.056158e+002
1.051028e+002, 4.048146e+002
1.055849e+002, 4.038802e+002
1.060670e+002, 4.028135e+002
1.065491e+002, 4.009922e+002
1.070313e+002, 3.979164e+002
1.075134e+002, 3.934681e+002
1.079955e+002, 3.882074e+002
1.084776e+002, 3.823883e+002
1.089597e+002, 3.757003e+002
1.094418e+002, 3.697558e+002
1.099240e+002, 3.649688e+002
1.104061e+002, 3.610459e+002
1.108882e+002, 3.579886e+002
1.113703e+002, 3.558178e+002
1.118524e+002, 3.543106e+002
1.123345e+002, 3.528644e+002
1.128167e+002, 3.511871e+002
1.132988e+002, 3.500244e+002
1.137809e+002, 3.497959e+002
1.142630e+002, 3.500369e+002
1.147451e+002, 3.501842e+002
1.152272e+002, 3.498900e+002
1.157094e+002, 3.491655e+002
1.161915e+002, 3.482634e+002
1.166736e+002, 3.475136e+002
1.171557e+002, 3.462978e+002
1.176378e+002, 3.442060e+002
1.181199e+002, 3.413873e+002
1.186021e+002, 3.383079e+002
1.190842e+002, 3.352089e+002
1.195663e+002, 3.321339e+002
1.200484e+002, 3.300370e+002
1.205305e+002, 3.291931e+002
1.210126e+002, 3.291051e+002
1.214948e+002, 3.297260e+002
1.219769e+002, 3.311681e+002
1.224590e+002, 3.322837e+002
1.229411e+002, 3.317537e+002
1.234232e+002, 3.299183e+002
1.239053e+002, 3.273730e+002
1.243875e+002, 3.238800e+002
1.248696e+002, 3.197867e+002
1.253517e+002, 3.160232e+002
1.258338e+002, 3.125174e+002
1.263159e+002, 3.096882e+002
1.267980e+002, 3.077926e+002
1.272802e+002, 3.067267e+002
1.277623e+002, 3.060227e+002
1.282444e+002, 3.054208e+002
1.287265e+002, 3.049508e+002
1.292086e+002, 3.042989e+002
1.296907e+002, 3.035539e+002
1.301729e+002, 3.025190e+002
1.306550e+002, 3.010265e+002
1.311371e+002, 2.990833e+002
1.316192e+002, 2.968677e+002
1.321013e+002, 2.945663e+002
1.325834e+002, 2.918779e+002
1.330656e+002, 2.897113e+002
1.335477e+002, 2.884395e+002
1.340298e+002, 2.873867e+002
1.345119e+002, 2.859439e+002
1.349940e+002, 2.839332e+002
1.354761e+002, 2.817210e+002
1.359583e+002, 2.801642e+002
1.364404e+002, 2.797301e+002
1.369225e+002, 2.794345e+002
1.374046e+002, 2.793847e+002
1.378867e+002, 2.794166e+002
1.383688e+002, 2.793905e+002
1.388510e+002, 2.793077e+002
1.393331e+002, 2.789736e+002
1.398152e+002, 2.777336e+002
1.402973e+002, 2.753783e+002
1.407794e+002, 2.726804e+002
1.412615e+002, 2.696058e+002
1.417437e+002, 2.663231e+002
1.422258e+002, 2.635507e+002
1.427079e+002, 2.618021e+002
1.431900e+002, 2.608205e+002
1.436721e+002, 2.598907e+002
1.441542e+002, 2.589757e+002
1.446364e+002, 2.581118e+002
1.451185e+002, 2.574003e+002
1.456006e+002, 2.568887e+002
1.460827e+002, 2.562383e+002
1.465648e+002, 2.551186e+002
1.470469e+002, 2.538095e+002
1.475291e+002, 2.525797e+002
1.480112e+002, 2.515325e+002
1.484933e+002, 2.506103e+002
1.489754e+002, 2.497083e+002
1.494575e+002, 2.489031e+002
1.499396e+002, 2.479630e+002
1.504218e+002, 2.466013e+002
1.509039e+002, 2.451249e+002
1.513860e+002, 2.439804e+002
1.518681e+002, 2.434842e+002
1.523502e+002, 2.435351e+002
1.528323e+002, 2.432773e+002
1.533145e+002, 2.422977e+002
1.537966e+002, 2.413835e+002
1.542787e+002, 2.408264e+002
1.547608e+002, 2.404559e+002
1.552429e+002, 2.399140e+002
1.557250e+002, 2.388996e+002
1.562072e+002, 2.373774e+002
1.566893e+002, 2.359023e+002
1.571714e+002, 2.342565e+002
1.576535e+002, 2.328291e+002
1.581356e+002, 2.317992e+002
1.586177e+002, 2.311516e+002
1.590999e+002, 2.307737e+002
1.595820e+002, 2.306330e+002
1.600641e+002, 2.307982e+002
1.605462e+002, 2.305113e+002
1.610283e+002, 2.292482e+002
1.615104e+002, 2.279132e+002
1.619926e+002, 2.273694e+002
1.624747e+002, 2.277176e+002
1.629568e+002, 2.280742e+002
1.634389e+002, 2.273406e+002
1.639210e+002, 2.255836e+002
1.644031e+002, 2.241788e+002
1.648853e+002, 2.236280e+002
1.653674e+002, 2.234843e+002
1.658495e+002, 2.231434e+002
1.663316e+002, 2.225299e+002
1.668137e+002, 2.216746e+002
1.672958e+002, 2.203192e+002
1.677780e+002, 2.186369e+002
1.682601e+002, 2.174188e+002
1.687422e+002, 2.173627e+002
1.692243e+002, 2.181610e+002
1.697064e+002, 2.185578e+002
1.701885e+002, 2.182147e+002
1.706707e+002, 2.176890e+002
1.711528e+002, 2.174675e+002
1.716349e+002, 2.174520e+002
1.721170e+002, 2.172168e+002
1.725991e+002, 2.161594e+002
1.730812e+002, 2.142076e+002
1.735634e+002, 2.129898e+002
1.740455e+002, 2.135181e+002
1.745276e+002, 2.140898e+002
1.750097e+002, 2.139588e+002
1.754918e+002, 2.131487e+002
1.759739e+002, 2.121418e+002
1.764561e+002, 2.114962e+002
1.769382e+002, 2.113851e+002
1.774203e+002, 2.110239e+002
1.779024e+002, 2.101113e+002
1.783845e+002, 2.092103e+002
1.788666e+002, 2.086809e+002
1.793488e+002, 2.085352e+002
1.798309e+002, 2.084941e+002
1.803130e+002, 2.081793e+002
1.807951e+002, 2.074449e+002
1.812772e+002, 2.067419e+002
1.817593e+002, 2.059466e+002
1.822415e+002, 2.052553e+002
1.827236e+002, 2.049155e+002
1.832057e+002, 2.049534e+002
1.836878e+002, 2.050692e+002
1.841699e+002, 2.047878e+002
1.846520e+002, 2.037487e+002
1.851342e+002, 2.030295e+002
1.856163e+002, 2.029649e+002
1.860984e+002, 2.030982e+002
1.865805e+002, 2.029031e+002
1.870626e+002, 2.022117e+002
1.875447e+002, 2.013220e+002
1.880269e+002, 2.007542e+002
1.885090e+002, 2.005868e+002
1.889911e+002, 2.003495e+002
1.894732e+002, 1.997151e+002
1.899553e+002, 1.989775e+002
1.904374e+002, 1.987963e+002
1.909196e+002, 1.995753e+002
1.914017e+002, 2.004779e+002
1.918838e+002, 2.001032e+002
1.923659e+002, 1.983729e+002
1.928480e+002, 1.968661e+002
1.933301e+002, 1.963707e+002
1.938123e+002, 1.967008e+002
1.942944e+002, 1.972412e+002
1.947765e+002, 1.981037e+002
1.952586e+002, 1.987784e+002
1.957407e+002, 1.987554e+002
1.962228e+002, 1.980262e+002
1.967050e+002, 1.970930e+002
1.971871e+002, 1.961973e+002
1.976692e+002, 1.953479e+002
1.981513e+002, 1.947447e+002
1.986334e+002, 1.945317e+002
1.991155e+002, 1.945189e+002
1.995977e+002, 1.946541e+002
2.000798e+002, 1.949143e+002
2.005619e+002, 1.951269e+002
2.010440e+002, 1.950228e+002
2.015261e+002, 1.945064e+002
2.020082e+002, 1.943235e+002
2.024904e+002, 1.952252e+002
2.029725e+002, 1.960152e+002
2.034546e+002, 1.958808e+002
2.039367e+002, 1.948215e+002
2.044188e+002, 1.936293e+002
2.049009e+002, 1.934390e+002
2.053831e+002, 1.948206e+002
2.058652e+002, 1.954330e+002
2.063473e+002, 1.944684e+002
2.068294e+002, 1.933277e+002
2.073115e+002, 1.928115e+002
2.077936e+002, 1.930442e+002
2.082758e+002, 1.936305e+002
2.087579e+002, 1.940335e+002
2.092400e+002, 1.941702e+002
2.097221e+002, 1.942869e+002
2.102042e+002, 1.945117e+002
2.106863e+002, 1.946352e+002
2.111685e+002, 1.943736e+002
2.116506e+002, 1.937345e+002
2.121327e+002, 1.931046e+002
2.126148e+002, 1.930577e+002
2.130969e+002, 1.939294e+002
2.135790e+002, 1.947467e+002
2.140612e+002, 1.956451e+002
2.145433e+002, 1.964122e+002
2.150254e+002, 1.968556e+002
2.155075e+002, 1.969358e+002
2.159896e+002, 1.968051e+002
2.164717e+002, 1.966691e+002
2.169539e+002, 1.965385e+002
2.174360e+002, 1.963656e+002
2.179181e+002, 1.958921e+002
2.184002e+002, 1.955024e+002
2.188823e+002, 1.957010e+002
2.193644e+002, 1.966143e+002
2.198466e+002, 1.977034e+002
2.203287e+002, 1.982146e+002
2.208108e+002, 1.980520e+002
2.212929e+002, 1.978945e+002
2.217750e+002, 1.978709e+002
2.222571e+002, 1.978842e+002
2.227393e+002, 1.977709e+002
2.232214e+002, 1.974733e+002
2.237035e+002, 1.971937e+002
2.241856e+002, 1.972270e+002
2.246677e+002, 1.975440e+002
2.251498e+002, 1.978865e+002
2.256320e+002, 1.982271e+002
2.261141e+002, 1.985441e+002
2.265962e+002, 1.988027e+002
2.270783e+002, 1.989961e+002
2.275604e+002, 1.991329e+002
2.280425e+002, 1.990867e+002
2.285247e+002, 1.989294e+002
2.290068e+002, 1.990572e+002
2.294889e+002, 1.999503e+002
2.299710e+002, 2.012059e+002
2.304531e+002, 2.018747e+002
2.309352e+002, 2.016791e+002
2.314174e+002, 2.012647e+002
2.318995e+002, 2.010820e+002
2.323816e+002, 2.010782e+002
2.328637e+002, 2.011284e+002
2.333458e+002, 2.011835e+002
2.338279e+002, 2.012468e+002
2.343101e+002, 2.013002e+002
2.347922e+002, 2.012323e+002
2.352743e+002, 2.013625e+002
2.357564e+002, 2.019443e+002
2.362385e+002, 2.028229e+002
2.367206e+002, 2.037103e+002
2.372028e+002, 2.045635e+002
2.376849e+002, 2.053002e+002
2.381670e+002, 2.054845e+002
2.386491e+002, 2.045217e+002
2.391312e+002, 2.039102e+002
2.396133e+002, 2.045185e+002
2.400955e+002, 2.058095e+002
2.405776e+002, 2.068808e+002
2.410597e+002, 2.071628e+002
2.415418e+002, 2.068109e+002
2.420239e+002, 2.065640e+002
2.425060e+002, 2.064890e+002
2.429882e+002, 2.064352e+002
2.434703e+002, 2.062307e+002
2.439524e+002, 2.060391e+002
2.444345e+002, 2.061309e+002
2.449166e+002, 2.067061e+002
2.453987e+002, 2.076320e+002
2.458809e+002, 2.082772e+002
2.463630e+002, 2.085539e+002
2.468451e+002, 2.086169e+002
2.473272e+002, 2.081675e+002
2.478093e+002, 2.076265e+002
2.482914e+002, 2.076217e+002
2.487736e+002, 2.085381e+002
2.492557e+002, 2.100572e+002
2.497378e+002, 2.108589e+002
2.502199e+002, 2.101565e+002
2.507020e+002, 2.096727e+002
2.511841e+002, 2.098538e+002
2.516663e+002, 2.102984e+002
2.521484e+002, 2.105256e+002
2.526305e+002, 2.103031e+002
2.531126e+002, 2.097409e+002
2.535947e+002, 2.091727e+002
2.540768e+002, 2.085607e+002
2.545590e+002, 2.079997e+002
2.550411e+002, 2.074131e+002
2.555232e+002, 2.069100e+002
2.560053e+002, 2.066299e+002
2.564874e+002, 2.066321e+002
2.569695e+002, 2.068242e+002
2.574517e+002, 2.069825e+002
2.579338e+002, 2.071587e+002
2.584159e+002, 2.072260e+002
2.588980e+002, 2.071572e+002
2.593801e+002, 2.069901e+002
2.598622e+002, 2.066819e+002
2.603444e+002, 2.062265e+002
2.608265e+002, 2.058171e+002
2.613086e+002, 2.058378e+002
2.617907e+002, 2.068608e+002
2.622728e+002, 2.073997e+002
2.627549e+002, 2.069795e+002
2.632371e+002, 2.062895e+002
2.637192e+002, 2.060595e+002
2.642013e+002, 2.064761e+002
2.646834e+002, 2.071406e+002
2.651655e+002, 2.074585e+002
2.656476e+002, 2.072246e+002
2.661298e+002, 2.071173e+002
2.666119e+002, 2.072432e+002
2.670940e+002, 2.074503e+002
2.675761e+002, 2.076430e+002
2.680582e+002, 2.077960e+002
2.685403e+002, 2.078440e+002
2.690225e+002, 2.077113e+002
2.695046e+002, 2.073692e+002
2.699867e+002, 2.068941e+002
2.704688e+002, 2.059252e+002
2.709509e+002, 2.050515e+002
2.714330e+002, 2.049679e+002
2.719152e+002, 2.057101e+002
2.723973e+002, 2.064628e+002
2.728794e+002, 2.064120e+002
2.733615e+002, 2.054763e+002
2.738436e+002, 2.047303e+002
2.743257e+002, 2.039759e+002
2.748079e+002, 2.035627e+002
2.752900e+002, 2.040452e+002
2.757721e+002, 2.053694e+002
2.762542e+002, 2.065350e+002
2.767363e+002, 2.067123e+002
2.772184e+002, 2.059920e+002
2.777006e+002, 2.056086e+002
2.781827e+002, 2.056550e+002
2.786648e+002, 2.059688e+002
2.791469e+002, 2.067230e+002
2.796290e+002, 2.078086e+002
2.801111e+002, 2.083894e+002
2.805933e+002, 2.077445e+002
2.810754e+002, 2.062582e+002
2.815575e+002, 2.053686e+002
2.820396e+002, 2.053206e+002
2.825217e+002, 2.055600e+002
2.830038e+002, 2.058638e+002
2.834860e+002, 2.062081e+002
2.839681e+002, 2.064782e+002
2.844502e+002, 2.066561e+002
2.849323e+002, 2.066856e+002
2.854144e+002, 2.064504e+002
2.858965e+002, 2.058007e+002
2.863787e+002, 2.052579e+002
2.868608e+002, 2.052632e+002
2.873429e+002, 2.056486e+002
2.878250e+002, 2.057697e+002
2.883071e+002, 2.053154e+002
2.887892e+002, 2.046422e+002
2.892714e+002, 2.042761e+002
2.897535e+002, 2.042395e+002
2.902356e+002, 2.042507e+002
2.907177e+002, 2.041430e+002
2.911998e+002, 2.039816e+002
2.916819e+002, 2.039830e+002
2.921641e+002, 2.042870e+002
2.926462e+002, 2.045778e+002
2.931283e+002, 2.044670e+002
2.936104e+002, 2.040042e+002
2.940925e+002, 2.035127e+002
2.945746e+002, 2.032058e+002
2.950568e+002, 2.029433e+002
2.955389e+002, 2.023408e+002
2.960210e+002, 2.011992e+002
2.965031e+002, 2.001846e+002
2.969852e+002, 2.001070e+002
2.974673e+002, 2.006508e+002
2.979495e+002, 2.009754e+002
2.984316e+002, 2.007024e+002
2.989137e+002, 2.000967e+002
2.993958e+002, 1.995897e+002
2.998779e+002, 1.992462e+002
3.003600e+002, 1.987244e+002
3.008422e+002, 1.975137e+002
3.013243e+002, 1.960073e+002
3.018064e+002, 1.949267e+002
3.022885e+002, 1.946431e+002
3.027706e+002, 1.946274e+002
3.032527e+002, 1.942491e+002
3.037349e+002, 1.934790e+002
3.042170e+002, 1.927442e+002
3.046991e+002, 1.922859e+002
3.051812e+002, 1.919622e+002
3.056633e+002, 1.915849e+002
3.061454e+002, 1.911269e+002
3.066276e+002, 1.906291e+002
3.071097e+002, 1.901924e+002
3.075918e+002, 1.898033e+002
3.080739e+002, 1.891653e+002
3.085560e+002, 1.880267e+002
3.090381e+002, 1.867320e+002
3.095203e+002, 1.855685e+002
3.100024e+002, 1.845119e+002
3.104845e+002, 1.838688e+002
3.109666e+002, 1.842792e+002
3.114487e+002, 1.854335e+002
3.119308e+002, 1.857221e+002
3.124130e+002, 1.844983e+002
3.128951e+002, 1.827862e+002
3.133772e+002, 1.814511e+002
3.138593e+002, 1.804624e+002
3.143414e+002, 1.797250e+002
3.148235e+002, 1.793009e+002
3.153057e+002, 1.790865e+002
3.157878e+002, 1.787964e+002
3.162699e+002, 1.783679e+002
3.167520e+002, 1.779639e+002
3.172341e+002, 1.776253e+002
3.177162e+002, 1.773937e+002
3.181984e+002, 1.774119e+002
3.186805e+002, 1.780878e+002
3.191626e+002, 1.788810e+002
3.196447e+002, 1.788446e+002
3.201268e+002, 1.778390e+002
3.206089e+002, 1.767088e+002
3.210911e+002, 1.758295e+002
3.215732e+002, 1.751463e+002
3.220553e+002, 1.746141e+002
3.225374e+002, 1.742433e+002
3.230195e+002, 1.739850e+002
3.235016e+002, 1.738624e+002
3.239838e+002, 1.738768e+002
3.244659e+002, 1.737541e+002
3.249480e+002, 1.733180e+002
3.254301e+002, 1.727340e+002
3.259122e+002, 1.721593e+002
3.263943e+002, 1.715612e+002
3.268765e+002, 1.711638e+002
3.273586e+002, 1.712582e+002
3.278407e+002, 1.717467e+002
3.283228e+002, 1.720915e+002
3.288049e+002, 1.721767e+002
3.292870e+002, 1.720592e+002
3.297692e+002, 1.716918e+002
3.302513e+002, 1.711082e+002
3.307334e+002, 1.707466e+002
3.312155e+002, 1.710562e+002
3.316976e+002, 1.717191e+002
3.321797e+002, 1.719515e+002
3.326619e+002, 1.715686e+002
3.331440e+002, 1.710452e+002
3.336261e+002, 1.707652e+002
3.341082e+002, 1.706448e+002
3.345903e+002, 1.704945e+002
3.350724e+002, 1.701143e+002
3.355546e+002, 1.697473e+002
3.360367e+002, 1.697665e+002
3.365188e+002, 1.702063e+002
3.370009e+002, 1.706842e+002
3.374830e+002, 1.710410e+002
3.379651e+002, 1.712686e+002
3.384473e+002, 1.713352e+002
3.389294e+002, 1.711194e+002
3.394115e+002, 1.709287e+002
3.398936e+002, 1.711442e+002
3.403757e+002, 1.716862e+002
3.408578e+002, 1.719091e+002
3.413400e+002, 1.714117e+002
3.418221e+002, 1.706408e+002
3.423042e+002, 1.702548e+002
3.427863e+002, 1.702683e+002
3.432684e+002, 1.705080e+002
3.437505e+002, 1.711638e+002
3.442327e+002, 1.719741e+002
3.447148e+002, 1.722311e+002
3.451969e+002, 1.716631e+002
3.456790e+002, 1.708468e+002
3.461611e+002, 1.704367e+002
3.466432e+002, 1.703676e+002
3.471254e+002, 1.703224e+002
3.476075e+002, 1.701539e+002
3.480896e+002, 1.699974e+002
3.485717e+002, 1.700561e+002
3.490538e+002, 1.703537e+002
3.495359e+002, 1.706805e+002
3.500181e+002, 1.708699e+002
3.505002e+002, 1.709598e+002
3.509823e+002, 1.711273e+002
3.514644e+002, 1.716362e+002
3.519465e+002, 1.720063e+002
3.524286e+002, 1.715570e+002
3.529108e+002, 1.705432e+002
3.533929e+002, 1.702982e+002
3.538750e+002, 1.717569e+002
3.543571e+002, 1.740961e+002
3.548392e+002, 1.752329e+002
3.553214e+002, 1.748125e+002
3.558035e+002, 1.742202e+002
3.562856e+002, 1.737470e+002
3.567677e+002, 1.734687e+002
3.572498e+002, 1.735866e+002
3.577319e+002, 1.741965e+002
3.582141e+002, 1.750076e+002
3.586962e+002, 1.756756e+002
3.591783e+002, 1.762154e+002
3.596604e+002, 1.765287e+002
3.601425e+002, 1.764362e+002
3.606246e+002, 1.762182e+002
3.611068e+002, 1.760770e+002
3.615889e+002, 1.760485e+002
3.620710e+002, 1.762182e+002
3.625531e+002, 1.767584e+002
3.630352e+002, 1.776422e+002
3.635173e+002, 1.779501e+002
3.639995e+002, 1.768150e+002
3.644816e+002, 1.760150e+002
3.649637e+002, 1.767514e+002
3.654458e+002, 1.785253e+002
3.659279e+002, 1.799770e+002
3.664100e+002, 1.803558e+002
3.668922e+002, 1.800372e+002
3.673743e+002, 1.802356e+002
3.678564e+002, 1.811440e+002
3.683385e+002, 1.822488e+002
3.688206e+002, 1.840880e+002
3.693027e+002, 1.858358e+002
3.697849e+002, 1.862939e+002
3.702670e+002, 1.851799e+002
3.707491e+002, 1.835271e+002
3.712312e+002, 1.827525e+002
3.717133e+002, 1.831615e+002
3.721954e+002, 1.836405e+002
3.726776e+002, 1.843754e+002
3.731597e+002, 1.850203e+002
3.736418e+002, 1.852665e+002
3.741239e+002, 1.851913e+002
3.746060e+002, 1.851475e+002
3.750881e+002, 1.854173e+002
3.755703e+002, 1.859933e+002
3.760524e+002, 1.866086e+002
3.765345e+002, 1.874854e+002
3.770166e+002, 1.881546e+002
3.774987e+002, 1.883513e+002
3.779808e+002, 1.883174e+002
3.784630e+002, 1.883757e+002
3.789451e+002, 1.886745e+002
3.794272e+002, 1.891866e+002
3.799093e+002, 1.898565e+002
3.803914e+002, 1.907853e+002
3.808735e+002, 1.917212e+002
3.813557e+002, 1.930208e+002
3.818378e+002, 1.940727e+002
3.823199e+002, 1.941370e+002
3.828020e+002, 1.932840e+002
3.832841e+002, 1.924883e+002
3.837662e+002, 1.930062e+002
3.842484e+002, 1.951604e+002
3.847305e+002, 1.963657e+002
3.852126e+002, 1.956835e+002
3.856947e+002, 1.949144e+002
3.861768e+002, 1.945686e+002
3.866589e+002, 1.945683e+002
3.871411e+002, 1.946288e+002
3.876232e+002, 1.945490e+002
3.881053e+002, 1.944513e+002
3.885874e+002, 1.948179e+002
3.890695e+002, 1.959396e+002
3.895516e+002, 1.969850e+002
3.900338e+002, 1.979046e+002
3.905159e+002, 1.986051e+002
3.909980e+002, 1.989145e+002
3.914801e+002, 1.987931e+002
3.919622e+002, 1.985462e+002
3.924443e+002, 1.984520e+002
3.929265e+002, 1.984799e+002
3.934086e+002, 1.989895e+002
3.938907e+002, 2.007780e+002
3.943728e+002, 2.023367e+002
3.948549e+002, 2.026449e+002
3.953370e+002, 2.019174e+002
3.958192e+002, 2.010892e+002
3.963013e+002, 2.007969e+002
3.967834e+002, 2.008588e+002
3.972655e+002, 2.005953e+002
3.977476e+002, 1.997869e+002
3.982297e+002, 1.992276e+002
3.987119e+002, 1.994185e+002
3.991940e+002, 2.000789e+002
3.996761e+002, 2.010053e+002
4.001582e+002, 2.023797e+002
4.006403e+002, 2.034842e+002
4.011224e+002, 2.033779e+002
4.016046e+002, 2.021340e+002
4.020867e+002, 2.009946e+002
4.025688e+002, 2.001986e+002
4.030509e+002, 1.998320e+002
4.035330e+002, 2.000115e+002
4.040151e+002, 2.007404e+002
4.044973e+002, 2.015607e+002
4.049794e+002, 2.024640e+002
4.054615e+002, 2.032755e+002
4.059436e+002, 2.036964e+002
4.064257e+002, 2.036865e+002
4.069078e+002, 2.033055e+002
4.073900e+002, 2.023320e+002
4.078721e+002, 2.009675e+002
4.083542e+002, 2.002183e+002
4.088363e+002, 2.005664e+002
4.093184e+002, 2.011812e+002
4.098005e+002, 2.015882e+002
4.102827e+002, 2.018274e+002
4.107648e+002, 2.020709e+002
4.112469e+002, 2.024256e+002
4.117290e+002, 2.027659e+002
4.122111e+002, 2.027500e+002
4.126932e+002, 2.021916e+002
4.131754e+002, 2.017986e+002
4.136575e+002, 2.017617e+002
4.141396e+002, 2.019095e+002
4.146217e+002, 2.021434e+002
4.151038e+002, 2.024186e+002
4.155859e+002, 2.025597e+002
4.160681e+002, 2.023455e+002
4.165502e+002, 2.017168e+002
4.170323e+002, 2.014119e+002
4.175144e+002, 2.015522e+002
4.179965e+002, 2.018288e+002
4.184786e+002, 2.023199e+002
4.189608e+002, 2.028332e+002
4.194429e+002, 2.029790e+002
4.199250e+002, 2.025388e+002
4.204071e+002, 2.017627e+002
4.208892e+002, 2.013429e+002
4.213713e+002, 2.014922e+002
4.218535e+002, 2.017118e+002
4.223356e+002, 2.021384e+002
4.228177e+002, 2.025209e+002
4.232998e+002, 2.026113e+002
4.237819e+002, 2.024142e+002
4.242640e+002, 2.021757e+002
4.247462e+002, 2.021894e+002
4.252283e+002, 2.024916e+002
4.257104e+002, 2.024929e+002
4.261925e+002, 2.016070e+002
4.266746e+002, 2.010613e+002
4.271567e+002, 2.015292e+002
4.276389e+002, 2.024895e+002
4.281210e+002, 2.030987e+002
4.286031e+002, 2.029214e+002
4.290852e+002, 2.023300e+002
4.295673e+002, 2.020562e+002
4.300494e+002, 2.021522e+002
4.305316e+002, 2.023727e+002
4.310137e+002, 2.027796e+002
4.314958e+002, 2.032187e+002
4.319779e+002, 2.036041e+002
4.324600e+002, 2.039271e+002
4.329421e+002, 2.042035e+002
4.334243e+002, 2.044770e+002
4.339064e+002, 2.047207e+002
4.343885e+002, 2.047689e+002
4.348706e+002, 2.044910e+002
4.353527e+002, 2.043065e+002
4.358348e+002, 2.047595e+002
4.363170e+002, 2.054456e+002
4.367991e+002, 2.056022e+002
4.372812e+002, 2.046357e+002
4.377633e+002, 2.036564e+002
4.382454e+002, 2.039131e+002
4.387275e+002, 2.052143e+002
4.392097e+002, 2.061998e+002
4.396918e+002, 2.063163e+002
4.401739e+002, 2.060404e+002
4.406560e+002, 2.061034e+002
4.411381e+002, 2.065335e+002
4.416202e+002, 2.068501e+002
4.421024e+002, 2.067044e+002
4.425845e+002, 2.064941e+002
4.430666e+002, 2.068217e+002
4.435487e+002, 2.076931e+002
4.440308e+002, 2.083955e+002
4.445129e+002, 2.083500e+002
4.449951e+002, 2.076397e+002
4.454772e+002, 2.071076e+002
4.459593e+002, 2.063534e+002
4.464414e+002, 2.062046e+002
4.469235e+002, 2.072947e+002
4.474056e+002, 2.090397e+002
4.478878e+002, 2.107492e+002
4.483699e+002, 2.121685e+002
4.488520e+002, 2.130320e+002
4.493341e+002, 2.128074e+002
4.498162e+002, 2.107395e+002
4.502983e+002, 2.097620e+002
4.507805e+002, 2.105381e+002
4.512626e+002, 2.116164e+002
4.517447e+002, 2.123816e+002
4.522268e+002, 2.128074e+002
4.527089e+002, 2.130646e+002
4.531910e+002, 2.132554e+002
4.536732e+002, 2.133847e+002
4.541553e+002, 2.134559e+002
4.546374e+002, 2.133544e+002
4.551195e+002, 2.133980e+002
4.556016e+002, 2.136902e+002
4.560837e+002, 2.140905e+002
4.565659e+002, 2.144521e+002
4.570480e+002, 2.147622e+002
4.575301e+002, 2.151570e+002
4.580122e+002, 2.158719e+002
4.584943e+002, 2.168984e+002
4.589764e+002, 2.176499e+002
4.594586e+002, 2.180233e+002
4.599407e+002, 2.182322e+002
4.604228e+002, 2.183390e+002
4.609049e+002, 2.183866e+002
4.613870e+002, 2.184542e+002
4.618691e+002, 2.185827e+002
4.623513e+002, 2.187202e+002
4.628334e+002, 2.187272e+002
4.633155e+002, 2.186171e+002
4.637976e+002, 2.187729e+002
4.642797e+002, 2.194509e+002
4.647618e+002, 2.202843e+002
4.652440e+002, 2.207946e+002
4.657261e+002, 2.209822e+002
4.662082e+002, 2.211605e+002
4.666903e+002, 2.215582e+002
4.671724e+002, 2.219390e+002
4.676545e+002, 2.219848e+002
4.681367e+002, 2.216837e+002
4.686188e+002, 2.212397e+002
4.691009e+002, 2.207117e+002
4.695830e+002, 2.201752e+002
4.700651e+002, 2.199978e+002
4.705472e+002, 2.203496e+002
4.710294e+002, 2.207879e+002
4.715115e+002, 2.213072e+002
4.719936e+002, 2.218064e+002
4.724757e+002, 2.221528e+002
4.729578e+002, 2.223139e+002
4.734399e+002, 2.223574e+002
4.739221e+002, 2.223527e+002
4.744042e+002, 2.222846e+002
4.748863e+002, 2.222549e+002
4.753684e+002, 2.223961e+002
4.758505e+002, 2.224315e+002
4.763326e+002, 2.221455e+002
4.768148e+002, 2.217061e+002
4.772969e+002, 2.214295e+002
4.777790e+002, 2.214771e+002
4.782611e+002, 2.216561e+002
4.787432e+002, 2.215128e+002
4.792253e+002, 2.208550e+002
4.797075e+002, 2.204261e+002
4.801896e+002, 2.208136e+002
4.806717e+002, 2.210336e+002
4.811538e+002, 2.203918e+002
4.816359e+002, 2.190231e+002
4.821180e+002, 2.176334e+002
4.826002e+002, 2.165751e+002
4.830823e+002, 2.158815e+002
4.835644e+002, 2.157991e+002
4.840465e+002, 2.165711e+002
4.845286e+002, 2.170564e+002
4.850107e+002, 2.165152e+002
4.854929e+002, 2.155283e+002
4.859750e+002, 2.147624e+002
4.864571e+002, 2.143127e+002
4.869392e+002, 2.139513e+002
4.874213e+002, 2.135541e+002
4.879034e+002, 2.131437e+002
4.883856e+002, 2.127624e+002
4.888677e+002, 2.124092e+002
4.893498e+002, 2.121245e+002
4.898319e+002, 2.119795e+002
4.903140e+002, 2.119558e+002
4.907961e+002, 2.118208e+002
4.912783e+002, 2.115727e+002
4.917604e+002, 2.112159e+002
4.922425e+002, 2.105697e+002
4.927246e+002, 2.098482e+002
4.932067e+002, 2.095557e+002
4.936888e+002, 2.098711e+002
4.941710e+002, 2.102878e+002
4.946531e+002, 2.099803e+002
4.951352e+002, 2.085864e+002
4.956173e+002, 2.076066e+002
4.960994e+002, 2.072887e+002
4.965815e+002, 2.070806e+002
4.970637e+002, 2.067319e+002
4.975458e+002, 2.062830e+002
4.980279e+002, 2.058936e+002
4.985100e+002, 2.056629e+002
4.989921e+002, 2.054934e+002
4.994742e+002, 2.050881e+002
4.999564e+002, 2.042625e+002
5.004385e+002, 2.036735e+002
5.009206e+002, 2.037463e+002
5.014027e+002, 2.038132e+002
5.018848e+002, 2.033438e+002
5.023669e+002, 2.024185e+002
5.028491e+002, 2.016330e+002
5.033312e+002, 2.015694e+002
5.038133e+002, 2.019022e+002
5.042954e+002, 2.016845e+002
5.047775e+002, 2.008006e+002
5.052596e+002, 1.999290e+002
5.057418e+002, 1.994970e+002
5.062239e+002, 1.991937e+002
5.067060e+002, 1.985167e+002
5.071881e+002, 1.973286e+002
5.076702e+002, 1.962542e+002
5.081523e+002, 1.955772e+002
5.086345e+002, 1.952254e+002
5.091166e+002, 1.951801e+002
5.095987e+002, 1.954386e+002
5.100808e+002, 1.956614e+002
5.105629e+002, 1.955825e+002
5.110450e+002, 1.952123e+002
5.115272e+002, 1.947326e+002
5.120093e+002, 1.939583e+002
5.124914e+002, 1.933049e+002
5.129735e+002, 1.928918e+002
5.134556e+002, 1.926666e+002
5.139377e+002, 1.926685e+002
5.144199e+002, 1.928667e+002
5.149020e+002, 1.929545e+002
5.153841e+002, 1.925248e+002
5.158662e+002, 1.915068e+002
5.163483e+002, 1.904710e+002
5.168304e+002, 1.891346e+002
5.173126e+002, 1.880941e+002
5.177947e+002, 1.877061e+002
5.182768e+002, 1.876702e+002
5.187589e+002, 1.875693e+002
5.192410e+002, 1.872407e+002
5.197231e+002, 1.867670e+002
5.202053e+002, 1.861622e+002
5.206874e+002, 1.853952e+002
5.211695e+002, 1.850276e+002
5.216516e+002, 1.855323e+002
5.221337e+002, 1.859335e+002
5.226158e+002, 1.854714e+002
5.230980e+002, 1.843871e+002
5.235801e+002, 1.833525e+002
5.240622e+002, 1.824521e+002
5.245443e+002, 1.818551e+002
5.250264e+002, 1.818947e+002
5.255085e+002, 1.824696e+002
5.259907e+002, 1.829942e+002
5.264728e+002, 1.832866e+002
5.269549e+002, 1.834050e+002
5.274370e+002, 1.834663e+002
5.279191e+002, 1.835237e+002
5.284012e+002, 1.832138e+002
5.288834e+002, 1.820249e+002
5.293655e+002, 1.808658e+002
5.298476e+002, 1.805260e+002
5.303297e+002, 1.807694e+002
5.308118e+002, 1.807943e+002
5.312939e+002, 1.801503e+002
5.317761e+002, 1.791437e+002
5.322582e+002, 1.785637e+002
5.327403e+002, 1.786782e+002
5.332224e+002, 1.787374e+002
5.337045e+002, 1.787153e+002
5.341866e+002, 1.786505e+002
5.346688e+002, 1.785406e+002
5.351509e+002, 1.784051e+002
5.356330e+002, 1.783117e+002
5.361151e+002, 1.783584e+002
5.365972e+002, 1.784062e+002
5.370793e+002, 1.779712e+002
5.375615e+002, 1.768636e+002
5.380436e+002, 1.760780e+002
5.385257e+002, 1.762468e+002
5.390078e+002, 1.765974e+002
5.394899e+002, 1.763923e+002
5.399720e+002, 1.756405e+002
5.404542e+002, 1.749786e+002
5.409363e+002, 1.747740e+002
5.414184e+002, 1.748156e+002
5.419005e+002, 1.747772e+002
5.423826e+002, 1.746584e+002
5.428647e+002, 1.747178e+002
5.433469e+002, 1.751770e+002
5.438290e+002, 1.758118e+002
5.443111e+002, 1.760210e+002
5.447932e+002, 1.756758e+002
5.452753e+002, 1.752822e+002
5.457574e+002, 1.747703e+002
5.462396e+002, 1.743336e+002
5.467217e+002, 1.742605e+002
5.472038e+002, 1.744616e+002
5.476859e+002, 1.745242e+002
5.481680e+002, 1.741492e+002
5.486501e+002, 1.734212e+002
5.491323e+002, 1.726861e+002
5.496144e+002, 1.717405e+002
5.500965e+002, 1.711681e+002
5.505786e+002, 1.712916e+002
5.510607e+002, 1.715556e+002
5.515428e+002, 1.715246e+002
5.520250e+002, 1.712083e+002
5.525071e+002, 1.709457e+002
5.529892e+002, 1.710865e+002
5.534713e+002, 1.714292e+002
5.539534e+002, 1.712647e+002
5.544355e+002, 1.704324e+002
5.549177e+002, 1.699322e+002
5.553998e+002, 1.704204e+002
5.558819e+002, 1.712630e+002
5.563640e+002, 1.715786e+002
5.568461e+002, 1.712966e+002
5.573282e+002, 1.709703e+002
5.578104e+002, 1.707570e+002
5.582925e+002, 1.706446e+002
5.587746e+002, 1.706864e+002
5.592567e+002, 1.708512e+002
5.597388e+002, 1.709392e+002
5.602209e+002, 1.708398e+002
5.607031e+002, 1.705634e+002
5.611852e+002, 1.701420e+002
5.616673e+002, 1.692732e+002
5.621494e+002, 1.686865e+002
5.626315e+002, 1.685824e+002
5.631136e+002, 1.686141e+002
5.635958e+002, 1.685277e+002
5.640779e+002, 1.683329e+002
5.645600e+002, 1.681961e+002
5.650421e+002, 1.682522e+002
5.655242e+002, 1.684211e+002
5.660063e+002, 1.684109e+002
5.664885e+002, 1.681329e+002
5.669706e+002, 1.679337e+002
5.674527e+002, 1.679263e+002
5.679348e+002, 1.680050e+002
5.684169e+002, 1.681997e+002
5.688990e+002, 1.684608e+002
5.693812e+002, 1.685103e+002
5.698633e+002, 1.679321e+002
5.703454e+002, 1.671999e+002
5.708275e+002, 1.671949e+002
5.713096e+002, 1.678487e+002
5.717917e+002, 1.680397e+002
5.722739e+002, 1.671314e+002
5.727560e+002, 1.657739e+002
5.732381e+002, 1.651390e+002
5.737202e+002, 1.653634e+002
5.742023e+002, 1.656976e+002
5.746844e+002, 1.661435e+002
5.751666e+002, 1.666197e+002
5.756487e+002, 1.671709e+002
5.761308e+002, 1.677052e+002
5.766129e+002, 1.679358e+002
5.770950e+002, 1.676924e+002
5.775771e+002, 1.673115e+002
5.780593e+002, 1.676996e+002
5.785414e+002, 1.695465e+002
5.790235e+002, 1.702675e+002
5.795056e+002, 1.683002e+002
5.799877e+002, 1.665154e+002
5.804698e+002, 1.665119e+002
5.809520e+002, 1.676917e+002
5.814341e+002, 1.685007e+002
5.819162e+002, 1.681276e+002
5.823983e+002, 1.673322e+002
5.828804e+002, 1.671070e+002
5.833625e+002, 1.674074e+002
5.838447e+002, 1.677804e+002
5.843268e+002, 1.681432e+002
5.848089e+002, 1.685040e+002
5.852910e+002, 1.689417e+002
5.857731e+002, 1.694260e+002
5.862552e+002, 1.696125e+002
5.867374e+002, 1.690945e+002
5.872195e+002, 1.686674e+002
5.877016e+002, 1.688962e+002
5.881837e+002, 1.694584e+002
5.886658e+002, 1.697501e+002
5.891479e+002, 1.695995e+002
5.896301e+002, 1.693378e+002
5.901122e+002, 1.693826e+002
5.905943e+002, 1.697747e+002
5.910764e+002, 1.700845e+002
5.915585e+002, 1.702957e+002
5.920406e+002, 1.704361e+002
5.925228e+002, 1.703682e+002
5.930049e+002, 1.703003e+002
5.934870e+002, 1.705114e+002
5.939691e+002, 1.710670e+002
5.944512e+002, 1.716985e+002
5.949333e+002, 1.721326e+002
5.954155e+002, 1.724261e+002
5.958976e+002, 1.728777e+002
5.963797e+002, 1.735727e+002
5.968618e+002, 1.741021e+002
5.973439e+002, 1.741015e+002
5.978260e+002, 1.738154e+002
5.983082e+002, 1.738525e+002
5.987903e+002, 1.743234e+002
5.992724e+002, 1.748380e+002
5.997545e+002, 1.753252e+002
6.002366e+002, 1.757619e+002
6.007188e+002, 1.761472e+002
6.012009e+002, 1.764642e+002
6.016830e+002, 1.766025e+002
6.021651e+002, 1.764486e+002
6.026472e+002, 1.761564e+002
6.031293e+002, 1.763339e+002
6.036115e+002, 1.774152e+002
6.040936e+002, 1.781644e+002
6.045757e+002, 1.783419e+002
6.050578e+002, 1.783375e+002
6.055399e+002, 1.782447e+002
6.060220e+002, 1.781676e+002
6.065042e+002, 1.783196e+002
6.069863e+002, 1.788463e+002
6.074684e+002, 1.796237e+002
6.079505e+002, 1.806090e+002
6.084326e+002, 1.817885e+002
6.089147e+002, 1.825069e+002
6.093969e+002, 1.824634e+002
6.098790e+002, 1.821443e+002
6.103611e+002, 1.819388e+002
6.108432e+002, 1.818593e+002
6.113253e+002, 1.822017e+002
6.118074e+002, 1.834698e+002
6.122896e+002, 1.846741e+002
6.127717e+002, 1.852848e+002
6.132538e+002, 1.854813e+002
6.137359e+002, 1.854770e+002
6.142180e+002, 1.853690e+002
6.147001e+002, 1.854128e+002
6.151823e+002, 1.859559e+002
6.156644e+002, 1.870312e+002
6.161465e+002, 1.879036e+002
6.166286e+002, 1.883388e+002
6.171107e+002, 1.888886e+002
6.175928e+002, 1.899627e+002
6.180750e+002, 1.910565e+002
6.185571e+002, 1.915076e+002
6.190392e+002, 1.912243e+002
6.195213e+002, 1.910296e+002
6.200034e+002, 1.916797e+002
6.204855e+002, 1.928297e+002
6.209677e+002, 1.937099e+002
6.214498e+002, 1.942809e+002
6.219319e+002, 1.947983e+002
6.224140e+002, 1.953540e+002
6.228961e+002, 1.959689e+002
6.233782e+002, 1.967267e+002
6.238604e+002, 1.977192e+002
6.243425e+002, 1.985489e+002
6.248246e+002, 1.991291e+002
6.253067e+002, 1.995655e+002
6.257888e+002, 1.997678e+002
6.262709e+002, 1.998952e+002
6.267531e+002, 2.003681e+002
6.272352e+002, 2.014008e+002
6.277173e+002, 2.025859e+002
6.281994e+002, 2.030514e+002
6.286815e+002, 2.025696e+002
6.291636e+002, 2.026558e+002
6.296458e+002, 2.038037e+002
6.301279e+002, 2.049975e+002
6.306100e+002, 2.056186e+002
6.310921e+002, 2.059646e+002
6.315742e+002, 2.066185e+002
6.320563e+002, 2.078723e+002
6.325385e+002, 2.090027e+002
6.330206e+002, 2.093584e+002
6.335027e+002, 2.092551e+002
6.339848e+002, 2.092852e+002
6.344669e+002, 2.095390e+002
6.349490e+002, 2.099246e+002
6.354312e+002, 2.103697e+002
6.359133e+002, 2.108966e+002
6.363954e+002, 2.116187e+002
6.368775e+002, 2.128776e+002
6.373596e+002, 2.138656e+002
6.378417e+002, 2.144978e+002
6.383239e+002, 2.148965e+002
6.388060e+002, 2.150142e+002
6.392881e+002, 2.149667e+002
6.397702e+002, 2.150409e+002
6.402523e+002, 2.154270e+002
6.407344e+002, 2.159810e+002
6.412166e+002, 2.164540e+002
6.416987e+002, 2.168488e+002
6.421808e+002, 2.170920e+002
6.426629e+002, 2.170347e+002
6.431450e+002, 2.170419e+002
6.436271e+002, 2.175124e+002
6.441093e+002, 2.183359e+002
6.445914e+002, 2.191309e+002
6.450735e+002, 2.200658e+002
6.455556e+002, 2.207074e+002
6.460377e+002, 2.206223e+002
6.465198e+002, 2.202168e+002
6.470020e+002, 2.201239e+002
6.474841e+002, 2.204299e+002
6.479662e+002, 2.206771e+002
6.484483e+002, 2.203810e+002
6.489304e+002, 2.197038e+002
6.494125e+002, 2.198964e+002
6.498947e+002, 2.217686e+002
6.503768e+002, 2.229763e+002
6.508589e+002, 2.227997e+002
6.513410e+002, 2.221066e+002
6.518231e+002, 2.212776e+002
6.523052e+002, 2.204357e+002
6.527874e+002, 2.198490e+002
6.532695e+002, 2.198165e+002
6.537516e+002, 2.199465e+002
6.542337e+002, 2.196842e+002
6.547158e+002, 2.191366e+002
6.551979e+002, 2.188138e+002
6.556801e+002, 2.188743e+002
6.561622e+002, 2.191359e+002
6.566443e+002, 2.194913e+002
6.571264e+002, 2.199735e+002
6.576085e+002, 2.198637e+002
6.580906e+002, 2.186181e+002
6.585728e+002, 2.175504e+002
6.590549e+002, 2.170609e+002
6.595370e+002, 2.168428e+002
6.600191e+002, 2.165384e+002
6.605012e+002, 2.161149e+002
6.609833e+002, 2.158472e+002
6.614655e+002, 2.161527e+002
6.619476e+002, 2.166782e+002
6.624297e+002, 2.161043e+002
6.629118e+002, 2.142409e+002
6.633939e+002, 2.128060e+002
6.638760e+002, 2.124513e+002
6.643582e+002, 2.126010e+002
6.648403e+002, 2.126788e+002
6.653224e+002, 2.126869e+002
6.658045e+002, 2.125643e+002
6.662866e+002, 2.122305e+002
6.667687e+002, 2.118379e+002
6.672509e+002, 2.115619e+002
6.677330e+002, 2.112553e+002
6.682151e+002, 2.105905e+002
6.686972e+002, 2.095202e+002
6.691793e+002, 2.084366e+002
6.696614e+002, 2.077574e+002
6.701436e+002, 2.074497e+002
6.706257e+002, 2.070354e+002
6.711078e+002, 2.064900e+002
6.715899e+002, 2.058862e+002
6.720720e+002, 2.051127e+002
6.725541e+002, 2.043746e+002
6.730363e+002, 2.038644e+002
6.735184e+002, 2.035718e+002
6.740005e+002, 2.032788e+002
6.744826e+002, 2.029994e+002
6.749647e+002, 2.025862e+002
6.754468e+002, 2.017345e+002
6.759290e+002, 2.006189e+002
6.764111e+002, 1.997905e+002
6.768932e+002, 1.994246e+002
6.773753e+002, 1.992459e+002
6.778574e+002, 1.989491e+002
6.783395e+002, 1.985313e+002
6.788217e+002, 1.980834e+002
6.793038e+002, 1.976296e+002
6.797859e+002, 1.971120e+002
6.802680e+002, 1.965219e+002
6.807501e+002, 1.958707e+002
6.812322e+002, 1.950655e+002
6.817144e+002, 1.941663e+002
6.821965e+002, 1.934950e+002
6.826786e+002, 1.934277e+002
6.831607e+002, 1.936088e+002
6.836428e+002, 1.934317e+002
6.841249e+002, 1.929364e+002
6.846071e+002, 1.924971e+002
6.850892e+002, 1.922514e+002
6.855713e+002, 1.919994e+002
6.860534e+002, 1.915286e+002
6.865355e+002, 1.908355e+002
6.870176e+002, 1.899427e+002
6.874998e+002, 1.884817e+002
6.879819e+002, 1.873027e+002
6.884640e+002, 1.866815e+002
6.889461e+002, 1.864046e+002
6.894282e+002, 1.864398e+002
6.899103e+002, 1.866497e+002
6.903925e+002, 1.865604e+002
6.908746e+002, 1.856862e+002
6.913567e+002, 1.843910e+002
6.918388e+002, 1.836404e+002
6.923209e+002, 1.834667e+002
6.928030e+002, 1.829685e+002
6.932852e+002, 1.817428e+002
6.937673e+002, 1.804289e+002
6.942494e+002, 1.796415e+002
6.947315e+002, 1.793717e+002
6.952136e+002, 1.793362e+002
6.956957e+002, 1.799162e+002
6.961779e+002, 1.802548e+002
6.966600e+002, 1.798193e+002
6.971421e+002, 1.791309e+002
6.976242e+002, 1.787877e+002
6.981063e+002, 1.788401e+002
6.985884e+002, 1.789679e+002
6.990706e+002, 1.789628e+002
6.995527e+002, 1.787972e+002
7.000348e+002, 1.783866e+002
7.005169e+002, 1.777215e+002
7.009990e+002, 1.768051e+002
7.014811e+002, 1.753219e+002
7.019633e+002, 1.740264e+002
7.024454e+002, 1.738558e+002
7.029275e+002, 1.744386e+002
7.034096e+002, 1.745073e+002
7.038917e+002, 1.733721e+002
7.043738e+002, 1.724186e+002
7.048560e+002, 1.723784e+002
7.053381e+002, 1.727391e+002
7.058202e+002, 1.729512e+002
7.063023e+002, 1.729265e+002
7.067844e+002, 1.727789e+002
7.072665e+002, 1.725892e+002
7.077487e+002, 1.723236e+002
7.082308e+002, 1.718763e+002
7.087129e+002, 1.712093e+002
7.091950e+002, 1.705247e+002
7.096771e+002, 1.697581e+002
7.101592e+002, 1.690978e+002
7.106414e+002, 1.686343e+002
7.111235e+002, 1.683636e+002
7.116056e+002, 1.683439e+002
7.120877e+002, 1.687978e+002
7.125698e+002, 1.689998e+002
7.130519e+002, 1.683476e+002
7.135341e+002, 1.674058e+002
7.140162e+002, 1.668211e+002
7.144983e+002, 1.666180e+002
7.149804e+002, 1.665619e+002
7.154625e+002, 1.665331e+002
7.159446e+002, 1.664674e+002
7.164268e+002, 1.662065e+002
7.169089e+002, 1.656944e+002
7.173910e+002, 1.652360e+002
7.178731e+002, 1.648670e+002
7.183552e+002, 1.645094e+002
7.188373e+002, 1.640493e+002
7.193195e+002, 1.636056e+002
7.198016e+002, 1.633928e+002
7.202837e+002, 1.634885e+002
7.207658e+002, 1.635267e+002
7.212479e+002, 1.632831e+002
7.217300e+002, 1.629295e+002
7.222122e+002, 1.625812e+002
7.226943e+002, 1.622857e+002
7.231764e+002, 1.622205e+002
7.236585e+002, 1.624691e+002
7.241406e+002, 1.626928e+002
7.246227e+002, 1.623159e+002
7.251049e+002, 1.612439e+002
7.255870e+002, 1.604380e+002
7.260691e+002, 1.598735e+002
7.265512e+002, 1.596298e+002
7.270333e+002, 1.600235e+002
7.275154e+002, 1.605628e+002
7.279976e+002, 1.607479e+002
7.284797e+002, 1.605392e+002
7.289618e+002, 1.602499e+002
7.294439e+002, 1.598951e+002
7.299260e+002, 1.596148e+002
7.304081e+002, 1.596284e+002
7.308903e+002, 1.598077e+002
7.313724e+002, 1.598637e+002
7.318545e+002, 1.597093e+002
7.323366e+002, 1.593947e+002
7.328187e+002, 1.589663e+002
7.333008e+002, 1.584259e+002
7.337830e+002, 1.577529e+002
7.342651e+002, 1.567670e+002
7.347472e+002, 1.560383e+002
7.352293e+002, 1.556109e+002
7.357114e+002, 1.555667e+002
7.361935e+002, 1.563089e+002
7.366757e+002, 1.575770e+002
7.371578e+002, 1.582422e+002
7.376399e+002, 1.575662e+002
7.381220e+002, 1.567050e+002
7.386041e+002, 1.565345e+002
7.390862e+002, 1.566392e+002
7.395684e+002, 1.562328e+002
7.400505e+002, 1.552931e+002
7.405326e+002, 1.545395e+002
7.410147e+002, 1.545181e+002
7.414968e+002, 1.549887e+002
7.419789e+002, 1.552539e+002
7.424611e+002, 1.553249e+002
7.429432e+002, 1.551224e+002
7.434253e+002, 1.543255e+002
7.439074e+002, 1.536508e+002
7.443895e+002, 1.536688e+002
7.448716e+002, 1.540384e+002
7.453538e+002, 1.540848e+002
7.458359e+002, 1.535617e+002
7.463180e+002, 1.531845e+002
7.468001e+002, 1.535952e+002
7.472822e+002, 1.540784e+002
7.477643e+002, 1.537905e+002
7.482465e+002, 1.528904e+002
7.487286e+002, 1.520144e+002
7.492107e+002, 1.514543e+002
7.496928e+002, 1.511514e+002
7.501749e+002, 1.510286e+002
7.506570e+002, 1.510884e+002
7.511392e+002, 1.513358e+002
7.516213e+002, 1.519368e+002
7.521034e+002, 1.523381e+002
7.525855e+002, 1.521292e+002
7.530676e+002, 1.517390e+002
7.535497e+002, 1.517494e+002
7.540319e+002, 1.521818e+002
7.545140e+002, 1.524294e+002
7.549961e+002, 1.523025e+002
7.554782e+002, 1.519960e+002
7.559603e+002, 1.515403e+002
7.564424e+002, 1.510159e+002
7.569246e+002, 1.504089e+002
7.574067e+002, 1.497903e+002
7.578888e+002, 1.495653e+002
7.583709e+002, 1.502222e+002
7.588530e+002, 1.513786e+002
7.593351e+002, 1.516713e+002
7.598173e+002, 1.510006e+002
7.602994e+002, 1.502825e+002
7.607815e+002, 1.495725e+002
7.612636e+002, 1.491100e+002
7.617457e+002, 1.491752e+002
7.622278e+002, 1.496867e+002
7.627100e+002, 1.502171e+002
7.631921e+002, 1.510743e+002
7.636742e+002, 1.514591e+002
7.641563e+002, 1.507003e+002
7.646384e+002, 1.497963e+002
7.651205e+002, 1.496706e+002
7.656027e+002, 1.501142e+002
7.660848e+002, 1.503460e+002
7.665669e+002, 1.499954e+002
7.670490e+002, 1.494559e+002
7.675311e+002, 1.492739e+002
7.680132e+002, 1.493715e+002
7.684954e+002, 1.491929e+002
7.689775e+002, 1.486247e+002
7.694596e+002, 1.485870e+002
7.699417e+002, 1.498242e+002
7.704238e+002, 1.513965e+002
7.709059e+002, 1.515625e+002
7.713881e+002, 1.498117e+002
7.718702e+002, 1.486745e+002
7.723523e+002, 1.484208e+002
7.728344e+002, 1.484274e+002
7.733165e+002, 1.486932e+002
7.737986e+002, 1.489834e+002
7.742808e+002, 1.490177e+002
7.747629e+002, 1.487859e+002
7.752450e+002, 1.485535e+002
7.757271e+002, 1.485520e+002
7.762092e+002, 1.485971e+002
7.766913e+002, 1.483141e+002
7.771735e+002, 1.478192e+002
7.776556e+002, 1.476498e+002
7.781377e+002, 1.479395e+002
7.786198e+002, 1.482653e+002
7.791019e+002, 1.482320e+002
7.795840e+002, 1.479535e+002
7.800662e+002, 1.480410e+002
7.805483e+002, 1.488581e+002
7.810304e+002, 1.493484e+002
7.815125e+002, 1.492891e+002
7.819946e+002, 1.490554e+002
7.824767e+002, 1.487170e+002
7.829589e+002, 1.483606e+002
7.834410e+002, 1.481368e+002
7.839231e+002, 1.480977e+002
7.844052e+002, 1.481076e+002
7.848873e+002, 1.481563e+002
7.853694e+002, 1.481624e+002
7.858516e+002, 1.478682e+002
7.863337e+002, 1.474275e+002
7.868158e+002, 1.474297e+002
7.872979e+002, 1.481047e+002
7.877800e+002, 1.489776e+002
7.882621e+002, 1.494666e+002
7.887443e+002, 1.495725e+002
7.892264e+002, 1.493163e+002
7.897085e+002, 1.484172e+002
7.901906e+002, 1.479636e+002
7.906727e+002, 1.486188e+002
7.911548e+002, 1.495111e+002
7.916370e+002, 1.498026e+002
7.921191e+002, 1.495512e+002
7.926012e+002, 1.491177e+002
7.930833e+002, 1.481633e+002
7.935654e+002, 1.475196e+002
7.940475e+002, 1.477497e+002
7.945297e+002, 1.482712e+002
7.950118e+002, 1.486185e+002
7.954939e+002, 1.486809e+002
7.959760e+002, 1.483246e+002
7.964581e+002, 1.474096e+002
7.969402e+002, 1.464788e+002
7.974224e+002, 1.464447e+002
7.979045e+002, 1.471744e+002
7.983866e+002, 1.478351e+002
7.988687e+002, 1.483741e+002
7.993508e+002, 1.486574e+002
7.998329e+002, 1.485370e+002
8.003151e+002, 1.482422e+002
8.007972e+002, 1.482034e+002
8.012793e+002, 1.484970e+002
8.017614e+002, 1.487484e+002
8.022435e+002, 1.490173e+002
8.027256e+002, 1.491774e+002
8.032078e+002, 1.491978e+002
8.036899e+002, 1.490890e+002
8.041720e+002, 1.487086e+002
8.046541e+002, 1.481467e+002
8.051362e+002, 1.479410e+002
8.056183e+002, 1.486820e+002
8.061005e+002, 1.495554e+002
8.065826e+002, 1.496678e+002
8.070647e+002, 1.492739e+002
8.075468e+002, 1.489024e+002
8.080289e+002, 1.486560e+002
8.085110e+002, 1.484811e+002
8.089932e+002, 1.483417e+002
8.094753e+002, 1.482407e+002
8.099574e+002, 1.481605e+002
8.104395e+002, 1.480552e+002
8.109216e+002, 1.482100e+002
8.114037e+002, 1.488815e+002
8.118859e+002, 1.494093e+002
8.123680e+002, 1.494422e+002
8.128501e+002, 1.491372e+002
8.133322e+002, 1.486545e+002
8.138143e+002, 1.479615e+002
8.142964e+002, 1.473831e+002
8.147786e+002, 1.467617e+002
8.152607e+002, 1.465181e+002
8.157428e+002, 1.472497e+002
8.162249e+002, 1.483464e+002
8.167070e+002, 1.489526e+002
8.171891e+002, 1.489261e+002
8.176713e+002, 1.486611e+002
8.181534e+002, 1.484091e+002
8.186355e+002, 1.481746e+002
8.191176e+002, 1.479046e+002
8.195997e+002, 1.476312e+002
8.200818e+002, 1.476957e+002
8.205640e+002, 1.482048e+002
8.210461e+002, 1.486093e+002
8.215282e+002, 1.484758e+002
8.220103e+002, 1.480051e+002
8.224924e+002, 1.478205e+002
8.229745e+002, 1.481180e+002
8.234567e+002, 1.482611e+002
8.239388e+002, 1.482433e+002
8.244209e+002, 1.480821e+002
8.249030e+002, 1.478342e+002
8.253851e+002, 1.474201e+002
8.258672e+002, 1.465405e+002
8.263494e+002, 1.451817e+002
8.268315e+002, 1.443461e+002
8.273136e+002, 1.447424e+002
8.277957e+002, 1.456239e+002
8.282778e+002, 1.467178e+002
8.287599e+002, 1.477230e+002
8.292421e+002, 1.480313e+002
8.297242e+002, 1.475991e+002
8.302063e+002, 1.469868e+002
8.306884e+002, 1.466301e+002
8.311705e+002, 1.463508e+002
8.316526e+002, 1.455239e+002
8.321348e+002, 1.441117e+002
8.326169e+002, 1.435169e+002
8.330990e+002, 1.441424e+002
8.335811e+002, 1.448200e+002
8.340632e+002, 1.448973e+002
8.345453e+002, 1.445476e+002
8.350275e+002, 1.441344e+002
8.355096e+002, 1.436500e+002
8.359917e+002, 1.431190e+002
8.364738e+002, 1.423081e+002
8.369559e+002, 1.417216e+002
8.374380e+002, 1.417839e+002
8.379202e+002, 1.420186e+002
8.384023e+002, 1.417420e+002
8.388844e+002, 1.409875e+002
8.393665e+002, 1.406118e+002
8.398486e+002, 1.415245e+002
8.403307e+002, 1.424565e+002
8.408129e+002, 1.417704e+002
8.412950e+002, 1.402690e+002
8.417771e+002, 1.397090e+002
8.422592e+002, 1.402057e+002
8.427413e+002, 1.405518e+002
8.432234e+002, 1.399714e+002
8.437056e+002, 1.389001e+002
8.441877e+002, 1.382513e+002
8.446698e+002, 1.380801e+002
8.451519e+002, 1.375918e+002
8.456340e+002, 1.364984e+002
8.461161e+002, 1.359000e+002
8.465983e+002, 1.366560e+002
8.470804e+002, 1.377661e+002
8.475625e+002, 1.376841e+002
8.480446e+002, 1.363145e+002
8.485267e+002, 1.354178e+002
8.490089e+002, 1.355529e+002
8.494910e+002, 1.355383e+002
8.499731e+002, 1.348796e+002
8.504552e+002, 1.340574e+002
8.509373e+002, 1.335588e+002
8.514194e+002, 1.333056e+002
8.519016e+002, 1.328423e+002
8.523837e+002, 1.318691e+002
8.528658e+002, 1.310008e+002
8.533479e+002, 1.309665e+002
8.538300e+002, 1.313363e+002
8.543121e+002, 1.314290e+002
8.547943e+002, 1.311931e+002
8.552764e+002, 1.306585e+002
8.557585e+002, 1.298365e+002
8.562406e+002, 1.289382e+002
8.567227e+002, 1.282290e+002
8.572048e+002, 1.277020e+002
8.576870e+002, 1.271932e+002
8.581691e+002, 1.266464e+002
8.586512e+002, 1.263849e+002
8.591333e+002, 1.266631e+002
8.596154e+002, 1.269707e+002
8.600975e+002, 1.268191e+002
8.605797e+002, 1.262959e+002
8.610618e+002, 1.259126e+002
8.615439e+002, 1.257215e+002
8.620260e+002, 1.255801e+002
8.625081e+002, 1.256518e+002
8.629902e+002, 1.255893e+002
8.634724e+002, 1.251125e+002
8.639545e+002, 1.243903e+002
8.644366e+002, 1.236989e+002
8.649187e+002, 1.231033e+002
8.654008e+002, 1.225153e+002
8.658829e+002, 1.218086e+002
8.663651e+002, 1.211300e+002
8.668472e+002, 1.206835e+002
8.673293e+002, 1.203892e+002
8.678114e+002, 1.200593e+002
8.682935e+002, 1.196482e+002
8.687756e+002, 1.191514e+002
8.692578e+002, 1.185398e+002
8.697399e+002, 1.179256e+002
8.702220e+002, 1.176648e+002
8.707041e+002, 1.177844e+002
8.711862e+002, 1.176131e+002
8.716683e+002, 1.169815e+002
8.721505e+002, 1.165054e+002
8.726326e+002, 1.166604e+002
8.731147e+002, 1.169659e+002
8.735968e+002, 1.165440e+002
8.740789e+002, 1.151892e+002
8.745610e+002, 1.142190e+002
8.750432e+002, 1.136673e+002
8.755253e+002, 1.134412e+002
8.760074e+002, 1.140410e+002
8.764895e+002, 1.145438e+002
8.769716e+002, 1.139836e+002
8.774537e+002, 1.126011e+002
8.779359e+002, 1.114519e+002
8.784180e+002, 1.108515e+002
8.789001e+002, 1.106283e+002
8.793822e+002, 1.110782e+002
8.798643e+002, 1.115562e+002
8.803464e+002, 1.111707e+002
8.808286e+002, 1.101744e+002
8.813107e+002, 1.093752e+002
8.817928e+002, 1.090701e+002
8.822749e+002, 1.090122e+002
8.827570e+002, 1.090518e+002
8.832391e+002, 1.090805e+002
8.837213e+002, 1.085993e+002
8.842034e+002, 1.076593e+002
8.846855e+002, 1.072507e+002
8.851676e+002, 1.076838e+002
8.856497e+002, 1.080683e+002
8.861318e+002, 1.076548e+002
8.866140e+002, 1.067188e+002
8.870961e+002, 1.062364e+002
8.875782e+002, 1.065423e+002
8.880603e+002, 1.064272e+002
8.885424e+002, 1.056058e+002
8.890245e+002, 1.047481e+002
8.895067e+002, 1.039986e+002
8.899888e+002, 1.034262e+002
8.904709e+002, 1.031566e+002
8.909530e+002, 1.031892e+002
8.914351e+002, 1.032526e+002
8.919172e+002, 1.034015e+002
8.923994e+002, 1.034327e+002
8.928815e+002, 1.033219e+002
8.933636e+002, 1.030109e+002
8.938457e+002, 1.022361e+002
8.943278e+002, 1.012208e+002
8.948099e+002, 1.006332e+002
8.952921e+002, 1.008070e+002
8.957742e+002, 1.010424e+002
8.962563e+002, 1.006004e+002
8.967384e+002, 9.982161e+001
8.972205e+002, 9.922411e+001
8.977026e+002, 9.883366e+001
8.981848e+002, 9.868020e+001
8.986669e+002, 9.876019e+001
8.991490e+002, 9.887120e+001
8.996311e+002, 9.882015e+001
9.001132e+002, 9.863656e+001
9.005953e+002, 9.839768e+001
9.010775e+002, 9.808656e+001
9.015596e+002, 9.796006e+001
9.020417e+002, 9.814934e+001
9.025238e+002, 9.819527e+001
9.030059e+002, 9.775313e+001
9.034880e+002, 9.706680e+001
9.039702e+002, 9.664336e+001
9.044523e+002, 9.656843e+001
9.049344e+002, 9.641306e+001
9.054165e+002, 9.606429e+001
9.058986e+002, 9.578031e+001
9.063807e+002, 9.559127e+001
9.068629e+002, 9.550813e+001
9.073450e+002, 9.561201e+001
9.078271e+002, 9.583977e+001
9.083092e+002, 9.595901e+001
9.087913e+002, 9.594550e+001
9.092734e+002, 9.574565e+001
9.097556e+002, 9.508995e+001
9.102377e+002, 9.445061e+001
9.107198e+002, 9.429076e+001
9.112019e+002, 9.446583e+001
9.116840e+002, 9.464296e+001
9.121661e+002, 9.472146e+001
9.126483e+002, 9.481487e+001
9.131304e+002, 9.516722e+001
9.136125e+002, 9.545999e+001
9.140946e+002, 9.489294e+001
9.145767e+002, 9.383103e+001
9.150588e+002, 9.364041e+001
9.155410e+002, 9.445181e+001
9.160231e+002, 9.504429e+001
9.165052e+002, 9.462747e+001
9.169873e+002, 9.365514e+001
9.174694e+002, 9.294363e+001
9.179515e+002, 9.249414e+001
9.184337e+002, 9.226717e+001
9.189158e+002, 9.227824e+001
9.193979e+002, 9.247286e+001
9.198800e+002, 9.295287e+001
9.203621e+002, 9.336208e+001
9.208442e+002, 9.325957e+001
9.213264e+002, 9.271016e+001
9.218085e+002, 9.241783e+001
9.222906e+002, 9.290879e+001
9.227727e+002, 9.278758e+001
9.232548e+002, 9.121204e+001
9.237369e+002, 8.989021e+001
9.242191e+002, 8.984303e+001
9.247012e+002, 9.045878e+001
9.251833e+002, 9.081837e+001
9.256654e+002, 9.080842e+001
9.261475e+002, 9.077318e+001
9.266296e+002, 9.081316e+001
9.271118e+002, 9.085339e+001
9.275939e+002, 9.093064e+001
9.280760e+002, 9.093605e+001
9.285581e+002, 9.064365e+001
9.290402e+002, 9.016478e+001
9.295223e+002, 8.990250e+001
9.300045e+002, 9.005649e+001
9.304866e+002, 9.030202e+001
9.309687e+002, 9.039368e+001
9.314508e+002, 9.035788e+001
9.319329e+002, 9.024715e+001
9.324150e+002, 9.004536e+001
9.328972e+002, 8.956474e+001
9.333793e+002, 8.881459e+001
9.338614e+002, 8.838149e+001
9.343435e+002, 8.887607e+001
9.348256e+002, 8.981896e+001
9.353077e+002, 8.988997e+001
9.357899e+002, 8.917491e+001
9.362720e+002, 8.903301e+001
9.367541e+002, 8.966785e+001
9.372362e+002, 9.015830e+001
9.377183e+002, 9.001922e+001
9.382004e+002, 8.961337e+001
9.386826e+002, 8.952325e+001
9.391647e+002, 8.976458e+001
9.396468e+002, 8.950191e+001
9.401289e+002, 8.836294e+001
9.406110e+002, 8.763509e+001
9.410931e+002, 8.771534e+001
9.415753e+002, 8.807191e+001
9.420574e+002, 8.852586e+001
9.425395e+002, 8.894119e+001
9.430216e+002, 8.893139e+001
9.435037e+002, 8.832778e+001
9.439858e+002, 8.781514e+001
9.444680e+002, 8.737226e+001
9.449501e+002, 8.712128e+001
9.454322e+002, 8.725134e+001
9.459143e+002, 8.749187e+001
9.463964e+002, 8.760320e+001
9.468785e+002, 8.756319e+001
9.473607e+002, 8.739159e+001
9.478428e+002, 8.692555e+001
9.483249e+002, 8.669479e+001
9.488070e+002, 8.731080e+001
9.492891e+002, 8.801216e+001
9.497712e+002, 8.803072e+001
9.502534e+002, 8.758146e+001
9.507355e+002, 8.717808e+001
9.512176e+002, 8.695731e+001
9.516997e+002, 8.671735e+001
9.521818e+002, 8.622708e+001
9.526639e+002, 8.574052e+001
9.531461e+002, 8.567168e+001
9.536282e+002, 8.586132e+001
9.541103e+002, 8.596821e+001
9.545924e+002, 8.594550e+001
9.550745e+002, 8.583019e+001
9.555566e+002, 8.563876e+001
9.560388e+002, 8.540857e+001
9.565209e+002, 8.510572e+001
9.570030e+002, 8.481174e+001
9.574851e+002, 8.506159e+001
9.579672e+002, 8.585210e+001
9.584493e+002, 8.636147e+001
9.589315e+002, 8.638072e+001
9.594136e+002, 8.631046e+001
9.598957e+002, 8.645724e+001
9.603778e+002, 8.670048e+001
9.608599e+002, 8.672920e+001
9.613420e+002, 8.651713e+001
9.618242e+002, 8.618545e+001
9.623063e+002, 8.558274e+001
9.627884e+002, 8.525655e+001
9.632705e+002, 8.555878e+001
9.637526e+002, 8.597681e+001
9.642347e+002, 8.593706e+001
9.647169e+002, 8.552914e+001
9.651990e+002, 8.541444e+001
9.656811e+002, 8.604027e+001
9.661632e+002, 8.627091e+001
9.666453e+002, 8.570433e+001
9.671274e+002, 8.520263e+001
9.676096e+002, 8.520773e+001
9.680917e+002, 8.543259e+001
9.685738e+002, 8.552035e+001
9.690559e+002, 8.544724e+001
9.695380e+002, 8.536146e+001
9.700201e+002, 8.536404e+001
9.705023e+002, 8.527205e+001
9.709844e+002, 8.492110e+001
9.714665e+002, 8.454038e+001
9.719486e+002, 8.440020e+001
9.724307e+002, 8.434690e+001
9.729128e+002, 8.392860e+001
9.733950e+002, 8.304560e+001
9.738771e+002, 8.250021e+001
9.743592e+002, 8.305036e+001
9.748413e+002, 8.385399e+001
9.753234e+002, 8.425181e+001
9.758055e+002, 8.438197e+001
9.762877e+002, 8.440795e+001
9.767698e+002, 8.438344e+001
9.772519e+002, 8.437781e+001
9.777340e+002, 8.442641e+001
9.782161e+002, 8.441714e+001
9.786982e+002, 8.391746e+001
9.791804e+002, 8.343973e+001
9.796625e+002, 8.442801e+001
9.801446e+002, 8.630836e+001
9.806267e+002, 8.694807e+001
9.811088e+002, 8.600147e+001
9.815909e+002, 8.483008e+001
9.820731e+002, 8.433336e+001
9.825552e+002, 8.434290e+001
9.830373e+002, 8.475091e+001
9.835194e+002, 8.544538e+001
9.840015e+002, 8.554772e+001
9.844836e+002, 8.503440e+001
9.849658e+002, 8.444307e+001
9.854479e+002, 8.391485e+001
9.859300e+002, 8.363920e+001
9.864121e+002, 8.385942e+001
9.868942e+002, 8.436491e+001
9.873763e+002, 8.429574e+001
9.878585e+002, 8.348645e+001
9.883406e+002, 8.328226e+001
9.888227e+002, 8.399830e+001
9.893048e+002, 8.445671e+001
9.897869e+002, 8.412058e+001
9.902690e+002, 8.340334e+001
9.907512e+002, 8.271631e+001
9.912333e+002, 8.207943e+001
9.917154e+002, 8.177046e+001
9.921975e+002, 8.188422e+001
9.926796e+002, 8.213663e+001
9.931617e+002, 8.266436e+001
9.936439e+002, 8.311228e+001
9.941260e+002, 8.330412e+001
9.946081e+002, 8.332691e+001
9.950902e+002, 8.332684e+001
9.955723e+002, 8.331052e+001
9.960544e+002, 8.309667e+001
9.965366e+002, 8.239368e+001
9.970187e+002, 8.190073e+001
9.975008e+002, 8.180035e+001
9.979829e+002, 8.186932e+001
9.984650e+002, 8.208607e+001
9.989471e+002, 8.233080e+001
9.994293e+002, 8.238573e+001
9.999114e+002, 8.221165e+001
1.000393e+003, 8.210732e+001
1.000876e+003, 8.234948e+001
1.001358e+003, 8.242922e+001
1.001840e+003, 8.196861e+001
1.002322e+003, 8.139472e+001
1.002804e+003, 8.108747e+001
1.003286e+003, 8.098389e+001
1.003768e+003, 8.081531e+001
1.004250e+003, 8.049648e+001
1.004733e+003, 8.036205e+001
1.005215e+003, 8.069578e+001
1.005697e+003, 8.116921e+001
1.006179e+003, 8.164847e+001
1.006661e+003, 8.204881e+001
1.007143e+003, 8.230663e+001
1.007625e+003, 8.238852e+001
1.008107e+003, 8.215799e+001
1.008589e+003, 8.152245e+001
1.009072e+003, 8.105386e+001
1.009554e+003, 8.138867e+001
1.010036e+003, 8.202351e+001
1.010518e+003, 8.241758e+001
1.011000e+003, 8.262409e+001
1.011482e+003, 8.285234e+001
1.011964e+003, 8.307421e+001
1.012446e+003, 8.296980e+001
1.012929e+003, 8.233681e+001
1.013411e+003, 8.156870e+001
1.013893e+003, 8.095975e+001
1.014375e+003, 8.064059e+001
1.014857e+003, 8.113402e+001
1.015339e+003, 8.215438e+001
1.015821e+003, 8.269579e+001
1.016303e+003, 8.256181e+001
1.016785e+003, 8.221490e+001
1.017268e+003, 8.195005e+001
1.017750e+003, 8.176775e+001
1.018232e+003, 8.168597e+001
1.018714e+003, 8.168494e+001
1.019196e+003, 8.170870e+001
1.019678e+003, 8.174368e+001
1.020160e+003, 8.170901e+001
1.020642e+003, 8.158093e+001
1.021125e+003, 8.130634e+001
1.021607e+003, 8.081015e+001
1.022089e+003, 8.025034e+001
1.022571e+003, 8.000038e+001
1.023053e+003, 8.004501e+001
1.023535e+003, 8.013204e+001
1.024017e+003, 8.025338e+001
1.024499e+003, 8.039612e+001
1.024981e+003, 8.055452e+001
1.025464e+003, 8.076177e+001
1.025946e+003, 8.107097e+001
1.026428e+003, 8.140942e+001
1.026910e+003, 8.153074e+001
1.027392e+003, 8.141167e+001
1.027874e+003, 8.126844e+001
1.028356e+003, 8.106834e+001
1.028838e+003, 8.107986e+001
1.029321e+003, 8.149070e+001
1.029803e+003, 8.184846e+001
1.030285e+003, 8.164333e+001
1.030767e+003, 8.105790e+001
1.031249e+003, 8.095875e+001
1.031731e+003, 8.154781e+001
1.032213e+003, 8.181937e+001
1.032695e+003, 8.160022e+001
1.033177e+003, 8.145027e+001
1.033660e+003, 8.164403e+001
1.034142e+003, 8.187520e+001
1.034624e+003, 8.184840e+001
1.035106e+003, 8.157681e+001
1.035588e+003, 8.110491e+001
1.036070e+003, 8.010703e+001
1.036552e+003, 7.973125e+001
1.037034e+003, 8.047371e+001
1.037516e+003, 8.101103e+001
1.037999e+003, 8.068259e+001
1.038481e+003, 8.010325e+001
1.038963e+003, 7.991749e+001
1.039445e+003, 8.007700e+001
1.039927e+003, 8.020654e+001
1.040409e+003, 8.028889e+001
1.040891e+003, 8.037440e+001
1.041373e+003, 8.059531e+001
1.041855e+003, 8.065068e+001
1.042338e+003, 8.014880e+001
1.042820e+003, 7.963339e+001
1.043302e+003, 7.984766e+001
1.043784e+003, 8.064538e+001
1.044266e+003, 8.088692e+001
1.044748e+003, 8.009232e+001
1.045230e+003, 7.949507e+001
1.045712e+003, 7.924181e+001
1.046195e+003, 7.909678e+001
1.046677e+003, 7.897951e+001
1.047159e+003, 7.891368e+001
1.047641e+003, 7.893734e+001
1.048123e+003, 7.904259e+001
1.048605e+003, 7.916952e+001
1.049087e+003, 7.929898e+001
1.049569e+003, 7.947375e+001
1.050052e+003, 7.989209e+001
1.050534e+003, 8.012920e+001
1.051016e+003, 7.988560e+001
1.051498e+003, 7.943276e+001
1.051980e+003, 7.901604e+001
1.052462e+003, 7.866893e+001
1.052944e+003, 7.842892e+001
1.053426e+003, 7.829963e+001
1.053908e+003, 7.828094e+001
1.054391e+003, 7.839034e+001
1.054873e+003, 7.859042e+001
1.055355e+003, 7.899922e+001
1.055837e+003, 7.939401e+001
1.056319e+003, 7.948001e+001
1.056801e+003, 7.930218e+001
1.057283e+003, 7.920130e+001
1.057765e+003, 7.932253e+001
1.058248e+003, 7.936949e+001
1.058730e+003, 7.919587e+001
1.059212e+003, 7.899426e+001
1.059694e+003, 7.880898e+001
1.060176e+003, 7.869843e+001
1.060658e+003, 7.875977e+001
1.061140e+003, 7.895641e+001
1.061622e+003, 7.911321e+001
1.062104e+003, 7.916149e+001
1.062587e+003, 7.922876e+001
1.063069e+003, 7.939564e+001
1.063551e+003, 7.955392e+001
1.064033e+003, 7.969219e+001
1.064515e+003, 7.975072e+001
1.064997e+003, 7.970650e+001
1.065479e+003, 7.952507e+001
1.065961e+003, 7.903807e+001
1.066443e+003, 7.800460e+001
1.066926e+003, 7.736783e+001
1.067408e+003, 7.793578e+001
1.067890e+003, 7.852705e+001
1.068372e+003, 7.838329e+001
1.068854e+003, 7.791720e+001
1.069336e+003, 7.759901e+001
1.069818e+003, 7.743055e+001
1.070300e+003, 7.715544e+001
1.070782e+003, 7.662210e+001
1.071265e+003, 7.636452e+001
1.071747e+003, 7.691721e+001
1.072229e+003, 7.746705e+001
1.072711e+003, 7.740976e+001
1.073193e+003, 7.717822e+001
1.073675e+003, 7.736539e+001
1.074157e+003, 7.780374e+001
1.074639e+003, 7.780625e+001
1.075122e+003, 7.709640e+001
1.075604e+003, 7.662758e+001
1.076086e+003, 7.711971e+001
1.076568e+003, 7.764130e+001
1.077050e+003, 7.751997e+001
1.077532e+003, 7.725428e+001
1.078014e+003, 7.749133e+001
1.078496e+003, 7.801729e+001
1.078979e+003, 7.816175e+001
1.079461e+003, 7.773916e+001
1.079943e+003, 7.723083e+001
1.080425e+003, 7.668638e+001
1.080907e+003, 7.632603e+001
1.081389e+003, 7.649128e+001
1.081871e+003, 7.671231e+001
1.082353e+003, 7.652393e+001
1.082835e+003, 7.603622e+001
1.083318e+003, 7.548154e+001
1.083800e+003, 7.492088e+001
1.084282e+003, 7.466946e+001
1.084764e+003, 7.521290e+001
1.085246e+003, 7.565146e+001
1.085728e+003, 7.543205e+001
1.086210e+003, 7.501196e+001
1.086692e+003, 7.441970e+001
1.087175e+003, 7.407826e+001
1.087657e+003, 7.503006e+001
1.088139e+003, 7.729778e+001
1.088621e+003, 7.865847e+001
1.089103e+003, 7.751022e+001
1.089585e+003, 7.628963e+001
1.090067e+003, 7.613622e+001
1.090549e+003, 7.621819e+001
1.091031e+003, 7.576641e+001
1.091514e+003, 7.519212e+001
1.091996e+003, 7.526945e+001
1.092478e+003, 7.601215e+001
1.092960e+003, 7.663103e+001
1.093442e+003, 7.686420e+001
1.093924e+003, 7.693450e+001
1.094406e+003, 7.692735e+001
1.094888e+003, 7.678355e+001
1.095370e+003, 7.625442e+001
1.095853e+003, 7.570296e+001
1.096335e+003, 7.573583e+001
1.096817e+003, 7.623325e+001
1.097299e+003, 7.630051e+001
1.097781e+003, 7.540331e+001
1.098263e+003, 7.483723e+001
1.098745e+003, 7.541702e+001
1.099227e+003, 7.595353e+001
1.099709e+003, 7.573925e+001
1.100192e+003, 7.522807e+001
1.100674e+003, 7.490939e+001
1.101156e+003, 7.475169e+001
1.101638e+003, 7.441768e+001
1.102120e+003, 7.364783e+001
1.102602e+003, 7.345470e+001
1.103084e+003, 7.473681e+001
1.103566e+003, 7.579951e+001
1.104049e+003, 7.597353e+001
1.104531e+003, 7.565263e+001
1.105013e+003, 7.484011e+001
1.105495e+003, 7.389796e+001
1.105977e+003, 7.369832e+001
1.106459e+003, 7.450671e+001
1.106941e+003, 7.492399e+001
1.107423e+003, 7.412171e+001
1.107906e+003, 7.373435e+001
1.108388e+003, 7.481521e+001
1.108870e+003, 7.581050e+001
1.109352e+003, 7.551561e+001
1.109834e+003, 7.452023e+001
1.110316e+003, 7.381432e+001
1.110798e+003, 7.345198e+001
1.111280e+003, 7.337727e+001
1.111762e+003, 7.373605e+001
1.112245e+003, 7.415462e+001
1.112727e+003, 7.486555e+001
1.113209e+003, 7.531079e+001
1.113691e+003, 7.501712e+001
1.114173e+003, 7.443495e+001
1.114655e+003, 7.412414e+001
1.115137e+003, 7.406686e+001
1.115619e+003, 7.397714e+001
1.116102e+003, 7.365409e+001
1.116584e+003, 7.366917e+001
1.117066e+003, 7.448151e+001
1.117548e+003, 7.494285e+001
1.118030e+003, 7.427187e+001
1.118512e+003, 7.350381e+001
1.118994e+003, 7.365438e+001
1.119476e+003, 7.452695e+001
1.119958e+003, 7.539690e+001
1.120441e+003, 7.656017e+001
1.120923e+003, 7.668810e+001
1.121405e+003, 7.509560e+001
1.121887e+003, 7.399463e+001
1.122369e+003, 7.412083e+001
1.122851e+003, 7.456553e+001
1.123333e+003, 7.466264e+001
1.123815e+003, 7.462257e+001
1.124297e+003, 7.497762e+001
1.124780e+003, 7.580209e+001
1.125262e+003, 7.602136e+001
1.125744e+003, 7.546976e+001
1.126226e+003, 7.489072e+001
1.126708e+003, 7.435258e+001
1.127190e+003, 7.401119e+001
1.127672e+003, 7.400510e+001
1.128154e+003, 7.408970e+001
1.128636e+003, 7.382343e+001
1.129119e+003, 7.332710e+001
1.129601e+003, 7.381956e+001
1.130083e+003, 7.547242e+001
1.130565e+003, 7.612086e+001
1.131047e+003, 7.543813e+001
1.131529e+003, 7.479458e+001
1.132011e+003, 7.475629e+001
1.132493e+003, 7.482445e+001
1.132976e+003, 7.448890e+001
1.133458e+003, 7.388657e+001
1.133940e+003, 7.331783e+001
1.134422e+003, 7.281040e+001
1.134904e+003, 7.286196e+001
1.135386e+003, 7.345657e+001
1.135868e+003, 7.375961e+001
1.136350e+003, 7.355317e+001
1.136833e+003, 7.344521e+001
1.137315e+003, 7.389017e+001
1.137797e+003, 7.452200e+001
1.138279e+003, 7.478808e+001
1.138761e+003, 7.471719e+001
1.139243e+003, 7.421347e+001
1.139725e+003, 7.344830e+001
1.140207e+003, 7.318990e+001
1.140689e+003, 7.350342e+001
1.141172e+003, 7.394894e+001
1.141654e+003, 7.431306e+001
1.142136e+003, 7.446631e+001
1.142618e+003, 7.412093e+001
1.143100e+003, 7.364350e+001
1.143582e+003, 7.377238e+001
1.144064e+003, 7.419019e+001
1.144546e+003, 7.412983e+001
1.145029e+003, 7.373280e+001
1.145511e+003, 7.377790e+001
1.145993e+003, 7.440833e+001
1.146475e+003, 7.478410e+001
1.146957e+003, 7.420908e+001
1.147439e+003, 7.347808e+001
1.147921e+003, 7.335976e+001
1.148403e+003, 7.353978e+001
1.148885e+003, 7.379712e+001
1.149368e+003, 7.399323e+001
1.149850e+003, 7.388917e+001
1.150332e+003, 7.352074e+001
1.150814e+003, 7.312533e+001
1.151296e+003, 7.275554e+001
1.151778e+003, 7.265774e+001
1.152260e+003, 7.326260e+001
1.152742e+003, 7.386309e+001
1.153224e+003, 7.382676e+001
1.153707e+003, 7.366366e+001
1.154189e+003, 7.409550e+001
1.154671e+003, 7.481734e+001
1.155153e+003, 7.499142e+001
1.155635e+003, 7.444467e+001
1.156117e+003, 7.391384e+001
1.156599e+003, 7.316834e+001
1.157081e+003, 7.313193e+001
1.157563e+003, 7.516341e+001
1.158046e+003, 7.681808e+001
1.158528e+003, 7.616248e+001
1.159010e+003, 7.448753e+001
1.159492e+003, 7.340938e+001
1.159974e+003, 7.299977e+001
1.160456e+003, 7.287913e+001
1.160938e+003, 7.315248e+001
1.161420e+003, 7.346088e+001
1.161903e+003, 7.387992e+001
1.162385e+003, 7.420421e+001
1.162867e+003, 7.437584e+001
1.163349e+003, 7.444147e+001
1.163831e+003, 7.452016e+001
1.164313e+003, 7.446359e+001
1.164795e+003, 7.378457e+001
1.165277e+003, 7.229005e+001
1.165760e+003, 7.189783e+001
1.166242e+003, 7.313332e+001
1.166724e+003, 7.371428e+001
1.167206e+003, 7.303826e+001
1.167688e+003, 7.253671e+001
1.168170e+003, 7.304289e+001
1.168652e+003, 7.377577e+001
1.169134e+003, 7.366284e+001
1.169616e+003, 7.297031e+001
1.170099e+003, 7.310634e+001
1.170581e+003, 7.408863e+001
1.171063e+003, 7.427338e+001
1.171545e+003, 7.355451e+001
1.172027e+003, 7.292578e+001
1.172509e+003, 7.268456e+001
1.172991e+003, 7.271390e+001
1.173473e+003, 7.293120e+001
1.173956e+003, 7.331882e+001
1.174438e+003, 7.410003e+001
1.174920e+003, 7.496138e+001
1.175402e+003, 7.461675e+001
1.175884e+003, 7.344456e+001
1.176366e+003, 7.285612e+001
1.176848e+003, 7.296605e+001
1.177330e+003, 7.309120e+001
1.177813e+003, 7.293959e+001
1.178295e+003, 7.276939e+001
1.178777e+003, 7.282258e+001
1.179259e+003, 7.295864e+001
1.179741e+003, 7.290695e+001
1.180223e+003, 7.289455e+001
1.180705e+003, 7.348882e+001
1.181187e+003, 7.430155e+001
1.181669e+003, 7.430694e+001
1.182151e+003, 7.351794e+001
1.182634e+003, 7.315533e+001
1.183116e+003, 7.397552e+001
1.183598e+003, 7.452427e+001
1.184080e+003, 7.342039e+001
1.184562e+003, 7.237310e+001
1.185044e+003, 7.275247e+001
1.185526e+003, 7.358346e+001
1.186008e+003, 7.386449e+001
1.186490e+003, 7.371148e+001
1.186973e+003, 7.367471e+001
1.187455e+003, 7.386410e+001
1.187937e+003, 7.377031e+001
1.188419e+003, 7.280922e+001
1.188901e+003, 7.227945e+001
1.189383e+003, 7.287225e+001
1.189865e+003, 7.343470e+001
1.190347e+003, 7.316061e+001
1.190830e+003, 7.274613e+001
1.191312e+003, 7.310585e+001
1.191794e+003, 7.398901e+001
1.192276e+003, 7.410744e+001
1.192758e+003, 7.310800e+001
1.193240e+003, 7.253964e+001
1.193722e+003, 7.245499e+001
1.194204e+003, 7.273667e+001
1.194687e+003, 7.357359e+001
1.195169e+003, 7.402277e+001
1.195651e+003, 7.336268e+001
1.196133e+003, 7.233107e+001
1.196615e+003, 7.213053e+001
1.197097e+003, 7.261263e+001
1.197579e+003, 7.283704e+001
1.198061e+003, 7.282832e+001
1.198543e+003, 7.308006e+001
1.199026e+003, 7.361858e+001
1.199508e+003, 7.410257e+001
1.199990e+003, 7.441457e+001
1.200472e+003, 7.469186e+001
1.200954e+003, 7.508080e+001
1.201436e+003, 7.528826e+001
1.201918e+003, 7.457510e+001
1.202400e+003, 7.353188e+001
1.202883e+003, 7.340919e+001
1.203365e+003, 7.391618e+001
1.203847e+003, 7.444380e+001
1.204329e+003, 7.483089e+001
1.204811e+003, 7.497042e+001
1.205293e+003, 7.482817e+001
1.205775e+003, 7.458077e+001
1.206257e+003, 7.421352e+001
1.206740e+003, 7.397305e+001
1.207222e+003, 7.420235e+001
1.207704e+003, 7.447982e+001
1.208186e+003, 7.452503e+001
1.208668e+003, 7.429900e+001
1.209150e+003, 7.345969e+001
1.209632e+003, 7.228477e+001
1.210114e+003, 7.215578e+001
1.210596e+003, 7.387459e+001
1.211078e+003, 7.499116e+001
1.211561e+003, 7.457574e+001
1.212043e+003, 7.412120e+001
1.212525e+003, 7.411954e+001
1.213007e+003, 7.416844e+001
1.213489e+003, 7.396452e+001
1.213971e+003, 7.368023e+001
1.214453e+003, 7.361557e+001
1.214935e+003, 7.374885e+001
1.215417e+003, 7.367587e+001
1.215900e+003, 7.332732e+001
1.216382e+003, 7.298586e+001
1.216864e+003, 7.258149e+001
1.217346e+003, 7.267798e+001
1.217828e+003, 7.359786e+001
1.218310e+003, 7.420593e+001
1.218792e+003, 7.353004e+001
1.219274e+003, 7.245180e+001
1.219757e+003, 7.274753e+001
1.220239e+003, 7.404617e+001
1.220721e+003, 7.460464e+001
1.221203e+003, 7.451561e+001
1.221685e+003, 7.404699e+001
1.222167e+003, 7.336845e+001
1.222649e+003, 7.317861e+001
1.223131e+003, 7.366383e+001
1.223614e+003, 7.401665e+001
1.224096e+003, 7.351845e+001
1.224578e+003, 7.295848e+001
1.225060e+003, 7.346429e+001
1.225542e+003, 7.416506e+001
1.226024e+003, 7.389812e+001
1.226506e+003, 7.317007e+001
1.226988e+003, 7.272175e+001
1.227470e+003, 7.264224e+001
1.227953e+003, 7.291045e+001
1.228435e+003, 7.354262e+001
1.228917e+003, 7.384261e+001
1.229399e+003, 7.315706e+001
1.229881e+003, 7.265186e+001
1.230363e+003, 7.280629e+001
1.230845e+003, 7.313485e+001
1.231327e+003, 7.360236e+001
1.231810e+003, 7.390331e+001
1.232292e+003, 7.347433e+001
1.232774e+003, 7.257813e+001
1.233256e+003, 7.228873e+001
1.233738e+003, 7.278658e+001
1.234220e+003, 7.310744e+001
1.234702e+003, 7.317464e+001
1.235184e+003, 7.332226e+001
1.235667e+003, 7.364277e+001
1.236149e+003, 7.391127e+001
1.236631e+003, 7.399570e+001
1.237113e+003, 7.405723e+001
1.237595e+003, 7.431888e+001
1.238077e+003, 7.465507e+001
1.238559e+003, 7.461788e+001
1.239041e+003, 7.431107e+001
1.239523e+003, 7.446037e+001
1.240005e+003, 7.488444e+001
1.240488e+003, 7.428661e+001
1.240970e+003, 7.266672e+001
1.241452e+003, 7.174642e+001
1.241934e+003, 7.237675e+001
1.242416e+003, 7.332526e+001
1.242898e+003, 7.345132e+001
1.243380e+003, 7.335188e+001
1.243862e+003, 7.366139e+001
1.244344e+003, 7.404382e+001
1.244827e+003, 7.417976e+001
1.245309e+003, 7.407514e+001
1.245791e+003, 7.369496e+001
1.246273e+003, 7.312632e+001
1.246755e+003, 7.273080e+001
1.247237e+003, 7.262039e+001
1.247719e+003, 7.261376e+001
1.248201e+003, 7.264067e+001
1.248684e+003, 7.280651e+001
1.249166e+003, 7.340876e+001
1.249648e+003, 7.383790e+001
1.250130e+003, 7.354380e+001
1.250612e+003, 7.310958e+001
1.251094e+003, 7.345460e+001
1.251576e+003, 7.435654e+001
1.252058e+003, 7.425564e+001
1.252541e+003, 7.293501e+001
1.253023e+003, 7.220191e+001
1.253505e+003, 7.213196e+001
1.253987e+003, 7.235596e+001
1.254469e+003, 7.279505e+001
1.254951e+003, 7.313261e+001
1.255433e+003, 7.318066e+001
1.255915e+003, 7.315569e+001
1.256397e+003, 7.337742e+001
1.256880e+003, 7.362476e+001
1.257362e+003, 7.330921e+001
1.257844e+003, 7.278150e+001
1.258326e+003, 7.268944e+001
1.258808e+003, 7.300752e+001
1.259290e+003, 7.377441e+001
1.259772e+003, 7.476385e+001
1.260254e+003, 7.509982e+001
1.260737e+003, 7.434293e+001
1.261219e+003, 7.359246e+001
1.261701e+003, 7.328938e+001
1.262183e+003, 7.332120e+001
1.262665e+003, 7.397540e+001
1.263147e+003, 7.458260e+001
1.263629e+003, 7.451615e+001
1.264111e+003, 7.419517e+001
1.264594e+003, 7.437200e+001
1.265076e+003, 7.489521e+001
1.265558e+003, 7.473062e+001
1.266040e+003, 7.349648e+001
1.266522e+003, 7.300192e+001
1.267004e+003, 7.346711e+001
1.267486e+003, 7.392445e+001
1.267968e+003, 7.423021e+001
1.268450e+003, 7.428664e+001
1.268932e+003, 7.401372e+001
1.269415e+003, 7.366749e+001
1.269897e+003, 7.352242e+001
1.270379e+003, 7.354089e+001
1.270861e+003, 7.370249e+001
1.271343e+003, 7.392776e+001
1.271825e+003, 7.391476e+001
1.272307e+003, 7.376078e+001
1.272789e+003, 7.383451e+001
1.273271e+003, 7.411649e+001
1.273754e+003, 7.422892e+001
1.274236e+003, 7.403742e+001
1.274718e+003, 7.390147e+001
1.275200e+003, 7.421612e+001
1.275682e+003, 7.441499e+001
1.276164e+003, 7.395353e+001
1.276646e+003, 7.348769e+001
1.277128e+003, 7.349837e+001
1.277611e+003, 7.376097e+001
1.278093e+003, 7.396589e+001
1.278575e+003, 7.417944e+001
1.279057e+003, 7.476159e+001
1.279539e+003, 7.582773e+001
1.280021e+003, 7.641792e+001
1.280503e+003, 7.658294e+001
1.280985e+003, 7.592141e+001
1.281468e+003, 7.400273e+001
1.281950e+003, 7.290584e+001
1.282432e+003, 7.350138e+001
1.282914e+003, 7.452367e+001
1.283396e+003, 7.493681e+001
1.283878e+003, 7.507625e+001
1.284360e+003, 7.567414e+001
1.284842e+003, 7.642929e+001
1.285324e+003, 7.650542e+001
##END=



