##NAMES=Rutile
##RRUFFID=R060493
##IDEAL CHEMISTRY=Ti^4+^O_2_
##LOCALITY=Diamantina, Minas Gerais, Brazil
##OWNER=RRUFF
##SOURCE=Michael Scott
##DESCRIPTION=Black tetragonal prism
##STATUS=The identification of this mineral has been confirmed by X-ray diffraction and chemical analysis
##URL=rruff.info/R060493
##MEASURED CHEMISTRY=Ti_1.00_O_2_
9.059570e+001, 2.096396e+003
9.107782e+001, 2.013405e+003
9.155994e+001, 1.983996e+003
9.204205e+001, 2.045970e+003
9.252417e+001, 2.135972e+003
9.300629e+001, 2.233355e+003
9.348840e+001, 2.318908e+003
9.397052e+001, 2.376700e+003
9.445264e+001, 2.399503e+003
9.493475e+001, 2.417997e+003
9.541687e+001, 2.432575e+003
9.589898e+001, 2.445246e+003
9.638110e+001, 2.456691e+003
9.686321e+001, 2.467319e+003
9.734533e+001, 2.475658e+003
9.782745e+001, 2.477326e+003
9.830956e+001, 2.480520e+003
9.879168e+001, 2.487596e+003
9.927380e+001, 2.494482e+003
9.975591e+001, 2.499266e+003
1.002380e+002, 2.502406e+003
1.007201e+002, 2.505642e+003
1.012023e+002, 2.509785e+003
1.016844e+002, 2.514833e+003
1.021665e+002, 2.520168e+003
1.026486e+002, 2.525223e+003
1.031307e+002, 2.530595e+003
1.036128e+002, 2.536645e+003
1.040950e+002, 2.543220e+003
1.045771e+002, 2.550635e+003
1.050592e+002, 2.558828e+003
1.055413e+002, 2.567234e+003
1.060234e+002, 2.575156e+003
1.065055e+002, 2.581785e+003
1.069877e+002, 2.587501e+003
1.074698e+002, 2.594333e+003
1.079519e+002, 2.603665e+003
1.084340e+002, 2.612078e+003
1.089161e+002, 2.617935e+003
1.093982e+002, 2.621698e+003
1.098804e+002, 2.624562e+003
1.103625e+002, 2.627462e+003
1.108446e+002, 2.630318e+003
1.113267e+002, 2.633373e+003
1.118088e+002, 2.636495e+003
1.122909e+002, 2.639860e+003
1.127731e+002, 2.643725e+003
1.132552e+002, 2.648011e+003
1.137373e+002, 2.652350e+003
1.142194e+002, 2.656169e+003
1.147015e+002, 2.659213e+003
1.151836e+002, 2.662137e+003
1.156658e+002, 2.664983e+003
1.161479e+002, 2.667700e+003
1.166300e+002, 2.670174e+003
1.171121e+002, 2.672352e+003
1.175942e+002, 2.674416e+003
1.180763e+002, 2.676847e+003
1.185584e+002, 2.679931e+003
1.190406e+002, 2.682708e+003
1.195227e+002, 2.685006e+003
1.200048e+002, 2.686790e+003
1.204869e+002, 2.687731e+003
1.209690e+002, 2.686842e+003
1.214511e+002, 2.685741e+003
1.219333e+002, 2.687488e+003
1.224154e+002, 2.693224e+003
1.228975e+002, 2.699774e+003
1.233796e+002, 2.704746e+003
1.238617e+002, 2.708142e+003
1.243438e+002, 2.709927e+003
1.248260e+002, 2.708719e+003
1.253081e+002, 2.706284e+003
1.257902e+002, 2.703933e+003
1.262723e+002, 2.701908e+003
1.267544e+002, 2.700489e+003
1.272365e+002, 2.700521e+003
1.277187e+002, 2.703076e+003
1.282008e+002, 2.705355e+003
1.286829e+002, 2.706420e+003
1.291650e+002, 2.706782e+003
1.296471e+002, 2.707077e+003
1.301292e+002, 2.707667e+003
1.306114e+002, 2.708563e+003
1.310935e+002, 2.709803e+003
1.315756e+002, 2.711809e+003
1.320577e+002, 2.713825e+003
1.325398e+002, 2.715398e+003
1.330219e+002, 2.716800e+003
1.335041e+002, 2.718759e+003
1.339862e+002, 2.722084e+003
1.344683e+002, 2.727242e+003
1.349504e+002, 2.730554e+003
1.354325e+002, 2.730528e+003
1.359146e+002, 2.730229e+003
1.363968e+002, 2.731070e+003
1.368789e+002, 2.733298e+003
1.373610e+002, 2.736797e+003
1.378431e+002, 2.741558e+003
1.383252e+002, 2.747859e+003
1.388073e+002, 2.754424e+003
1.392895e+002, 2.759937e+003
1.397716e+002, 2.766170e+003
1.402537e+002, 2.775188e+003
1.407358e+002, 2.787440e+003
1.412179e+002, 2.802368e+003
1.417000e+002, 2.821487e+003
1.421821e+002, 2.844513e+003
1.426643e+002, 2.863634e+003
1.431464e+002, 2.878252e+003
1.436285e+002, 2.886999e+003
1.441106e+002, 2.884264e+003
1.445927e+002, 2.864344e+003
1.450748e+002, 2.836521e+003
1.455570e+002, 2.807785e+003
1.460391e+002, 2.778447e+003
1.465212e+002, 2.752478e+003
1.470033e+002, 2.733828e+003
1.474854e+002, 2.722986e+003
1.479675e+002, 2.714498e+003
1.484497e+002, 2.708804e+003
1.489318e+002, 2.704323e+003
1.494139e+002, 2.700380e+003
1.498960e+002, 2.696835e+003
1.503781e+002, 2.693792e+003
1.508602e+002, 2.691500e+003
1.513424e+002, 2.690201e+003
1.518245e+002, 2.689164e+003
1.523066e+002, 2.687495e+003
1.527887e+002, 2.686424e+003
1.532708e+002, 2.687244e+003
1.537529e+002, 2.690384e+003
1.542351e+002, 2.694868e+003
1.547172e+002, 2.698252e+003
1.551993e+002, 2.699198e+003
1.556814e+002, 2.700543e+003
1.561635e+002, 2.702510e+003
1.566456e+002, 2.704918e+003
1.571278e+002, 2.707449e+003
1.576099e+002, 2.709922e+003
1.580920e+002, 2.712508e+003
1.585741e+002, 2.716024e+003
1.590562e+002, 2.721789e+003
1.595383e+002, 2.726864e+003
1.600205e+002, 2.729457e+003
1.605026e+002, 2.730712e+003
1.609847e+002, 2.733385e+003
1.614668e+002, 2.739246e+003
1.619489e+002, 2.747677e+003
1.624310e+002, 2.755344e+003
1.629131e+002, 2.761716e+003
1.633953e+002, 2.767874e+003
1.638774e+002, 2.774169e+003
1.643595e+002, 2.780646e+003
1.648416e+002, 2.787618e+003
1.653237e+002, 2.795251e+003
1.658058e+002, 2.803621e+003
1.662880e+002, 2.812800e+003
1.667701e+002, 2.823547e+003
1.672522e+002, 2.834575e+003
1.677343e+002, 2.844084e+003
1.682164e+002, 2.851657e+003
1.686985e+002, 2.859621e+003
1.691807e+002, 2.869247e+003
1.696628e+002, 2.880027e+003
1.701449e+002, 2.891663e+003
1.706270e+002, 2.904277e+003
1.711091e+002, 2.917488e+003
1.715912e+002, 2.930270e+003
1.720734e+002, 2.941944e+003
1.725555e+002, 2.954522e+003
1.730376e+002, 2.969319e+003
1.735197e+002, 2.985335e+003
1.740018e+002, 3.001228e+003
1.744839e+002, 3.016055e+003
1.749661e+002, 3.030090e+003
1.754482e+002, 3.044771e+003
1.759303e+002, 3.060485e+003
1.764124e+002, 3.076566e+003
1.768945e+002, 3.092571e+003
1.773766e+002, 3.108801e+003
1.778588e+002, 3.125576e+003
1.783409e+002, 3.143180e+003
1.788230e+002, 3.161649e+003
1.793051e+002, 3.181088e+003
1.797872e+002, 3.203259e+003
1.802693e+002, 3.224682e+003
1.807515e+002, 3.243776e+003
1.812336e+002, 3.261111e+003
1.817157e+002, 3.278112e+003
1.821978e+002, 3.296027e+003
1.826799e+002, 3.314974e+003
1.831620e+002, 3.333477e+003
1.836441e+002, 3.350273e+003
1.841263e+002, 3.367772e+003
1.846084e+002, 3.387933e+003
1.850905e+002, 3.410282e+003
1.855726e+002, 3.432187e+003
1.860547e+002, 3.450917e+003
1.865368e+002, 3.465889e+003
1.870190e+002, 3.482154e+003
1.875011e+002, 3.500795e+003
1.879832e+002, 3.519783e+003
1.884653e+002, 3.537416e+003
1.889474e+002, 3.553496e+003
1.894296e+002, 3.569499e+003
1.899117e+002, 3.586872e+003
1.903938e+002, 3.605568e+003
1.908759e+002, 3.624489e+003
1.913580e+002, 3.643523e+003
1.918401e+002, 3.662648e+003
1.923223e+002, 3.682050e+003
1.928044e+002, 3.701865e+003
1.932865e+002, 3.721530e+003
1.937686e+002, 3.740177e+003
1.942507e+002, 3.758157e+003
1.947328e+002, 3.776514e+003
1.952150e+002, 3.796259e+003
1.956971e+002, 3.816528e+003
1.961792e+002, 3.835449e+003
1.966613e+002, 3.852219e+003
1.971434e+002, 3.869029e+003
1.976255e+002, 3.887618e+003
1.981077e+002, 3.907582e+003
1.985898e+002, 3.927636e+003
1.990719e+002, 3.947362e+003
1.995540e+002, 3.966789e+003
2.000361e+002, 3.985735e+003
2.005182e+002, 4.003677e+003
2.010004e+002, 4.021993e+003
2.014825e+002, 4.041538e+003
2.019646e+002, 4.061946e+003
2.024467e+002, 4.082091e+003
2.029288e+002, 4.101143e+003
2.034109e+002, 4.119202e+003
2.038930e+002, 4.137130e+003
2.043752e+002, 4.153776e+003
2.048573e+002, 4.171568e+003
2.053394e+002, 4.192606e+003
2.058215e+002, 4.215575e+003
2.063036e+002, 4.237530e+003
2.067857e+002, 4.255709e+003
2.072679e+002, 4.269904e+003
2.077500e+002, 4.284510e+003
2.082321e+002, 4.298999e+003
2.087142e+002, 4.314445e+003
2.091963e+002, 4.331650e+003
2.096784e+002, 4.350173e+003
2.101606e+002, 4.368966e+003
2.106427e+002, 4.387281e+003
2.111248e+002, 4.405108e+003
2.116069e+002, 4.421383e+003
2.120890e+002, 4.433913e+003
2.125711e+002, 4.447008e+003
2.130533e+002, 4.462924e+003
2.135354e+002, 4.481139e+003
2.140175e+002, 4.499802e+003
2.144996e+002, 4.517321e+003
2.149817e+002, 4.533750e+003
2.154638e+002, 4.548503e+003
2.159460e+002, 4.560685e+003
2.164281e+002, 4.572450e+003
2.169102e+002, 4.584550e+003
2.173923e+002, 4.597157e+003
2.178744e+002, 4.610629e+003
2.183565e+002, 4.625417e+003
2.188387e+002, 4.641773e+003
2.193208e+002, 4.656894e+003
2.198029e+002, 4.671349e+003
2.202850e+002, 4.684371e+003
2.207671e+002, 4.694875e+003
2.212492e+002, 4.703111e+003
2.217314e+002, 4.710870e+003
2.222135e+002, 4.719486e+003
2.226956e+002, 4.729076e+003
2.231777e+002, 4.739615e+003
2.236598e+002, 4.752569e+003
2.241419e+002, 4.765408e+003
2.246240e+002, 4.775995e+003
2.251062e+002, 4.784308e+003
2.255883e+002, 4.791969e+003
2.260704e+002, 4.800331e+003
2.265525e+002, 4.809197e+003
2.270346e+002, 4.817313e+003
2.275167e+002, 4.823868e+003
2.279989e+002, 4.830095e+003
2.284810e+002, 4.837525e+003
2.289631e+002, 4.846289e+003
2.294452e+002, 4.854157e+003
2.299273e+002, 4.859063e+003
2.304094e+002, 4.861720e+003
2.308916e+002, 4.864167e+003
2.313737e+002, 4.865780e+003
2.318558e+002, 4.867826e+003
2.323379e+002, 4.872912e+003
2.328200e+002, 4.881763e+003
2.333021e+002, 4.888485e+003
2.337843e+002, 4.886868e+003
2.342664e+002, 4.881044e+003
2.347485e+002, 4.877174e+003
2.352306e+002, 4.877384e+003
2.357127e+002, 4.879703e+003
2.361948e+002, 4.881914e+003
2.366770e+002, 4.884274e+003
2.371591e+002, 4.885474e+003
2.376412e+002, 4.884626e+003
2.381233e+002, 4.882313e+003
2.386054e+002, 4.878911e+003
2.390875e+002, 4.874435e+003
2.395697e+002, 4.869058e+003
2.400518e+002, 4.862856e+003
2.405339e+002, 4.855468e+003
2.410160e+002, 4.848343e+003
2.414981e+002, 4.842885e+003
2.419802e+002, 4.837599e+003
2.424624e+002, 4.831044e+003
2.429445e+002, 4.822722e+003
2.434266e+002, 4.813002e+003
2.439087e+002, 4.802226e+003
2.443908e+002, 4.789825e+003
2.448729e+002, 4.777906e+003
2.453550e+002, 4.767876e+003
2.458372e+002, 4.758128e+003
2.463193e+002, 4.747122e+003
2.468014e+002, 4.734255e+003
2.472835e+002, 4.720601e+003
2.477656e+002, 4.708084e+003
2.482477e+002, 4.697897e+003
2.487299e+002, 4.685926e+003
2.492120e+002, 4.670321e+003
2.496941e+002, 4.653620e+003
2.501762e+002, 4.638004e+003
2.506583e+002, 4.624071e+003
2.511404e+002, 4.610479e+003
2.516226e+002, 4.594531e+003
2.521047e+002, 4.574672e+003
2.525868e+002, 4.556240e+003
2.530689e+002, 4.540737e+003
2.535510e+002, 4.525963e+003
2.540331e+002, 4.510062e+003
2.545153e+002, 4.492703e+003
2.549974e+002, 4.475080e+003
2.554795e+002, 4.458851e+003
2.559616e+002, 4.444318e+003
2.564437e+002, 4.430862e+003
2.569258e+002, 4.419350e+003
2.574080e+002, 4.408091e+003
2.578901e+002, 4.395825e+003
2.583722e+002, 4.382410e+003
2.588543e+002, 4.368614e+003
2.593364e+002, 4.355473e+003
2.598185e+002, 4.343268e+003
2.603007e+002, 4.331034e+003
2.607828e+002, 4.318331e+003
2.612649e+002, 4.305812e+003
2.617470e+002, 4.293750e+003
2.622291e+002, 4.282214e+003
2.627112e+002, 4.271460e+003
2.631934e+002, 4.261842e+003
2.636755e+002, 4.253901e+003
2.641576e+002, 4.245052e+003
2.646397e+002, 4.234636e+003
2.651218e+002, 4.224061e+003
2.656039e+002, 4.214444e+003
2.660861e+002, 4.205626e+003
2.665682e+002, 4.196290e+003
2.670503e+002, 4.184810e+003
2.675324e+002, 4.170371e+003
2.680145e+002, 4.159559e+003
2.684966e+002, 4.156111e+003
2.689788e+002, 4.152138e+003
2.694609e+002, 4.143148e+003
2.699430e+002, 4.129878e+003
2.704251e+002, 4.116100e+003
2.709072e+002, 4.104881e+003
2.713893e+002, 4.096403e+003
2.718715e+002, 4.087354e+003
2.723536e+002, 4.078089e+003
2.728357e+002, 4.068074e+003
2.733178e+002, 4.056906e+003
2.737999e+002, 4.044790e+003
2.742820e+002, 4.032272e+003
2.747642e+002, 4.019655e+003
2.752463e+002, 4.006945e+003
2.757284e+002, 3.994514e+003
2.762105e+002, 3.981794e+003
2.766926e+002, 3.969812e+003
2.771747e+002, 3.959972e+003
2.776568e+002, 3.951098e+003
2.781389e+002, 3.940280e+003
2.786211e+002, 3.925508e+003
2.791032e+002, 3.908219e+003
2.795853e+002, 3.894673e+003
2.800674e+002, 3.888177e+003
2.805495e+002, 3.880702e+003
2.810316e+002, 3.869874e+003
2.815138e+002, 3.856778e+003
2.819959e+002, 3.843401e+003
2.824780e+002, 3.830689e+003
2.829601e+002, 3.817939e+003
2.834422e+002, 3.803378e+003
2.839243e+002, 3.785642e+003
2.844065e+002, 3.768884e+003
2.848886e+002, 3.754530e+003
2.853707e+002, 3.741512e+003
2.858528e+002, 3.728110e+003
2.863349e+002, 3.713655e+003
2.868170e+002, 3.699218e+003
2.872992e+002, 3.686748e+003
2.877813e+002, 3.677050e+003
2.882634e+002, 3.666570e+003
2.887455e+002, 3.653815e+003
2.892276e+002, 3.640423e+003
2.897097e+002, 3.628434e+003
2.901919e+002, 3.618312e+003
2.906740e+002, 3.609387e+003
2.911561e+002, 3.600938e+003
2.916382e+002, 3.593063e+003
2.921203e+002, 3.585133e+003
2.926024e+002, 3.577294e+003
2.930846e+002, 3.569249e+003
2.935667e+002, 3.560148e+003
2.940488e+002, 3.549898e+003
2.945309e+002, 3.540582e+003
2.950130e+002, 3.534616e+003
2.954951e+002, 3.532047e+003
2.959773e+002, 3.527913e+003
2.964594e+002, 3.520516e+003
2.969415e+002, 3.512582e+003
2.974236e+002, 3.505896e+003
2.979057e+002, 3.500589e+003
2.983878e+002, 3.496447e+003
2.988700e+002, 3.493405e+003
2.993521e+002, 3.491532e+003
2.998342e+002, 3.490441e+003
3.003163e+002, 3.491433e+003
3.007984e+002, 3.492004e+003
3.012805e+002, 3.490226e+003
3.017627e+002, 3.486564e+003
3.022448e+002, 3.483054e+003
3.027269e+002, 3.480492e+003
3.032090e+002, 3.479063e+003
3.036911e+002, 3.479169e+003
3.041732e+002, 3.482023e+003
3.046554e+002, 3.484350e+003
3.051375e+002, 3.483961e+003
3.056196e+002, 3.481908e+003
3.061017e+002, 3.480871e+003
3.065838e+002, 3.481896e+003
3.070659e+002, 3.484391e+003
3.075481e+002, 3.487327e+003
3.080302e+002, 3.490689e+003
3.085123e+002, 3.494388e+003
3.089944e+002, 3.498466e+003
3.094765e+002, 3.502848e+003
3.099586e+002, 3.507532e+003
3.104408e+002, 3.512612e+003
3.109229e+002, 3.517478e+003
3.114050e+002, 3.520813e+003
3.118871e+002, 3.522500e+003
3.123692e+002, 3.525373e+003
3.128513e+002, 3.530831e+003
3.133335e+002, 3.537347e+003
3.138156e+002, 3.543205e+003
3.142977e+002, 3.548128e+003
3.147798e+002, 3.552653e+003
3.152619e+002, 3.557325e+003
3.157440e+002, 3.562087e+003
3.162262e+002, 3.566265e+003
3.167083e+002, 3.569250e+003
3.171904e+002, 3.572009e+003
3.176725e+002, 3.575450e+003
3.181546e+002, 3.579556e+003
3.186367e+002, 3.583504e+003
3.191188e+002, 3.586642e+003
3.196010e+002, 3.589178e+003
3.200831e+002, 3.592245e+003
3.205652e+002, 3.597042e+003
3.210473e+002, 3.601198e+003
3.215294e+002, 3.602637e+003
3.220115e+002, 3.602155e+003
3.224937e+002, 3.602760e+003
3.229758e+002, 3.606194e+003
3.234579e+002, 3.611166e+003
3.239400e+002, 3.614224e+003
3.244221e+002, 3.614654e+003
3.249042e+002, 3.615174e+003
3.253864e+002, 3.616907e+003
3.258685e+002, 3.619374e+003
3.263506e+002, 3.621771e+003
3.268327e+002, 3.623911e+003
3.273148e+002, 3.625704e+003
3.277969e+002, 3.626815e+003
3.282791e+002, 3.627071e+003
3.287612e+002, 3.627793e+003
3.292433e+002, 3.629708e+003
3.297254e+002, 3.631996e+003
3.302075e+002, 3.633686e+003
3.306896e+002, 3.634613e+003
3.311718e+002, 3.635214e+003
3.316539e+002, 3.635792e+003
3.321360e+002, 3.636350e+003
3.326181e+002, 3.637441e+003
3.331002e+002, 3.639501e+003
3.335823e+002, 3.641775e+003
3.340645e+002, 3.643452e+003
3.345466e+002, 3.644648e+003
3.350287e+002, 3.646441e+003
3.355108e+002, 3.649628e+003
3.359929e+002, 3.654080e+003
3.364750e+002, 3.658511e+003
3.369572e+002, 3.663478e+003
3.374393e+002, 3.667871e+003
3.379214e+002, 3.671125e+003
3.384035e+002, 3.673445e+003
3.388856e+002, 3.675176e+003
3.393677e+002, 3.676365e+003
3.398499e+002, 3.677296e+003
3.403320e+002, 3.678749e+003
3.408141e+002, 3.680579e+003
3.412962e+002, 3.683030e+003
3.417783e+002, 3.686660e+003
3.422604e+002, 3.690753e+003
3.427426e+002, 3.694371e+003
3.432247e+002, 3.697233e+003
3.437068e+002, 3.699697e+003
3.441889e+002, 3.702224e+003
3.446710e+002, 3.704847e+003
3.451531e+002, 3.707501e+003
3.456353e+002, 3.710003e+003
3.461174e+002, 3.712666e+003
3.465995e+002, 3.716015e+003
3.470816e+002, 3.719932e+003
3.475637e+002, 3.723597e+003
3.480458e+002, 3.726222e+003
3.485280e+002, 3.727764e+003
3.490101e+002, 3.729139e+003
3.494922e+002, 3.729333e+003
3.499743e+002, 3.730404e+003
3.504564e+002, 3.733993e+003
3.509385e+002, 3.739177e+003
3.514207e+002, 3.743831e+003
3.519028e+002, 3.746683e+003
3.523849e+002, 3.748095e+003
3.528670e+002, 3.749611e+003
3.533491e+002, 3.750725e+003
3.538312e+002, 3.752574e+003
3.543134e+002, 3.755105e+003
3.547955e+002, 3.758521e+003
3.552776e+002, 3.763772e+003
3.557597e+002, 3.771074e+003
3.562418e+002, 3.778448e+003
3.567239e+002, 3.782507e+003
3.572061e+002, 3.781409e+003
3.576882e+002, 3.780435e+003
3.581703e+002, 3.779120e+003
3.586524e+002, 3.778231e+003
3.591345e+002, 3.778210e+003
3.596166e+002, 3.779124e+003
3.600987e+002, 3.780982e+003
3.605808e+002, 3.784032e+003
3.610630e+002, 3.788563e+003
3.615451e+002, 3.791275e+003
3.620272e+002, 3.791026e+003
3.625093e+002, 3.790260e+003
3.629914e+002, 3.789083e+003
3.634735e+002, 3.788037e+003
3.639557e+002, 3.788038e+003
3.644378e+002, 3.789706e+003
3.649199e+002, 3.792656e+003
3.654020e+002, 3.795280e+003
3.658841e+002, 3.797937e+003
3.663662e+002, 3.799699e+003
3.668484e+002, 3.798959e+003
3.673305e+002, 3.798091e+003
3.678126e+002, 3.800200e+003
3.682947e+002, 3.806039e+003
3.687768e+002, 3.812577e+003
3.692589e+002, 3.814648e+003
3.697411e+002, 3.809910e+003
3.702232e+002, 3.807062e+003
3.707053e+002, 3.807670e+003
3.711874e+002, 3.809021e+003
3.716695e+002, 3.809412e+003
3.721516e+002, 3.809049e+003
3.726338e+002, 3.809507e+003
3.731159e+002, 3.812551e+003
3.735980e+002, 3.818052e+003
3.740801e+002, 3.822087e+003
3.745622e+002, 3.822825e+003
3.750443e+002, 3.824323e+003
3.755265e+002, 3.828751e+003
3.760086e+002, 3.834580e+003
3.764907e+002, 3.839313e+003
3.769728e+002, 3.841603e+003
3.774549e+002, 3.842507e+003
3.779370e+002, 3.844284e+003
3.784192e+002, 3.846991e+003
3.789013e+002, 3.850450e+003
3.793834e+002, 3.855161e+003
3.798655e+002, 3.860274e+003
3.803476e+002, 3.865081e+003
3.808297e+002, 3.869454e+003
3.813119e+002, 3.873969e+003
3.817940e+002, 3.879172e+003
3.822761e+002, 3.885073e+003
3.827582e+002, 3.891269e+003
3.832403e+002, 3.897547e+003
3.837224e+002, 3.904404e+003
3.842046e+002, 3.912591e+003
3.846867e+002, 3.921668e+003
3.851688e+002, 3.930266e+003
3.856509e+002, 3.937202e+003
3.861330e+002, 3.943140e+003
3.866151e+002, 3.949372e+003
3.870973e+002, 3.955618e+003
3.875794e+002, 3.963069e+003
3.880615e+002, 3.973895e+003
3.885436e+002, 3.985977e+003
3.890257e+002, 3.995987e+003
3.895078e+002, 4.001956e+003
3.899900e+002, 4.008143e+003
3.904721e+002, 4.018897e+003
3.909542e+002, 4.033680e+003
3.914363e+002, 4.047984e+003
3.919184e+002, 4.060172e+003
3.924005e+002, 4.071454e+003
3.928827e+002, 4.083770e+003
3.933648e+002, 4.097265e+003
3.938469e+002, 4.110040e+003
3.943290e+002, 4.120130e+003
3.948111e+002, 4.129438e+003
3.952932e+002, 4.141081e+003
3.957754e+002, 4.155748e+003
3.962575e+002, 4.171331e+003
3.967396e+002, 4.185974e+003
3.972217e+002, 4.199907e+003
3.977038e+002, 4.215274e+003
3.981859e+002, 4.233077e+003
3.986681e+002, 4.251734e+003
3.991501e+002, 4.270306e+003
3.996323e+002, 4.288886e+003
4.001144e+002, 4.307748e+003
4.005965e+002, 4.326776e+003
4.010786e+002, 4.346528e+003
4.015607e+002, 4.368640e+003
4.020428e+002, 4.394368e+003
4.025250e+002, 4.419811e+003
4.030071e+002, 4.443232e+003
4.034892e+002, 4.466500e+003
4.039713e+002, 4.492167e+003
4.044534e+002, 4.520563e+003
4.049355e+002, 4.549295e+003
4.054177e+002, 4.575192e+003
4.058998e+002, 4.596824e+003
4.063819e+002, 4.622325e+003
4.068640e+002, 4.653466e+003
4.073461e+002, 4.686133e+003
4.078282e+002, 4.718546e+003
4.083104e+002, 4.750911e+003
4.087925e+002, 4.784346e+003
4.092746e+002, 4.819991e+003
4.097567e+002, 4.857214e+003
4.102388e+002, 4.893666e+003
4.107209e+002, 4.927941e+003
4.112031e+002, 4.963200e+003
4.116852e+002, 4.999214e+003
4.121673e+002, 5.036564e+003
4.126494e+002, 5.076125e+003
4.131315e+002, 5.118001e+003
4.136136e+002, 5.161168e+003
4.140958e+002, 5.204050e+003
4.145779e+002, 5.246341e+003
4.150600e+002, 5.290427e+003
4.155421e+002, 5.337221e+003
4.160242e+002, 5.384853e+003
4.165063e+002, 5.432753e+003
4.169885e+002, 5.481112e+003
4.174706e+002, 5.529404e+003
4.179527e+002, 5.577119e+003
4.184348e+002, 5.625153e+003
4.189169e+002, 5.677669e+003
4.193990e+002, 5.735784e+003
4.198812e+002, 5.795475e+003
4.203633e+002, 5.855684e+003
4.208454e+002, 5.916336e+003
4.213275e+002, 5.977092e+003
4.218096e+002, 6.037771e+003
4.222917e+002, 6.098503e+003
4.227739e+002, 6.159602e+003
4.232560e+002, 6.220889e+003
4.237381e+002, 6.281212e+003
4.242202e+002, 6.338925e+003
4.247023e+002, 6.397530e+003
4.251844e+002, 6.460497e+003
4.256666e+002, 6.526752e+003
4.261487e+002, 6.593045e+003
4.266308e+002, 6.657243e+003
4.271129e+002, 6.721146e+003
4.275950e+002, 6.787033e+003
4.280771e+002, 6.855384e+003
4.285593e+002, 6.924591e+003
4.290414e+002, 6.994163e+003
4.295235e+002, 7.063644e+003
4.300056e+002, 7.131900e+003
4.304877e+002, 7.199054e+003
4.309698e+002, 7.264931e+003
4.314520e+002, 7.328603e+003
4.319341e+002, 7.390790e+003
4.324162e+002, 7.453178e+003
4.328983e+002, 7.515825e+003
4.333804e+002, 7.579263e+003
4.338625e+002, 7.644972e+003
4.343447e+002, 7.713529e+003
4.348268e+002, 7.777285e+003
4.353089e+002, 7.832800e+003
4.357910e+002, 7.886142e+003
4.362731e+002, 7.941189e+003
4.367552e+002, 7.997376e+003
4.372374e+002, 8.052114e+003
4.377195e+002, 8.103854e+003
4.382016e+002, 8.152994e+003
4.386837e+002, 8.200150e+003
4.391658e+002, 8.243842e+003
4.396479e+002, 8.287554e+003
4.401301e+002, 8.332693e+003
4.406122e+002, 8.377179e+003
4.410943e+002, 8.420386e+003
4.415764e+002, 8.461262e+003
4.420585e+002, 8.496785e+003
4.425406e+002, 8.522903e+003
4.430227e+002, 8.538903e+003
4.435049e+002, 8.551420e+003
4.439870e+002, 8.558986e+003
4.444691e+002, 8.564544e+003
4.449512e+002, 8.570034e+003
4.454333e+002, 8.573840e+003
4.459154e+002, 8.573760e+003
4.463976e+002, 8.568818e+003
4.468797e+002, 8.558345e+003
4.473618e+002, 8.540194e+003
4.478439e+002, 8.512540e+003
4.483260e+002, 8.482558e+003
4.488081e+002, 8.453529e+003
4.492903e+002, 8.420816e+003
4.497724e+002, 8.381278e+003
4.502545e+002, 8.334720e+003
4.507366e+002, 8.282685e+003
4.512187e+002, 8.226892e+003
4.517008e+002, 8.166667e+003
4.521830e+002, 8.100254e+003
4.526651e+002, 8.027273e+003
4.531472e+002, 7.949658e+003
4.536293e+002, 7.866488e+003
4.541114e+002, 7.779818e+003
4.545935e+002, 7.692226e+003
4.550757e+002, 7.605318e+003
4.555578e+002, 7.516178e+003
4.560399e+002, 7.420730e+003
4.565220e+002, 7.320523e+003
4.570041e+002, 7.220744e+003
4.574862e+002, 7.123102e+003
4.579684e+002, 7.025578e+003
4.584505e+002, 6.924542e+003
4.589326e+002, 6.820124e+003
4.594147e+002, 6.717283e+003
4.598968e+002, 6.617417e+003
4.603789e+002, 6.519575e+003
4.608611e+002, 6.423771e+003
4.613432e+002, 6.329564e+003
4.618253e+002, 6.235149e+003
4.623074e+002, 6.138614e+003
4.627895e+002, 6.041123e+003
4.632716e+002, 5.945099e+003
4.637538e+002, 5.848313e+003
4.642359e+002, 5.755753e+003
4.647180e+002, 5.667442e+003
4.652001e+002, 5.583031e+003
4.656822e+002, 5.503153e+003
4.661643e+002, 5.427205e+003
4.666465e+002, 5.353602e+003
4.671286e+002, 5.280704e+003
4.676107e+002, 5.207775e+003
4.680928e+002, 5.136870e+003
4.685749e+002, 5.067069e+003
4.690570e+002, 5.000249e+003
4.695392e+002, 4.938477e+003
4.700213e+002, 4.879751e+003
4.705034e+002, 4.821490e+003
4.709855e+002, 4.762471e+003
4.714676e+002, 4.704053e+003
4.719497e+002, 4.648690e+003
4.724319e+002, 4.596842e+003
4.729140e+002, 4.546445e+003
4.733961e+002, 4.497790e+003
4.738782e+002, 4.450429e+003
4.743603e+002, 4.403844e+003
4.748424e+002, 4.358500e+003
4.753246e+002, 4.314907e+003
4.758067e+002, 4.273527e+003
4.762888e+002, 4.234394e+003
4.767709e+002, 4.197221e+003
4.772530e+002, 4.162243e+003
4.777351e+002, 4.128729e+003
4.782173e+002, 4.096457e+003
4.786994e+002, 4.065503e+003
4.791815e+002, 4.036154e+003
4.796636e+002, 4.008789e+003
4.801457e+002, 3.981834e+003
4.806278e+002, 3.953603e+003
4.811100e+002, 3.925472e+003
4.815920e+002, 3.900365e+003
4.820742e+002, 3.878889e+003
4.825563e+002, 3.858016e+003
4.830384e+002, 3.834329e+003
4.835205e+002, 3.808086e+003
4.840026e+002, 3.786035e+003
4.844847e+002, 3.771215e+003
4.849669e+002, 3.757027e+003
4.854490e+002, 3.740359e+003
4.859311e+002, 3.722493e+003
4.864132e+002, 3.705893e+003
4.868953e+002, 3.691421e+003
4.873774e+002, 3.678156e+003
4.878596e+002, 3.664695e+003
4.883417e+002, 3.650558e+003
4.888238e+002, 3.637308e+003
4.893059e+002, 3.625098e+003
4.897880e+002, 3.613509e+003
4.902701e+002, 3.602314e+003
4.907523e+002, 3.591629e+003
4.912344e+002, 3.581868e+003
4.917165e+002, 3.573406e+003
4.921986e+002, 3.565802e+003
4.926807e+002, 3.557725e+003
4.931628e+002, 3.548775e+003
4.936450e+002, 3.540542e+003
4.941271e+002, 3.533709e+003
4.946092e+002, 3.527529e+003
4.950913e+002, 3.521588e+003
4.955734e+002, 3.515855e+003
4.960555e+002, 3.510410e+003
4.965377e+002, 3.505550e+003
4.970198e+002, 3.501040e+003
4.975019e+002, 3.496034e+003
4.979840e+002, 3.490238e+003
4.984661e+002, 3.485257e+003
4.989482e+002, 3.482379e+003
4.994304e+002, 3.480711e+003
4.999125e+002, 3.478396e+003
5.003946e+002, 3.474853e+003
5.008767e+002, 3.471854e+003
5.013588e+002, 3.470683e+003
5.018409e+002, 3.470531e+003
5.023231e+002, 3.469687e+003
5.028052e+002, 3.467792e+003
5.032873e+002, 3.466400e+003
5.037694e+002, 3.467226e+003
5.042515e+002, 3.470385e+003
5.047336e+002, 3.472267e+003
5.052158e+002, 3.471804e+003
5.056979e+002, 3.471419e+003
5.061800e+002, 3.471706e+003
5.066621e+002, 3.472700e+003
5.071442e+002, 3.474461e+003
5.076263e+002, 3.476987e+003
5.081085e+002, 3.480073e+003
5.085906e+002, 3.483625e+003
5.090727e+002, 3.488284e+003
5.095548e+002, 3.491041e+003
5.100369e+002, 3.489762e+003
5.105190e+002, 3.488675e+003
5.110012e+002, 3.489570e+003
5.114833e+002, 3.491802e+003
5.119654e+002, 3.493985e+003
5.124475e+002, 3.495447e+003
5.129296e+002, 3.496486e+003
5.134117e+002, 3.497746e+003
5.138939e+002, 3.499339e+003
5.143760e+002, 3.500331e+003
5.148581e+002, 3.500219e+003
5.153402e+002, 3.499734e+003
5.158223e+002, 3.499340e+003
5.163044e+002, 3.499088e+003
5.167866e+002, 3.499199e+003
5.172687e+002, 3.500026e+003
5.177508e+002, 3.501131e+003
5.182329e+002, 3.501749e+003
5.187150e+002, 3.501949e+003
5.191971e+002, 3.502881e+003
5.196793e+002, 3.505424e+003
5.201614e+002, 3.508621e+003
5.206435e+002, 3.510232e+003
5.211256e+002, 3.510108e+003
5.216077e+002, 3.509276e+003
5.220898e+002, 3.506944e+003
5.225720e+002, 3.504628e+003
5.230541e+002, 3.503957e+003
5.235362e+002, 3.504765e+003
5.240183e+002, 3.505387e+003
5.245004e+002, 3.504433e+003
5.249825e+002, 3.502564e+003
5.254647e+002, 3.503359e+003
5.259468e+002, 3.510217e+003
5.264289e+002, 3.514889e+003
5.269110e+002, 3.515416e+003
5.273931e+002, 3.514495e+003
5.278752e+002, 3.514191e+003
5.283574e+002, 3.514803e+003
5.288395e+002, 3.515524e+003
5.293216e+002, 3.515628e+003
5.298037e+002, 3.515226e+003
5.302858e+002, 3.514906e+003
5.307679e+002, 3.514464e+003
5.312501e+002, 3.514588e+003
5.317322e+002, 3.516126e+003
5.322143e+002, 3.518117e+003
5.326964e+002, 3.519465e+003
5.331785e+002, 3.519872e+003
5.336606e+002, 3.520540e+003
5.341428e+002, 3.522611e+003
5.346249e+002, 3.525431e+003
5.351070e+002, 3.527365e+003
5.355891e+002, 3.528104e+003
5.360712e+002, 3.529268e+003
5.365533e+002, 3.532141e+003
5.370355e+002, 3.536522e+003
5.375176e+002, 3.540843e+003
5.379997e+002, 3.545203e+003
5.384818e+002, 3.549411e+003
5.389639e+002, 3.553299e+003
5.394460e+002, 3.557081e+003
5.399282e+002, 3.561176e+003
5.404103e+002, 3.565598e+003
5.408924e+002, 3.569760e+003
5.413745e+002, 3.572897e+003
5.418566e+002, 3.574952e+003
5.423387e+002, 3.577948e+003
5.428209e+002, 3.581973e+003
5.433029e+002, 3.586910e+003
5.437850e+002, 3.593517e+003
5.442672e+002, 3.600633e+003
5.447493e+002, 3.606824e+003
5.452314e+002, 3.611749e+003
5.457135e+002, 3.616447e+003
5.461956e+002, 3.621641e+003
5.466777e+002, 3.627418e+003
5.471599e+002, 3.634632e+003
5.476420e+002, 3.643542e+003
5.481241e+002, 3.653403e+003
5.486062e+002, 3.664403e+003
5.490883e+002, 3.675914e+003
5.495704e+002, 3.687068e+003
5.500526e+002, 3.697695e+003
5.505347e+002, 3.707919e+003
5.510168e+002, 3.717502e+003
5.514989e+002, 3.726828e+003
5.519810e+002, 3.736627e+003
5.524631e+002, 3.747040e+003
5.529453e+002, 3.758303e+003
5.534274e+002, 3.770916e+003
5.539095e+002, 3.784918e+003
5.543916e+002, 3.797341e+003
5.548737e+002, 3.805144e+003
5.553558e+002, 3.815200e+003
5.558380e+002, 3.831008e+003
5.563201e+002, 3.849444e+003
5.568022e+002, 3.866599e+003
5.572843e+002, 3.881502e+003
5.577664e+002, 3.895323e+003
5.582485e+002, 3.909158e+003
5.587307e+002, 3.922852e+003
5.592128e+002, 3.938589e+003
5.596949e+002, 3.956745e+003
5.601770e+002, 3.976406e+003
5.606591e+002, 3.998864e+003
5.611412e+002, 4.021775e+003
5.616234e+002, 4.042071e+003
5.621055e+002, 4.058723e+003
5.625876e+002, 4.075017e+003
5.630697e+002, 4.093284e+003
5.635518e+002, 4.113476e+003
5.640339e+002, 4.135708e+003
5.645161e+002, 4.160369e+003
5.649982e+002, 4.185620e+003
5.654803e+002, 4.209867e+003
5.659624e+002, 4.233698e+003
5.664445e+002, 4.259529e+003
5.669266e+002, 4.288875e+003
5.674088e+002, 4.318017e+003
5.678909e+002, 4.345701e+003
5.683730e+002, 4.372450e+003
5.688551e+002, 4.398725e+003
5.693372e+002, 4.424647e+003
5.698193e+002, 4.451312e+003
5.703015e+002, 4.479415e+003
5.707836e+002, 4.509015e+003
5.712657e+002, 4.539212e+003
5.717478e+002, 4.569925e+003
5.722299e+002, 4.601566e+003
5.727120e+002, 4.634284e+003
5.731942e+002, 4.667962e+003
5.736763e+002, 4.702624e+003
5.741584e+002, 4.738330e+003
5.746405e+002, 4.774581e+003
5.751226e+002, 4.810552e+003
5.756047e+002, 4.846681e+003
5.760869e+002, 4.885329e+003
5.765690e+002, 4.927146e+003
5.770511e+002, 4.968505e+003
5.775332e+002, 5.006898e+003
5.780153e+002, 5.043851e+003
5.784974e+002, 5.081420e+003
5.789796e+002, 5.119421e+003
5.794617e+002, 5.159033e+003
5.799438e+002, 5.200778e+003
5.804259e+002, 5.244305e+003
5.809080e+002, 5.290319e+003
5.813901e+002, 5.338241e+003
5.818723e+002, 5.385819e+003
5.823544e+002, 5.431508e+003
5.828365e+002, 5.476091e+003
5.833186e+002, 5.522344e+003
5.838007e+002, 5.570255e+003
5.842828e+002, 5.620413e+003
5.847650e+002, 5.674796e+003
5.852471e+002, 5.729893e+003
5.857292e+002, 5.783240e+003
5.862113e+002, 5.835236e+003
5.866934e+002, 5.887662e+003
5.871755e+002, 5.941295e+003
5.876577e+002, 5.996601e+003
5.881398e+002, 6.054493e+003
5.886219e+002, 6.115460e+003
5.891040e+002, 6.176096e+003
5.895861e+002, 6.234150e+003
5.900682e+002, 6.293653e+003
5.905504e+002, 6.357745e+003
5.910325e+002, 6.426054e+003
5.915146e+002, 6.495967e+003
5.919967e+002, 6.567724e+003
5.924788e+002, 6.639645e+003
5.929609e+002, 6.708954e+003
5.934431e+002, 6.776431e+003
5.939252e+002, 6.844889e+003
5.944073e+002, 6.915075e+003
5.948894e+002, 6.986813e+003
5.953715e+002, 7.060231e+003
5.958536e+002, 7.135597e+003
5.963358e+002, 7.212181e+003
5.968179e+002, 7.290996e+003
5.973000e+002, 7.369680e+003
5.977821e+002, 7.449423e+003
5.982642e+002, 7.528087e+003
5.987463e+002, 7.602569e+003
5.992285e+002, 7.672026e+003
5.997106e+002, 7.738971e+003
6.001927e+002, 7.806716e+003
6.006748e+002, 7.875422e+003
6.011569e+002, 7.943275e+003
6.016390e+002, 8.010116e+003
6.021212e+002, 8.075680e+003
6.026033e+002, 8.139950e+003
6.030854e+002, 8.202604e+003
6.035675e+002, 8.261989e+003
6.040496e+002, 8.318573e+003
6.045317e+002, 8.370678e+003
6.050139e+002, 8.417644e+003
6.054960e+002, 8.459881e+003
6.059781e+002, 8.497849e+003
6.064602e+002, 8.531542e+003
6.069423e+002, 8.560829e+003
6.074244e+002, 8.585631e+003
6.079066e+002, 8.605665e+003
6.083887e+002, 8.619726e+003
6.088708e+002, 8.627558e+003
6.093529e+002, 8.629116e+003
6.098350e+002, 8.624244e+003
6.103171e+002, 8.613574e+003
6.107993e+002, 8.598493e+003
6.112814e+002, 8.578182e+003
6.117635e+002, 8.549748e+003
6.122456e+002, 8.510573e+003
6.127277e+002, 8.463404e+003
6.132098e+002, 8.413521e+003
6.136920e+002, 8.360700e+003
6.141741e+002, 8.304235e+003
6.146562e+002, 8.244706e+003
6.151383e+002, 8.179919e+003
6.156204e+002, 8.106446e+003
6.161025e+002, 8.025122e+003
6.165847e+002, 7.940200e+003
6.170668e+002, 7.851471e+003
6.175489e+002, 7.760573e+003
6.180310e+002, 7.668700e+003
6.185131e+002, 7.575441e+003
6.189952e+002, 7.479357e+003
6.194774e+002, 7.380070e+003
6.199595e+002, 7.278845e+003
6.204416e+002, 7.177196e+003
6.209237e+002, 7.074710e+003
6.214058e+002, 6.972455e+003
6.218879e+002, 6.871283e+003
6.223701e+002, 6.769148e+003
6.228522e+002, 6.664833e+003
6.233343e+002, 6.560278e+003
6.238164e+002, 6.458069e+003
6.242985e+002, 6.359055e+003
6.247806e+002, 6.261532e+003
6.252628e+002, 6.164759e+003
6.257448e+002, 6.068828e+003
6.262269e+002, 5.974852e+003
6.267090e+002, 5.882846e+003
6.271912e+002, 5.790474e+003
6.276733e+002, 5.694400e+003
6.281554e+002, 5.598960e+003
6.286375e+002, 5.512613e+003
6.291196e+002, 5.437297e+003
6.296017e+002, 5.360677e+003
6.300839e+002, 5.277396e+003
6.305660e+002, 5.195083e+003
6.310481e+002, 5.118597e+003
6.315302e+002, 5.047089e+003
6.320123e+002, 4.977267e+003
6.324944e+002, 4.907934e+003
6.329766e+002, 4.839678e+003
6.334587e+002, 4.773889e+003
6.339408e+002, 4.710521e+003
6.344229e+002, 4.648304e+003
6.349050e+002, 4.586497e+003
6.353871e+002, 4.527396e+003
6.358693e+002, 4.472363e+003
6.363514e+002, 4.420332e+003
6.368335e+002, 4.370018e+003
6.373156e+002, 4.321772e+003
6.377977e+002, 4.273216e+003
6.382798e+002, 4.220942e+003
6.387620e+002, 4.168150e+003
6.392441e+002, 4.120774e+003
6.397262e+002, 4.079580e+003
6.402083e+002, 4.039999e+003
6.406904e+002, 3.998955e+003
6.411725e+002, 3.957526e+003
6.416547e+002, 3.918967e+003
6.421368e+002, 3.886056e+003
6.426189e+002, 3.852193e+003
6.431010e+002, 3.815237e+003
6.435831e+002, 3.779293e+003
6.440652e+002, 3.747368e+003
6.445474e+002, 3.718540e+003
6.450295e+002, 3.689722e+003
6.455116e+002, 3.659348e+003
6.459937e+002, 3.628720e+003
6.464758e+002, 3.600016e+003
6.469579e+002, 3.573229e+003
6.474401e+002, 3.547182e+003
6.479222e+002, 3.521737e+003
6.484043e+002, 3.497203e+003
6.488864e+002, 3.474577e+003
6.493685e+002, 3.453107e+003
6.498506e+002, 3.431040e+003
6.503328e+002, 3.407615e+003
6.508149e+002, 3.384614e+003
6.512970e+002, 3.362419e+003
6.517791e+002, 3.341302e+003
6.522612e+002, 3.321716e+003
6.527433e+002, 3.303706e+003
6.532255e+002, 3.287241e+003
6.537076e+002, 3.272434e+003
6.541897e+002, 3.258862e+003
6.546718e+002, 3.244664e+003
6.551539e+002, 3.229064e+003
6.556360e+002, 3.214769e+003
6.561182e+002, 3.203286e+003
6.566003e+002, 3.192187e+003
6.570824e+002, 3.179997e+003
6.575645e+002, 3.167024e+003
6.580466e+002, 3.154625e+003
6.585287e+002, 3.143775e+003
6.590109e+002, 3.132801e+003
6.594930e+002, 3.119793e+003
6.599751e+002, 3.105417e+003
6.604572e+002, 3.091056e+003
6.609393e+002, 3.077007e+003
6.614214e+002, 3.064149e+003
6.619036e+002, 3.053335e+003
6.623857e+002, 3.044405e+003
6.628678e+002, 3.035754e+003
6.633499e+002, 3.028056e+003
6.638320e+002, 3.019807e+003
6.643141e+002, 3.010085e+003
6.647963e+002, 3.000377e+003
6.652784e+002, 2.991878e+003
6.657605e+002, 2.984543e+003
6.662426e+002, 2.977659e+003
6.667247e+002, 2.970868e+003
6.672068e+002, 2.964080e+003
6.676890e+002, 2.957270e+003
6.681711e+002, 2.950416e+003
6.686532e+002, 2.942170e+003
6.691353e+002, 2.931464e+003
6.696174e+002, 2.921258e+003
6.700995e+002, 2.914897e+003
6.705817e+002, 2.911964e+003
6.710638e+002, 2.907927e+003
6.715459e+002, 2.902018e+003
6.720280e+002, 2.895830e+003
6.725101e+002, 2.889499e+003
6.729922e+002, 2.883391e+003
6.734744e+002, 2.877971e+003
6.739565e+002, 2.873215e+003
6.744386e+002, 2.868643e+003
6.749207e+002, 2.863880e+003
6.754028e+002, 2.858986e+003
6.758849e+002, 2.853886e+003
6.763671e+002, 2.848217e+003
6.768492e+002, 2.844106e+003
6.773313e+002, 2.843568e+003
6.778134e+002, 2.842864e+003
6.782955e+002, 2.838661e+003
6.787776e+002, 2.831816e+003
6.792598e+002, 2.825396e+003
6.797419e+002, 2.820701e+003
6.802240e+002, 2.815834e+003
6.807061e+002, 2.809007e+003
6.811882e+002, 2.801560e+003
6.816703e+002, 2.795790e+003
6.821525e+002, 2.791969e+003
6.826346e+002, 2.788383e+003
6.831167e+002, 2.783584e+003
6.835988e+002, 2.777923e+003
6.840809e+002, 2.773092e+003
6.845630e+002, 2.769401e+003
6.850452e+002, 2.765895e+003
6.855273e+002, 2.762173e+003
6.860094e+002, 2.758877e+003
6.864915e+002, 2.757180e+003
6.869736e+002, 2.756259e+003
6.874557e+002, 2.753565e+003
6.879379e+002, 2.747259e+003
6.884200e+002, 2.740438e+003
6.889021e+002, 2.735967e+003
6.893842e+002, 2.733062e+003
6.898663e+002, 2.730014e+003
6.903484e+002, 2.726487e+003
6.908306e+002, 2.722941e+003
6.913127e+002, 2.719825e+003
6.917948e+002, 2.716908e+003
6.922769e+002, 2.712927e+003
6.927590e+002, 2.706903e+003
6.932411e+002, 2.701398e+003
6.937233e+002, 2.697150e+003
6.942054e+002, 2.692940e+003
6.946875e+002, 2.687967e+003
6.951696e+002, 2.682423e+003
6.956517e+002, 2.676977e+003
6.961339e+002, 2.671993e+003
6.966160e+002, 2.667022e+003
6.970981e+002, 2.661270e+003
6.975802e+002, 2.655085e+003
6.980623e+002, 2.649661e+003
6.985444e+002, 2.645240e+003
6.990266e+002, 2.641100e+003
6.995087e+002, 2.636824e+003
6.999908e+002, 2.632365e+003
7.004729e+002, 2.627640e+003
7.009550e+002, 2.622504e+003
7.014371e+002, 2.617280e+003
7.019193e+002, 2.611488e+003
7.024014e+002, 2.606031e+003
7.028835e+002, 2.601981e+003
7.033656e+002, 2.598630e+003
7.038477e+002, 2.594324e+003
7.043298e+002, 2.588332e+003
7.048120e+002, 2.581766e+003
7.052941e+002, 2.576155e+003
7.057762e+002, 2.571278e+003
7.062583e+002, 2.565807e+003
7.067404e+002, 2.559533e+003
7.072225e+002, 2.553551e+003
7.077046e+002, 2.548842e+003
7.081867e+002, 2.544563e+003
7.086688e+002, 2.538253e+003
7.091509e+002, 2.528298e+003
7.096331e+002, 2.520515e+003
7.101152e+002, 2.517260e+003
7.105973e+002, 2.514273e+003
7.110794e+002, 2.508943e+003
7.115615e+002, 2.502092e+003
7.120436e+002, 2.495451e+003
7.125258e+002, 2.489613e+003
7.130079e+002, 2.484190e+003
7.134900e+002, 2.478901e+003
7.139721e+002, 2.473654e+003
7.144542e+002, 2.467840e+003
7.149363e+002, 2.461479e+003
7.154185e+002, 2.454458e+003
7.159006e+002, 2.446328e+003
7.163827e+002, 2.438021e+003
7.168648e+002, 2.431265e+003
7.173469e+002, 2.426386e+003
7.178290e+002, 2.421040e+003
7.183112e+002, 2.414820e+003
7.187933e+002, 2.408349e+003
7.192754e+002, 2.402083e+003
7.197575e+002, 2.395710e+003
7.202396e+002, 2.388465e+003
7.207217e+002, 2.380303e+003
7.212039e+002, 2.372324e+003
7.216860e+002, 2.365659e+003
7.221681e+002, 2.360022e+003
7.226502e+002, 2.354565e+003
7.231323e+002, 2.349363e+003
7.236144e+002, 2.343417e+003
7.240966e+002, 2.336220e+003
7.245787e+002, 2.328466e+003
7.250608e+002, 2.320394e+003
7.255429e+002, 2.312008e+003
7.260250e+002, 2.306299e+003
7.265071e+002, 2.307888e+003
7.269893e+002, 2.306820e+003
7.274714e+002, 2.296246e+003
7.279535e+002, 2.283064e+003
7.284356e+002, 2.275677e+003
7.289177e+002, 2.274521e+003
7.293998e+002, 2.274191e+003
7.298820e+002, 2.271005e+003
7.303641e+002, 2.265572e+003
7.308462e+002, 2.258915e+003
7.313283e+002, 2.250995e+003
7.318104e+002, 2.242909e+003
7.322925e+002, 2.234383e+003
7.327747e+002, 2.226844e+003
7.332568e+002, 2.221948e+003
7.337389e+002, 2.219127e+003
7.342210e+002, 2.215246e+003
7.347031e+002, 2.209831e+003
7.351852e+002, 2.204107e+003
7.356674e+002, 2.198399e+003
7.361495e+002, 2.192370e+003
7.366316e+002, 2.185058e+003
7.371137e+002, 2.177157e+003
7.375958e+002, 2.170657e+003
7.380779e+002, 2.166581e+003
7.385601e+002, 2.163390e+003
7.390422e+002, 2.158816e+003
7.395243e+002, 2.152997e+003
7.400064e+002, 2.147064e+003
7.404885e+002, 2.141107e+003
7.409706e+002, 2.135119e+003
7.414528e+002, 2.128935e+003
7.419349e+002, 2.122879e+003
7.424170e+002, 2.117783e+003
7.428991e+002, 2.113984e+003
7.433812e+002, 2.109924e+003
7.438633e+002, 2.105594e+003
7.443455e+002, 2.100882e+003
7.448276e+002, 2.095527e+003
7.453097e+002, 2.089840e+003
7.457918e+002, 2.084037e+003
7.462739e+002, 2.078299e+003
7.467560e+002, 2.073241e+003
7.472382e+002, 2.069822e+003
7.477203e+002, 2.067522e+003
7.482024e+002, 2.064867e+003
7.486845e+002, 2.061856e+003
7.491666e+002, 2.058354e+003
7.496487e+002, 2.054183e+003
7.501309e+002, 2.049821e+003
7.506130e+002, 2.045736e+003
7.510951e+002, 2.041946e+003
7.515772e+002, 2.038332e+003
7.520593e+002, 2.034605e+003
7.525414e+002, 2.031371e+003
7.530236e+002, 2.029622e+003
7.535057e+002, 2.027738e+003
7.539878e+002, 2.023720e+003
7.544699e+002, 2.017997e+003
7.549520e+002, 2.012933e+003
7.554341e+002, 2.010038e+003
7.559163e+002, 2.007980e+003
7.563984e+002, 2.004858e+003
7.568805e+002, 2.000929e+003
7.573626e+002, 1.997516e+003
7.578447e+002, 1.994869e+003
7.583268e+002, 1.992021e+003
7.588090e+002, 1.988148e+003
7.592911e+002, 1.983718e+003
7.597732e+002, 1.980277e+003
7.602553e+002, 1.978775e+003
7.607374e+002, 1.976603e+003
7.612195e+002, 1.974096e+003
7.617017e+002, 1.970707e+003
7.621838e+002, 1.965469e+003
7.626659e+002, 1.959476e+003
7.631480e+002, 1.954267e+003
7.636301e+002, 1.950279e+003
7.641122e+002, 1.947246e+003
7.645944e+002, 1.945428e+003
7.650765e+002, 1.944197e+003
7.655586e+002, 1.942680e+003
7.660407e+002, 1.940809e+003
7.665228e+002, 1.938406e+003
7.670049e+002, 1.935328e+003
7.674871e+002, 1.932413e+003
7.679692e+002, 1.930946e+003
7.684513e+002, 1.930999e+003
7.689334e+002, 1.929767e+003
7.694155e+002, 1.926140e+003
7.698976e+002, 1.922965e+003
7.703798e+002, 1.921022e+003
7.708619e+002, 1.919585e+003
7.713440e+002, 1.918511e+003
7.718261e+002, 1.917552e+003
7.723082e+002, 1.915701e+003
7.727903e+002, 1.911686e+003
7.732725e+002, 1.907923e+003
7.737546e+002, 1.906533e+003
7.742367e+002, 1.906317e+003
7.747188e+002, 1.905503e+003
7.752009e+002, 1.903857e+003
7.756830e+002, 1.901882e+003
7.761652e+002, 1.899871e+003
7.766473e+002, 1.897907e+003
7.771294e+002, 1.896277e+003
7.776115e+002, 1.895101e+003
7.780936e+002, 1.893438e+003
7.785757e+002, 1.890953e+003
7.790579e+002, 1.888497e+003
7.795400e+002, 1.886637e+003
7.800221e+002, 1.885057e+003
7.805042e+002, 1.883139e+003
7.809863e+002, 1.880658e+003
7.814684e+002, 1.878797e+003
7.819506e+002, 1.878446e+003
7.824327e+002, 1.878191e+003
7.829148e+002, 1.877139e+003
7.833969e+002, 1.875536e+003
7.838790e+002, 1.873755e+003
7.843611e+002, 1.871954e+003
7.848433e+002, 1.870335e+003
7.853254e+002, 1.869004e+003
7.858075e+002, 1.868040e+003
7.862896e+002, 1.868068e+003
7.867717e+002, 1.869114e+003
7.872538e+002, 1.869054e+003
7.877360e+002, 1.867142e+003
7.882181e+002, 1.864646e+003
7.887002e+002, 1.862698e+003
7.891823e+002, 1.861215e+003
7.896644e+002, 1.859559e+003
7.901465e+002, 1.857047e+003
7.906286e+002, 1.855350e+003
7.911107e+002, 1.855353e+003
7.915928e+002, 1.855509e+003
7.920750e+002, 1.854568e+003
7.925571e+002, 1.853041e+003
7.930392e+002, 1.852239e+003
7.935213e+002, 1.852716e+003
7.940034e+002, 1.853271e+003
7.944855e+002, 1.853180e+003
7.949677e+002, 1.852311e+003
7.954498e+002, 1.849814e+003
7.959319e+002, 1.846011e+003
7.964140e+002, 1.843385e+003
7.968961e+002, 1.843025e+003
7.973782e+002, 1.843448e+003
7.978604e+002, 1.842594e+003
7.983425e+002, 1.840386e+003
7.988246e+002, 1.838394e+003
7.993067e+002, 1.836502e+003
7.997888e+002, 1.834994e+003
8.002709e+002, 1.834059e+003
8.007531e+002, 1.833439e+003
8.012352e+002, 1.833365e+003
8.017173e+002, 1.833555e+003
8.021994e+002, 1.832722e+003
8.026815e+002, 1.829617e+003
8.031636e+002, 1.826762e+003
8.036458e+002, 1.825017e+003
8.041279e+002, 1.824550e+003
8.046100e+002, 1.826671e+003
8.050921e+002, 1.830402e+003
8.055742e+002, 1.832363e+003
8.060563e+002, 1.830651e+003
8.065385e+002, 1.827213e+003
8.070206e+002, 1.824940e+003
8.075027e+002, 1.823782e+003
8.079848e+002, 1.823235e+003
8.084669e+002, 1.823506e+003
8.089490e+002, 1.823203e+003
8.094312e+002, 1.821641e+003
8.099133e+002, 1.819277e+003
8.103954e+002, 1.816546e+003
8.108775e+002, 1.813224e+003
8.113596e+002, 1.811173e+003
8.118417e+002, 1.811614e+003
8.123239e+002, 1.811768e+003
8.128060e+002, 1.810879e+003
8.132881e+002, 1.809380e+003
8.137702e+002, 1.807250e+003
8.142523e+002, 1.804865e+003
8.147344e+002, 1.803479e+003
8.152166e+002, 1.804211e+003
8.156987e+002, 1.805119e+003
8.161808e+002, 1.803654e+003
8.166629e+002, 1.800965e+003
8.171450e+002, 1.799698e+003
8.176271e+002, 1.800054e+003
8.181093e+002, 1.800753e+003
8.185914e+002, 1.801106e+003
8.190735e+002, 1.801078e+003
8.195556e+002, 1.800637e+003
8.200377e+002, 1.799809e+003
8.205198e+002, 1.798179e+003
8.210020e+002, 1.795007e+003
8.214841e+002, 1.792363e+003
8.219662e+002, 1.791254e+003
8.224483e+002, 1.790895e+003
8.229304e+002, 1.790446e+003
8.234125e+002, 1.789909e+003
8.238947e+002, 1.789672e+003
8.243768e+002, 1.790753e+003
8.248589e+002, 1.791053e+003
8.253410e+002, 1.789024e+003
8.258231e+002, 1.786178e+003
8.263052e+002, 1.784238e+003
8.267874e+002, 1.783218e+003
8.272695e+002, 1.782218e+003
8.277516e+002, 1.780782e+003
8.282337e+002, 1.778895e+003
8.287158e+002, 1.776284e+003
8.291979e+002, 1.773173e+003
8.296801e+002, 1.770309e+003
8.301622e+002, 1.767762e+003
8.306443e+002, 1.766366e+003
8.311264e+002, 1.766826e+003
8.316085e+002, 1.767793e+003
8.320906e+002, 1.766935e+003
8.325728e+002, 1.763890e+003
8.330549e+002, 1.761621e+003
8.335370e+002, 1.760949e+003
8.340191e+002, 1.759860e+003
8.345012e+002, 1.757353e+003
8.349833e+002, 1.754726e+003
8.354655e+002, 1.753151e+003
8.359476e+002, 1.752473e+003
8.364297e+002, 1.751558e+003
8.369118e+002, 1.749630e+003
8.373939e+002, 1.748123e+003
8.378760e+002, 1.748586e+003
8.383582e+002, 1.749392e+003
8.388403e+002, 1.748524e+003
8.393224e+002, 1.746183e+003
8.398045e+002, 1.743699e+003
8.402866e+002, 1.741706e+003
8.407687e+002, 1.739798e+003
8.412509e+002, 1.737388e+003
8.417330e+002, 1.734578e+003
8.422151e+002, 1.732059e+003
8.426972e+002, 1.729886e+003
8.431793e+002, 1.727298e+003
8.436614e+002, 1.723794e+003
8.441436e+002, 1.720457e+003
8.446257e+002, 1.718603e+003
8.451078e+002, 1.718186e+003
8.455899e+002, 1.717869e+003
8.460720e+002, 1.717773e+003
8.465541e+002, 1.717555e+003
8.470363e+002, 1.717770e+003
8.475184e+002, 1.717283e+003
8.480005e+002, 1.714881e+003
8.484826e+002, 1.711311e+003
8.489647e+002, 1.708289e+003
8.494468e+002, 1.706335e+003
8.499290e+002, 1.704566e+003
8.504111e+002, 1.702422e+003
8.508932e+002, 1.700295e+003
8.513753e+002, 1.698634e+003
8.518574e+002, 1.697314e+003
8.523395e+002, 1.696010e+003
8.528217e+002, 1.694629e+003
8.533038e+002, 1.693221e+003
8.537859e+002, 1.691926e+003
8.542680e+002, 1.690599e+003
8.547501e+002, 1.688734e+003
8.552322e+002, 1.686332e+003
8.557144e+002, 1.683844e+003
8.561965e+002, 1.681292e+003
8.566786e+002, 1.678990e+003
8.571607e+002, 1.677203e+003
8.576428e+002, 1.675832e+003
8.581249e+002, 1.674569e+003
8.586071e+002, 1.673491e+003
8.590892e+002, 1.672336e+003
8.595713e+002, 1.670624e+003
8.600534e+002, 1.669372e+003
8.605355e+002, 1.669268e+003
8.610176e+002, 1.669615e+003
8.614998e+002, 1.669625e+003
8.619819e+002, 1.669198e+003
8.624640e+002, 1.668542e+003
8.629461e+002, 1.668367e+003
8.634282e+002, 1.667308e+003
8.639103e+002, 1.663265e+003
8.643925e+002, 1.658386e+003
8.648746e+002, 1.655908e+003
8.653567e+002, 1.655840e+003
8.658388e+002, 1.656161e+003
8.663209e+002, 1.655732e+003
8.668030e+002, 1.654840e+003
8.672852e+002, 1.653949e+003
8.677673e+002, 1.653002e+003
8.682494e+002, 1.651640e+003
8.687315e+002, 1.649842e+003
8.692136e+002, 1.647653e+003
8.696957e+002, 1.644899e+003
8.701779e+002, 1.642445e+003
8.706600e+002, 1.641695e+003
8.711421e+002, 1.642673e+003
8.716242e+002, 1.642049e+003
8.721063e+002, 1.638442e+003
8.725884e+002, 1.635656e+003
8.730705e+002, 1.634883e+003
8.735526e+002, 1.634588e+003
8.740347e+002, 1.634223e+003
8.745168e+002, 1.633588e+003
8.749990e+002, 1.632092e+003
8.754811e+002, 1.629123e+003
8.759632e+002, 1.626909e+003
8.764453e+002, 1.627042e+003
8.769274e+002, 1.627432e+003
8.774095e+002, 1.626320e+003
8.778917e+002, 1.624451e+003
8.783738e+002, 1.622965e+003
8.788559e+002, 1.622273e+003
8.793380e+002, 1.622798e+003
8.798201e+002, 1.625845e+003
8.803022e+002, 1.629155e+003
8.807844e+002, 1.628347e+003
8.812665e+002, 1.624558e+003
8.817486e+002, 1.622058e+003
8.822307e+002, 1.621475e+003
8.827128e+002, 1.620958e+003
8.831949e+002, 1.619338e+003
8.836771e+002, 1.617088e+003
8.841592e+002, 1.615210e+003
8.846413e+002, 1.613767e+003
8.851234e+002, 1.611861e+003
8.856055e+002, 1.608357e+003
8.860876e+002, 1.607409e+003
8.865698e+002, 1.612809e+003
8.870519e+002, 1.618933e+003
8.875340e+002, 1.618952e+003
8.880161e+002, 1.613275e+003
8.884982e+002, 1.608551e+003
8.889803e+002, 1.604761e+003
8.894625e+002, 1.602221e+003
8.899446e+002, 1.601996e+003
8.904267e+002, 1.602079e+003
8.909088e+002, 1.600889e+003
8.913909e+002, 1.599032e+003
8.918730e+002, 1.598005e+003
8.923552e+002, 1.598254e+003
8.928373e+002, 1.598428e+003
8.933194e+002, 1.597626e+003
8.938015e+002, 1.596367e+003
8.942836e+002, 1.594988e+003
8.947657e+002, 1.593653e+003
8.952479e+002, 1.592732e+003
8.957300e+002, 1.592253e+003
8.962121e+002, 1.591865e+003
8.966942e+002, 1.591351e+003
8.971763e+002, 1.590611e+003
8.976584e+002, 1.588885e+003
8.981406e+002, 1.586448e+003
8.986227e+002, 1.586784e+003
8.991048e+002, 1.590518e+003
8.995869e+002, 1.592873e+003
9.000690e+002, 1.591366e+003
9.005511e+002, 1.587953e+003
9.010333e+002, 1.585485e+003
9.015154e+002, 1.584011e+003
9.019975e+002, 1.582242e+003
9.024796e+002, 1.579477e+003
9.029617e+002, 1.577717e+003
9.034438e+002, 1.577830e+003
9.039260e+002, 1.578601e+003
9.044081e+002, 1.579662e+003
9.048902e+002, 1.580698e+003
9.053723e+002, 1.580862e+003
9.058544e+002, 1.579868e+003
9.063365e+002, 1.578571e+003
9.068187e+002, 1.576784e+003
9.073008e+002, 1.575166e+003
9.077829e+002, 1.574279e+003
9.082650e+002, 1.573723e+003
9.087471e+002, 1.572760e+003
9.092292e+002, 1.571397e+003
9.097114e+002, 1.570535e+003
9.101935e+002, 1.571020e+003
9.106756e+002, 1.571711e+003
9.111577e+002, 1.571432e+003
9.116398e+002, 1.570527e+003
9.121219e+002, 1.569533e+003
9.126041e+002, 1.568560e+003
9.130862e+002, 1.567655e+003
9.135683e+002, 1.566845e+003
9.140504e+002, 1.566152e+003
9.145325e+002, 1.565650e+003
9.150146e+002, 1.565303e+003
9.154968e+002, 1.564882e+003
9.159789e+002, 1.564403e+003
9.164610e+002, 1.563605e+003
9.169431e+002, 1.562330e+003
9.174252e+002, 1.561194e+003
9.179073e+002, 1.560805e+003
9.183895e+002, 1.560858e+003
9.188716e+002, 1.560168e+003
9.193537e+002, 1.558172e+003
9.198358e+002, 1.556824e+003
9.203179e+002, 1.556339e+003
9.208000e+002, 1.556167e+003
9.212822e+002, 1.556252e+003
9.217643e+002, 1.556413e+003
9.222464e+002, 1.556484e+003
9.227285e+002, 1.556449e+003
9.232106e+002, 1.556266e+003
9.236927e+002, 1.556180e+003
9.241749e+002, 1.555587e+003
9.246570e+002, 1.553916e+003
9.251391e+002, 1.552039e+003
9.256212e+002, 1.550384e+003
9.261033e+002, 1.549149e+003
9.265854e+002, 1.548791e+003
9.270676e+002, 1.549481e+003
9.275497e+002, 1.549927e+003
9.280318e+002, 1.549390e+003
9.285139e+002, 1.548126e+003
9.289960e+002, 1.545763e+003
9.294781e+002, 1.543093e+003
9.299603e+002, 1.541680e+003
9.304424e+002, 1.541642e+003
9.309245e+002, 1.541946e+003
9.314066e+002, 1.541961e+003
9.318887e+002, 1.541823e+003
9.323708e+002, 1.541779e+003
9.328530e+002, 1.541758e+003
9.333351e+002, 1.541420e+003
9.338172e+002, 1.540759e+003
9.342993e+002, 1.540091e+003
9.347814e+002, 1.539521e+003
9.352635e+002, 1.539114e+003
9.357457e+002, 1.539081e+003
9.362278e+002, 1.539185e+003
9.367099e+002, 1.537807e+003
9.371920e+002, 1.534298e+003
9.376741e+002, 1.532198e+003
9.381563e+002, 1.532421e+003
9.386384e+002, 1.532954e+003
9.391205e+002, 1.532894e+003
9.396026e+002, 1.532306e+003
9.400847e+002, 1.531289e+003
9.405668e+002, 1.529818e+003
9.410490e+002, 1.528086e+003
9.415311e+002, 1.525378e+003
9.420132e+002, 1.523408e+003
9.424953e+002, 1.522997e+003
9.429774e+002, 1.522998e+003
9.434595e+002, 1.522573e+003
9.439417e+002, 1.521889e+003
9.444238e+002, 1.521592e+003
9.449059e+002, 1.522050e+003
9.453880e+002, 1.521978e+003
9.458701e+002, 1.520339e+003
9.463522e+002, 1.518642e+003
9.468344e+002, 1.517111e+003
9.473165e+002, 1.516587e+003
9.477986e+002, 1.519501e+003
9.482807e+002, 1.524935e+003
9.487628e+002, 1.527441e+003
9.492449e+002, 1.523215e+003
9.497271e+002, 1.517393e+003
9.502092e+002, 1.514542e+003
9.506913e+002, 1.513449e+003
9.511734e+002, 1.512250e+003
9.516555e+002, 1.511020e+003
9.521376e+002, 1.510591e+003
9.526198e+002, 1.511226e+003
9.531019e+002, 1.512497e+003
9.535840e+002, 1.514250e+003
9.540661e+002, 1.516039e+003
9.545482e+002, 1.516375e+003
9.550303e+002, 1.515596e+003
9.555124e+002, 1.516523e+003
9.559945e+002, 1.519536e+003
9.564766e+002, 1.520964e+003
9.569587e+002, 1.518720e+003
9.574409e+002, 1.514439e+003
9.579230e+002, 1.510468e+003
9.584051e+002, 1.506798e+003
9.588872e+002, 1.504914e+003
9.593693e+002, 1.505394e+003
9.598514e+002, 1.505044e+003
9.603336e+002, 1.502814e+003
9.608157e+002, 1.500447e+003
9.612978e+002, 1.499259e+003
9.617799e+002, 1.498911e+003
9.622620e+002, 1.498484e+003
9.627441e+002, 1.498075e+003
9.632263e+002, 1.497299e+003
9.637084e+002, 1.495704e+003
9.641905e+002, 1.494375e+003
9.646726e+002, 1.493748e+003
9.651547e+002, 1.493384e+003
9.656368e+002, 1.493093e+003
9.661190e+002, 1.492762e+003
9.666011e+002, 1.491913e+003
9.670832e+002, 1.490085e+003
9.675653e+002, 1.488552e+003
9.680474e+002, 1.487793e+003
9.685295e+002, 1.487166e+003
9.690117e+002, 1.486076e+003
9.694938e+002, 1.485026e+003
9.699759e+002, 1.484954e+003
9.704580e+002, 1.485788e+003
9.709401e+002, 1.486154e+003
9.714222e+002, 1.485171e+003
9.719044e+002, 1.484029e+003
9.723865e+002, 1.483485e+003
9.728686e+002, 1.483160e+003
9.733507e+002, 1.482668e+003
9.738328e+002, 1.482055e+003
9.743149e+002, 1.481539e+003
9.747971e+002, 1.481172e+003
9.752792e+002, 1.480726e+003
9.757613e+002, 1.479981e+003
9.762434e+002, 1.479109e+003
9.767255e+002, 1.478250e+003
9.772076e+002, 1.477470e+003
9.776898e+002, 1.476946e+003
9.781719e+002, 1.476652e+003
9.786540e+002, 1.476440e+003
9.791361e+002, 1.476234e+003
9.796182e+002, 1.475894e+003
9.801003e+002, 1.475240e+003
9.805825e+002, 1.474313e+003
9.810646e+002, 1.473156e+003
9.815467e+002, 1.471826e+003
9.820288e+002, 1.470835e+003
9.825109e+002, 1.470288e+003
9.829930e+002, 1.469693e+003
9.834752e+002, 1.468683e+003
9.839573e+002, 1.467680e+003
9.844394e+002, 1.467689e+003
9.849215e+002, 1.468724e+003
9.854036e+002, 1.468536e+003
9.858857e+002, 1.466845e+003
9.863679e+002, 1.465631e+003
9.868500e+002, 1.465497e+003
9.873321e+002, 1.465657e+003
9.878142e+002, 1.465465e+003
9.882963e+002, 1.465080e+003
9.887784e+002, 1.465100e+003
9.892606e+002, 1.465925e+003
9.897427e+002, 1.465630e+003
9.902248e+002, 1.463398e+003
9.907069e+002, 1.461605e+003
9.911890e+002, 1.461089e+003
9.916711e+002, 1.461192e+003
9.921533e+002, 1.461479e+003
9.926354e+002, 1.461875e+003
9.931175e+002, 1.461916e+003
9.935996e+002, 1.461393e+003
9.940817e+002, 1.460904e+003
9.945638e+002, 1.460549e+003
9.950460e+002, 1.460126e+003
9.955281e+002, 1.459640e+003
9.960102e+002, 1.458993e+003
9.964923e+002, 1.458021e+003
9.969744e+002, 1.456762e+003
9.974565e+002, 1.455502e+003
9.979387e+002, 1.454054e+003
9.984208e+002, 1.453019e+003
9.989029e+002, 1.452799e+003
9.993850e+002, 1.452773e+003
9.998671e+002, 1.452783e+003
1.000349e+003, 1.452623e+003
1.000831e+003, 1.451760e+003
1.001313e+003, 1.450299e+003
1.001796e+003, 1.449624e+003
1.002278e+003, 1.451127e+003
1.002760e+003, 1.452295e+003
1.003242e+003, 1.451593e+003
1.003724e+003, 1.450085e+003
1.004206e+003, 1.448134e+003
1.004688e+003, 1.446368e+003
1.005170e+003, 1.446099e+003
1.005653e+003, 1.447435e+003
1.006135e+003, 1.448257e+003
1.006617e+003, 1.446815e+003
1.007099e+003, 1.444856e+003
1.007581e+003, 1.443944e+003
1.008063e+003, 1.443594e+003
1.008545e+003, 1.443373e+003
1.009027e+003, 1.443056e+003
1.009509e+003, 1.442081e+003
1.009992e+003, 1.440338e+003
1.010474e+003, 1.438920e+003
1.010956e+003, 1.439004e+003
1.011438e+003, 1.439742e+003
1.011920e+003, 1.440238e+003
1.012402e+003, 1.440281e+003
1.012884e+003, 1.439044e+003
1.013366e+003, 1.436756e+003
1.013849e+003, 1.434722e+003
1.014331e+003, 1.433517e+003
1.014813e+003, 1.433038e+003
1.015295e+003, 1.433415e+003
1.015777e+003, 1.434230e+003
1.016259e+003, 1.434371e+003
1.016741e+003, 1.433982e+003
1.017223e+003, 1.433886e+003
1.017705e+003, 1.434130e+003
1.018188e+003, 1.433688e+003
1.018670e+003, 1.431994e+003
1.019152e+003, 1.430000e+003
1.019634e+003, 1.428939e+003
1.020116e+003, 1.428739e+003
1.020598e+003, 1.429509e+003
1.021080e+003, 1.431156e+003
1.021562e+003, 1.430826e+003
1.022044e+003, 1.427894e+003
1.022527e+003, 1.425594e+003
1.023009e+003, 1.425907e+003
1.023491e+003, 1.427271e+003
1.023973e+003, 1.427073e+003
1.024455e+003, 1.425453e+003
1.024937e+003, 1.425062e+003
1.025419e+003, 1.426200e+003
1.025901e+003, 1.425844e+003
1.026384e+003, 1.423098e+003
1.026866e+003, 1.420296e+003
1.027348e+003, 1.418804e+003
1.027830e+003, 1.418355e+003
1.028312e+003, 1.418609e+003
1.028794e+003, 1.419632e+003
1.029276e+003, 1.419802e+003
1.029758e+003, 1.418760e+003
1.030240e+003, 1.418176e+003
1.030723e+003, 1.418488e+003
1.031205e+003, 1.419110e+003
1.031687e+003, 1.420111e+003
1.032169e+003, 1.420637e+003
1.032651e+003, 1.418553e+003
1.033133e+003, 1.413207e+003
1.033615e+003, 1.410779e+003
1.034097e+003, 1.412446e+003
1.034579e+003, 1.414509e+003
1.035062e+003, 1.416820e+003
1.035544e+003, 1.418512e+003
1.036026e+003, 1.418776e+003
1.036508e+003, 1.418145e+003
1.036990e+003, 1.417829e+003
1.037472e+003, 1.418068e+003
1.037954e+003, 1.417194e+003
1.038436e+003, 1.413898e+003
1.038919e+003, 1.411604e+003
1.039401e+003, 1.411602e+003
1.039883e+003, 1.412011e+003
1.040365e+003, 1.411904e+003
1.040847e+003, 1.411290e+003
1.041329e+003, 1.409929e+003
1.041811e+003, 1.407423e+003
1.042293e+003, 1.406323e+003
1.042776e+003, 1.408424e+003
1.043258e+003, 1.409503e+003
1.043740e+003, 1.407686e+003
1.044222e+003, 1.405729e+003
1.044704e+003, 1.406220e+003
1.045186e+003, 1.407572e+003
1.045668e+003, 1.406212e+003
1.046150e+003, 1.401321e+003
1.046632e+003, 1.398071e+003
1.047115e+003, 1.397688e+003
1.047597e+003, 1.398059e+003
1.048079e+003, 1.399243e+003
1.048561e+003, 1.400452e+003
1.049043e+003, 1.401308e+003
1.049525e+003, 1.401752e+003
1.050007e+003, 1.401626e+003
1.050489e+003, 1.400850e+003
1.050971e+003, 1.400243e+003
1.051454e+003, 1.400634e+003
1.051936e+003, 1.400296e+003
1.052418e+003, 1.397518e+003
1.052900e+003, 1.394987e+003
1.053382e+003, 1.395239e+003
1.053864e+003, 1.396910e+003
1.054346e+003, 1.397378e+003
1.054828e+003, 1.396251e+003
1.055311e+003, 1.394873e+003
1.055793e+003, 1.392995e+003
1.056275e+003, 1.391739e+003
1.056757e+003, 1.391960e+003
1.057239e+003, 1.392489e+003
1.057721e+003, 1.392670e+003
1.058203e+003, 1.392448e+003
1.058685e+003, 1.391613e+003
1.059167e+003, 1.390176e+003
1.059650e+003, 1.389429e+003
1.060132e+003, 1.390322e+003
1.060614e+003, 1.391266e+003
1.061096e+003, 1.391870e+003
1.061578e+003, 1.392096e+003
1.062060e+003, 1.391986e+003
1.062542e+003, 1.391449e+003
1.063024e+003, 1.389895e+003
1.063506e+003, 1.387418e+003
1.063989e+003, 1.386215e+003
1.064471e+003, 1.388518e+003
1.064953e+003, 1.390177e+003
1.065435e+003, 1.389037e+003
1.065917e+003, 1.387044e+003
1.066399e+003, 1.385108e+003
1.066881e+003, 1.383612e+003
1.067363e+003, 1.383234e+003
1.067846e+003, 1.383884e+003
1.068328e+003, 1.384113e+003
1.068810e+003, 1.383328e+003
1.069292e+003, 1.382140e+003
1.069774e+003, 1.380037e+003
1.070256e+003, 1.378450e+003
1.070738e+003, 1.379174e+003
1.071220e+003, 1.380699e+003
1.071703e+003, 1.380687e+003
1.072185e+003, 1.379071e+003
1.072667e+003, 1.377698e+003
1.073149e+003, 1.377362e+003
1.073631e+003, 1.377087e+003
1.074113e+003, 1.376246e+003
1.074595e+003, 1.375479e+003
1.075077e+003, 1.375604e+003
1.075559e+003, 1.375857e+003
1.076042e+003, 1.374936e+003
1.076524e+003, 1.373046e+003
1.077006e+003, 1.371809e+003
1.077488e+003, 1.371971e+003
1.077970e+003, 1.372197e+003
1.078452e+003, 1.371731e+003
1.078934e+003, 1.371275e+003
1.079416e+003, 1.371524e+003
1.079898e+003, 1.371911e+003
1.080380e+003, 1.371668e+003
1.080863e+003, 1.370899e+003
1.081345e+003, 1.370279e+003
1.081827e+003, 1.370090e+003
1.082309e+003, 1.369677e+003
1.082791e+003, 1.368553e+003
1.083273e+003, 1.367327e+003
1.083755e+003, 1.366213e+003
1.084237e+003, 1.365305e+003
1.084720e+003, 1.364759e+003
1.085202e+003, 1.364471e+003
1.085684e+003, 1.364081e+003
1.086166e+003, 1.363430e+003
1.086648e+003, 1.363302e+003
1.087130e+003, 1.364800e+003
1.087612e+003, 1.365931e+003
1.088094e+003, 1.365290e+003
1.088577e+003, 1.364131e+003
1.089059e+003, 1.363529e+003
1.089541e+003, 1.363406e+003
1.090023e+003, 1.363443e+003
1.090505e+003, 1.363579e+003
1.090987e+003, 1.363525e+003
1.091469e+003, 1.363442e+003
1.091951e+003, 1.362814e+003
1.092433e+003, 1.361251e+003
1.092916e+003, 1.359247e+003
1.093398e+003, 1.356730e+003
1.093880e+003, 1.354283e+003
1.094362e+003, 1.352866e+003
1.094844e+003, 1.352566e+003
1.095326e+003, 1.352428e+003
1.095808e+003, 1.352417e+003
1.096290e+003, 1.352144e+003
1.096772e+003, 1.350798e+003
1.097255e+003, 1.349887e+003
1.097737e+003, 1.350953e+003
1.098219e+003, 1.352665e+003
1.098701e+003, 1.353162e+003
1.099183e+003, 1.352418e+003
1.099665e+003, 1.351655e+003
1.100147e+003, 1.350666e+003
1.100629e+003, 1.350669e+003
1.101112e+003, 1.353563e+003
1.101594e+003, 1.355622e+003
1.102076e+003, 1.354088e+003
1.102558e+003, 1.351496e+003
1.103040e+003, 1.350601e+003
1.103522e+003, 1.351120e+003
1.104004e+003, 1.351250e+003
1.104486e+003, 1.350624e+003
1.104969e+003, 1.349929e+003
1.105451e+003, 1.348827e+003
1.105933e+003, 1.348273e+003
1.106415e+003, 1.348966e+003
1.106897e+003, 1.349997e+003
1.107379e+003, 1.351012e+003
1.107861e+003, 1.351703e+003
1.108343e+003, 1.351238e+003
1.108825e+003, 1.349238e+003
1.109307e+003, 1.347946e+003
1.109790e+003, 1.347835e+003
1.110272e+003, 1.348051e+003
1.110754e+003, 1.349494e+003
1.111236e+003, 1.350096e+003
1.111718e+003, 1.347729e+003
1.112200e+003, 1.344150e+003
1.112682e+003, 1.342265e+003
1.113164e+003, 1.342190e+003
1.113647e+003, 1.342260e+003
1.114129e+003, 1.342656e+003
1.114611e+003, 1.342914e+003
1.115093e+003, 1.343016e+003
1.115575e+003, 1.342971e+003
1.116057e+003, 1.342726e+003
1.116539e+003, 1.342393e+003
1.117021e+003, 1.342106e+003
1.117504e+003, 1.341849e+003
1.117986e+003, 1.341500e+003
1.118468e+003, 1.341011e+003
1.118950e+003, 1.340549e+003
1.119432e+003, 1.340207e+003
1.119914e+003, 1.339631e+003
1.120396e+003, 1.338291e+003
1.120878e+003, 1.337396e+003
1.121360e+003, 1.338303e+003
1.121843e+003, 1.340220e+003
1.122325e+003, 1.340761e+003
1.122807e+003, 1.339666e+003
1.123289e+003, 1.338757e+003
1.123771e+003, 1.337986e+003
1.124253e+003, 1.337657e+003
1.124735e+003, 1.338066e+003
1.125217e+003, 1.338175e+003
1.125699e+003, 1.337163e+003
1.126182e+003, 1.335835e+003
1.126664e+003, 1.335683e+003
1.127146e+003, 1.336608e+003
1.127628e+003, 1.336623e+003
1.128110e+003, 1.335546e+003
1.128592e+003, 1.335246e+003
1.129074e+003, 1.336052e+003
1.129556e+003, 1.336974e+003
1.130039e+003, 1.337604e+003
1.130521e+003, 1.337857e+003
1.131003e+003, 1.337551e+003
1.131485e+003, 1.336916e+003
1.131967e+003, 1.336769e+003
1.132449e+003, 1.337094e+003
1.132931e+003, 1.337854e+003
1.133413e+003, 1.339014e+003
1.133896e+003, 1.339192e+003
1.134378e+003, 1.337970e+003
1.134860e+003, 1.336565e+003
1.135342e+003, 1.335912e+003
1.135824e+003, 1.335703e+003
1.136306e+003, 1.335230e+003
1.136788e+003, 1.334742e+003
1.137270e+003, 1.335592e+003
1.137752e+003, 1.337387e+003
1.138234e+003, 1.337904e+003
1.138717e+003, 1.336965e+003
1.139199e+003, 1.336550e+003
1.139681e+003, 1.337675e+003
1.140163e+003, 1.339172e+003
1.140645e+003, 1.340089e+003
1.141127e+003, 1.340179e+003
1.141609e+003, 1.338157e+003
1.142091e+003, 1.335305e+003
1.142574e+003, 1.334908e+003
1.143056e+003, 1.336455e+003
1.143538e+003, 1.337034e+003
1.144020e+003, 1.335806e+003
1.144502e+003, 1.334203e+003
1.144984e+003, 1.333039e+003
1.145466e+003, 1.332383e+003
1.145948e+003, 1.332490e+003
1.146431e+003, 1.332987e+003
1.146913e+003, 1.333694e+003
1.147395e+003, 1.334292e+003
1.147877e+003, 1.334047e+003
1.148359e+003, 1.333119e+003
1.148841e+003, 1.332627e+003
1.149323e+003, 1.333069e+003
1.149805e+003, 1.333799e+003
1.150287e+003, 1.335176e+003
1.150770e+003, 1.335816e+003
1.151252e+003, 1.333937e+003
1.151734e+003, 1.331427e+003
1.152216e+003, 1.330500e+003
1.152698e+003, 1.330622e+003
1.153180e+003, 1.329869e+003
1.153662e+003, 1.327853e+003
1.154144e+003, 1.326852e+003
1.154626e+003, 1.328479e+003
1.155109e+003, 1.330041e+003
1.155591e+003, 1.330890e+003
1.156073e+003, 1.331156e+003
1.156555e+003, 1.330887e+003
1.157037e+003, 1.330116e+003
1.157519e+003, 1.328198e+003
1.158001e+003, 1.325567e+003
1.158483e+003, 1.325254e+003
1.158966e+003, 1.329888e+003
1.159448e+003, 1.331791e+003
1.159930e+003, 1.327900e+003
1.160412e+003, 1.324768e+003
1.160894e+003, 1.323992e+003
1.161376e+003, 1.324737e+003
1.161858e+003, 1.327471e+003
1.162340e+003, 1.330673e+003
1.162822e+003, 1.330702e+003
1.163305e+003, 1.327098e+003
1.163787e+003, 1.325379e+003
1.164269e+003, 1.326380e+003
1.164751e+003, 1.326787e+003
1.165233e+003, 1.325945e+003
1.165715e+003, 1.325144e+003
1.166197e+003, 1.325014e+003
1.166679e+003, 1.325126e+003
1.167161e+003, 1.324965e+003
1.167644e+003, 1.324627e+003
1.168126e+003, 1.324628e+003
1.168608e+003, 1.324996e+003
1.169090e+003, 1.324563e+003
1.169572e+003, 1.323248e+003
1.170054e+003, 1.322107e+003
1.170536e+003, 1.321408e+003
1.171018e+003, 1.322147e+003
1.171500e+003, 1.325231e+003
1.171983e+003, 1.328576e+003
1.172465e+003, 1.328456e+003
1.172947e+003, 1.326019e+003
1.173429e+003, 1.325108e+003
1.173911e+003, 1.325314e+003
1.174393e+003, 1.325147e+003
1.174875e+003, 1.324444e+003
1.175357e+003, 1.323517e+003
1.175840e+003, 1.322500e+003
1.176322e+003, 1.321529e+003
1.176804e+003, 1.320712e+003
1.177286e+003, 1.319982e+003
1.177768e+003, 1.319219e+003
1.178250e+003, 1.318520e+003
1.178732e+003, 1.317967e+003
1.179214e+003, 1.317620e+003
1.179697e+003, 1.317633e+003
1.180179e+003, 1.317956e+003
1.180661e+003, 1.318415e+003
1.181143e+003, 1.319009e+003
1.181625e+003, 1.319110e+003
1.182107e+003, 1.317930e+003
1.182589e+003, 1.316615e+003
1.183071e+003, 1.315621e+003
1.183553e+003, 1.315115e+003
1.184036e+003, 1.315818e+003
1.184518e+003, 1.316866e+003
1.185000e+003, 1.316524e+003
1.185482e+003, 1.314634e+003
1.185964e+003, 1.313074e+003
1.186446e+003, 1.312558e+003
1.186928e+003, 1.311946e+003
1.187410e+003, 1.310370e+003
1.187892e+003, 1.309524e+003
1.188375e+003, 1.310890e+003
1.188857e+003, 1.312658e+003
1.189339e+003, 1.313350e+003
1.189821e+003, 1.313082e+003
1.190303e+003, 1.311999e+003
1.190785e+003, 1.309795e+003
1.191267e+003, 1.308646e+003
1.191749e+003, 1.308835e+003
1.192232e+003, 1.309377e+003
1.192714e+003, 1.310391e+003
1.193196e+003, 1.310863e+003
1.193678e+003, 1.310137e+003
1.194160e+003, 1.309000e+003
1.194642e+003, 1.308328e+003
1.195124e+003, 1.308146e+003
1.195606e+003, 1.308906e+003
1.196089e+003, 1.310526e+003
1.196571e+003, 1.310737e+003
1.197053e+003, 1.309496e+003
1.197535e+003, 1.308232e+003
1.198017e+003, 1.307301e+003
1.198499e+003, 1.306109e+003
1.198981e+003, 1.304234e+003
1.199463e+003, 1.302783e+003
1.199945e+003, 1.303919e+003
1.200427e+003, 1.305994e+003
1.200910e+003, 1.305332e+003
1.201392e+003, 1.303177e+003
1.201874e+003, 1.302296e+003
1.202356e+003, 1.302545e+003
1.202838e+003, 1.302591e+003
1.203320e+003, 1.302031e+003
1.203802e+003, 1.300988e+003
1.204284e+003, 1.299161e+003
1.204767e+003, 1.298002e+003
1.205249e+003, 1.299221e+003
1.205731e+003, 1.300912e+003
1.206213e+003, 1.301969e+003
1.206695e+003, 1.302211e+003
1.207177e+003, 1.301122e+003
1.207659e+003, 1.299225e+003
1.208141e+003, 1.297637e+003
1.208624e+003, 1.296537e+003
1.209106e+003, 1.296506e+003
1.209588e+003, 1.299326e+003
1.210070e+003, 1.300765e+003
1.210552e+003, 1.297746e+003
1.211034e+003, 1.295767e+003
1.211516e+003, 1.299797e+003
1.211998e+003, 1.304216e+003
1.212480e+003, 1.302834e+003
1.212963e+003, 1.297230e+003
1.213445e+003, 1.293386e+003
1.213927e+003, 1.291461e+003
1.214409e+003, 1.290541e+003
1.214891e+003, 1.290872e+003
1.215373e+003, 1.291303e+003
1.215855e+003, 1.291785e+003
1.216337e+003, 1.291423e+003
1.216819e+003, 1.289599e+003
1.217302e+003, 1.287531e+003
1.217784e+003, 1.286708e+003
1.218266e+003, 1.286846e+003
1.218748e+003, 1.287483e+003
1.219230e+003, 1.288302e+003
1.219712e+003, 1.287164e+003
1.220194e+003, 1.284479e+003
1.220676e+003, 1.282984e+003
1.221159e+003, 1.283121e+003
1.221641e+003, 1.283044e+003
1.222123e+003, 1.281728e+003
1.222605e+003, 1.280677e+003
1.223087e+003, 1.282099e+003
1.223569e+003, 1.283867e+003
1.224051e+003, 1.283105e+003
1.224533e+003, 1.281518e+003
1.225016e+003, 1.281255e+003
1.225498e+003, 1.281995e+003
1.225980e+003, 1.282704e+003
1.226462e+003, 1.283234e+003
1.226944e+003, 1.284305e+003
1.227426e+003, 1.286892e+003
1.227908e+003, 1.287796e+003
1.228390e+003, 1.284156e+003
1.228872e+003, 1.280902e+003
1.229354e+003, 1.280243e+003
1.229837e+003, 1.280637e+003
1.230319e+003, 1.281364e+003
1.230801e+003, 1.282043e+003
1.231283e+003, 1.282125e+003
1.231765e+003, 1.281623e+003
1.232247e+003, 1.280538e+003
1.232729e+003, 1.278331e+003
1.233211e+003, 1.277402e+003
1.233694e+003, 1.278392e+003
1.234176e+003, 1.278639e+003
1.234658e+003, 1.277131e+003
1.235140e+003, 1.275748e+003
1.235622e+003, 1.275935e+003
1.236104e+003, 1.276678e+003
1.236586e+003, 1.276161e+003
1.237068e+003, 1.274754e+003
1.237551e+003, 1.274224e+003
1.238033e+003, 1.274232e+003
1.238515e+003, 1.272839e+003
1.238997e+003, 1.270340e+003
1.239479e+003, 1.269059e+003
1.239961e+003, 1.269583e+003
1.240443e+003, 1.270819e+003
1.240925e+003, 1.272297e+003
1.241407e+003, 1.273091e+003
1.241890e+003, 1.271809e+003
1.242372e+003, 1.269952e+003
1.242854e+003, 1.268770e+003
1.243336e+003, 1.268059e+003
1.243818e+003, 1.267559e+003
1.244300e+003, 1.267258e+003
1.244782e+003, 1.267038e+003
1.245264e+003, 1.266957e+003
1.245746e+003, 1.267911e+003
1.246229e+003, 1.271777e+003
1.246711e+003, 1.273647e+003
1.247193e+003, 1.271072e+003
1.247675e+003, 1.268569e+003
1.248157e+003, 1.267760e+003
1.248639e+003, 1.267368e+003
1.249121e+003, 1.266279e+003
1.249603e+003, 1.265266e+003
1.250085e+003, 1.265989e+003
1.250568e+003, 1.268259e+003
1.251050e+003, 1.268685e+003
1.251532e+003, 1.267048e+003
1.252014e+003, 1.265849e+003
1.252496e+003, 1.265281e+003
1.252978e+003, 1.264752e+003
1.253460e+003, 1.264090e+003
1.253942e+003, 1.264161e+003
1.254425e+003, 1.265633e+003
1.254907e+003, 1.267342e+003
1.255389e+003, 1.267501e+003
1.255871e+003, 1.266896e+003
1.256353e+003, 1.267183e+003
1.256835e+003, 1.267699e+003
1.257317e+003, 1.266980e+003
1.257799e+003, 1.265459e+003
1.258281e+003, 1.264398e+003
1.258764e+003, 1.264075e+003
1.259246e+003, 1.264118e+003
1.259728e+003, 1.264417e+003
1.260210e+003, 1.264918e+003
1.260692e+003, 1.266817e+003
1.261174e+003, 1.267316e+003
1.261656e+003, 1.262904e+003
1.262138e+003, 1.258805e+003
1.262620e+003, 1.259841e+003
1.263103e+003, 1.263363e+003
1.263585e+003, 1.265219e+003
1.264067e+003, 1.265466e+003
1.264549e+003, 1.264667e+003
1.265031e+003, 1.262110e+003
1.265513e+003, 1.261110e+003
1.265995e+003, 1.262279e+003
1.266477e+003, 1.262066e+003
1.266960e+003, 1.259431e+003
1.267442e+003, 1.256976e+003
1.267924e+003, 1.256110e+003
1.268406e+003, 1.256512e+003
1.268888e+003, 1.258111e+003
1.269370e+003, 1.260120e+003
1.269852e+003, 1.260877e+003
1.270334e+003, 1.260545e+003
1.270817e+003, 1.258855e+003
1.271299e+003, 1.256612e+003
1.271781e+003, 1.256178e+003
1.272263e+003, 1.257385e+003
1.272745e+003, 1.257935e+003
1.273227e+003, 1.256952e+003
1.273709e+003, 1.255666e+003
1.274191e+003, 1.254156e+003
1.274673e+003, 1.253448e+003
1.275156e+003, 1.254561e+003
1.275638e+003, 1.256061e+003
1.276120e+003, 1.257461e+003
1.276602e+003, 1.258358e+003
1.277084e+003, 1.258021e+003
1.277566e+003, 1.256886e+003
1.278048e+003, 1.256545e+003
1.278530e+003, 1.257212e+003
1.279012e+003, 1.256599e+003
1.279495e+003, 1.253985e+003
1.279977e+003, 1.252609e+003
1.280459e+003, 1.253128e+003
1.280941e+003, 1.253460e+003
1.281423e+003, 1.252790e+003
1.281905e+003, 1.252224e+003
1.282387e+003, 1.252662e+003
1.282869e+003, 1.253611e+003
1.283352e+003, 1.254627e+003
1.283834e+003, 1.255186e+003
1.284316e+003, 1.254069e+003
1.284798e+003, 1.251336e+003
##END=



