##NAMES=Sahlinite
##RRUFFID=R130115
##IDEAL CHEMISTRY=Pb^2+^_14_O_9_(As^5+^O_4_)_2_Cl_4_
##LOCALITY=Langban, Filipstad, Varmland, Sweden
##OWNER=RRUFF
##SOURCE=Rock Currier
##DESCRIPTION=Compact aggregate of very pale yellow grains with evident cleavage, associated with black hausmannite
##STATUS=The identification of this mineral has been confirmed by single-crystal X-ray diffraction.
##URL=rruff.info/R130115
8.975323e+001, 0.000000e+000
9.023535e+001, 1.811680e+003
9.071747e+001, 1.772922e+003
9.119958e+001, 1.752172e+003
9.168170e+001, 1.795388e+003
9.216382e+001, 1.840202e+003
9.264594e+001, 1.873371e+003
9.312805e+001, 1.897817e+003
9.361017e+001, 1.918097e+003
9.409229e+001, 1.931019e+003
9.457440e+001, 1.936575e+003
9.505651e+001, 1.934460e+003
9.553863e+001, 1.924746e+003
9.602074e+001, 1.910932e+003
9.650286e+001, 1.895416e+003
9.698498e+001, 1.877945e+003
9.746709e+001, 1.855910e+003
9.794921e+001, 1.836991e+003
9.843133e+001, 1.822394e+003
9.891344e+001, 1.808957e+003
9.939556e+001, 1.796701e+003
9.987768e+001, 1.784688e+003
1.003598e+002, 1.770775e+003
1.008419e+002, 1.753181e+003
1.013240e+002, 1.732378e+003
1.018061e+002, 1.712065e+003
1.022883e+002, 1.690451e+003
1.027704e+002, 1.670051e+003
1.032525e+002, 1.653332e+003
1.037346e+002, 1.640316e+003
1.042167e+002, 1.629773e+003
1.046988e+002, 1.620445e+003
1.051810e+002, 1.612475e+003
1.056631e+002, 1.606654e+003
1.061452e+002, 1.602455e+003
1.066273e+002, 1.600427e+003
1.071094e+002, 1.602733e+003
1.075915e+002, 1.608244e+003
1.080737e+002, 1.620452e+003
1.085558e+002, 1.639721e+003
1.090379e+002, 1.665976e+003
1.095200e+002, 1.698783e+003
1.100021e+002, 1.738329e+003
1.104842e+002, 1.785038e+003
1.109664e+002, 1.835755e+003
1.114485e+002, 1.893860e+003
1.119306e+002, 1.952964e+003
1.124127e+002, 2.012412e+003
1.128948e+002, 2.070768e+003
1.133769e+002, 2.125557e+003
1.138591e+002, 2.172745e+003
1.143412e+002, 2.211729e+003
1.148233e+002, 2.242541e+003
1.153054e+002, 2.263487e+003
1.157875e+002, 2.277683e+003
1.162696e+002, 2.286078e+003
1.167517e+002, 2.288611e+003
1.172339e+002, 2.289422e+003
1.177160e+002, 2.298658e+003
1.181981e+002, 2.316305e+003
1.186802e+002, 2.339180e+003
1.191623e+002, 2.365004e+003
1.196444e+002, 2.395038e+003
1.201266e+002, 2.432991e+003
1.206087e+002, 2.480023e+003
1.210908e+002, 2.537736e+003
1.215729e+002, 2.603993e+003
1.220550e+002, 2.677617e+003
1.225371e+002, 2.761511e+003
1.230193e+002, 2.858275e+003
1.235014e+002, 2.968646e+003
1.239835e+002, 3.087226e+003
1.244656e+002, 3.213931e+003
1.249477e+002, 3.346298e+003
1.254298e+002, 3.484424e+003
1.259120e+002, 3.628138e+003
1.263941e+002, 3.776156e+003
1.268762e+002, 3.924291e+003
1.273583e+002, 4.074908e+003
1.278404e+002, 4.222310e+003
1.283225e+002, 4.364849e+003
1.288047e+002, 4.504430e+003
1.292868e+002, 4.642542e+003
1.297689e+002, 4.779891e+003
1.302510e+002, 4.916712e+003
1.307331e+002, 5.056068e+003
1.312152e+002, 5.208142e+003
1.316974e+002, 5.353993e+003
1.321795e+002, 5.499636e+003
1.326616e+002, 5.636503e+003
1.331437e+002, 5.746136e+003
1.336258e+002, 5.811524e+003
1.341079e+002, 5.826383e+003
1.345901e+002, 5.831810e+003
1.350722e+002, 5.802675e+003
1.355543e+002, 5.785327e+003
1.360364e+002, 5.800834e+003
1.365185e+002, 5.852957e+003
1.370006e+002, 5.940787e+003
1.374828e+002, 6.064696e+003
1.379649e+002, 6.230666e+003
1.384470e+002, 6.422365e+003
1.389291e+002, 6.648337e+003
1.394112e+002, 6.896581e+003
1.398933e+002, 7.159891e+003
1.403755e+002, 7.439793e+003
1.408576e+002, 7.718276e+003
1.413397e+002, 7.982328e+003
1.418218e+002, 8.235161e+003
1.423039e+002, 8.439403e+003
1.427860e+002, 8.593809e+003
1.432681e+002, 8.690330e+003
1.437503e+002, 8.700346e+003
1.442324e+002, 8.607601e+003
1.447145e+002, 8.423210e+003
1.451966e+002, 8.165820e+003
1.456787e+002, 7.836679e+003
1.461608e+002, 7.467524e+003
1.466430e+002, 7.072737e+003
1.471251e+002, 6.647572e+003
1.476072e+002, 6.237193e+003
1.480893e+002, 5.837620e+003
1.485714e+002, 5.460860e+003
1.490535e+002, 5.113287e+003
1.495357e+002, 4.798057e+003
1.500178e+002, 4.513442e+003
1.504999e+002, 4.261700e+003
1.509820e+002, 4.046230e+003
1.514641e+002, 3.856185e+003
1.519462e+002, 3.687987e+003
1.524284e+002, 3.539015e+003
1.529105e+002, 3.407892e+003
1.533926e+002, 3.294552e+003
1.538747e+002, 3.195928e+003
1.543568e+002, 3.105026e+003
1.548389e+002, 3.026376e+003
1.553211e+002, 2.951821e+003
1.558032e+002, 2.883210e+003
1.562853e+002, 2.817646e+003
1.567674e+002, 2.752628e+003
1.572495e+002, 2.686927e+003
1.577316e+002, 2.620433e+003
1.582138e+002, 2.552574e+003
1.586959e+002, 2.483984e+003
1.591780e+002, 2.413547e+003
1.596601e+002, 2.340747e+003
1.601422e+002, 2.266028e+003
1.606243e+002, 2.189887e+003
1.611065e+002, 2.112560e+003
1.615886e+002, 2.034529e+003
1.620707e+002, 1.959301e+003
1.625528e+002, 1.886549e+003
1.630349e+002, 1.816798e+003
1.635170e+002, 1.750709e+003
1.639991e+002, 1.688137e+003
1.644813e+002, 1.629081e+003
1.649634e+002, 1.573993e+003
1.654455e+002, 1.522726e+003
1.659276e+002, 1.474191e+003
1.664097e+002, 1.428356e+003
1.668918e+002, 1.384891e+003
1.673740e+002, 1.343488e+003
1.678561e+002, 1.304081e+003
1.683382e+002, 1.267384e+003
1.688203e+002, 1.234979e+003
1.693024e+002, 1.205435e+003
1.697845e+002, 1.177267e+003
1.702667e+002, 1.150291e+003
1.707488e+002, 1.124290e+003
1.712309e+002, 1.098549e+003
1.717130e+002, 1.072124e+003
1.721951e+002, 1.047967e+003
1.726772e+002, 1.027348e+003
1.731594e+002, 1.009075e+003
1.736415e+002, 9.913544e+002
1.741236e+002, 9.731363e+002
1.746057e+002, 9.546770e+002
1.750878e+002, 9.378019e+002
1.755699e+002, 9.237582e+002
1.760521e+002, 9.100536e+002
1.765342e+002, 8.958832e+002
1.770163e+002, 8.815782e+002
1.774984e+002, 8.679207e+002
1.779805e+002, 8.554218e+002
1.784626e+002, 8.440640e+002
1.789448e+002, 8.332468e+002
1.794269e+002, 8.232748e+002
1.799090e+002, 8.135175e+002
1.803911e+002, 8.036542e+002
1.808732e+002, 7.938286e+002
1.813553e+002, 7.845749e+002
1.818375e+002, 7.764021e+002
1.823196e+002, 7.694617e+002
1.828017e+002, 7.621370e+002
1.832838e+002, 7.543675e+002
1.837659e+002, 7.463622e+002
1.842480e+002, 7.378885e+002
1.847301e+002, 7.291403e+002
1.852123e+002, 7.208699e+002
1.856944e+002, 7.138768e+002
1.861765e+002, 7.083796e+002
1.866586e+002, 7.027993e+002
1.871407e+002, 6.972968e+002
1.876228e+002, 6.916561e+002
1.881050e+002, 6.856798e+002
1.885871e+002, 6.793792e+002
1.890692e+002, 6.728984e+002
1.895513e+002, 6.662110e+002
1.900334e+002, 6.593754e+002
1.905155e+002, 6.531176e+002
1.909977e+002, 6.476530e+002
1.914798e+002, 6.427787e+002
1.919619e+002, 6.383463e+002
1.924440e+002, 6.343861e+002
1.929261e+002, 6.305925e+002
1.934082e+002, 6.265828e+002
1.938904e+002, 6.224609e+002
1.943725e+002, 6.186572e+002
1.948546e+002, 6.153835e+002
1.953367e+002, 6.124920e+002
1.958188e+002, 6.097792e+002
1.963009e+002, 6.074208e+002
1.967831e+002, 6.048039e+002
1.972652e+002, 6.011639e+002
1.977473e+002, 5.968672e+002
1.982294e+002, 5.929398e+002
1.987115e+002, 5.901525e+002
1.991936e+002, 5.882131e+002
1.996758e+002, 5.858391e+002
2.001579e+002, 5.825629e+002
2.006400e+002, 5.794575e+002
2.011221e+002, 5.773055e+002
2.016042e+002, 5.757871e+002
2.020863e+002, 5.741360e+002
2.025685e+002, 5.718108e+002
2.030506e+002, 5.688386e+002
2.035327e+002, 5.657296e+002
2.040148e+002, 5.620830e+002
2.044969e+002, 5.587517e+002
2.049790e+002, 5.564518e+002
2.054612e+002, 5.547857e+002
2.059433e+002, 5.527509e+002
2.064254e+002, 5.493170e+002
2.069075e+002, 5.443575e+002
2.073896e+002, 5.404640e+002
2.078717e+002, 5.385137e+002
2.083539e+002, 5.368964e+002
2.088360e+002, 5.354601e+002
2.093181e+002, 5.339934e+002
2.098002e+002, 5.321457e+002
2.102823e+002, 5.295129e+002
2.107644e+002, 5.259666e+002
2.112466e+002, 5.229417e+002
2.117287e+002, 5.207279e+002
2.122108e+002, 5.187169e+002
2.126929e+002, 5.166564e+002
2.131750e+002, 5.145753e+002
2.136571e+002, 5.126158e+002
2.141393e+002, 5.108968e+002
2.146214e+002, 5.094081e+002
2.151035e+002, 5.083021e+002
2.155856e+002, 5.077684e+002
2.160677e+002, 5.073534e+002
2.165498e+002, 5.068040e+002
2.170320e+002, 5.061426e+002
2.175141e+002, 5.055606e+002
2.179962e+002, 5.052406e+002
2.184783e+002, 5.052177e+002
2.189604e+002, 5.052327e+002
2.194425e+002, 5.052121e+002
2.199247e+002, 5.052792e+002
2.204068e+002, 5.053839e+002
2.208889e+002, 5.055782e+002
2.213710e+002, 5.061606e+002
2.218531e+002, 5.074724e+002
2.223352e+002, 5.095774e+002
2.228174e+002, 5.114618e+002
2.232995e+002, 5.128583e+002
2.237816e+002, 5.142322e+002
2.242637e+002, 5.159337e+002
2.247458e+002, 5.179782e+002
2.252279e+002, 5.201447e+002
2.257100e+002, 5.222878e+002
2.261922e+002, 5.244014e+002
2.266743e+002, 5.265123e+002
2.271564e+002, 5.282020e+002
2.276385e+002, 5.301483e+002
2.281206e+002, 5.332919e+002
2.286027e+002, 5.377151e+002
2.290849e+002, 5.418713e+002
2.295670e+002, 5.441339e+002
2.300491e+002, 5.452372e+002
2.305312e+002, 5.472582e+002
2.310133e+002, 5.512012e+002
2.314954e+002, 5.558356e+002
2.319776e+002, 5.597620e+002
2.324597e+002, 5.628937e+002
2.329418e+002, 5.659227e+002
2.334239e+002, 5.692758e+002
2.339060e+002, 5.728261e+002
2.343881e+002, 5.764084e+002
2.348703e+002, 5.800180e+002
2.353524e+002, 5.836095e+002
2.358345e+002, 5.871454e+002
2.363166e+002, 5.906462e+002
2.367987e+002, 5.940825e+002
2.372808e+002, 5.974759e+002
2.377630e+002, 6.007987e+002
2.382451e+002, 6.039699e+002
2.387272e+002, 6.068105e+002
2.392093e+002, 6.097148e+002
2.396914e+002, 6.134596e+002
2.401735e+002, 6.184223e+002
2.406557e+002, 6.230598e+002
2.411378e+002, 6.262039e+002
2.416199e+002, 6.289872e+002
2.421020e+002, 6.325838e+002
2.425841e+002, 6.375058e+002
2.430662e+002, 6.430049e+002
2.435484e+002, 6.476954e+002
2.440305e+002, 6.511336e+002
2.445126e+002, 6.549734e+002
2.449947e+002, 6.604332e+002
2.454768e+002, 6.660635e+002
2.459589e+002, 6.705548e+002
2.464410e+002, 6.734460e+002
2.469232e+002, 6.753786e+002
2.474053e+002, 6.776003e+002
2.478874e+002, 6.806215e+002
2.483695e+002, 6.826186e+002
2.488516e+002, 6.832432e+002
2.493337e+002, 6.828953e+002
2.498159e+002, 6.817021e+002
2.502980e+002, 6.797211e+002
2.507801e+002, 6.772225e+002
2.512622e+002, 6.746893e+002
2.517443e+002, 6.724262e+002
2.522264e+002, 6.693969e+002
2.527086e+002, 6.648780e+002
2.531907e+002, 6.601028e+002
2.536728e+002, 6.557751e+002
2.541549e+002, 6.521344e+002
2.546370e+002, 6.491426e+002
2.551191e+002, 6.467388e+002
2.556013e+002, 6.449902e+002
2.560834e+002, 6.437907e+002
2.565655e+002, 6.432502e+002
2.570476e+002, 6.430535e+002
2.575297e+002, 6.428552e+002
2.580118e+002, 6.426648e+002
2.584940e+002, 6.429071e+002
2.589761e+002, 6.442633e+002
2.594582e+002, 6.474086e+002
2.599403e+002, 6.499786e+002
2.604224e+002, 6.513840e+002
2.609045e+002, 6.528117e+002
2.613867e+002, 6.548405e+002
2.618688e+002, 6.576140e+002
2.623509e+002, 6.610500e+002
2.628330e+002, 6.650922e+002
2.633151e+002, 6.698063e+002
2.637972e+002, 6.749895e+002
2.642794e+002, 6.803406e+002
2.647615e+002, 6.862769e+002
2.652436e+002, 6.930927e+002
2.657257e+002, 7.007239e+002
2.662078e+002, 7.088570e+002
2.666899e+002, 7.171630e+002
2.671721e+002, 7.255328e+002
2.676542e+002, 7.347862e+002
2.681363e+002, 7.457001e+002
2.686184e+002, 7.565979e+002
2.691005e+002, 7.662546e+002
2.695826e+002, 7.749896e+002
2.700648e+002, 7.841971e+002
2.705469e+002, 7.951729e+002
2.710290e+002, 8.079445e+002
2.715111e+002, 8.195658e+002
2.719932e+002, 8.299576e+002
2.724753e+002, 8.395401e+002
2.729575e+002, 8.483803e+002
2.734396e+002, 8.565258e+002
2.739217e+002, 8.642398e+002
2.744038e+002, 8.719658e+002
2.748859e+002, 8.794431e+002
2.753680e+002, 8.829563e+002
2.758501e+002, 8.814703e+002
2.763322e+002, 8.782626e+002
2.768144e+002, 8.740190e+002
2.772965e+002, 8.688679e+002
2.777786e+002, 8.630767e+002
2.782607e+002, 8.568712e+002
2.787428e+002, 8.500311e+002
2.792249e+002, 8.413295e+002
2.797071e+002, 8.289480e+002
2.801892e+002, 8.172061e+002
2.806713e+002, 8.072448e+002
2.811534e+002, 7.986337e+002
2.816355e+002, 7.905805e+002
2.821176e+002, 7.827336e+002
2.825998e+002, 7.753093e+002
2.830819e+002, 7.691050e+002
2.835640e+002, 7.640888e+002
2.840461e+002, 7.600067e+002
2.845282e+002, 7.567117e+002
2.850103e+002, 7.543525e+002
2.854925e+002, 7.531758e+002
2.859746e+002, 7.532792e+002
2.864567e+002, 7.544968e+002
2.869388e+002, 7.566181e+002
2.874209e+002, 7.594843e+002
2.879030e+002, 7.635776e+002
2.883852e+002, 7.695464e+002
2.888673e+002, 7.765507e+002
2.893494e+002, 7.836110e+002
2.898315e+002, 7.905108e+002
2.903136e+002, 7.973541e+002
2.907957e+002, 8.041265e+002
2.912779e+002, 8.106455e+002
2.917600e+002, 8.185479e+002
2.922421e+002, 8.289144e+002
2.927242e+002, 8.402189e+002
2.932063e+002, 8.507455e+002
2.936884e+002, 8.603387e+002
2.941706e+002, 8.703926e+002
2.946527e+002, 8.825056e+002
2.951348e+002, 8.967194e+002
2.956169e+002, 9.099536e+002
2.960990e+002, 9.209740e+002
2.965811e+002, 9.317994e+002
2.970633e+002, 9.442612e+002
2.975454e+002, 9.582524e+002
2.980275e+002, 9.721891e+002
2.985096e+002, 9.847852e+002
2.989917e+002, 9.963376e+002
2.994738e+002, 1.008895e+003
2.999560e+002, 1.024075e+003
3.004381e+002, 1.038673e+003
3.009202e+002, 1.050324e+003
3.014023e+002, 1.059588e+003
3.018844e+002, 1.069334e+003
3.023665e+002, 1.081274e+003
3.028487e+002, 1.094637e+003
3.033308e+002, 1.107181e+003
3.038129e+002, 1.119291e+003
3.042950e+002, 1.130216e+003
3.047771e+002, 1.139024e+003
3.052592e+002, 1.146354e+003
3.057414e+002, 1.154033e+003
3.062235e+002, 1.163000e+003
3.067056e+002, 1.172135e+003
3.071877e+002, 1.179125e+003
3.076698e+002, 1.183898e+003
3.081519e+002, 1.187757e+003
3.086341e+002, 1.190974e+003
3.091162e+002, 1.193573e+003
3.095983e+002, 1.195527e+003
3.100804e+002, 1.196805e+003
3.105625e+002, 1.197516e+003
3.110446e+002, 1.197609e+003
3.115268e+002, 1.197076e+003
3.120089e+002, 1.196587e+003
3.124910e+002, 1.196847e+003
3.129731e+002, 1.196948e+003
3.134552e+002, 1.195752e+003
3.139373e+002, 1.193080e+003
3.144195e+002, 1.189614e+003
3.149016e+002, 1.186092e+003
3.153837e+002, 1.182372e+003
3.158658e+002, 1.177254e+003
3.163479e+002, 1.169750e+003
3.168300e+002, 1.161436e+003
3.173121e+002, 1.153961e+003
3.177943e+002, 1.147212e+003
3.182764e+002, 1.139391e+003
3.187585e+002, 1.128965e+003
3.192406e+002, 1.116448e+003
3.197227e+002, 1.104623e+003
3.202048e+002, 1.094028e+003
3.206870e+002, 1.083519e+003
3.211691e+002, 1.072027e+003
3.216512e+002, 1.060008e+003
3.221333e+002, 1.048852e+003
3.226154e+002, 1.039269e+003
3.230975e+002, 1.031000e+003
3.235797e+002, 1.023546e+003
3.240618e+002, 1.016738e+003
3.245439e+002, 1.010806e+003
3.250260e+002, 1.005655e+003
3.255081e+002, 1.001445e+003
3.259902e+002, 9.986392e+002
3.264724e+002, 9.975519e+002
3.269545e+002, 9.972774e+002
3.274366e+002, 9.961633e+002
3.279187e+002, 9.937767e+002
3.284008e+002, 9.929658e+002
3.288829e+002, 9.953945e+002
3.293651e+002, 9.991474e+002
3.298472e+002, 1.001866e+003
3.303293e+002, 1.003140e+003
3.308114e+002, 1.004354e+003
3.312935e+002, 1.006955e+003
3.317756e+002, 1.011077e+003
3.322578e+002, 1.015029e+003
3.327399e+002, 1.018720e+003
3.332220e+002, 1.022221e+003
3.337041e+002, 1.025939e+003
3.341862e+002, 1.029697e+003
3.346683e+002, 1.032444e+003
3.351505e+002, 1.033206e+003
3.356326e+002, 1.032279e+003
3.361147e+002, 1.032068e+003
3.365968e+002, 1.033766e+003
3.370789e+002, 1.034857e+003
3.375610e+002, 1.034361e+003
3.380432e+002, 1.032464e+003
3.385253e+002, 1.029635e+003
3.390074e+002, 1.026095e+003
3.394895e+002, 1.021774e+003
3.399716e+002, 1.016342e+003
3.404537e+002, 1.009536e+003
3.409359e+002, 1.002348e+003
3.414180e+002, 9.951703e+002
3.419001e+002, 9.876316e+002
3.423822e+002, 9.792208e+002
3.428643e+002, 9.698251e+002
3.433464e+002, 9.597676e+002
3.438286e+002, 9.494536e+002
3.443107e+002, 9.387285e+002
3.447928e+002, 9.281928e+002
3.452749e+002, 9.176513e+002
3.457570e+002, 9.075188e+002
3.462391e+002, 8.984308e+002
3.467213e+002, 8.903218e+002
3.472034e+002, 8.820612e+002
3.476855e+002, 8.726154e+002
3.481676e+002, 8.618527e+002
3.486497e+002, 8.523468e+002
3.491318e+002, 8.438508e+002
3.496140e+002, 8.366070e+002
3.500961e+002, 8.313584e+002
3.505782e+002, 8.275289e+002
3.510603e+002, 8.237575e+002
3.515424e+002, 8.192220e+002
3.520245e+002, 8.142740e+002
3.525067e+002, 8.104086e+002
3.529888e+002, 8.079421e+002
3.534709e+002, 8.061637e+002
3.539530e+002, 8.048152e+002
3.544351e+002, 8.041819e+002
3.549172e+002, 8.045659e+002
3.553994e+002, 8.060822e+002
3.558815e+002, 8.086851e+002
3.563636e+002, 8.123402e+002
3.568457e+002, 8.173422e+002
3.573278e+002, 8.229533e+002
3.578099e+002, 8.286379e+002
3.582920e+002, 8.352545e+002
3.587741e+002, 8.438987e+002
3.592563e+002, 8.543395e+002
3.597384e+002, 8.648664e+002
3.602205e+002, 8.736849e+002
3.607026e+002, 8.804321e+002
3.611847e+002, 8.890526e+002
3.616668e+002, 9.008195e+002
3.621490e+002, 9.129737e+002
3.626311e+002, 9.250220e+002
3.631132e+002, 9.367944e+002
3.635953e+002, 9.480987e+002
3.640774e+002, 9.589151e+002
3.645595e+002, 9.689955e+002
3.650417e+002, 9.773262e+002
3.655238e+002, 9.842532e+002
3.660059e+002, 9.885839e+002
3.664880e+002, 9.902449e+002
3.669701e+002, 9.893932e+002
3.674522e+002, 9.861878e+002
3.679344e+002, 9.806920e+002
3.684165e+002, 9.728406e+002
3.688986e+002, 9.624034e+002
3.693807e+002, 9.491218e+002
3.698628e+002, 9.338176e+002
3.703449e+002, 9.159278e+002
3.708271e+002, 8.966612e+002
3.713092e+002, 8.757230e+002
3.717913e+002, 8.536902e+002
3.722734e+002, 8.317327e+002
3.727555e+002, 8.109798e+002
3.732376e+002, 7.914439e+002
3.737198e+002, 7.721689e+002
3.742019e+002, 7.527270e+002
3.746840e+002, 7.341312e+002
3.751661e+002, 7.174438e+002
3.756482e+002, 7.015720e+002
3.761303e+002, 6.848154e+002
3.766125e+002, 6.659727e+002
3.770946e+002, 6.463961e+002
3.775767e+002, 6.290766e+002
3.780588e+002, 6.145313e+002
3.785409e+002, 6.008192e+002
3.790230e+002, 5.873807e+002
3.795052e+002, 5.745452e+002
3.799873e+002, 5.625685e+002
3.804694e+002, 5.515032e+002
3.809515e+002, 5.413372e+002
3.814336e+002, 5.323684e+002
3.819157e+002, 5.245545e+002
3.823979e+002, 5.166696e+002
3.828800e+002, 5.079843e+002
3.833621e+002, 4.999477e+002
3.838442e+002, 4.935504e+002
3.843263e+002, 4.885579e+002
3.848084e+002, 4.839224e+002
3.852906e+002, 4.788158e+002
3.857727e+002, 4.737762e+002
3.862548e+002, 4.701755e+002
3.867369e+002, 4.683394e+002
3.872190e+002, 4.668056e+002
3.877011e+002, 4.644162e+002
3.881833e+002, 4.619083e+002
3.886654e+002, 4.604002e+002
3.891475e+002, 4.602900e+002
3.896296e+002, 4.608794e+002
3.901117e+002, 4.616514e+002
3.905938e+002, 4.626148e+002
3.910760e+002, 4.637805e+002
3.915581e+002, 4.650724e+002
3.920402e+002, 4.666979e+002
3.925223e+002, 4.688998e+002
3.930044e+002, 4.716617e+002
3.934865e+002, 4.748513e+002
3.939687e+002, 4.783975e+002
3.944508e+002, 4.823435e+002
3.949329e+002, 4.867710e+002
3.954150e+002, 4.917500e+002
3.958971e+002, 4.969975e+002
3.963792e+002, 5.023268e+002
3.968614e+002, 5.077515e+002
3.973435e+002, 5.133469e+002
3.978256e+002, 5.188688e+002
3.983077e+002, 5.248342e+002
3.987898e+002, 5.317751e+002
3.992719e+002, 5.395016e+002
3.997540e+002, 5.472497e+002
4.002361e+002, 5.545211e+002
4.007183e+002, 5.617394e+002
4.012004e+002, 5.701276e+002
4.016825e+002, 5.801501e+002
4.021646e+002, 5.903167e+002
4.026467e+002, 6.003053e+002
4.031288e+002, 6.103469e+002
4.036110e+002, 6.205749e+002
4.040931e+002, 6.310048e+002
4.045752e+002, 6.418356e+002
4.050573e+002, 6.533334e+002
4.055394e+002, 6.655534e+002
4.060215e+002, 6.779144e+002
4.065037e+002, 6.904066e+002
4.069858e+002, 7.029807e+002
4.074679e+002, 7.161615e+002
4.079500e+002, 7.294689e+002
4.084321e+002, 7.417428e+002
4.089142e+002, 7.523075e+002
4.093964e+002, 7.615006e+002
4.098785e+002, 7.711052e+002
4.103606e+002, 7.824383e+002
4.108427e+002, 7.923707e+002
4.113248e+002, 8.010380e+002
4.118069e+002, 8.080203e+002
4.122891e+002, 8.127934e+002
4.127712e+002, 8.152919e+002
4.132533e+002, 8.161129e+002
4.137354e+002, 8.161053e+002
4.142175e+002, 8.154899e+002
4.146996e+002, 8.131061e+002
4.151818e+002, 8.081823e+002
4.156639e+002, 8.021517e+002
4.161460e+002, 7.955183e+002
4.166281e+002, 7.881727e+002
4.171102e+002, 7.797982e+002
4.175923e+002, 7.699700e+002
4.180745e+002, 7.591066e+002
4.185566e+002, 7.484882e+002
4.190387e+002, 7.383760e+002
4.195208e+002, 7.280476e+002
4.200029e+002, 7.175569e+002
4.204850e+002, 7.066885e+002
4.209672e+002, 6.950774e+002
4.214493e+002, 6.826277e+002
4.219314e+002, 6.701774e+002
4.224135e+002, 6.587462e+002
4.228956e+002, 6.482933e+002
4.233777e+002, 6.374410e+002
4.238599e+002, 6.256194e+002
4.243420e+002, 6.139023e+002
4.248241e+002, 6.030888e+002
4.253062e+002, 5.930203e+002
4.257883e+002, 5.830466e+002
4.262704e+002, 5.728058e+002
4.267526e+002, 5.625278e+002
4.272347e+002, 5.525909e+002
4.277168e+002, 5.429377e+002
4.281989e+002, 5.336359e+002
4.286810e+002, 5.248341e+002
4.291631e+002, 5.164178e+002
4.296453e+002, 5.080575e+002
4.301274e+002, 4.996031e+002
4.306095e+002, 4.915241e+002
4.310916e+002, 4.841016e+002
4.315737e+002, 4.772451e+002
4.320558e+002, 4.708509e+002
4.325380e+002, 4.649790e+002
4.330201e+002, 4.591492e+002
4.335022e+002, 4.526437e+002
4.339843e+002, 4.452996e+002
4.344664e+002, 4.389152e+002
4.349485e+002, 4.341437e+002
4.354307e+002, 4.298386e+002
4.359128e+002, 4.255334e+002
4.363949e+002, 4.210966e+002
4.368770e+002, 4.162155e+002
4.373591e+002, 4.106281e+002
4.378412e+002, 4.046310e+002
4.383234e+002, 3.994554e+002
4.388055e+002, 3.961382e+002
4.392876e+002, 3.923118e+002
4.397697e+002, 3.874432e+002
4.402518e+002, 3.822297e+002
4.407339e+002, 3.774492e+002
4.412160e+002, 3.732226e+002
4.416982e+002, 3.689707e+002
4.421803e+002, 3.640672e+002
4.426624e+002, 3.584377e+002
4.431445e+002, 3.526199e+002
4.436266e+002, 3.464242e+002
4.441087e+002, 3.402516e+002
4.445909e+002, 3.342119e+002
4.450730e+002, 3.283222e+002
4.455551e+002, 3.225132e+002
4.460372e+002, 3.167962e+002
4.465193e+002, 3.111680e+002
4.470014e+002, 3.056150e+002
4.474836e+002, 3.001188e+002
4.479657e+002, 2.947661e+002
4.484478e+002, 2.891499e+002
4.489299e+002, 2.839677e+002
4.494120e+002, 2.798895e+002
4.498941e+002, 2.768431e+002
4.503763e+002, 2.739390e+002
4.508584e+002, 2.704289e+002
4.513405e+002, 2.664824e+002
4.518226e+002, 2.629609e+002
4.523047e+002, 2.600501e+002
4.527868e+002, 2.571750e+002
4.532690e+002, 2.538251e+002
4.537511e+002, 2.503378e+002
4.542332e+002, 2.472555e+002
4.547153e+002, 2.449087e+002
4.551974e+002, 2.425882e+002
4.556795e+002, 2.394771e+002
4.561617e+002, 2.358226e+002
4.566438e+002, 2.327392e+002
4.571259e+002, 2.307115e+002
4.576080e+002, 2.289915e+002
4.580901e+002, 2.265242e+002
4.585722e+002, 2.233245e+002
4.590544e+002, 2.202879e+002
4.595365e+002, 2.177641e+002
4.600186e+002, 2.153428e+002
4.605007e+002, 2.126562e+002
4.609828e+002, 2.097214e+002
4.614649e+002, 2.068061e+002
4.619471e+002, 2.041060e+002
4.624292e+002, 2.014964e+002
4.629113e+002, 1.983702e+002
4.633934e+002, 1.939471e+002
4.638755e+002, 1.900615e+002
4.643576e+002, 1.870230e+002
4.648398e+002, 1.845281e+002
4.653219e+002, 1.824642e+002
4.658040e+002, 1.807050e+002
4.662861e+002, 1.788598e+002
4.667682e+002, 1.764527e+002
4.672503e+002, 1.733680e+002
4.677325e+002, 1.706497e+002
4.682146e+002, 1.685388e+002
4.686967e+002, 1.665429e+002
4.691788e+002, 1.644770e+002
4.696609e+002, 1.624661e+002
4.701430e+002, 1.608015e+002
4.706252e+002, 1.596271e+002
4.711073e+002, 1.585849e+002
4.715894e+002, 1.569418e+002
4.720715e+002, 1.544848e+002
4.725536e+002, 1.523801e+002
4.730357e+002, 1.510232e+002
4.735179e+002, 1.498946e+002
4.740000e+002, 1.487428e+002
4.744821e+002, 1.475703e+002
4.749642e+002, 1.464390e+002
4.754463e+002, 1.454163e+002
4.759284e+002, 1.444572e+002
4.764106e+002, 1.434770e+002
4.768927e+002, 1.424941e+002
4.773748e+002, 1.413915e+002
4.778569e+002, 1.400210e+002
4.783390e+002, 1.385440e+002
4.788211e+002, 1.371783e+002
4.793033e+002, 1.358886e+002
4.797854e+002, 1.348768e+002
4.802675e+002, 1.344405e+002
4.807496e+002, 1.343022e+002
4.812317e+002, 1.339601e+002
4.817138e+002, 1.333235e+002
4.821959e+002, 1.325543e+002
4.826780e+002, 1.317754e+002
4.831602e+002, 1.309869e+002
4.836423e+002, 1.301737e+002
4.841244e+002, 1.294316e+002
4.846065e+002, 1.285664e+002
4.850886e+002, 1.272991e+002
4.855707e+002, 1.258922e+002
4.860529e+002, 1.248982e+002
4.865350e+002, 1.245141e+002
4.870171e+002, 1.242830e+002
4.874992e+002, 1.234135e+002
4.879813e+002, 1.214887e+002
4.884634e+002, 1.200553e+002
4.889456e+002, 1.194794e+002
4.894277e+002, 1.189615e+002
4.899098e+002, 1.181349e+002
4.903919e+002, 1.170537e+002
4.908740e+002, 1.159223e+002
4.913561e+002, 1.148638e+002
4.918383e+002, 1.138472e+002
4.923204e+002, 1.127294e+002
4.928025e+002, 1.113458e+002
4.932846e+002, 1.103262e+002
4.937667e+002, 1.101511e+002
4.942488e+002, 1.101427e+002
4.947310e+002, 1.099291e+002
4.952131e+002, 1.094626e+002
4.956952e+002, 1.087794e+002
4.961773e+002, 1.078084e+002
4.966594e+002, 1.066510e+002
4.971415e+002, 1.055344e+002
4.976237e+002, 1.044192e+002
4.981058e+002, 1.035645e+002
4.985879e+002, 1.033169e+002
4.990700e+002, 1.033412e+002
4.995521e+002, 1.029528e+002
5.000342e+002, 1.019050e+002
5.005164e+002, 1.009627e+002
5.009985e+002, 1.005909e+002
5.014806e+002, 1.005526e+002
5.019627e+002, 1.004397e+002
5.024448e+002, 1.001699e+002
5.029269e+002, 9.983231e+001
5.034091e+002, 9.953249e+001
5.038912e+002, 9.927047e+001
5.043733e+002, 9.878880e+001
5.048554e+002, 9.786363e+001
5.053375e+002, 9.699567e+001
5.058196e+002, 9.640523e+001
5.063018e+002, 9.597286e+001
5.067839e+002, 9.547700e+001
5.072660e+002, 9.484538e+001
5.077481e+002, 9.425411e+001
5.082302e+002, 9.400925e+001
5.087123e+002, 9.424697e+001
5.091945e+002, 9.433714e+001
5.096766e+002, 9.448544e+001
5.101587e+002, 9.427706e+001
5.106408e+002, 9.327727e+001
5.111229e+002, 9.183669e+001
5.116050e+002, 9.058751e+001
5.120872e+002, 8.983358e+001
5.125693e+002, 8.945145e+001
5.130514e+002, 8.932681e+001
5.135335e+002, 8.952530e+001
5.140156e+002, 8.945605e+001
5.144977e+002, 8.879636e+001
5.149799e+002, 8.801609e+001
5.154620e+002, 8.751914e+001
5.159441e+002, 8.727197e+001
5.164262e+002, 8.702221e+001
5.169083e+002, 8.668269e+001
5.173904e+002, 8.627063e+001
5.178726e+002, 8.578674e+001
5.183547e+002, 8.523664e+001
5.188368e+002, 8.468194e+001
5.193189e+002, 8.414352e+001
5.198010e+002, 8.362641e+001
5.202831e+002, 8.315071e+001
5.207653e+002, 8.270026e+001
5.212474e+002, 8.231689e+001
5.217295e+002, 8.211470e+001
5.222116e+002, 8.190950e+001
5.226937e+002, 8.145956e+001
5.231758e+002, 8.081711e+001
5.236580e+002, 8.030637e+001
5.241401e+002, 8.019028e+001
5.246222e+002, 8.036411e+001
5.251043e+002, 8.027457e+001
5.255864e+002, 7.969358e+001
5.260685e+002, 7.916480e+001
5.265507e+002, 7.875279e+001
5.270328e+002, 7.839527e+001
5.275149e+002, 7.807352e+001
5.279970e+002, 7.776595e+001
5.284791e+002, 7.740871e+001
5.289612e+002, 7.689668e+001
5.294434e+002, 7.627910e+001
5.299255e+002, 7.586292e+001
5.304076e+002, 7.570601e+001
5.308897e+002, 7.562068e+001
5.313718e+002, 7.564635e+001
5.318539e+002, 7.564591e+001
5.323361e+002, 7.541830e+001
5.328182e+002, 7.489280e+001
5.333003e+002, 7.443289e+001
5.337824e+002, 7.437277e+001
5.342645e+002, 7.452800e+001
5.347466e+002, 7.446886e+001
5.352288e+002, 7.412575e+001
5.357109e+002, 7.378730e+001
5.361930e+002, 7.372867e+001
5.366751e+002, 7.386398e+001
5.371572e+002, 7.367744e+001
5.376393e+002, 7.272568e+001
5.381215e+002, 7.202178e+001
5.386036e+002, 7.205466e+001
5.390857e+002, 7.239734e+001
5.395678e+002, 7.252570e+001
5.400499e+002, 7.233058e+001
5.405320e+002, 7.201627e+001
5.410142e+002, 7.179270e+001
5.414963e+002, 7.166297e+001
5.419784e+002, 7.150862e+001
5.424604e+002, 7.124870e+001
5.429426e+002, 7.106417e+001
5.434247e+002, 7.111817e+001
5.439068e+002, 7.120501e+001
5.443889e+002, 7.107951e+001
5.448710e+002, 7.068126e+001
5.453531e+002, 7.016850e+001
5.458353e+002, 6.965728e+001
5.463174e+002, 6.915840e+001
5.467995e+002, 6.883939e+001
5.472816e+002, 6.875964e+001
5.477637e+002, 6.875264e+001
5.482458e+002, 6.872726e+001
5.487280e+002, 6.870459e+001
5.492101e+002, 6.874594e+001
5.496922e+002, 6.895094e+001
5.501743e+002, 6.902920e+001
5.506564e+002, 6.865053e+001
5.511385e+002, 6.804030e+001
5.516207e+002, 6.769418e+001
5.521028e+002, 6.771970e+001
5.525849e+002, 6.785629e+001
5.530670e+002, 6.789068e+001
5.535491e+002, 6.782171e+001
5.540313e+002, 6.759506e+001
5.545134e+002, 6.700741e+001
5.549955e+002, 6.653027e+001
5.554776e+002, 6.644152e+001
5.559597e+002, 6.646525e+001
5.564418e+002, 6.620679e+001
5.569240e+002, 6.559126e+001
5.574061e+002, 6.493993e+001
5.578882e+002, 6.465705e+001
5.583703e+002, 6.476367e+001
5.588524e+002, 6.465285e+001
5.593345e+002, 6.401579e+001
5.598167e+002, 6.361433e+001
5.602988e+002, 6.396903e+001
5.607809e+002, 6.455287e+001
5.612630e+002, 6.471786e+001
5.617451e+002, 6.428439e+001
5.622272e+002, 6.360431e+001
5.627094e+002, 6.280990e+001
5.631915e+002, 6.200484e+001
5.636736e+002, 6.163594e+001
5.641557e+002, 6.184814e+001
5.646378e+002, 6.199514e+001
5.651199e+002, 6.151391e+001
5.656021e+002, 6.058427e+001
5.660842e+002, 6.003088e+001
5.665663e+002, 6.003057e+001
5.670484e+002, 6.014970e+001
5.675305e+002, 6.036329e+001
5.680126e+002, 6.055759e+001
5.684948e+002, 6.057124e+001
5.689769e+002, 6.038799e+001
5.694590e+002, 6.012617e+001
5.699411e+002, 5.989466e+001
5.704232e+002, 5.968980e+001
5.709053e+002, 5.945597e+001
5.713875e+002, 5.918314e+001
5.718696e+002, 5.889126e+001
5.723517e+002, 5.849236e+001
5.728338e+002, 5.813173e+001
5.733159e+002, 5.795000e+001
5.737980e+002, 5.796314e+001
5.742802e+002, 5.807761e+001
5.747623e+002, 5.831409e+001
5.752444e+002, 5.859719e+001
5.757265e+002, 5.855785e+001
5.762086e+002, 5.811118e+001
5.766907e+002, 5.769674e+001
5.771729e+002, 5.751631e+001
5.776550e+002, 5.750109e+001
5.781371e+002, 5.757397e+001
5.786192e+002, 5.779265e+001
5.791013e+002, 5.783123e+001
5.795834e+002, 5.743964e+001
5.800656e+002, 5.687895e+001
5.805477e+002, 5.641265e+001
5.810298e+002, 5.606980e+001
5.815119e+002, 5.580787e+001
5.819940e+002, 5.560089e+001
5.824761e+002, 5.545437e+001
5.829583e+002, 5.539338e+001
5.834404e+002, 5.562303e+001
5.839225e+002, 5.561574e+001
5.844046e+002, 5.510991e+001
5.848867e+002, 5.459023e+001
5.853688e+002, 5.440334e+001
5.858510e+002, 5.449819e+001
5.863331e+002, 5.461333e+001
5.868152e+002, 5.458455e+001
5.872973e+002, 5.447488e+001
5.877794e+002, 5.444057e+001
5.882615e+002, 5.449965e+001
5.887437e+002, 5.451455e+001
5.892258e+002, 5.448876e+001
5.897079e+002, 5.436212e+001
5.901900e+002, 5.397276e+001
5.906721e+002, 5.338789e+001
5.911542e+002, 5.306275e+001
5.916364e+002, 5.334763e+001
5.921185e+002, 5.376827e+001
5.926006e+002, 5.393367e+001
5.930827e+002, 5.390123e+001
5.935648e+002, 5.384784e+001
5.940469e+002, 5.383434e+001
5.945291e+002, 5.385448e+001
5.950112e+002, 5.390963e+001
5.954933e+002, 5.402668e+001
5.959754e+002, 5.405500e+001
5.964575e+002, 5.384459e+001
5.969396e+002, 5.372580e+001
5.974218e+002, 5.394159e+001
5.979039e+002, 5.427561e+001
5.983860e+002, 5.438902e+001
5.988681e+002, 5.417246e+001
5.993502e+002, 5.386272e+001
5.998323e+002, 5.374540e+001
6.003145e+002, 5.381341e+001
6.007966e+002, 5.388991e+001
6.012787e+002, 5.397168e+001
6.017608e+002, 5.405159e+001
6.022429e+002, 5.411626e+001
6.027250e+002, 5.417861e+001
6.032072e+002, 5.426284e+001
6.036893e+002, 5.438506e+001
6.041714e+002, 5.448949e+001
6.046535e+002, 5.458166e+001
6.051356e+002, 5.462418e+001
6.056177e+002, 5.452111e+001
6.060999e+002, 5.428040e+001
6.065820e+002, 5.406336e+001
6.070641e+002, 5.398917e+001
6.075462e+002, 5.402974e+001
6.080283e+002, 5.405766e+001
6.085104e+002, 5.404848e+001
6.089926e+002, 5.406264e+001
6.094747e+002, 5.420508e+001
6.099568e+002, 5.428839e+001
6.104389e+002, 5.410155e+001
6.109210e+002, 5.372102e+001
6.114031e+002, 5.343871e+001
6.118853e+002, 5.347255e+001
6.123674e+002, 5.366127e+001
6.128495e+002, 5.363799e+001
6.133316e+002, 5.337777e+001
6.138137e+002, 5.321233e+001
6.142958e+002, 5.329350e+001
6.147780e+002, 5.340056e+001
6.152601e+002, 5.326241e+001
6.157422e+002, 5.292818e+001
6.162243e+002, 5.270216e+001
6.167064e+002, 5.271062e+001
6.171885e+002, 5.278097e+001
6.176707e+002, 5.289741e+001
6.181528e+002, 5.297832e+001
6.186349e+002, 5.281709e+001
6.191170e+002, 5.236129e+001
6.195991e+002, 5.183591e+001
6.200812e+002, 5.149207e+001
6.205634e+002, 5.133022e+001
6.210455e+002, 5.133036e+001
6.215276e+002, 5.178424e+001
6.220097e+002, 5.203780e+001
6.224918e+002, 5.180180e+001
6.229739e+002, 5.139083e+001
6.234561e+002, 5.111286e+001
6.239382e+002, 5.103188e+001
6.244203e+002, 5.104182e+001
6.249023e+002, 5.109554e+001
6.253845e+002, 5.117007e+001
6.258666e+002, 5.122520e+001
6.263487e+002, 5.126715e+001
6.268308e+002, 5.117948e+001
6.273129e+002, 5.082166e+001
6.277950e+002, 5.038638e+001
6.282772e+002, 5.028819e+001
6.287593e+002, 5.061078e+001
6.292414e+002, 5.079987e+001
6.297235e+002, 5.072272e+001
6.302056e+002, 5.053359e+001
6.306877e+002, 5.024310e+001
6.311699e+002, 4.993577e+001
6.316520e+002, 4.981142e+001
6.321341e+002, 4.996277e+001
6.326162e+002, 5.019562e+001
6.330983e+002, 5.016985e+001
6.335804e+002, 4.983490e+001
6.340626e+002, 4.949498e+001
6.345447e+002, 4.912366e+001
6.350268e+002, 4.879202e+001
6.355089e+002, 4.852785e+001
6.359910e+002, 4.831992e+001
6.364731e+002, 4.813003e+001
6.369553e+002, 4.792535e+001
6.374374e+002, 4.785226e+001
6.379195e+002, 4.816494e+001
6.384016e+002, 4.863549e+001
6.388837e+002, 4.879375e+001
6.393658e+002, 4.859518e+001
6.398480e+002, 4.836614e+001
6.403301e+002, 4.831216e+001
6.408122e+002, 4.839119e+001
6.412943e+002, 4.846493e+001
6.417764e+002, 4.861174e+001
6.422585e+002, 4.862851e+001
6.427407e+002, 4.845955e+001
6.432228e+002, 4.821109e+001
6.437049e+002, 4.785259e+001
6.441870e+002, 4.747541e+001
6.446691e+002, 4.729089e+001
6.451512e+002, 4.743531e+001
6.456334e+002, 4.770483e+001
6.461155e+002, 4.775280e+001
6.465976e+002, 4.758161e+001
6.470797e+002, 4.746729e+001
6.475618e+002, 4.747035e+001
6.480439e+002, 4.749473e+001
6.485261e+002, 4.745765e+001
6.490082e+002, 4.738388e+001
6.494903e+002, 4.734726e+001
6.499724e+002, 4.730802e+001
6.504545e+002, 4.737667e+001
6.509366e+002, 4.775502e+001
6.514188e+002, 4.817807e+001
6.519009e+002, 4.828720e+001
6.523830e+002, 4.807639e+001
6.528651e+002, 4.781200e+001
6.533472e+002, 4.769029e+001
6.538293e+002, 4.766954e+001
6.543115e+002, 4.757763e+001
6.547936e+002, 4.733061e+001
6.552757e+002, 4.721663e+001
6.557578e+002, 4.744780e+001
6.562399e+002, 4.767419e+001
6.567220e+002, 4.767110e+001
6.572042e+002, 4.749958e+001
6.576863e+002, 4.736811e+001
6.581684e+002, 4.735464e+001
6.586505e+002, 4.740988e+001
6.591326e+002, 4.753826e+001
6.596147e+002, 4.769685e+001
6.600969e+002, 4.777651e+001
6.605790e+002, 4.775440e+001
6.610611e+002, 4.762072e+001
6.615432e+002, 4.734499e+001
6.620253e+002, 4.694436e+001
6.625074e+002, 4.660944e+001
6.629896e+002, 4.639700e+001
6.634717e+002, 4.617694e+001
6.639538e+002, 4.578700e+001
6.644359e+002, 4.550037e+001
6.649180e+002, 4.565389e+001
6.654001e+002, 4.614121e+001
6.658823e+002, 4.650029e+001
6.663644e+002, 4.641411e+001
6.668465e+002, 4.609367e+001
6.673286e+002, 4.591603e+001
6.678107e+002, 4.587668e+001
6.682928e+002, 4.581749e+001
6.687750e+002, 4.569979e+001
6.692571e+002, 4.556295e+001
6.697392e+002, 4.543379e+001
6.702213e+002, 4.531545e+001
6.707034e+002, 4.523237e+001
6.711855e+002, 4.520612e+001
6.716677e+002, 4.518848e+001
6.721498e+002, 4.521155e+001
6.726319e+002, 4.520753e+001
6.731140e+002, 4.501571e+001
6.735961e+002, 4.468394e+001
6.740782e+002, 4.451879e+001
6.745604e+002, 4.479075e+001
6.750425e+002, 4.533974e+001
6.755246e+002, 4.563189e+001
6.760067e+002, 4.561116e+001
6.764888e+002, 4.558455e+001
6.769709e+002, 4.563969e+001
6.774531e+002, 4.567216e+001
6.779352e+002, 4.559195e+001
6.784173e+002, 4.542211e+001
6.788994e+002, 4.523634e+001
6.793815e+002, 4.492969e+001
6.798636e+002, 4.476759e+001
6.803458e+002, 4.507302e+001
6.808279e+002, 4.556007e+001
6.813100e+002, 4.574535e+001
6.817921e+002, 4.556845e+001
6.822742e+002, 4.533741e+001
6.827563e+002, 4.530999e+001
6.832385e+002, 4.542992e+001
6.837206e+002, 4.539698e+001
6.842027e+002, 4.505628e+001
6.846848e+002, 4.490143e+001
6.851669e+002, 4.521711e+001
6.856490e+002, 4.554356e+001
6.861312e+002, 4.559138e+001
6.866133e+002, 4.542661e+001
6.870954e+002, 4.528139e+001
6.875775e+002, 4.523909e+001
6.880596e+002, 4.524984e+001
6.885417e+002, 4.527949e+001
6.890239e+002, 4.532702e+001
6.895060e+002, 4.538882e+001
6.899881e+002, 4.546490e+001
6.904702e+002, 4.556715e+001
6.909523e+002, 4.571809e+001
6.914344e+002, 4.589423e+001
6.919166e+002, 4.597552e+001
6.923987e+002, 4.586779e+001
6.928808e+002, 4.581504e+001
6.933629e+002, 4.575364e+001
6.938450e+002, 4.581411e+001
6.943271e+002, 4.605696e+001
6.948093e+002, 4.648886e+001
6.952914e+002, 4.710310e+001
6.957735e+002, 4.789666e+001
6.962556e+002, 4.886923e+001
6.967377e+002, 5.050340e+001
6.972198e+002, 5.235259e+001
6.977020e+002, 5.253123e+001
6.981841e+002, 5.064377e+001
6.986662e+002, 4.872517e+001
6.991483e+002, 4.819804e+001
6.996304e+002, 4.874102e+001
7.001125e+002, 4.914722e+001
7.005947e+002, 4.939256e+001
7.010768e+002, 4.952784e+001
7.015589e+002, 4.938974e+001
7.020410e+002, 4.929441e+001
7.025231e+002, 4.950122e+001
7.030052e+002, 4.989342e+001
7.034874e+002, 5.018562e+001
7.039695e+002, 5.024485e+001
7.044516e+002, 5.025665e+001
7.049337e+002, 5.048864e+001
7.054158e+002, 5.088041e+001
7.058979e+002, 5.110761e+001
7.063801e+002, 5.111253e+001
7.068622e+002, 5.114819e+001
7.073442e+002, 5.138309e+001
7.078264e+002, 5.173170e+001
7.083085e+002, 5.197086e+001
7.087906e+002, 5.203734e+001
7.092727e+002, 5.216084e+001
7.097548e+002, 5.244952e+001
7.102369e+002, 5.270875e+001
7.107191e+002, 5.280588e+001
7.112012e+002, 5.279512e+001
7.116833e+002, 5.275371e+001
7.121654e+002, 5.271381e+001
7.126475e+002, 5.275290e+001
7.131296e+002, 5.302554e+001
7.136118e+002, 5.347291e+001
7.140939e+002, 5.376109e+001
7.145760e+002, 5.386058e+001
7.150581e+002, 5.391525e+001
7.155402e+002, 5.395246e+001
7.160223e+002, 5.401793e+001
7.165045e+002, 5.422512e+001
7.169866e+002, 5.461694e+001
7.174687e+002, 5.487838e+001
7.179508e+002, 5.484162e+001
7.184329e+002, 5.481900e+001
7.189150e+002, 5.499254e+001
7.193972e+002, 5.526670e+001
7.198793e+002, 5.546509e+001
7.203614e+002, 5.555781e+001
7.208435e+002, 5.571784e+001
7.213256e+002, 5.617710e+001
7.218077e+002, 5.682738e+001
7.222899e+002, 5.721820e+001
7.227720e+002, 5.732427e+001
7.232541e+002, 5.738167e+001
7.237362e+002, 5.740434e+001
7.242183e+002, 5.749777e+001
7.247004e+002, 5.783141e+001
7.251826e+002, 5.840189e+001
7.256647e+002, 5.887599e+001
7.261468e+002, 5.923349e+001
7.266289e+002, 5.949859e+001
7.271110e+002, 5.945681e+001
7.275931e+002, 5.945978e+001
7.280753e+002, 5.992435e+001
7.285574e+002, 6.087121e+001
7.290395e+002, 6.210297e+001
7.295216e+002, 6.364470e+001
7.300037e+002, 6.506694e+001
7.304858e+002, 6.513608e+001
7.309680e+002, 6.379015e+001
7.314501e+002, 6.291024e+001
7.319322e+002, 6.297396e+001
7.324143e+002, 6.329821e+001
7.328964e+002, 6.333533e+001
7.333785e+002, 6.316101e+001
7.338607e+002, 6.318085e+001
7.343428e+002, 6.346146e+001
7.348249e+002, 6.382888e+001
7.353070e+002, 6.440801e+001
7.357891e+002, 6.493353e+001
7.362712e+002, 6.508501e+001
7.367534e+002, 6.499181e+001
7.372355e+002, 6.506970e+001
7.377176e+002, 6.553860e+001
7.381997e+002, 6.614091e+001
7.386818e+002, 6.642927e+001
7.391639e+002, 6.645792e+001
7.396461e+002, 6.682346e+001
7.401282e+002, 6.765891e+001
7.406103e+002, 6.840409e+001
7.410924e+002, 6.861011e+001
7.415745e+002, 6.862251e+001
7.420566e+002, 6.925809e+001
7.425388e+002, 7.070168e+001
7.430209e+002, 7.206541e+001
7.435030e+002, 7.317017e+001
7.439851e+002, 7.429164e+001
7.444672e+002, 7.560133e+001
7.449493e+002, 7.701383e+001
7.454315e+002, 7.835613e+001
7.459136e+002, 7.958837e+001
7.463957e+002, 8.089797e+001
7.468778e+002, 8.248234e+001
7.473599e+002, 8.427440e+001
7.478420e+002, 8.604408e+001
7.483242e+002, 8.779131e+001
7.488063e+002, 8.967488e+001
7.492884e+002, 9.177524e+001
7.497705e+002, 9.395337e+001
7.502526e+002, 9.602419e+001
7.507347e+002, 9.795778e+001
7.512169e+002, 1.002625e+002
7.516990e+002, 1.031188e+002
7.521811e+002, 1.060707e+002
7.526632e+002, 1.090388e+002
7.531453e+002, 1.120595e+002
7.536274e+002, 1.150475e+002
7.541096e+002, 1.181001e+002
7.545917e+002, 1.215949e+002
7.550738e+002, 1.258539e+002
7.555559e+002, 1.304682e+002
7.560380e+002, 1.349303e+002
7.565201e+002, 1.392612e+002
7.570023e+002, 1.434371e+002
7.574844e+002, 1.474567e+002
7.579665e+002, 1.514732e+002
7.584486e+002, 1.556463e+002
7.589307e+002, 1.598574e+002
7.594128e+002, 1.637741e+002
7.598950e+002, 1.681035e+002
7.603771e+002, 1.708093e+002
7.608592e+002, 1.712151e+002
7.613413e+002, 1.708208e+002
7.618234e+002, 1.701887e+002
7.623055e+002, 1.692789e+002
7.627877e+002, 1.677984e+002
7.632698e+002, 1.656415e+002
7.637519e+002, 1.636043e+002
7.642340e+002, 1.622160e+002
7.647161e+002, 1.613515e+002
7.651982e+002, 1.607709e+002
7.656804e+002, 1.605084e+002
7.661625e+002, 1.607077e+002
7.666446e+002, 1.613948e+002
7.671267e+002, 1.629405e+002
7.676088e+002, 1.659111e+002
7.680909e+002, 1.703847e+002
7.685731e+002, 1.748330e+002
7.690552e+002, 1.789336e+002
7.695373e+002, 1.835808e+002
7.700194e+002, 1.891333e+002
7.705015e+002, 1.951572e+002
7.709836e+002, 2.011626e+002
7.714658e+002, 2.072513e+002
7.719479e+002, 2.140231e+002
7.724300e+002, 2.217260e+002
7.729121e+002, 2.301126e+002
7.733942e+002, 2.388148e+002
7.738763e+002, 2.481372e+002
7.743585e+002, 2.584964e+002
7.748406e+002, 2.699735e+002
7.753227e+002, 2.825887e+002
7.758048e+002, 2.964646e+002
7.762869e+002, 3.113188e+002
7.767690e+002, 3.263547e+002
7.772512e+002, 3.414856e+002
7.777333e+002, 3.576620e+002
7.782154e+002, 3.753159e+002
7.786975e+002, 3.934059e+002
7.791796e+002, 4.122397e+002
7.796617e+002, 4.307316e+002
7.801439e+002, 4.472378e+002
7.806260e+002, 4.621628e+002
7.811081e+002, 4.735118e+002
7.815902e+002, 4.812229e+002
7.820723e+002, 4.847994e+002
7.825544e+002, 4.839742e+002
7.830366e+002, 4.787805e+002
7.835187e+002, 4.685252e+002
7.840008e+002, 4.534516e+002
7.844829e+002, 4.361562e+002
7.849650e+002, 4.185142e+002
7.854471e+002, 4.007834e+002
7.859293e+002, 3.834287e+002
7.864114e+002, 3.664796e+002
7.868935e+002, 3.521732e+002
7.873756e+002, 3.410282e+002
7.878577e+002, 3.327975e+002
7.883398e+002, 3.272540e+002
7.888220e+002, 3.244660e+002
7.893040e+002, 3.252293e+002
7.897861e+002, 3.330144e+002
7.902682e+002, 3.391957e+002
7.907504e+002, 3.415107e+002
7.912325e+002, 3.435502e+002
7.917146e+002, 3.475602e+002
7.921967e+002, 3.531549e+002
7.926788e+002, 3.589412e+002
7.931609e+002, 3.642904e+002
7.936431e+002, 3.707986e+002
7.941252e+002, 3.798356e+002
7.946073e+002, 3.910021e+002
7.950894e+002, 4.028395e+002
7.955715e+002, 4.157591e+002
7.960536e+002, 4.324621e+002
7.965358e+002, 4.542007e+002
7.970179e+002, 4.792642e+002
7.975000e+002, 5.050348e+002
7.979821e+002, 5.315019e+002
7.984642e+002, 5.624575e+002
7.989464e+002, 5.975012e+002
7.994285e+002, 6.379391e+002
7.999106e+002, 6.832628e+002
8.003927e+002, 7.348470e+002
8.008748e+002, 7.942979e+002
8.013569e+002, 8.611026e+002
8.018391e+002, 9.320521e+002
8.023212e+002, 1.011388e+003
8.028033e+002, 1.087209e+003
8.032854e+002, 1.160714e+003
8.037675e+002, 1.221930e+003
8.042496e+002, 1.260270e+003
8.047318e+002, 1.274752e+003
8.052139e+002, 1.265728e+003
8.056960e+002, 1.232570e+003
8.061781e+002, 1.185375e+003
8.066602e+002, 1.135803e+003
8.071423e+002, 1.084767e+003
8.076245e+002, 1.046313e+003
8.081066e+002, 1.020910e+003
8.085887e+002, 1.008012e+003
8.090708e+002, 1.008054e+003
8.095529e+002, 1.019569e+003
8.100350e+002, 1.040685e+003
8.105172e+002, 1.071841e+003
8.109993e+002, 1.111784e+003
8.114814e+002, 1.162129e+003
8.119635e+002, 1.218776e+003
8.124456e+002, 1.279506e+003
8.129277e+002, 1.346704e+003
8.134099e+002, 1.423316e+003
8.138920e+002, 1.508310e+003
8.143741e+002, 1.597794e+003
8.148562e+002, 1.692764e+003
8.153383e+002, 1.784906e+003
8.158204e+002, 1.871959e+003
8.163026e+002, 1.946894e+003
8.167847e+002, 1.997317e+003
8.172668e+002, 2.020458e+003
8.177489e+002, 2.009702e+003
8.182310e+002, 1.960766e+003
8.187131e+002, 1.878480e+003
8.191953e+002, 1.768570e+003
8.196774e+002, 1.626248e+003
8.201595e+002, 1.484162e+003
8.206416e+002, 1.336159e+003
8.211237e+002, 1.197793e+003
8.216058e+002, 1.074957e+003
8.220880e+002, 9.652875e+002
8.225701e+002, 8.672579e+002
8.230522e+002, 7.805845e+002
8.235343e+002, 7.040217e+002
8.240164e+002, 6.391901e+002
8.244985e+002, 5.827162e+002
8.249807e+002, 5.343969e+002
8.254628e+002, 4.925186e+002
8.259449e+002, 4.561959e+002
8.264270e+002, 4.247280e+002
8.269091e+002, 3.970790e+002
8.273912e+002, 3.726979e+002
8.278734e+002, 3.510794e+002
8.283555e+002, 3.317949e+002
8.288376e+002, 3.146288e+002
8.293197e+002, 2.986124e+002
8.298018e+002, 2.837413e+002
8.302839e+002, 2.704808e+002
8.307661e+002, 2.592390e+002
8.312482e+002, 2.494205e+002
8.317303e+002, 2.399635e+002
8.322124e+002, 2.308613e+002
8.326945e+002, 2.225029e+002
8.331766e+002, 2.151040e+002
8.336588e+002, 2.082473e+002
8.341409e+002, 2.020835e+002
8.346230e+002, 1.962488e+002
8.351051e+002, 1.902759e+002
8.355872e+002, 1.842894e+002
8.360693e+002, 1.788604e+002
8.365515e+002, 1.742744e+002
8.370336e+002, 1.701055e+002
8.375157e+002, 1.662581e+002
8.379978e+002, 1.625908e+002
8.384799e+002, 1.588581e+002
8.389620e+002, 1.551367e+002
8.394442e+002, 1.517210e+002
8.399263e+002, 1.487553e+002
8.404084e+002, 1.461077e+002
8.408905e+002, 1.437512e+002
8.413726e+002, 1.416105e+002
8.418547e+002, 1.392068e+002
8.423369e+002, 1.365202e+002
8.428190e+002, 1.340095e+002
8.433011e+002, 1.319004e+002
8.437832e+002, 1.299108e+002
8.442653e+002, 1.277089e+002
8.447474e+002, 1.252999e+002
8.452296e+002, 1.231025e+002
8.457117e+002, 1.211994e+002
8.461938e+002, 1.194063e+002
8.466759e+002, 1.176991e+002
8.471580e+002, 1.160947e+002
8.476401e+002, 1.146356e+002
8.481223e+002, 1.132742e+002
8.486044e+002, 1.118682e+002
8.490865e+002, 1.103274e+002
8.495686e+002, 1.089879e+002
8.500507e+002, 1.083325e+002
8.505328e+002, 1.077191e+002
8.510150e+002, 1.061842e+002
8.514971e+002, 1.041974e+002
8.519792e+002, 1.031101e+002
8.524613e+002, 1.032331e+002
8.529434e+002, 1.032952e+002
8.534255e+002, 1.019404e+002
8.539077e+002, 9.967220e+001
8.543898e+002, 9.806466e+001
8.548719e+002, 9.711370e+001
8.553540e+002, 9.638908e+001
8.558361e+002, 9.585676e+001
8.563182e+002, 9.533670e+001
8.568004e+002, 9.471700e+001
8.572825e+002, 9.399656e+001
8.577646e+002, 9.316373e+001
8.582467e+002, 9.220109e+001
8.587288e+002, 9.116512e+001
8.592109e+002, 8.986943e+001
8.596931e+002, 8.872000e+001
8.601752e+002, 8.797427e+001
8.606573e+002, 8.738321e+001
8.611394e+002, 8.663160e+001
8.616215e+002, 8.568997e+001
8.621036e+002, 8.478454e+001
8.625858e+002, 8.401920e+001
8.630679e+002, 8.329475e+001
8.635500e+002, 8.259970e+001
8.640321e+002, 8.187553e+001
8.645142e+002, 8.096156e+001
8.649963e+002, 7.991526e+001
8.654785e+002, 7.909276e+001
8.659606e+002, 7.872739e+001
8.664427e+002, 7.846866e+001
8.669248e+002, 7.775442e+001
8.674069e+002, 7.666517e+001
8.678890e+002, 7.555154e+001
8.683712e+002, 7.442815e+001
8.688533e+002, 7.354366e+001
8.693354e+002, 7.299747e+001
8.698175e+002, 7.276693e+001
8.702996e+002, 7.295898e+001
8.707817e+002, 7.358565e+001
8.712639e+002, 7.322617e+001
8.717459e+002, 7.108056e+001
8.722280e+002, 6.935767e+001
8.727101e+002, 6.882361e+001
8.731923e+002, 6.844739e+001
8.736744e+002, 6.750140e+001
8.741565e+002, 6.625835e+001
8.746386e+002, 6.543531e+001
8.751207e+002, 6.530598e+001
8.756028e+002, 6.512531e+001
8.760850e+002, 6.459744e+001
8.765671e+002, 6.396409e+001
8.770492e+002, 6.341069e+001
8.775313e+002, 6.287588e+001
8.780134e+002, 6.217289e+001
8.784955e+002, 6.129876e+001
8.789777e+002, 6.053651e+001
8.794598e+002, 6.011571e+001
8.799419e+002, 5.992400e+001
8.804240e+002, 6.000035e+001
8.809061e+002, 6.015474e+001
8.813882e+002, 5.940818e+001
8.818704e+002, 5.768801e+001
8.823525e+002, 5.657356e+001
8.828346e+002, 5.717526e+001
8.833167e+002, 5.851995e+001
8.837988e+002, 5.847560e+001
8.842809e+002, 5.679155e+001
8.847631e+002, 5.560957e+001
8.852452e+002, 5.504058e+001
8.857273e+002, 5.471727e+001
8.862094e+002, 5.466523e+001
8.866915e+002, 5.464446e+001
8.871736e+002, 5.437527e+001
8.876558e+002, 5.387091e+001
8.881379e+002, 5.334023e+001
8.886200e+002, 5.265508e+001
8.891021e+002, 5.213320e+001
8.895842e+002, 5.190781e+001
8.900663e+002, 5.178573e+001
8.905485e+002, 5.166816e+001
8.910306e+002, 5.154401e+001
8.915127e+002, 5.143816e+001
8.919948e+002, 5.136090e+001
8.924769e+002, 5.120364e+001
8.929590e+002, 5.079380e+001
8.934412e+002, 5.035567e+001
8.939233e+002, 5.020279e+001
8.944054e+002, 5.018917e+001
8.948875e+002, 4.993020e+001
8.953696e+002, 4.939928e+001
8.958517e+002, 4.900609e+001
8.963339e+002, 4.908989e+001
8.968160e+002, 4.938198e+001
8.972981e+002, 4.926637e+001
8.977802e+002, 4.880668e+001
8.982623e+002, 4.871273e+001
8.987444e+002, 4.908651e+001
8.992266e+002, 4.931587e+001
8.997087e+002, 4.905693e+001
9.001908e+002, 4.867008e+001
9.006729e+002, 4.872288e+001
9.011550e+002, 4.924546e+001
9.016371e+002, 4.950756e+001
9.021193e+002, 4.931030e+001
9.026014e+002, 4.922363e+001
9.030835e+002, 4.941758e+001
9.035656e+002, 4.969170e+001
9.040477e+002, 4.992327e+001
9.045298e+002, 5.012739e+001
9.050120e+002, 5.034453e+001
9.054941e+002, 5.059011e+001
9.059762e+002, 5.081519e+001
9.064583e+002, 5.003324e+001
9.069404e+002, 5.025922e+001
9.074225e+002, 5.413324e+001
9.079047e+002, 5.900934e+001
9.083868e+002, 6.113250e+001
9.088689e+002, 6.009784e+001
9.093510e+002, 5.831525e+001
9.098331e+002, 5.681150e+001
9.103152e+002, 5.577638e+001
9.107974e+002, 5.552475e+001
9.112795e+002, 5.582468e+001
9.117616e+002, 5.629413e+001
9.122437e+002, 5.688185e+001
9.127258e+002, 5.768610e+001
9.132079e+002, 5.875349e+001
9.136901e+002, 5.984951e+001
9.141722e+002, 6.062906e+001
9.146543e+002, 6.115718e+001
9.151364e+002, 6.195218e+001
9.156185e+002, 6.303985e+001
9.161006e+002, 6.366090e+001
9.165828e+002, 6.363442e+001
9.170649e+002, 6.304668e+001
9.175470e+002, 6.188812e+001
9.180291e+002, 6.029211e+001
9.185112e+002, 5.874782e+001
9.189933e+002, 5.732026e+001
9.194755e+002, 5.573823e+001
9.199576e+002, 5.385337e+001
9.204397e+002, 5.202787e+001
9.209218e+002, 5.034586e+001
9.214039e+002, 4.883278e+001
9.218860e+002, 4.755028e+001
9.223682e+002, 4.649385e+001
9.228503e+002, 4.554842e+001
9.233324e+002, 4.477110e+001
9.238145e+002, 4.400478e+001
9.242966e+002, 4.313012e+001
9.247787e+002, 4.232012e+001
9.252609e+002, 4.170222e+001
9.257430e+002, 4.126178e+001
9.262251e+002, 4.097789e+001
9.267072e+002, 4.084874e+001
9.271893e+002, 4.071522e+001
9.276714e+002, 4.050416e+001
9.281536e+002, 4.021179e+001
9.286357e+002, 3.973601e+001
9.291178e+002, 3.920780e+001
9.295999e+002, 3.889745e+001
9.300820e+002, 3.881973e+001
9.305641e+002, 3.876824e+001
9.310463e+002, 3.860793e+001
9.315284e+002, 3.842724e+001
9.320105e+002, 3.845152e+001
9.324926e+002, 3.858091e+001
9.329747e+002, 3.830082e+001
9.334568e+002, 3.761900e+001
9.339390e+002, 3.713983e+001
9.344211e+002, 3.709943e+001
9.349032e+002, 3.724629e+001
9.353853e+002, 3.734217e+001
9.358674e+002, 3.736470e+001
9.363495e+002, 3.713660e+001
9.368317e+002, 3.656041e+001
9.373138e+002, 3.618161e+001
9.377959e+002, 3.616787e+001
9.382780e+002, 3.610591e+001
9.387601e+002, 3.566244e+001
9.392422e+002, 3.511714e+001
9.397244e+002, 3.501617e+001
9.402065e+002, 3.547812e+001
9.406886e+002, 3.568317e+001
9.411707e+002, 3.544719e+001
9.416528e+002, 3.521621e+001
9.421349e+002, 3.503310e+001
9.426171e+002, 3.491906e+001
9.430992e+002, 3.493455e+001
9.435813e+002, 3.502435e+001
9.440634e+002, 3.504717e+001
9.445455e+002, 3.495873e+001
9.450276e+002, 3.486926e+001
9.455098e+002, 3.478990e+001
9.459919e+002, 3.475173e+001
9.464740e+002, 3.483933e+001
9.469561e+002, 3.494610e+001
9.474382e+002, 3.487341e+001
9.479203e+002, 3.464991e+001
9.484025e+002, 3.455093e+001
9.488846e+002, 3.475835e+001
9.493667e+002, 3.505017e+001
9.498488e+002, 3.527966e+001
9.503309e+002, 3.541954e+001
9.508130e+002, 3.536993e+001
9.512952e+002, 3.519236e+001
9.517773e+002, 3.510916e+001
9.522594e+002, 3.518570e+001
9.527415e+002, 3.523888e+001
9.532236e+002, 3.504553e+001
9.537057e+002, 3.476389e+001
9.541878e+002, 3.485458e+001
9.546699e+002, 3.524184e+001
9.551520e+002, 3.540041e+001
9.556342e+002, 3.525750e+001
9.561163e+002, 3.506852e+001
9.565984e+002, 3.495985e+001
9.570805e+002, 3.493897e+001
9.575626e+002, 3.503664e+001
9.580447e+002, 3.525031e+001
9.585269e+002, 3.538351e+001
9.590090e+002, 3.542099e+001
9.594911e+002, 3.545084e+001
9.599732e+002, 3.550886e+001
9.604553e+002, 3.551917e+001
9.609374e+002, 3.538869e+001
9.614196e+002, 3.518951e+001
9.619017e+002, 3.512321e+001
9.623838e+002, 3.520713e+001
9.628659e+002, 3.537180e+001
9.633480e+002, 3.574784e+001
9.638301e+002, 3.602502e+001
9.643123e+002, 3.606550e+001
9.647944e+002, 3.602105e+001
9.652765e+002, 3.597261e+001
9.657586e+002, 3.594578e+001
9.662407e+002, 3.603609e+001
9.667228e+002, 3.629028e+001
9.672050e+002, 3.659032e+001
9.676871e+002, 3.709906e+001
9.681692e+002, 3.744458e+001
9.686513e+002, 3.732079e+001
9.691334e+002, 3.695685e+001
9.696155e+002, 3.659559e+001
9.700977e+002, 3.630249e+001
9.705798e+002, 3.617569e+001
9.710619e+002, 3.635168e+001
9.715440e+002, 3.655494e+001
9.720261e+002, 3.669910e+001
9.725082e+002, 3.671511e+001
9.729904e+002, 3.645841e+001
9.734725e+002, 3.602661e+001
9.739546e+002, 3.561167e+001
9.744367e+002, 3.528228e+001
9.749188e+002, 3.505852e+001
9.754009e+002, 3.499772e+001
9.758831e+002, 3.500763e+001
9.763652e+002, 3.495761e+001
9.768473e+002, 3.488610e+001
9.773294e+002, 3.487931e+001
9.778115e+002, 3.493949e+001
9.782936e+002, 3.504759e+001
9.787758e+002, 3.519411e+001
9.792579e+002, 3.525351e+001
9.797400e+002, 3.503728e+001
9.802221e+002, 3.462035e+001
9.807042e+002, 3.419350e+001
9.811863e+002, 3.378206e+001
9.816685e+002, 3.365870e+001
9.821506e+002, 3.387658e+001
9.826327e+002, 3.400261e+001
9.831148e+002, 3.374201e+001
9.835969e+002, 3.328421e+001
9.840790e+002, 3.296832e+001
9.845612e+002, 3.279488e+001
9.850433e+002, 3.276657e+001
9.855254e+002, 3.293041e+001
9.860075e+002, 3.294117e+001
9.864896e+002, 3.266902e+001
9.869717e+002, 3.234842e+001
9.874539e+002, 3.216939e+001
9.879360e+002, 3.208700e+001
9.884181e+002, 3.195483e+001
9.889002e+002, 3.173990e+001
9.893823e+002, 3.159171e+001
9.898644e+002, 3.150882e+001
9.903466e+002, 3.150221e+001
9.908287e+002, 3.166234e+001
9.913108e+002, 3.180354e+001
9.917929e+002, 3.171480e+001
9.922750e+002, 3.144131e+001
9.927571e+002, 3.125303e+001
9.932393e+002, 3.121509e+001
9.937214e+002, 3.114600e+001
9.942035e+002, 3.098814e+001
9.946856e+002, 3.086458e+001
9.951677e+002, 3.093299e+001
9.956498e+002, 3.098343e+001
9.961320e+002, 3.067144e+001
9.966141e+002, 3.007198e+001
9.970962e+002, 2.980848e+001
9.975783e+002, 3.020403e+001
9.980604e+002, 3.059958e+001
9.985425e+002, 3.092522e+001
9.990247e+002, 3.110071e+001
9.995068e+002, 3.092376e+001
9.999889e+002, 3.064120e+001
1.000471e+003, 3.067100e+001
1.000953e+003, 3.101721e+001
1.001435e+003, 3.117652e+001
1.001917e+003, 3.081933e+001
1.002399e+003, 3.041372e+001
1.002882e+003, 3.011907e+001
1.003364e+003, 2.997477e+001
1.003846e+003, 3.013540e+001
1.004328e+003, 3.043460e+001
1.004810e+003, 3.056675e+001
1.005292e+003, 3.045954e+001
1.005774e+003, 3.024215e+001
1.006256e+003, 2.987960e+001
1.006739e+003, 2.959648e+001
1.007221e+003, 2.975673e+001
1.007703e+003, 3.003340e+001
1.008185e+003, 2.990449e+001
1.008667e+003, 2.946455e+001
1.009149e+003, 2.911143e+001
1.009631e+003, 2.898748e+001
1.010113e+003, 2.897303e+001
1.010595e+003, 2.902577e+001
1.011078e+003, 2.905936e+001
1.011560e+003, 2.889128e+001
1.012042e+003, 2.861679e+001
1.012524e+003, 2.845270e+001
1.013006e+003, 2.841445e+001
1.013488e+003, 2.844921e+001
1.013970e+003, 2.853009e+001
1.014452e+003, 2.856328e+001
1.014935e+003, 2.842635e+001
1.015417e+003, 2.817757e+001
1.015899e+003, 2.795285e+001
1.016381e+003, 2.774766e+001
1.016863e+003, 2.750117e+001
1.017345e+003, 2.722417e+001
1.017827e+003, 2.716760e+001
1.018309e+003, 2.747524e+001
1.018791e+003, 2.779834e+001
1.019274e+003, 2.758913e+001
1.019756e+003, 2.699963e+001
1.020238e+003, 2.684734e+001
1.020720e+003, 2.710845e+001
1.021202e+003, 2.701292e+001
1.021684e+003, 2.639364e+001
1.022166e+003, 2.615556e+001
1.022648e+003, 2.690313e+001
1.023130e+003, 2.790409e+001
1.023613e+003, 2.792266e+001
1.024095e+003, 2.703013e+001
1.024577e+003, 2.643268e+001
1.025059e+003, 2.615885e+001
1.025541e+003, 2.596463e+001
1.026023e+003, 2.581433e+001
1.026505e+003, 2.570136e+001
1.026987e+003, 2.563470e+001
1.027469e+003, 2.557133e+001
1.027952e+003, 2.541689e+001
1.028434e+003, 2.516160e+001
1.028916e+003, 2.503510e+001
1.029398e+003, 2.505528e+001
1.029880e+003, 2.515660e+001
1.030362e+003, 2.538558e+001
1.030844e+003, 2.555582e+001
1.031326e+003, 2.554133e+001
1.031809e+003, 2.539248e+001
1.032291e+003, 2.519937e+001
1.032773e+003, 2.495222e+001
1.033255e+003, 2.474813e+001
1.033737e+003, 2.459257e+001
1.034219e+003, 2.446575e+001
1.034701e+003, 2.433863e+001
1.035183e+003, 2.427918e+001
1.035666e+003, 2.434905e+001
1.036148e+003, 2.450915e+001
1.036630e+003, 2.470627e+001
1.037112e+003, 2.498535e+001
1.037594e+003, 2.504052e+001
1.038076e+003, 2.462304e+001
1.038558e+003, 2.438205e+001
1.039040e+003, 2.456517e+001
1.039522e+003, 2.480682e+001
1.040005e+003, 2.491364e+001
1.040487e+003, 2.490148e+001
1.040969e+003, 2.475906e+001
1.041451e+003, 2.441698e+001
1.041933e+003, 2.430902e+001
1.042415e+003, 2.467531e+001
1.042897e+003, 2.494965e+001
1.043379e+003, 2.491891e+001
1.043861e+003, 2.487453e+001
1.044344e+003, 2.506639e+001
1.044826e+003, 2.535763e+001
1.045308e+003, 2.546165e+001
1.045790e+003, 2.533195e+001
1.046272e+003, 2.522153e+001
1.046754e+003, 2.520852e+001
1.047236e+003, 2.514738e+001
1.047718e+003, 2.491411e+001
1.048201e+003, 2.470853e+001
1.048683e+003, 2.466090e+001
1.049165e+003, 2.474107e+001
1.049647e+003, 2.491498e+001
1.050129e+003, 2.519414e+001
1.050611e+003, 2.536782e+001
1.051093e+003, 2.521300e+001
1.051575e+003, 2.519455e+001
1.052057e+003, 2.577268e+001
1.052540e+003, 2.622262e+001
1.053022e+003, 2.590102e+001
1.053504e+003, 2.511873e+001
1.053986e+003, 2.443602e+001
1.054468e+003, 2.392889e+001
1.054950e+003, 2.358604e+001
1.055432e+003, 2.350329e+001
1.055914e+003, 2.345010e+001
1.056396e+003, 2.337650e+001
1.056879e+003, 2.327626e+001
1.057361e+003, 2.309674e+001
1.057843e+003, 2.290961e+001
1.058325e+003, 2.287634e+001
1.058807e+003, 2.301416e+001
1.059289e+003, 2.302612e+001
1.059771e+003, 2.265588e+001
1.060253e+003, 2.235942e+001
1.060736e+003, 2.234447e+001
1.061218e+003, 2.243274e+001
1.061700e+003, 2.259188e+001
1.062182e+003, 2.270984e+001
1.062664e+003, 2.256391e+001
1.063146e+003, 2.214974e+001
1.063628e+003, 2.186168e+001
1.064110e+003, 2.194796e+001
1.064593e+003, 2.203469e+001
1.065075e+003, 2.186368e+001
1.065557e+003, 2.173830e+001
1.066039e+003, 2.196410e+001
1.066521e+003, 2.235571e+001
1.067003e+003, 2.261296e+001
1.067485e+003, 2.269747e+001
1.067967e+003, 2.276265e+001
1.068449e+003, 2.289933e+001
1.068932e+003, 2.296720e+001
1.069414e+003, 2.283034e+001
1.069896e+003, 2.267523e+001
1.070378e+003, 2.267284e+001
1.070860e+003, 2.272472e+001
1.071342e+003, 2.265101e+001
1.071824e+003, 2.245893e+001
1.072306e+003, 2.234519e+001
1.072788e+003, 2.240157e+001
1.073271e+003, 2.250021e+001
1.073753e+003, 2.266665e+001
1.074235e+003, 2.276494e+001
1.074717e+003, 2.256864e+001
1.075199e+003, 2.232404e+001
1.075681e+003, 2.245831e+001
1.076163e+003, 2.289398e+001
1.076645e+003, 2.305839e+001
1.077127e+003, 2.267365e+001
1.077610e+003, 2.227053e+001
1.078092e+003, 2.198903e+001
1.078574e+003, 2.188878e+001
1.079056e+003, 2.221327e+001
1.079538e+003, 2.259830e+001
1.080020e+003, 2.253361e+001
1.080502e+003, 2.212011e+001
1.080984e+003, 2.186379e+001
1.081467e+003, 2.192658e+001
1.081949e+003, 2.212190e+001
1.082431e+003, 2.259827e+001
1.082913e+003, 2.291270e+001
1.083395e+003, 2.261256e+001
1.083877e+003, 2.214892e+001
1.084359e+003, 2.203293e+001
1.084841e+003, 2.218216e+001
1.085323e+003, 2.214117e+001
1.085806e+003, 2.172614e+001
1.086288e+003, 2.180037e+001
1.086770e+003, 2.337273e+001
1.087252e+003, 2.472488e+001
1.087734e+003, 2.497922e+001
1.088216e+003, 2.459998e+001
1.088698e+003, 2.374374e+001
1.089180e+003, 2.271364e+001
1.089662e+003, 2.201770e+001
1.090145e+003, 2.175601e+001
1.090627e+003, 2.162525e+001
1.091109e+003, 2.156382e+001
1.091591e+003, 2.153822e+001
1.092073e+003, 2.156785e+001
1.092555e+003, 2.159513e+001
1.093037e+003, 2.158977e+001
1.093519e+003, 2.154323e+001
1.094002e+003, 2.138715e+001
1.094484e+003, 2.113758e+001
1.094966e+003, 2.109003e+001
1.095448e+003, 2.157780e+001
1.095930e+003, 2.192552e+001
1.096412e+003, 2.181067e+001
1.096894e+003, 2.159686e+001
1.097376e+003, 2.152593e+001
1.097859e+003, 2.149087e+001
1.098341e+003, 2.126302e+001
1.098823e+003, 2.088251e+001
1.099305e+003, 2.072658e+001
1.099787e+003, 2.098095e+001
1.100269e+003, 2.125657e+001
1.100751e+003, 2.150530e+001
1.101233e+003, 2.169049e+001
1.101715e+003, 2.182855e+001
1.102198e+003, 2.186878e+001
1.102680e+003, 2.163249e+001
1.103162e+003, 2.124648e+001
1.103644e+003, 2.121333e+001
1.104126e+003, 2.178444e+001
1.104608e+003, 2.213303e+001
1.105090e+003, 2.196494e+001
1.105572e+003, 2.174555e+001
1.106054e+003, 2.160516e+001
1.106537e+003, 2.150512e+001
1.107019e+003, 2.138643e+001
1.107501e+003, 2.128534e+001
1.107983e+003, 2.131315e+001
1.108465e+003, 2.151395e+001
1.108947e+003, 2.163288e+001
1.109429e+003, 2.159302e+001
1.109911e+003, 2.154733e+001
1.110394e+003, 2.146159e+001
1.110876e+003, 2.144622e+001
1.111358e+003, 2.168411e+001
1.111840e+003, 2.198012e+001
1.112322e+003, 2.195876e+001
1.112804e+003, 2.159213e+001
1.113286e+003, 2.142857e+001
1.113768e+003, 2.164172e+001
1.114250e+003, 2.176834e+001
1.114733e+003, 2.166984e+001
1.115215e+003, 2.163283e+001
1.115697e+003, 2.189624e+001
1.116179e+003, 2.217021e+001
1.116661e+003, 2.205870e+001
1.117143e+003, 2.163514e+001
1.117625e+003, 2.145708e+001
1.118107e+003, 2.170774e+001
1.118589e+003, 2.175506e+001
1.119072e+003, 2.143944e+001
1.119554e+003, 2.123702e+001
1.120036e+003, 2.134256e+001
1.120518e+003, 2.153714e+001
1.121000e+003, 2.164989e+001
1.121482e+003, 2.169705e+001
1.121964e+003, 2.172830e+001
1.122446e+003, 2.175108e+001
1.122929e+003, 2.169416e+001
1.123411e+003, 2.150107e+001
1.123893e+003, 2.143724e+001
1.124375e+003, 2.160949e+001
1.124857e+003, 2.176495e+001
1.125339e+003, 2.173615e+001
1.125821e+003, 2.160713e+001
1.126303e+003, 2.150570e+001
1.126786e+003, 2.143644e+001
1.127268e+003, 2.150684e+001
1.127750e+003, 2.173775e+001
1.128232e+003, 2.193556e+001
1.128714e+003, 2.208822e+001
1.129196e+003, 2.207327e+001
1.129678e+003, 2.180772e+001
1.130160e+003, 2.151066e+001
1.130642e+003, 2.142952e+001
1.131125e+003, 2.152222e+001
1.131607e+003, 2.168681e+001
1.132089e+003, 2.191118e+001
1.132571e+003, 2.193802e+001
1.133053e+003, 2.176026e+001
1.133535e+003, 2.165991e+001
1.134017e+003, 2.172311e+001
1.134499e+003, 2.184811e+001
1.134981e+003, 2.196110e+001
1.135464e+003, 2.206207e+001
1.135946e+003, 2.217863e+001
1.136428e+003, 2.227994e+001
1.136910e+003, 2.197655e+001
1.137392e+003, 2.150785e+001
1.137874e+003, 2.224446e+001
1.138356e+003, 2.426165e+001
1.138838e+003, 2.639179e+001
1.139321e+003, 2.805037e+001
1.139803e+003, 2.849732e+001
1.140285e+003, 2.615353e+001
1.140767e+003, 2.276217e+001
1.141249e+003, 2.156104e+001
1.141731e+003, 2.177897e+001
1.142213e+003, 2.189327e+001
1.142695e+003, 2.176646e+001
1.143177e+003, 2.158681e+001
1.143660e+003, 2.146050e+001
1.144142e+003, 2.168412e+001
1.144624e+003, 2.261370e+001
1.145106e+003, 2.362934e+001
1.145588e+003, 2.421280e+001
1.146070e+003, 2.440372e+001
1.146552e+003, 2.412048e+001
1.147034e+003, 2.354357e+001
1.147516e+003, 2.286476e+001
1.147999e+003, 2.220625e+001
1.148481e+003, 2.182823e+001
1.148963e+003, 2.186302e+001
1.149445e+003, 2.203421e+001
1.149927e+003, 2.229933e+001
1.150409e+003, 2.248871e+001
1.150891e+003, 2.246181e+001
1.151373e+003, 2.230917e+001
1.151856e+003, 2.202486e+001
1.152338e+003, 2.173031e+001
1.152820e+003, 2.170309e+001
1.153302e+003, 2.199913e+001
1.153784e+003, 2.221134e+001
1.154266e+003, 2.215971e+001
1.154748e+003, 2.206550e+001
1.155230e+003, 2.182725e+001
1.155713e+003, 2.175996e+001
1.156195e+003, 2.226200e+001
1.156677e+003, 2.291826e+001
1.157159e+003, 2.318886e+001
1.157641e+003, 2.308608e+001
1.158123e+003, 2.295020e+001
1.158605e+003, 2.283615e+001
1.159087e+003, 2.264032e+001
1.159569e+003, 2.222336e+001
1.160052e+003, 2.190589e+001
1.160534e+003, 2.177685e+001
1.161016e+003, 2.176932e+001
1.161498e+003, 2.186990e+001
1.161980e+003, 2.203821e+001
1.162462e+003, 2.218646e+001
1.162944e+003, 2.231160e+001
1.163426e+003, 2.246921e+001
1.163908e+003, 2.274017e+001
1.164391e+003, 2.278658e+001
1.164873e+003, 2.249794e+001
1.165355e+003, 2.215944e+001
1.165837e+003, 2.186276e+001
1.166319e+003, 2.168579e+001
1.166801e+003, 2.173234e+001
1.167283e+003, 2.196229e+001
1.167765e+003, 2.226918e+001
1.168247e+003, 2.266489e+001
1.168730e+003, 2.269805e+001
1.169212e+003, 2.233662e+001
1.169694e+003, 2.212181e+001
1.170176e+003, 2.220407e+001
1.170658e+003, 2.232667e+001
1.171140e+003, 2.231130e+001
1.171622e+003, 2.225174e+001
1.172104e+003, 2.232643e+001
1.172587e+003, 2.246984e+001
1.173069e+003, 2.241392e+001
1.173551e+003, 2.223245e+001
1.174033e+003, 2.220944e+001
1.174515e+003, 2.236127e+001
1.174997e+003, 2.257349e+001
1.175479e+003, 2.279712e+001
1.175961e+003, 2.300596e+001
1.176443e+003, 2.321990e+001
1.176926e+003, 2.331743e+001
1.177408e+003, 2.299798e+001
1.177890e+003, 2.257598e+001
1.178372e+003, 2.257879e+001
1.178854e+003, 2.281296e+001
1.179336e+003, 2.281089e+001
1.179818e+003, 2.256620e+001
1.180300e+003, 2.243524e+001
1.180782e+003, 2.257691e+001
1.181265e+003, 2.274607e+001
1.181747e+003, 2.280304e+001
1.182229e+003, 2.282748e+001
1.182711e+003, 2.288482e+001
1.183193e+003, 2.292196e+001
1.183675e+003, 2.286866e+001
1.184157e+003, 2.276396e+001
1.184639e+003, 2.268136e+001
1.185122e+003, 2.263162e+001
1.185604e+003, 2.259252e+001
1.186086e+003, 2.251740e+001
1.186568e+003, 2.251946e+001
1.187050e+003, 2.270523e+001
1.187532e+003, 2.286242e+001
1.188014e+003, 2.288529e+001
1.188496e+003, 2.285310e+001
1.188979e+003, 2.282280e+001
1.189461e+003, 2.280049e+001
1.189943e+003, 2.279490e+001
1.190425e+003, 2.278804e+001
1.190907e+003, 2.292737e+001
1.191389e+003, 2.334395e+001
1.191871e+003, 2.351136e+001
1.192353e+003, 2.325446e+001
1.192835e+003, 2.300904e+001
1.193318e+003, 2.299051e+001
1.193800e+003, 2.309896e+001
1.194282e+003, 2.323469e+001
1.194764e+003, 2.336951e+001
1.195246e+003, 2.335389e+001
1.195728e+003, 2.319845e+001
1.196210e+003, 2.321770e+001
1.196692e+003, 2.341648e+001
1.197174e+003, 2.361312e+001
1.197657e+003, 2.375621e+001
1.198139e+003, 2.377755e+001
1.198621e+003, 2.362603e+001
1.199103e+003, 2.345791e+001
1.199585e+003, 2.353643e+001
1.200067e+003, 2.370144e+001
1.200549e+003, 2.357818e+001
1.201031e+003, 2.331180e+001
1.201514e+003, 2.325039e+001
1.201996e+003, 2.334834e+001
1.202478e+003, 2.330829e+001
1.202960e+003, 2.308833e+001
1.203442e+003, 2.302991e+001
1.203924e+003, 2.339248e+001
1.204406e+003, 2.378839e+001
1.204888e+003, 2.398802e+001
1.205370e+003, 2.403067e+001
1.205853e+003, 2.378982e+001
1.206335e+003, 2.352892e+001
1.206817e+003, 2.365503e+001
1.207299e+003, 2.400939e+001
1.207781e+003, 2.407292e+001
1.208263e+003, 2.372257e+001
1.208745e+003, 2.347836e+001
1.209227e+003, 2.362510e+001
1.209709e+003, 2.364918e+001
1.210192e+003, 2.319054e+001
1.210674e+003, 2.288505e+001
1.211156e+003, 2.312152e+001
1.211638e+003, 2.360296e+001
1.212120e+003, 2.406266e+001
1.212602e+003, 2.451712e+001
1.213084e+003, 2.503157e+001
1.213566e+003, 2.563365e+001
1.214049e+003, 2.613575e+001
1.214531e+003, 2.647980e+001
1.215013e+003, 2.702464e+001
1.215495e+003, 2.794895e+001
1.215977e+003, 2.846051e+001
1.216459e+003, 2.804908e+001
1.216941e+003, 2.753034e+001
1.217423e+003, 2.799080e+001
1.217906e+003, 2.898836e+001
1.218388e+003, 2.884815e+001
1.218870e+003, 2.797338e+001
1.219352e+003, 2.864954e+001
1.219834e+003, 3.066549e+001
1.220316e+003, 3.239818e+001
1.220798e+003, 3.343106e+001
1.221280e+003, 3.390009e+001
1.221762e+003, 3.387693e+001
1.222245e+003, 3.340629e+001
1.222727e+003, 3.269914e+001
1.223209e+003, 3.140219e+001
1.223691e+003, 2.837332e+001
1.224173e+003, 2.507145e+001
1.224655e+003, 2.340887e+001
1.225137e+003, 2.303889e+001
1.225619e+003, 2.314563e+001
1.226101e+003, 2.346785e+001
1.226584e+003, 2.371566e+001
1.227066e+003, 2.376274e+001
1.227548e+003, 2.380366e+001
1.228030e+003, 2.394505e+001
1.228512e+003, 2.404020e+001
1.228994e+003, 2.401178e+001
1.229476e+003, 2.392901e+001
1.229958e+003, 2.382429e+001
1.230441e+003, 2.371342e+001
1.230923e+003, 2.360049e+001
1.231405e+003, 2.348875e+001
1.231887e+003, 2.351578e+001
1.232369e+003, 2.376795e+001
1.232851e+003, 2.385161e+001
1.233333e+003, 2.361967e+001
1.233815e+003, 2.377628e+001
1.234297e+003, 2.468504e+001
1.234780e+003, 2.524624e+001
1.235262e+003, 2.452327e+001
1.235744e+003, 2.359912e+001
1.236226e+003, 2.465493e+001
1.236708e+003, 2.693686e+001
1.237190e+003, 2.707128e+001
1.237672e+003, 2.554280e+001
1.238154e+003, 2.436255e+001
1.238636e+003, 2.373186e+001
1.239119e+003, 2.340492e+001
1.239601e+003, 2.328396e+001
1.240083e+003, 2.330076e+001
1.240565e+003, 2.343036e+001
1.241047e+003, 2.358954e+001
1.241529e+003, 2.375909e+001
1.242011e+003, 2.385645e+001
1.242493e+003, 2.377155e+001
1.242975e+003, 2.359100e+001
1.243458e+003, 2.331901e+001
1.243940e+003, 2.307934e+001
1.244422e+003, 2.315437e+001
1.244904e+003, 2.355750e+001
1.245386e+003, 2.384343e+001
1.245868e+003, 2.387906e+001
1.246350e+003, 2.382282e+001
1.246832e+003, 2.359616e+001
1.247315e+003, 2.342311e+001
1.247797e+003, 2.334208e+001
1.248279e+003, 2.338958e+001
1.248761e+003, 2.367002e+001
1.249243e+003, 2.401914e+001
1.249725e+003, 2.413068e+001
1.250207e+003, 2.401849e+001
1.250689e+003, 2.393279e+001
1.251172e+003, 2.387539e+001
1.251654e+003, 2.371955e+001
1.252136e+003, 2.343287e+001
1.252618e+003, 2.394040e+001
1.253100e+003, 2.551202e+001
1.253582e+003, 2.653684e+001
1.254064e+003, 2.586244e+001
1.254546e+003, 2.454431e+001
1.255028e+003, 2.389592e+001
1.255510e+003, 2.373112e+001
1.255993e+003, 2.389856e+001
1.256475e+003, 2.418526e+001
1.256957e+003, 2.419273e+001
1.257439e+003, 2.396343e+001
1.257921e+003, 2.362915e+001
1.258403e+003, 2.327437e+001
1.258885e+003, 2.311473e+001
1.259367e+003, 2.328963e+001
1.259850e+003, 2.348741e+001
1.260332e+003, 2.359689e+001
1.260814e+003, 2.365099e+001
1.261296e+003, 2.361538e+001
1.261778e+003, 2.358163e+001
1.262260e+003, 2.366933e+001
1.262742e+003, 2.377401e+001
1.263224e+003, 2.368017e+001
1.263707e+003, 2.342862e+001
1.264189e+003, 2.338698e+001
1.264671e+003, 2.366025e+001
1.265153e+003, 2.376096e+001
1.265635e+003, 2.361724e+001
1.266117e+003, 2.364901e+001
1.266599e+003, 2.399064e+001
1.267081e+003, 2.421935e+001
1.267563e+003, 2.409055e+001
1.268046e+003, 2.381517e+001
1.268528e+003, 2.361313e+001
1.269010e+003, 2.350399e+001
1.269492e+003, 2.361640e+001
1.269974e+003, 2.381990e+001
1.270456e+003, 2.373791e+001
1.270938e+003, 2.346642e+001
1.271420e+003, 2.325408e+001
1.271902e+003, 2.318117e+001
1.272385e+003, 2.337673e+001
1.272867e+003, 2.389128e+001
1.273349e+003, 2.426604e+001
1.273831e+003, 2.415756e+001
1.274313e+003, 2.394017e+001
1.274795e+003, 2.372253e+001
1.275277e+003, 2.354791e+001
1.275759e+003, 2.341967e+001
1.276242e+003, 2.336815e+001
1.276724e+003, 2.349885e+001
1.277206e+003, 2.372206e+001
1.277688e+003, 2.370769e+001
1.278170e+003, 2.339297e+001
1.278652e+003, 2.346901e+001
1.279134e+003, 2.414872e+001
1.279616e+003, 2.440433e+001
1.280099e+003, 2.404582e+001
1.280581e+003, 2.368202e+001
1.281063e+003, 2.352102e+001
1.281545e+003, 2.352165e+001
1.282027e+003, 2.366278e+001
1.282509e+003, 2.387656e+001
1.282991e+003, 2.408362e+001
1.283473e+003, 2.425641e+001
1.283955e+003, 2.434014e+001
##END=



