##NAMES=Sahlinite
##RRUFFID=R130115
##IDEAL CHEMISTRY=Pb^2+^_14_O_9_(As^5+^O_4_)_2_Cl_4_
##LOCALITY=Langban, Filipstad, Varmland, Sweden
##OWNER=RRUFF
##SOURCE=Rock Currier
##DESCRIPTION=Compact aggregate of very pale yellow grains with evident cleavage, associated with black hausmannite
##STATUS=The identification of this mineral has been confirmed by single-crystal X-ray diffraction.
##URL=rruff.info/R130115
8.936163e+001, 0.000000e+000
8.984375e+001, 2.298431e+003
9.032587e+001, 2.319874e+003
9.080798e+001, 2.324004e+003
9.129010e+001, 2.304015e+003
9.177222e+001, 2.274612e+003
9.225433e+001, 2.254974e+003
9.273645e+001, 2.244037e+003
9.321857e+001, 2.231040e+003
9.370068e+001, 2.204886e+003
9.418280e+001, 2.168927e+003
9.466492e+001, 2.134056e+003
9.514703e+001, 2.101583e+003
9.562915e+001, 2.073134e+003
9.611127e+001, 2.054761e+003
9.659338e+001, 2.048163e+003
9.707550e+001, 2.043711e+003
9.755762e+001, 2.028343e+003
9.803973e+001, 2.001756e+003
9.852185e+001, 1.976216e+003
9.900397e+001, 1.957497e+003
9.948608e+001, 1.945718e+003
9.996820e+001, 1.932167e+003
1.004503e+002, 1.916913e+003
1.009324e+002, 1.899552e+003
1.014146e+002, 1.878146e+003
1.018967e+002, 1.850678e+003
1.023788e+002, 1.824399e+003
1.028609e+002, 1.802833e+003
1.033430e+002, 1.786989e+003
1.038251e+002, 1.773544e+003
1.043073e+002, 1.763877e+003
1.047894e+002, 1.756750e+003
1.052715e+002, 1.745828e+003
1.057536e+002, 1.730528e+003
1.062357e+002, 1.711984e+003
1.067178e+002, 1.689929e+003
1.072000e+002, 1.656880e+003
1.076821e+002, 1.631631e+003
1.081642e+002, 1.620519e+003
1.086463e+002, 1.625140e+003
1.091284e+002, 1.621725e+003
1.096105e+002, 1.608606e+003
1.100927e+002, 1.588102e+003
1.105748e+002, 1.562539e+003
1.110569e+002, 1.518465e+003
1.115390e+002, 1.482019e+003
1.120211e+002, 1.461695e+003
1.125032e+002, 1.462803e+003
1.129854e+002, 1.461380e+003
1.134675e+002, 1.456301e+003
1.139496e+002, 1.446496e+003
1.144317e+002, 1.430266e+003
1.149138e+002, 1.395248e+003
1.153959e+002, 1.362666e+003
1.158781e+002, 1.343999e+003
1.163602e+002, 1.348748e+003
1.168423e+002, 1.350594e+003
1.173244e+002, 1.338195e+003
1.178065e+002, 1.315617e+003
1.182886e+002, 1.293216e+003
1.187708e+002, 1.271038e+003
1.192529e+002, 1.252902e+003
1.197350e+002, 1.242693e+003
1.202171e+002, 1.247114e+003
1.206992e+002, 1.252770e+003
1.211813e+002, 1.252225e+003
1.216635e+002, 1.245859e+003
1.221456e+002, 1.235607e+003
1.226277e+002, 1.218877e+003
1.231098e+002, 1.199844e+003
1.235919e+002, 1.184070e+003
1.240740e+002, 1.176160e+003
1.245562e+002, 1.170748e+003
1.250383e+002, 1.162424e+003
1.255204e+002, 1.151173e+003
1.260025e+002, 1.138859e+003
1.264846e+002, 1.126046e+003
1.269667e+002, 1.113292e+003
1.274489e+002, 1.101991e+003
1.279310e+002, 1.094445e+003
1.284131e+002, 1.088488e+003
1.288952e+002, 1.079575e+003
1.293773e+002, 1.067197e+003
1.298594e+002, 1.053580e+003
1.303416e+002, 1.040566e+003
1.308237e+002, 1.028343e+003
1.313058e+002, 1.017415e+003
1.317879e+002, 1.008165e+003
1.322700e+002, 1.000493e+003
1.327521e+002, 9.939177e+002
1.332343e+002, 9.883566e+002
1.337164e+002, 9.839413e+002
1.341985e+002, 9.811896e+002
1.346806e+002, 9.802371e+002
1.351627e+002, 9.791459e+002
1.356448e+002, 9.778229e+002
1.361270e+002, 9.763383e+002
1.366091e+002, 9.698133e+002
1.370912e+002, 9.557416e+002
1.375733e+002, 9.371775e+002
1.380554e+002, 9.237141e+002
1.385375e+002, 9.162479e+002
1.390197e+002, 9.112093e+002
1.395018e+002, 9.059853e+002
1.399839e+002, 9.005748e+002
1.404660e+002, 8.952504e+002
1.409481e+002, 8.902587e+002
1.414302e+002, 8.855204e+002
1.419124e+002, 8.795512e+002
1.423945e+002, 8.717035e+002
1.428766e+002, 8.635569e+002
1.433587e+002, 8.567565e+002
1.438408e+002, 8.520260e+002
1.443229e+002, 8.473179e+002
1.448051e+002, 8.425297e+002
1.452872e+002, 8.377701e+002
1.457693e+002, 8.314009e+002
1.462514e+002, 8.217296e+002
1.467335e+002, 8.114271e+002
1.472156e+002, 8.038266e+002
1.476978e+002, 8.009105e+002
1.481799e+002, 7.983801e+002
1.486620e+002, 7.956661e+002
1.491441e+002, 7.940837e+002
1.496262e+002, 7.886779e+002
1.501083e+002, 7.747139e+002
1.505905e+002, 7.577642e+002
1.510726e+002, 7.476031e+002
1.515547e+002, 7.521566e+002
1.520368e+002, 7.567267e+002
1.525189e+002, 7.568451e+002
1.530010e+002, 7.500760e+002
1.534832e+002, 7.428596e+002
1.539653e+002, 7.343508e+002
1.544474e+002, 7.255927e+002
1.549295e+002, 7.190890e+002
1.554116e+002, 7.178861e+002
1.558937e+002, 7.170186e+002
1.563759e+002, 7.142296e+002
1.568580e+002, 7.079168e+002
1.573401e+002, 7.014063e+002
1.578222e+002, 6.934330e+002
1.583043e+002, 6.852090e+002
1.587864e+002, 6.811998e+002
1.592686e+002, 6.884820e+002
1.597507e+002, 6.969420e+002
1.602328e+002, 7.001042e+002
1.607149e+002, 6.924492e+002
1.611970e+002, 6.833187e+002
1.616791e+002, 6.737882e+002
1.621613e+002, 6.645058e+002
1.626434e+002, 6.588813e+002
1.631255e+002, 6.620263e+002
1.636076e+002, 6.679550e+002
1.640897e+002, 6.713356e+002
1.645718e+002, 6.692305e+002
1.650540e+002, 6.651877e+002
1.655361e+002, 6.602613e+002
1.660182e+002, 6.545109e+002
1.665003e+002, 6.493532e+002
1.669824e+002, 6.463911e+002
1.674645e+002, 6.441761e+002
1.679467e+002, 6.409654e+002
1.684288e+002, 6.342230e+002
1.689109e+002, 6.274969e+002
1.693930e+002, 6.235114e+002
1.698751e+002, 6.224229e+002
1.703572e+002, 6.221891e+002
1.708394e+002, 6.211365e+002
1.713215e+002, 6.199934e+002
1.718036e+002, 6.199948e+002
1.722857e+002, 6.231868e+002
1.727678e+002, 6.269962e+002
1.732499e+002, 6.280652e+002
1.737321e+002, 6.257166e+002
1.742142e+002, 6.243254e+002
1.746963e+002, 6.289403e+002
1.751784e+002, 6.374864e+002
1.756605e+002, 6.450795e+002
1.761426e+002, 6.473210e+002
1.766248e+002, 6.477189e+002
1.771069e+002, 6.510698e+002
1.775890e+002, 6.580531e+002
1.780711e+002, 6.670189e+002
1.785532e+002, 6.755147e+002
1.790353e+002, 6.843177e+002
1.795175e+002, 6.958615e+002
1.799996e+002, 7.143531e+002
1.804817e+002, 7.361703e+002
1.809638e+002, 7.543630e+002
1.814459e+002, 7.675674e+002
1.819280e+002, 7.785875e+002
1.824102e+002, 7.912539e+002
1.828923e+002, 8.051461e+002
1.833744e+002, 8.191254e+002
1.838565e+002, 8.327247e+002
1.843386e+002, 8.458129e+002
1.848207e+002, 8.575880e+002
1.853029e+002, 8.680630e+002
1.857850e+002, 8.771861e+002
1.862671e+002, 8.843410e+002
1.867492e+002, 8.896085e+002
1.872313e+002, 8.953394e+002
1.877134e+002, 9.033396e+002
1.881956e+002, 9.133144e+002
1.886777e+002, 9.236732e+002
1.891598e+002, 9.347119e+002
1.896419e+002, 9.455197e+002
1.901240e+002, 9.542629e+002
1.906061e+002, 9.610163e+002
1.910883e+002, 9.662390e+002
1.915704e+002, 9.692299e+002
1.920525e+002, 9.704032e+002
1.925346e+002, 9.735279e+002
1.930167e+002, 9.791243e+002
1.934988e+002, 9.864760e+002
1.939810e+002, 9.924385e+002
1.944631e+002, 9.961752e+002
1.949452e+002, 1.001487e+003
1.954273e+002, 1.008376e+003
1.959094e+002, 1.016772e+003
1.963915e+002, 1.023198e+003
1.968737e+002, 1.026679e+003
1.973558e+002, 1.027932e+003
1.978379e+002, 1.029422e+003
1.983200e+002, 1.031254e+003
1.988021e+002, 1.032924e+003
1.992842e+002, 1.034056e+003
1.997664e+002, 1.034693e+003
2.002485e+002, 1.034756e+003
2.007306e+002, 1.034092e+003
2.012127e+002, 1.032883e+003
2.016948e+002, 1.032187e+003
2.021769e+002, 1.032262e+003
2.026591e+002, 1.032129e+003
2.031412e+002, 1.030474e+003
2.036233e+002, 1.026966e+003
2.041054e+002, 1.024431e+003
2.045875e+002, 1.023482e+003
2.050696e+002, 1.024024e+003
2.055518e+002, 1.025849e+003
2.060339e+002, 1.029720e+003
2.065160e+002, 1.033145e+003
2.069981e+002, 1.032986e+003
2.074802e+002, 1.028333e+003
2.079623e+002, 1.024434e+003
2.084445e+002, 1.022797e+003
2.089266e+002, 1.023280e+003
2.094087e+002, 1.022800e+003
2.098908e+002, 1.021153e+003
2.103729e+002, 1.018911e+003
2.108550e+002, 1.016647e+003
2.113372e+002, 1.014398e+003
2.118193e+002, 1.012078e+003
2.123014e+002, 1.009757e+003
2.127835e+002, 1.007458e+003
2.132656e+002, 1.004334e+003
2.137477e+002, 9.997227e+002
2.142299e+002, 9.951876e+002
2.147120e+002, 9.927859e+002
2.151941e+002, 9.931733e+002
2.156762e+002, 9.937444e+002
2.161583e+002, 9.939603e+002
2.166404e+002, 9.938259e+002
2.171226e+002, 9.930631e+002
2.176047e+002, 9.913546e+002
2.180868e+002, 9.893854e+002
2.185689e+002, 9.880098e+002
2.190510e+002, 9.874930e+002
2.195331e+002, 9.869131e+002
2.200153e+002, 9.858295e+002
2.204974e+002, 9.840998e+002
2.209795e+002, 9.836874e+002
2.214616e+002, 9.854111e+002
2.219437e+002, 9.876198e+002
2.224258e+002, 9.879871e+002
2.229080e+002, 9.851620e+002
2.233901e+002, 9.834297e+002
2.238722e+002, 9.840758e+002
2.243543e+002, 9.873287e+002
2.248364e+002, 9.908373e+002
2.253185e+002, 9.945389e+002
2.258007e+002, 9.984768e+002
2.262828e+002, 1.002750e+003
2.267649e+002, 1.007268e+003
2.272470e+002, 1.012205e+003
2.277291e+002, 1.017756e+003
2.282112e+002, 1.024220e+003
2.286934e+002, 1.029344e+003
2.291755e+002, 1.032437e+003
2.296576e+002, 1.034786e+003
2.301397e+002, 1.037952e+003
2.306218e+002, 1.042088e+003
2.311039e+002, 1.046868e+003
2.315861e+002, 1.052284e+003
2.320682e+002, 1.058544e+003
2.325503e+002, 1.064679e+003
2.330324e+002, 1.070858e+003
2.335145e+002, 1.076806e+003
2.339966e+002, 1.082089e+003
2.344788e+002, 1.085851e+003
2.349609e+002, 1.090490e+003
2.354430e+002, 1.096860e+003
2.359251e+002, 1.105281e+003
2.364072e+002, 1.113211e+003
2.368893e+002, 1.120479e+003
2.373715e+002, 1.127390e+003
2.378536e+002, 1.134258e+003
2.383357e+002, 1.141005e+003
2.388178e+002, 1.147911e+003
2.392999e+002, 1.154901e+003
2.397820e+002, 1.161754e+003
2.402642e+002, 1.169767e+003
2.407463e+002, 1.179292e+003
2.412284e+002, 1.189630e+003
2.417105e+002, 1.200044e+003
2.421926e+002, 1.210834e+003
2.426747e+002, 1.221031e+003
2.431569e+002, 1.229990e+003
2.436390e+002, 1.237438e+003
2.441211e+002, 1.246172e+003
2.446032e+002, 1.256829e+003
2.450853e+002, 1.268257e+003
2.455674e+002, 1.279198e+003
2.460496e+002, 1.289787e+003
2.465317e+002, 1.299746e+003
2.470138e+002, 1.309405e+003
2.474959e+002, 1.318990e+003
2.479780e+002, 1.326218e+003
2.484601e+002, 1.330787e+003
2.489423e+002, 1.333454e+003
2.494244e+002, 1.335089e+003
2.499065e+002, 1.336062e+003
2.503886e+002, 1.335362e+003
2.508707e+002, 1.332666e+003
2.513528e+002, 1.327981e+003
2.518350e+002, 1.322063e+003
2.523171e+002, 1.314561e+003
2.527992e+002, 1.306288e+003
2.532813e+002, 1.298034e+003
2.537634e+002, 1.289928e+003
2.542455e+002, 1.281695e+003
2.547277e+002, 1.273296e+003
2.552098e+002, 1.264678e+003
2.556919e+002, 1.255559e+003
2.561740e+002, 1.245129e+003
2.566561e+002, 1.235164e+003
2.571382e+002, 1.227577e+003
2.576204e+002, 1.222901e+003
2.581025e+002, 1.219155e+003
2.585846e+002, 1.216200e+003
2.590667e+002, 1.213985e+003
2.595488e+002, 1.211629e+003
2.600309e+002, 1.208742e+003
2.605131e+002, 1.206363e+003
2.609952e+002, 1.205547e+003
2.614773e+002, 1.206728e+003
2.619594e+002, 1.208259e+003
2.624415e+002, 1.209733e+003
2.629236e+002, 1.211273e+003
2.634058e+002, 1.213833e+003
2.638879e+002, 1.217363e+003
2.643700e+002, 1.222066e+003
2.648521e+002, 1.228262e+003
2.653342e+002, 1.236026e+003
2.658163e+002, 1.244823e+003
2.662985e+002, 1.254378e+003
2.667806e+002, 1.264788e+003
2.672627e+002, 1.277157e+003
2.677448e+002, 1.291801e+003
2.682269e+002, 1.307568e+003
2.687090e+002, 1.323342e+003
2.691912e+002, 1.338839e+003
2.696733e+002, 1.356258e+003
2.701554e+002, 1.376181e+003
2.706375e+002, 1.398188e+003
2.711196e+002, 1.419908e+003
2.716017e+002, 1.441137e+003
2.720839e+002, 1.462528e+003
2.725660e+002, 1.484510e+003
2.730481e+002, 1.507591e+003
2.735302e+002, 1.528644e+003
2.740123e+002, 1.547684e+003
2.744944e+002, 1.564541e+003
2.749766e+002, 1.579147e+003
2.754587e+002, 1.591658e+003
2.759408e+002, 1.601334e+003
2.764229e+002, 1.607900e+003
2.769050e+002, 1.611548e+003
2.773871e+002, 1.610374e+003
2.778693e+002, 1.603789e+003
2.783514e+002, 1.592876e+003
2.788335e+002, 1.579341e+003
2.793156e+002, 1.562683e+003
2.797977e+002, 1.545640e+003
2.802798e+002, 1.529981e+003
2.807620e+002, 1.515850e+003
2.812441e+002, 1.499806e+003
2.817262e+002, 1.481039e+003
2.822083e+002, 1.461433e+003
2.826904e+002, 1.443702e+003
2.831725e+002, 1.427758e+003
2.836547e+002, 1.414728e+003
2.841368e+002, 1.405921e+003
2.846189e+002, 1.401090e+003
2.851010e+002, 1.396148e+003
2.855831e+002, 1.390599e+003
2.860652e+002, 1.386070e+003
2.865474e+002, 1.385120e+003
2.870295e+002, 1.387705e+003
2.875116e+002, 1.391875e+003
2.879937e+002, 1.396619e+003
2.884758e+002, 1.402218e+003
2.889579e+002, 1.409875e+003
2.894401e+002, 1.419682e+003
2.899222e+002, 1.431353e+003
2.904043e+002, 1.444844e+003
2.908864e+002, 1.460059e+003
2.913685e+002, 1.476297e+003
2.918506e+002, 1.493417e+003
2.923328e+002, 1.511319e+003
2.928149e+002, 1.529004e+003
2.932970e+002, 1.546495e+003
2.937791e+002, 1.564494e+003
2.942612e+002, 1.583089e+003
2.947433e+002, 1.602534e+003
2.952255e+002, 1.623807e+003
2.957076e+002, 1.648180e+003
2.961897e+002, 1.673917e+003
2.966718e+002, 1.696608e+003
2.971539e+002, 1.716238e+003
2.976360e+002, 1.735850e+003
2.981182e+002, 1.759052e+003
2.986003e+002, 1.784122e+003
2.990824e+002, 1.807299e+003
2.995645e+002, 1.827294e+003
3.000466e+002, 1.845263e+003
3.005287e+002, 1.863048e+003
3.010109e+002, 1.880451e+003
3.014930e+002, 1.896691e+003
3.019751e+002, 1.910558e+003
3.024572e+002, 1.922888e+003
3.029393e+002, 1.934743e+003
3.034214e+002, 1.946456e+003
3.039036e+002, 1.957893e+003
3.043857e+002, 1.969360e+003
3.048678e+002, 1.980572e+003
3.053499e+002, 1.990696e+003
3.058320e+002, 1.999257e+003
3.063141e+002, 2.006356e+003
3.067963e+002, 2.011494e+003
3.072784e+002, 2.013931e+003
3.077605e+002, 2.016556e+003
3.082426e+002, 2.022878e+003
3.087247e+002, 2.031335e+003
3.092068e+002, 2.038197e+003
3.096890e+002, 2.040225e+003
3.101711e+002, 2.040545e+003
3.106532e+002, 2.041651e+003
3.111353e+002, 2.043815e+003
3.116174e+002, 2.046584e+003
3.120995e+002, 2.049658e+003
3.125817e+002, 2.053085e+003
3.130638e+002, 2.056995e+003
3.135459e+002, 2.062289e+003
3.140280e+002, 2.067483e+003
3.145101e+002, 2.072092e+003
3.149922e+002, 2.076153e+003
3.154744e+002, 2.078492e+003
3.159565e+002, 2.078547e+003
3.164386e+002, 2.076598e+003
3.169207e+002, 2.072983e+003
3.174028e+002, 2.068687e+003
3.178849e+002, 2.062025e+003
3.183671e+002, 2.052324e+003
3.188492e+002, 2.039545e+003
3.193313e+002, 2.024417e+003
3.198134e+002, 2.006121e+003
3.202955e+002, 1.986029e+003
3.207776e+002, 1.965450e+003
3.212598e+002, 1.944202e+003
3.217419e+002, 1.922733e+003
3.222240e+002, 1.900529e+003
3.227061e+002, 1.877903e+003
3.231882e+002, 1.856566e+003
3.236703e+002, 1.837278e+003
3.241525e+002, 1.818951e+003
3.246346e+002, 1.801115e+003
3.251167e+002, 1.781759e+003
3.255988e+002, 1.765351e+003
3.260809e+002, 1.753346e+003
3.265630e+002, 1.744680e+003
3.270452e+002, 1.736391e+003
3.275273e+002, 1.728061e+003
3.280094e+002, 1.720441e+003
3.284915e+002, 1.713744e+003
3.289736e+002, 1.708017e+003
3.294557e+002, 1.703282e+003
3.299379e+002, 1.699467e+003
3.304200e+002, 1.696654e+003
3.309021e+002, 1.695036e+003
3.313842e+002, 1.695064e+003
3.318663e+002, 1.695628e+003
3.323484e+002, 1.696437e+003
3.328306e+002, 1.697424e+003
3.333127e+002, 1.698785e+003
3.337948e+002, 1.700125e+003
3.342769e+002, 1.702181e+003
3.347590e+002, 1.706000e+003
3.352411e+002, 1.712740e+003
3.357233e+002, 1.718763e+003
3.362054e+002, 1.723372e+003
3.366875e+002, 1.726644e+003
3.371696e+002, 1.728871e+003
3.376517e+002, 1.729890e+003
3.381339e+002, 1.730245e+003
3.386160e+002, 1.730731e+003
3.390981e+002, 1.731850e+003
3.395802e+002, 1.730646e+003
3.400623e+002, 1.726504e+003
3.405444e+002, 1.719793e+003
3.410266e+002, 1.711783e+003
3.415087e+002, 1.702149e+003
3.419908e+002, 1.692134e+003
3.424729e+002, 1.683277e+003
3.429550e+002, 1.675606e+003
3.434371e+002, 1.663650e+003
3.439193e+002, 1.646153e+003
3.444014e+002, 1.625901e+003
3.448835e+002, 1.608401e+003
3.453656e+002, 1.593632e+003
3.458477e+002, 1.578512e+003
3.463298e+002, 1.560878e+003
3.468120e+002, 1.541404e+003
3.472941e+002, 1.523769e+003
3.477762e+002, 1.508015e+003
3.482583e+002, 1.493564e+003
3.487404e+002, 1.479449e+003
3.492225e+002, 1.465907e+003
3.497047e+002, 1.453913e+003
3.501868e+002, 1.444202e+003
3.506689e+002, 1.436146e+003
3.511510e+002, 1.428369e+003
3.516331e+002, 1.420920e+003
3.521152e+002, 1.414599e+003
3.525974e+002, 1.409845e+003
3.530795e+002, 1.406705e+003
3.535616e+002, 1.405336e+003
3.540437e+002, 1.406082e+003
3.545258e+002, 1.408203e+003
3.550079e+002, 1.410736e+003
3.554901e+002, 1.413907e+003
3.559722e+002, 1.418725e+003
3.564543e+002, 1.425224e+003
3.569364e+002, 1.433965e+003
3.574185e+002, 1.445692e+003
3.579006e+002, 1.460785e+003
3.583828e+002, 1.478147e+003
3.588649e+002, 1.497649e+003
3.593470e+002, 1.519030e+003
3.598291e+002, 1.541895e+003
3.603112e+002, 1.565449e+003
3.607933e+002, 1.590880e+003
3.612755e+002, 1.619359e+003
3.617576e+002, 1.651192e+003
3.622397e+002, 1.684414e+003
3.627218e+002, 1.719898e+003
3.632039e+002, 1.755781e+003
3.636860e+002, 1.789990e+003
3.641682e+002, 1.822567e+003
3.646503e+002, 1.853058e+003
3.651324e+002, 1.881407e+003
3.656145e+002, 1.907785e+003
3.660966e+002, 1.929647e+003
3.665787e+002, 1.948466e+003
3.670609e+002, 1.961476e+003
3.675430e+002, 1.966907e+003
3.680251e+002, 1.964013e+003
3.685072e+002, 1.954139e+003
3.689893e+002, 1.936135e+003
3.694714e+002, 1.911147e+003
3.699536e+002, 1.882938e+003
3.704357e+002, 1.850691e+003
3.709178e+002, 1.815942e+003
3.713999e+002, 1.779531e+003
3.718820e+002, 1.740995e+003
3.723641e+002, 1.701134e+003
3.728463e+002, 1.659169e+003
3.733284e+002, 1.616822e+003
3.738105e+002, 1.576403e+003
3.742926e+002, 1.538357e+003
3.747747e+002, 1.500970e+003
3.752568e+002, 1.463154e+003
3.757390e+002, 1.424723e+003
3.762211e+002, 1.388898e+003
3.767032e+002, 1.355579e+003
3.771853e+002, 1.324262e+003
3.776674e+002, 1.293545e+003
3.781495e+002, 1.263185e+003
3.786317e+002, 1.234630e+003
3.791138e+002, 1.207935e+003
3.795959e+002, 1.183156e+003
3.800780e+002, 1.159635e+003
3.805601e+002, 1.137492e+003
3.810422e+002, 1.116627e+003
3.815244e+002, 1.097030e+003
3.820065e+002, 1.078572e+003
3.824886e+002, 1.061536e+003
3.829707e+002, 1.045787e+003
3.834528e+002, 1.031513e+003
3.839349e+002, 1.018753e+003
3.844171e+002, 1.007477e+003
3.848992e+002, 9.975506e+002
3.853813e+002, 9.893702e+002
3.858634e+002, 9.821921e+002
3.863455e+002, 9.741112e+002
3.868276e+002, 9.650280e+002
3.873098e+002, 9.570287e+002
3.877919e+002, 9.523568e+002
3.882740e+002, 9.498731e+002
3.887561e+002, 9.475867e+002
3.892382e+002, 9.449191e+002
3.897203e+002, 9.420397e+002
3.902025e+002, 9.386339e+002
3.906846e+002, 9.349686e+002
3.911667e+002, 9.322646e+002
3.916488e+002, 9.313522e+002
3.921309e+002, 9.316464e+002
3.926130e+002, 9.327962e+002
3.930952e+002, 9.350909e+002
3.935773e+002, 9.373959e+002
3.940594e+002, 9.383474e+002
3.945415e+002, 9.390530e+002
3.950236e+002, 9.415652e+002
3.955057e+002, 9.479286e+002
3.959879e+002, 9.549877e+002
3.964700e+002, 9.612637e+002
3.969521e+002, 9.663541e+002
3.974342e+002, 9.726793e+002
3.979163e+002, 9.810646e+002
3.983984e+002, 9.906404e+002
3.988806e+002, 1.000612e+003
3.993627e+002, 1.010344e+003
3.998448e+002, 1.021147e+003
4.003269e+002, 1.033112e+003
4.008090e+002, 1.046295e+003
4.012911e+002, 1.060543e+003
4.017733e+002, 1.075502e+003
4.022554e+002, 1.092053e+003
4.027375e+002, 1.110932e+003
4.032196e+002, 1.133427e+003
4.037017e+002, 1.154979e+003
4.041838e+002, 1.174634e+003
4.046660e+002, 1.193889e+003
4.051481e+002, 1.215160e+003
4.056302e+002, 1.238880e+003
4.061123e+002, 1.263447e+003
4.065944e+002, 1.288371e+003
4.070765e+002, 1.313766e+003
4.075587e+002, 1.339638e+003
4.080408e+002, 1.366218e+003
4.085229e+002, 1.392892e+003
4.090050e+002, 1.419404e+003
4.094871e+002, 1.445580e+003
4.099692e+002, 1.470692e+003
4.104514e+002, 1.494922e+003
4.109335e+002, 1.517848e+003
4.114156e+002, 1.538926e+003
4.118977e+002, 1.557938e+003
4.123798e+002, 1.574641e+003
4.128619e+002, 1.589328e+003
4.133441e+002, 1.601282e+003
4.138262e+002, 1.609166e+003
4.143083e+002, 1.612738e+003
4.147904e+002, 1.612793e+003
4.152725e+002, 1.609480e+003
4.157546e+002, 1.603309e+003
4.162368e+002, 1.595232e+003
4.167189e+002, 1.585803e+003
4.172010e+002, 1.574674e+003
4.176831e+002, 1.561277e+003
4.181652e+002, 1.545764e+003
4.186473e+002, 1.528736e+003
4.191295e+002, 1.509794e+003
4.196116e+002, 1.489964e+003
4.200937e+002, 1.470467e+003
4.205758e+002, 1.451650e+003
4.210579e+002, 1.432785e+003
4.215400e+002, 1.413059e+003
4.220222e+002, 1.392953e+003
4.225043e+002, 1.373072e+003
4.229864e+002, 1.354539e+003
4.234685e+002, 1.335700e+003
4.239506e+002, 1.315407e+003
4.244327e+002, 1.292866e+003
4.249149e+002, 1.271825e+003
4.253970e+002, 1.253429e+003
4.258791e+002, 1.236077e+003
4.263612e+002, 1.217934e+003
4.268433e+002, 1.198445e+003
4.273254e+002, 1.179215e+003
4.278076e+002, 1.160583e+003
4.282897e+002, 1.142321e+003
4.287718e+002, 1.123935e+003
4.292539e+002, 1.105448e+003
4.297360e+002, 1.087200e+003
4.302181e+002, 1.069733e+003
4.307003e+002, 1.053192e+003
4.311824e+002, 1.036309e+003
4.316645e+002, 1.018890e+003
4.321466e+002, 1.001409e+003
4.326287e+002, 9.848941e+002
4.331108e+002, 9.694985e+002
4.335930e+002, 9.547656e+002
4.340751e+002, 9.406926e+002
4.345572e+002, 9.271710e+002
4.350393e+002, 9.134506e+002
4.355214e+002, 8.995554e+002
4.360035e+002, 8.867850e+002
4.364857e+002, 8.771758e+002
4.369678e+002, 8.697424e+002
4.374499e+002, 8.618293e+002
4.379320e+002, 8.527009e+002
4.384141e+002, 8.432168e+002
4.388962e+002, 8.342597e+002
4.393784e+002, 8.257043e+002
4.398605e+002, 8.171970e+002
4.403426e+002, 8.084295e+002
4.408247e+002, 7.997022e+002
4.413068e+002, 7.912724e+002
4.417889e+002, 7.832855e+002
4.422711e+002, 7.749471e+002
4.427532e+002, 7.660532e+002
4.432353e+002, 7.565324e+002
4.437174e+002, 7.463115e+002
4.441995e+002, 7.343796e+002
4.446816e+002, 7.227813e+002
4.451638e+002, 7.121186e+002
4.456459e+002, 7.022956e+002
4.461280e+002, 6.923917e+002
4.466101e+002, 6.824018e+002
4.470922e+002, 6.722136e+002
4.475743e+002, 6.616010e+002
4.480565e+002, 6.501627e+002
4.485386e+002, 6.395557e+002
4.490207e+002, 6.300599e+002
4.495028e+002, 6.212804e+002
4.499849e+002, 6.128907e+002
4.504670e+002, 6.048206e+002
4.509492e+002, 5.971824e+002
4.514313e+002, 5.901950e+002
4.519134e+002, 5.837382e+002
4.523955e+002, 5.769377e+002
4.528776e+002, 5.697119e+002
4.533597e+002, 5.628913e+002
4.538419e+002, 5.573302e+002
4.543240e+002, 5.530362e+002
4.548061e+002, 5.482790e+002
4.552882e+002, 5.429069e+002
4.557703e+002, 5.371679e+002
4.562524e+002, 5.315411e+002
4.567346e+002, 5.259238e+002
4.572167e+002, 5.202064e+002
4.576988e+002, 5.139058e+002
4.581809e+002, 5.075601e+002
4.586630e+002, 5.022437e+002
4.591451e+002, 4.979204e+002
4.596273e+002, 4.933305e+002
4.601094e+002, 4.868311e+002
4.605915e+002, 4.797882e+002
4.610736e+002, 4.742181e+002
4.615557e+002, 4.712906e+002
4.620378e+002, 4.681543e+002
4.625200e+002, 4.624167e+002
4.630021e+002, 4.551593e+002
4.634842e+002, 4.485999e+002
4.639663e+002, 4.439189e+002
4.644484e+002, 4.398244e+002
4.649305e+002, 4.361053e+002
4.654127e+002, 4.327888e+002
4.658948e+002, 4.287813e+002
4.663769e+002, 4.233177e+002
4.668590e+002, 4.174434e+002
4.673411e+002, 4.119338e+002
4.678232e+002, 4.067720e+002
4.683054e+002, 4.019362e+002
4.687875e+002, 3.973675e+002
4.692696e+002, 3.931703e+002
4.697517e+002, 3.896452e+002
4.702338e+002, 3.871019e+002
4.707159e+002, 3.847044e+002
4.711981e+002, 3.822646e+002
4.716802e+002, 3.797976e+002
4.721623e+002, 3.767070e+002
4.726444e+002, 3.728242e+002
4.731265e+002, 3.688774e+002
4.736086e+002, 3.657371e+002
4.740908e+002, 3.633874e+002
4.745729e+002, 3.609377e+002
4.750550e+002, 3.581987e+002
4.755371e+002, 3.553196e+002
4.760192e+002, 3.525295e+002
4.765013e+002, 3.498202e+002
4.769835e+002, 3.472525e+002
4.774656e+002, 3.449491e+002
4.779477e+002, 3.427482e+002
4.784298e+002, 3.402428e+002
4.789119e+002, 3.373995e+002
4.793940e+002, 3.348724e+002
4.798762e+002, 3.335780e+002
4.803583e+002, 3.327819e+002
4.808404e+002, 3.314902e+002
4.813225e+002, 3.290756e+002
4.818046e+002, 3.265639e+002
4.822867e+002, 3.243830e+002
4.827689e+002, 3.225120e+002
4.832510e+002, 3.208898e+002
4.837331e+002, 3.199491e+002
4.842152e+002, 3.188722e+002
4.846973e+002, 3.172008e+002
4.851794e+002, 3.147334e+002
4.856616e+002, 3.125392e+002
4.861437e+002, 3.106695e+002
4.866258e+002, 3.091380e+002
4.871079e+002, 3.079777e+002
4.875900e+002, 3.075017e+002
4.880721e+002, 3.068198e+002
4.885543e+002, 3.057616e+002
4.890364e+002, 3.044701e+002
4.895185e+002, 3.033765e+002
4.900006e+002, 3.025331e+002
4.904827e+002, 3.017292e+002
4.909648e+002, 3.008684e+002
4.914470e+002, 2.999520e+002
4.919291e+002, 2.991873e+002
4.924112e+002, 2.986318e+002
4.928933e+002, 2.979681e+002
4.933754e+002, 2.968938e+002
4.938575e+002, 2.954419e+002
4.943397e+002, 2.937412e+002
4.948218e+002, 2.918152e+002
4.953039e+002, 2.897021e+002
4.957860e+002, 2.872662e+002
4.962681e+002, 2.846621e+002
4.967502e+002, 2.824218e+002
4.972324e+002, 2.812519e+002
4.977145e+002, 2.802873e+002
4.981966e+002, 2.786589e+002
4.986787e+002, 2.763028e+002
4.991608e+002, 2.738990e+002
4.996429e+002, 2.718857e+002
5.001251e+002, 2.699257e+002
5.006072e+002, 2.676241e+002
5.010893e+002, 2.641685e+002
5.015714e+002, 2.614048e+002
5.020535e+002, 2.601805e+002
5.025356e+002, 2.598935e+002
5.030178e+002, 2.591592e+002
5.034999e+002, 2.573698e+002
5.039820e+002, 2.556518e+002
5.044641e+002, 2.543021e+002
5.049462e+002, 2.533329e+002
5.054283e+002, 2.524685e+002
5.059105e+002, 2.518852e+002
5.063926e+002, 2.511522e+002
5.068747e+002, 2.497948e+002
5.073568e+002, 2.476557e+002
5.078389e+002, 2.460293e+002
5.083210e+002, 2.451095e+002
5.088032e+002, 2.446653e+002
5.092853e+002, 2.444766e+002
5.097674e+002, 2.445143e+002
5.102495e+002, 2.443081e+002
5.107316e+002, 2.435068e+002
5.112137e+002, 2.423920e+002
5.116959e+002, 2.416401e+002
5.121780e+002, 2.412195e+002
5.126601e+002, 2.406699e+002
5.131422e+002, 2.395280e+002
5.136243e+002, 2.381083e+002
5.141064e+002, 2.368296e+002
5.145886e+002, 2.358096e+002
5.150707e+002, 2.347735e+002
5.155528e+002, 2.335879e+002
5.160349e+002, 2.322780e+002
5.165170e+002, 2.308608e+002
5.169991e+002, 2.291374e+002
5.174813e+002, 2.275244e+002
5.179634e+002, 2.263338e+002
5.184455e+002, 2.254800e+002
5.189276e+002, 2.242311e+002
5.194097e+002, 2.218374e+002
5.198918e+002, 2.196321e+002
5.203740e+002, 2.182453e+002
5.208561e+002, 2.180183e+002
5.213382e+002, 2.174462e+002
5.218203e+002, 2.164005e+002
5.223024e+002, 2.151491e+002
5.227845e+002, 2.139971e+002
5.232667e+002, 2.129770e+002
5.237488e+002, 2.118190e+002
5.242309e+002, 2.103878e+002
5.247130e+002, 2.088741e+002
5.251951e+002, 2.078613e+002
5.256772e+002, 2.073322e+002
5.261594e+002, 2.066674e+002
5.266415e+002, 2.054139e+002
5.271236e+002, 2.037833e+002
5.276057e+002, 2.021411e+002
5.280878e+002, 2.005027e+002
5.285699e+002, 1.991871e+002
5.290521e+002, 1.989408e+002
5.295342e+002, 1.990343e+002
5.300163e+002, 1.984234e+002
5.304984e+002, 1.964024e+002
5.309805e+002, 1.944436e+002
5.314626e+002, 1.934140e+002
5.319448e+002, 1.930273e+002
5.324269e+002, 1.927300e+002
5.329090e+002, 1.924635e+002
5.333911e+002, 1.921529e+002
5.338732e+002, 1.917060e+002
5.343553e+002, 1.911142e+002
5.348375e+002, 1.907163e+002
5.353196e+002, 1.907458e+002
5.358017e+002, 1.907405e+002
5.362838e+002, 1.904412e+002
5.367659e+002, 1.897568e+002
5.372480e+002, 1.889948e+002
5.377302e+002, 1.881156e+002
5.382123e+002, 1.872150e+002
5.386944e+002, 1.864839e+002
5.391765e+002, 1.859335e+002
5.396586e+002, 1.852970e+002
5.401407e+002, 1.844413e+002
5.406229e+002, 1.835188e+002
5.411050e+002, 1.829931e+002
5.415871e+002, 1.828273e+002
5.420692e+002, 1.826291e+002
5.425513e+002, 1.821342e+002
5.430334e+002, 1.814586e+002
5.435156e+002, 1.807925e+002
5.439977e+002, 1.801546e+002
5.444798e+002, 1.794363e+002
5.449619e+002, 1.782778e+002
5.454440e+002, 1.771245e+002
5.459261e+002, 1.765054e+002
5.464083e+002, 1.771444e+002
5.468904e+002, 1.774892e+002
5.473725e+002, 1.767009e+002
5.478546e+002, 1.752682e+002
5.483367e+002, 1.742234e+002
5.488188e+002, 1.741409e+002
5.493010e+002, 1.740056e+002
5.497831e+002, 1.734885e+002
5.502652e+002, 1.725977e+002
5.507473e+002, 1.720300e+002
5.512294e+002, 1.718548e+002
5.517115e+002, 1.718860e+002
5.521937e+002, 1.720535e+002
5.526758e+002, 1.723809e+002
5.531579e+002, 1.726858e+002
5.536400e+002, 1.730175e+002
5.541221e+002, 1.731817e+002
5.546042e+002, 1.727729e+002
5.550864e+002, 1.718937e+002
5.555685e+002, 1.711838e+002
5.560506e+002, 1.708954e+002
5.565327e+002, 1.707999e+002
5.570148e+002, 1.706868e+002
5.574969e+002, 1.705168e+002
5.579791e+002, 1.701428e+002
5.584612e+002, 1.692467e+002
5.589433e+002, 1.682720e+002
5.594254e+002, 1.676254e+002
5.599075e+002, 1.673349e+002
5.603896e+002, 1.670359e+002
5.608718e+002, 1.665132e+002
5.613539e+002, 1.659700e+002
5.618360e+002, 1.655735e+002
5.623181e+002, 1.656786e+002
5.628002e+002, 1.654188e+002
5.632823e+002, 1.645146e+002
5.637645e+002, 1.633351e+002
5.642466e+002, 1.624456e+002
5.647287e+002, 1.619688e+002
5.652108e+002, 1.615433e+002
5.656929e+002, 1.611415e+002
5.661750e+002, 1.607245e+002
5.666572e+002, 1.600660e+002
5.671393e+002, 1.591443e+002
5.676214e+002, 1.581521e+002
5.681035e+002, 1.570434e+002
5.685856e+002, 1.559360e+002
5.690677e+002, 1.553730e+002
5.695499e+002, 1.554094e+002
5.700320e+002, 1.554478e+002
5.705141e+002, 1.548499e+002
5.709962e+002, 1.539007e+002
5.714783e+002, 1.530631e+002
5.719604e+002, 1.524595e+002
5.724426e+002, 1.519570e+002
5.729247e+002, 1.515301e+002
5.734068e+002, 1.511335e+002
5.738889e+002, 1.506758e+002
5.743710e+002, 1.497951e+002
5.748531e+002, 1.491909e+002
5.753353e+002, 1.492873e+002
5.758174e+002, 1.500217e+002
5.762995e+002, 1.504138e+002
5.767816e+002, 1.503037e+002
5.772637e+002, 1.500092e+002
5.777458e+002, 1.496175e+002
5.782280e+002, 1.490784e+002
5.787101e+002, 1.487443e+002
5.791922e+002, 1.486770e+002
5.796743e+002, 1.486781e+002
5.801564e+002, 1.484545e+002
5.806385e+002, 1.480326e+002
5.811207e+002, 1.479926e+002
5.816028e+002, 1.486023e+002
5.820849e+002, 1.492534e+002
5.825670e+002, 1.487616e+002
5.830491e+002, 1.474873e+002
5.835313e+002, 1.465748e+002
5.840134e+002, 1.469356e+002
5.844955e+002, 1.476456e+002
5.849776e+002, 1.479095e+002
5.854597e+002, 1.477730e+002
5.859418e+002, 1.475265e+002
5.864240e+002, 1.473154e+002
5.869061e+002, 1.470284e+002
5.873882e+002, 1.465406e+002
5.878703e+002, 1.457410e+002
5.883524e+002, 1.451375e+002
5.888345e+002, 1.448597e+002
5.893167e+002, 1.447558e+002
5.897988e+002, 1.447303e+002
5.902809e+002, 1.448533e+002
5.907630e+002, 1.448915e+002
5.912451e+002, 1.448143e+002
5.917272e+002, 1.446597e+002
5.922094e+002, 1.444827e+002
5.926915e+002, 1.442821e+002
5.931736e+002, 1.441109e+002
5.936557e+002, 1.440097e+002
5.941378e+002, 1.439356e+002
5.946199e+002, 1.437344e+002
5.951021e+002, 1.434324e+002
5.955842e+002, 1.432296e+002
5.960663e+002, 1.435122e+002
5.965484e+002, 1.438316e+002
5.970305e+002, 1.435261e+002
5.975126e+002, 1.425182e+002
5.979948e+002, 1.416786e+002
5.984769e+002, 1.416423e+002
5.989590e+002, 1.419136e+002
5.994411e+002, 1.420608e+002
5.999232e+002, 1.418444e+002
6.004053e+002, 1.417621e+002
6.008875e+002, 1.419142e+002
6.013696e+002, 1.422332e+002
6.018517e+002, 1.426470e+002
6.023338e+002, 1.432390e+002
6.028159e+002, 1.437642e+002
6.032980e+002, 1.442159e+002
6.037802e+002, 1.445598e+002
6.042623e+002, 1.446538e+002
6.047444e+002, 1.444767e+002
6.052265e+002, 1.442209e+002
6.057086e+002, 1.439695e+002
6.061907e+002, 1.437160e+002
6.066729e+002, 1.434031e+002
6.071550e+002, 1.430332e+002
6.076371e+002, 1.427294e+002
6.081192e+002, 1.426635e+002
6.086013e+002, 1.426947e+002
6.090834e+002, 1.426376e+002
6.095656e+002, 1.424461e+002
6.100477e+002, 1.422306e+002
6.105298e+002, 1.419544e+002
6.110119e+002, 1.417297e+002
6.114940e+002, 1.416804e+002
6.119761e+002, 1.421917e+002
6.124583e+002, 1.424614e+002
6.129404e+002, 1.421732e+002
6.134225e+002, 1.416011e+002
6.139046e+002, 1.413760e+002
6.143867e+002, 1.417544e+002
6.148688e+002, 1.419436e+002
6.153510e+002, 1.416366e+002
6.158331e+002, 1.409375e+002
6.163152e+002, 1.405159e+002
6.167973e+002, 1.403914e+002
6.172794e+002, 1.403362e+002
6.177615e+002, 1.401392e+002
6.182437e+002, 1.398940e+002
6.187258e+002, 1.399545e+002
6.192079e+002, 1.403523e+002
6.196900e+002, 1.406397e+002
6.201721e+002, 1.403107e+002
6.206542e+002, 1.396969e+002
6.211364e+002, 1.391960e+002
6.216185e+002, 1.388577e+002
6.221006e+002, 1.387278e+002
6.225827e+002, 1.389948e+002
6.230648e+002, 1.394304e+002
6.235469e+002, 1.397152e+002
6.240291e+002, 1.397042e+002
6.245112e+002, 1.396579e+002
6.249933e+002, 1.396699e+002
6.254754e+002, 1.396758e+002
6.259575e+002, 1.394435e+002
6.264396e+002, 1.389279e+002
6.269218e+002, 1.383055e+002
6.274039e+002, 1.375867e+002
6.278860e+002, 1.368101e+002
6.283681e+002, 1.362411e+002
6.288502e+002, 1.358859e+002
6.293323e+002, 1.355612e+002
6.298145e+002, 1.350905e+002
6.302966e+002, 1.345640e+002
6.307787e+002, 1.341940e+002
6.312608e+002, 1.340169e+002
6.317429e+002, 1.337575e+002
6.322250e+002, 1.330479e+002
6.327072e+002, 1.322211e+002
6.331893e+002, 1.316328e+002
6.336714e+002, 1.314793e+002
6.341535e+002, 1.313929e+002
6.346356e+002, 1.313492e+002
6.351177e+002, 1.312954e+002
6.355999e+002, 1.311471e+002
6.360820e+002, 1.308705e+002
6.365641e+002, 1.305543e+002
6.370462e+002, 1.302119e+002
6.375283e+002, 1.298398e+002
6.380104e+002, 1.293898e+002
6.384926e+002, 1.288303e+002
6.389747e+002, 1.283744e+002
6.394568e+002, 1.281294e+002
6.399389e+002, 1.280571e+002
6.404210e+002, 1.280660e+002
6.409031e+002, 1.281524e+002
6.413853e+002, 1.282273e+002
6.418674e+002, 1.280963e+002
6.423495e+002, 1.279833e+002
6.428316e+002, 1.282296e+002
6.433137e+002, 1.289141e+002
6.437958e+002, 1.295253e+002
6.442780e+002, 1.297146e+002
6.447601e+002, 1.297715e+002
6.452422e+002, 1.299602e+002
6.457243e+002, 1.306476e+002
6.462064e+002, 1.309470e+002
6.466885e+002, 1.305866e+002
6.471707e+002, 1.299628e+002
6.476528e+002, 1.296613e+002
6.481349e+002, 1.298781e+002
6.486170e+002, 1.297274e+002
6.490991e+002, 1.288976e+002
6.495812e+002, 1.277539e+002
6.500634e+002, 1.272367e+002
6.505455e+002, 1.272920e+002
6.510276e+002, 1.271947e+002
6.515097e+002, 1.263619e+002
6.519918e+002, 1.253224e+002
6.524739e+002, 1.249426e+002
6.529561e+002, 1.251352e+002
6.534382e+002, 1.254164e+002
6.539203e+002, 1.255307e+002
6.544024e+002, 1.256150e+002
6.548845e+002, 1.257328e+002
6.553666e+002, 1.258821e+002
6.558488e+002, 1.261705e+002
6.563309e+002, 1.274251e+002
6.568130e+002, 1.281929e+002
6.572951e+002, 1.274548e+002
6.577772e+002, 1.242352e+002
6.582593e+002, 1.222042e+002
6.587415e+002, 1.217083e+002
6.592236e+002, 1.218423e+002
6.597057e+002, 1.214949e+002
6.601878e+002, 1.206858e+002
6.606699e+002, 1.203933e+002
6.611520e+002, 1.209198e+002
6.616342e+002, 1.217137e+002
6.621163e+002, 1.220451e+002
6.625984e+002, 1.220174e+002
6.630805e+002, 1.219014e+002
6.635626e+002, 1.217725e+002
6.640447e+002, 1.216274e+002
6.645269e+002, 1.214796e+002
6.650090e+002, 1.213155e+002
6.654911e+002, 1.210925e+002
6.659732e+002, 1.206447e+002
6.664553e+002, 1.202872e+002
6.669374e+002, 1.201113e+002
6.674196e+002, 1.201152e+002
6.679017e+002, 1.203801e+002
6.683838e+002, 1.211094e+002
6.688659e+002, 1.217271e+002
6.693480e+002, 1.219215e+002
6.698301e+002, 1.216990e+002
6.703123e+002, 1.214395e+002
6.707944e+002, 1.211380e+002
6.712765e+002, 1.208322e+002
6.717586e+002, 1.204998e+002
6.722407e+002, 1.201908e+002
6.727228e+002, 1.200487e+002
6.732050e+002, 1.201126e+002
6.736871e+002, 1.201943e+002
6.741692e+002, 1.200087e+002
6.746513e+002, 1.198193e+002
6.751334e+002, 1.199624e+002
6.756155e+002, 1.209733e+002
6.760977e+002, 1.216388e+002
6.765798e+002, 1.213032e+002
6.770619e+002, 1.205814e+002
6.775440e+002, 1.204404e+002
6.780261e+002, 1.213581e+002
6.785082e+002, 1.218176e+002
6.789904e+002, 1.214091e+002
6.794725e+002, 1.204960e+002
6.799546e+002, 1.199869e+002
6.804367e+002, 1.198932e+002
6.809188e+002, 1.199716e+002
6.814009e+002, 1.202752e+002
6.818831e+002, 1.205877e+002
6.823652e+002, 1.203373e+002
6.828473e+002, 1.196558e+002
6.833294e+002, 1.192080e+002
6.838115e+002, 1.195796e+002
6.842936e+002, 1.201760e+002
6.847758e+002, 1.206140e+002
6.852579e+002, 1.208618e+002
6.857400e+002, 1.209972e+002
6.862221e+002, 1.209309e+002
6.867042e+002, 1.208426e+002
6.871863e+002, 1.208027e+002
6.876685e+002, 1.207847e+002
6.881506e+002, 1.209376e+002
6.886327e+002, 1.212843e+002
6.891148e+002, 1.217568e+002
6.895969e+002, 1.223414e+002
6.900790e+002, 1.230289e+002
6.905612e+002, 1.236325e+002
6.910433e+002, 1.241312e+002
6.915254e+002, 1.245399e+002
6.920075e+002, 1.248398e+002
6.924896e+002, 1.250567e+002
6.929717e+002, 1.252176e+002
6.934539e+002, 1.252536e+002
6.939360e+002, 1.253866e+002
6.944181e+002, 1.259111e+002
6.949002e+002, 1.265727e+002
6.953823e+002, 1.269774e+002
6.958644e+002, 1.267196e+002
6.963466e+002, 1.265967e+002
6.968287e+002, 1.268397e+002
6.973108e+002, 1.272653e+002
6.977929e+002, 1.272889e+002
6.982750e+002, 1.267024e+002
6.987571e+002, 1.265397e+002
6.992393e+002, 1.273046e+002
6.997214e+002, 1.286336e+002
7.002035e+002, 1.293511e+002
7.006856e+002, 1.295267e+002
7.011677e+002, 1.297320e+002
7.016498e+002, 1.302462e+002
7.021320e+002, 1.310016e+002
7.026141e+002, 1.320321e+002
7.030962e+002, 1.332965e+002
7.035783e+002, 1.344381e+002
7.040604e+002, 1.352951e+002
7.045425e+002, 1.359901e+002
7.050247e+002, 1.366069e+002
7.055068e+002, 1.371810e+002
7.059889e+002, 1.374419e+002
7.064710e+002, 1.371249e+002
7.069531e+002, 1.368352e+002
7.074352e+002, 1.369686e+002
7.079174e+002, 1.375505e+002
7.083995e+002, 1.383273e+002
7.088816e+002, 1.393638e+002
7.093637e+002, 1.402666e+002
7.098458e+002, 1.401896e+002
7.103279e+002, 1.396911e+002
7.108101e+002, 1.403365e+002
7.112922e+002, 1.426274e+002
7.117743e+002, 1.450588e+002
7.122564e+002, 1.471335e+002
7.127385e+002, 1.484522e+002
7.132206e+002, 1.484752e+002
7.137028e+002, 1.454056e+002
7.141849e+002, 1.433310e+002
7.146670e+002, 1.436919e+002
7.151491e+002, 1.451960e+002
7.156312e+002, 1.461622e+002
7.161133e+002, 1.463896e+002
7.165955e+002, 1.466041e+002
7.170776e+002, 1.469000e+002
7.175597e+002, 1.472748e+002
7.180418e+002, 1.477207e+002
7.185239e+002, 1.482384e+002
7.190060e+002, 1.488108e+002
7.194882e+002, 1.494208e+002
7.199703e+002, 1.500866e+002
7.204524e+002, 1.509133e+002
7.209345e+002, 1.518242e+002
7.214166e+002, 1.526225e+002
7.218987e+002, 1.529129e+002
7.223809e+002, 1.533490e+002
7.228630e+002, 1.543698e+002
7.233451e+002, 1.558921e+002
7.238272e+002, 1.571405e+002
7.243093e+002, 1.578965e+002
7.247914e+002, 1.586443e+002
7.252736e+002, 1.595636e+002
7.257557e+002, 1.606380e+002
7.262378e+002, 1.616750e+002
7.267199e+002, 1.627006e+002
7.272020e+002, 1.635865e+002
7.276841e+002, 1.641827e+002
7.281663e+002, 1.646111e+002
7.286484e+002, 1.651098e+002
7.291305e+002, 1.656883e+002
7.296126e+002, 1.663218e+002
7.300947e+002, 1.667688e+002
7.305768e+002, 1.674143e+002
7.310590e+002, 1.687584e+002
7.315411e+002, 1.711042e+002
7.320232e+002, 1.728363e+002
7.325053e+002, 1.730427e+002
7.329874e+002, 1.730448e+002
7.334695e+002, 1.736810e+002
7.339517e+002, 1.752185e+002
7.344338e+002, 1.764062e+002
7.349159e+002, 1.771643e+002
7.353980e+002, 1.778124e+002
7.358801e+002, 1.787790e+002
7.363622e+002, 1.799485e+002
7.368444e+002, 1.806998e+002
7.373265e+002, 1.808105e+002
7.378086e+002, 1.811660e+002
7.382907e+002, 1.828755e+002
7.387728e+002, 1.852237e+002
7.392549e+002, 1.872611e+002
7.397371e+002, 1.885274e+002
7.402192e+002, 1.898262e+002
7.407013e+002, 1.913203e+002
7.411834e+002, 1.929986e+002
7.416655e+002, 1.948465e+002
7.421476e+002, 1.968003e+002
7.426298e+002, 1.989887e+002
7.431119e+002, 2.013094e+002
7.435940e+002, 2.040202e+002
7.440761e+002, 2.077270e+002
7.445582e+002, 2.123287e+002
7.450403e+002, 2.171327e+002
7.455225e+002, 2.219116e+002
7.460046e+002, 2.268555e+002
7.464867e+002, 2.320811e+002
7.469688e+002, 2.376695e+002
7.474509e+002, 2.437599e+002
7.479330e+002, 2.507609e+002
7.484152e+002, 2.579027e+002
7.488973e+002, 2.648573e+002
7.493794e+002, 2.718126e+002
7.498615e+002, 2.790813e+002
7.503436e+002, 2.867084e+002
7.508257e+002, 2.947394e+002
7.513079e+002, 3.030222e+002
7.517900e+002, 3.117545e+002
7.522721e+002, 3.213803e+002
7.527542e+002, 3.319380e+002
7.532363e+002, 3.430506e+002
7.537184e+002, 3.541818e+002
7.542006e+002, 3.658986e+002
7.546827e+002, 3.791758e+002
7.551648e+002, 3.939337e+002
7.556469e+002, 4.092755e+002
7.561290e+002, 4.253191e+002
7.566111e+002, 4.414755e+002
7.570933e+002, 4.579279e+002
7.575754e+002, 4.743414e+002
7.580575e+002, 4.901068e+002
7.585396e+002, 5.053603e+002
7.590217e+002, 5.195687e+002
7.595038e+002, 5.330970e+002
7.599860e+002, 5.456266e+002
7.604681e+002, 5.549838e+002
7.609502e+002, 5.611409e+002
7.614323e+002, 5.636721e+002
7.619144e+002, 5.618745e+002
7.623965e+002, 5.564064e+002
7.628787e+002, 5.483325e+002
7.633608e+002, 5.377448e+002
7.638429e+002, 5.246259e+002
7.643250e+002, 5.068251e+002
7.648071e+002, 4.881927e+002
7.652892e+002, 4.712708e+002
7.657714e+002, 4.560538e+002
7.662535e+002, 4.427563e+002
7.667356e+002, 4.312266e+002
7.672177e+002, 4.216629e+002
7.676998e+002, 4.141330e+002
7.681819e+002, 4.085611e+002
7.686641e+002, 4.055108e+002
7.691462e+002, 4.050944e+002
7.696283e+002, 4.065333e+002
7.701104e+002, 4.092758e+002
7.705925e+002, 4.133936e+002
7.710746e+002, 4.191395e+002
7.715568e+002, 4.265538e+002
7.720389e+002, 4.350514e+002
7.725210e+002, 4.439942e+002
7.730031e+002, 4.540444e+002
7.734852e+002, 4.657695e+002
7.739673e+002, 4.792638e+002
7.744495e+002, 4.944643e+002
7.749316e+002, 5.110065e+002
7.754137e+002, 5.295569e+002
7.758958e+002, 5.506458e+002
7.763779e+002, 5.744107e+002
7.768600e+002, 6.001531e+002
7.773422e+002, 6.280058e+002
7.778243e+002, 6.575547e+002
7.783064e+002, 6.890624e+002
7.787885e+002, 7.218027e+002
7.792706e+002, 7.548848e+002
7.797527e+002, 7.881173e+002
7.802349e+002, 8.201956e+002
7.807170e+002, 8.512692e+002
7.811991e+002, 8.798869e+002
7.816812e+002, 9.049969e+002
7.821633e+002, 9.280203e+002
7.826454e+002, 9.434896e+002
7.831276e+002, 9.516872e+002
7.836097e+002, 9.519730e+002
7.840918e+002, 9.430417e+002
7.845739e+002, 9.249024e+002
7.850560e+002, 9.006226e+002
7.855381e+002, 8.700334e+002
7.860203e+002, 8.369785e+002
7.865024e+002, 8.034504e+002
7.869845e+002, 7.712110e+002
7.874666e+002, 7.424308e+002
7.879487e+002, 7.170193e+002
7.884308e+002, 6.966738e+002
7.889130e+002, 6.814901e+002
7.893951e+002, 6.716635e+002
7.898772e+002, 6.674223e+002
7.903593e+002, 6.694178e+002
7.908414e+002, 6.757024e+002
7.913235e+002, 6.869799e+002
7.918057e+002, 7.015350e+002
7.922878e+002, 7.174244e+002
7.927699e+002, 7.347627e+002
7.932520e+002, 7.521503e+002
7.937341e+002, 7.693490e+002
7.942162e+002, 7.874435e+002
7.946984e+002, 8.064542e+002
7.951805e+002, 8.278698e+002
7.956626e+002, 8.534798e+002
7.961447e+002, 8.834677e+002
7.966268e+002, 9.191414e+002
7.971089e+002, 9.588625e+002
7.975911e+002, 1.006270e+003
7.980732e+002, 1.064461e+003
7.985553e+002, 1.133019e+003
7.990374e+002, 1.214475e+003
7.995195e+002, 1.309867e+003
8.000016e+002, 1.416449e+003
8.004838e+002, 1.535046e+003
8.009659e+002, 1.664429e+003
8.014480e+002, 1.800405e+003
8.019301e+002, 1.942052e+003
8.024122e+002, 2.089001e+003
8.028943e+002, 2.244218e+003
8.033765e+002, 2.401038e+003
8.038586e+002, 2.555598e+003
8.043407e+002, 2.727039e+003
8.048228e+002, 2.858612e+003
8.053049e+002, 2.946033e+003
8.057870e+002, 2.983302e+003
8.062692e+002, 2.955996e+003
8.067513e+002, 2.848425e+003
8.072334e+002, 2.732898e+003
8.077155e+002, 2.610351e+003
8.081976e+002, 2.498803e+003
8.086797e+002, 2.417782e+003
8.091619e+002, 2.367296e+003
8.096440e+002, 2.347762e+003
8.101261e+002, 2.359823e+003
8.106082e+002, 2.400861e+003
8.110903e+002, 2.472145e+003
8.115724e+002, 2.569379e+003
8.120546e+002, 2.687981e+003
8.125367e+002, 2.830719e+003
8.130188e+002, 2.990647e+003
8.135009e+002, 3.171961e+003
8.139830e+002, 3.365468e+003
8.144651e+002, 3.561845e+003
8.149473e+002, 3.763394e+003
8.154294e+002, 3.958989e+003
8.159115e+002, 4.150697e+003
8.163936e+002, 4.327025e+003
8.168757e+002, 4.493606e+003
8.173578e+002, 4.629882e+003
8.178400e+002, 4.706525e+003
8.183221e+002, 4.721632e+003
8.188042e+002, 4.659416e+003
8.192863e+002, 4.493260e+003
8.197684e+002, 4.257705e+003
8.202505e+002, 3.978556e+003
8.207327e+002, 3.638322e+003
8.212148e+002, 3.306346e+003
8.216969e+002, 2.976779e+003
8.221790e+002, 2.663871e+003
8.226611e+002, 2.389159e+003
8.231432e+002, 2.148153e+003
8.236254e+002, 1.937017e+003
8.241075e+002, 1.754676e+003
8.245896e+002, 1.596072e+003
8.250717e+002, 1.463971e+003
8.255538e+002, 1.350758e+003
8.260359e+002, 1.250491e+003
8.265181e+002, 1.163139e+003
8.270002e+002, 1.084961e+003
8.274823e+002, 1.016643e+003
8.279644e+002, 9.557001e+002
8.284465e+002, 9.001349e+002
8.289286e+002, 8.504343e+002
8.294108e+002, 8.063807e+002
8.298929e+002, 7.686363e+002
8.303750e+002, 7.346799e+002
8.308571e+002, 7.023935e+002
8.313392e+002, 6.722164e+002
8.318214e+002, 6.447545e+002
8.323035e+002, 6.203326e+002
8.327856e+002, 5.977987e+002
8.332677e+002, 5.769042e+002
8.337498e+002, 5.575726e+002
8.342319e+002, 5.398239e+002
8.347141e+002, 5.238726e+002
8.351962e+002, 5.088871e+002
8.356783e+002, 4.949393e+002
8.361604e+002, 4.818609e+002
8.366425e+002, 4.697940e+002
8.371246e+002, 4.586948e+002
8.376068e+002, 4.479464e+002
8.380889e+002, 4.375451e+002
8.385710e+002, 4.275936e+002
8.390531e+002, 4.180235e+002
8.395352e+002, 4.090411e+002
8.400173e+002, 4.010177e+002
8.404995e+002, 3.938980e+002
8.409816e+002, 3.870817e+002
8.414637e+002, 3.803704e+002
8.419458e+002, 3.739280e+002
8.424279e+002, 3.677883e+002
8.429100e+002, 3.619469e+002
8.433922e+002, 3.562163e+002
8.438743e+002, 3.505789e+002
8.443564e+002, 3.451321e+002
8.448385e+002, 3.400034e+002
8.453206e+002, 3.350647e+002
8.458027e+002, 3.302341e+002
8.462849e+002, 3.254354e+002
8.467670e+002, 3.203460e+002
8.472491e+002, 3.144249e+002
8.477312e+002, 3.084980e+002
8.482133e+002, 3.028238e+002
8.486954e+002, 2.974892e+002
8.491776e+002, 2.930863e+002
8.496597e+002, 2.900489e+002
8.501418e+002, 2.869991e+002
8.506239e+002, 2.834066e+002
8.511060e+002, 2.795456e+002
8.515881e+002, 2.765405e+002
8.520703e+002, 2.742845e+002
8.525524e+002, 2.718532e+002
8.530345e+002, 2.685406e+002
8.535166e+002, 2.651128e+002
8.539987e+002, 2.621760e+002
8.544808e+002, 2.596535e+002
8.549630e+002, 2.573459e+002
8.554451e+002, 2.555389e+002
8.559272e+002, 2.535328e+002
8.564093e+002, 2.509997e+002
8.568914e+002, 2.482807e+002
8.573735e+002, 2.460869e+002
8.578557e+002, 2.444476e+002
8.583378e+002, 2.428975e+002
8.588199e+002, 2.413477e+002
8.593020e+002, 2.397240e+002
8.597841e+002, 2.379150e+002
8.602662e+002, 2.359612e+002
8.607484e+002, 2.339737e+002
8.612305e+002, 2.318967e+002
8.617126e+002, 2.299390e+002
8.621947e+002, 2.281737e+002
8.626768e+002, 2.266021e+002
8.631589e+002, 2.253208e+002
8.636411e+002, 2.246862e+002
8.641232e+002, 2.231601e+002
8.646053e+002, 2.203246e+002
8.650874e+002, 2.172478e+002
8.655695e+002, 2.153415e+002
8.660516e+002, 2.143420e+002
8.665338e+002, 2.134944e+002
8.670159e+002, 2.127315e+002
8.674980e+002, 2.116817e+002
8.679801e+002, 2.097825e+002
8.684622e+002, 2.076258e+002
8.689443e+002, 2.057839e+002
8.694265e+002, 2.045133e+002
8.699086e+002, 2.031272e+002
8.703907e+002, 2.016881e+002
8.708728e+002, 2.000379e+002
8.713549e+002, 1.978729e+002
8.718370e+002, 1.952708e+002
8.723192e+002, 1.933536e+002
8.728013e+002, 1.921487e+002
8.732834e+002, 1.910907e+002
8.737655e+002, 1.896466e+002
8.742476e+002, 1.881544e+002
8.747297e+002, 1.871750e+002
8.752119e+002, 1.867718e+002
8.756940e+002, 1.856336e+002
8.761761e+002, 1.827883e+002
8.766582e+002, 1.798204e+002
8.771403e+002, 1.772823e+002
8.776224e+002, 1.751619e+002
8.781046e+002, 1.732991e+002
8.785867e+002, 1.717000e+002
8.790688e+002, 1.703572e+002
8.795509e+002, 1.695716e+002
8.800330e+002, 1.688978e+002
8.805151e+002, 1.675577e+002
8.809973e+002, 1.657389e+002
8.814794e+002, 1.641626e+002
8.819615e+002, 1.634521e+002
8.824436e+002, 1.626933e+002
8.829257e+002, 1.613915e+002
8.834078e+002, 1.598099e+002
8.838900e+002, 1.586884e+002
8.843721e+002, 1.581345e+002
8.848542e+002, 1.574648e+002
8.853363e+002, 1.564533e+002
8.858184e+002, 1.552700e+002
8.863005e+002, 1.539990e+002
8.867827e+002, 1.527961e+002
8.872648e+002, 1.521164e+002
8.877469e+002, 1.526489e+002
8.882290e+002, 1.529382e+002
8.887111e+002, 1.520213e+002
8.891932e+002, 1.506047e+002
8.896754e+002, 1.497887e+002
8.901575e+002, 1.500950e+002
8.906396e+002, 1.495856e+002
8.911217e+002, 1.478626e+002
8.916038e+002, 1.458971e+002
8.920859e+002, 1.449357e+002
8.925681e+002, 1.447155e+002
8.930502e+002, 1.444839e+002
8.935323e+002, 1.441440e+002
8.940144e+002, 1.436268e+002
8.944965e+002, 1.426885e+002
8.949786e+002, 1.416884e+002
8.954608e+002, 1.409495e+002
8.959429e+002, 1.406123e+002
8.964250e+002, 1.401371e+002
8.969071e+002, 1.394219e+002
8.973892e+002, 1.387789e+002
8.978713e+002, 1.385173e+002
8.983535e+002, 1.385423e+002
8.988356e+002, 1.382829e+002
8.993177e+002, 1.377520e+002
8.997998e+002, 1.371984e+002
9.002819e+002, 1.367423e+002
9.007640e+002, 1.363637e+002
9.012462e+002, 1.360883e+002
9.017283e+002, 1.358998e+002
9.022104e+002, 1.355980e+002
9.026925e+002, 1.349090e+002
9.031746e+002, 1.345647e+002
9.036567e+002, 1.349267e+002
9.041389e+002, 1.357035e+002
9.046210e+002, 1.358667e+002
9.051031e+002, 1.354966e+002
9.055852e+002, 1.353287e+002
9.060673e+002, 1.358033e+002
9.065494e+002, 1.364088e+002
9.070316e+002, 1.366050e+002
9.075137e+002, 1.366177e+002
9.079958e+002, 1.368501e+002
9.084779e+002, 1.377248e+002
9.089600e+002, 1.383524e+002
9.094421e+002, 1.384550e+002
9.099243e+002, 1.384943e+002
9.104064e+002, 1.391295e+002
9.108885e+002, 1.403352e+002
9.113706e+002, 1.417217e+002
9.118527e+002, 1.432641e+002
9.123348e+002, 1.447745e+002
9.128170e+002, 1.459136e+002
9.132991e+002, 1.470065e+002
9.137812e+002, 1.484662e+002
9.142633e+002, 1.504691e+002
9.147454e+002, 1.523914e+002
9.152275e+002, 1.543622e+002
9.157097e+002, 1.559766e+002
9.161918e+002, 1.570423e+002
9.166739e+002, 1.575581e+002
9.171560e+002, 1.574694e+002
9.176381e+002, 1.567786e+002
9.181202e+002, 1.552930e+002
9.186024e+002, 1.525086e+002
9.190845e+002, 1.491163e+002
9.195666e+002, 1.456280e+002
9.200487e+002, 1.421597e+002
9.205308e+002, 1.390237e+002
9.210129e+002, 1.364738e+002
9.214951e+002, 1.340908e+002
9.219772e+002, 1.317552e+002
9.224593e+002, 1.294941e+002
9.229414e+002, 1.273525e+002
9.234235e+002, 1.253485e+002
9.239056e+002, 1.236015e+002
9.243878e+002, 1.221999e+002
9.248699e+002, 1.209729e+002
9.253520e+002, 1.197906e+002
9.258341e+002, 1.186145e+002
9.263162e+002, 1.173550e+002
9.267983e+002, 1.156892e+002
9.272805e+002, 1.144127e+002
9.277626e+002, 1.137241e+002
9.282447e+002, 1.133041e+002
9.287268e+002, 1.129053e+002
9.292089e+002, 1.125330e+002
9.296910e+002, 1.118740e+002
9.301732e+002, 1.108790e+002
9.306553e+002, 1.099945e+002
9.311374e+002, 1.098193e+002
9.316195e+002, 1.098687e+002
9.321016e+002, 1.095177e+002
9.325837e+002, 1.086804e+002
9.330659e+002, 1.080687e+002
9.335480e+002, 1.081178e+002
9.340301e+002, 1.080976e+002
9.345122e+002, 1.076803e+002
9.349943e+002, 1.069379e+002
9.354764e+002, 1.064241e+002
9.359586e+002, 1.061246e+002
9.364407e+002, 1.058023e+002
9.369228e+002, 1.051488e+002
9.374049e+002, 1.045781e+002
9.378870e+002, 1.047996e+002
9.383691e+002, 1.054176e+002
9.388513e+002, 1.055136e+002
9.393334e+002, 1.041166e+002
9.398155e+002, 1.031687e+002
9.402976e+002, 1.031272e+002
9.407797e+002, 1.034498e+002
9.412618e+002, 1.032534e+002
9.417440e+002, 1.025856e+002
9.422261e+002, 1.020404e+002
9.427082e+002, 1.016949e+002
9.431903e+002, 1.015966e+002
9.436724e+002, 1.020461e+002
9.441545e+002, 1.026153e+002
9.446367e+002, 1.028400e+002
9.451188e+002, 1.025569e+002
9.456009e+002, 1.022536e+002
9.460830e+002, 1.019143e+002
9.465651e+002, 1.016481e+002
9.470472e+002, 1.015514e+002
9.475294e+002, 1.015935e+002
9.480115e+002, 1.014959e+002
9.484936e+002, 1.012766e+002
9.489757e+002, 1.011606e+002
9.494578e+002, 1.014891e+002
9.499399e+002, 1.018029e+002
9.504221e+002, 1.016397e+002
9.509042e+002, 1.011414e+002
9.513863e+002, 1.008987e+002
9.518684e+002, 1.011690e+002
9.523505e+002, 1.012976e+002
9.528326e+002, 1.010724e+002
9.533148e+002, 1.007840e+002
9.537969e+002, 1.011252e+002
9.542790e+002, 1.019189e+002
9.547611e+002, 1.022864e+002
9.552432e+002, 1.018065e+002
9.557253e+002, 1.016030e+002
9.562075e+002, 1.031976e+002
9.566896e+002, 1.050473e+002
9.571717e+002, 1.054653e+002
9.576538e+002, 1.036445e+002
9.581359e+002, 1.025962e+002
9.586180e+002, 1.024986e+002
9.591002e+002, 1.027181e+002
9.595823e+002, 1.029261e+002
9.600644e+002, 1.030610e+002
9.605465e+002, 1.028108e+002
9.610286e+002, 1.022343e+002
9.615107e+002, 1.018242e+002
9.619929e+002, 1.019156e+002
9.624750e+002, 1.021870e+002
9.629571e+002, 1.025158e+002
9.634392e+002, 1.028886e+002
9.639213e+002, 1.033192e+002
9.644034e+002, 1.038661e+002
9.648856e+002, 1.041968e+002
9.653677e+002, 1.041644e+002
9.658498e+002, 1.040194e+002
9.663319e+002, 1.041138e+002
9.668140e+002, 1.044084e+002
9.672961e+002, 1.048870e+002
9.677783e+002, 1.057572e+002
9.682604e+002, 1.062399e+002
9.687425e+002, 1.056440e+002
9.692246e+002, 1.048453e+002
9.697067e+002, 1.045880e+002
9.701888e+002, 1.050087e+002
9.706710e+002, 1.049452e+002
9.711531e+002, 1.043508e+002
9.716352e+002, 1.037177e+002
9.721173e+002, 1.034604e+002
9.725994e+002, 1.033698e+002
9.730815e+002, 1.031938e+002
9.735637e+002, 1.029298e+002
9.740458e+002, 1.026285e+002
9.745279e+002, 1.020949e+002
9.750100e+002, 1.018065e+002
9.754921e+002, 1.019916e+002
9.759742e+002, 1.024217e+002
9.764564e+002, 1.025385e+002
9.769385e+002, 1.023551e+002
9.774206e+002, 1.020968e+002
9.779027e+002, 1.018648e+002
9.783848e+002, 1.014599e+002
9.788669e+002, 1.003864e+002
9.793491e+002, 9.917604e+001
9.798312e+002, 9.847838e+001
9.803133e+002, 9.859315e+001
9.807954e+002, 9.882586e+001
9.812775e+002, 9.930478e+001
9.817596e+002, 9.962723e+001
9.822418e+002, 9.946453e+001
9.827239e+002, 9.889068e+001
9.832060e+002, 9.822848e+001
9.836881e+002, 9.749854e+001
9.841702e+002, 9.686924e+001
9.846523e+002, 9.654922e+001
9.851345e+002, 9.625617e+001
9.856166e+002, 9.584982e+001
9.860987e+002, 9.532205e+001
9.865808e+002, 9.464931e+001
9.870629e+002, 9.368955e+001
9.875450e+002, 9.309478e+001
9.880272e+002, 9.310827e+001
9.885093e+002, 9.325786e+001
9.889914e+002, 9.274092e+001
9.894735e+002, 9.184583e+001
9.899556e+002, 9.116991e+001
9.904377e+002, 9.087955e+001
9.909199e+002, 9.065763e+001
9.914020e+002, 9.031956e+001
9.918841e+002, 9.005959e+001
9.923662e+002, 9.001971e+001
9.928483e+002, 9.020723e+001
9.933304e+002, 9.043255e+001
9.938126e+002, 9.070913e+001
9.942947e+002, 9.078893e+001
9.947768e+002, 9.030238e+001
9.952589e+002, 8.968755e+001
9.957410e+002, 8.952653e+001
9.962231e+002, 8.967484e+001
9.967053e+002, 8.970278e+001
9.971874e+002, 8.931618e+001
9.976695e+002, 8.902271e+001
9.981516e+002, 8.886448e+001
9.986337e+002, 8.885593e+001
9.991158e+002, 8.910303e+001
9.995980e+002, 8.955495e+001
1.000080e+003, 8.981860e+001
1.000562e+003, 8.982449e+001
1.001044e+003, 8.978392e+001
1.001526e+003, 8.988609e+001
1.002009e+003, 8.999429e+001
1.002491e+003, 8.999036e+001
1.002973e+003, 8.985535e+001
1.003455e+003, 8.971056e+001
1.003937e+003, 8.958047e+001
1.004419e+003, 8.936327e+001
1.004901e+003, 8.897403e+001
1.005383e+003, 8.849961e+001
1.005865e+003, 8.807865e+001
1.006348e+003, 8.772540e+001
1.006830e+003, 8.746860e+001
1.007312e+003, 8.747987e+001
1.007794e+003, 8.739668e+001
1.008276e+003, 8.709995e+001
1.008758e+003, 8.665000e+001
1.009240e+003, 8.607740e+001
1.009722e+003, 8.537288e+001
1.010205e+003, 8.462486e+001
1.010687e+003, 8.381535e+001
1.011169e+003, 8.310338e+001
1.011651e+003, 8.266362e+001
1.012133e+003, 8.236089e+001
1.012615e+003, 8.214039e+001
1.013097e+003, 8.197529e+001
1.013579e+003, 8.150833e+001
1.014061e+003, 8.045618e+001
1.014544e+003, 7.948372e+001
1.015026e+003, 7.878442e+001
1.015508e+003, 7.829082e+001
1.015990e+003, 7.782919e+001
1.016472e+003, 7.741177e+001
1.016954e+003, 7.711135e+001
1.017436e+003, 7.701633e+001
1.017918e+003, 7.686486e+001
1.018401e+003, 7.637362e+001
1.018883e+003, 7.582177e+001
1.019365e+003, 7.548840e+001
1.019847e+003, 7.541580e+001
1.020329e+003, 7.542519e+001
1.020811e+003, 7.556217e+001
1.021293e+003, 7.553468e+001
1.021775e+003, 7.496349e+001
1.022257e+003, 7.419096e+001
1.022740e+003, 7.378300e+001
1.023222e+003, 7.365684e+001
1.023704e+003, 7.346412e+001
1.024186e+003, 7.281097e+001
1.024668e+003, 7.246060e+001
1.025150e+003, 7.276652e+001
1.025632e+003, 7.325521e+001
1.026114e+003, 7.306005e+001
1.026596e+003, 7.226341e+001
1.027079e+003, 7.157517e+001
1.027561e+003, 7.110926e+001
1.028043e+003, 7.074758e+001
1.028525e+003, 7.048208e+001
1.029007e+003, 7.021404e+001
1.029489e+003, 6.981685e+001
1.029971e+003, 6.927067e+001
1.030453e+003, 6.893953e+001
1.030936e+003, 6.889111e+001
1.031418e+003, 6.883675e+001
1.031900e+003, 6.867086e+001
1.032382e+003, 6.840250e+001
1.032864e+003, 6.799507e+001
1.033346e+003, 6.750491e+001
1.033828e+003, 6.707092e+001
1.034310e+003, 6.668202e+001
1.034792e+003, 6.645517e+001
1.035275e+003, 6.659682e+001
1.035757e+003, 6.675367e+001
1.036239e+003, 6.654636e+001
1.036721e+003, 6.597701e+001
1.037203e+003, 6.578120e+001
1.037685e+003, 6.598193e+001
1.038167e+003, 6.604638e+001
1.038649e+003, 6.533235e+001
1.039132e+003, 6.453767e+001
1.039614e+003, 6.418677e+001
1.040096e+003, 6.426217e+001
1.040578e+003, 6.453857e+001
1.041060e+003, 6.519961e+001
1.041542e+003, 6.547887e+001
1.042024e+003, 6.510613e+001
1.042506e+003, 6.458486e+001
1.042989e+003, 6.471662e+001
1.043471e+003, 6.525911e+001
1.043953e+003, 6.575843e+001
1.044435e+003, 6.616787e+001
1.044917e+003, 6.630827e+001
1.045399e+003, 6.586265e+001
1.045881e+003, 6.537605e+001
1.046363e+003, 6.510537e+001
1.046845e+003, 6.503545e+001
1.047328e+003, 6.512701e+001
1.047810e+003, 6.536171e+001
1.048292e+003, 6.539204e+001
1.048774e+003, 6.484655e+001
1.049256e+003, 6.433130e+001
1.049738e+003, 6.438298e+001
1.050220e+003, 6.476885e+001
1.050702e+003, 6.513255e+001
1.051184e+003, 6.551762e+001
1.051667e+003, 6.565705e+001
1.052149e+003, 6.547771e+001
1.052631e+003, 6.527377e+001
1.053113e+003, 6.556180e+001
1.053595e+003, 6.590232e+001
1.054077e+003, 6.525257e+001
1.054559e+003, 6.372614e+001
1.055041e+003, 6.235521e+001
1.055523e+003, 6.149006e+001
1.056006e+003, 6.096453e+001
1.056488e+003, 6.085994e+001
1.056970e+003, 6.092288e+001
1.057452e+003, 6.058702e+001
1.057934e+003, 5.990356e+001
1.058416e+003, 5.931310e+001
1.058898e+003, 5.888505e+001
1.059380e+003, 5.865861e+001
1.059863e+003, 5.881781e+001
1.060345e+003, 5.908508e+001
1.060827e+003, 5.895950e+001
1.061309e+003, 5.838181e+001
1.061791e+003, 5.968541e+001
1.062273e+003, 6.355637e+001
1.062755e+003, 6.596800e+001
1.063237e+003, 6.455055e+001
1.063719e+003, 6.148881e+001
1.064202e+003, 5.973040e+001
1.064684e+003, 5.894230e+001
1.065166e+003, 5.850074e+001
1.065648e+003, 5.836272e+001
1.066130e+003, 5.834398e+001
1.066612e+003, 5.845085e+001
1.067094e+003, 5.861622e+001
1.067576e+003, 5.884619e+001
1.068059e+003, 5.910062e+001
1.068541e+003, 5.903428e+001
1.069023e+003, 5.869848e+001
1.069505e+003, 5.853707e+001
1.069987e+003, 5.920343e+001
1.070469e+003, 5.970143e+001
1.070951e+003, 5.924336e+001
1.071433e+003, 5.834377e+001
1.071916e+003, 5.800616e+001
1.072398e+003, 5.831519e+001
1.072880e+003, 5.843441e+001
1.073362e+003, 5.822998e+001
1.073844e+003, 5.796877e+001
1.074326e+003, 5.791679e+001
1.074808e+003, 5.795495e+001
1.075290e+003, 5.800306e+001
1.075772e+003, 5.804961e+001
1.076255e+003, 5.789215e+001
1.076737e+003, 5.736072e+001
1.077219e+003, 5.702876e+001
1.077701e+003, 5.714837e+001
1.078183e+003, 5.747716e+001
1.078665e+003, 5.752135e+001
1.079147e+003, 5.740038e+001
1.079629e+003, 5.741261e+001
1.080111e+003, 5.771322e+001
1.080594e+003, 5.792100e+001
1.081076e+003, 5.775494e+001
1.081558e+003, 5.760113e+001
1.082040e+003, 5.772215e+001
1.082522e+003, 5.807603e+001
1.083004e+003, 5.821437e+001
1.083486e+003, 5.815437e+001
1.083968e+003, 5.805353e+001
1.084450e+003, 5.805006e+001
1.084933e+003, 5.797628e+001
1.085415e+003, 5.765897e+001
1.085897e+003, 5.722994e+001
1.086379e+003, 5.687644e+001
1.086861e+003, 5.657679e+001
1.087343e+003, 5.651990e+001
1.087825e+003, 5.675991e+001
1.088307e+003, 5.694112e+001
1.088790e+003, 5.664744e+001
1.089272e+003, 5.619023e+001
1.089754e+003, 5.589323e+001
1.090236e+003, 5.577161e+001
1.090718e+003, 5.581802e+001
1.091200e+003, 5.621511e+001
1.091682e+003, 5.644232e+001
1.092164e+003, 5.640644e+001
1.092646e+003, 5.617294e+001
1.093129e+003, 5.567913e+001
1.093611e+003, 5.509637e+001
1.094093e+003, 5.489451e+001
1.094575e+003, 5.516940e+001
1.095057e+003, 5.542163e+001
1.095539e+003, 5.548005e+001
1.096021e+003, 5.539365e+001
1.096503e+003, 5.514275e+001
1.096986e+003, 5.478468e+001
1.097468e+003, 5.449782e+001
1.097950e+003, 5.428860e+001
1.098432e+003, 5.423096e+001
1.098914e+003, 5.438996e+001
1.099396e+003, 5.459002e+001
1.099878e+003, 5.479092e+001
1.100360e+003, 5.490992e+001
1.100843e+003, 5.481345e+001
1.101325e+003, 5.445583e+001
1.101807e+003, 5.443327e+001
1.102289e+003, 5.478643e+001
1.102771e+003, 5.503418e+001
1.103253e+003, 5.476760e+001
1.103735e+003, 5.438618e+001
1.104217e+003, 5.431641e+001
1.104699e+003, 5.449076e+001
1.105182e+003, 5.479737e+001
1.105664e+003, 5.546978e+001
1.106146e+003, 5.575036e+001
1.106628e+003, 5.551031e+001
1.107110e+003, 5.517280e+001
1.107592e+003, 5.522057e+001
1.108074e+003, 5.540213e+001
1.108556e+003, 5.502604e+001
1.109038e+003, 5.422189e+001
1.109521e+003, 5.377792e+001
1.110003e+003, 5.453625e+001
1.110485e+003, 5.493795e+001
1.110967e+003, 5.447410e+001
1.111449e+003, 5.373663e+001
1.111931e+003, 5.369262e+001
1.112413e+003, 5.417653e+001
1.112895e+003, 5.442095e+001
1.113377e+003, 5.433401e+001
1.113860e+003, 5.421879e+001
1.114342e+003, 5.433783e+001
1.114824e+003, 5.439525e+001
1.115306e+003, 5.415035e+001
1.115788e+003, 5.373548e+001
1.116270e+003, 5.363374e+001
1.116752e+003, 5.383718e+001
1.117234e+003, 5.392157e+001
1.117717e+003, 5.375055e+001
1.118199e+003, 5.355593e+001
1.118681e+003, 5.356718e+001
1.119163e+003, 5.363594e+001
1.119645e+003, 5.359649e+001
1.120127e+003, 5.343245e+001
1.120609e+003, 5.339986e+001
1.121091e+003, 5.350666e+001
1.121573e+003, 5.370913e+001
1.122056e+003, 5.407276e+001
1.122538e+003, 5.438577e+001
1.123020e+003, 5.428447e+001
1.123502e+003, 5.398646e+001
1.123984e+003, 5.384618e+001
1.124466e+003, 5.409235e+001
1.124948e+003, 5.410215e+001
1.125430e+003, 5.376628e+001
1.125913e+003, 5.346108e+001
1.126395e+003, 5.347087e+001
1.126877e+003, 5.367377e+001
1.127359e+003, 5.380153e+001
1.127841e+003, 5.388664e+001
1.128323e+003, 5.401693e+001
1.128805e+003, 5.422783e+001
1.129287e+003, 5.450286e+001
1.129770e+003, 5.494183e+001
1.130252e+003, 5.528816e+001
1.130734e+003, 5.522279e+001
1.131216e+003, 5.485143e+001
1.131698e+003, 5.460242e+001
1.132180e+003, 5.447607e+001
1.132662e+003, 5.434521e+001
1.133144e+003, 5.404930e+001
1.133626e+003, 5.384771e+001
1.134109e+003, 5.381852e+001
1.134591e+003, 5.393544e+001
1.135073e+003, 5.426468e+001
1.135555e+003, 5.476469e+001
1.136037e+003, 5.489054e+001
1.136519e+003, 5.457143e+001
1.137001e+003, 5.428034e+001
1.137483e+003, 5.446862e+001
1.137965e+003, 5.469098e+001
1.138448e+003, 5.463423e+001
1.138930e+003, 5.438358e+001
1.139412e+003, 5.420533e+001
1.139894e+003, 5.410389e+001
1.140376e+003, 5.395002e+001
1.140858e+003, 5.369062e+001
1.141340e+003, 5.351849e+001
1.141822e+003, 5.376322e+001
1.142304e+003, 5.406866e+001
1.142787e+003, 5.408115e+001
1.143269e+003, 5.377793e+001
1.143751e+003, 5.351332e+001
1.144233e+003, 5.328973e+001
1.144715e+003, 5.308638e+001
1.145197e+003, 5.287222e+001
1.145679e+003, 5.273923e+001
1.146161e+003, 5.291577e+001
1.146644e+003, 5.319561e+001
1.147126e+003, 5.327950e+001
1.147608e+003, 5.301777e+001
1.148090e+003, 5.298163e+001
1.148572e+003, 5.325549e+001
1.149054e+003, 5.352156e+001
1.149536e+003, 5.366089e+001
1.150018e+003, 5.365852e+001
1.150500e+003, 5.335939e+001
1.150983e+003, 5.292744e+001
1.151465e+003, 5.268821e+001
1.151947e+003, 5.279633e+001
1.152429e+003, 5.300533e+001
1.152911e+003, 5.339558e+001
1.153393e+003, 5.366623e+001
1.153875e+003, 5.344987e+001
1.154357e+003, 5.301769e+001
1.154840e+003, 5.325527e+001
1.155322e+003, 5.393467e+001
1.155804e+003, 5.431924e+001
1.156286e+003, 5.381903e+001
1.156768e+003, 5.342789e+001
1.157250e+003, 5.332851e+001
1.157732e+003, 5.332139e+001
1.158214e+003, 5.322271e+001
1.158697e+003, 5.305753e+001
1.159179e+003, 5.273120e+001
1.159661e+003, 5.236292e+001
1.160143e+003, 5.264111e+001
1.160625e+003, 5.529314e+001
1.161107e+003, 5.682652e+001
1.161589e+003, 5.563586e+001
1.162071e+003, 5.343155e+001
1.162553e+003, 5.226619e+001
1.163036e+003, 5.203706e+001
1.163518e+003, 5.204080e+001
1.164000e+003, 5.221364e+001
1.164482e+003, 5.243063e+001
1.164964e+003, 5.276103e+001
1.165446e+003, 5.295344e+001
1.165928e+003, 5.281687e+001
1.166410e+003, 5.250816e+001
1.166892e+003, 5.224721e+001
1.167375e+003, 5.204482e+001
1.167857e+003, 5.216750e+001
1.168339e+003, 5.266792e+001
1.168821e+003, 5.305783e+001
1.169303e+003, 5.288015e+001
1.169785e+003, 5.257402e+001
1.170267e+003, 5.236525e+001
1.170749e+003, 5.226420e+001
1.171231e+003, 5.234000e+001
1.171714e+003, 5.259037e+001
1.172196e+003, 5.274557e+001
1.172678e+003, 5.275134e+001
1.173160e+003, 5.263653e+001
1.173642e+003, 5.223754e+001
1.174124e+003, 5.188124e+001
1.174606e+003, 5.191495e+001
1.175088e+003, 5.225922e+001
1.175571e+003, 5.244085e+001
1.176053e+003, 5.245275e+001
1.176535e+003, 5.249039e+001
1.177017e+003, 5.263443e+001
1.177499e+003, 5.273500e+001
1.177981e+003, 5.253362e+001
1.178463e+003, 5.229819e+001
1.178945e+003, 5.231997e+001
1.179427e+003, 5.260917e+001
1.179910e+003, 5.290486e+001
1.180392e+003, 5.323712e+001
1.180874e+003, 5.323892e+001
1.181356e+003, 5.260285e+001
1.181838e+003, 5.197924e+001
1.182320e+003, 5.218996e+001
1.182802e+003, 5.273178e+001
1.183284e+003, 5.300985e+001
1.183767e+003, 5.293411e+001
1.184249e+003, 5.287808e+001
1.184731e+003, 5.284745e+001
1.185213e+003, 5.278843e+001
1.185695e+003, 5.262502e+001
1.186177e+003, 5.250104e+001
1.186659e+003, 5.265910e+001
1.187141e+003, 5.293322e+001
1.187624e+003, 5.308716e+001
1.188106e+003, 5.308918e+001
1.188588e+003, 5.291679e+001
1.189070e+003, 5.250203e+001
1.189552e+003, 5.232272e+001
1.190034e+003, 5.284483e+001
1.190516e+003, 5.354564e+001
1.190998e+003, 5.376806e+001
1.191480e+003, 5.370360e+001
1.191963e+003, 5.367473e+001
1.192445e+003, 5.372744e+001
1.192927e+003, 5.384028e+001
1.193409e+003, 5.402655e+001
1.193891e+003, 5.420993e+001
1.194373e+003, 5.435386e+001
1.194855e+003, 5.445310e+001
1.195337e+003, 5.449292e+001
1.195819e+003, 5.448326e+001
1.196302e+003, 5.443594e+001
1.196784e+003, 5.424556e+001
1.197266e+003, 5.432000e+001
1.197748e+003, 5.475017e+001
1.198230e+003, 5.508810e+001
1.198712e+003, 5.479447e+001
1.199194e+003, 5.432276e+001
1.199676e+003, 5.432031e+001
1.200158e+003, 5.464910e+001
1.200641e+003, 5.491225e+001
1.201123e+003, 5.501311e+001
1.201605e+003, 5.512394e+001
1.202087e+003, 5.525910e+001
1.202569e+003, 5.538569e+001
1.203051e+003, 5.545858e+001
1.203533e+003, 5.551437e+001
1.204015e+003, 5.566245e+001
1.204498e+003, 5.584088e+001
1.204980e+003, 5.581207e+001
1.205462e+003, 5.540187e+001
1.205944e+003, 5.513031e+001
1.206426e+003, 5.503981e+001
1.206908e+003, 5.508919e+001
1.207390e+003, 5.535656e+001
1.207872e+003, 5.565646e+001
1.208354e+003, 5.574421e+001
1.208837e+003, 5.564117e+001
1.209319e+003, 5.549903e+001
1.209801e+003, 5.537762e+001
1.210283e+003, 5.507563e+001
1.210765e+003, 5.449189e+001
1.211247e+003, 5.401128e+001
1.211729e+003, 5.413392e+001
1.212211e+003, 5.452055e+001
1.212694e+003, 5.478487e+001
1.213176e+003, 5.491372e+001
1.213658e+003, 5.496987e+001
1.214140e+003, 5.493988e+001
1.214622e+003, 5.492936e+001
1.215104e+003, 5.496716e+001
1.215586e+003, 5.497335e+001
1.216068e+003, 5.479066e+001
1.216551e+003, 5.457540e+001
1.217033e+003, 5.452138e+001
1.217515e+003, 5.462647e+001
1.217997e+003, 5.477217e+001
1.218479e+003, 5.499303e+001
1.218961e+003, 5.508992e+001
1.219443e+003, 5.501355e+001
1.219925e+003, 5.487396e+001
1.220407e+003, 5.478736e+001
1.220890e+003, 5.471023e+001
1.221372e+003, 5.454470e+001
1.221854e+003, 5.431709e+001
1.222336e+003, 5.430445e+001
1.222818e+003, 5.459924e+001
1.223300e+003, 5.472976e+001
1.223782e+003, 5.456581e+001
1.224264e+003, 5.439399e+001
1.224746e+003, 5.465545e+001
1.225229e+003, 5.498445e+001
1.225711e+003, 5.492865e+001
1.226193e+003, 5.450575e+001
1.226675e+003, 5.435154e+001
1.227157e+003, 5.454059e+001
1.227639e+003, 5.458519e+001
1.228121e+003, 5.433969e+001
1.228603e+003, 5.413045e+001
1.229085e+003, 5.452902e+001
1.229568e+003, 5.496070e+001
1.230050e+003, 5.470407e+001
1.230532e+003, 5.384392e+001
1.231014e+003, 5.362510e+001
1.231496e+003, 5.415432e+001
1.231978e+003, 5.430462e+001
1.232460e+003, 5.373319e+001
1.232942e+003, 5.315565e+001
1.233425e+003, 5.339729e+001
1.233907e+003, 5.382992e+001
1.234389e+003, 5.384436e+001
1.234871e+003, 5.351030e+001
1.235353e+003, 5.344993e+001
1.235835e+003, 5.368273e+001
1.236317e+003, 5.369774e+001
1.236799e+003, 5.330914e+001
1.237281e+003, 5.303487e+001
1.237764e+003, 5.350179e+001
1.238246e+003, 5.410139e+001
1.238728e+003, 5.432511e+001
1.239210e+003, 5.425200e+001
1.239692e+003, 5.420827e+001
1.240174e+003, 5.419287e+001
1.240656e+003, 5.415789e+001
1.241138e+003, 5.408810e+001
1.241621e+003, 5.402157e+001
1.242103e+003, 5.397829e+001
1.242585e+003, 5.395579e+001
1.243067e+003, 5.392775e+001
1.243549e+003, 5.392245e+001
1.244031e+003, 5.413109e+001
1.244513e+003, 5.450436e+001
1.244995e+003, 5.460376e+001
1.245478e+003, 5.428711e+001
1.245960e+003, 5.394917e+001
1.246442e+003, 5.387302e+001
1.246924e+003, 5.378377e+001
1.247406e+003, 5.346096e+001
1.247888e+003, 5.305729e+001
1.248370e+003, 5.313874e+001
1.248852e+003, 5.358339e+001
1.249334e+003, 5.390064e+001
1.249817e+003, 5.398893e+001
1.250299e+003, 5.386976e+001
1.250781e+003, 5.327063e+001
1.251263e+003, 5.280598e+001
1.251745e+003, 5.274844e+001
1.252227e+003, 5.295778e+001
1.252709e+003, 5.320215e+001
1.253191e+003, 5.341421e+001
1.253673e+003, 5.334809e+001
1.254156e+003, 5.290646e+001
1.254638e+003, 5.257754e+001
1.255120e+003, 5.255385e+001
1.255602e+003, 5.261391e+001
1.256084e+003, 5.271208e+001
1.256566e+003, 5.281874e+001
1.257048e+003, 5.283752e+001
1.257530e+003, 5.283097e+001
1.258012e+003, 5.297203e+001
1.258495e+003, 5.332069e+001
1.258977e+003, 5.346905e+001
1.259459e+003, 5.333022e+001
1.259941e+003, 5.304201e+001
1.260423e+003, 5.255625e+001
1.260905e+003, 5.213783e+001
1.261387e+003, 5.238413e+001
1.261869e+003, 5.288721e+001
1.262352e+003, 5.300497e+001
1.262834e+003, 5.261663e+001
1.263316e+003, 5.236673e+001
1.263798e+003, 5.230478e+001
1.264280e+003, 5.233900e+001
1.264762e+003, 5.247111e+001
1.265244e+003, 5.260176e+001
1.265726e+003, 5.259057e+001
1.266208e+003, 5.252515e+001
1.266691e+003, 5.252470e+001
1.267173e+003, 5.259241e+001
1.267655e+003, 5.251440e+001
1.268137e+003, 5.226197e+001
1.268619e+003, 5.207726e+001
1.269101e+003, 5.200201e+001
1.269583e+003, 5.211315e+001
1.270065e+003, 5.275739e+001
1.270548e+003, 5.340091e+001
1.271030e+003, 5.348922e+001
1.271512e+003, 5.314002e+001
1.271994e+003, 5.282605e+001
1.272476e+003, 5.254844e+001
1.272958e+003, 5.229985e+001
1.273440e+003, 5.208922e+001
1.273922e+003, 5.183924e+001
1.274405e+003, 5.137053e+001
1.274887e+003, 5.097894e+001
1.275369e+003, 5.083088e+001
1.275851e+003, 5.088107e+001
1.276333e+003, 5.109054e+001
1.276815e+003, 5.140219e+001
1.277297e+003, 5.152389e+001
1.277779e+003, 5.139698e+001
1.278261e+003, 5.113398e+001
1.278744e+003, 5.047917e+001
1.279226e+003, 5.011857e+001
1.279708e+003, 5.039857e+001
1.280190e+003, 5.096519e+001
1.280672e+003, 5.116462e+001
1.281154e+003, 5.109719e+001
1.281636e+003, 5.100158e+001
1.282118e+003, 5.091031e+001
1.282600e+003, 5.084245e+001
1.283083e+003, 5.079576e+001
1.283565e+003, 5.078593e+001
1.284047e+003, 5.081591e+001
1.284529e+003, 5.088794e+001
1.285011e+003, 5.107389e+001
1.285493e+003, 5.126820e+001
1.285975e+003, 5.125837e+001
1.286457e+003, 5.104786e+001
1.286939e+003, 5.097211e+001
1.287422e+003, 5.108104e+001
1.287904e+003, 5.127526e+001
1.288386e+003, 5.158140e+001
1.288868e+003, 5.175523e+001
1.289350e+003, 5.135647e+001
1.289832e+003, 5.083105e+001
1.290314e+003, 5.065947e+001
1.290796e+003, 5.079106e+001
1.291279e+003, 5.079248e+001
1.291761e+003, 5.064571e+001
1.292243e+003, 5.054987e+001
1.292725e+003, 5.053445e+001
1.293207e+003, 5.053115e+001
1.293689e+003, 5.046643e+001
1.294171e+003, 5.041252e+001
1.294653e+003, 5.044469e+001
1.295135e+003, 5.050749e+001
1.295618e+003, 5.048094e+001
1.296100e+003, 5.038353e+001
1.296582e+003, 5.045575e+001
1.297064e+003, 5.070859e+001
1.297546e+003, 5.082403e+001
1.298028e+003, 5.042415e+001
1.298510e+003, 5.008496e+001
1.298992e+003, 4.998544e+001
1.299475e+003, 5.003624e+001
1.299957e+003, 5.014334e+001
1.300439e+003, 5.030478e+001
1.300921e+003, 5.057682e+001
1.301403e+003, 5.091573e+001
1.301885e+003, 5.107989e+001
##END=



