##NAMES=Sakhaite
##RRUFFID=R060637
##IDEAL CHEMISTRY=Ca_48_Mg_16_Al(SiO_3_OH)_4_(CO_3_)_16_(BO_3_)_28_&#183;(H_2_O)_3_(HCl)_3_
##LOCALITY=Titovskoe, Sakha (Yakutia) Republic, Russia
##OWNER=RRUFF
##SOURCE=Michael Scott
##DESCRIPTION=Dark grey octahedron buried in calcite
##STATUS=The identification of this mineral has been confirmed by single-crystal X-ray diffraction.
##URL=rruff.info/R060637
9.059570e+001, 7.761441e+002
9.107782e+001, 7.687019e+002
9.155994e+001, 7.660935e+002
9.204205e+001, 7.717656e+002
9.252417e+001, 7.799391e+002
9.300629e+001, 7.885588e+002
9.348840e+001, 7.929133e+002
9.397052e+001, 7.884398e+002
9.445264e+001, 7.743978e+002
9.493475e+001, 7.622668e+002
9.541687e+001, 7.497863e+002
9.589898e+001, 7.371098e+002
9.638110e+001, 7.248661e+002
9.686321e+001, 7.135529e+002
9.734533e+001, 7.028574e+002
9.782745e+001, 6.914037e+002
9.830956e+001, 6.812780e+002
9.879168e+001, 6.722773e+002
9.927380e+001, 6.645308e+002
9.975591e+001, 6.583170e+002
1.002380e+002, 6.532050e+002
1.007201e+002, 6.483307e+002
1.012023e+002, 6.431963e+002
1.016844e+002, 6.378362e+002
1.021665e+002, 6.325671e+002
1.026486e+002, 6.267238e+002
1.031307e+002, 6.212537e+002
1.036128e+002, 6.171078e+002
1.040950e+002, 6.143284e+002
1.045771e+002, 6.122539e+002
1.050592e+002, 6.103988e+002
1.055413e+002, 6.087374e+002
1.060234e+002, 6.073527e+002
1.065055e+002, 6.062032e+002
1.069877e+002, 6.053066e+002
1.074698e+002, 6.049494e+002
1.079519e+002, 6.063072e+002
1.084340e+002, 6.065912e+002
1.089161e+002, 6.044847e+002
1.093982e+002, 6.004152e+002
1.098804e+002, 5.954764e+002
1.103625e+002, 5.902275e+002
1.108446e+002, 5.842531e+002
1.113267e+002, 5.803016e+002
1.118088e+002, 5.795045e+002
1.122909e+002, 5.795761e+002
1.127731e+002, 5.797598e+002
1.132552e+002, 5.798068e+002
1.137373e+002, 5.796689e+002
1.142194e+002, 5.792272e+002
1.147015e+002, 5.778248e+002
1.151836e+002, 5.773928e+002
1.156658e+002, 5.791581e+002
1.161479e+002, 5.812949e+002
1.166300e+002, 5.818763e+002
1.171121e+002, 5.801702e+002
1.175942e+002, 5.771062e+002
1.180763e+002, 5.747984e+002
1.185584e+002, 5.733112e+002
1.190406e+002, 5.721679e+002
1.195227e+002, 5.712233e+002
1.200048e+002, 5.705156e+002
1.204869e+002, 5.701428e+002
1.209690e+002, 5.701343e+002
1.214511e+002, 5.705653e+002
1.219333e+002, 5.714199e+002
1.224154e+002, 5.728290e+002
1.228975e+002, 5.744221e+002
1.233796e+002, 5.759932e+002
1.238617e+002, 5.775812e+002
1.243438e+002, 5.788221e+002
1.248260e+002, 5.794788e+002
1.253081e+002, 5.796949e+002
1.257902e+002, 5.794061e+002
1.262723e+002, 5.783630e+002
1.267544e+002, 5.770805e+002
1.272365e+002, 5.767942e+002
1.277187e+002, 5.780817e+002
1.282008e+002, 5.794736e+002
1.286829e+002, 5.803553e+002
1.291650e+002, 5.810826e+002
1.296471e+002, 5.821723e+002
1.301292e+002, 5.840240e+002
1.306114e+002, 5.865629e+002
1.310935e+002, 5.886543e+002
1.315756e+002, 5.899326e+002
1.320577e+002, 5.911063e+002
1.325398e+002, 5.925392e+002
1.330219e+002, 5.940410e+002
1.335041e+002, 5.950220e+002
1.339862e+002, 5.948074e+002
1.344683e+002, 5.929677e+002
1.349504e+002, 5.930359e+002
1.354325e+002, 5.961233e+002
1.359146e+002, 5.998204e+002
1.363968e+002, 6.027988e+002
1.368789e+002, 6.049139e+002
1.373610e+002, 6.067721e+002
1.378431e+002, 6.090107e+002
1.383252e+002, 6.117268e+002
1.388073e+002, 6.144542e+002
1.392895e+002, 6.172627e+002
1.397716e+002, 6.200396e+002
1.402537e+002, 6.227408e+002
1.407358e+002, 6.254023e+002
1.412179e+002, 6.277538e+002
1.417000e+002, 6.291534e+002
1.421821e+002, 6.296834e+002
1.426643e+002, 6.304587e+002
1.431464e+002, 6.320859e+002
1.436285e+002, 6.343598e+002
1.441106e+002, 6.365313e+002
1.445927e+002, 6.383221e+002
1.450748e+002, 6.401049e+002
1.455570e+002, 6.421976e+002
1.460391e+002, 6.446010e+002
1.465212e+002, 6.471631e+002
1.470033e+002, 6.498863e+002
1.474854e+002, 6.528271e+002
1.479675e+002, 6.554051e+002
1.484497e+002, 6.570549e+002
1.489318e+002, 6.586063e+002
1.494139e+002, 6.604812e+002
1.498960e+002, 6.627659e+002
1.503781e+002, 6.653398e+002
1.508602e+002, 6.681155e+002
1.513424e+002, 6.715303e+002
1.518245e+002, 6.741793e+002
1.523066e+002, 6.752632e+002
1.527887e+002, 6.760719e+002
1.532708e+002, 6.777430e+002
1.537529e+002, 6.806740e+002
1.542351e+002, 6.843085e+002
1.547172e+002, 6.872516e+002
1.551993e+002, 6.888791e+002
1.556814e+002, 6.904617e+002
1.561635e+002, 6.920569e+002
1.566456e+002, 6.936462e+002
1.571278e+002, 6.952237e+002
1.576099e+002, 6.967975e+002
1.580920e+002, 6.983104e+002
1.585741e+002, 6.994926e+002
1.590562e+002, 7.000446e+002
1.595383e+002, 7.006495e+002
1.600205e+002, 7.015092e+002
1.605026e+002, 7.025432e+002
1.609847e+002, 7.036005e+002
1.614668e+002, 7.046449e+002
1.619489e+002, 7.055944e+002
1.624310e+002, 7.061589e+002
1.629131e+002, 7.059453e+002
1.633953e+002, 7.057508e+002
1.638774e+002, 7.063583e+002
1.643595e+002, 7.076440e+002
1.648416e+002, 7.083137e+002
1.653237e+002, 7.071962e+002
1.658058e+002, 7.049449e+002
1.662880e+002, 7.031561e+002
1.667701e+002, 7.021760e+002
1.672522e+002, 7.015723e+002
1.677343e+002, 7.009967e+002
1.682164e+002, 7.005235e+002
1.686985e+002, 6.997281e+002
1.691807e+002, 6.977729e+002
1.696628e+002, 6.954797e+002
1.701449e+002, 6.939803e+002
1.706270e+002, 6.942112e+002
1.711091e+002, 6.952002e+002
1.715912e+002, 6.945811e+002
1.720734e+002, 6.915218e+002
1.725555e+002, 6.883015e+002
1.730376e+002, 6.860324e+002
1.735197e+002, 6.841564e+002
1.740018e+002, 6.817910e+002
1.744839e+002, 6.782396e+002
1.749661e+002, 6.738076e+002
1.754482e+002, 6.704329e+002
1.759303e+002, 6.692262e+002
1.764124e+002, 6.679110e+002
1.768945e+002, 6.660036e+002
1.773766e+002, 6.635554e+002
1.778588e+002, 6.607249e+002
1.783409e+002, 6.575712e+002
1.788230e+002, 6.540838e+002
1.793051e+002, 6.507363e+002
1.797872e+002, 6.477478e+002
1.802693e+002, 6.446760e+002
1.807515e+002, 6.413341e+002
1.812336e+002, 6.377826e+002
1.817157e+002, 6.342250e+002
1.821978e+002, 6.308141e+002
1.826799e+002, 6.275469e+002
1.831620e+002, 6.244893e+002
1.836441e+002, 6.219097e+002
1.841263e+002, 6.192508e+002
1.846084e+002, 6.161021e+002
1.850905e+002, 6.125446e+002
1.855726e+002, 6.090878e+002
1.860547e+002, 6.062797e+002
1.865368e+002, 6.042478e+002
1.870190e+002, 6.017589e+002
1.875011e+002, 5.988963e+002
1.879832e+002, 5.955784e+002
1.884653e+002, 5.914551e+002
1.889474e+002, 5.865583e+002
1.894296e+002, 5.817327e+002
1.899117e+002, 5.778226e+002
1.903938e+002, 5.748456e+002
1.908759e+002, 5.720626e+002
1.913580e+002, 5.693534e+002
1.918401e+002, 5.668417e+002
1.923223e+002, 5.648732e+002
1.928044e+002, 5.636254e+002
1.932865e+002, 5.621667e+002
1.937686e+002, 5.593775e+002
1.942507e+002, 5.555947e+002
1.947328e+002, 5.516467e+002
1.952150e+002, 5.473347e+002
1.956971e+002, 5.430812e+002
1.961792e+002, 5.398852e+002
1.966613e+002, 5.382680e+002
1.971434e+002, 5.367408e+002
1.976255e+002, 5.339195e+002
1.981077e+002, 5.302561e+002
1.985898e+002, 5.269734e+002
1.990719e+002, 5.251768e+002
1.995540e+002, 5.243864e+002
2.000361e+002, 5.224148e+002
2.005182e+002, 5.181947e+002
2.010004e+002, 5.141951e+002
2.014825e+002, 5.119858e+002
2.019646e+002, 5.110484e+002
2.024467e+002, 5.101084e+002
2.029288e+002, 5.082503e+002
2.034109e+002, 5.055298e+002
2.038930e+002, 5.029100e+002
2.043752e+002, 5.004215e+002
2.048573e+002, 4.980374e+002
2.053394e+002, 4.958774e+002
2.058215e+002, 4.938405e+002
2.063036e+002, 4.916809e+002
2.067857e+002, 4.891762e+002
2.072679e+002, 4.863049e+002
2.077500e+002, 4.835184e+002
2.082321e+002, 4.805628e+002
2.087142e+002, 4.779337e+002
2.091963e+002, 4.760937e+002
2.096784e+002, 4.747863e+002
2.101606e+002, 4.733532e+002
2.106427e+002, 4.711717e+002
2.111248e+002, 4.681533e+002
2.116069e+002, 4.652715e+002
2.120890e+002, 4.622592e+002
2.125711e+002, 4.596104e+002
2.130533e+002, 4.577488e+002
2.135354e+002, 4.564939e+002
2.140175e+002, 4.552477e+002
2.144996e+002, 4.534515e+002
2.149817e+002, 4.510007e+002
2.154638e+002, 4.486928e+002
2.159460e+002, 4.467441e+002
2.164281e+002, 4.447130e+002
2.169102e+002, 4.422237e+002
2.173923e+002, 4.393783e+002
2.178744e+002, 4.366360e+002
2.183565e+002, 4.344648e+002
2.188387e+002, 4.329607e+002
2.193208e+002, 4.312078e+002
2.198029e+002, 4.291085e+002
2.202850e+002, 4.268669e+002
2.207671e+002, 4.246138e+002
2.212492e+002, 4.223476e+002
2.217314e+002, 4.199474e+002
2.222135e+002, 4.172270e+002
2.226956e+002, 4.141755e+002
2.231777e+002, 4.115767e+002
2.236598e+002, 4.098655e+002
2.241419e+002, 4.082791e+002
2.246240e+002, 4.062539e+002
2.251062e+002, 4.037626e+002
2.255883e+002, 4.011205e+002
2.260704e+002, 3.985054e+002
2.265525e+002, 3.959525e+002
2.270346e+002, 3.935666e+002
2.275167e+002, 3.913636e+002
2.279989e+002, 3.893314e+002
2.284810e+002, 3.875827e+002
2.289631e+002, 3.861367e+002
2.294452e+002, 3.846259e+002
2.299273e+002, 3.827177e+002
2.304094e+002, 3.805445e+002
2.308916e+002, 3.784655e+002
2.313737e+002, 3.767664e+002
2.318558e+002, 3.750671e+002
2.323379e+002, 3.728013e+002
2.328200e+002, 3.698680e+002
2.333021e+002, 3.670765e+002
2.337843e+002, 3.649711e+002
2.342664e+002, 3.633368e+002
2.347485e+002, 3.619079e+002
2.352306e+002, 3.606915e+002
2.357127e+002, 3.595919e+002
2.361948e+002, 3.585237e+002
2.366770e+002, 3.575222e+002
2.371591e+002, 3.563748e+002
2.376412e+002, 3.547679e+002
2.381233e+002, 3.530108e+002
2.386054e+002, 3.514560e+002
2.390875e+002, 3.502870e+002
2.395697e+002, 3.492559e+002
2.400518e+002, 3.478993e+002
2.405339e+002, 3.460358e+002
2.410160e+002, 3.444186e+002
2.414981e+002, 3.436099e+002
2.419802e+002, 3.430638e+002
2.424624e+002, 3.422866e+002
2.429445e+002, 3.411100e+002
2.434266e+002, 3.396444e+002
2.439087e+002, 3.379622e+002
2.443908e+002, 3.358288e+002
2.448729e+002, 3.341453e+002
2.453550e+002, 3.335465e+002
2.458372e+002, 3.332676e+002
2.463193e+002, 3.326217e+002
2.468014e+002, 3.313590e+002
2.472835e+002, 3.298578e+002
2.477656e+002, 3.288409e+002
2.482477e+002, 3.287055e+002
2.487299e+002, 3.280844e+002
2.492120e+002, 3.262061e+002
2.496941e+002, 3.241270e+002
2.501762e+002, 3.227131e+002
2.506583e+002, 3.222163e+002
2.511404e+002, 3.221710e+002
2.516226e+002, 3.218065e+002
2.521047e+002, 3.210069e+002
2.525868e+002, 3.201385e+002
2.530689e+002, 3.191181e+002
2.535510e+002, 3.181306e+002
2.540331e+002, 3.172759e+002
2.545153e+002, 3.165917e+002
2.549974e+002, 3.160843e+002
2.554795e+002, 3.158262e+002
2.559616e+002, 3.161318e+002
2.564437e+002, 3.159848e+002
2.569258e+002, 3.150284e+002
2.574080e+002, 3.139506e+002
2.578901e+002, 3.131485e+002
2.583722e+002, 3.127184e+002
2.588543e+002, 3.125529e+002
2.593364e+002, 3.125392e+002
2.598185e+002, 3.127955e+002
2.603007e+002, 3.128994e+002
2.607828e+002, 3.128540e+002
2.612649e+002, 3.126910e+002
2.617470e+002, 3.123570e+002
2.622291e+002, 3.118869e+002
2.627112e+002, 3.114369e+002
2.631934e+002, 3.111914e+002
2.636755e+002, 3.112157e+002
2.641576e+002, 3.112160e+002
2.646397e+002, 3.111620e+002
2.651218e+002, 3.111124e+002
2.656039e+002, 3.109704e+002
2.660861e+002, 3.108143e+002
2.665682e+002, 3.109642e+002
2.670503e+002, 3.118457e+002
2.675324e+002, 3.137224e+002
2.680145e+002, 3.145238e+002
2.684966e+002, 3.134506e+002
2.689788e+002, 3.122638e+002
2.694609e+002, 3.118069e+002
2.699430e+002, 3.120355e+002
2.704251e+002, 3.124798e+002
2.709072e+002, 3.127787e+002
2.713893e+002, 3.129266e+002
2.718715e+002, 3.130215e+002
2.723536e+002, 3.130459e+002
2.728357e+002, 3.130468e+002
2.733178e+002, 3.128374e+002
2.737999e+002, 3.125893e+002
2.742820e+002, 3.127812e+002
2.747642e+002, 3.138026e+002
2.752463e+002, 3.155637e+002
2.757284e+002, 3.169288e+002
2.762105e+002, 3.179632e+002
2.766926e+002, 3.186518e+002
2.771747e+002, 3.186777e+002
2.776568e+002, 3.183486e+002
2.781389e+002, 3.183392e+002
2.786211e+002, 3.190415e+002
2.791032e+002, 3.203012e+002
2.795853e+002, 3.214858e+002
2.800674e+002, 3.227712e+002
2.805495e+002, 3.238074e+002
2.810316e+002, 3.243827e+002
2.815138e+002, 3.246659e+002
2.819959e+002, 3.249265e+002
2.824780e+002, 3.252646e+002
2.829601e+002, 3.256962e+002
2.834422e+002, 3.262738e+002
2.839243e+002, 3.270546e+002
2.844065e+002, 3.278516e+002
2.848886e+002, 3.285099e+002
2.853707e+002, 3.291931e+002
2.858528e+002, 3.302368e+002
2.863349e+002, 3.317961e+002
2.868170e+002, 3.334793e+002
2.872992e+002, 3.346172e+002
2.877813e+002, 3.351154e+002
2.882634e+002, 3.354509e+002
2.887455e+002, 3.355475e+002
2.892276e+002, 3.355724e+002
2.897097e+002, 3.356971e+002
2.901919e+002, 3.359571e+002
2.906740e+002, 3.363804e+002
2.911561e+002, 3.371076e+002
2.916382e+002, 3.382144e+002
2.921203e+002, 3.389666e+002
2.926024e+002, 3.390508e+002
2.930846e+002, 3.388834e+002
2.935667e+002, 3.387924e+002
2.940488e+002, 3.388263e+002
2.945309e+002, 3.390605e+002
2.950130e+002, 3.396612e+002
2.954951e+002, 3.406263e+002
2.959773e+002, 3.412886e+002
2.964594e+002, 3.416413e+002
2.969415e+002, 3.416695e+002
2.974236e+002, 3.410748e+002
2.979057e+002, 3.399461e+002
2.983878e+002, 3.391954e+002
2.988700e+002, 3.396682e+002
2.993521e+002, 3.411058e+002
2.998342e+002, 3.417369e+002
3.003163e+002, 3.408561e+002
3.007984e+002, 3.398248e+002
3.012805e+002, 3.394191e+002
3.017627e+002, 3.395507e+002
3.022448e+002, 3.397930e+002
3.027269e+002, 3.399735e+002
3.032090e+002, 3.400773e+002
3.036911e+002, 3.400874e+002
3.041732e+002, 3.400450e+002
3.046554e+002, 3.398667e+002
3.051375e+002, 3.394012e+002
3.056196e+002, 3.387652e+002
3.061017e+002, 3.382800e+002
3.065838e+002, 3.381030e+002
3.070659e+002, 3.380698e+002
3.075481e+002, 3.378225e+002
3.080302e+002, 3.372705e+002
3.085123e+002, 3.368902e+002
3.089944e+002, 3.369626e+002
3.094765e+002, 3.372813e+002
3.099586e+002, 3.375045e+002
3.104408e+002, 3.375465e+002
3.109229e+002, 3.374716e+002
3.114050e+002, 3.372950e+002
3.118871e+002, 3.369987e+002
3.123692e+002, 3.368800e+002
3.128513e+002, 3.372695e+002
3.133335e+002, 3.377394e+002
3.138156e+002, 3.376754e+002
3.142977e+002, 3.369688e+002
3.147798e+002, 3.362305e+002
3.152619e+002, 3.361008e+002
3.157440e+002, 3.365283e+002
3.162262e+002, 3.366617e+002
3.167083e+002, 3.362799e+002
3.171904e+002, 3.356860e+002
3.176725e+002, 3.349807e+002
3.181546e+002, 3.342040e+002
3.186367e+002, 3.337357e+002
3.191188e+002, 3.339820e+002
3.196010e+002, 3.347382e+002
3.200831e+002, 3.349901e+002
3.205652e+002, 3.344591e+002
3.210473e+002, 3.337237e+002
3.215294e+002, 3.330317e+002
3.220115e+002, 3.323840e+002
3.224937e+002, 3.317480e+002
3.229758e+002, 3.310731e+002
3.234579e+002, 3.304548e+002
3.239400e+002, 3.302238e+002
3.244221e+002, 3.307466e+002
3.249042e+002, 3.308273e+002
3.253864e+002, 3.296300e+002
3.258685e+002, 3.277630e+002
3.263506e+002, 3.264212e+002
3.268327e+002, 3.260392e+002
3.273148e+002, 3.260565e+002
3.277969e+002, 3.256087e+002
3.282791e+002, 3.246513e+002
3.287612e+002, 3.236414e+002
3.292433e+002, 3.226425e+002
3.297254e+002, 3.216460e+002
3.302075e+002, 3.205956e+002
3.306896e+002, 3.194814e+002
3.311718e+002, 3.184698e+002
3.316539e+002, 3.177628e+002
3.321360e+002, 3.173912e+002
3.326181e+002, 3.169179e+002
3.331002e+002, 3.164416e+002
3.335823e+002, 3.157783e+002
3.340645e+002, 3.147153e+002
3.345466e+002, 3.132921e+002
3.350287e+002, 3.117622e+002
3.355108e+002, 3.102666e+002
3.359929e+002, 3.088211e+002
3.364750e+002, 3.075439e+002
3.369572e+002, 3.065532e+002
3.374393e+002, 3.055685e+002
3.379214e+002, 3.044094e+002
3.384035e+002, 3.031589e+002
3.388856e+002, 3.020845e+002
3.393677e+002, 3.013613e+002
3.398499e+002, 3.007694e+002
3.403320e+002, 2.996470e+002
3.408141e+002, 2.974751e+002
3.412962e+002, 2.957851e+002
3.417783e+002, 2.953940e+002
3.422604e+002, 2.954536e+002
3.427426e+002, 2.948025e+002
3.432247e+002, 2.931116e+002
3.437068e+002, 2.909948e+002
3.441889e+002, 2.893364e+002
3.446710e+002, 2.884689e+002
3.451531e+002, 2.870416e+002
3.456353e+002, 2.843315e+002
3.461174e+002, 2.815690e+002
3.465995e+002, 2.797944e+002
3.470816e+002, 2.790352e+002
3.475637e+002, 2.785623e+002
3.480458e+002, 2.777837e+002
3.485280e+002, 2.766836e+002
3.490101e+002, 2.753856e+002
3.494922e+002, 2.736979e+002
3.499743e+002, 2.720428e+002
3.504564e+002, 2.706135e+002
3.509385e+002, 2.693723e+002
3.514207e+002, 2.682167e+002
3.519028e+002, 2.671058e+002
3.523849e+002, 2.660121e+002
3.528670e+002, 2.647962e+002
3.533491e+002, 2.630390e+002
3.538312e+002, 2.616827e+002
3.543134e+002, 2.611262e+002
3.547955e+002, 2.609201e+002
3.552776e+002, 2.605226e+002
3.557597e+002, 2.597494e+002
3.562418e+002, 2.588258e+002
3.567239e+002, 2.581419e+002
3.572061e+002, 2.579340e+002
3.576882e+002, 2.574767e+002
3.581703e+002, 2.563669e+002
3.586524e+002, 2.553282e+002
3.591345e+002, 2.550207e+002
3.596166e+002, 2.553850e+002
3.600987e+002, 2.557510e+002
3.605808e+002, 2.554186e+002
3.610630e+002, 2.542752e+002
3.615451e+002, 2.535185e+002
3.620272e+002, 2.533930e+002
3.625093e+002, 2.533708e+002
3.629914e+002, 2.533460e+002
3.634735e+002, 2.532903e+002
3.639557e+002, 2.531682e+002
3.644378e+002, 2.529460e+002
3.649199e+002, 2.526766e+002
3.654020e+002, 2.525842e+002
3.658841e+002, 2.527494e+002
3.663662e+002, 2.530038e+002
3.668484e+002, 2.534360e+002
3.673305e+002, 2.538884e+002
3.678126e+002, 2.542051e+002
3.682947e+002, 2.543374e+002
3.687768e+002, 2.543588e+002
3.692589e+002, 2.543566e+002
3.697411e+002, 2.542723e+002
3.702232e+002, 2.543322e+002
3.707053e+002, 2.546045e+002
3.711874e+002, 2.549601e+002
3.716695e+002, 2.553568e+002
3.721516e+002, 2.557790e+002
3.726338e+002, 2.562257e+002
3.731159e+002, 2.567269e+002
3.735980e+002, 2.572749e+002
3.740801e+002, 2.576451e+002
3.745622e+002, 2.577719e+002
3.750443e+002, 2.577787e+002
3.755265e+002, 2.575440e+002
3.760086e+002, 2.572592e+002
3.764907e+002, 2.572123e+002
3.769728e+002, 2.575533e+002
3.774549e+002, 2.581852e+002
3.779370e+002, 2.589302e+002
3.784192e+002, 2.598484e+002
3.789013e+002, 2.607088e+002
3.793834e+002, 2.615354e+002
3.798655e+002, 2.622303e+002
3.803476e+002, 2.626923e+002
3.808297e+002, 2.629030e+002
3.813119e+002, 2.629567e+002
3.817940e+002, 2.627373e+002
3.822761e+002, 2.622614e+002
3.827582e+002, 2.625294e+002
3.832403e+002, 2.644983e+002
3.837224e+002, 2.662357e+002
3.842046e+002, 2.662135e+002
3.846867e+002, 2.648371e+002
3.851688e+002, 2.636013e+002
3.856509e+002, 2.633677e+002
3.861330e+002, 2.638247e+002
3.866151e+002, 2.643508e+002
3.870973e+002, 2.650093e+002
3.875794e+002, 2.654968e+002
3.880615e+002, 2.655370e+002
3.885436e+002, 2.653169e+002
3.890257e+002, 2.650706e+002
3.895078e+002, 2.648128e+002
3.899900e+002, 2.645864e+002
3.904721e+002, 2.645426e+002
3.909542e+002, 2.646277e+002
3.914363e+002, 2.644070e+002
3.919184e+002, 2.636682e+002
3.924005e+002, 2.626371e+002
3.928827e+002, 2.615960e+002
3.933648e+002, 2.605369e+002
3.938469e+002, 2.595539e+002
3.943290e+002, 2.586655e+002
3.948111e+002, 2.578860e+002
3.952932e+002, 2.573378e+002
3.957754e+002, 2.570657e+002
3.962575e+002, 2.566868e+002
3.967396e+002, 2.557974e+002
3.972217e+002, 2.544382e+002
3.977038e+002, 2.532159e+002
3.981859e+002, 2.522854e+002
3.986681e+002, 2.513742e+002
3.991501e+002, 2.502694e+002
3.996323e+002, 2.490204e+002
4.001144e+002, 2.478301e+002
4.005965e+002, 2.468193e+002
4.010786e+002, 2.459018e+002
4.015607e+002, 2.448352e+002
4.020428e+002, 2.435438e+002
4.025250e+002, 2.422581e+002
4.030071e+002, 2.409385e+002
4.034892e+002, 2.396781e+002
4.039713e+002, 2.386753e+002
4.044534e+002, 2.379553e+002
4.049355e+002, 2.372136e+002
4.054177e+002, 2.360649e+002
4.058998e+002, 2.343913e+002
4.063819e+002, 2.329313e+002
4.068640e+002, 2.318273e+002
4.073461e+002, 2.307783e+002
4.078282e+002, 2.297207e+002
4.083104e+002, 2.285948e+002
4.087925e+002, 2.272499e+002
4.092746e+002, 2.255425e+002
4.097567e+002, 2.236216e+002
4.102388e+002, 2.221524e+002
4.107209e+002, 2.217053e+002
4.112031e+002, 2.209885e+002
4.116852e+002, 2.197095e+002
4.121673e+002, 2.182210e+002
4.126494e+002, 2.168629e+002
4.131315e+002, 2.157211e+002
4.136136e+002, 2.146441e+002
4.140958e+002, 2.134124e+002
4.145779e+002, 2.119498e+002
4.150600e+002, 2.106173e+002
4.155421e+002, 2.094971e+002
4.160242e+002, 2.084422e+002
4.165063e+002, 2.075307e+002
4.169885e+002, 2.066411e+002
4.174706e+002, 2.055090e+002
4.179527e+002, 2.038831e+002
4.184348e+002, 2.019588e+002
4.189169e+002, 2.003999e+002
4.193990e+002, 1.993562e+002
4.198812e+002, 1.983714e+002
4.203633e+002, 1.974268e+002
4.208454e+002, 1.964156e+002
4.213275e+002, 1.951854e+002
4.218096e+002, 1.936936e+002
4.222917e+002, 1.921950e+002
4.227739e+002, 1.910149e+002
4.232560e+002, 1.901325e+002
4.237381e+002, 1.890731e+002
4.242202e+002, 1.876956e+002
4.247023e+002, 1.862178e+002
4.251844e+002, 1.847003e+002
4.256666e+002, 1.831988e+002
4.261487e+002, 1.819172e+002
4.266308e+002, 1.811142e+002
4.271129e+002, 1.805001e+002
4.275950e+002, 1.796385e+002
4.280771e+002, 1.785101e+002
4.285593e+002, 1.773622e+002
4.290414e+002, 1.764095e+002
4.295235e+002, 1.754724e+002
4.300056e+002, 1.741550e+002
4.304877e+002, 1.722406e+002
4.309698e+002, 1.704370e+002
4.314520e+002, 1.691897e+002
4.319341e+002, 1.682934e+002
4.324162e+002, 1.673638e+002
4.328983e+002, 1.663230e+002
4.333804e+002, 1.651468e+002
4.338625e+002, 1.637218e+002
4.343447e+002, 1.619860e+002
4.348268e+002, 1.606331e+002
4.353089e+002, 1.598887e+002
4.357910e+002, 1.593593e+002
4.362731e+002, 1.589661e+002
4.367552e+002, 1.585952e+002
4.372374e+002, 1.579215e+002
4.377195e+002, 1.567167e+002
4.382016e+002, 1.551478e+002
4.386837e+002, 1.538723e+002
4.391658e+002, 1.531057e+002
4.396479e+002, 1.523604e+002
4.401301e+002, 1.515571e+002
4.406122e+002, 1.507922e+002
4.410943e+002, 1.502177e+002
4.415764e+002, 1.498371e+002
4.420585e+002, 1.494621e+002
4.425406e+002, 1.488913e+002
4.430227e+002, 1.481178e+002
4.435049e+002, 1.471919e+002
4.439870e+002, 1.457560e+002
4.444691e+002, 1.445432e+002
4.449512e+002, 1.439454e+002
4.454333e+002, 1.436999e+002
4.459154e+002, 1.433639e+002
4.463976e+002, 1.427145e+002
4.468797e+002, 1.418580e+002
4.473618e+002, 1.410021e+002
4.478439e+002, 1.401091e+002
4.483260e+002, 1.393309e+002
4.488081e+002, 1.387574e+002
4.492903e+002, 1.382588e+002
4.497724e+002, 1.377540e+002
4.502545e+002, 1.372403e+002
4.507366e+002, 1.367690e+002
4.512187e+002, 1.364019e+002
4.517008e+002, 1.361136e+002
4.521830e+002, 1.358295e+002
4.526651e+002, 1.355919e+002
4.531472e+002, 1.352506e+002
4.536293e+002, 1.345628e+002
4.541114e+002, 1.337512e+002
4.545935e+002, 1.331395e+002
4.550757e+002, 1.328295e+002
4.555578e+002, 1.326710e+002
4.560399e+002, 1.326620e+002
4.565220e+002, 1.327326e+002
4.570041e+002, 1.325205e+002
4.574862e+002, 1.318217e+002
4.579684e+002, 1.310239e+002
4.584505e+002, 1.307691e+002
4.589326e+002, 1.310667e+002
4.594147e+002, 1.309538e+002
4.598968e+002, 1.298708e+002
4.603789e+002, 1.285896e+002
4.608611e+002, 1.276925e+002
4.613432e+002, 1.272141e+002
4.618253e+002, 1.271023e+002
4.623074e+002, 1.274027e+002
4.627895e+002, 1.279673e+002
4.632716e+002, 1.281778e+002
4.637538e+002, 1.279412e+002
4.642359e+002, 1.275028e+002
4.647180e+002, 1.267410e+002
4.652001e+002, 1.258661e+002
4.656822e+002, 1.250406e+002
4.661643e+002, 1.243185e+002
4.666465e+002, 1.237556e+002
4.671286e+002, 1.234212e+002
4.676107e+002, 1.233280e+002
4.680928e+002, 1.233161e+002
4.685749e+002, 1.237107e+002
4.690570e+002, 1.238323e+002
4.695392e+002, 1.233040e+002
4.700213e+002, 1.224355e+002
4.705034e+002, 1.216936e+002
4.709855e+002, 1.212857e+002
4.714676e+002, 1.210415e+002
4.719497e+002, 1.206475e+002
4.724319e+002, 1.200528e+002
4.729140e+002, 1.195396e+002
4.733961e+002, 1.192805e+002
4.738782e+002, 1.190027e+002
4.743603e+002, 1.185500e+002
4.748424e+002, 1.179395e+002
4.753246e+002, 1.172653e+002
4.758067e+002, 1.165391e+002
4.762888e+002, 1.158062e+002
4.767709e+002, 1.151982e+002
4.772530e+002, 1.147536e+002
4.777351e+002, 1.141996e+002
4.782173e+002, 1.132968e+002
4.786994e+002, 1.122685e+002
4.791815e+002, 1.114863e+002
4.796636e+002, 1.110269e+002
4.801457e+002, 1.105875e+002
4.806278e+002, 1.099629e+002
4.811100e+002, 1.092693e+002
4.815920e+002, 1.087601e+002
4.820742e+002, 1.084880e+002
4.825563e+002, 1.081978e+002
4.830384e+002, 1.076252e+002
4.835205e+002, 1.067786e+002
4.840026e+002, 1.061169e+002
4.844847e+002, 1.058786e+002
4.849669e+002, 1.055561e+002
4.854490e+002, 1.048054e+002
4.859311e+002, 1.038557e+002
4.864132e+002, 1.031461e+002
4.868953e+002, 1.028360e+002
4.873774e+002, 1.026914e+002
4.878596e+002, 1.023307e+002
4.883417e+002, 1.016670e+002
4.888238e+002, 1.010093e+002
4.893059e+002, 1.003172e+002
4.897880e+002, 9.967018e+001
4.902701e+002, 9.904073e+001
4.907523e+002, 9.849216e+001
4.912344e+002, 9.818092e+001
4.917165e+002, 9.823486e+001
4.921986e+002, 9.849625e+001
4.926807e+002, 9.852599e+001
4.931628e+002, 9.825723e+001
4.936450e+002, 9.794223e+001
4.941271e+002, 9.756987e+001
4.946092e+002, 9.721638e+001
4.950913e+002, 9.696701e+001
4.955734e+002, 9.681026e+001
4.960555e+002, 9.661172e+001
4.965377e+002, 9.620131e+001
4.970198e+002, 9.568645e+001
4.975019e+002, 9.543685e+001
4.979840e+002, 9.554726e+001
4.984661e+002, 9.549258e+001
4.989482e+002, 9.480630e+001
4.994304e+002, 9.383237e+001
4.999125e+002, 9.323996e+001
5.003946e+002, 9.315825e+001
5.008767e+002, 9.321824e+001
5.013588e+002, 9.337917e+001
5.018409e+002, 9.352072e+001
5.023231e+002, 9.337167e+001
5.028052e+002, 9.287333e+001
5.032873e+002, 9.231614e+001
5.037694e+002, 9.194771e+001
5.042515e+002, 9.177377e+001
5.047336e+002, 9.180428e+001
5.052158e+002, 9.213000e+001
5.056979e+002, 9.253285e+001
5.061800e+002, 9.321840e+001
5.066621e+002, 9.384742e+001
5.071442e+002, 9.376151e+001
5.076263e+002, 9.275911e+001
5.081085e+002, 9.150448e+001
5.085906e+002, 9.108305e+001
5.090727e+002, 9.182617e+001
5.095548e+002, 9.220106e+001
5.100369e+002, 9.189069e+001
5.105190e+002, 9.152577e+001
5.110012e+002, 9.136038e+001
5.114833e+002, 9.131245e+001
5.119654e+002, 9.115148e+001
5.124475e+002, 9.071507e+001
5.129296e+002, 9.026931e+001
5.134117e+002, 9.042537e+001
5.138939e+002, 9.130909e+001
5.143760e+002, 9.181363e+001
5.148581e+002, 9.147356e+001
5.153402e+002, 9.089456e+001
5.158223e+002, 9.053601e+001
5.163044e+002, 9.039077e+001
5.167866e+002, 9.036286e+001
5.172687e+002, 9.045640e+001
5.177508e+002, 9.061997e+001
5.182329e+002, 9.082717e+001
5.187150e+002, 9.106770e+001
5.191971e+002, 9.122114e+001
5.196793e+002, 9.121510e+001
5.201614e+002, 9.110653e+001
5.206435e+002, 9.101661e+001
5.211256e+002, 9.094446e+001
5.216077e+002, 9.088611e+001
5.220898e+002, 9.082734e+001
5.225720e+002, 9.079143e+001
5.230541e+002, 9.085589e+001
5.235362e+002, 9.098369e+001
5.240183e+002, 9.098347e+001
5.245004e+002, 9.068615e+001
5.249825e+002, 9.018986e+001
5.254647e+002, 9.001540e+001
5.259468e+002, 9.059937e+001
5.264289e+002, 9.088108e+001
5.269110e+002, 9.050507e+001
5.273931e+002, 8.999113e+001
5.278752e+002, 8.974687e+001
5.283574e+002, 8.982327e+001
5.288395e+002, 9.004321e+001
5.293216e+002, 9.030659e+001
5.298037e+002, 9.058714e+001
5.302858e+002, 9.070705e+001
5.307679e+002, 9.060048e+001
5.312501e+002, 9.048483e+001
5.317322e+002, 9.049155e+001
5.322143e+002, 9.051817e+001
5.326964e+002, 9.045164e+001
5.331785e+002, 9.026683e+001
5.336606e+002, 9.004703e+001
5.341428e+002, 8.979052e+001
5.346249e+002, 8.954782e+001
5.351070e+002, 8.943505e+001
5.355891e+002, 8.947129e+001
5.360712e+002, 8.959283e+001
5.365533e+002, 8.981940e+001
5.370355e+002, 9.009290e+001
5.375176e+002, 9.008300e+001
5.379997e+002, 8.938573e+001
5.384818e+002, 8.892411e+001
5.389639e+002, 8.918051e+001
5.394460e+002, 8.971293e+001
5.399282e+002, 9.000261e+001
5.404103e+002, 8.993113e+001
5.408924e+002, 8.963482e+001
5.413745e+002, 8.922974e+001
5.418566e+002, 8.871032e+001
5.423387e+002, 8.827529e+001
5.428209e+002, 8.800679e+001
5.433029e+002, 8.773157e+001
5.437850e+002, 8.741484e+001
5.442672e+002, 8.707464e+001
5.447493e+002, 8.670817e+001
5.452314e+002, 8.632058e+001
5.457135e+002, 8.599163e+001
5.461956e+002, 8.581003e+001
5.466777e+002, 8.577070e+001
5.471599e+002, 8.587434e+001
5.476420e+002, 8.627177e+001
5.481241e+002, 8.649194e+001
5.486062e+002, 8.600027e+001
5.490883e+002, 8.518665e+001
5.495704e+002, 8.469769e+001
5.500526e+002, 8.478171e+001
5.505347e+002, 8.490176e+001
5.510168e+002, 8.462694e+001
5.514989e+002, 8.416207e+001
5.519810e+002, 8.395853e+001
5.524631e+002, 8.411417e+001
5.529453e+002, 8.438583e+001
5.534274e+002, 8.456009e+001
5.539095e+002, 8.463647e+001
5.543916e+002, 8.469272e+001
5.548737e+002, 8.480972e+001
5.553558e+002, 8.481406e+001
5.558380e+002, 8.451820e+001
5.563201e+002, 8.414642e+001
5.568022e+002, 8.400124e+001
5.572843e+002, 8.414573e+001
5.577664e+002, 8.437900e+001
5.582485e+002, 8.445669e+001
5.587307e+002, 8.436874e+001
5.592128e+002, 8.441441e+001
5.596949e+002, 8.479675e+001
5.601770e+002, 8.501324e+001
5.606591e+002, 8.461750e+001
5.611412e+002, 8.410612e+001
5.616234e+002, 8.414741e+001
5.621055e+002, 8.494672e+001
5.625876e+002, 8.588756e+001
5.630697e+002, 8.649696e+001
5.635518e+002, 8.681864e+001
5.640339e+002, 8.695760e+001
5.645161e+002, 8.689411e+001
5.649982e+002, 8.681119e+001
5.654803e+002, 8.681800e+001
5.659624e+002, 8.691727e+001
5.664445e+002, 8.709134e+001
5.669266e+002, 8.745084e+001
5.674088e+002, 8.772755e+001
5.678909e+002, 8.771889e+001
5.683730e+002, 8.762935e+001
5.688551e+002, 8.779092e+001
5.693372e+002, 8.822033e+001
5.698193e+002, 8.857957e+001
5.703015e+002, 8.853928e+001
5.707836e+002, 8.811966e+001
5.712657e+002, 8.771416e+001
5.717478e+002, 8.724529e+001
5.722299e+002, 8.690060e+001
5.727120e+002, 8.679539e+001
5.731942e+002, 8.676552e+001
5.736763e+002, 8.664632e+001
5.741584e+002, 8.641909e+001
5.746405e+002, 8.620307e+001
5.751226e+002, 8.613273e+001
5.756047e+002, 8.616344e+001
5.760869e+002, 8.608875e+001
5.765690e+002, 8.587317e+001
5.770511e+002, 8.569388e+001
5.775332e+002, 8.557031e+001
5.780153e+002, 8.557973e+001
5.784974e+002, 8.588972e+001
5.789796e+002, 8.660818e+001
5.794617e+002, 8.714888e+001
5.799438e+002, 8.712777e+001
5.804259e+002, 8.691051e+001
5.809080e+002, 8.689300e+001
5.813901e+002, 8.710159e+001
5.818723e+002, 8.744032e+001
5.823544e+002, 8.788271e+001
5.828365e+002, 8.834544e+001
5.833186e+002, 8.853916e+001
5.838007e+002, 8.816966e+001
5.842828e+002, 8.797732e+001
5.847650e+002, 8.799120e+001
5.852471e+002, 8.816001e+001
5.857292e+002, 8.855061e+001
5.862113e+002, 8.907446e+001
5.866934e+002, 8.949049e+001
5.871755e+002, 8.961143e+001
5.876577e+002, 8.959921e+001
5.881398e+002, 8.984966e+001
5.886219e+002, 9.040788e+001
5.891040e+002, 9.092616e+001
5.895861e+002, 9.133432e+001
5.900682e+002, 9.166029e+001
5.905504e+002, 9.182285e+001
5.910325e+002, 9.187781e+001
5.915146e+002, 9.220876e+001
5.919967e+002, 9.333458e+001
5.924788e+002, 9.444130e+001
5.929609e+002, 9.465794e+001
5.934431e+002, 9.426182e+001
5.939252e+002, 9.410658e+001
5.944073e+002, 9.450634e+001
5.948894e+002, 9.518552e+001
5.953715e+002, 9.576284e+001
5.958536e+002, 9.618972e+001
5.963358e+002, 9.674453e+001
5.968179e+002, 9.773154e+001
5.973000e+002, 9.849128e+001
5.977821e+002, 9.857765e+001
5.982642e+002, 9.837138e+001
5.987463e+002, 9.839029e+001
5.992285e+002, 9.881552e+001
5.997106e+002, 9.952180e+001
6.001927e+002, 1.005165e+002
6.006748e+002, 1.017779e+002
6.011569e+002, 1.025559e+002
6.016390e+002, 1.026408e+002
6.021212e+002, 1.026137e+002
6.026033e+002, 1.027632e+002
6.030854e+002, 1.030222e+002
6.035675e+002, 1.033089e+002
6.040496e+002, 1.036426e+002
6.045317e+002, 1.039207e+002
6.050139e+002, 1.038678e+002
6.054960e+002, 1.038276e+002
6.059781e+002, 1.044930e+002
6.064602e+002, 1.058519e+002
6.069423e+002, 1.070337e+002
6.074244e+002, 1.073774e+002
6.079066e+002, 1.070741e+002
6.083887e+002, 1.069857e+002
6.088708e+002, 1.071713e+002
6.093529e+002, 1.075099e+002
6.098350e+002, 1.081328e+002
6.103171e+002, 1.087916e+002
6.107993e+002, 1.093198e+002
6.112814e+002, 1.097210e+002
6.117635e+002, 1.100728e+002
6.122456e+002, 1.104036e+002
6.127277e+002, 1.107497e+002
6.132098e+002, 1.112081e+002
6.136920e+002, 1.117921e+002
6.141741e+002, 1.123670e+002
6.146562e+002, 1.129419e+002
6.151383e+002, 1.134436e+002
6.156204e+002, 1.137280e+002
6.161025e+002, 1.138438e+002
6.165847e+002, 1.141002e+002
6.170668e+002, 1.147029e+002
6.175489e+002, 1.153220e+002
6.180310e+002, 1.157259e+002
6.185131e+002, 1.159966e+002
6.189952e+002, 1.162320e+002
6.194774e+002, 1.164747e+002
6.199595e+002, 1.169475e+002
6.204416e+002, 1.179980e+002
6.209237e+002, 1.197073e+002
6.214058e+002, 1.208134e+002
6.218879e+002, 1.207008e+002
6.223701e+002, 1.207246e+002
6.228522e+002, 1.213189e+002
6.233343e+002, 1.220937e+002
6.238164e+002, 1.225508e+002
6.242985e+002, 1.226292e+002
6.247806e+002, 1.228502e+002
6.252628e+002, 1.239185e+002
6.257448e+002, 1.254104e+002
6.262269e+002, 1.259905e+002
6.267090e+002, 1.255343e+002
6.271912e+002, 1.253972e+002
6.276733e+002, 1.263211e+002
6.281554e+002, 1.278033e+002
6.286375e+002, 1.289333e+002
6.291196e+002, 1.296901e+002
6.296017e+002, 1.302990e+002
6.300839e+002, 1.306698e+002
6.305660e+002, 1.310145e+002
6.310481e+002, 1.314572e+002
6.315302e+002, 1.319980e+002
6.320123e+002, 1.326009e+002
6.324944e+002, 1.332464e+002
6.329766e+002, 1.339676e+002
6.334587e+002, 1.348667e+002
6.339408e+002, 1.360246e+002
6.344229e+002, 1.369520e+002
6.349050e+002, 1.374493e+002
6.353871e+002, 1.379593e+002
6.358693e+002, 1.387101e+002
6.363514e+002, 1.395828e+002
6.368335e+002, 1.404107e+002
6.373156e+002, 1.411596e+002
6.377977e+002, 1.418231e+002
6.382798e+002, 1.422603e+002
6.387620e+002, 1.426450e+002
6.392441e+002, 1.434368e+002
6.397262e+002, 1.446600e+002
6.402083e+002, 1.456906e+002
6.406904e+002, 1.460912e+002
6.411725e+002, 1.460356e+002
6.416547e+002, 1.461035e+002
6.421368e+002, 1.462263e+002
6.426189e+002, 1.465943e+002
6.431010e+002, 1.473954e+002
6.435831e+002, 1.482709e+002
6.440652e+002, 1.490964e+002
6.445474e+002, 1.498004e+002
6.450295e+002, 1.502664e+002
6.455116e+002, 1.504072e+002
6.459937e+002, 1.503956e+002
6.464758e+002, 1.505676e+002
6.469579e+002, 1.509194e+002
6.474401e+002, 1.509819e+002
6.479222e+002, 1.506133e+002
6.484043e+002, 1.500953e+002
6.488864e+002, 1.495098e+002
6.493685e+002, 1.489451e+002
6.498506e+002, 1.487211e+002
6.503328e+002, 1.492407e+002
6.508149e+002, 1.495184e+002
6.512970e+002, 1.492029e+002
6.517791e+002, 1.484190e+002
6.522612e+002, 1.472001e+002
6.527433e+002, 1.456261e+002
6.532255e+002, 1.439722e+002
6.537076e+002, 1.424499e+002
6.541897e+002, 1.409910e+002
6.546718e+002, 1.392817e+002
6.551539e+002, 1.371131e+002
6.556360e+002, 1.352095e+002
6.561182e+002, 1.341202e+002
6.566003e+002, 1.329273e+002
6.570824e+002, 1.310184e+002
6.575645e+002, 1.285667e+002
6.580466e+002, 1.261868e+002
6.585287e+002, 1.241599e+002
6.590109e+002, 1.221922e+002
6.594930e+002, 1.199591e+002
6.599751e+002, 1.175686e+002
6.604572e+002, 1.152766e+002
6.609393e+002, 1.131430e+002
6.614214e+002, 1.111544e+002
6.619036e+002, 1.092995e+002
6.623857e+002, 1.075713e+002
6.628678e+002, 1.059283e+002
6.633499e+002, 1.045515e+002
6.638320e+002, 1.030216e+002
6.643141e+002, 1.010358e+002
6.647963e+002, 9.908224e+001
6.652784e+002, 9.756747e+001
6.657605e+002, 9.646198e+001
6.662426e+002, 9.549419e+001
6.667247e+002, 9.453931e+001
6.672068e+002, 9.354189e+001
6.676890e+002, 9.230261e+001
6.681711e+002, 9.083485e+001
6.686532e+002, 8.962133e+001
6.691353e+002, 8.882015e+001
6.696174e+002, 8.818872e+001
6.700995e+002, 8.752917e+001
6.705817e+002, 8.684817e+001
6.710638e+002, 8.623153e+001
6.715459e+002, 8.569626e+001
6.720280e+002, 8.520543e+001
6.725101e+002, 8.480953e+001
6.729922e+002, 8.442043e+001
6.734744e+002, 8.390517e+001
6.739565e+002, 8.327746e+001
6.744386e+002, 8.269961e+001
6.749207e+002, 8.231425e+001
6.754028e+002, 8.203268e+001
6.758849e+002, 8.151234e+001
6.763671e+002, 8.065385e+001
6.768492e+002, 7.999560e+001
6.773313e+002, 7.964104e+001
6.778134e+002, 7.952525e+001
6.782955e+002, 7.977032e+001
6.787776e+002, 8.022468e+001
6.792598e+002, 8.031996e+001
6.797419e+002, 7.960100e+001
6.802240e+002, 7.891159e+001
6.807061e+002, 7.887669e+001
6.811882e+002, 7.914312e+001
6.816703e+002, 7.913723e+001
6.821525e+002, 7.877563e+001
6.826346e+002, 7.834395e+001
6.831167e+002, 7.807264e+001
6.835988e+002, 7.792906e+001
6.840809e+002, 7.774320e+001
6.845630e+002, 7.746557e+001
6.850452e+002, 7.725522e+001
6.855273e+002, 7.713348e+001
6.860094e+002, 7.708707e+001
6.864915e+002, 7.719995e+001
6.869736e+002, 7.738741e+001
6.874557e+002, 7.739246e+001
6.879379e+002, 7.699914e+001
6.884200e+002, 7.660549e+001
6.889021e+002, 7.663107e+001
6.893842e+002, 7.691541e+001
6.898663e+002, 7.707010e+001
6.903484e+002, 7.702809e+001
6.908306e+002, 7.699529e+001
6.913127e+002, 7.715454e+001
6.917948e+002, 7.744213e+001
6.922769e+002, 7.753621e+001
6.927590e+002, 7.731524e+001
6.932411e+002, 7.708888e+001
6.937233e+002, 7.666092e+001
6.942054e+002, 7.642556e+001
6.946875e+002, 7.685062e+001
6.951696e+002, 7.765493e+001
6.956517e+002, 7.807807e+001
6.961339e+002, 7.768578e+001
6.966160e+002, 7.712234e+001
6.970981e+002, 7.718220e+001
6.975802e+002, 7.767558e+001
6.980623e+002, 7.788612e+001
6.985444e+002, 7.768639e+001
6.990266e+002, 7.749094e+001
6.995087e+002, 7.758480e+001
6.999908e+002, 7.790976e+001
7.004729e+002, 7.824915e+001
7.009550e+002, 7.879050e+001
7.014371e+002, 7.904521e+001
7.019193e+002, 7.860222e+001
7.024014e+002, 7.824520e+001
7.028835e+002, 7.859917e+001
7.033656e+002, 7.939516e+001
7.038477e+002, 7.995735e+001
7.043298e+002, 7.996770e+001
7.048120e+002, 7.990085e+001
7.052941e+002, 8.043891e+001
7.057762e+002, 8.143092e+001
7.062583e+002, 8.210461e+001
7.067404e+002, 8.234693e+001
7.072225e+002, 8.253279e+001
7.077046e+002, 8.279507e+001
7.081867e+002, 8.321213e+001
7.086688e+002, 8.403225e+001
7.091509e+002, 8.547830e+001
7.096331e+002, 8.673434e+001
7.101152e+002, 8.755757e+001
7.105973e+002, 8.836853e+001
7.110794e+002, 8.940845e+001
7.115615e+002, 9.061301e+001
7.120436e+002, 9.178678e+001
7.125258e+002, 9.287196e+001
7.130079e+002, 9.408956e+001
7.134900e+002, 9.578240e+001
7.139721e+002, 9.785852e+001
7.144542e+002, 9.981828e+001
7.149363e+002, 1.015989e+002
7.154185e+002, 1.034942e+002
7.159006e+002, 1.055706e+002
7.163827e+002, 1.078749e+002
7.168648e+002, 1.105445e+002
7.173469e+002, 1.136051e+002
7.178290e+002, 1.167696e+002
7.183112e+002, 1.200641e+002
7.187933e+002, 1.233934e+002
7.192754e+002, 1.265175e+002
7.197575e+002, 1.297200e+002
7.202396e+002, 1.335671e+002
7.207217e+002, 1.381178e+002
7.212039e+002, 1.427055e+002
7.216860e+002, 1.467649e+002
7.221681e+002, 1.503222e+002
7.226502e+002, 1.534153e+002
7.231323e+002, 1.560484e+002
7.236144e+002, 1.583601e+002
7.240966e+002, 1.604494e+002
7.245787e+002, 1.621415e+002
7.250608e+002, 1.631809e+002
7.255429e+002, 1.635807e+002
7.260250e+002, 1.636186e+002
7.265071e+002, 1.633199e+002
7.269893e+002, 1.626519e+002
7.274714e+002, 1.615069e+002
7.279535e+002, 1.600440e+002
7.284356e+002, 1.584276e+002
7.289177e+002, 1.566913e+002
7.293998e+002, 1.547722e+002
7.298820e+002, 1.525455e+002
7.303641e+002, 1.502517e+002
7.308462e+002, 1.485548e+002
7.313283e+002, 1.474886e+002
7.318104e+002, 1.460793e+002
7.322925e+002, 1.440550e+002
7.327747e+002, 1.418443e+002
7.332568e+002, 1.397638e+002
7.337389e+002, 1.377890e+002
7.342210e+002, 1.357675e+002
7.347031e+002, 1.335700e+002
7.351852e+002, 1.315434e+002
7.356674e+002, 1.299301e+002
7.361495e+002, 1.283670e+002
7.366316e+002, 1.266423e+002
7.371137e+002, 1.246861e+002
7.375958e+002, 1.223363e+002
7.380779e+002, 1.194512e+002
7.385601e+002, 1.165316e+002
7.390422e+002, 1.143990e+002
7.395243e+002, 1.129675e+002
7.400064e+002, 1.113704e+002
7.404885e+002, 1.095357e+002
7.409706e+002, 1.075788e+002
7.414528e+002, 1.055218e+002
7.419349e+002, 1.034237e+002
7.424170e+002, 1.014135e+002
7.428991e+002, 9.949378e+001
7.433812e+002, 9.763651e+001
7.438633e+002, 9.576277e+001
7.443455e+002, 9.403149e+001
7.448276e+002, 9.250265e+001
7.453097e+002, 9.118096e+001
7.457918e+002, 9.011031e+001
7.462739e+002, 8.928776e+001
7.467560e+002, 8.853555e+001
7.472382e+002, 8.769080e+001
7.477203e+002, 8.678671e+001
7.482024e+002, 8.592898e+001
7.486845e+002, 8.511695e+001
7.491666e+002, 8.431675e+001
7.496487e+002, 8.350787e+001
7.501309e+002, 8.272659e+001
7.506130e+002, 8.198379e+001
7.510951e+002, 8.127685e+001
7.515772e+002, 8.076398e+001
7.520593e+002, 8.073895e+001
7.525414e+002, 8.050997e+001
7.530236e+002, 7.958495e+001
7.535057e+002, 7.863436e+001
7.539878e+002, 7.837760e+001
7.544699e+002, 7.872093e+001
7.549520e+002, 7.898433e+001
7.554341e+002, 7.876069e+001
7.559163e+002, 7.832336e+001
7.563984e+002, 7.801881e+001
7.568805e+002, 7.782912e+001
7.573626e+002, 7.771665e+001
7.578447e+002, 7.768440e+001
7.583268e+002, 7.756916e+001
7.588090e+002, 7.722224e+001
7.592911e+002, 7.673840e+001
7.597732e+002, 7.643486e+001
7.602553e+002, 7.642406e+001
7.607374e+002, 7.639468e+001
7.612195e+002, 7.626579e+001
7.617017e+002, 7.620747e+001
7.621838e+002, 7.652770e+001
7.626659e+002, 7.689143e+001
7.631480e+002, 7.663813e+001
7.636301e+002, 7.555612e+001
7.641122e+002, 7.462554e+001
7.645944e+002, 7.479389e+001
7.650765e+002, 7.545580e+001
7.655586e+002, 7.564211e+001
7.660407e+002, 7.539462e+001
7.665228e+002, 7.518697e+001
7.670049e+002, 7.520365e+001
7.674871e+002, 7.528190e+001
7.679692e+002, 7.519349e+001
7.684513e+002, 7.492492e+001
7.689334e+002, 7.481203e+001
7.694155e+002, 7.500021e+001
7.698976e+002, 7.510365e+001
7.703798e+002, 7.491518e+001
7.708619e+002, 7.470995e+001
7.713440e+002, 7.477995e+001
7.718261e+002, 7.505771e+001
7.723082e+002, 7.514988e+001
7.727903e+002, 7.481231e+001
7.732725e+002, 7.439409e+001
7.737546e+002, 7.403638e+001
7.742367e+002, 7.380062e+001
7.747188e+002, 7.386335e+001
7.752009e+002, 7.418841e+001
7.756830e+002, 7.448710e+001
7.761652e+002, 7.457753e+001
7.766473e+002, 7.448457e+001
7.771294e+002, 7.422846e+001
7.776115e+002, 7.376916e+001
7.780936e+002, 7.341032e+001
7.785757e+002, 7.317117e+001
7.790579e+002, 7.303696e+001
7.795400e+002, 7.311588e+001
7.800221e+002, 7.324633e+001
7.805042e+002, 7.311923e+001
7.809863e+002, 7.264687e+001
7.814684e+002, 7.230924e+001
7.819506e+002, 7.233632e+001
7.824327e+002, 7.241885e+001
7.829148e+002, 7.241358e+001
7.833969e+002, 7.230555e+001
7.838790e+002, 7.198881e+001
7.843611e+002, 7.149211e+001
7.848433e+002, 7.119744e+001
7.853254e+002, 7.159135e+001
7.858075e+002, 7.237196e+001
7.862896e+002, 7.256626e+001
7.867717e+002, 7.216407e+001
7.872538e+002, 7.183779e+001
7.877360e+002, 7.176821e+001
7.882181e+002, 7.177103e+001
7.887002e+002, 7.167692e+001
7.891823e+002, 7.150280e+001
7.896644e+002, 7.139582e+001
7.901465e+002, 7.140454e+001
7.906286e+002, 7.140701e+001
7.911107e+002, 7.137076e+001
7.915928e+002, 7.134779e+001
7.920750e+002, 7.136468e+001
7.925571e+002, 7.142287e+001
7.930392e+002, 7.152682e+001
7.935213e+002, 7.168275e+001
7.940034e+002, 7.184229e+001
7.944855e+002, 7.206266e+001
7.949677e+002, 7.221699e+001
7.954498e+002, 7.190453e+001
7.959319e+002, 7.121342e+001
7.964140e+002, 7.089352e+001
7.968961e+002, 7.127775e+001
7.973782e+002, 7.190344e+001
7.978604e+002, 7.213498e+001
7.983425e+002, 7.195602e+001
7.988246e+002, 7.177358e+001
7.993067e+002, 7.154206e+001
7.997888e+002, 7.138742e+001
8.002709e+002, 7.143108e+001
8.007531e+002, 7.149202e+001
8.012352e+002, 7.143427e+001
8.017173e+002, 7.127140e+001
8.021994e+002, 7.108448e+001
8.026815e+002, 7.074112e+001
8.031636e+002, 7.060197e+001
8.036458e+002, 7.107198e+001
8.041279e+002, 7.171428e+001
8.046100e+002, 7.198109e+001
8.050921e+002, 7.190296e+001
8.055742e+002, 7.185018e+001
8.060563e+002, 7.202724e+001
8.065385e+002, 7.225218e+001
8.070206e+002, 7.216808e+001
8.075027e+002, 7.181172e+001
8.079848e+002, 7.177138e+001
8.084669e+002, 7.217249e+001
8.089490e+002, 7.232946e+001
8.094312e+002, 7.179729e+001
8.099133e+002, 7.106025e+001
8.103954e+002, 7.088390e+001
8.108775e+002, 7.139136e+001
8.113596e+002, 7.166216e+001
8.118417e+002, 7.154510e+001
8.123239e+002, 7.138781e+001
8.128060e+002, 7.123215e+001
8.132881e+002, 7.111567e+001
8.137702e+002, 7.109031e+001
8.142523e+002, 7.114021e+001
8.147344e+002, 7.119202e+001
8.152166e+002, 7.121780e+001
8.156987e+002, 7.121346e+001
8.161808e+002, 7.105693e+001
8.166629e+002, 7.089671e+001
8.171450e+002, 7.120734e+001
8.176271e+002, 7.196308e+001
8.181093e+002, 7.245181e+001
8.185914e+002, 7.223974e+001
8.190735e+002, 7.168968e+001
8.195556e+002, 7.152209e+001
8.200377e+002, 7.181760e+001
8.205198e+002, 7.198498e+001
8.210020e+002, 7.200269e+001
8.214841e+002, 7.192985e+001
8.219662e+002, 7.167369e+001
8.224483e+002, 7.141830e+001
8.229304e+002, 7.137837e+001
8.234125e+002, 7.155000e+001
8.238947e+002, 7.175389e+001
8.243768e+002, 7.206314e+001
8.248589e+002, 7.226851e+001
8.253410e+002, 7.218875e+001
8.258231e+002, 7.201829e+001
8.263052e+002, 7.199252e+001
8.267874e+002, 7.209881e+001
8.272695e+002, 7.215384e+001
8.277516e+002, 7.204189e+001
8.282337e+002, 7.189842e+001
8.287158e+002, 7.196310e+001
8.291979e+002, 7.216674e+001
8.296801e+002, 7.213866e+001
8.301622e+002, 7.184417e+001
8.306443e+002, 7.181533e+001
8.311264e+002, 7.239206e+001
8.316085e+002, 7.314357e+001
8.320906e+002, 7.332751e+001
8.325728e+002, 7.282918e+001
8.330549e+002, 7.258768e+001
8.335370e+002, 7.267376e+001
8.340191e+002, 7.292540e+001
8.345012e+002, 7.349663e+001
8.349833e+002, 7.405505e+001
8.354655e+002, 7.425342e+001
8.359476e+002, 7.416756e+001
8.364297e+002, 7.423457e+001
8.369118e+002, 7.460497e+001
8.373939e+002, 7.512286e+001
8.378760e+002, 7.595898e+001
8.383582e+002, 7.673028e+001
8.388403e+002, 7.684048e+001
8.393224e+002, 7.645398e+001
8.398045e+002, 7.617587e+001
8.402866e+002, 7.628932e+001
8.407687e+002, 7.678284e+001
8.412509e+002, 7.784800e+001
8.417330e+002, 7.932887e+001
8.422151e+002, 8.025741e+001
8.426972e+002, 8.058489e+001
8.431793e+002, 8.079255e+001
8.436614e+002, 8.095615e+001
8.441436e+002, 8.133174e+001
8.446257e+002, 8.228125e+001
8.451078e+002, 8.378756e+001
8.455899e+002, 8.505339e+001
8.460720e+002, 8.586593e+001
8.465541e+002, 8.673630e+001
8.470363e+002, 8.779902e+001
8.475184e+002, 8.884719e+001
8.480005e+002, 8.974413e+001
8.484826e+002, 9.053108e+001
8.489647e+002, 9.131621e+001
8.494468e+002, 9.212524e+001
8.499290e+002, 9.293957e+001
8.504111e+002, 9.388662e+001
8.508932e+002, 9.472874e+001
8.513753e+002, 9.517547e+001
8.518574e+002, 9.533303e+001
8.523395e+002, 9.552773e+001
8.528217e+002, 9.583201e+001
8.533038e+002, 9.592549e+001
8.537859e+002, 9.542139e+001
8.542680e+002, 9.452690e+001
8.547501e+002, 9.395588e+001
8.552322e+002, 9.370711e+001
8.557144e+002, 9.314715e+001
8.561965e+002, 9.206609e+001
8.566786e+002, 9.105509e+001
8.571607e+002, 9.062615e+001
8.576428e+002, 9.055563e+001
8.581249e+002, 9.010710e+001
8.586071e+002, 8.904237e+001
8.590892e+002, 8.811623e+001
8.595713e+002, 8.737646e+001
8.600534e+002, 8.671418e+001
8.605355e+002, 8.622778e+001
8.610176e+002, 8.571690e+001
8.614998e+002, 8.484999e+001
8.619819e+002, 8.362061e+001
8.624640e+002, 8.258579e+001
8.629461e+002, 8.221069e+001
8.634282e+002, 8.183083e+001
8.639103e+002, 8.080118e+001
8.643925e+002, 7.958727e+001
8.648746e+002, 7.888998e+001
8.653567e+002, 7.871546e+001
8.658388e+002, 7.867068e+001
8.663209e+002, 7.854920e+001
8.668030e+002, 7.827029e+001
8.672852e+002, 7.767397e+001
8.677673e+002, 7.680409e+001
8.682494e+002, 7.579580e+001
8.687315e+002, 7.464744e+001
8.692136e+002, 7.380997e+001
8.696957e+002, 7.352843e+001
8.701779e+002, 7.341854e+001
8.706600e+002, 7.293599e+001
8.711421e+002, 7.207378e+001
8.716242e+002, 7.157849e+001
8.721063e+002, 7.167697e+001
8.725884e+002, 7.174267e+001
8.730705e+002, 7.166611e+001
8.735526e+002, 7.153580e+001
8.740347e+002, 7.129065e+001
8.745168e+002, 7.104637e+001
8.749990e+002, 7.114551e+001
8.754811e+002, 7.186893e+001
8.759632e+002, 7.223609e+001
8.764453e+002, 7.152919e+001
8.769274e+002, 7.070487e+001
8.774095e+002, 7.045225e+001
8.778917e+002, 7.059264e+001
8.783738e+002, 7.077926e+001
8.788559e+002, 7.091382e+001
8.793380e+002, 7.104793e+001
8.798201e+002, 7.124377e+001
8.803022e+002, 7.143596e+001
8.807844e+002, 7.147094e+001
8.812665e+002, 7.140751e+001
8.817486e+002, 7.148201e+001
8.822307e+002, 7.172466e+001
8.827128e+002, 7.197862e+001
8.831949e+002, 7.215075e+001
8.836771e+002, 7.224343e+001
8.841592e+002, 7.221108e+001
8.846413e+002, 7.199572e+001
8.851234e+002, 7.212739e+001
8.856055e+002, 7.278365e+001
8.860876e+002, 7.334422e+001
8.865698e+002, 7.353936e+001
8.870519e+002, 7.360341e+001
8.875340e+002, 7.376804e+001
8.880161e+002, 7.403283e+001
8.884982e+002, 7.439269e+001
8.889803e+002, 7.500524e+001
8.894625e+002, 7.548943e+001
8.899446e+002, 7.572742e+001
8.904267e+002, 7.586903e+001
8.909088e+002, 7.590062e+001
8.913909e+002, 7.594730e+001
8.918730e+002, 7.629896e+001
8.923552e+002, 7.705605e+001
8.928373e+002, 7.766027e+001
8.933194e+002, 7.761687e+001
8.938015e+002, 7.736147e+001
8.942836e+002, 7.729391e+001
8.947657e+002, 7.739441e+001
8.952479e+002, 7.759657e+001
8.957300e+002, 7.788145e+001
8.962121e+002, 7.826482e+001
8.966942e+002, 7.877174e+001
8.971763e+002, 7.932912e+001
8.976584e+002, 7.977904e+001
8.981406e+002, 8.013186e+001
8.986227e+002, 8.055248e+001
8.991048e+002, 8.107279e+001
8.995869e+002, 8.140910e+001
9.000690e+002, 8.139529e+001
9.005511e+002, 8.121943e+001
9.010333e+002, 8.114854e+001
9.015154e+002, 8.118431e+001
9.019975e+002, 8.128296e+001
9.024796e+002, 8.143000e+001
9.029617e+002, 8.166882e+001
9.034438e+002, 8.202737e+001
9.039260e+002, 8.246439e+001
9.044081e+002, 8.301716e+001
9.048902e+002, 8.361795e+001
9.053723e+002, 8.409521e+001
9.058544e+002, 8.444494e+001
9.063365e+002, 8.462649e+001
9.068187e+002, 8.437662e+001
9.073008e+002, 8.422217e+001
9.077829e+002, 8.451958e+001
9.082650e+002, 8.508630e+001
9.087471e+002, 8.573028e+001
9.092292e+002, 8.637052e+001
9.097114e+002, 8.686674e+001
9.101935e+002, 8.705905e+001
9.106756e+002, 8.718968e+001
9.111577e+002, 8.750140e+001
9.116398e+002, 8.793124e+001
9.121219e+002, 8.836057e+001
9.126041e+002, 8.878506e+001
9.130862e+002, 8.926405e+001
9.135683e+002, 8.982552e+001
9.140504e+002, 9.045335e+001
9.145325e+002, 9.113776e+001
9.150146e+002, 9.187185e+001
9.154968e+002, 9.267200e+001
9.159789e+002, 9.354721e+001
9.164610e+002, 9.423180e+001
9.169431e+002, 9.460872e+001
9.174252e+002, 9.504713e+001
9.179073e+002, 9.586954e+001
9.183895e+002, 9.698655e+001
9.188716e+002, 9.808157e+001
9.193537e+002, 9.918587e+001
9.198358e+002, 1.002048e+002
9.203179e+002, 1.010537e+002
9.208000e+002, 1.019369e+002
9.212822e+002, 1.029826e+002
9.217643e+002, 1.040710e+002
9.222464e+002, 1.050830e+002
9.227285e+002, 1.060146e+002
9.232106e+002, 1.068581e+002
9.236927e+002, 1.075281e+002
9.241749e+002, 1.082221e+002
9.246570e+002, 1.091035e+002
9.251391e+002, 1.099305e+002
9.256212e+002, 1.104474e+002
9.261033e+002, 1.107744e+002
9.265854e+002, 1.112253e+002
9.270676e+002, 1.118999e+002
9.275497e+002, 1.124235e+002
9.280318e+002, 1.124158e+002
9.285139e+002, 1.122561e+002
9.289960e+002, 1.123167e+002
9.294781e+002, 1.125211e+002
9.299603e+002, 1.126983e+002
9.304424e+002, 1.128280e+002
9.309245e+002, 1.130122e+002
9.314066e+002, 1.133290e+002
9.318887e+002, 1.136554e+002
9.323708e+002, 1.137476e+002
9.328530e+002, 1.136773e+002
9.333351e+002, 1.137226e+002
9.338172e+002, 1.138996e+002
9.342993e+002, 1.142321e+002
9.347814e+002, 1.147356e+002
9.352635e+002, 1.152959e+002
9.357457e+002, 1.157692e+002
9.362278e+002, 1.162009e+002
9.367099e+002, 1.169026e+002
9.371920e+002, 1.179728e+002
9.376741e+002, 1.188573e+002
9.381563e+002, 1.193731e+002
9.386384e+002, 1.199786e+002
9.391205e+002, 1.210082e+002
9.396026e+002, 1.222241e+002
9.400847e+002, 1.231882e+002
9.405668e+002, 1.238329e+002
9.410490e+002, 1.246174e+002
9.415311e+002, 1.257868e+002
9.420132e+002, 1.267606e+002
9.424953e+002, 1.271384e+002
9.429774e+002, 1.275486e+002
9.434595e+002, 1.285606e+002
9.439417e+002, 1.299639e+002
9.444238e+002, 1.311476e+002
9.449059e+002, 1.319364e+002
9.453880e+002, 1.327339e+002
9.458701e+002, 1.337007e+002
9.463522e+002, 1.347107e+002
9.468344e+002, 1.357413e+002
9.473165e+002, 1.367204e+002
9.477986e+002, 1.374855e+002
9.482807e+002, 1.380790e+002
9.487628e+002, 1.388121e+002
9.492449e+002, 1.399050e+002
9.497271e+002, 1.410542e+002
9.502092e+002, 1.419982e+002
9.506913e+002, 1.428006e+002
9.511734e+002, 1.435735e+002
9.516555e+002, 1.443033e+002
9.521376e+002, 1.448831e+002
9.526198e+002, 1.452925e+002
9.531019e+002, 1.457184e+002
9.535840e+002, 1.463574e+002
9.540661e+002, 1.471235e+002
9.545482e+002, 1.477650e+002
9.550303e+002, 1.483246e+002
9.555124e+002, 1.492374e+002
9.559945e+002, 1.505643e+002
9.564766e+002, 1.513610e+002
9.569587e+002, 1.510544e+002
9.574409e+002, 1.503371e+002
9.579230e+002, 1.503499e+002
9.584051e+002, 1.510754e+002
9.588872e+002, 1.515242e+002
9.593693e+002, 1.516635e+002
9.598514e+002, 1.516562e+002
9.603336e+002, 1.514933e+002
9.608157e+002, 1.513062e+002
9.612978e+002, 1.512809e+002
9.617799e+002, 1.512504e+002
9.622620e+002, 1.507043e+002
9.627441e+002, 1.493820e+002
9.632263e+002, 1.483503e+002
9.637084e+002, 1.476522e+002
9.641905e+002, 1.471972e+002
9.646726e+002, 1.473516e+002
9.651547e+002, 1.474171e+002
9.656368e+002, 1.466833e+002
9.661190e+002, 1.453046e+002
9.666011e+002, 1.440557e+002
9.670832e+002, 1.431435e+002
9.675653e+002, 1.421302e+002
9.680474e+002, 1.408103e+002
9.685295e+002, 1.394841e+002
9.690117e+002, 1.383702e+002
9.694938e+002, 1.373313e+002
9.699759e+002, 1.362101e+002
9.704580e+002, 1.349746e+002
9.709401e+002, 1.336270e+002
9.714222e+002, 1.320929e+002
9.719044e+002, 1.305770e+002
9.723865e+002, 1.292244e+002
9.728686e+002, 1.279418e+002
9.733507e+002, 1.266460e+002
9.738328e+002, 1.253407e+002
9.743149e+002, 1.240360e+002
9.747971e+002, 1.227461e+002
9.752792e+002, 1.215427e+002
9.757613e+002, 1.205825e+002
9.762434e+002, 1.196388e+002
9.767255e+002, 1.183536e+002
9.772076e+002, 1.168725e+002
9.776898e+002, 1.154514e+002
9.781719e+002, 1.141366e+002
9.786540e+002, 1.129882e+002
9.791361e+002, 1.120268e+002
9.796182e+002, 1.111399e+002
9.801003e+002, 1.101984e+002
9.805825e+002, 1.092099e+002
9.810646e+002, 1.082514e+002
9.815467e+002, 1.073080e+002
9.820288e+002, 1.062125e+002
9.825109e+002, 1.049373e+002
9.829930e+002, 1.036362e+002
9.834752e+002, 1.024007e+002
9.839573e+002, 1.012662e+002
9.844394e+002, 1.003199e+002
9.849215e+002, 9.956451e+001
9.854036e+002, 9.880271e+001
9.858857e+002, 9.802779e+001
9.863679e+002, 9.729529e+001
9.868500e+002, 9.662992e+001
9.873321e+002, 9.596987e+001
9.878142e+002, 9.526526e+001
9.882963e+002, 9.452681e+001
9.887784e+002, 9.378645e+001
9.892606e+002, 9.304539e+001
9.897427e+002, 9.232133e+001
9.902248e+002, 9.172137e+001
9.907069e+002, 9.090928e+001
9.911890e+002, 8.951830e+001
9.916711e+002, 8.815688e+001
9.921533e+002, 8.747270e+001
9.926354e+002, 8.734982e+001
9.931175e+002, 8.711031e+001
9.935996e+002, 8.676759e+001
9.940817e+002, 8.628719e+001
9.945638e+002, 8.559602e+001
9.950460e+002, 8.485051e+001
9.955281e+002, 8.398439e+001
9.960102e+002, 8.318410e+001
9.964923e+002, 8.262927e+001
9.969744e+002, 8.232468e+001
9.974565e+002, 8.224886e+001
9.979387e+002, 8.282645e+001
9.984208e+002, 8.291819e+001
9.989029e+002, 8.188389e+001
9.993850e+002, 8.064877e+001
9.998671e+002, 7.976515e+001
1.000349e+003, 7.906856e+001
1.000831e+003, 7.826279e+001
1.001313e+003, 7.732276e+001
1.001796e+003, 7.647109e+001
1.002278e+003, 7.580078e+001
1.002760e+003, 7.524251e+001
1.003242e+003, 7.479308e+001
1.003724e+003, 7.441011e+001
1.004206e+003, 7.402075e+001
1.004688e+003, 7.367455e+001
1.005170e+003, 7.358321e+001
1.005653e+003, 7.373686e+001
1.006135e+003, 7.357263e+001
1.006617e+003, 7.243254e+001
1.007099e+003, 7.123135e+001
1.007581e+003, 7.098038e+001
1.008063e+003, 7.111387e+001
1.008545e+003, 7.079871e+001
1.009027e+003, 7.012337e+001
1.009509e+003, 6.959868e+001
1.009992e+003, 6.940236e+001
1.010474e+003, 6.932468e+001
1.010956e+003, 6.926763e+001
1.011438e+003, 6.913058e+001
1.011920e+003, 6.860856e+001
1.012402e+003, 6.793237e+001
1.012884e+003, 6.772549e+001
1.013366e+003, 6.794989e+001
1.013849e+003, 6.806068e+001
1.014331e+003, 6.782043e+001
1.014813e+003, 6.745035e+001
1.015295e+003, 6.715514e+001
1.015777e+003, 6.694781e+001
1.016259e+003, 6.690581e+001
1.016741e+003, 6.698782e+001
1.017223e+003, 6.698174e+001
1.017705e+003, 6.686726e+001
1.018188e+003, 6.680673e+001
1.018670e+003, 6.688670e+001
1.019152e+003, 6.700583e+001
1.019634e+003, 6.704435e+001
1.020116e+003, 6.699557e+001
1.020598e+003, 6.675435e+001
1.021080e+003, 6.633647e+001
1.021562e+003, 6.619085e+001
1.022044e+003, 6.640927e+001
1.022527e+003, 6.663508e+001
1.023009e+003, 6.666389e+001
1.023491e+003, 6.657871e+001
1.023973e+003, 6.648057e+001
1.024455e+003, 6.638206e+001
1.024937e+003, 6.655064e+001
1.025419e+003, 6.704101e+001
1.025901e+003, 6.731759e+001
1.026384e+003, 6.725552e+001
1.026866e+003, 6.707945e+001
1.027348e+003, 6.689912e+001
1.027830e+003, 6.675428e+001
1.028312e+003, 6.671651e+001
1.028794e+003, 6.678655e+001
1.029276e+003, 6.697574e+001
1.029758e+003, 6.736113e+001
1.030240e+003, 6.756672e+001
1.030723e+003, 6.740250e+001
1.031205e+003, 6.735474e+001
1.031687e+003, 6.786776e+001
1.032169e+003, 6.855872e+001
1.032651e+003, 6.857598e+001
1.033133e+003, 6.777351e+001
1.033615e+003, 6.755741e+001
1.034097e+003, 6.828730e+001
1.034579e+003, 6.880900e+001
1.035062e+003, 6.878487e+001
1.035544e+003, 6.868629e+001
1.036026e+003, 6.879500e+001
1.036508e+003, 6.905605e+001
1.036990e+003, 6.938418e+001
1.037472e+003, 6.982235e+001
1.037954e+003, 7.008006e+001
1.038436e+003, 7.005403e+001
1.038919e+003, 7.000977e+001
1.039401e+003, 6.999966e+001
1.039883e+003, 6.997570e+001
1.040365e+003, 6.977546e+001
1.040847e+003, 6.958141e+001
1.041329e+003, 6.983169e+001
1.041811e+003, 7.064575e+001
1.042293e+003, 7.127480e+001
1.042776e+003, 7.181863e+001
1.043258e+003, 7.202163e+001
1.043740e+003, 7.145966e+001
1.044222e+003, 7.092025e+001
1.044704e+003, 7.096660e+001
1.045186e+003, 7.137663e+001
1.045668e+003, 7.171404e+001
1.046150e+003, 7.194019e+001
1.046632e+003, 7.216716e+001
1.047115e+003, 7.243237e+001
1.047597e+003, 7.266383e+001
1.048079e+003, 7.287597e+001
1.048561e+003, 7.301572e+001
1.049043e+003, 7.292751e+001
1.049525e+003, 7.278508e+001
1.050007e+003, 7.294682e+001
1.050489e+003, 7.348185e+001
1.050971e+003, 7.394613e+001
1.051454e+003, 7.442009e+001
1.051936e+003, 7.458365e+001
1.052418e+003, 7.388793e+001
1.052900e+003, 7.328712e+001
1.053382e+003, 7.365856e+001
1.053864e+003, 7.454836e+001
1.054346e+003, 7.504672e+001
1.054828e+003, 7.501614e+001
1.055311e+003, 7.508842e+001
1.055793e+003, 7.555167e+001
1.056275e+003, 7.597934e+001
1.056757e+003, 7.627560e+001
1.057239e+003, 7.643575e+001
1.057721e+003, 7.631735e+001
1.058203e+003, 7.611987e+001
1.058685e+003, 7.622184e+001
1.059167e+003, 7.667254e+001
1.059650e+003, 7.702771e+001
1.060132e+003, 7.705593e+001
1.060614e+003, 7.708161e+001
1.061096e+003, 7.717632e+001
1.061578e+003, 7.736514e+001
1.062060e+003, 7.774438e+001
1.062542e+003, 7.819514e+001
1.063024e+003, 7.848780e+001
1.063506e+003, 7.860567e+001
1.063989e+003, 7.883392e+001
1.064471e+003, 7.945173e+001
1.064953e+003, 7.994994e+001
1.065435e+003, 7.991006e+001
1.065917e+003, 7.987816e+001
1.066399e+003, 8.043408e+001
1.066881e+003, 8.119934e+001
1.067363e+003, 8.146255e+001
1.067846e+003, 8.119582e+001
1.068328e+003, 8.115662e+001
1.068810e+003, 8.186720e+001
1.069292e+003, 8.243344e+001
1.069774e+003, 8.216127e+001
1.070256e+003, 8.189485e+001
1.070738e+003, 8.236897e+001
1.071220e+003, 8.319955e+001
1.071703e+003, 8.380756e+001
1.072185e+003, 8.413744e+001
1.072667e+003, 8.448572e+001
1.073149e+003, 8.498619e+001
1.073631e+003, 8.545985e+001
1.074113e+003, 8.582053e+001
1.074595e+003, 8.612723e+001
1.075077e+003, 8.633588e+001
1.075559e+003, 8.657084e+001
1.076042e+003, 8.701688e+001
1.076524e+003, 8.765488e+001
1.077006e+003, 8.830928e+001
1.077488e+003, 8.896151e+001
1.077970e+003, 8.949638e+001
1.078452e+003, 8.977402e+001
1.078934e+003, 9.001452e+001
1.079416e+003, 9.031275e+001
1.079898e+003, 9.069949e+001
1.080380e+003, 9.123161e+001
1.080863e+003, 9.187815e+001
1.081345e+003, 9.253700e+001
1.081827e+003, 9.318046e+001
1.082309e+003, 9.380782e+001
1.082791e+003, 9.424648e+001
1.083273e+003, 9.487239e+001
1.083755e+003, 9.613609e+001
1.084237e+003, 9.753246e+001
1.084720e+003, 9.832498e+001
1.085202e+003, 9.879768e+001
1.085684e+003, 9.994321e+001
1.086166e+003, 1.021062e+002
1.086648e+003, 1.040217e+002
1.087130e+003, 1.047692e+002
1.087612e+003, 1.056119e+002
1.088094e+003, 1.072974e+002
1.088577e+003, 1.093160e+002
1.089059e+003, 1.112823e+002
1.089541e+003, 1.131532e+002
1.090023e+003, 1.147867e+002
1.090505e+003, 1.161659e+002
1.090987e+003, 1.181089e+002
1.091469e+003, 1.212168e+002
1.091951e+003, 1.245765e+002
1.092433e+003, 1.277427e+002
1.092916e+003, 1.310663e+002
1.093398e+003, 1.349322e+002
1.093880e+003, 1.390699e+002
1.094362e+003, 1.429621e+002
1.094844e+003, 1.465581e+002
1.095326e+003, 1.503626e+002
1.095808e+003, 1.545088e+002
1.096290e+003, 1.589044e+002
1.096772e+003, 1.636830e+002
1.097255e+003, 1.685202e+002
1.097737e+003, 1.732122e+002
1.098219e+003, 1.778837e+002
1.098701e+003, 1.827083e+002
1.099183e+003, 1.876897e+002
1.099665e+003, 1.928069e+002
1.100147e+003, 1.979756e+002
1.100629e+003, 2.034504e+002
1.101112e+003, 2.092352e+002
1.101594e+003, 2.153799e+002
1.102076e+003, 2.220923e+002
1.102558e+003, 2.290716e+002
1.103040e+003, 2.359766e+002
1.103522e+003, 2.428428e+002
1.104004e+003, 2.498425e+002
1.104486e+003, 2.568964e+002
1.104969e+003, 2.644835e+002
1.105451e+003, 2.729510e+002
1.105933e+003, 2.815952e+002
1.106415e+003, 2.903649e+002
1.106897e+003, 2.990630e+002
1.107379e+003, 3.074640e+002
1.107861e+003, 3.157380e+002
1.108343e+003, 3.243092e+002
1.108825e+003, 3.333021e+002
1.109307e+003, 3.421528e+002
1.109790e+003, 3.507266e+002
1.110272e+003, 3.592892e+002
1.110754e+003, 3.675938e+002
1.111236e+003, 3.761682e+002
1.111718e+003, 3.856994e+002
1.112200e+003, 3.955771e+002
1.112682e+003, 4.048688e+002
1.113164e+003, 4.135495e+002
1.113647e+003, 4.214919e+002
1.114129e+003, 4.276064e+002
1.114611e+003, 4.347736e+002
1.115093e+003, 4.440127e+002
1.115575e+003, 4.531603e+002
1.116057e+003, 4.609439e+002
1.116539e+003, 4.685255e+002
1.117021e+003, 4.774038e+002
1.117504e+003, 4.873501e+002
1.117986e+003, 4.966867e+002
1.118468e+003, 5.052804e+002
1.118950e+003, 5.134345e+002
1.119432e+003, 5.208603e+002
1.119914e+003, 5.284749e+002
1.120396e+003, 5.371617e+002
1.120878e+003, 5.452375e+002
1.121360e+003, 5.514189e+002
1.121843e+003, 5.558290e+002
1.122325e+003, 5.586971e+002
1.122807e+003, 5.598238e+002
1.123289e+003, 5.606511e+002
1.123771e+003, 5.613110e+002
1.124253e+003, 5.612233e+002
1.124735e+003, 5.602206e+002
1.125217e+003, 5.585245e+002
1.125699e+003, 5.561113e+002
1.126182e+003, 5.534542e+002
1.126664e+003, 5.514434e+002
1.127146e+003, 5.500208e+002
1.127628e+003, 5.480026e+002
1.128110e+003, 5.452763e+002
1.128592e+003, 5.431340e+002
1.129074e+003, 5.418490e+002
1.129556e+003, 5.403943e+002
1.130039e+003, 5.382879e+002
1.130521e+003, 5.360074e+002
1.131003e+003, 5.341909e+002
1.131485e+003, 5.324973e+002
1.131967e+003, 5.297377e+002
1.132449e+003, 5.259419e+002
1.132931e+003, 5.217050e+002
1.133413e+003, 5.170241e+002
1.133896e+003, 5.116803e+002
1.134378e+003, 5.056018e+002
1.134860e+003, 4.984297e+002
1.135342e+003, 4.898763e+002
1.135824e+003, 4.801131e+002
1.136306e+003, 4.691471e+002
1.136788e+003, 4.572724e+002
1.137270e+003, 4.456427e+002
1.137752e+003, 4.341779e+002
1.138234e+003, 4.223237e+002
1.138717e+003, 4.100186e+002
1.139199e+003, 3.978001e+002
1.139681e+003, 3.858827e+002
1.140163e+003, 3.740879e+002
1.140645e+003, 3.618829e+002
1.141127e+003, 3.497578e+002
1.141609e+003, 3.384073e+002
1.142091e+003, 3.278330e+002
1.142574e+003, 3.181535e+002
1.143056e+003, 3.092989e+002
1.143538e+003, 3.009624e+002
1.144020e+003, 2.930542e+002
1.144502e+003, 2.857084e+002
1.144984e+003, 2.788949e+002
1.145466e+003, 2.728893e+002
1.145948e+003, 2.683424e+002
1.146431e+003, 2.644579e+002
1.146913e+003, 2.599129e+002
1.147395e+003, 2.554030e+002
1.147877e+003, 2.524922e+002
1.148359e+003, 2.511164e+002
1.148841e+003, 2.498201e+002
1.149323e+003, 2.479464e+002
1.149805e+003, 2.463123e+002
1.150287e+003, 2.456382e+002
1.150770e+003, 2.451518e+002
1.151252e+003, 2.441218e+002
1.151734e+003, 2.431226e+002
1.152216e+003, 2.428161e+002
1.152698e+003, 2.430692e+002
1.153180e+003, 2.434034e+002
1.153662e+003, 2.437201e+002
1.154144e+003, 2.443977e+002
1.154626e+003, 2.461493e+002
1.155109e+003, 2.474549e+002
1.155591e+003, 2.473525e+002
1.156073e+003, 2.471616e+002
1.156555e+003, 2.477264e+002
1.157037e+003, 2.486745e+002
1.157519e+003, 2.495354e+002
1.158001e+003, 2.502810e+002
1.158483e+003, 2.509536e+002
1.158966e+003, 2.513459e+002
1.159448e+003, 2.521306e+002
1.159930e+003, 2.537880e+002
1.160412e+003, 2.552404e+002
1.160894e+003, 2.560417e+002
1.161376e+003, 2.567376e+002
1.161858e+003, 2.578105e+002
1.162340e+003, 2.590061e+002
1.162822e+003, 2.596956e+002
1.163305e+003, 2.597859e+002
1.163787e+003, 2.604098e+002
1.164269e+003, 2.617481e+002
1.164751e+003, 2.631107e+002
1.165233e+003, 2.644471e+002
1.165715e+003, 2.656990e+002
1.166197e+003, 2.669104e+002
1.166679e+003, 2.678251e+002
1.167161e+003, 2.680628e+002
1.167644e+003, 2.678351e+002
1.168126e+003, 2.680467e+002
1.168608e+003, 2.687140e+002
1.169090e+003, 2.692889e+002
1.169572e+003, 2.697426e+002
1.170054e+003, 2.702625e+002
1.170536e+003, 2.708994e+002
1.171018e+003, 2.715033e+002
1.171500e+003, 2.719632e+002
1.171983e+003, 2.723909e+002
1.172465e+003, 2.729562e+002
1.172947e+003, 2.736404e+002
1.173429e+003, 2.744875e+002
1.173911e+003, 2.753982e+002
1.174393e+003, 2.760130e+002
1.174875e+003, 2.762969e+002
1.175357e+003, 2.762202e+002
1.175840e+003, 2.758252e+002
1.176322e+003, 2.757477e+002
1.176804e+003, 2.766756e+002
1.177286e+003, 2.778051e+002
1.177768e+003, 2.780082e+002
1.178250e+003, 2.778708e+002
1.178732e+003, 2.782698e+002
1.179214e+003, 2.789950e+002
1.179697e+003, 2.796784e+002
1.180179e+003, 2.801449e+002
1.180661e+003, 2.799688e+002
1.181143e+003, 2.788532e+002
1.181625e+003, 2.780873e+002
1.182107e+003, 2.790682e+002
1.182589e+003, 2.799182e+002
1.183071e+003, 2.789722e+002
1.183553e+003, 2.776999e+002
1.184036e+003, 2.776306e+002
1.184518e+003, 2.782761e+002
1.185000e+003, 2.784120e+002
1.185482e+003, 2.779166e+002
1.185964e+003, 2.779627e+002
1.186446e+003, 2.796021e+002
1.186928e+003, 2.805303e+002
1.187410e+003, 2.797398e+002
1.187892e+003, 2.789490e+002
1.188375e+003, 2.788557e+002
1.188857e+003, 2.791146e+002
1.189339e+003, 2.796627e+002
1.189821e+003, 2.802292e+002
1.190303e+003, 2.799183e+002
1.190785e+003, 2.784753e+002
1.191267e+003, 2.776768e+002
1.191749e+003, 2.776695e+002
1.192232e+003, 2.779612e+002
1.192714e+003, 2.786573e+002
1.193196e+003, 2.791229e+002
1.193678e+003, 2.790738e+002
1.194160e+003, 2.784866e+002
1.194642e+003, 2.771561e+002
1.195124e+003, 2.754751e+002
1.195606e+003, 2.751369e+002
1.196089e+003, 2.760840e+002
1.196571e+003, 2.769858e+002
1.197053e+003, 2.777538e+002
1.197535e+003, 2.780045e+002
1.198017e+003, 2.776539e+002
1.198499e+003, 2.768990e+002
1.198981e+003, 2.758212e+002
1.199463e+003, 2.749960e+002
1.199945e+003, 2.754285e+002
1.200427e+003, 2.764675e+002
1.200910e+003, 2.769879e+002
1.201392e+003, 2.770181e+002
1.201874e+003, 2.765036e+002
1.202356e+003, 2.755820e+002
1.202838e+003, 2.744007e+002
1.203320e+003, 2.731377e+002
1.203802e+003, 2.726370e+002
1.204284e+003, 2.736849e+002
1.204767e+003, 2.747303e+002
1.205249e+003, 2.744170e+002
1.205731e+003, 2.738090e+002
1.206213e+003, 2.738031e+002
1.206695e+003, 2.740092e+002
1.207177e+003, 2.738730e+002
1.207659e+003, 2.734995e+002
1.208141e+003, 2.733101e+002
1.208624e+003, 2.733961e+002
1.209106e+003, 2.735145e+002
1.209588e+003, 2.736798e+002
1.210070e+003, 2.737633e+002
1.210552e+003, 2.735326e+002
1.211034e+003, 2.734591e+002
1.211516e+003, 2.741083e+002
1.211998e+003, 2.747338e+002
1.212480e+003, 2.744485e+002
1.212963e+003, 2.735378e+002
1.213445e+003, 2.730902e+002
1.213927e+003, 2.731556e+002
1.214409e+003, 2.734261e+002
1.214891e+003, 2.739085e+002
1.215373e+003, 2.746462e+002
1.215855e+003, 2.757805e+002
1.216337e+003, 2.764854e+002
1.216819e+003, 2.762720e+002
1.217302e+003, 2.756839e+002
1.217784e+003, 2.753367e+002
1.218266e+003, 2.752244e+002
1.218748e+003, 2.753995e+002
1.219230e+003, 2.757962e+002
1.219712e+003, 2.760174e+002
1.220194e+003, 2.761126e+002
1.220676e+003, 2.764662e+002
1.221159e+003, 2.771310e+002
1.221641e+003, 2.778284e+002
1.222123e+003, 2.784140e+002
1.222605e+003, 2.789015e+002
1.223087e+003, 2.790510e+002
1.223569e+003, 2.793637e+002
1.224051e+003, 2.807018e+002
1.224533e+003, 2.823294e+002
1.225016e+003, 2.832404e+002
1.225498e+003, 2.836620e+002
1.225980e+003, 2.841140e+002
1.226462e+003, 2.847296e+002
1.226944e+003, 2.856017e+002
1.227426e+003, 2.868926e+002
1.227908e+003, 2.880264e+002
1.228390e+003, 2.885962e+002
1.228872e+003, 2.892315e+002
1.229354e+003, 2.901542e+002
1.229837e+003, 2.912866e+002
1.230319e+003, 2.930680e+002
1.230801e+003, 2.947467e+002
1.231283e+003, 2.946122e+002
1.231765e+003, 2.927724e+002
1.232247e+003, 2.930218e+002
1.232729e+003, 2.963262e+002
1.233211e+003, 2.987795e+002
1.233694e+003, 3.001387e+002
1.234176e+003, 3.008464e+002
1.234658e+003, 3.008520e+002
1.235140e+003, 3.011100e+002
1.235622e+003, 3.023705e+002
1.236104e+003, 3.040437e+002
1.236586e+003, 3.050493e+002
1.237068e+003, 3.056358e+002
1.237551e+003, 3.070363e+002
1.238033e+003, 3.089861e+002
1.238515e+003, 3.102096e+002
1.238997e+003, 3.107738e+002
1.239479e+003, 3.117807e+002
1.239961e+003, 3.134629e+002
1.240443e+003, 3.149188e+002
1.240925e+003, 3.155167e+002
1.241407e+003, 3.160284e+002
1.241890e+003, 3.171773e+002
1.242372e+003, 3.186202e+002
1.242854e+003, 3.201163e+002
1.243336e+003, 3.216467e+002
1.243818e+003, 3.233819e+002
1.244300e+003, 3.250850e+002
1.244782e+003, 3.261346e+002
1.245264e+003, 3.265091e+002
1.245746e+003, 3.271978e+002
1.246229e+003, 3.286847e+002
1.246711e+003, 3.300745e+002
1.247193e+003, 3.311423e+002
1.247675e+003, 3.321904e+002
1.248157e+003, 3.330998e+002
1.248639e+003, 3.343052e+002
1.249121e+003, 3.363073e+002
1.249603e+003, 3.386189e+002
1.250085e+003, 3.404081e+002
1.250568e+003, 3.416762e+002
1.251050e+003, 3.424034e+002
1.251532e+003, 3.424882e+002
1.252014e+003, 3.431785e+002
1.252496e+003, 3.445886e+002
1.252978e+003, 3.461310e+002
1.253460e+003, 3.476277e+002
1.253942e+003, 3.489213e+002
1.254425e+003, 3.498924e+002
1.254907e+003, 3.506506e+002
1.255389e+003, 3.511772e+002
1.255871e+003, 3.517069e+002
1.256353e+003, 3.527456e+002
1.256835e+003, 3.540753e+002
1.257317e+003, 3.554481e+002
1.257799e+003, 3.566826e+002
1.258281e+003, 3.573522e+002
1.258764e+003, 3.574957e+002
1.259246e+003, 3.578084e+002
1.259728e+003, 3.585548e+002
1.260210e+003, 3.596206e+002
1.260692e+003, 3.614098e+002
1.261174e+003, 3.629048e+002
1.261656e+003, 3.632102e+002
1.262138e+003, 3.634643e+002
1.262620e+003, 3.648916e+002
1.263103e+003, 3.666432e+002
1.263585e+003, 3.672646e+002
1.264067e+003, 3.668809e+002
1.264549e+003, 3.665449e+002
1.265031e+003, 3.661934e+002
1.265513e+003, 3.660793e+002
1.265995e+003, 3.661944e+002
1.266477e+003, 3.666081e+002
1.266960e+003, 3.673696e+002
1.267442e+003, 3.682599e+002
1.267924e+003, 3.691984e+002
1.268406e+003, 3.698288e+002
1.268888e+003, 3.696449e+002
1.269370e+003, 3.690161e+002
1.269852e+003, 3.687563e+002
1.270334e+003, 3.687546e+002
1.270817e+003, 3.686821e+002
1.271299e+003, 3.686296e+002
1.271781e+003, 3.690049e+002
1.272263e+003, 3.697149e+002
1.272745e+003, 3.701236e+002
1.273227e+003, 3.699874e+002
1.273709e+003, 3.698825e+002
1.274191e+003, 3.703271e+002
1.274673e+003, 3.706524e+002
1.275156e+003, 3.701156e+002
1.275638e+003, 3.698106e+002
1.276120e+003, 3.708642e+002
1.276602e+003, 3.722294e+002
1.277084e+003, 3.727641e+002
1.277566e+003, 3.725573e+002
1.278048e+003, 3.719863e+002
1.278530e+003, 3.709316e+002
1.279012e+003, 3.706723e+002
1.279495e+003, 3.713335e+002
1.279977e+003, 3.723783e+002
1.280459e+003, 3.739252e+002
1.280941e+003, 3.749638e+002
1.281423e+003, 3.750829e+002
1.281905e+003, 3.749444e+002
1.282387e+003, 3.750296e+002
1.282869e+003, 3.754369e+002
1.283352e+003, 3.766025e+002
1.283834e+003, 3.780275e+002
1.284316e+003, 3.786106e+002
1.284798e+003, 3.783701e+002
##END=



