##NAMES=Saltonseaite
##RRUFFID=R120131
##IDEAL CHEMISTRY=K_3_NaMn^2+^Cl_6_
##LOCALITY=Salton Sea, Imperial County, California, USA
##OWNER=RRUFF
##SOURCE=Anthony R. Kampf
##DESCRIPTION=Orange fragments from holotype
##STATUS=The identification of this mineral has been confirmed by single-crystal X-ray diffraction.
##URL=rruff.info/R120131
8.975323e+001, 0.000000e+000
9.023535e+001, 1.130698e+002
9.071747e+001, 1.129320e+002
9.119958e+001, 1.124512e+002
9.168170e+001, 1.134919e+002
9.216382e+001, 1.138476e+002
9.264594e+001, 1.133215e+002
9.312805e+001, 1.123038e+002
9.361017e+001, 1.110585e+002
9.409229e+001, 1.092925e+002
9.457440e+001, 1.063676e+002
9.505651e+001, 1.040202e+002
9.553863e+001, 1.023130e+002
9.602074e+001, 1.011278e+002
9.650286e+001, 1.004381e+002
9.698498e+001, 1.001671e+002
9.746709e+001, 9.999092e+001
9.794921e+001, 9.972601e+001
9.843133e+001, 9.894141e+001
9.891344e+001, 9.858629e+001
9.939556e+001, 9.915154e+001
9.987768e+001, 1.003504e+002
1.003598e+002, 1.014354e+002
1.008419e+002, 1.020089e+002
1.013240e+002, 1.020666e+002
1.018061e+002, 1.019154e+002
1.022883e+002, 1.017623e+002
1.027704e+002, 1.012677e+002
1.032525e+002, 1.000824e+002
1.037346e+002, 9.815246e+001
1.042167e+002, 9.578999e+001
1.046988e+002, 9.300167e+001
1.051810e+002, 8.993265e+001
1.056631e+002, 8.675627e+001
1.061452e+002, 8.324430e+001
1.066273e+002, 7.961900e+001
1.071094e+002, 7.680929e+001
1.075915e+002, 7.514464e+001
1.080737e+002, 7.399630e+001
1.085558e+002, 7.311941e+001
1.090379e+002, 7.248818e+001
1.095200e+002, 7.209083e+001
1.100021e+002, 7.186855e+001
1.104842e+002, 7.175117e+001
1.109664e+002, 7.221294e+001
1.114485e+002, 7.344543e+001
1.119306e+002, 7.503410e+001
1.124127e+002, 7.687625e+001
1.128948e+002, 7.891286e+001
1.133769e+002, 8.110079e+001
1.138591e+002, 8.335706e+001
1.143412e+002, 8.572942e+001
1.148233e+002, 8.814063e+001
1.153054e+002, 9.107327e+001
1.157875e+002, 9.384521e+001
1.162696e+002, 9.577568e+001
1.167517e+002, 9.661788e+001
1.172339e+002, 9.662806e+001
1.177160e+002, 9.628075e+001
1.181981e+002, 9.553252e+001
1.186802e+002, 9.463374e+001
1.191623e+002, 9.358678e+001
1.196444e+002, 9.243242e+001
1.201266e+002, 9.125290e+001
1.206087e+002, 9.002248e+001
1.210908e+002, 8.885955e+001
1.215729e+002, 8.795676e+001
1.220550e+002, 8.741631e+001
1.225371e+002, 8.695892e+001
1.230193e+002, 8.626458e+001
1.235014e+002, 8.527536e+001
1.239835e+002, 8.452617e+001
1.244656e+002, 8.440493e+001
1.249477e+002, 8.462035e+001
1.254298e+002, 8.493195e+001
1.259120e+002, 8.520065e+001
1.263941e+002, 8.559092e+001
1.268762e+002, 8.653126e+001
1.273583e+002, 8.841922e+001
1.278404e+002, 9.022182e+001
1.283225e+002, 9.156226e+001
1.288047e+002, 9.266169e+001
1.292868e+002, 9.381194e+001
1.297689e+002, 9.520883e+001
1.302510e+002, 9.683127e+001
1.307331e+002, 9.836388e+001
1.312152e+002, 9.924274e+001
1.316974e+002, 1.005915e+002
1.321795e+002, 1.028688e+002
1.326616e+002, 1.058910e+002
1.331437e+002, 1.091568e+002
1.336258e+002, 1.122398e+002
1.341079e+002, 1.150979e+002
1.345901e+002, 1.181508e+002
1.350722e+002, 1.213688e+002
1.355543e+002, 1.247610e+002
1.360364e+002, 1.284947e+002
1.365185e+002, 1.325178e+002
1.370006e+002, 1.364453e+002
1.374828e+002, 1.398441e+002
1.379649e+002, 1.426919e+002
1.384470e+002, 1.448515e+002
1.389291e+002, 1.460849e+002
1.394112e+002, 1.467232e+002
1.398933e+002, 1.470339e+002
1.403755e+002, 1.469980e+002
1.408576e+002, 1.469277e+002
1.413397e+002, 1.472237e+002
1.418218e+002, 1.478399e+002
1.423039e+002, 1.486213e+002
1.427860e+002, 1.493301e+002
1.432681e+002, 1.501113e+002
1.437503e+002, 1.514776e+002
1.442324e+002, 1.535162e+002
1.447145e+002, 1.563131e+002
1.451966e+002, 1.598545e+002
1.456787e+002, 1.641297e+002
1.461608e+002, 1.688411e+002
1.466430e+002, 1.737225e+002
1.471251e+002, 1.787598e+002
1.476072e+002, 1.841856e+002
1.480893e+002, 1.901645e+002
1.485714e+002, 1.965591e+002
1.490535e+002, 2.033358e+002
1.495357e+002, 2.104631e+002
1.500178e+002, 2.180332e+002
1.504999e+002, 2.261217e+002
1.509820e+002, 2.349287e+002
1.514641e+002, 2.440411e+002
1.519462e+002, 2.536528e+002
1.524284e+002, 2.633795e+002
1.529105e+002, 2.732510e+002
1.533926e+002, 2.831826e+002
1.538747e+002, 2.927570e+002
1.543568e+002, 3.008981e+002
1.548389e+002, 3.071724e+002
1.553211e+002, 3.121861e+002
1.558032e+002, 3.164059e+002
1.562853e+002, 3.193016e+002
1.567674e+002, 3.202333e+002
1.572495e+002, 3.188870e+002
1.577316e+002, 3.153598e+002
1.582138e+002, 3.098010e+002
1.586959e+002, 3.010026e+002
1.591780e+002, 2.918705e+002
1.596601e+002, 2.828520e+002
1.601422e+002, 2.740084e+002
1.606243e+002, 2.653395e+002
1.611065e+002, 2.567726e+002
1.615886e+002, 2.485302e+002
1.620707e+002, 2.414846e+002
1.625528e+002, 2.361932e+002
1.630349e+002, 2.314576e+002
1.635170e+002, 2.270242e+002
1.639991e+002, 2.228070e+002
1.644813e+002, 2.180518e+002
1.649634e+002, 2.124375e+002
1.654455e+002, 2.058058e+002
1.659276e+002, 1.979946e+002
1.664097e+002, 1.884850e+002
1.668918e+002, 1.781315e+002
1.673740e+002, 1.676581e+002
1.678561e+002, 1.569326e+002
1.683382e+002, 1.468027e+002
1.688203e+002, 1.378238e+002
1.693024e+002, 1.297628e+002
1.697845e+002, 1.224639e+002
1.702667e+002, 1.160011e+002
1.707488e+002, 1.102289e+002
1.712309e+002, 1.047808e+002
1.717130e+002, 9.947494e+001
1.721951e+002, 9.492642e+001
1.726772e+002, 9.140687e+001
1.731594e+002, 8.860026e+001
1.736415e+002, 8.604610e+001
1.741236e+002, 8.346861e+001
1.746057e+002, 8.093251e+001
1.750878e+002, 7.888148e+001
1.755699e+002, 7.766505e+001
1.760521e+002, 7.659719e+001
1.765342e+002, 7.551603e+001
1.770163e+002, 7.444546e+001
1.774984e+002, 7.345229e+001
1.779805e+002, 7.256723e+001
1.784626e+002, 7.178823e+001
1.789448e+002, 7.124403e+001
1.794269e+002, 7.126936e+001
1.799090e+002, 7.119910e+001
1.803911e+002, 7.069247e+001
1.808732e+002, 6.989542e+001
1.813553e+002, 6.921632e+001
1.818375e+002, 6.902357e+001
1.823196e+002, 6.938403e+001
1.828017e+002, 6.958840e+001
1.832838e+002, 6.973056e+001
1.837659e+002, 6.967979e+001
1.842480e+002, 6.928470e+001
1.847301e+002, 6.859233e+001
1.852123e+002, 6.784238e+001
1.856944e+002, 6.728136e+001
1.861765e+002, 6.695133e+001
1.866586e+002, 6.635704e+001
1.871407e+002, 6.540508e+001
1.876228e+002, 6.427674e+001
1.881050e+002, 6.298999e+001
1.885871e+002, 6.157153e+001
1.890692e+002, 6.028603e+001
1.895513e+002, 5.947583e+001
1.900334e+002, 5.913043e+001
1.905155e+002, 5.862867e+001
1.909977e+002, 5.782293e+001
1.914798e+002, 5.687096e+001
1.919619e+002, 5.590489e+001
1.924440e+002, 5.491985e+001
1.929261e+002, 5.401803e+001
1.934082e+002, 5.333151e+001
1.938904e+002, 5.281211e+001
1.943725e+002, 5.236979e+001
1.948546e+002, 5.202533e+001
1.953367e+002, 5.173075e+001
1.958188e+002, 5.138013e+001
1.963009e+002, 5.093750e+001
1.967831e+002, 5.050051e+001
1.972652e+002, 5.015454e+001
1.977473e+002, 4.987005e+001
1.982294e+002, 4.958133e+001
1.987115e+002, 4.919239e+001
1.991936e+002, 4.875366e+001
1.996758e+002, 4.849839e+001
2.001579e+002, 4.852575e+001
2.006400e+002, 4.861852e+001
2.011221e+002, 4.868876e+001
2.016042e+002, 4.872744e+001
2.020863e+002, 4.871246e+001
2.025685e+002, 4.856330e+001
2.030506e+002, 4.829859e+001
2.035327e+002, 4.825926e+001
2.040148e+002, 4.865045e+001
2.044969e+002, 4.907336e+001
2.049790e+002, 4.936927e+001
2.054612e+002, 4.956924e+001
2.059433e+002, 4.977466e+001
2.064254e+002, 5.007277e+001
2.069075e+002, 5.046960e+001
2.073896e+002, 5.083931e+001
2.078717e+002, 5.105668e+001
2.083539e+002, 5.136250e+001
2.088360e+002, 5.184340e+001
2.093181e+002, 5.248333e+001
2.098002e+002, 5.323150e+001
2.102823e+002, 5.407275e+001
2.107644e+002, 5.503497e+001
2.112466e+002, 5.579119e+001
2.117287e+002, 5.592504e+001
2.122108e+002, 5.625356e+001
2.126929e+002, 5.717836e+001
2.131750e+002, 5.862045e+001
2.136571e+002, 6.024711e+001
2.141393e+002, 6.176313e+001
2.146214e+002, 6.315205e+001
2.151035e+002, 6.455449e+001
2.155856e+002, 6.589167e+001
2.160677e+002, 6.730882e+001
2.165498e+002, 6.886943e+001
2.170320e+002, 7.057594e+001
2.175141e+002, 7.244299e+001
2.179962e+002, 7.450523e+001
2.184783e+002, 7.679902e+001
2.189604e+002, 7.891788e+001
2.194425e+002, 8.063921e+001
2.199247e+002, 8.239506e+001
2.204068e+002, 8.442355e+001
2.208889e+002, 8.674048e+001
2.213710e+002, 8.927042e+001
2.218531e+002, 9.198257e+001
2.223352e+002, 9.489339e+001
2.228174e+002, 9.777996e+001
2.232995e+002, 1.002833e+002
2.237816e+002, 1.030215e+002
2.242637e+002, 1.065707e+002
2.247458e+002, 1.109343e+002
2.252279e+002, 1.154664e+002
2.257100e+002, 1.196341e+002
2.261922e+002, 1.234885e+002
2.266743e+002, 1.275869e+002
2.271564e+002, 1.320079e+002
2.276385e+002, 1.366508e+002
2.281206e+002, 1.413936e+002
2.286027e+002, 1.462221e+002
2.290849e+002, 1.511605e+002
2.295670e+002, 1.563101e+002
2.300491e+002, 1.615559e+002
2.305312e+002, 1.666138e+002
2.310133e+002, 1.718244e+002
2.314954e+002, 1.765924e+002
2.319776e+002, 1.803537e+002
2.324597e+002, 1.831287e+002
2.329418e+002, 1.847565e+002
2.334239e+002, 1.848476e+002
2.339060e+002, 1.837218e+002
2.343881e+002, 1.816844e+002
2.348703e+002, 1.787105e+002
2.353524e+002, 1.749351e+002
2.358345e+002, 1.705278e+002
2.363166e+002, 1.654706e+002
2.367987e+002, 1.597224e+002
2.372808e+002, 1.525696e+002
2.377630e+002, 1.448964e+002
2.382451e+002, 1.375991e+002
2.387272e+002, 1.309810e+002
2.392093e+002, 1.248098e+002
2.396914e+002, 1.187562e+002
2.401735e+002, 1.127473e+002
2.406557e+002, 1.070202e+002
2.411378e+002, 1.017007e+002
2.416199e+002, 9.667283e+001
2.421020e+002, 9.182286e+001
2.425841e+002, 8.709354e+001
2.430662e+002, 8.264016e+001
2.435484e+002, 7.875079e+001
2.440305e+002, 7.552334e+001
2.445126e+002, 7.263814e+001
2.449947e+002, 7.013864e+001
2.454768e+002, 6.784878e+001
2.459589e+002, 6.562248e+001
2.464410e+002, 6.340372e+001
2.469232e+002, 6.127489e+001
2.474053e+002, 5.936703e+001
2.478874e+002, 5.777690e+001
2.483695e+002, 5.619518e+001
2.488516e+002, 5.444837e+001
2.493337e+002, 5.275812e+001
2.498159e+002, 5.134502e+001
2.502980e+002, 5.026616e+001
2.507801e+002, 4.933828e+001
2.512622e+002, 4.822975e+001
2.517443e+002, 4.682463e+001
2.522264e+002, 4.551352e+001
2.527086e+002, 4.430293e+001
2.531907e+002, 4.319868e+001
2.536728e+002, 4.218626e+001
2.541549e+002, 4.127003e+001
2.546370e+002, 4.047892e+001
2.551191e+002, 3.986433e+001
2.556013e+002, 3.949508e+001
2.560834e+002, 3.917311e+001
2.565655e+002, 3.905593e+001
2.570476e+002, 3.886351e+001
2.575297e+002, 3.832208e+001
2.580118e+002, 3.742817e+001
2.584940e+002, 3.647418e+001
2.589761e+002, 3.587931e+001
2.594582e+002, 3.586407e+001
2.599403e+002, 3.565411e+001
2.604224e+002, 3.512174e+001
2.609045e+002, 3.453454e+001
2.613867e+002, 3.403306e+001
2.618688e+002, 3.364308e+001
2.623509e+002, 3.333835e+001
2.628330e+002, 3.309742e+001
2.633151e+002, 3.295576e+001
2.637972e+002, 3.274504e+001
2.642794e+002, 3.244165e+001
2.647615e+002, 3.210512e+001
2.652436e+002, 3.175430e+001
2.657257e+002, 3.139939e+001
2.662078e+002, 3.105232e+001
2.666899e+002, 3.072351e+001
2.671721e+002, 3.041300e+001
2.676542e+002, 3.013184e+001
2.681363e+002, 2.985825e+001
2.686184e+002, 2.962590e+001
2.691005e+002, 2.947259e+001
2.695826e+002, 2.938257e+001
2.700648e+002, 2.930001e+001
2.705469e+002, 2.917651e+001
2.710290e+002, 2.901018e+001
2.715111e+002, 2.888327e+001
2.719932e+002, 2.885139e+001
2.724753e+002, 2.879619e+001
2.729575e+002, 2.869441e+001
2.734396e+002, 2.853172e+001
2.739217e+002, 2.826110e+001
2.744038e+002, 2.782426e+001
2.748859e+002, 2.724862e+001
2.753680e+002, 2.689454e+001
2.758501e+002, 2.684971e+001
2.763322e+002, 2.686984e+001
2.768144e+002, 2.695458e+001
2.772965e+002, 2.704409e+001
2.777786e+002, 2.699164e+001
2.782607e+002, 2.669073e+001
2.787428e+002, 2.622668e+001
2.792249e+002, 2.597460e+001
2.797071e+002, 2.612540e+001
2.801892e+002, 2.621760e+001
2.806713e+002, 2.608575e+001
2.811534e+002, 2.582404e+001
2.816355e+002, 2.559806e+001
2.821176e+002, 2.548001e+001
2.825998e+002, 2.543354e+001
2.830819e+002, 2.536588e+001
2.835640e+002, 2.522465e+001
2.840461e+002, 2.515915e+001
2.845282e+002, 2.529722e+001
2.850103e+002, 2.550431e+001
2.854925e+002, 2.556291e+001
2.859746e+002, 2.539105e+001
2.864567e+002, 2.511789e+001
2.869388e+002, 2.495746e+001
2.874209e+002, 2.493109e+001
2.879030e+002, 2.493170e+001
2.883852e+002, 2.499089e+001
2.888673e+002, 2.505004e+001
2.893494e+002, 2.502726e+001
2.898315e+002, 2.490204e+001
2.903136e+002, 2.473730e+001
2.907957e+002, 2.461010e+001
2.912779e+002, 2.452925e+001
2.917600e+002, 2.441642e+001
2.922421e+002, 2.423963e+001
2.927242e+002, 2.404099e+001
2.932063e+002, 2.382905e+001
2.936884e+002, 2.360719e+001
2.941706e+002, 2.346753e+001
2.946527e+002, 2.352962e+001
2.951348e+002, 2.379704e+001
2.956169e+002, 2.397410e+001
2.960990e+002, 2.408813e+001
2.965811e+002, 2.408138e+001
2.970633e+002, 2.381091e+001
2.975454e+002, 2.330745e+001
2.980275e+002, 2.289464e+001
2.985096e+002, 2.283038e+001
2.989917e+002, 2.306674e+001
2.994738e+002, 2.319694e+001
2.999560e+002, 2.311494e+001
3.004381e+002, 2.302472e+001
3.009202e+002, 2.309122e+001
3.014023e+002, 2.327126e+001
3.018844e+002, 2.335107e+001
3.023665e+002, 2.317903e+001
3.028487e+002, 2.285849e+001
3.033308e+002, 2.271166e+001
3.038129e+002, 2.285566e+001
3.042950e+002, 2.296451e+001
3.047771e+002, 2.282904e+001
3.052592e+002, 2.254291e+001
3.057414e+002, 2.236750e+001
3.062235e+002, 2.243160e+001
3.067056e+002, 2.259508e+001
3.071877e+002, 2.256358e+001
3.076698e+002, 2.228599e+001
3.081519e+002, 2.206198e+001
3.086341e+002, 2.203148e+001
3.091162e+002, 2.210841e+001
3.095983e+002, 2.214739e+001
3.100804e+002, 2.210951e+001
3.105625e+002, 2.203791e+001
3.110446e+002, 2.200300e+001
3.115268e+002, 2.201132e+001
3.120089e+002, 2.194671e+001
3.124910e+002, 2.171610e+001
3.129731e+002, 2.143307e+001
3.134552e+002, 2.123157e+001
3.139373e+002, 2.113253e+001
3.144195e+002, 2.107858e+001
3.149016e+002, 2.103373e+001
3.153837e+002, 2.099435e+001
3.158658e+002, 2.092189e+001
3.163479e+002, 2.073796e+001
3.168300e+002, 2.057304e+001
3.173121e+002, 2.055694e+001
3.177943e+002, 2.068411e+001
3.182764e+002, 2.083012e+001
3.187585e+002, 2.092092e+001
3.192406e+002, 2.096062e+001
3.197227e+002, 2.099192e+001
3.202048e+002, 2.107797e+001
3.206870e+002, 2.109499e+001
3.211691e+002, 2.093350e+001
3.216512e+002, 2.063618e+001
3.221333e+002, 2.033560e+001
3.226154e+002, 2.006859e+001
3.230975e+002, 1.986963e+001
3.235797e+002, 1.984853e+001
3.240618e+002, 2.010195e+001
3.245439e+002, 2.029220e+001
3.250260e+002, 2.025608e+001
3.255081e+002, 2.008233e+001
3.259902e+002, 1.993628e+001
3.264724e+002, 1.987042e+001
3.269545e+002, 1.984242e+001
3.274366e+002, 1.978413e+001
3.279187e+002, 1.968699e+001
3.284008e+002, 1.961307e+001
3.288829e+002, 1.955438e+001
3.293651e+002, 1.953398e+001
3.298472e+002, 1.962085e+001
3.303293e+002, 1.982698e+001
3.308114e+002, 1.999704e+001
3.312935e+002, 1.995756e+001
3.317756e+002, 1.968744e+001
3.322578e+002, 1.946146e+001
3.327399e+002, 1.928307e+001
3.332220e+002, 1.915622e+001
3.337041e+002, 1.912024e+001
3.341862e+002, 1.915861e+001
3.346683e+002, 1.915177e+001
3.351505e+002, 1.898176e+001
3.356326e+002, 1.869688e+001
3.361147e+002, 1.863394e+001
3.365968e+002, 1.905035e+001
3.370789e+002, 1.939181e+001
3.375610e+002, 1.935466e+001
3.380432e+002, 1.906278e+001
3.385253e+002, 1.880980e+001
3.390074e+002, 1.872979e+001
3.394895e+002, 1.877468e+001
3.399716e+002, 1.882886e+001
3.404537e+002, 1.893184e+001
3.409359e+002, 1.897416e+001
3.414180e+002, 1.890990e+001
3.419001e+002, 1.878266e+001
3.423822e+002, 1.862897e+001
3.428643e+002, 1.845955e+001
3.433464e+002, 1.831636e+001
3.438286e+002, 1.827015e+001
3.443107e+002, 1.838526e+001
3.447928e+002, 1.840337e+001
3.452749e+002, 1.825714e+001
3.457570e+002, 1.805909e+001
3.462391e+002, 1.787860e+001
3.467213e+002, 1.772938e+001
3.472034e+002, 1.760563e+001
3.476855e+002, 1.749879e+001
3.481676e+002, 1.740752e+001
3.486497e+002, 1.740020e+001
3.491318e+002, 1.756316e+001
3.496140e+002, 1.770862e+001
3.500961e+002, 1.777933e+001
3.505782e+002, 1.776935e+001
3.510603e+002, 1.765222e+001
3.515424e+002, 1.739451e+001
3.520245e+002, 1.705823e+001
3.525067e+002, 1.691400e+001
3.529888e+002, 1.714658e+001
3.534709e+002, 1.734127e+001
3.539530e+002, 1.745377e+001
3.544351e+002, 1.750052e+001
3.549172e+002, 1.749463e+001
3.553994e+002, 1.744155e+001
3.558815e+002, 1.735695e+001
3.563636e+002, 1.726941e+001
3.568457e+002, 1.720644e+001
3.573278e+002, 1.707618e+001
3.578099e+002, 1.674758e+001
3.582920e+002, 1.645456e+001
3.587741e+002, 1.639152e+001
3.592563e+002, 1.655016e+001
3.597384e+002, 1.676513e+001
3.602205e+002, 1.687501e+001
3.607026e+002, 1.686604e+001
3.611847e+002, 1.688389e+001
3.616668e+002, 1.697853e+001
3.621490e+002, 1.704663e+001
3.626311e+002, 1.706745e+001
3.631132e+002, 1.703496e+001
3.635953e+002, 1.693252e+001
3.640774e+002, 1.674349e+001
3.645595e+002, 1.649683e+001
3.650417e+002, 1.631828e+001
3.655238e+002, 1.627612e+001
3.660059e+002, 1.621142e+001
3.664880e+002, 1.604478e+001
3.669701e+002, 1.587840e+001
3.674522e+002, 1.583350e+001
3.679344e+002, 1.594250e+001
3.684165e+002, 1.610844e+001
3.688986e+002, 1.617975e+001
3.693807e+002, 1.612278e+001
3.698628e+002, 1.605971e+001
3.703449e+002, 1.594656e+001
3.708271e+002, 1.586839e+001
3.713092e+002, 1.590267e+001
3.717913e+002, 1.602716e+001
3.722734e+002, 1.613954e+001
3.727555e+002, 1.614037e+001
3.732376e+002, 1.603405e+001
3.737198e+002, 1.595897e+001
3.742019e+002, 1.588514e+001
3.746840e+002, 1.588879e+001
3.751661e+002, 1.608303e+001
3.756482e+002, 1.634656e+001
3.761303e+002, 1.648425e+001
3.766125e+002, 1.638517e+001
3.770946e+002, 1.614802e+001
3.775767e+002, 1.598836e+001
3.780588e+002, 1.592478e+001
3.785409e+002, 1.588739e+001
3.790230e+002, 1.587180e+001
3.795052e+002, 1.586533e+001
3.799873e+002, 1.585519e+001
3.804694e+002, 1.583908e+001
3.809515e+002, 1.583383e+001
3.814336e+002, 1.585855e+001
3.819157e+002, 1.591278e+001
3.823979e+002, 1.597657e+001
3.828800e+002, 1.606306e+001
3.833621e+002, 1.613900e+001
3.838442e+002, 1.619232e+001
3.843263e+002, 1.622026e+001
3.848084e+002, 1.621534e+001
3.852906e+002, 1.616839e+001
3.857727e+002, 1.608647e+001
3.862548e+002, 1.598622e+001
3.867369e+002, 1.587047e+001
3.872190e+002, 1.572546e+001
3.877011e+002, 1.543853e+001
3.881833e+002, 1.514666e+001
3.886654e+002, 1.507267e+001
3.891475e+002, 1.533489e+001
3.896296e+002, 1.568314e+001
3.901117e+002, 1.594772e+001
3.905938e+002, 1.612449e+001
3.910760e+002, 1.615609e+001
3.915581e+002, 1.597045e+001
3.920402e+002, 1.569412e+001
3.925223e+002, 1.548919e+001
3.930044e+002, 1.535246e+001
3.934865e+002, 1.527779e+001
3.939687e+002, 1.532431e+001
3.944508e+002, 1.541224e+001
3.949329e+002, 1.539574e+001
3.954150e+002, 1.524502e+001
3.958971e+002, 1.508534e+001
3.963792e+002, 1.502262e+001
3.968614e+002, 1.505490e+001
3.973435e+002, 1.510444e+001
3.978256e+002, 1.520202e+001
3.983077e+002, 1.528651e+001
3.987898e+002, 1.530065e+001
3.992719e+002, 1.526322e+001
3.997540e+002, 1.525344e+001
4.002361e+002, 1.532370e+001
4.007183e+002, 1.542659e+001
4.012004e+002, 1.541609e+001
4.016825e+002, 1.523666e+001
4.021646e+002, 1.506164e+001
4.026467e+002, 1.490897e+001
4.031288e+002, 1.478143e+001
4.036110e+002, 1.468108e+001
4.040931e+002, 1.460927e+001
4.045752e+002, 1.456910e+001
4.050573e+002, 1.456166e+001
4.055394e+002, 1.458255e+001
4.060215e+002, 1.467299e+001
4.065037e+002, 1.493379e+001
4.069858e+002, 1.515932e+001
4.074679e+002, 1.523831e+001
4.079500e+002, 1.519761e+001
4.084321e+002, 1.511878e+001
4.089142e+002, 1.504917e+001
4.093964e+002, 1.498834e+001
4.098785e+002, 1.493305e+001
4.103606e+002, 1.488934e+001
4.108427e+002, 1.484361e+001
4.113248e+002, 1.477464e+001
4.118069e+002, 1.471383e+001
4.122891e+002, 1.470174e+001
4.127712e+002, 1.474413e+001
4.132533e+002, 1.479910e+001
4.137354e+002, 1.481553e+001
4.142175e+002, 1.479404e+001
4.146996e+002, 1.473052e+001
4.151818e+002, 1.452478e+001
4.156639e+002, 1.437078e+001
4.161460e+002, 1.441510e+001
4.166281e+002, 1.457621e+001
4.171102e+002, 1.464610e+001
4.175923e+002, 1.446236e+001
4.180745e+002, 1.411849e+001
4.185566e+002, 1.393054e+001
4.190387e+002, 1.392800e+001
4.195208e+002, 1.402417e+001
4.200029e+002, 1.432840e+001
4.204850e+002, 1.463995e+001
4.209672e+002, 1.474745e+001
4.214493e+002, 1.459669e+001
4.219314e+002, 1.436588e+001
4.224135e+002, 1.422134e+001
4.228956e+002, 1.416048e+001
4.233777e+002, 1.412644e+001
4.238599e+002, 1.412962e+001
4.243420e+002, 1.413272e+001
4.248241e+002, 1.410339e+001
4.253062e+002, 1.404947e+001
4.257883e+002, 1.399879e+001
4.262704e+002, 1.394336e+001
4.267526e+002, 1.390675e+001
4.272347e+002, 1.394286e+001
4.277168e+002, 1.405733e+001
4.281989e+002, 1.415408e+001
4.286810e+002, 1.419130e+001
4.291631e+002, 1.416950e+001
4.296453e+002, 1.409443e+001
4.301274e+002, 1.392350e+001
4.306095e+002, 1.379592e+001
4.310916e+002, 1.380475e+001
4.315737e+002, 1.390205e+001
4.320558e+002, 1.400707e+001
4.325380e+002, 1.410514e+001
4.330201e+002, 1.416590e+001
4.335022e+002, 1.413926e+001
4.339843e+002, 1.400910e+001
4.344664e+002, 1.391981e+001
4.349485e+002, 1.392251e+001
4.354307e+002, 1.392783e+001
4.359128e+002, 1.387078e+001
4.363949e+002, 1.376298e+001
4.368770e+002, 1.364896e+001
4.373591e+002, 1.355016e+001
4.378412e+002, 1.347338e+001
4.383234e+002, 1.344710e+001
4.388055e+002, 1.351341e+001
4.392876e+002, 1.357761e+001
4.397697e+002, 1.364021e+001
4.402518e+002, 1.369423e+001
4.407339e+002, 1.373616e+001
4.412160e+002, 1.376354e+001
4.416982e+002, 1.376785e+001
4.421803e+002, 1.372903e+001
4.426624e+002, 1.363085e+001
4.431445e+002, 1.360824e+001
4.436266e+002, 1.378832e+001
4.441087e+002, 1.391248e+001
4.445909e+002, 1.390269e+001
4.450730e+002, 1.378229e+001
4.455551e+002, 1.357073e+001
4.460372e+002, 1.326448e+001
4.465193e+002, 1.294672e+001
4.470014e+002, 1.281294e+001
4.474836e+002, 1.291462e+001
4.479657e+002, 1.304801e+001
4.484478e+002, 1.326152e+001
4.489299e+002, 1.343261e+001
4.494120e+002, 1.345551e+001
4.498941e+002, 1.333803e+001
4.503763e+002, 1.320225e+001
4.508584e+002, 1.313391e+001
4.513405e+002, 1.312306e+001
4.518226e+002, 1.313493e+001
4.523047e+002, 1.317802e+001
4.527868e+002, 1.322071e+001
4.532690e+002, 1.322444e+001
4.537511e+002, 1.322078e+001
4.542332e+002, 1.326477e+001
4.547153e+002, 1.339601e+001
4.551974e+002, 1.352172e+001
4.556795e+002, 1.356866e+001
4.561617e+002, 1.354517e+001
4.566438e+002, 1.347156e+001
4.571259e+002, 1.332466e+001
4.576080e+002, 1.319139e+001
4.580901e+002, 1.322322e+001
4.585722e+002, 1.341975e+001
4.590544e+002, 1.354373e+001
4.595365e+002, 1.351005e+001
4.600186e+002, 1.341758e+001
4.605007e+002, 1.332088e+001
4.609828e+002, 1.323608e+001
4.614649e+002, 1.322334e+001
4.619471e+002, 1.334400e+001
4.624292e+002, 1.354030e+001
4.629113e+002, 1.356977e+001
4.633934e+002, 1.321258e+001
4.638755e+002, 1.298773e+001
4.643576e+002, 1.303285e+001
4.648398e+002, 1.319348e+001
4.653219e+002, 1.334642e+001
4.658040e+002, 1.345153e+001
4.662861e+002, 1.347724e+001
4.667682e+002, 1.336918e+001
4.672503e+002, 1.309937e+001
4.677325e+002, 1.295945e+001
4.682146e+002, 1.306689e+001
4.686967e+002, 1.318122e+001
4.691788e+002, 1.324599e+001
4.696609e+002, 1.327545e+001
4.701430e+002, 1.330427e+001
4.706252e+002, 1.334917e+001
4.711073e+002, 1.337720e+001
4.715894e+002, 1.331715e+001
4.720715e+002, 1.314388e+001
4.725536e+002, 1.299316e+001
4.730357e+002, 1.286654e+001
4.735179e+002, 1.278652e+001
4.740000e+002, 1.280074e+001
4.744821e+002, 1.288356e+001
4.749642e+002, 1.293485e+001
4.754463e+002, 1.287355e+001
4.759284e+002, 1.274835e+001
4.764106e+002, 1.264850e+001
4.768927e+002, 1.256708e+001
4.773748e+002, 1.256354e+001
4.778569e+002, 1.274132e+001
4.783390e+002, 1.297305e+001
4.788211e+002, 1.304978e+001
4.793033e+002, 1.292609e+001
4.797854e+002, 1.278421e+001
4.802675e+002, 1.268286e+001
4.807496e+002, 1.263285e+001
4.812317e+002, 1.268507e+001
4.817138e+002, 1.285385e+001
4.821959e+002, 1.300247e+001
4.826780e+002, 1.299211e+001
4.831602e+002, 1.282566e+001
4.836423e+002, 1.274245e+001
4.841244e+002, 1.275924e+001
4.846065e+002, 1.283467e+001
4.850886e+002, 1.303370e+001
4.855707e+002, 1.326305e+001
4.860529e+002, 1.333600e+001
4.865350e+002, 1.318505e+001
4.870171e+002, 1.295397e+001
4.874992e+002, 1.288790e+001
4.879813e+002, 1.308008e+001
4.884634e+002, 1.318134e+001
4.889456e+002, 1.315539e+001
4.894277e+002, 1.308970e+001
4.899098e+002, 1.299279e+001
4.903919e+002, 1.289178e+001
4.908740e+002, 1.284254e+001
4.913561e+002, 1.288938e+001
4.918383e+002, 1.298005e+001
4.923204e+002, 1.296593e+001
4.928025e+002, 1.281639e+001
4.932846e+002, 1.264704e+001
4.937667e+002, 1.242839e+001
4.942488e+002, 1.223782e+001
4.947310e+002, 1.212246e+001
4.952131e+002, 1.208716e+001
4.956952e+002, 1.211983e+001
4.961773e+002, 1.223290e+001
4.966594e+002, 1.240605e+001
4.971415e+002, 1.261334e+001
4.976237e+002, 1.288230e+001
4.981058e+002, 1.304817e+001
4.985879e+002, 1.295972e+001
4.990700e+002, 1.272941e+001
4.995521e+002, 1.258167e+001
5.000342e+002, 1.255832e+001
5.005164e+002, 1.254142e+001
5.009985e+002, 1.243474e+001
5.014806e+002, 1.230454e+001
5.019627e+002, 1.231130e+001
5.024448e+002, 1.249037e+001
5.029269e+002, 1.262477e+001
5.034091e+002, 1.247491e+001
5.038912e+002, 1.202636e+001
5.043733e+002, 1.178182e+001
5.048554e+002, 1.181011e+001
5.053375e+002, 1.193922e+001
5.058196e+002, 1.222149e+001
5.063018e+002, 1.253157e+001
5.067839e+002, 1.265854e+001
5.072660e+002, 1.253352e+001
5.077481e+002, 1.231175e+001
5.082302e+002, 1.223431e+001
5.087123e+002, 1.234389e+001
5.091945e+002, 1.244322e+001
5.096766e+002, 1.255614e+001
5.101587e+002, 1.263437e+001
5.106408e+002, 1.262760e+001
5.111229e+002, 1.257679e+001
5.116050e+002, 1.257280e+001
5.120872e+002, 1.267731e+001
5.125693e+002, 1.279530e+001
5.130514e+002, 1.272629e+001
5.135335e+002, 1.243804e+001
5.140156e+002, 1.220936e+001
5.144977e+002, 1.211975e+001
5.149799e+002, 1.209174e+001
5.154620e+002, 1.208446e+001
5.159441e+002, 1.208787e+001
5.164262e+002, 1.204423e+001
5.169083e+002, 1.184826e+001
5.173904e+002, 1.163822e+001
5.178726e+002, 1.162338e+001
5.183547e+002, 1.179128e+001
5.188368e+002, 1.194005e+001
5.193189e+002, 1.196999e+001
5.198010e+002, 1.192942e+001
5.202831e+002, 1.192497e+001
5.207653e+002, 1.196450e+001
5.212474e+002, 1.200759e+001
5.217295e+002, 1.204162e+001
5.222116e+002, 1.208045e+001
5.226937e+002, 1.217830e+001
5.231758e+002, 1.230737e+001
5.236580e+002, 1.232863e+001
5.241401e+002, 1.212008e+001
5.246222e+002, 1.175082e+001
5.251043e+002, 1.158401e+001
5.255864e+002, 1.187350e+001
5.260685e+002, 1.200518e+001
5.265507e+002, 1.177481e+001
5.270328e+002, 1.147917e+001
5.275149e+002, 1.137306e+001
5.279970e+002, 1.147384e+001
5.284791e+002, 1.161575e+001
5.289612e+002, 1.164725e+001
5.294434e+002, 1.159229e+001
5.299255e+002, 1.161175e+001
5.304076e+002, 1.175750e+001
5.308897e+002, 1.185677e+001
5.313718e+002, 1.176111e+001
5.318539e+002, 1.161633e+001
5.323361e+002, 1.158687e+001
5.328182e+002, 1.171321e+001
5.333003e+002, 1.184029e+001
5.337824e+002, 1.186640e+001
5.342645e+002, 1.182140e+001
5.347466e+002, 1.174002e+001
5.352288e+002, 1.161861e+001
5.357109e+002, 1.157883e+001
5.361930e+002, 1.176313e+001
5.366751e+002, 1.211265e+001
5.371572e+002, 1.226037e+001
5.376393e+002, 1.203671e+001
5.381215e+002, 1.183860e+001
5.386036e+002, 1.183281e+001
5.390857e+002, 1.188865e+001
5.395678e+002, 1.181240e+001
5.400499e+002, 1.157941e+001
5.405320e+002, 1.135437e+001
5.410142e+002, 1.132283e+001
5.414963e+002, 1.149264e+001
5.419784e+002, 1.158409e+001
5.424604e+002, 1.150106e+001
5.429426e+002, 1.145137e+001
5.434247e+002, 1.149453e+001
5.439068e+002, 1.158358e+001
5.443889e+002, 1.168363e+001
5.448710e+002, 1.178087e+001
5.453531e+002, 1.183228e+001
5.458353e+002, 1.174362e+001
5.463174e+002, 1.153481e+001
5.467995e+002, 1.146891e+001
5.472816e+002, 1.163304e+001
5.477637e+002, 1.178449e+001
5.482458e+002, 1.172294e+001
5.487280e+002, 1.155888e+001
5.492101e+002, 1.147101e+001
5.496922e+002, 1.151576e+001
5.501743e+002, 1.158248e+001
5.506564e+002, 1.161564e+001
5.511385e+002, 1.161851e+001
5.516207e+002, 1.159862e+001
5.521028e+002, 1.155765e+001
5.525849e+002, 1.148731e+001
5.530670e+002, 1.136669e+001
5.535491e+002, 1.119534e+001
5.540313e+002, 1.110211e+001
5.545134e+002, 1.112040e+001
5.549955e+002, 1.116396e+001
5.554776e+002, 1.122753e+001
5.559597e+002, 1.129509e+001
5.564418e+002, 1.134256e+001
5.569240e+002, 1.136666e+001
5.574061e+002, 1.139335e+001
5.578882e+002, 1.146512e+001
5.583703e+002, 1.158588e+001
5.588524e+002, 1.162765e+001
5.593345e+002, 1.152711e+001
5.598167e+002, 1.143599e+001
5.602988e+002, 1.139320e+001
5.607809e+002, 1.139206e+001
5.612630e+002, 1.144719e+001
5.617451e+002, 1.157082e+001
5.622272e+002, 1.165411e+001
5.627094e+002, 1.154946e+001
5.631915e+002, 1.132439e+001
5.636736e+002, 1.122384e+001
5.641557e+002, 1.129750e+001
5.646378e+002, 1.137794e+001
5.651199e+002, 1.130458e+001
5.656021e+002, 1.114258e+001
5.660842e+002, 1.117423e+001
5.665663e+002, 1.165453e+001
5.670484e+002, 1.196502e+001
5.675305e+002, 1.176122e+001
5.680126e+002, 1.133529e+001
5.684948e+002, 1.103427e+001
5.689769e+002, 1.092604e+001
5.694590e+002, 1.090373e+001
5.699411e+002, 1.086852e+001
5.704232e+002, 1.082522e+001
5.709053e+002, 1.087108e+001
5.713875e+002, 1.111506e+001
5.718696e+002, 1.130293e+001
5.723517e+002, 1.137614e+001
5.728338e+002, 1.139159e+001
5.733159e+002, 1.138549e+001
5.737980e+002, 1.137193e+001
5.742802e+002, 1.137726e+001
5.747623e+002, 1.145753e+001
5.752444e+002, 1.158002e+001
5.757265e+002, 1.159492e+001
5.762086e+002, 1.147868e+001
5.766907e+002, 1.135395e+001
5.771729e+002, 1.128330e+001
5.776550e+002, 1.123559e+001
5.781371e+002, 1.112632e+001
5.786192e+002, 1.090482e+001
5.791013e+002, 1.084601e+001
5.795834e+002, 1.125035e+001
5.800656e+002, 1.175522e+001
5.805477e+002, 1.191556e+001
5.810298e+002, 1.173410e+001
5.815119e+002, 1.149268e+001
5.819940e+002, 1.135798e+001
5.824761e+002, 1.131605e+001
5.829583e+002, 1.132279e+001
5.834404e+002, 1.149243e+001
5.839225e+002, 1.153177e+001
5.844046e+002, 1.128393e+001
5.848867e+002, 1.103964e+001
5.853688e+002, 1.102559e+001
5.858510e+002, 1.119434e+001
5.863331e+002, 1.133744e+001
5.868152e+002, 1.131171e+001
5.872973e+002, 1.120287e+001
5.877794e+002, 1.122967e+001
5.882615e+002, 1.142256e+001
5.887437e+002, 1.154008e+001
5.892258e+002, 1.149671e+001
5.897079e+002, 1.138722e+001
5.901900e+002, 1.129526e+001
5.906721e+002, 1.121825e+001
5.911542e+002, 1.114051e+001
5.916364e+002, 1.103077e+001
5.921185e+002, 1.094123e+001
5.926006e+002, 1.091826e+001
5.930827e+002, 1.095321e+001
5.935648e+002, 1.103455e+001
5.940469e+002, 1.116300e+001
5.945291e+002, 1.128342e+001
5.950112e+002, 1.131038e+001
5.954933e+002, 1.120904e+001
5.959754e+002, 1.117411e+001
5.964575e+002, 1.124859e+001
5.969396e+002, 1.133128e+001
5.974218e+002, 1.143251e+001
5.979039e+002, 1.150331e+001
5.983860e+002, 1.144624e+001
5.988681e+002, 1.123439e+001
5.993502e+002, 1.101841e+001
5.998323e+002, 1.099402e+001
6.003145e+002, 1.115437e+001
6.007966e+002, 1.133129e+001
6.012787e+002, 1.157152e+001
6.017608e+002, 1.171217e+001
6.022429e+002, 1.155421e+001
6.027250e+002, 1.126723e+001
6.032072e+002, 1.111291e+001
6.036893e+002, 1.115059e+001
6.041714e+002, 1.123350e+001
6.046535e+002, 1.132479e+001
6.051356e+002, 1.139930e+001
6.056177e+002, 1.142696e+001
6.060999e+002, 1.140195e+001
6.065820e+002, 1.129738e+001
6.070641e+002, 1.106695e+001
6.075462e+002, 1.077071e+001
6.080283e+002, 1.068718e+001
6.085104e+002, 1.115837e+001
6.089926e+002, 1.134944e+001
6.094747e+002, 1.094682e+001
6.099568e+002, 1.049337e+001
6.104389e+002, 1.038027e+001
6.109210e+002, 1.057748e+001
6.114031e+002, 1.084250e+001
6.118853e+002, 1.105168e+001
6.123674e+002, 1.118670e+001
6.128495e+002, 1.118293e+001
6.133316e+002, 1.102623e+001
6.138137e+002, 1.089418e+001
6.142958e+002, 1.082123e+001
6.147780e+002, 1.079811e+001
6.152601e+002, 1.083609e+001
6.157422e+002, 1.092346e+001
6.162243e+002, 1.098902e+001
6.167064e+002, 1.100125e+001
6.171885e+002, 1.100431e+001
6.176707e+002, 1.104558e+001
6.181528e+002, 1.109458e+001
6.186349e+002, 1.107060e+001
6.191170e+002, 1.095311e+001
6.195991e+002, 1.083136e+001
6.200812e+002, 1.081286e+001
6.205634e+002, 1.090425e+001
6.210455e+002, 1.099893e+001
6.215276e+002, 1.116259e+001
6.220097e+002, 1.124453e+001
6.224918e+002, 1.113928e+001
6.229739e+002, 1.098057e+001
6.234561e+002, 1.090697e+001
6.239382e+002, 1.094375e+001
6.244203e+002, 1.101642e+001
6.249023e+002, 1.109880e+001
6.253845e+002, 1.116647e+001
6.258666e+002, 1.112588e+001
6.263487e+002, 1.096313e+001
6.268308e+002, 1.084036e+001
6.273129e+002, 1.083978e+001
6.277950e+002, 1.091337e+001
6.282772e+002, 1.098937e+001
6.287593e+002, 1.108775e+001
6.292414e+002, 1.110466e+001
6.297235e+002, 1.090295e+001
6.302056e+002, 1.072369e+001
6.306877e+002, 1.076048e+001
6.311699e+002, 1.095449e+001
6.316520e+002, 1.115957e+001
6.321341e+002, 1.130819e+001
6.326162e+002, 1.139361e+001
6.330983e+002, 1.139479e+001
6.335804e+002, 1.129747e+001
6.340626e+002, 1.118347e+001
6.345447e+002, 1.099666e+001
6.350268e+002, 1.087224e+001
6.355089e+002, 1.090430e+001
6.359910e+002, 1.101774e+001
6.364731e+002, 1.110758e+001
6.369553e+002, 1.115531e+001
6.374374e+002, 1.114820e+001
6.379195e+002, 1.100496e+001
6.384016e+002, 1.082249e+001
6.388837e+002, 1.081809e+001
6.393658e+002, 1.100922e+001
6.398480e+002, 1.118815e+001
6.403301e+002, 1.121773e+001
6.408122e+002, 1.113792e+001
6.412943e+002, 1.108256e+001
6.417764e+002, 1.109272e+001
6.422585e+002, 1.106615e+001
6.427407e+002, 1.093679e+001
6.432228e+002, 1.082942e+001
6.437049e+002, 1.084386e+001
6.441870e+002, 1.094657e+001
6.446691e+002, 1.104233e+001
6.451512e+002, 1.108283e+001
6.456334e+002, 1.108505e+001
6.461155e+002, 1.106118e+001
6.465976e+002, 1.101174e+001
6.470797e+002, 1.100499e+001
6.475618e+002, 1.107210e+001
6.480439e+002, 1.113777e+001
6.485261e+002, 1.111141e+001
6.490082e+002, 1.103760e+001
6.494903e+002, 1.106270e+001
6.499724e+002, 1.129282e+001
6.504545e+002, 1.147568e+001
6.509366e+002, 1.150340e+001
6.514188e+002, 1.143508e+001
6.519009e+002, 1.130833e+001
6.523830e+002, 1.114799e+001
6.528651e+002, 1.101752e+001
6.533472e+002, 1.096600e+001
6.538293e+002, 1.097607e+001
6.543115e+002, 1.098429e+001
6.547936e+002, 1.098888e+001
6.552757e+002, 1.099571e+001
6.557578e+002, 1.097356e+001
6.562399e+002, 1.098270e+001
6.567220e+002, 1.110459e+001
6.572042e+002, 1.129006e+001
6.576863e+002, 1.138386e+001
6.581684e+002, 1.127892e+001
6.586505e+002, 1.114012e+001
6.591326e+002, 1.116084e+001
6.596147e+002, 1.127120e+001
6.600969e+002, 1.122186e+001
6.605790e+002, 1.095235e+001
6.610611e+002, 1.077736e+001
6.615432e+002, 1.103397e+001
6.620253e+002, 1.165227e+001
6.625074e+002, 1.187246e+001
6.629896e+002, 1.121656e+001
6.634717e+002, 1.079247e+001
6.639538e+002, 1.083505e+001
6.644359e+002, 1.103468e+001
6.649180e+002, 1.117660e+001
6.654001e+002, 1.124043e+001
6.658823e+002, 1.129763e+001
6.663644e+002, 1.141715e+001
6.668465e+002, 1.151369e+001
6.673286e+002, 1.138233e+001
6.678107e+002, 1.103213e+001
6.682928e+002, 1.077498e+001
6.687750e+002, 1.067190e+001
6.692571e+002, 1.070353e+001
6.697392e+002, 1.092459e+001
6.702213e+002, 1.130168e+001
6.707034e+002, 1.149810e+001
6.711855e+002, 1.137471e+001
6.716677e+002, 1.123512e+001
6.721498e+002, 1.119864e+001
6.726319e+002, 1.118015e+001
6.731140e+002, 1.105454e+001
6.735961e+002, 1.083253e+001
6.740782e+002, 1.065264e+001
6.745604e+002, 1.062564e+001
6.750425e+002, 1.070895e+001
6.755246e+002, 1.076704e+001
6.760067e+002, 1.079641e+001
6.764888e+002, 1.081460e+001
6.769709e+002, 1.080959e+001
6.774531e+002, 1.081225e+001
6.779352e+002, 1.084330e+001
6.784173e+002, 1.090081e+001
6.788994e+002, 1.098219e+001
6.793815e+002, 1.115346e+001
6.798636e+002, 1.126317e+001
6.803458e+002, 1.116102e+001
6.808279e+002, 1.096329e+001
6.813100e+002, 1.084961e+001
6.817921e+002, 1.085052e+001
6.822742e+002, 1.090299e+001
6.827563e+002, 1.096280e+001
6.832385e+002, 1.102286e+001
6.837206e+002, 1.104739e+001
6.842027e+002, 1.102379e+001
6.846848e+002, 1.099196e+001
6.851669e+002, 1.096343e+001
6.856490e+002, 1.092225e+001
6.861312e+002, 1.083263e+001
6.866133e+002, 1.072119e+001
6.870954e+002, 1.066904e+001
6.875775e+002, 1.073771e+001
6.880596e+002, 1.082012e+001
6.885417e+002, 1.077584e+001
6.890239e+002, 1.067982e+001
6.895060e+002, 1.075347e+001
6.899881e+002, 1.103090e+001
6.904702e+002, 1.125208e+001
6.909523e+002, 1.119286e+001
6.914344e+002, 1.092447e+001
6.919166e+002, 1.080886e+001
6.923987e+002, 1.098504e+001
6.928808e+002, 1.109434e+001
6.933629e+002, 1.108095e+001
6.938450e+002, 1.103574e+001
6.943271e+002, 1.098670e+001
6.948093e+002, 1.095322e+001
6.952914e+002, 1.098303e+001
6.957735e+002, 1.112630e+001
6.962556e+002, 1.124760e+001
6.967377e+002, 1.111001e+001
6.972198e+002, 1.081823e+001
6.977020e+002, 1.079146e+001
6.981841e+002, 1.111067e+001
6.986662e+002, 1.142375e+001
6.991483e+002, 1.147833e+001
6.996304e+002, 1.134013e+001
7.001125e+002, 1.125853e+001
7.005947e+002, 1.133773e+001
7.010768e+002, 1.131251e+001
7.015589e+002, 1.105933e+001
7.020410e+002, 1.081266e+001
7.025231e+002, 1.071070e+001
7.030052e+002, 1.072966e+001
7.034874e+002, 1.080709e+001
7.039695e+002, 1.092325e+001
7.044516e+002, 1.102374e+001
7.049337e+002, 1.101939e+001
7.054158e+002, 1.093497e+001
7.058979e+002, 1.091101e+001
7.063801e+002, 1.097666e+001
7.068622e+002, 1.097666e+001
7.073442e+002, 1.077011e+001
7.078264e+002, 1.047424e+001
7.083085e+002, 1.040258e+001
7.087906e+002, 1.066263e+001
7.092727e+002, 1.085850e+001
7.097548e+002, 1.097875e+001
7.102369e+002, 1.101462e+001
7.107191e+002, 1.089565e+001
7.112012e+002, 1.070644e+001
7.116833e+002, 1.058269e+001
7.121654e+002, 1.057383e+001
7.126475e+002, 1.064556e+001
7.131296e+002, 1.081155e+001
7.136118e+002, 1.103658e+001
7.140939e+002, 1.110857e+001
7.145760e+002, 1.099979e+001
7.150581e+002, 1.087431e+001
7.155402e+002, 1.080133e+001
7.160223e+002, 1.075827e+001
7.165045e+002, 1.069998e+001
7.169866e+002, 1.061481e+001
7.174687e+002, 1.058397e+001
7.179508e+002, 1.065229e+001
7.184329e+002, 1.073608e+001
7.189150e+002, 1.080825e+001
7.193972e+002, 1.086343e+001
7.198793e+002, 1.089264e+001
7.203614e+002, 1.089642e+001
7.208435e+002, 1.089626e+001
7.213256e+002, 1.091471e+001
7.218077e+002, 1.094589e+001
7.222899e+002, 1.096314e+001
7.227720e+002, 1.096349e+001
7.232541e+002, 1.098188e+001
7.237362e+002, 1.105535e+001
7.242183e+002, 1.111114e+001
7.247004e+002, 1.102095e+001
7.251826e+002, 1.078963e+001
7.256647e+002, 1.070710e+001
7.261468e+002, 1.092206e+001
7.266289e+002, 1.112795e+001
7.271110e+002, 1.121967e+001
7.275931e+002, 1.124136e+001
7.280753e+002, 1.125679e+001
7.285574e+002, 1.126331e+001
7.290395e+002, 1.118316e+001
7.295216e+002, 1.092600e+001
7.300037e+002, 1.060656e+001
7.304858e+002, 1.050973e+001
7.309680e+002, 1.064391e+001
7.314501e+002, 1.077544e+001
7.319322e+002, 1.087750e+001
7.324143e+002, 1.092489e+001
7.328964e+002, 1.086693e+001
7.333785e+002, 1.073102e+001
7.338607e+002, 1.066505e+001
7.343428e+002, 1.071816e+001
7.348249e+002, 1.076482e+001
7.353070e+002, 1.075527e+001
7.357891e+002, 1.074932e+001
7.362712e+002, 1.082644e+001
7.367534e+002, 1.095073e+001
7.372355e+002, 1.101064e+001
7.377176e+002, 1.094764e+001
7.381997e+002, 1.083277e+001
7.386818e+002, 1.075698e+001
7.391639e+002, 1.072052e+001
7.396461e+002, 1.073682e+001
7.401282e+002, 1.082048e+001
7.406103e+002, 1.089670e+001
7.410924e+002, 1.093128e+001
7.415745e+002, 1.092653e+001
7.420566e+002, 1.087324e+001
7.425388e+002, 1.073785e+001
7.430209e+002, 1.067222e+001
7.435030e+002, 1.076570e+001
7.439851e+002, 1.085164e+001
7.444672e+002, 1.082071e+001
7.449493e+002, 1.073248e+001
7.454315e+002, 1.068093e+001
7.459136e+002, 1.069354e+001
7.463957e+002, 1.073989e+001
7.468778e+002, 1.080803e+001
7.473599e+002, 1.088409e+001
7.478420e+002, 1.090567e+001
7.483242e+002, 1.087027e+001
7.488063e+002, 1.090845e+001
7.492884e+002, 1.110028e+001
7.497705e+002, 1.129068e+001
7.502526e+002, 1.128098e+001
7.507347e+002, 1.105624e+001
7.512169e+002, 1.090570e+001
7.516990e+002, 1.086820e+001
7.521811e+002, 1.084793e+001
7.526632e+002, 1.082869e+001
7.531453e+002, 1.081421e+001
7.536274e+002, 1.081062e+001
7.541096e+002, 1.081627e+001
7.545917e+002, 1.081672e+001
7.550738e+002, 1.078698e+001
7.555559e+002, 1.078447e+001
7.560380e+002, 1.093269e+001
7.565201e+002, 1.118642e+001
7.570023e+002, 1.135157e+001
7.574844e+002, 1.139760e+001
7.579665e+002, 1.133847e+001
7.584486e+002, 1.115452e+001
7.589307e+002, 1.090047e+001
7.594128e+002, 1.075983e+001
7.598950e+002, 1.078409e+001
7.603771e+002, 1.083143e+001
7.608592e+002, 1.089062e+001
7.613413e+002, 1.098250e+001
7.618234e+002, 1.117665e+001
7.623055e+002, 1.138844e+001
7.627877e+002, 1.147029e+001
7.632698e+002, 1.137675e+001
7.637519e+002, 1.126662e+001
7.642340e+002, 1.129582e+001
7.647161e+002, 1.136275e+001
7.651982e+002, 1.126120e+001
7.656804e+002, 1.102676e+001
7.661625e+002, 1.090218e+001
7.666446e+002, 1.098493e+001
7.671267e+002, 1.115042e+001
7.676088e+002, 1.123360e+001
7.680909e+002, 1.123027e+001
7.685731e+002, 1.127359e+001
7.690552e+002, 1.143588e+001
7.695373e+002, 1.152561e+001
7.700194e+002, 1.143694e+001
7.705015e+002, 1.131412e+001
7.709836e+002, 1.126283e+001
7.714658e+002, 1.128078e+001
7.719479e+002, 1.132009e+001
7.724300e+002, 1.140071e+001
7.729121e+002, 1.144861e+001
7.733942e+002, 1.138261e+001
7.738763e+002, 1.126335e+001
7.743585e+002, 1.116116e+001
7.748406e+002, 1.109928e+001
7.753227e+002, 1.113259e+001
7.758048e+002, 1.131097e+001
7.762869e+002, 1.154231e+001
7.767690e+002, 1.159064e+001
7.772512e+002, 1.142233e+001
7.777333e+002, 1.129763e+001
7.782154e+002, 1.124258e+001
7.786975e+002, 1.121452e+001
7.791796e+002, 1.120587e+001
7.796617e+002, 1.120381e+001
7.801439e+002, 1.118372e+001
7.806260e+002, 1.113831e+001
7.811081e+002, 1.110698e+001
7.815902e+002, 1.114183e+001
7.820723e+002, 1.115103e+001
7.825544e+002, 1.102761e+001
7.830366e+002, 1.085452e+001
7.835187e+002, 1.077826e+001
7.840008e+002, 1.083143e+001
7.844829e+002, 1.092589e+001
7.849650e+002, 1.098278e+001
7.854471e+002, 1.101760e+001
7.859293e+002, 1.106601e+001
7.864114e+002, 1.112729e+001
7.868935e+002, 1.126227e+001
7.873756e+002, 1.152603e+001
7.878577e+002, 1.174182e+001
7.883398e+002, 1.171498e+001
7.888220e+002, 1.148322e+001
7.893040e+002, 1.136781e+001
7.897861e+002, 1.147464e+001
7.902682e+002, 1.153938e+001
7.907504e+002, 1.154514e+001
7.912325e+002, 1.150099e+001
7.917146e+002, 1.137115e+001
7.921967e+002, 1.120474e+001
7.926788e+002, 1.108445e+001
7.931609e+002, 1.103594e+001
7.936431e+002, 1.107749e+001
7.941252e+002, 1.128379e+001
7.946073e+002, 1.156705e+001
7.950894e+002, 1.177727e+001
7.955715e+002, 1.190582e+001
7.960536e+002, 1.196428e+001
7.965358e+002, 1.195852e+001
7.970179e+002, 1.187218e+001
7.975000e+002, 1.165097e+001
7.979821e+002, 1.127912e+001
7.984642e+002, 1.115433e+001
7.989464e+002, 1.143657e+001
7.994285e+002, 1.167512e+001
7.999106e+002, 1.172471e+001
8.003927e+002, 1.171760e+001
8.008748e+002, 1.175259e+001
8.013569e+002, 1.181851e+001
8.018391e+002, 1.184514e+001
8.023212e+002, 1.183664e+001
8.028033e+002, 1.175311e+001
8.032854e+002, 1.145130e+001
8.037675e+002, 1.114057e+001
8.042496e+002, 1.112410e+001
8.047318e+002, 1.135099e+001
8.052139e+002, 1.153496e+001
8.056960e+002, 1.151907e+001
8.061781e+002, 1.141068e+001
8.066602e+002, 1.139920e+001
8.071423e+002, 1.147074e+001
8.076245e+002, 1.139597e+001
8.081066e+002, 1.112002e+001
8.085887e+002, 1.093421e+001
8.090708e+002, 1.098277e+001
8.095529e+002, 1.116877e+001
8.100350e+002, 1.137992e+001
8.105172e+002, 1.164019e+001
8.109993e+002, 1.174779e+001
8.114814e+002, 1.156581e+001
8.119635e+002, 1.140772e+001
8.124456e+002, 1.136377e+001
8.129277e+002, 1.137788e+001
8.134099e+002, 1.140784e+001
8.138920e+002, 1.144359e+001
8.143741e+002, 1.147996e+001
8.148562e+002, 1.151239e+001
8.153383e+002, 1.154863e+001
8.158204e+002, 1.162148e+001
8.163026e+002, 1.169753e+001
8.167847e+002, 1.166975e+001
8.172668e+002, 1.154399e+001
8.177489e+002, 1.148550e+001
8.182310e+002, 1.159715e+001
8.187131e+002, 1.177850e+001
8.191953e+002, 1.182153e+001
8.196774e+002, 1.169111e+001
8.201595e+002, 1.165220e+001
8.206416e+002, 1.177095e+001
8.211237e+002, 1.185459e+001
8.216058e+002, 1.178086e+001
8.220880e+002, 1.167209e+001
8.225701e+002, 1.169209e+001
8.230522e+002, 1.183490e+001
8.235343e+002, 1.188396e+001
8.240164e+002, 1.166099e+001
8.244985e+002, 1.149856e+001
8.249807e+002, 1.163988e+001
8.254628e+002, 1.185321e+001
8.259449e+002, 1.184317e+001
8.264270e+002, 1.163691e+001
8.269091e+002, 1.148055e+001
8.273912e+002, 1.151589e+001
8.278734e+002, 1.163951e+001
8.283555e+002, 1.173478e+001
8.288376e+002, 1.179463e+001
8.293197e+002, 1.176445e+001
8.298018e+002, 1.163911e+001
8.302839e+002, 1.155733e+001
8.307661e+002, 1.160126e+001
8.312482e+002, 1.168351e+001
8.317303e+002, 1.164484e+001
8.322124e+002, 1.144974e+001
8.326945e+002, 1.139519e+001
8.331766e+002, 1.157589e+001
8.336588e+002, 1.176345e+001
8.341409e+002, 1.200450e+001
8.346230e+002, 1.215432e+001
8.351051e+002, 1.203010e+001
8.355872e+002, 1.168807e+001
8.360693e+002, 1.142211e+001
8.365515e+002, 1.134162e+001
8.370336e+002, 1.132063e+001
8.375157e+002, 1.131423e+001
8.379978e+002, 1.131442e+001
8.384799e+002, 1.127985e+001
8.389620e+002, 1.124164e+001
8.394442e+002, 1.132977e+001
8.399263e+002, 1.160681e+001
8.404084e+002, 1.188391e+001
8.408905e+002, 1.186194e+001
8.413726e+002, 1.159908e+001
8.418547e+002, 1.141963e+001
8.423369e+002, 1.133017e+001
8.428190e+002, 1.132190e+001
8.433011e+002, 1.141153e+001
8.437832e+002, 1.152707e+001
8.442653e+002, 1.158278e+001
8.447474e+002, 1.158060e+001
8.452296e+002, 1.160023e+001
8.457117e+002, 1.166477e+001
8.461938e+002, 1.171709e+001
8.466759e+002, 1.179566e+001
8.471580e+002, 1.182007e+001
8.476401e+002, 1.167619e+001
8.481223e+002, 1.145076e+001
8.486044e+002, 1.133344e+001
8.490865e+002, 1.137630e+001
8.495686e+002, 1.151079e+001
8.500507e+002, 1.185426e+001
8.505328e+002, 1.214823e+001
8.510150e+002, 1.206030e+001
8.514971e+002, 1.171894e+001
8.519792e+002, 1.141787e+001
8.524613e+002, 1.126033e+001
8.529434e+002, 1.123966e+001
8.534255e+002, 1.139534e+001
8.539077e+002, 1.164573e+001
8.543898e+002, 1.173103e+001
8.548719e+002, 1.165164e+001
8.553540e+002, 1.148567e+001
8.558361e+002, 1.121268e+001
8.563182e+002, 1.102353e+001
8.568004e+002, 1.109999e+001
8.572825e+002, 1.134061e+001
8.577646e+002, 1.141059e+001
8.582467e+002, 1.116994e+001
8.587288e+002, 1.106252e+001
8.592109e+002, 1.124688e+001
8.596931e+002, 1.137543e+001
8.601752e+002, 1.122646e+001
8.606573e+002, 1.101192e+001
8.611394e+002, 1.104042e+001
8.616215e+002, 1.132752e+001
8.621036e+002, 1.150026e+001
8.625858e+002, 1.127207e+001
8.630679e+002, 1.102925e+001
8.635500e+002, 1.105795e+001
8.640321e+002, 1.122456e+001
8.645142e+002, 1.137073e+001
8.649963e+002, 1.146093e+001
8.654785e+002, 1.148610e+001
8.659606e+002, 1.143829e+001
8.664427e+002, 1.134722e+001
8.669248e+002, 1.123433e+001
8.674069e+002, 1.111395e+001
8.678890e+002, 1.108381e+001
8.683712e+002, 1.115326e+001
8.688533e+002, 1.117350e+001
8.693354e+002, 1.106665e+001
8.698175e+002, 1.094402e+001
8.702996e+002, 1.097126e+001
8.707817e+002, 1.115073e+001
8.712639e+002, 1.119331e+001
8.717459e+002, 1.096054e+001
8.722280e+002, 1.083477e+001
8.727101e+002, 1.100445e+001
8.731923e+002, 1.118198e+001
8.736744e+002, 1.118188e+001
8.741565e+002, 1.105872e+001
8.746386e+002, 1.095182e+001
8.751207e+002, 1.088293e+001
8.756028e+002, 1.083365e+001
8.760850e+002, 1.081191e+001
8.765671e+002, 1.079422e+001
8.770492e+002, 1.075641e+001
8.775313e+002, 1.071297e+001
8.780134e+002, 1.070346e+001
8.784955e+002, 1.072830e+001
8.789777e+002, 1.072341e+001
8.794598e+002, 1.062662e+001
8.799419e+002, 1.048576e+001
8.804240e+002, 1.035902e+001
8.809061e+002, 1.025505e+001
8.813882e+002, 1.021640e+001
8.818704e+002, 1.024664e+001
8.823525e+002, 1.029732e+001
8.828346e+002, 1.034258e+001
8.833167e+002, 1.036873e+001
8.837988e+002, 1.032915e+001
8.842809e+002, 1.020099e+001
8.847631e+002, 1.020035e+001
8.852452e+002, 1.042184e+001
8.857273e+002, 1.052930e+001
8.862094e+002, 1.032515e+001
8.866915e+002, 1.004079e+001
8.871736e+002, 9.937537e+000
8.876558e+002, 1.000449e+001
8.881379e+002, 1.005945e+001
8.886200e+002, 1.009805e+001
8.891021e+002, 1.012355e+001
8.895842e+002, 1.011657e+001
8.900663e+002, 1.011557e+001
8.905485e+002, 1.018629e+001
8.910306e+002, 1.027198e+001
8.915127e+002, 1.024147e+001
8.919948e+002, 1.005326e+001
8.924769e+002, 9.883612e+000
8.929590e+002, 9.853082e+000
8.934412e+002, 9.890185e+000
8.939233e+002, 9.986149e+000
8.944054e+002, 1.007207e+001
8.948875e+002, 9.961988e+000
8.953696e+002, 9.653298e+000
8.958517e+002, 9.379247e+000
8.963339e+002, 9.313526e+000
8.968160e+002, 9.390491e+000
8.972981e+002, 9.520155e+000
8.977802e+002, 9.688997e+000
8.982623e+002, 9.745209e+000
8.987444e+002, 9.664720e+000
8.992266e+002, 9.598619e+000
8.997087e+002, 9.617906e+000
9.001908e+002, 9.691072e+000
9.006729e+002, 9.787746e+000
9.011550e+002, 9.914272e+000
9.016371e+002, 9.910341e+000
9.021193e+002, 9.670024e+000
9.026014e+002, 9.496210e+000
9.030835e+002, 9.492908e+000
9.035656e+002, 9.526241e+000
9.040477e+002, 9.497519e+000
9.045298e+002, 9.435924e+000
9.050120e+002, 9.439478e+000
9.054941e+002, 9.600149e+000
9.059762e+002, 9.591264e+000
9.064583e+002, 9.093186e+000
9.069404e+002, 8.658548e+000
9.074225e+002, 8.666650e+000
9.079047e+002, 8.920780e+000
9.083868e+002, 9.173276e+000
9.088689e+002, 9.360209e+000
9.093510e+002, 9.480104e+000
9.098331e+002, 9.527999e+000
9.103152e+002, 9.513265e+000
9.107974e+002, 9.418768e+000
9.112795e+002, 9.279325e+000
9.117616e+002, 9.133573e+000
9.122437e+002, 9.003852e+000
9.127258e+002, 8.960969e+000
9.132079e+002, 9.038767e+000
9.136901e+002, 9.149738e+000
9.141722e+002, 9.165903e+000
9.146543e+002, 9.110435e+000
9.151364e+002, 9.139679e+000
9.156185e+002, 9.258840e+000
9.161006e+002, 9.301289e+000
9.165828e+002, 9.214231e+000
9.170649e+002, 9.081326e+000
9.175470e+002, 8.938887e+000
9.180291e+002, 8.832920e+000
9.185112e+002, 8.960979e+000
9.189933e+002, 9.537718e+000
9.194755e+002, 9.792112e+000
9.199576e+002, 9.491775e+000
9.204397e+002, 9.201016e+000
9.209218e+002, 9.182576e+000
9.214039e+002, 9.257487e+000
9.218860e+002, 9.217494e+000
9.223682e+002, 9.067262e+000
9.228503e+002, 8.994897e+000
9.233324e+002, 9.134538e+000
9.238145e+002, 9.208395e+000
9.242966e+002, 9.059567e+000
9.247787e+002, 8.886743e+000
9.252609e+002, 8.857249e+000
9.257430e+002, 8.925299e+000
9.262251e+002, 8.973911e+000
9.267072e+002, 8.968809e+000
9.271893e+002, 8.945262e+000
9.276714e+002, 8.922976e+000
9.281536e+002, 8.896558e+000
9.286357e+002, 8.838628e+000
9.291178e+002, 8.779909e+000
9.295999e+002, 8.798140e+000
9.300820e+002, 8.888566e+000
9.305641e+002, 8.953806e+000
9.310463e+002, 8.929579e+000
9.315284e+002, 8.862363e+000
9.320105e+002, 8.824076e+000
9.324926e+002, 8.806083e+000
9.329747e+002, 8.764523e+000
9.334568e+002, 8.699922e+000
9.339390e+002, 8.663939e+000
9.344211e+002, 8.677884e+000
9.349032e+002, 8.704996e+000
9.353853e+002, 8.701470e+000
9.358674e+002, 8.678454e+000
9.363495e+002, 8.710921e+000
9.368317e+002, 8.821689e+000
9.373138e+002, 8.890261e+000
9.377959e+002, 8.907074e+000
9.382780e+002, 8.867365e+000
9.387601e+002, 8.729923e+000
9.392422e+002, 8.564663e+000
9.397244e+002, 8.499289e+000
9.402065e+002, 8.550210e+000
9.406886e+002, 8.604321e+000
9.411707e+002, 8.713543e+000
9.416528e+002, 8.755153e+000
9.421349e+002, 8.627254e+000
9.426171e+002, 8.494895e+000
9.430992e+002, 8.489683e+000
9.435813e+002, 8.576166e+000
9.440634e+002, 8.653811e+000
9.445455e+002, 8.708686e+000
9.450276e+002, 8.733618e+000
9.455098e+002, 8.732461e+000
9.459919e+002, 8.694314e+000
9.464740e+002, 8.571146e+000
9.469561e+002, 8.429554e+000
9.474382e+002, 8.329982e+000
9.479203e+002, 8.300023e+000
9.484025e+002, 8.407212e+000
9.488846e+002, 8.763539e+000
9.493667e+002, 9.071862e+000
9.498488e+002, 8.963124e+000
9.503309e+002, 8.673352e+000
9.508130e+002, 8.549542e+000
9.512952e+002, 8.588067e+000
9.517773e+002, 8.697684e+000
9.522594e+002, 8.835336e+000
9.527415e+002, 8.914694e+000
9.532236e+002, 8.831542e+000
9.537057e+002, 8.658576e+000
9.541878e+002, 8.554361e+000
9.546699e+002, 8.519140e+000
9.551520e+002, 8.604687e+000
9.556342e+002, 8.817044e+000
9.561163e+002, 8.875977e+000
9.565984e+002, 8.608858e+000
9.570805e+002, 8.233800e+000
9.575626e+002, 8.112234e+000
9.580447e+002, 8.237661e+000
9.585269e+002, 8.272515e+000
9.590090e+002, 8.184230e+000
9.594911e+002, 8.149024e+000
9.599732e+002, 8.218562e+000
9.604553e+002, 8.322221e+000
9.609374e+002, 8.436244e+000
9.614196e+002, 8.526764e+000
9.619017e+002, 8.484454e+000
9.623838e+002, 8.227907e+000
9.628659e+002, 8.090342e+000
9.633480e+002, 8.143260e+000
9.638301e+002, 8.219966e+000
9.643123e+002, 8.280622e+000
9.647944e+002, 8.342207e+000
9.652765e+002, 8.431952e+000
9.657586e+002, 8.538205e+000
9.662407e+002, 8.608698e+000
9.667228e+002, 8.639596e+000
9.672050e+002, 8.629834e+000
9.676871e+002, 8.528666e+000
9.681692e+002, 8.441340e+000
9.686513e+002, 8.456021e+000
9.691334e+002, 8.505521e+000
9.696155e+002, 8.486659e+000
9.700977e+002, 8.397527e+000
9.705798e+002, 8.336362e+000
9.710619e+002, 8.364668e+000
9.715440e+002, 8.402136e+000
9.720261e+002, 8.422657e+000
9.725082e+002, 8.407736e+000
9.729904e+002, 8.296786e+000
9.734725e+002, 8.143087e+000
9.739546e+002, 8.068355e+000
9.744367e+002, 8.105140e+000
9.749188e+002, 8.177018e+000
9.754009e+002, 8.248852e+000
9.758831e+002, 8.294708e+000
9.763652e+002, 8.229617e+000
9.768473e+002, 8.128463e+000
9.773294e+002, 8.190351e+000
9.778115e+002, 8.397730e+000
9.782936e+002, 8.543424e+000
9.787758e+002, 8.529725e+000
9.792579e+002, 8.437697e+000
9.797400e+002, 8.349499e+000
9.802221e+002, 8.270843e+000
9.807042e+002, 8.224651e+000
9.811863e+002, 8.209226e+000
9.816685e+002, 8.208899e+000
9.821506e+002, 8.220664e+000
9.826327e+002, 8.266278e+000
9.831148e+002, 8.369166e+000
9.835969e+002, 8.469045e+000
9.840790e+002, 8.420323e+000
9.845612e+002, 8.221027e+000
9.850433e+002, 8.214270e+000
9.855254e+002, 8.450895e+000
9.860075e+002, 8.566151e+000
9.864896e+002, 8.436881e+000
9.869717e+002, 8.249656e+000
9.874539e+002, 8.140840e+000
9.879360e+002, 8.103786e+000
9.884181e+002, 8.126504e+000
9.889002e+002, 8.240882e+000
9.893823e+002, 8.299661e+000
9.898644e+002, 8.279612e+000
9.903466e+002, 8.249312e+000
9.908287e+002, 8.241652e+000
9.913108e+002, 8.217881e+000
9.917929e+002, 8.106136e+000
9.922750e+002, 7.936491e+000
9.927571e+002, 7.893061e+000
9.932393e+002, 8.080518e+000
9.937214e+002, 8.205238e+000
9.942035e+002, 8.256021e+000
9.946856e+002, 8.252724e+000
9.951677e+002, 8.101714e+000
9.956498e+002, 7.970384e+000
9.961320e+002, 8.131693e+000
9.966141e+002, 8.525809e+000
9.970962e+002, 8.653266e+000
9.975783e+002, 8.147211e+000
9.980604e+002, 7.824136e+000
9.985425e+002, 8.059492e+000
9.990247e+002, 8.361088e+000
9.995068e+002, 8.475122e+000
9.999889e+002, 8.430267e+000
1.000471e+003, 8.215241e+000
1.000953e+003, 7.874146e+000
1.001435e+003, 7.713052e+000
1.001917e+003, 7.999198e+000
1.002399e+003, 8.279875e+000
1.002882e+003, 8.289475e+000
1.003364e+003, 8.198370e+000
1.003846e+003, 8.138097e+000
1.004328e+003, 8.112287e+000
1.004810e+003, 8.091620e+000
1.005292e+003, 8.070692e+000
1.005774e+003, 8.074327e+000
1.006256e+003, 8.130424e+000
1.006739e+003, 8.201350e+000
1.007221e+003, 8.277487e+000
1.007703e+003, 8.330204e+000
1.008185e+003, 8.292704e+000
1.008667e+003, 8.195966e+000
1.009149e+003, 8.133063e+000
1.009631e+003, 8.137141e+000
1.010113e+003, 8.181390e+000
1.010595e+003, 8.280316e+000
1.011078e+003, 8.363732e+000
1.011560e+003, 8.291204e+000
1.012042e+003, 8.129805e+000
1.012524e+003, 8.018758e+000
1.013006e+003, 7.979296e+000
1.013488e+003, 8.017594e+000
1.013970e+003, 8.134401e+000
1.014452e+003, 8.266208e+000
1.014935e+003, 8.349707e+000
1.015417e+003, 8.389388e+000
1.015899e+003, 8.399664e+000
1.016381e+003, 8.376947e+000
1.016863e+003, 8.278124e+000
1.017345e+003, 8.108675e+000
1.017827e+003, 7.985387e+000
1.018309e+003, 7.968096e+000
1.018791e+003, 8.034372e+000
1.019274e+003, 8.194853e+000
1.019756e+003, 8.400148e+000
1.020238e+003, 8.363494e+000
1.020720e+003, 8.097462e+000
1.021202e+003, 7.951488e+000
1.021684e+003, 7.991961e+000
1.022166e+003, 8.033083e+000
1.022648e+003, 7.962791e+000
1.023130e+003, 7.858296e+000
1.023613e+003, 7.840526e+000
1.024095e+003, 7.906924e+000
1.024577e+003, 8.044689e+000
1.025059e+003, 8.279058e+000
1.025541e+003, 8.348914e+000
1.026023e+003, 8.176145e+000
1.026505e+003, 7.961981e+000
1.026987e+003, 7.817739e+000
1.027469e+003, 7.737874e+000
1.027952e+003, 7.712058e+000
1.028434e+003, 7.739833e+000
1.028916e+003, 7.853595e+000
1.029398e+003, 8.115908e+000
1.029880e+003, 8.234317e+000
1.030362e+003, 8.107893e+000
1.030844e+003, 7.936954e+000
1.031326e+003, 7.846860e+000
1.031809e+003, 7.801020e+000
1.032291e+003, 7.710402e+000
1.032773e+003, 7.551691e+000
1.033255e+003, 7.558080e+000
1.033737e+003, 7.842606e+000
1.034219e+003, 8.044024e+000
1.034701e+003, 8.070126e+000
1.035183e+003, 8.035233e+000
1.035666e+003, 7.999550e+000
1.036148e+003, 7.961550e+000
1.036630e+003, 7.905612e+000
1.037112e+003, 7.808939e+000
1.037594e+003, 7.826635e+000
1.038076e+003, 8.108133e+000
1.038558e+003, 8.261765e+000
1.039040e+003, 8.120499e+000
1.039522e+003, 7.941220e+000
1.040005e+003, 7.890991e+000
1.040487e+003, 7.917403e+000
1.040969e+003, 7.900389e+000
1.041451e+003, 7.816558e+000
1.041933e+003, 7.812677e+000
1.042415e+003, 7.990241e+000
1.042897e+003, 8.109185e+000
1.043379e+003, 8.079398e+000
1.043861e+003, 8.023993e+000
1.044344e+003, 8.032946e+000
1.044826e+003, 8.069132e+000
1.045308e+003, 8.043566e+000
1.045790e+003, 7.933333e+000
1.046272e+003, 7.888534e+000
1.046754e+003, 8.020683e+000
1.047236e+003, 8.087940e+000
1.047718e+003, 7.971056e+000
1.048201e+003, 7.829249e+000
1.048683e+003, 7.766903e+000
1.049165e+003, 7.760388e+000
1.049647e+003, 7.747038e+000
1.050129e+003, 7.714795e+000
1.050611e+003, 7.742553e+000
1.051093e+003, 7.938071e+000
1.051575e+003, 8.068933e+000
1.052057e+003, 8.029238e+000
1.052540e+003, 7.936465e+000
1.053022e+003, 7.833461e+000
1.053504e+003, 7.756278e+000
1.053986e+003, 7.787546e+000
1.054468e+003, 7.943120e+000
1.054950e+003, 8.006112e+000
1.055432e+003, 7.815261e+000
1.055914e+003, 7.664082e+000
1.056396e+003, 7.707426e+000
1.056879e+003, 7.773894e+000
1.057361e+003, 7.727841e+000
1.057843e+003, 7.615708e+000
1.058325e+003, 7.508473e+000
1.058807e+003, 7.420953e+000
1.059289e+003, 7.428668e+000
1.059771e+003, 7.662278e+000
1.060253e+003, 7.852095e+000
1.060736e+003, 7.901028e+000
1.061218e+003, 7.863830e+000
1.061700e+003, 7.723878e+000
1.062182e+003, 7.554977e+000
1.062664e+003, 7.465147e+000
1.063146e+003, 7.470254e+000
1.063628e+003, 7.521426e+000
1.064110e+003, 7.735700e+000
1.064593e+003, 7.801492e+000
1.065075e+003, 7.342978e+000
1.065557e+003, 6.932712e+000
1.066039e+003, 7.127137e+000
1.066521e+003, 7.606728e+000
1.067003e+003, 7.854124e+000
1.067485e+003, 7.801492e+000
1.067967e+003, 7.689179e+000
1.068449e+003, 7.546052e+000
1.068932e+003, 7.464731e+000
1.069414e+003, 7.541895e+000
1.069896e+003, 7.640427e+000
1.070378e+003, 7.658186e+000
1.070860e+003, 7.630481e+000
1.071342e+003, 7.612542e+000
1.071824e+003, 7.612249e+000
1.072306e+003, 7.612880e+000
1.072788e+003, 7.601461e+000
1.073271e+003, 7.605781e+000
1.073753e+003, 7.679441e+000
1.074235e+003, 7.730902e+000
1.074717e+003, 7.640394e+000
1.075199e+003, 7.520517e+000
1.075681e+003, 7.558864e+000
1.076163e+003, 7.728016e+000
1.076645e+003, 7.797904e+000
1.077127e+003, 7.652361e+000
1.077610e+003, 7.523534e+000
1.078092e+003, 7.507210e+000
1.078574e+003, 7.557256e+000
1.079056e+003, 7.714159e+000
1.079538e+003, 7.869281e+000
1.080020e+003, 7.877843e+000
1.080502e+003, 7.765838e+000
1.080984e+003, 7.668344e+000
1.081467e+003, 7.626184e+000
1.081949e+003, 7.604329e+000
1.082431e+003, 7.620356e+000
1.082913e+003, 7.612999e+000
1.083395e+003, 7.511438e+000
1.083877e+003, 7.392838e+000
1.084359e+003, 7.340386e+000
1.084841e+003, 7.344475e+000
1.085323e+003, 7.366946e+000
1.085806e+003, 7.404400e+000
1.086288e+003, 7.392725e+000
1.086770e+003, 7.213012e+000
1.087252e+003, 7.091435e+000
1.087734e+003, 7.211148e+000
1.088216e+003, 7.385369e+000
1.088698e+003, 7.464389e+000
1.089180e+003, 7.448111e+000
1.089662e+003, 7.325351e+000
1.090145e+003, 7.092792e+000
1.090627e+003, 7.015467e+000
1.091109e+003, 7.371081e+000
1.091591e+003, 7.663992e+000
1.092073e+003, 7.595215e+000
1.092555e+003, 7.465990e+000
1.093037e+003, 7.529500e+000
1.093519e+003, 7.694522e+000
1.094002e+003, 7.810090e+000
1.094484e+003, 7.845751e+000
1.094966e+003, 7.762647e+000
1.095448e+003, 7.381751e+000
1.095930e+003, 7.127352e+000
1.096412e+003, 7.242279e+000
1.096894e+003, 7.414670e+000
1.097376e+003, 7.468320e+000
1.097859e+003, 7.444713e+000
1.098341e+003, 7.394080e+000
1.098823e+003, 7.332573e+000
1.099305e+003, 7.309509e+000
1.099787e+003, 7.382583e+000
1.100269e+003, 7.397066e+000
1.100751e+003, 7.238487e+000
1.101233e+003, 7.101233e+000
1.101715e+003, 7.111318e+000
1.102198e+003, 7.167190e+000
1.102680e+003, 7.158179e+000
1.103162e+003, 7.095280e+000
1.103644e+003, 7.053832e+000
1.104126e+003, 7.061289e+000
1.104608e+003, 7.036849e+000
1.105090e+003, 6.899461e+000
1.105572e+003, 6.815408e+000
1.106054e+003, 6.834189e+000
1.106537e+003, 6.935578e+000
1.107019e+003, 7.218841e+000
1.107501e+003, 7.545259e+000
1.107983e+003, 7.531492e+000
1.108465e+003, 7.047186e+000
1.108947e+003, 6.821609e+000
1.109429e+003, 7.140097e+000
1.109911e+003, 7.406186e+000
1.110394e+003, 7.461244e+000
1.110876e+003, 7.472880e+000
1.111358e+003, 7.583282e+000
1.111840e+003, 7.696832e+000
1.112322e+003, 7.627100e+000
1.112804e+003, 7.360299e+000
1.113286e+003, 7.168883e+000
1.113768e+003, 7.037941e+000
1.114250e+003, 7.011873e+000
1.114733e+003, 7.217677e+000
1.115215e+003, 7.357495e+000
1.115697e+003, 7.227144e+000
1.116179e+003, 7.042210e+000
1.116661e+003, 7.086675e+000
1.117143e+003, 7.313719e+000
1.117625e+003, 7.366669e+000
1.118107e+003, 7.125687e+000
1.118589e+003, 6.999298e+000
1.119072e+003, 7.040523e+000
1.119554e+003, 7.097198e+000
1.120036e+003, 7.121042e+000
1.120518e+003, 7.150160e+000
1.121000e+003, 7.240142e+000
1.121482e+003, 7.343667e+000
1.121964e+003, 7.304471e+000
1.122446e+003, 7.079302e+000
1.122929e+003, 6.985787e+000
1.123411e+003, 7.072464e+000
1.123893e+003, 7.119698e+000
1.124375e+003, 7.065197e+000
1.124857e+003, 7.014255e+000
1.125339e+003, 7.042498e+000
1.125821e+003, 7.091773e+000
1.126303e+003, 7.044154e+000
1.126786e+003, 6.912395e+000
1.127268e+003, 6.970777e+000
1.127750e+003, 7.258314e+000
1.128232e+003, 7.362048e+000
1.128714e+003, 7.206261e+000
1.129196e+003, 7.027232e+000
1.129678e+003, 6.926980e+000
1.130160e+003, 6.877470e+000
1.130642e+003, 6.850007e+000
1.131125e+003, 6.843382e+000
1.131607e+003, 6.862718e+000
1.132089e+003, 6.904998e+000
1.132571e+003, 6.907496e+000
1.133053e+003, 6.868248e+000
1.133535e+003, 6.847730e+000
1.134017e+003, 6.864433e+000
1.134499e+003, 6.905952e+000
1.134981e+003, 6.967145e+000
1.135464e+003, 7.023895e+000
1.135946e+003, 7.027747e+000
1.136428e+003, 6.990205e+000
1.136910e+003, 6.934754e+000
1.137392e+003, 6.876940e+000
1.137874e+003, 6.897965e+000
1.138356e+003, 7.003466e+000
1.138838e+003, 7.125352e+000
1.139321e+003, 7.229359e+000
1.139803e+003, 7.302264e+000
1.140285e+003, 7.309633e+000
1.140767e+003, 7.296000e+000
1.141249e+003, 7.385928e+000
1.141731e+003, 7.501795e+000
1.142213e+003, 7.424904e+000
1.142695e+003, 7.206934e+000
1.143177e+003, 7.112865e+000
1.143660e+003, 7.206809e+000
1.144142e+003, 7.257149e+000
1.144624e+003, 7.057507e+000
1.145106e+003, 6.849771e+000
1.145588e+003, 6.922523e+000
1.146070e+003, 7.104681e+000
1.146552e+003, 7.204553e+000
1.147034e+003, 7.236905e+000
1.147516e+003, 7.250397e+000
1.147999e+003, 7.255445e+000
1.148481e+003, 7.243491e+000
1.148963e+003, 7.207800e+000
1.149445e+003, 7.174232e+000
1.149927e+003, 7.155295e+000
1.150409e+003, 7.148519e+000
1.150891e+003, 7.149391e+000
1.151373e+003, 7.163477e+000
1.151856e+003, 7.228611e+000
1.152338e+003, 7.302902e+000
1.152820e+003, 7.268974e+000
1.153302e+003, 7.103433e+000
1.153784e+003, 7.014158e+000
1.154266e+003, 7.172652e+000
1.154748e+003, 7.273072e+000
1.155230e+003, 7.181754e+000
1.155713e+003, 7.038220e+000
1.156195e+003, 6.855718e+000
1.156677e+003, 6.720037e+000
1.157159e+003, 6.765074e+000
1.157641e+003, 6.967442e+000
1.158123e+003, 7.125997e+000
1.158605e+003, 7.239576e+000
1.159087e+003, 7.273501e+000
1.159569e+003, 7.191631e+000
1.160052e+003, 7.074259e+000
1.160534e+003, 6.848763e+000
1.161016e+003, 6.702365e+000
1.161498e+003, 6.835412e+000
1.161980e+003, 7.109992e+000
1.162462e+003, 7.218448e+000
1.162944e+003, 7.141720e+000
1.163426e+003, 7.110361e+000
1.163908e+003, 7.151442e+000
1.164391e+003, 7.151149e+000
1.164873e+003, 7.067393e+000
1.165355e+003, 7.021903e+000
1.165837e+003, 7.075524e+000
1.166319e+003, 7.190321e+000
1.166801e+003, 7.341942e+000
1.167283e+003, 7.496160e+000
1.167765e+003, 7.495443e+000
1.168247e+003, 7.333712e+000
1.168730e+003, 7.207674e+000
1.169212e+003, 7.127303e+000
1.169694e+003, 7.013175e+000
1.170176e+003, 6.841676e+000
1.170658e+003, 6.744043e+000
1.171140e+003, 6.813658e+000
1.171622e+003, 6.989867e+000
1.172104e+003, 7.221117e+000
1.172587e+003, 7.462111e+000
1.173069e+003, 7.550639e+000
1.173551e+003, 7.514604e+000
1.174033e+003, 7.446160e+000
1.174515e+003, 7.364131e+000
1.174997e+003, 7.272270e+000
1.175479e+003, 7.175259e+000
1.175961e+003, 7.118346e+000
1.176443e+003, 7.158264e+000
1.176926e+003, 7.210971e+000
1.177408e+003, 7.154657e+000
1.177890e+003, 7.057310e+000
1.178372e+003, 6.997710e+000
1.178854e+003, 6.984345e+000
1.179336e+003, 7.051353e+000
1.179818e+003, 7.170231e+000
1.180300e+003, 7.210926e+000
1.180782e+003, 7.108518e+000
1.181265e+003, 7.018258e+000
1.181747e+003, 7.053365e+000
1.182229e+003, 7.109050e+000
1.182711e+003, 7.081355e+000
1.183193e+003, 7.073615e+000
1.183675e+003, 7.245318e+000
1.184157e+003, 7.487081e+000
1.184639e+003, 7.593334e+000
1.185122e+003, 7.536216e+000
1.185604e+003, 7.410014e+000
1.186086e+003, 7.129882e+000
1.186568e+003, 6.953823e+000
1.187050e+003, 7.018461e+000
1.187532e+003, 7.078290e+000
1.188014e+003, 6.998442e+000
1.188496e+003, 6.896027e+000
1.188979e+003, 6.876242e+000
1.189461e+003, 6.921114e+000
1.189943e+003, 6.986677e+000
1.190425e+003, 7.084504e+000
1.190907e+003, 7.129422e+000
1.191389e+003, 7.091897e+000
1.191871e+003, 7.065530e+000
1.192353e+003, 7.008270e+000
1.192835e+003, 7.186566e+000
1.193318e+003, 7.859335e+000
1.193800e+003, 8.439993e+000
1.194282e+003, 8.127755e+000
1.194764e+003, 7.222518e+000
1.195246e+003, 6.969078e+000
1.195728e+003, 7.335382e+000
1.196210e+003, 7.461253e+000
1.196692e+003, 7.317693e+000
1.197174e+003, 7.149995e+000
1.197657e+003, 7.024644e+000
1.198139e+003, 6.957583e+000
1.198621e+003, 6.958507e+000
1.199103e+003, 7.030110e+000
1.199585e+003, 7.252702e+000
1.200067e+003, 7.488920e+000
1.200549e+003, 7.395548e+000
1.201031e+003, 7.129123e+000
1.201514e+003, 7.035437e+000
1.201996e+003, 7.099026e+000
1.202478e+003, 7.166073e+000
1.202960e+003, 7.185538e+000
1.203442e+003, 7.150012e+000
1.203924e+003, 7.030729e+000
1.204406e+003, 6.930450e+000
1.204888e+003, 6.956677e+000
1.205370e+003, 7.002635e+000
1.205853e+003, 6.967600e+000
1.206335e+003, 6.909747e+000
1.206817e+003, 6.876215e+000
1.207299e+003, 6.890986e+000
1.207781e+003, 7.028766e+000
1.208263e+003, 7.318683e+000
1.208745e+003, 7.461867e+000
1.209227e+003, 7.199568e+000
1.209709e+003, 7.064197e+000
1.210192e+003, 7.355042e+000
1.210674e+003, 7.572995e+000
1.211156e+003, 7.352192e+000
1.211638e+003, 7.040410e+000
1.212120e+003, 7.001755e+000
1.212602e+003, 7.159352e+000
1.213084e+003, 7.220101e+000
1.213566e+003, 7.161947e+000
1.214049e+003, 7.111603e+000
1.214531e+003, 7.058837e+000
1.215013e+003, 7.069379e+000
1.215495e+003, 7.178926e+000
1.215977e+003, 7.222043e+000
1.216459e+003, 7.091311e+000
1.216941e+003, 6.967459e+000
1.217423e+003, 7.100945e+000
1.217906e+003, 7.368145e+000
1.218388e+003, 7.334142e+000
1.218870e+003, 7.080859e+000
1.219352e+003, 7.056992e+000
1.219834e+003, 7.231282e+000
1.220316e+003, 7.314636e+000
1.220798e+003, 7.245157e+000
1.221280e+003, 7.079738e+000
1.221762e+003, 6.840833e+000
1.222245e+003, 6.718335e+000
1.222727e+003, 7.034384e+000
1.223209e+003, 7.434465e+000
1.223691e+003, 7.527143e+000
1.224173e+003, 7.445823e+000
1.224655e+003, 7.310523e+000
1.225137e+003, 7.165970e+000
1.225619e+003, 7.046813e+000
1.226101e+003, 6.965936e+000
1.226584e+003, 6.945335e+000
1.227066e+003, 7.012451e+000
1.227548e+003, 7.082858e+000
1.228030e+003, 7.140329e+000
1.228512e+003, 7.178639e+000
1.228994e+003, 7.208166e+000
1.229476e+003, 7.204706e+000
1.229958e+003, 7.116724e+000
1.230441e+003, 6.999228e+000
1.230923e+003, 6.953974e+000
1.231405e+003, 6.978324e+000
1.231887e+003, 6.979783e+000
1.232369e+003, 6.923844e+000
1.232851e+003, 6.957368e+000
1.233333e+003, 7.110984e+000
1.233815e+003, 7.281446e+000
1.234297e+003, 7.458459e+000
1.234780e+003, 7.548666e+000
1.235262e+003, 7.477999e+000
1.235744e+003, 7.305949e+000
1.236226e+003, 7.097757e+000
1.236708e+003, 6.894529e+000
1.237190e+003, 6.903190e+000
1.237672e+003, 7.072806e+000
1.238154e+003, 7.181392e+000
1.238636e+003, 7.217021e+000
1.239119e+003, 7.261143e+000
1.239601e+003, 7.331434e+000
1.240083e+003, 7.357109e+000
1.240565e+003, 7.280779e+000
1.241047e+003, 7.211991e+000
1.241529e+003, 7.329957e+000
1.242011e+003, 7.429144e+000
1.242493e+003, 7.235510e+000
1.242975e+003, 6.960488e+000
1.243458e+003, 6.875433e+000
1.243940e+003, 6.923758e+000
1.244422e+003, 6.917052e+000
1.244904e+003, 6.832613e+000
1.245386e+003, 6.828970e+000
1.245868e+003, 7.010351e+000
1.246350e+003, 7.157831e+000
1.246832e+003, 7.243398e+000
1.247315e+003, 7.277476e+000
1.247797e+003, 7.256686e+000
1.248279e+003, 7.191336e+000
1.248761e+003, 7.051126e+000
1.249243e+003, 6.906946e+000
1.249725e+003, 6.893135e+000
1.250207e+003, 7.002447e+000
1.250689e+003, 7.107316e+000
1.251172e+003, 7.205719e+000
1.251654e+003, 7.348187e+000
1.252136e+003, 7.545049e+000
1.252618e+003, 7.567130e+000
1.253100e+003, 7.346960e+000
1.253582e+003, 7.168769e+000
1.254064e+003, 7.233885e+000
1.254546e+003, 7.380771e+000
1.255028e+003, 7.403122e+000
1.255510e+003, 7.339569e+000
1.255993e+003, 7.206415e+000
1.256475e+003, 7.072510e+000
1.256957e+003, 7.093078e+000
1.257439e+003, 7.221657e+000
1.257921e+003, 7.322586e+000
1.258403e+003, 7.367798e+000
1.258885e+003, 7.408151e+000
1.259367e+003, 7.471829e+000
1.259850e+003, 7.506254e+000
1.260332e+003, 7.487939e+000
1.260814e+003, 7.433536e+000
1.261296e+003, 7.311431e+000
1.261778e+003, 7.196195e+000
1.262260e+003, 7.132965e+000
1.262742e+003, 7.120698e+000
1.263224e+003, 7.166738e+000
1.263707e+003, 7.261881e+000
1.264189e+003, 7.331558e+000
1.264671e+003, 7.370226e+000
1.265153e+003, 7.404308e+000
1.265635e+003, 7.437825e+000
1.266117e+003, 7.455422e+000
1.266599e+003, 7.459975e+000
1.267081e+003, 7.386039e+000
1.267563e+003, 7.186123e+000
1.268046e+003, 6.990287e+000
1.268528e+003, 6.956583e+000
1.269010e+003, 7.031064e+000
1.269492e+003, 7.128098e+000
1.269974e+003, 7.215552e+000
1.270456e+003, 7.165050e+000
1.270938e+003, 7.045850e+000
1.271420e+003, 7.066945e+000
1.271902e+003, 7.229813e+000
1.272385e+003, 7.402671e+000
1.272867e+003, 7.535177e+000
1.273349e+003, 7.580647e+000
1.273831e+003, 7.442372e+000
1.274313e+003, 7.306842e+000
1.274795e+003, 7.246854e+000
1.275277e+003, 7.243354e+000
1.275759e+003, 7.359251e+000
1.276242e+003, 7.464540e+000
1.276724e+003, 7.364448e+000
1.277206e+003, 7.138156e+000
1.277688e+003, 7.054458e+000
1.278170e+003, 7.123575e+000
1.278652e+003, 7.257502e+000
1.279134e+003, 7.498381e+000
1.279616e+003, 7.651407e+000
1.280099e+003, 7.693558e+000
1.280581e+003, 7.644187e+000
1.281063e+003, 7.499069e+000
1.281545e+003, 7.360273e+000
1.282027e+003, 7.305132e+000
1.282509e+003, 7.317882e+000
1.282991e+003, 7.412689e+000
1.283473e+003, 7.532776e+000
1.283955e+003, 7.557815e+000
##END=



