##NAMES=Samarskite-(Y)
##RRUFFID=R070161
##IDEAL CHEMISTRY=YFe^3+^Nb^5+^_2_O_8_
##LOCALITY=Tveit mine, Iveland, Setesdal Valley, Aust-Agder, Norway
##OWNER=RRUFF
##SOURCE=James Shigley
##DESCRIPTION=Black vitreous dense prismatic crystal
##STATUS=The identification of this mineral has been made only by X-ray diffraction.
##URL=rruff.info/R070161
168.0748, 3872.792
168.5569, 3883.640
169.0390, 3895.459
169.5211, 3909.488
170.0032, 3924.685
170.4854, 3941.814
170.9675, 3960.549
171.4496, 3974.841
171.9317, 3981.500
172.4138, 3981.404
172.8959, 3976.883
173.3781, 3967.148
173.8602, 3954.529
174.3423, 3938.390
174.8244, 3919.639
175.3065, 3906.654
175.7886, 3906.583
176.2708, 3916.499
176.7529, 3925.130
177.2350, 3930.347
177.7171, 3935.228
178.1992, 3941.667
178.6813, 3949.637
179.1634, 3959.149
179.6456, 3974.094
180.1277, 3991.840
180.6098, 3998.775
181.0919, 3986.625
181.5740, 3973.306
182.0561, 3971.604
182.5383, 3979.189
183.0204, 3987.626
183.5025, 3991.931
183.9846, 3992.729
184.4667, 3992.923
184.9488, 3990.578
185.4310, 3990.796
185.9131, 3996.531
186.3952, 4006.828
186.8773, 4018.954
187.3594, 4030.362
187.8415, 4041.753
188.3237, 4059.166
188.8058, 4091.361
189.2879, 4116.565
189.7700, 4123.786
190.2521, 4116.531
190.7342, 4102.652
191.2164, 4083.652
191.6985, 4061.320
192.1806, 4043.984
192.6627, 4028.062
193.1448, 4023.783
193.6269, 4040.500
194.1091, 4070.126
194.5912, 4097.340
195.0733, 4113.934
195.5554, 4121.025
196.0375, 4122.380
196.5196, 4113.232
197.0018, 4105.692
197.4839, 4105.275
197.9660, 4109.300
198.4481, 4113.638
198.9302, 4116.612
199.4123, 4118.029
199.8945, 4116.384
200.3766, 4107.338
200.8587, 4102.803
201.3408, 4111.784
201.8229, 4125.779
202.3050, 4132.317
202.7872, 4123.365
203.2693, 4105.518
203.7514, 4097.816
204.2335, 4105.999
204.7156, 4113.841
205.1977, 4118.248
205.6799, 4119.103
206.1620, 4115.421
206.6441, 4106.016
207.1262, 4093.907
207.6083, 4085.635
208.0904, 4082.045
208.5726, 4080.949
209.0547, 4086.581
209.5368, 4091.940
210.0189, 4088.645
210.5010, 4072.848
210.9831, 4052.372
211.4653, 4041.545
211.9474, 4043.197
212.4295, 4047.687
212.9116, 4055.796
213.3937, 4064.020
213.8758, 4069.870
214.3580, 4072.612
214.8401, 4072.328
215.3222, 4067.832
215.8043, 4056.701
216.2864, 4049.462
216.7685, 4051.523
217.2507, 4055.517
217.7328, 4055.743
218.2149, 4051.252
218.6970, 4047.045
219.1791, 4050.064
219.6612, 4062.087
220.1434, 4072.967
220.6255, 4085.179
221.1076, 4093.117
221.5897, 4088.963
222.0718, 4073.968
222.5539, 4061.619
223.0361, 4072.074
223.5182, 4110.378
224.0003, 4127.421
224.4824, 4094.350
224.9645, 4060.289
225.4466, 4050.149
225.9288, 4061.601
226.4109, 4076.086
226.8930, 4076.192
227.3751, 4061.740
227.8572, 4053.445
228.3393, 4056.262
228.8215, 4060.325
229.3036, 4061.551
229.7857, 4060.410
230.2678, 4058.627
230.7499, 4056.370
231.2320, 4054.181
231.7142, 4056.939
232.1963, 4072.728
232.6784, 4081.630
233.1605, 4071.988
233.6426, 4051.093
234.1247, 4031.318
234.6069, 4018.596
235.0890, 4012.292
235.5711, 4011.593
236.0532, 4020.537
236.5353, 4027.195
237.0174, 4023.271
237.4996, 4015.897
237.9817, 4014.479
238.4638, 4024.021
238.9459, 4039.367
239.4280, 4052.099
239.9101, 4063.176
240.3923, 4068.543
240.8744, 4061.510
241.3565, 4050.791
241.8386, 4044.668
242.3207, 4046.107
242.8028, 4049.496
243.2850, 4044.667
243.7671, 4028.829
244.2492, 4023.228
244.7313, 4049.270
245.2134, 4078.208
245.6955, 4084.709
246.1777, 4064.197
246.6598, 4041.663
247.1419, 4044.648
247.6240, 4072.770
248.1061, 4089.196
248.5882, 4080.706
249.0704, 4063.856
249.5525, 4050.268
250.0346, 4040.343
250.5167, 4033.195
250.9988, 4028.069
251.4809, 4025.141
251.9631, 4025.455
252.4452, 4030.145
252.9273, 4036.699
253.4094, 4046.788
253.8915, 4058.179
254.3736, 4061.679
254.8558, 4043.141
255.3379, 4015.087
255.8200, 4009.428
256.3021, 4036.045
256.7842, 4060.348
257.2664, 4049.958
257.7485, 4019.926
258.2306, 3998.304
258.7127, 3997.518
259.1948, 4006.726
259.6769, 4013.749
260.1591, 4018.650
260.6412, 4020.561
261.1233, 4016.953
261.6054, 4010.528
262.0875, 4006.110
262.5696, 4003.008
263.0518, 4003.736
263.5339, 4013.156
264.0160, 4029.970
264.4981, 4043.635
264.9802, 4050.254
265.4623, 4050.611
265.9445, 4047.103
266.4266, 4039.333
266.9087, 4029.236
267.3908, 4013.998
267.8729, 3997.045
268.3550, 3987.275
268.8372, 3987.780
269.3193, 3995.001
269.8014, 4007.099
270.2835, 4025.580
270.7656, 4035.907
271.2477, 4026.195
271.7299, 4009.447
272.2120, 4004.429
272.6941, 4014.960
273.1762, 4028.504
273.6583, 4032.136
274.1404, 4024.855
274.6226, 4018.579
275.1047, 4014.139
275.5868, 4010.699
276.0689, 4008.806
276.5510, 4007.931
277.0331, 4004.387
277.5153, 3993.766
277.9974, 3977.257
278.4795, 3971.492
278.9616, 3984.412
279.4437, 3998.365
279.9258, 4007.403
280.4080, 4011.802
280.8901, 4013.199
281.3722, 4012.642
281.8543, 4009.278
282.3364, 3999.690
282.8185, 3976.647
283.3007, 3956.778
283.7828, 3942.559
284.2649, 3932.404
284.7470, 3923.382
285.2291, 3914.646
285.7112, 3909.429
286.1934, 3913.932
286.6755, 3936.736
287.1576, 3952.573
287.6397, 3955.261
288.1218, 3956.034
288.6039, 3964.517
289.0861, 3980.673
289.5682, 3996.207
290.0503, 4002.049
290.5324, 3996.414
291.0145, 3992.408
291.4966, 3992.564
291.9788, 3991.744
292.4609, 3986.829
292.9430, 3979.347
293.4251, 3972.810
293.9072, 3969.599
294.3893, 3969.396
294.8715, 3970.041
295.3536, 3970.957
295.8357, 3973.705
296.3178, 3983.716
296.7999, 3993.719
297.2820, 3992.320
297.7642, 3974.140
298.2463, 3951.314
298.7284, 3950.411
299.2105, 3984.698
299.6926, 4004.986
300.1747, 3988.634
300.6569, 3966.165
301.1390, 3958.065
301.6211, 3967.415
302.1032, 3982.948
302.5853, 3996.512
303.0674, 4008.281
303.5495, 4009.032
304.0316, 3986.729
304.5138, 3965.735
304.9959, 3961.919
305.4780, 3971.617
305.9601, 3981.570
306.4422, 3985.223
306.9243, 3983.386
307.4065, 3976.123
307.8886, 3959.650
308.3707, 3948.345
308.8528, 3960.308
309.3349, 3981.022
309.8170, 3987.879
310.2992, 3968.619
310.7813, 3942.175
311.2634, 3928.839
311.7455, 3927.998
312.2276, 3926.304
312.7097, 3916.933
313.1919, 3905.239
313.6740, 3900.164
314.1561, 3903.006
314.6382, 3907.413
315.1203, 3910.716
315.6024, 3913.367
316.0846, 3917.436
316.5667, 3924.286
317.0488, 3928.800
317.5309, 3922.658
318.0130, 3904.896
318.4951, 3891.420
318.9773, 3882.869
319.4594, 3880.318
319.9415, 3889.075
320.4236, 3907.504
320.9057, 3922.754
321.3878, 3924.744
321.8700, 3914.190
322.3521, 3903.817
322.8342, 3889.231
323.3163, 3879.575
323.7984, 3883.797
324.2805, 3894.349
324.7627, 3895.229
325.2448, 3878.380
325.7269, 3854.103
326.2090, 3847.983
326.6911, 3884.730
327.1732, 3906.050
327.6554, 3902.940
328.1375, 3890.577
328.6196, 3877.884
329.1017, 3868.165
329.5838, 3864.607
330.0659, 3872.426
330.5481, 3895.149
331.0302, 3910.317
331.5123, 3915.423
331.9944, 3915.441
332.4765, 3909.393
332.9586, 3899.601
333.4408, 3889.654
333.9229, 3881.055
334.4050, 3874.932
334.8871, 3878.009
335.3692, 3902.368
335.8513, 3912.092
336.3335, 3880.973
336.8156, 3840.468
337.2977, 3824.722
337.7798, 3844.658
338.2619, 3874.121
338.7440, 3880.585
339.2262, 3863.051
339.7083, 3848.920
340.1904, 3843.819
340.6725, 3843.204
341.1546, 3845.064
341.6367, 3848.738
342.1189, 3849.400
342.6010, 3838.420
343.0831, 3823.881
343.5652, 3825.811
344.0473, 3848.906
344.5294, 3871.481
345.0116, 3876.640
345.4937, 3869.738
345.9758, 3866.488
346.4579, 3873.637
346.9400, 3879.843
347.4221, 3876.704
347.9043, 3865.893
348.3864, 3852.001
348.8685, 3835.015
349.3506, 3819.397
349.8327, 3816.967
350.3148, 3835.463
350.7970, 3845.030
351.2791, 3830.332
351.7612, 3809.734
352.2433, 3804.844
352.7254, 3818.193
353.2076, 3834.332
353.6897, 3837.281
354.1718, 3825.003
354.6539, 3816.381
355.1360, 3813.420
355.6181, 3811.324
356.1003, 3807.853
356.5824, 3803.902
357.0645, 3801.879
357.5466, 3803.251
358.0287, 3806.465
358.5108, 3806.293
358.9930, 3797.547
359.4751, 3794.505
359.9572, 3806.446
360.4393, 3818.740
360.9214, 3817.006
361.4035, 3800.169
361.8857, 3782.007
362.3678, 3779.713
362.8499, 3794.564
363.3320, 3799.720
363.8141, 3782.431
364.2962, 3770.745
364.7784, 3788.193
365.2605, 3820.364
365.7426, 3834.640
366.2247, 3805.524
366.7068, 3760.250
367.1889, 3747.818
367.6711, 3772.121
368.1532, 3794.440
368.6353, 3797.497
369.1174, 3791.214
369.5995, 3790.371
370.0816, 3797.132
370.5638, 3802.750
371.0459, 3803.985
371.5280, 3800.510
372.0101, 3788.104
372.4922, 3763.978
372.9743, 3743.672
373.4565, 3746.135
373.9386, 3772.946
374.4207, 3791.489
374.9028, 3794.959
375.3849, 3794.766
375.8670, 3799.027
376.3492, 3805.905
376.8313, 3807.047
377.3134, 3796.509
377.7955, 3780.460
378.2776, 3779.382
378.7597, 3823.494
379.2419, 3844.406
379.7240, 3820.877
380.2061, 3784.770
380.6882, 3764.781
381.1703, 3765.531
381.6524, 3772.403
382.1346, 3768.155
382.6167, 3750.645
383.0988, 3742.494
383.5809, 3750.117
384.0630, 3761.377
384.5451, 3778.142
385.0273, 3794.983
385.5094, 3802.481
385.9915, 3794.321
386.4736, 3778.806
386.9557, 3772.479
387.4378, 3777.547
387.9200, 3780.576
388.4021, 3780.910
388.8842, 3775.142
389.3663, 3755.070
389.8484, 3720.382
390.3305, 3695.135
390.8127, 3701.155
391.2948, 3725.335
391.7769, 3737.227
392.2590, 3732.176
392.7411, 3724.701
393.2232, 3724.222
393.7054, 3730.521
394.1875, 3740.298
394.6696, 3764.417
395.1517, 3781.046
395.6338, 3772.089
396.1159, 3747.531
396.5981, 3730.149
397.0802, 3729.135
397.5623, 3735.065
398.0444, 3730.708
398.5265, 3703.614
399.0086, 3695.459
399.4908, 3727.582
399.9729, 3760.708
400.4550, 3768.667
400.9371, 3753.272
401.4192, 3729.877
401.9013, 3708.045
402.3835, 3689.116
402.8656, 3681.636
403.3477, 3693.353
403.8298, 3705.423
404.3119, 3714.877
404.7940, 3722.750
405.2762, 3730.701
405.7583, 3739.081
406.2404, 3745.411
406.7225, 3746.768
407.2046, 3743.243
407.6867, 3737.309
408.1689, 3726.835
408.6510, 3717.603
409.1331, 3714.371
409.6152, 3715.273
410.0973, 3715.502
410.5794, 3712.521
411.0616, 3708.980
411.5437, 3708.844
412.0258, 3711.427
412.5079, 3711.156
412.9900, 3705.208
413.4721, 3695.948
413.9543, 3686.615
414.4364, 3674.344
414.9185, 3670.634
415.4006, 3688.617
415.8827, 3709.179
416.3648, 3709.006
416.8470, 3689.460
417.3291, 3674.672
417.8112, 3686.034
418.2933, 3720.810
418.7754, 3740.292
419.2575, 3733.565
419.7397, 3723.771
420.2218, 3710.341
420.7039, 3697.420
421.1860, 3689.911
421.6681, 3689.000
422.1502, 3690.609
422.6324, 3689.378
423.1145, 3684.825
423.5966, 3681.193
424.0787, 3678.852
424.5608, 3677.229
425.0429, 3675.980
425.5251, 3675.177
426.0072, 3675.252
426.4893, 3677.625
426.9714, 3679.388
427.4535, 3676.246
427.9356, 3668.281
428.4178, 3658.715
428.8999, 3646.733
429.3820, 3635.961
429.8641, 3632.265
430.3462, 3636.073
430.8283, 3640.585
431.3105, 3645.120
431.7926, 3648.791
432.2747, 3648.365
432.7568, 3644.945
433.2389, 3646.825
433.7210, 3661.167
434.2032, 3684.707
434.6853, 3698.103
435.1674, 3697.296
435.6495, 3691.227
436.1316, 3678.510
436.6137, 3662.175
437.0959, 3641.251
437.5780, 3617.574
438.0601, 3600.229
438.5422, 3601.134
439.0243, 3621.157
439.5064, 3638.444
439.9886, 3658.481
440.4707, 3667.319
440.9528, 3647.108
441.4349, 3617.663
441.9170, 3611.385
442.3991, 3644.537
442.8813, 3683.866
443.3634, 3690.154
443.8455, 3667.460
444.3276, 3647.582
444.8097, 3636.415
445.2918, 3631.944
445.7740, 3636.479
446.2561, 3648.582
446.7382, 3652.732
447.2203, 3638.767
447.7024, 3622.387
448.1845, 3616.000
448.6667, 3617.132
449.1488, 3615.549
449.6309, 3605.684
450.1130, 3593.791
450.5951, 3594.389
451.0772, 3622.255
451.5594, 3636.607
452.0415, 3622.521
452.5236, 3608.332
453.0057, 3618.837
453.4878, 3647.172
453.9699, 3665.149
454.4521, 3650.245
454.9342, 3612.612
455.4163, 3590.103
455.8984, 3587.911
456.3805, 3587.525
456.8626, 3582.222
457.3448, 3577.487
457.8269, 3578.933
458.3090, 3587.124
458.7911, 3594.924
459.2732, 3599.248
459.7553, 3599.705
460.2375, 3594.088
460.7196, 3581.827
461.2017, 3569.322
461.6838, 3559.512
462.1659, 3553.118
462.6480, 3552.216
463.1302, 3560.871
463.6123, 3568.860
464.0944, 3571.536
464.5765, 3572.920
465.0586, 3580.897
465.5407, 3595.624
466.0229, 3605.238
466.5050, 3595.153
466.9871, 3563.842
467.4692, 3549.093
467.9513, 3563.814
468.4334, 3580.957
468.9156, 3604.942
469.3977, 3623.806
469.8798, 3617.990
470.3619, 3581.345
470.8440, 3542.013
471.3261, 3534.262
471.8083, 3555.441
472.2904, 3575.115
472.7725, 3594.456
473.2546, 3603.391
473.7367, 3581.242
474.2188, 3542.651
474.7010, 3523.283
475.1831, 3545.035
475.6652, 3569.656
476.1473, 3569.012
476.6294, 3553.088
477.1115, 3545.131
477.5937, 3552.464
478.0758, 3564.855
478.5579, 3569.714
479.0400, 3566.058
479.5221, 3559.210
480.0042, 3541.876
480.4864, 3529.588
480.9685, 3531.698
481.4506, 3542.118
481.9327, 3550.732
482.4148, 3553.216
482.8969, 3552.952
483.3791, 3557.496
483.8612, 3568.918
484.3433, 3568.628
484.8254, 3544.295
485.3075, 3520.267
485.7896, 3512.914
486.2718, 3517.477
486.7539, 3520.800
487.2360, 3515.258
487.7181, 3510.286
488.2002, 3518.241
488.6823, 3535.595
489.1645, 3546.857
489.6466, 3546.222
490.1287, 3541.395
490.6108, 3544.010
491.0929, 3558.371
491.5750, 3559.431
492.0572, 3531.968
492.5393, 3506.446
493.0214, 3500.235
493.5035, 3507.365
493.9856, 3515.425
494.4677, 3518.726
494.9499, 3519.012
495.4320, 3519.149
495.9141, 3519.013
496.3962, 3519.246
496.8783, 3519.975
497.3604, 3521.018
497.8426, 3522.348
498.3247, 3523.913
498.8068, 3525.915
499.2889, 3530.117
499.7710, 3532.417
500.2531, 3525.294
500.7353, 3510.859
501.2174, 3501.990
501.6995, 3503.068
502.1816, 3509.103
502.6637, 3514.941
503.1458, 3520.809
503.6280, 3524.230
504.1101, 3526.619
504.5922, 3525.049
505.0743, 3514.380
505.5564, 3499.328
506.0385, 3488.584
506.5207, 3485.653
507.0028, 3487.487
507.4849, 3489.354
507.9670, 3491.172
508.4491, 3493.435
508.9312, 3497.759
509.4134, 3500.724
509.8955, 3500.094
510.3776, 3497.233
510.8597, 3495.217
511.3418, 3496.277
511.8239, 3495.881
512.3061, 3487.428
512.7882, 3472.993
513.2703, 3460.970
513.7524, 3452.934
514.2346, 3449.409
514.7167, 3451.733
515.1988, 3460.245
515.6809, 3468.763
516.1630, 3479.686
516.6451, 3487.957
517.1273, 3492.655
517.6094, 3493.126
518.0915, 3485.725
518.5736, 3470.397
519.0557, 3456.423
519.5378, 3456.901
520.0200, 3473.119
520.5021, 3486.214
520.9842, 3501.625
521.4663, 3505.370
521.9484, 3480.394
522.4305, 3446.635
522.9127, 3431.882
523.3948, 3444.652
523.8769, 3465.219
524.3590, 3483.885
524.8411, 3498.414
525.3232, 3500.746
525.8054, 3489.229
526.2875, 3477.924
526.7696, 3477.954
527.2517, 3487.394
527.7338, 3492.386
528.2159, 3488.472
528.6981, 3486.625
529.1802, 3490.173
529.6623, 3495.579
530.1444, 3500.287
530.6265, 3503.502
531.1086, 3504.308
531.5908, 3500.739
532.0729, 3494.581
532.5550, 3497.308
533.0371, 3516.185
533.5192, 3523.472
534.0013, 3494.984
534.4835, 3461.299
534.9656, 3453.018
535.4477, 3472.038
535.9298, 3490.682
536.4119, 3501.034
536.8940, 3502.157
537.3762, 3487.645
537.8583, 3460.810
538.3404, 3438.207
538.8225, 3427.626
539.3046, 3427.712
539.7867, 3436.611
540.2689, 3462.422
540.7510, 3479.652
541.2331, 3484.418
541.7152, 3485.416
542.1973, 3485.014
542.6794, 3484.717
543.1616, 3488.545
543.6437, 3500.305
544.1258, 3508.770
544.6079, 3488.730
545.0900, 3440.859
545.5721, 3415.154
546.0543, 3426.601
546.5364, 3449.315
547.0185, 3466.377
547.5006, 3477.137
547.9827, 3477.712
548.4648, 3455.784
548.9469, 3436.616
549.4290, 3433.828
549.9111, 3440.923
550.3932, 3449.472
550.8754, 3457.000
551.3575, 3462.892
551.8396, 3466.737
552.3217, 3468.488
552.8038, 3466.900
553.2859, 3459.611
553.7681, 3452.535
554.2502, 3445.069
554.7323, 3439.631
555.2144, 3439.193
555.6965, 3444.006
556.1786, 3450.110
556.6608, 3455.731
557.1429, 3460.653
557.6250, 3465.380
558.1071, 3469.745
558.5892, 3469.331
559.0714, 3459.971
559.5535, 3447.914
560.0356, 3446.360
560.5177, 3460.001
560.9998, 3474.583
561.4819, 3499.502
561.9641, 3516.516
562.4462, 3507.941
562.9283, 3483.967
563.4104, 3466.853
563.8925, 3467.538
564.3746, 3477.732
564.8568, 3484.503
565.3389, 3487.604
565.8210, 3494.475
566.3031, 3508.725
566.7852, 3521.924
567.2673, 3527.492
567.7495, 3527.384
568.2316, 3525.957
568.7137, 3525.360
569.1958, 3521.098
569.6779, 3505.499
570.1600, 3487.484
570.6422, 3481.082
571.1243, 3487.344
571.6064, 3495.161
572.0885, 3495.063
572.5706, 3488.450
573.0527, 3485.026
573.5349, 3488.287
574.0170, 3488.072
574.4991, 3473.767
574.9812, 3462.420
575.4633, 3471.531
575.9454, 3497.766
576.4276, 3517.454
576.9097, 3513.720
577.3918, 3500.253
577.8739, 3492.835
578.3560, 3490.793
578.8381, 3490.476
579.3203, 3490.422
579.8024, 3493.160
580.2845, 3502.960
580.7666, 3521.904
581.2487, 3535.017
581.7308, 3543.623
582.2130, 3545.844
582.6951, 3535.315
583.1772, 3520.730
583.6593, 3513.288
584.1414, 3515.509
584.6235, 3519.699
585.1057, 3517.147
585.5878, 3510.132
586.0699, 3508.962
586.5520, 3514.854
587.0341, 3520.072
587.5162, 3521.638
587.9984, 3519.930
588.4805, 3513.195
588.9626, 3496.755
589.4447, 3493.681
589.9268, 3522.138
590.4089, 3552.147
590.8911, 3563.480
591.3732, 3559.297
591.8553, 3548.039
592.3374, 3533.435
592.8195, 3521.592
593.3016, 3526.736
593.7838, 3551.512
594.2659, 3559.749
594.7480, 3540.175
595.2301, 3520.363
595.7122, 3520.756
596.1943, 3530.118
596.6765, 3528.513
597.1586, 3506.877
597.6407, 3492.918
598.1228, 3507.573
598.6049, 3532.009
599.0870, 3544.645
599.5692, 3544.199
600.0513, 3537.513
600.5334, 3527.657
601.0155, 3518.929
601.4976, 3525.948
601.9797, 3560.273
602.4619, 3578.930
602.9440, 3560.514
603.4261, 3543.378
603.9082, 3553.901
604.3903, 3579.384
604.8724, 3587.721
605.3546, 3560.624
605.8367, 3531.565
606.3188, 3529.088
606.8009, 3543.427
607.2830, 3556.795
607.7651, 3565.803
608.2473, 3567.435
608.7294, 3557.781
609.2115, 3540.000
609.6936, 3530.970
610.1757, 3538.135
610.6578, 3542.111
611.1400, 3539.361
611.6221, 3535.130
612.1042, 3531.515
612.5863, 3529.343
613.0684, 3530.094
613.5505, 3535.206
614.0327, 3542.235
614.5148, 3549.736
614.9969, 3556.903
615.4790, 3559.885
615.9611, 3557.551
616.4432, 3554.119
616.9254, 3553.880
617.4075, 3556.242
617.8896, 3553.836
618.3717, 3534.217
618.8538, 3526.469
619.3359, 3544.123
619.8181, 3566.933
620.3002, 3579.143
620.7823, 3580.575
621.2644, 3579.675
621.7465, 3581.055
622.2286, 3583.630
622.7108, 3587.336
623.1929, 3591.528
623.6750, 3588.286
624.1571, 3573.387
624.6392, 3560.099
625.1213, 3563.339
625.6035, 3582.452
626.0856, 3590.431
626.5677, 3578.880
627.0498, 3568.518
627.5319, 3563.614
628.0140, 3561.646
628.4962, 3559.935
628.9783, 3558.578
629.4604, 3560.527
629.9425, 3570.467
630.4246, 3581.383
630.9067, 3576.444
631.3889, 3556.239
631.8710, 3540.086
632.3531, 3531.354
632.8352, 3531.360
633.3173, 3543.960
633.7994, 3568.817
634.2816, 3588.576
634.7637, 3603.639
635.2458, 3613.400
635.7279, 3615.657
636.2100, 3613.760
636.6921, 3609.412
637.1743, 3603.858
637.6564, 3599.795
638.1385, 3599.676
638.6206, 3601.523
639.1027, 3601.301
639.5848, 3599.010
640.0670, 3594.745
640.5491, 3587.383
641.0312, 3580.774
641.5133, 3578.532
641.9954, 3580.637
642.4775, 3584.290
642.9597, 3590.746
643.4418, 3597.102
643.9239, 3604.956
644.4060, 3610.823
644.8881, 3609.795
645.3702, 3602.932
645.8524, 3596.686
646.3345, 3595.916
646.8166, 3597.503
647.2987, 3596.036
647.7808, 3591.506
648.2629, 3580.656
648.7451, 3559.190
649.2272, 3541.680
649.7093, 3542.807
650.1914, 3560.500
650.6735, 3573.787
651.1556, 3583.731
651.6378, 3588.000
652.1199, 3577.508
652.6020, 3567.632
653.0841, 3577.211
653.5662, 3601.073
654.0483, 3614.822
654.5305, 3600.741
655.0126, 3577.455
655.4947, 3580.375
655.9768, 3606.300
656.4589, 3617.478
656.9410, 3604.620
657.4232, 3588.297
657.9053, 3584.427
658.3874, 3590.380
658.8695, 3592.017
659.3516, 3583.319
659.8337, 3579.257
660.3159, 3585.241
660.7980, 3592.779
661.2801, 3595.079
661.7622, 3593.722
662.2443, 3594.503
662.7264, 3600.487
663.2086, 3608.254
663.6907, 3612.902
664.1728, 3615.422
664.6549, 3622.198
665.1370, 3634.840
665.6191, 3641.344
666.1013, 3630.547
666.5834, 3611.128
667.0655, 3609.848
667.5476, 3645.554
668.0297, 3665.850
668.5118, 3661.624
668.9940, 3651.308
669.4761, 3642.473
669.9582, 3635.089
670.4403, 3625.921
670.9224, 3613.273
671.4045, 3605.813
671.8867, 3615.223
672.3688, 3634.719
672.8509, 3651.571
673.3330, 3664.412
673.8151, 3666.605
674.2972, 3653.411
674.7794, 3631.895
675.2615, 3614.513
675.7436, 3599.665
676.2257, 3594.366
676.7078, 3609.698
677.1899, 3621.934
677.6721, 3622.870
678.1542, 3617.262
678.6363, 3608.184
679.1184, 3596.551
679.6005, 3593.018
680.0826, 3609.270
680.5648, 3633.837
681.0469, 3657.273
681.5290, 3676.400
682.0111, 3678.049
682.4932, 3657.275
682.9753, 3631.902
683.4575, 3623.994
683.9396, 3633.743
684.4217, 3647.120
684.9038, 3669.013
685.3859, 3685.594
685.8680, 3692.046
686.3502, 3692.796
686.8323, 3688.755
687.3144, 3681.053
687.7965, 3677.110
688.2786, 3683.830
688.7607, 3690.508
689.2429, 3688.373
689.7250, 3681.916
690.2071, 3679.854
690.6892, 3682.902
691.1713, 3682.372
691.6534, 3669.306
692.1356, 3650.407
692.6177, 3651.760
693.0998, 3678.671
693.5819, 3694.766
694.0640, 3686.591
694.5461, 3677.641
695.0283, 3692.221
695.5104, 3721.102
695.9925, 3732.432
696.4746, 3713.102
696.9567, 3694.878
697.4388, 3687.564
697.9210, 3683.816
698.4031, 3672.298
698.8852, 3658.883
699.3673, 3663.977
699.8494, 3699.183
700.3315, 3739.200
700.8137, 3744.758
701.2958, 3722.420
701.7779, 3713.885
702.2600, 3723.638
702.7421, 3734.706
703.2242, 3738.715
703.7064, 3738.064
704.1885, 3738.124
704.6706, 3742.020
705.1527, 3736.976
705.6348, 3712.443
706.1169, 3691.445
706.5991, 3682.010
707.0812, 3681.385
707.5633, 3688.445
708.0454, 3701.992
708.5275, 3711.971
709.0096, 3705.037
709.4918, 3694.768
709.9739, 3703.436
710.4560, 3726.195
710.9381, 3745.092
711.4202, 3754.762
711.9023, 3754.911
712.3845, 3742.707
712.8666, 3720.291
713.3487, 3714.276
713.8308, 3732.144
714.3129, 3750.609
714.7950, 3772.693
715.2772, 3787.051
715.7593, 3780.733
716.2414, 3759.379
716.7235, 3743.945
717.2056, 3738.905
717.6877, 3741.042
718.1699, 3755.072
718.6520, 3771.519
719.1341, 3778.787
719.6162, 3777.590
720.0983, 3775.392
720.5804, 3776.200
721.0626, 3779.020
721.5447, 3783.406
722.0268, 3789.087
722.5089, 3790.695
722.9910, 3787.684
723.4731, 3780.146
723.9553, 3762.620
724.4374, 3745.865
724.9195, 3753.589
725.4016, 3798.816
725.8837, 3827.531
726.3658, 3835.918
726.8480, 3831.451
727.3301, 3801.907
727.8122, 3769.314
728.2943, 3762.829
728.7764, 3785.693
729.2585, 3811.879
729.7407, 3824.934
730.2228, 3830.660
730.7049, 3838.324
731.1870, 3845.312
731.6691, 3839.502
732.1512, 3818.384
732.6334, 3799.478
733.1155, 3798.729
733.5976, 3813.419
734.0797, 3830.954
734.5618, 3857.099
735.0439, 3868.737
735.5261, 3851.051
736.0082, 3831.824
736.4903, 3829.528
736.9724, 3838.885
737.4545, 3848.004
737.9366, 3855.844
738.4188, 3862.485
738.9009, 3865.841
739.3830, 3869.852
739.8651, 3881.490
740.3472, 3895.865
740.8293, 3901.183
741.3115, 3893.133
741.7936, 3879.989
742.2757, 3866.177
742.7578, 3855.197
743.2399, 3865.308
743.7220, 3896.692
744.2042, 3914.944
744.6863, 3905.242
745.1684, 3886.625
745.6505, 3882.085
746.1326, 3892.138
746.6147, 3898.908
747.0969, 3901.320
747.5790, 3901.909
748.0611, 3891.323
748.5432, 3887.297
749.0253, 3912.343
749.5074, 3956.441
749.9896, 3982.402
750.4717, 3971.163
750.9538, 3953.439
751.4359, 3948.893
751.9180, 3948.719
752.4001, 3938.443
752.8823, 3920.892
753.3644, 3911.314
753.8465, 3917.550
754.3286, 3933.757
754.8107, 3956.231
755.2928, 3983.395
755.7750, 3989.106
756.2571, 3968.305
756.7392, 3949.950
757.2213, 3946.511
757.7034, 3950.254
758.1855, 3949.508
758.6677, 3942.568
759.1498, 3944.393
759.6319, 3964.513
760.1140, 3980.339
760.5961, 3984.097
761.0782, 3983.582
761.5604, 3985.510
762.0425, 3989.915
762.5246, 3993.551
763.0067, 3995.301
763.4888, 3995.318
763.9709, 3990.326
764.4531, 3985.262
764.9352, 3990.810
765.4173, 4005.443
765.8994, 4014.898
766.3815, 4010.681
766.8636, 4003.594
767.3458, 3987.274
767.8279, 4006.887
768.3100, 4019.194
768.7921, 4024.588
769.2742, 4002.361
769.7563, 4015.800
770.2385, 4014.947
770.7206, 4013.507
771.2027, 4031.966
771.6848, 4013.757
772.1669, 4031.900
772.6490, 4035.532
773.1312, 4045.807
773.6133, 4041.699
774.0954, 4042.033
774.5775, 4056.753
775.0596, 4074.301
775.5417, 4088.617
776.0239, 4095.511
776.5060, 4081.867
776.9881, 4061.002
777.4702, 4055.551
777.9523, 4064.452
778.4344, 4072.489
778.9166, 4071.999
779.3987, 4065.009
779.8808, 4050.715
780.3629, 4029.904
780.8450, 4025.322
781.3271, 4040.124
781.8093, 4055.163
782.2914, 4063.067
782.7735, 4069.233
783.2556, 4082.609
783.7377, 4104.108
784.2198, 4110.231
784.7020, 4082.472
785.1841, 4065.221
785.6662, 4070.466
786.1483, 4083.602
786.6304, 4100.206
787.1125, 4115.139
787.5947, 4116.106
788.0768, 4093.451
788.5589, 4072.814
789.0410, 4071.615
789.5231, 4079.849
790.0052, 4089.801
790.4874, 4098.565
790.9695, 4100.230
791.4516, 4092.837
791.9337, 4084.602
792.4158, 4086.644
792.8979, 4095.673
793.3801, 4096.037
793.8622, 4087.581
794.3443, 4082.420
794.8264, 4084.476
795.3085, 4088.135
795.7906, 4087.533
796.2728, 4083.840
796.7549, 4085.620
797.2370, 4098.642
797.7191, 4106.463
798.2012, 4106.825
798.6833, 4102.802
799.1655, 4091.208
799.6476, 4077.617
800.1297, 4072.593
800.6118, 4079.332
801.0939, 4085.326
801.5760, 4086.269
802.0582, 4085.010
802.5403, 4086.916
803.0224, 4086.443
803.5045, 4070.299
803.9866, 4039.258
804.4688, 4014.266
804.9509, 4013.647
805.4330, 4023.998
805.9151, 4024.645
806.3972, 4018.011
806.8793, 4011.893
807.3615, 4007.661
807.8436, 4006.407
808.3257, 4009.149
808.8078, 4014.054
809.2899, 4018.386
809.7720, 4023.531
810.2542, 4018.480
810.7363, 3998.064
811.2184, 3979.215
811.7005, 3964.376
812.1826, 3958.063
812.6647, 3972.406
813.1469, 4008.757
813.6290, 4025.154
814.1111, 4005.640
814.5932, 3985.888
815.0753, 3974.834
815.5574, 3965.915
816.0396, 3951.286
816.5217, 3934.330
817.0038, 3925.583
817.4859, 3930.205
817.9680, 3937.602
818.4501, 3944.317
818.9323, 3947.302
819.4144, 3940.806
819.8965, 3927.748
820.3786, 3916.008
820.8607, 3908.116
821.3428, 3901.231
821.8250, 3891.244
822.3071, 3880.952
822.7892, 3880.387
823.2713, 3888.654
823.7534, 3892.310
824.2355, 3888.372
824.7177, 3881.866
825.1998, 3876.480
825.6819, 3871.324
826.1640, 3862.833
826.6461, 3847.040
827.1282, 3840.712
827.6104, 3853.004
828.0925, 3860.414
828.5746, 3849.229
829.0567, 3830.433
829.5388, 3817.454
830.0209, 3810.554
830.5031, 3803.927
830.9852, 3800.541
831.4673, 3792.559
831.9494, 3767.169
832.4315, 3744.290
832.9136, 3748.429
833.3958, 3770.715
833.8779, 3780.717
834.3600, 3764.856
834.8421, 3743.143
835.3242, 3729.928
835.8063, 3720.013
836.2885, 3702.005
836.7706, 3681.870
837.2527, 3682.621
837.7348, 3708.838
838.2169, 3728.694
838.6990, 3707.128
839.1812, 3660.758
839.6633, 3635.792
840.1454, 3630.512
840.6275, 3623.782
841.1096, 3611.748
841.5917, 3598.503
842.0739, 3585.500
842.5560, 3575.949
843.0381, 3579.600
843.5202, 3602.374
844.0023, 3611.088
844.4844, 3597.550
844.9666, 3586.185
845.4487, 3590.871
845.9308, 3597.232
846.4129, 3583.165
846.8950, 3550.642
847.3771, 3535.567
847.8593, 3562.546
848.3414, 3574.767
848.8235, 3549.516
849.3056, 3517.849
849.7877, 3496.822
850.2698, 3487.243
850.7520, 3491.134
851.2341, 3511.938
851.7162, 3519.853
852.1983, 3482.464
852.6804, 3440.976
853.1625, 3438.259
853.6447, 3453.789
854.1268, 3445.315
854.6089, 3409.878
855.0910, 3384.464
855.5731, 3398.632
856.0552, 3423.417
856.5374, 3408.681
857.0195, 3369.865
857.5016, 3355.744
857.9837, 3368.569
858.4658, 3383.067
858.9479, 3387.574
859.4301, 3386.377
859.9122, 3385.528
860.3943, 3384.597
860.8764, 3378.018
861.3585, 3364.883
861.8406, 3352.035
862.3228, 3340.460
862.8049, 3331.556
863.2870, 3328.558
863.7691, 3327.906
864.2512, 3315.608
864.7333, 3279.350
865.2155, 3259.546
865.6976, 3266.921
866.1797, 3277.059
866.6618, 3284.207
867.1439, 3287.727
867.6260, 3286.674
868.1082, 3281.089
868.5903, 3272.619
869.0724, 3260.365
869.5545, 3246.800
870.0366, 3231.072
870.5187, 3215.789
871.0009, 3201.598
871.4830, 3189.928
871.9651, 3185.054
872.4472, 3189.011
872.9293, 3189.686
873.4114, 3176.646
873.8936, 3159.566
874.3757, 3144.519
874.8578, 3133.385
875.3399, 3130.451
875.8220, 3134.917
876.3041, 3139.631
876.7863, 3140.502
877.2684, 3137.413
877.7505, 3128.950
878.2326, 3116.632
878.7147, 3104.230
879.1968, 3092.180
879.6790, 3079.799
880.1611, 3066.792
880.6432, 3058.059
881.1253, 3061.494
881.6074, 3073.213
882.0895, 3072.555
882.5717, 3058.698
883.0538, 3047.611
883.5359, 3043.167
884.0180, 3035.677
884.5001, 3016.854
884.9822, 2994.078
885.4644, 2984.275
885.9465, 2988.579
886.4286, 3002.383
886.9107, 3042.538
887.3928, 3057.855
887.8749, 3015.990
888.3571, 2961.616
888.8392, 2936.376
889.3213, 2936.516
889.8034, 2935.116
890.2855, 2933.901
890.7676, 2928.355
891.2498, 2907.149
891.7319, 2893.772
892.2140, 2910.521
892.6961, 2935.964
893.1782, 2937.605
893.6603, 2912.753
894.1425, 2894.828
894.6246, 2899.023
895.1067, 2906.769
895.5888, 2913.876
896.0709, 2916.978
896.5530, 2910.946
897.0352, 2898.550
897.5173, 2886.199
897.9994, 2875.917
898.4815, 2869.131
898.9636, 2867.881
899.4457, 2869.750
899.9279, 2878.230
900.4100, 2885.634
900.8921, 2873.532
901.3742, 2843.051
901.8563, 2816.138
902.3384, 2806.624
902.8206, 2804.973
903.3027, 2799.183
903.7848, 2791.005
904.2669, 2784.683
904.7490, 2780.291
905.2311, 2776.050
905.7133, 2771.508
906.1954, 2771.544
906.6775, 2782.597
907.1596, 2798.878
907.6417, 2803.392
908.1238, 2796.404
908.6060, 2781.316
909.0881, 2757.470
909.5702, 2742.498
910.0523, 2747.018
910.5344, 2758.387
911.0165, 2757.397
911.4987, 2744.508
911.9808, 2732.708
912.4629, 2720.523
912.9450, 2716.406
913.4271, 2725.793
913.9092, 2734.716
914.3914, 2733.565
914.8735, 2725.046
915.3556, 2715.274
915.8377, 2703.052
916.3198, 2694.295
916.8019, 2690.473
917.2841, 2687.831
917.7662, 2686.105
918.2483, 2684.533
918.7304, 2682.583
919.2125, 2680.238
919.6946, 2677.079
920.1768, 2668.979
920.6589, 2668.020
921.1410, 2692.290
921.6231, 2704.194
922.1052, 2672.683
922.5873, 2628.870
923.0695, 2610.554
923.5516, 2618.392
924.0337, 2626.279
924.5158, 2627.256
924.9979, 2627.339
925.4800, 2633.208
925.9622, 2634.569
926.4443, 2616.899
926.9264, 2591.610
927.4085, 2580.584
927.8906, 2587.845
928.3727, 2594.950
928.8549, 2589.853
929.3370, 2584.234
929.8191, 2592.320
930.3012, 2599.965
930.7833, 2583.654
931.2654, 2552.242
931.7476, 2535.962
932.2297, 2546.214
932.7118, 2559.546
933.1939, 2556.998
933.6760, 2547.615
934.1581, 2539.029
934.6403, 2532.975
935.1224, 2536.697
935.6045, 2547.188
936.0866, 2546.170
936.5687, 2522.676
937.0508, 2496.545
937.5330, 2491.213
938.0151, 2500.446
938.4972, 2518.320
938.9793, 2539.293
939.4614, 2543.622
939.9435, 2528.277
940.4257, 2509.405
940.9078, 2497.891
941.3899, 2492.412
941.8720, 2491.763
942.3541, 2495.097
942.8362, 2500.298
943.3184, 2506.624
943.8005, 2508.831
944.2826, 2505.206
944.7647, 2495.045
945.2468, 2476.059
945.7289, 2453.457
946.2111, 2443.314
946.6932, 2445.138
947.1753, 2446.877
947.6574, 2447.470
948.1395, 2451.403
948.6216, 2461.610
949.1038, 2468.915
949.5859, 2460.707
950.0680, 2441.316
950.5501, 2438.865
951.0322, 2457.191
951.5143, 2459.234
951.9965, 2436.794
952.4786, 2415.583
952.9607, 2407.237
953.4428, 2410.307
953.9249, 2425.923
954.4070, 2453.041
954.8892, 2460.381
955.3713, 2440.508
955.8534, 2426.897
956.3355, 2429.743
956.8176, 2425.922
957.2997, 2394.802
957.7819, 2357.059
958.2640, 2351.877
958.7461, 2383.294
959.2282, 2404.622
959.7103, 2417.195
960.1924, 2415.658
960.6746, 2385.121
961.1567, 2360.723
961.6388, 2370.228
962.1209, 2399.371
962.6030, 2419.056
963.0851, 2431.563
963.5673, 2422.989
964.0494, 2361.955
964.5315, 2327.781
965.0136, 2363.443
965.4957, 2404.022
965.9778, 2394.992
966.4600, 2357.414
966.9421, 2346.724
967.4242, 2373.878
967.9063, 2393.280
968.3884, 2404.229
968.8705, 2406.289
969.3527, 2390.657
969.8348, 2373.742
970.3169, 2370.062
970.7990, 2375.737
971.2811, 2378.199
971.7632, 2376.205
972.2454, 2371.789
972.7275, 2358.424
973.2096, 2351.217
973.6917, 2362.804
974.1738, 2376.941
974.6559, 2375.792
975.1381, 2363.793
975.6202, 2360.587
976.1023, 2375.038
976.5844, 2381.767
977.0665, 2368.718
977.5486, 2355.061
978.0308, 2349.206
978.5129, 2347.129
978.9950, 2345.420
979.4771, 2343.425
979.9592, 2339.793
980.4413, 2331.501
980.9235, 2328.777
981.4056, 2339.553
981.8877, 2350.847
982.3698, 2354.714
982.8519, 2356.122
983.3340, 2362.778
983.8162, 2373.142
984.2983, 2377.440
984.7804, 2371.795
985.2625, 2363.192
985.7446, 2348.576
986.2267, 2337.770
986.7089, 2341.423
987.1910, 2349.112
987.6731, 2347.000
988.1552, 2335.775
988.6373, 2326.280
989.1194, 2320.380
989.6016, 2320.250
990.0837, 2336.148
990.5658, 2348.007
991.0479, 2337.842
991.5300, 2318.641
992.0121, 2307.471
992.4943, 2305.089
992.9764, 2301.463
993.4585, 2289.677
993.9406, 2285.046
994.4227, 2306.404
994.9048, 2324.600
995.3870, 2311.290
995.8691, 2287.255
996.3512, 2282.605
996.8333, 2297.446
997.3154, 2310.195
997.7975, 2312.854
998.2797, 2313.374
998.7618, 2313.169
999.2439, 2314.580
999.7260, 2324.519
1000.208, 2333.959
1000.690, 2329.387
1001.172, 2311.541
1001.654, 2291.192
1002.137, 2266.160
1002.619, 2254.696
1003.101, 2278.783
1003.583, 2305.509
1004.065, 2310.681
1004.547, 2304.722
1005.029, 2302.654
1005.511, 2305.233
1005.994, 2303.947
1006.476, 2292.779
1006.958, 2286.137
1007.440, 2298.107
1007.922, 2309.095
1008.404, 2300.188
1008.886, 2285.829
1009.368, 2286.844
1009.850, 2301.728
1010.333, 2312.468
1010.815, 2312.366
1011.297, 2310.035
1011.779, 2311.012
1012.261, 2308.984
1012.743, 2295.776
1013.225, 2280.070
1013.707, 2270.881
1014.190, 2269.192
1014.672, 2274.304
1015.154, 2287.982
1015.636, 2301.465
1016.118, 2315.163
1016.600, 2323.115
1017.082, 2317.444
1017.564, 2307.452
1018.046, 2303.210
1018.529, 2304.121
1019.011, 2305.743
1019.493, 2309.403
1019.975, 2303.646
1020.457, 2268.468
1020.939, 2242.422
1021.421, 2252.191
1021.903, 2274.318
1022.385, 2288.068
1022.868, 2293.131
1023.350, 2294.599
1023.832, 2292.475
1024.314, 2291.882
1024.796, 2294.231
1025.278, 2298.401
1025.760, 2308.869
1026.242, 2316.621
1026.725, 2310.396
1027.207, 2295.947
1027.689, 2288.237
1028.171, 2290.549
1028.653, 2292.372
1029.135, 2290.187
1029.617, 2289.153
1030.099, 2296.297
1030.582, 2299.903
1031.064, 2274.706
1031.546, 2290.663
1032.028, 2299.315
1032.510, 2301.052
1032.992, 2275.170
1033.474, 2284.953
1033.956, 2280.443
1034.438, 2275.348
1034.921, 2290.149
1035.403, 2268.284
1035.885, 2282.772
1036.367, 2282.749
1036.849, 2289.366
1037.331, 2281.603
1037.813, 2278.281
1038.295, 2289.345
1038.777, 2292.444
1039.260, 2283.023
1039.742, 2290.064
1040.224, 2269.419
1040.706, 2265.134
1041.188, 2257.818
1041.670, 2254.010
1042.152, 2254.813
1042.634, 2256.883
1043.116, 2259.787
1043.599, 2264.671
1044.081, 2274.734
1044.563, 2283.391
1045.045, 2281.419
1045.527, 2271.600
1046.009, 2272.315
1046.491, 2291.356
1046.973, 2295.875
1047.456, 2277.879
1047.938, 2264.493
1048.420, 2265.516
1048.902, 2272.785
1049.384, 2281.251
1049.866, 2288.042
1050.348, 2281.677
1050.830, 2258.157
1051.313, 2247.996
1051.795, 2254.553
1052.277, 2256.002
1052.759, 2244.295
1053.241, 2238.077
1053.723, 2252.876
1054.205, 2277.119
1054.687, 2286.809
1055.169, 2282.359
1055.651, 2280.265
1056.134, 2280.659
1056.616, 2278.965
1057.098, 2274.155
1057.580, 2270.563
1058.062, 2270.987
1058.544, 2271.428
1059.026, 2265.618
1059.508, 2255.120
1059.991, 2242.186
1060.473, 2229.438
1060.955, 2242.087
1061.437, 2280.025
1061.919, 2306.104
1062.401, 2304.302
1062.883, 2292.872
1063.365, 2291.093
1063.848, 2292.088
1064.330, 2277.900
1064.812, 2255.426
1065.294, 2244.343
1065.776, 2244.670
1066.258, 2250.736
1066.740, 2259.816
1067.222, 2266.267
1067.704, 2265.210
1068.187, 2261.899
1068.669, 2263.385
1069.151, 2266.771
1069.633, 2266.337
1070.115, 2264.370
1070.597, 2269.644
1071.079, 2280.502
1071.561, 2279.917
1072.043, 2256.316
1072.526, 2237.252
1073.008, 2253.613
1073.490, 2275.894
1073.972, 2273.961
1074.454, 2261.564
1074.936, 2258.312
1075.418, 2263.420
1075.900, 2266.014
1076.383, 2262.490
1076.865, 2260.673
1077.347, 2262.511
1077.829, 2269.418
1078.311, 2290.952
1078.793, 2309.721
1079.275, 2308.027
1079.757, 2293.555
1080.240, 2281.498
1080.722, 2274.048
1081.204, 2264.981
1081.686, 2248.706
1082.168, 2236.928
1082.650, 2232.380
1083.132, 2232.474
1083.614, 2235.532
1084.096, 2242.730
1084.578, 2260.959
1085.061, 2286.957
1085.543, 2294.480
1086.025, 2270.096
1086.507, 2256.109
1086.989, 2259.014
1087.471, 2261.096
1087.953, 2255.467
1088.435, 2250.583
1088.918, 2254.610
1089.400, 2262.984
1089.882, 2264.477
1090.364, 2258.650
1090.846, 2249.085
1091.328, 2233.817
1091.810, 2223.325
1092.292, 2219.016
1092.775, 2223.122
1093.257, 2238.443
1093.739, 2257.138
1094.221, 2268.957
1094.703, 2274.252
1095.185, 2274.058
1095.667, 2268.713
1096.149, 2263.762
1096.631, 2259.618
1097.114, 2252.056
1097.596, 2239.786
1098.078, 2234.169
1098.560, 2247.113
1099.042, 2265.489
1099.524, 2262.517
1100.006, 2247.897
1100.488, 2246.856
1100.970, 2256.193
1101.453, 2262.484
1101.935, 2263.588
1102.417, 2265.593
1102.899, 2271.836
1103.381, 2277.112
1103.863, 2275.870
1104.345, 2271.719
1104.827, 2269.775
1105.310, 2266.645
1105.792, 2253.049
1106.274, 2235.021
1106.756, 2229.092
1107.238, 2239.106
1107.720, 2251.562
1108.202, 2263.543
1108.684, 2271.414
1109.167, 2272.209
1109.649, 2269.659
1110.131, 2264.469
1110.613, 2258.826
1111.095, 2255.152
1111.577, 2253.553
1112.059, 2253.155
1112.541, 2253.770
1113.023, 2255.713
1113.505, 2263.004
1113.988, 2266.021
1114.470, 2256.673
1114.952, 2248.773
1115.434, 2255.988
1115.916, 2268.815
1116.398, 2265.794
1116.880, 2245.390
1117.362, 2234.685
1117.845, 2235.846
1118.327, 2238.142
1118.809, 2239.077
1119.291, 2248.102
1119.773, 2273.015
1120.255, 2291.946
1120.737, 2276.889
1121.219, 2242.144
1121.702, 2235.265
1122.184, 2253.214
1122.666, 2273.300
1123.148, 2292.216
1123.630, 2286.784
1124.112, 2254.453
1124.594, 2233.946
1125.076, 2251.122
1125.558, 2279.898
1126.041, 2289.718
1126.523, 2287.135
1127.005, 2277.914
1127.487, 2267.302
1127.969, 2268.260
1128.451, 2276.926
1128.933, 2276.841
1129.415, 2263.740
1129.897, 2252.548
1130.380, 2254.010
1130.862, 2256.868
1131.344, 2251.668
1131.826, 2247.174
1132.308, 2251.984
1132.790, 2261.034
1133.272, 2268.388
1133.754, 2273.032
1134.237, 2273.976
1134.719, 2268.800
1135.201, 2267.420
1135.683, 2278.770
1136.165, 2283.812
1136.647, 2264.398
1137.129, 2252.212
1137.611, 2275.539
1138.094, 2309.828
1138.576, 2314.620
1139.058, 2291.270
1139.540, 2272.859
1140.022, 2257.111
1140.504, 2260.588
1140.986, 2290.351
1141.468, 2306.368
1141.950, 2292.994
1142.432, 2275.628
1142.915, 2276.120
1143.397, 2285.617
1143.879, 2285.031
1144.361, 2277.575
1144.843, 2279.317
1145.325, 2288.039
1145.807, 2293.886
1146.289, 2295.500
1146.772, 2295.647
1147.254, 2295.503
1147.736, 2294.289
1148.218, 2290.808
1148.700, 2286.797
1149.182, 2281.093
1149.664, 2278.484
1150.146, 2289.536
1150.629, 2305.613
1151.111, 2311.050
1151.593, 2305.544
1152.075, 2299.816
1152.557, 2296.887
1153.039, 2295.497
1153.521, 2298.463
1154.003, 2298.557
1154.485, 2291.843
1154.968, 2282.369
1155.450, 2270.304
1155.932, 2259.057
1156.414, 2254.945
1156.896, 2257.687
1157.378, 2257.665
1157.860, 2252.372
1158.342, 2252.579
1158.824, 2261.250
1159.307, 2265.815
1159.789, 2260.484
1160.271, 2258.515
1160.753, 2271.881
1161.235, 2289.809
1161.717, 2288.569
1162.199, 2273.583
1162.681, 2279.024
1163.164, 2298.428
1163.646, 2293.042
1164.128, 2265.287
1164.610, 2260.062
1165.092, 2291.317
1165.574, 2321.030
1166.056, 2319.581
1166.538, 2307.148
1167.021, 2303.811
1167.503, 2301.395
1167.985, 2283.678
1168.467, 2265.508
1168.949, 2277.444
1169.431, 2309.046
1169.913, 2316.831
1170.395, 2287.076
1170.877, 2266.074
1171.359, 2271.654
1171.842, 2280.369
1172.324, 2290.768
1172.806, 2297.397
1173.288, 2293.915
1173.770, 2288.922
1174.252, 2293.607
1174.734, 2304.247
1175.216, 2303.116
1175.699, 2285.381
1176.181, 2287.216
1176.663, 2312.520
1177.145, 2326.868
1177.627, 2323.160
1178.109, 2308.433
1178.591, 2285.008
1179.073, 2272.740
1179.556, 2300.528
1180.038, 2345.158
1180.520, 2358.864
1181.002, 2349.931
1181.484, 2327.544
1181.966, 2301.727
1182.448, 2299.008
1182.930, 2318.155
1183.412, 2328.661
1183.895, 2316.383
1184.377, 2303.130
1184.859, 2300.461
1185.341, 2302.943
1185.823, 2311.217
1186.305, 2319.602
1186.787, 2326.463
1187.269, 2328.872
1187.751, 2319.221
1188.234, 2299.270
1188.716, 2290.064
1189.198, 2295.742
1189.680, 2302.713
1190.162, 2314.178
1190.644, 2298.461
1191.126, 2315.635
1191.608, 2325.502
1192.091, 2328.457
1192.573, 2303.791
1193.055, 2314.791
1193.537, 2311.497
1194.019, 2307.617
1194.501, 2323.637
1194.983, 2302.988
1195.465, 2318.692
1195.948, 2319.886
1196.430, 2327.720
1196.912, 2321.172
1197.394, 2319.067
1197.876, 2331.348
1198.358, 2335.663
1198.840, 2327.459
1199.322, 2335.716
1199.804, 2314.564
1200.286, 2319.219
1200.769, 2335.008
1201.251, 2331.106
1201.733, 2345.045
1202.215, 2349.950
1202.697, 2338.775
1203.179, 2330.458
1203.661, 2325.937
1204.143, 2322.490
1204.626, 2319.516
1205.108, 2317.650
1205.590, 2317.176
1206.072, 2318.171
1206.554, 2320.731
1207.036, 2324.812
1207.518, 2333.021
1208.000, 2342.797
1208.483, 2336.540
1208.965, 2318.995
1209.447, 2315.758
1209.929, 2328.470
1210.411, 2335.763
1210.893, 2327.914
1211.375, 2320.495
1211.857, 2332.259
1212.339, 2340.525
1212.822, 2318.365
1213.304, 2296.327
1213.786, 2307.262
1214.268, 2329.977
1214.750, 2333.945
1215.232, 2321.239
1215.714, 2311.001
1216.196, 2302.229
1216.678, 2307.729
1217.161, 2338.478
1217.643, 2355.563
1218.125, 2351.030
1218.607, 2341.140
1219.089, 2332.020
1219.571, 2323.410
1220.053, 2313.681
1220.535, 2308.545
1221.018, 2328.623
1221.500, 2360.966
1221.982, 2356.286
1222.464, 2328.518
1222.946, 2319.177
1223.428, 2328.896
1223.910, 2337.674
1224.392, 2339.314
1224.875, 2341.114
1225.357, 2348.769
1225.839, 2353.552
1226.321, 2347.837
1226.803, 2341.634
1227.285, 2340.531
1227.767, 2341.650
1228.249, 2343.002
1228.731, 2344.133
1229.214, 2344.798
1229.696, 2344.905
1230.178, 2340.961
1230.660, 2330.805
1231.142, 2329.176
1231.624, 2337.729
1232.106, 2344.958
1232.588, 2347.809
1233.070, 2348.885
1233.553, 2349.664
1234.035, 2351.275
1234.517, 2358.026
##END=



