##NAMES=Sampleite
##RRUFFID=R090072
##IDEAL CHEMISTRY=NaCaCu^2+^_5_(P^5+^O_4_)_4_Cl&#183;5H_2_O
##LOCALITY=Engaño Feliz mine, Las Pintadas dist., Tierra Amarilla, Copiapó Province, Chile
##OWNER=RRUFF
##SOURCE=Bob Jenkins
##DESCRIPTION=Blue bladed crystals in radial aggregates associated with elongated, forest-green libethenite and dark-green atacamite. This is the polymorph or polytype described in Giester et al (2007)
##STATUS=The identification of this mineral has been confirmed by single-crystal X-ray diffraction.
##URL=rruff.info/R090072
91.82715, 60.09156
92.30927, 59.64081
92.79138, 59.93685
93.27350, 60.64916
93.75562, 60.53253
94.23773, 58.85552
94.71985, 55.97782
95.20197, 53.32278
95.68408, 51.22741
96.16620, 49.69419
96.64832, 48.82865
97.13043, 48.73494
97.61255, 48.92960
98.09467, 48.75753
98.57678, 48.05981
99.05890, 47.34627
99.54102, 47.12272
100.0231, 46.97895
100.5052, 46.38820
100.9874, 45.00202
101.4695, 43.10006
101.9516, 42.18945
102.4337, 43.51327
102.9158, 44.61889
103.3979, 45.02281
103.8801, 44.91701
104.3622, 44.73743
104.8443, 44.83951
105.3264, 45.26845
105.8085, 45.41270
106.2906, 45.69512
106.7728, 45.43573
107.2549, 43.57789
107.7370, 40.23397
108.2191, 37.31624
108.7012, 37.27716
109.1833, 40.33239
109.6655, 42.99462
110.1476, 45.51487
110.6297, 47.22960
111.1118, 46.50542
111.5939, 41.89111
112.0760, 37.21423
112.5582, 37.06187
113.0403, 41.00542
113.5224, 45.10151
114.0045, 46.74409
114.4866, 46.06307
114.9688, 45.59347
115.4509, 46.02287
115.9330, 46.69653
116.4151, 47.28251
116.8972, 47.72269
117.3793, 48.04163
117.8615, 48.23112
118.3436, 48.17110
118.8257, 48.28282
119.3078, 49.01461
119.7899, 49.69889
120.2720, 49.64077
120.7542, 48.57986
121.2363, 47.00969
121.7184, 46.34148
122.2005, 48.11674
122.6826, 49.17501
123.1647, 48.93605
123.6468, 47.91248
124.1290, 46.74181
124.6111, 45.71853
125.0932, 44.91645
125.5753, 44.97710
126.0574, 46.73500
126.5395, 48.31057
127.0217, 48.91006
127.5038, 48.61720
127.9859, 47.94559
128.4680, 47.09820
128.9501, 46.16036
129.4323, 45.53126
129.9144, 45.47881
130.3965, 45.60351
130.8786, 45.47411
131.3607, 45.03306
131.8428, 44.54441
132.3250, 44.09003
132.8071, 43.72126
133.2892, 43.59558
133.7713, 44.16811
134.2534, 45.09573
134.7355, 45.13568
135.2177, 43.77952
135.6998, 42.14486
136.1819, 40.61156
136.6640, 39.25233
137.1461, 38.22153
137.6282, 37.79838
138.1104, 38.08050
138.5925, 37.88156
139.0746, 36.75976
139.5567, 35.50344
140.0388, 34.19338
140.5209, 32.95871
141.0031, 32.05499
141.4852, 31.92381
141.9673, 33.30561
142.4494, 33.42196
142.9315, 31.18704
143.4136, 28.68291
143.8958, 27.41764
144.3779, 27.71296
144.8600, 28.61420
145.3421, 28.54804
145.8242, 26.57710
146.3063, 25.38848
146.7885, 25.62636
147.2706, 26.52382
147.7527, 27.23102
148.2348, 27.48993
148.7169, 27.31482
149.1990, 26.48442
149.6812, 24.65129
150.1633, 23.38418
150.6454, 23.82693
151.1275, 25.41655
151.6096, 26.30399
152.0917, 25.52285
152.5739, 23.93937
153.0560, 22.92677
153.5381, 22.53927
154.0202, 22.56238
154.5023, 23.06229
154.9844, 24.07429
155.4665, 24.73458
155.9487, 24.37902
156.4308, 23.68181
156.9129, 23.09237
157.3950, 22.69016
157.8771, 22.52693
158.3592, 22.80379
158.8414, 23.84900
159.3235, 24.48116
159.8056, 24.19347
160.2877, 23.53180
160.7698, 22.93488
161.2519, 22.59136
161.7341, 22.43253
162.2162, 22.24327
162.6983, 21.77924
163.1804, 21.64655
163.6625, 22.18754
164.1446, 23.01531
164.6268, 23.72879
165.1089, 24.12334
165.5910, 24.16684
166.0731, 23.62217
166.5552, 21.12470
167.0373, 19.51739
167.5195, 20.04150
168.0016, 21.88146
168.4837, 23.38364
168.9658, 23.40169
169.4479, 22.07307
169.9300, 21.55228
170.4122, 22.25833
170.8943, 23.17963
171.3764, 24.02419
171.8585, 24.73792
172.3406, 25.19862
172.8227, 25.25058
173.3049, 24.92525
173.7870, 24.71896
174.2691, 24.90199
174.7512, 25.01692
175.2333, 24.43561
175.7154, 23.10464
176.1976, 22.15019
176.6797, 22.85068
177.1618, 24.56865
177.6439, 25.75361
178.1260, 25.88171
178.6081, 25.37405
179.0903, 24.62952
179.5724, 23.38095
180.0545, 22.72646
180.5366, 24.04632
181.0187, 26.32112
181.5008, 27.88675
181.9830, 27.52346
182.4651, 25.96096
182.9472, 25.61447
183.4293, 27.52551
183.9114, 29.04839
184.3935, 28.83162
184.8757, 27.52481
185.3578, 26.26450
185.8399, 25.89689
186.3220, 26.28644
186.8041, 25.96630
187.2862, 24.00202
187.7684, 22.27556
188.2505, 21.26352
188.7326, 20.90132
189.2147, 21.02972
189.6968, 21.63265
190.1789, 22.75171
190.6611, 23.22776
191.1432, 22.38674
191.6253, 21.56039
192.1074, 21.21718
192.5895, 21.26735
193.0716, 21.35486
193.5538, 21.15951
194.0359, 20.62742
194.5180, 20.25805
195.0001, 19.95366
195.4822, 19.84924
195.9643, 20.25433
196.4465, 21.01581
196.9286, 21.54886
197.4107, 21.27373
197.8928, 20.05327
198.3749, 18.96472
198.8570, 17.82046
199.3392, 16.92995
199.8213, 16.46030
200.3034, 16.43419
200.7855, 16.90202
201.2676, 18.22051
201.7497, 20.40636
202.2319, 21.29995
202.7140, 19.67383
203.1961, 17.38608
203.6782, 16.22299
204.1603, 16.40007
204.6424, 16.90184
205.1246, 16.71627
205.6067, 16.04151
206.0888, 15.84184
206.5709, 16.69033
207.0530, 17.97112
207.5351, 18.93802
208.0173, 19.58598
208.4994, 19.76643
208.9815, 18.75069
209.4636, 17.14034
209.9457, 16.26899
210.4278, 17.42097
210.9100, 19.54851
211.3921, 20.18998
211.8742, 18.75156
212.3563, 16.98652
212.8384, 15.74920
213.3205, 14.95011
213.8027, 14.46905
214.2848, 14.23815
214.7669, 14.28045
215.2490, 14.71054
215.7311, 15.69086
216.2132, 16.84644
216.6954, 18.46261
217.1775, 20.08133
217.6596, 20.87254
218.1417, 20.11771
218.6238, 18.12446
219.1059, 16.72038
219.5881, 16.23484
220.0702, 16.01384
220.5523, 15.85687
221.0344, 15.80710
221.5165, 15.99801
221.9986, 16.58590
222.4808, 17.48884
222.9629, 17.93009
223.4450, 17.51142
223.9271, 16.99834
224.4092, 16.23658
224.8913, 15.51782
225.3735, 15.42202
225.8556, 16.45766
226.3377, 18.42311
226.8198, 19.01920
227.3019, 16.14957
227.7840, 14.06855
228.2662, 14.23277
228.7483, 15.79074
229.2304, 17.15683
229.7125, 17.28729
230.1946, 16.32583
230.6767, 15.84331
231.1589, 16.33299
231.6410, 16.72004
232.1231, 16.69691
232.6052, 16.38036
233.0873, 15.97081
233.5694, 15.54951
234.0516, 15.17335
234.5337, 15.30262
235.0158, 16.55797
235.4979, 17.53933
235.9800, 17.76063
236.4621, 17.39666
236.9443, 16.79859
237.4264, 16.10102
237.9085, 15.37628
238.3906, 14.96366
238.8727, 15.09209
239.3548, 15.20823
239.8370, 15.00887
240.3191, 14.64522
240.8012, 14.55902
241.2833, 15.08444
241.7654, 15.89158
242.2475, 15.98228
242.7297, 14.92804
243.2118, 13.97928
243.6939, 13.75040
244.1760, 14.06704
244.6581, 14.41923
245.1402, 14.61703
245.6224, 14.71165
246.1045, 14.87958
246.5866, 15.27869
247.0687, 15.34510
247.5508, 14.42016
248.0329, 12.83936
248.5151, 11.77045
248.9972, 11.56723
249.4793, 12.15159
249.9614, 13.46927
250.4435, 15.66827
250.9256, 17.63652
251.4078, 18.90829
251.8899, 19.47871
252.3720, 19.26510
252.8541, 17.85608
253.3362, 16.11163
253.8183, 14.93199
254.3005, 14.30508
254.7826, 13.94858
255.2647, 13.81040
255.7468, 13.84029
256.2289, 13.72940
256.7110, 13.17171
257.1931, 12.82346
257.6753, 13.39374
258.1574, 14.72865
258.6395, 15.84488
259.1216, 15.79791
259.6037, 14.87045
260.0858, 14.76853
260.5680, 16.41579
261.0501, 17.84362
261.5322, 17.54948
262.0143, 16.01012
262.4964, 14.68161
262.9785, 14.78749
263.4607, 16.01589
263.9428, 16.45301
264.4249, 15.49629
264.9070, 14.58509
265.3891, 14.54900
265.8712, 15.05763
266.3534, 15.42285
266.8355, 15.12039
267.3176, 14.36551
267.7997, 14.12211
268.2818, 14.76381
268.7639, 15.36844
269.2461, 15.44715
269.7282, 15.30777
270.2103, 15.41761
270.6924, 16.05809
271.1745, 17.07327
271.6566, 17.99319
272.1388, 18.98830
272.6209, 19.54246
273.1030, 19.32842
273.5851, 18.75194
274.0672, 18.24913
274.5493, 18.00677
275.0315, 17.97016
275.5136, 18.04051
275.9957, 18.37277
276.4778, 18.50814
276.9599, 18.31755
277.4420, 17.95783
277.9242, 17.44516
278.4063, 16.79156
278.8884, 16.28881
279.3705, 16.57831
279.8526, 18.21763
280.3347, 19.46327
280.8169, 20.10891
281.2990, 20.39366
281.7811, 20.34006
282.2632, 20.00928
282.7453, 19.68001
283.2274, 19.90016
283.7096, 21.25915
284.1917, 21.64847
284.6738, 20.31443
285.1559, 18.68741
285.6380, 17.49393
286.1201, 16.87324
286.6023, 16.62360
287.0844, 16.56753
287.5665, 16.78842
288.0486, 16.86917
288.5307, 16.64065
289.0128, 16.43406
289.4950, 16.47823
289.9771, 16.70788
290.4592, 16.86781
290.9413, 16.72481
291.4234, 16.26329
291.9055, 15.70920
292.3877, 14.78727
292.8698, 14.04586
293.3519, 13.76157
293.8340, 13.80319
294.3161, 13.86930
294.7982, 13.74128
295.2804, 13.44120
295.7625, 13.26221
296.2446, 13.40614
296.7267, 13.45742
297.2088, 13.21309
297.6909, 12.85111
298.1731, 12.62482
298.6552, 12.67175
299.1373, 12.96112
299.6194, 13.39441
300.1015, 14.69830
300.5836, 15.21037
301.0658, 14.21444
301.5479, 12.60708
302.0300, 11.30012
302.5121, 10.66080
302.9942, 10.49524
303.4763, 10.42174
303.9585, 10.66554
304.4406, 10.64398
304.9227, 9.901403
305.4048, 9.187624
305.8869, 9.255870
306.3690, 10.20981
306.8512, 11.40398
307.3333, 11.90677
307.8154, 11.30099
308.2975, 11.09690
308.7796, 11.67512
309.2617, 12.27822
309.7439, 12.48984
310.2260, 12.27002
310.7081, 11.74297
311.1902, 10.96389
311.6723, 9.812670
312.1544, 9.286892
312.6366, 9.788630
313.1187, 10.41683
313.6008, 10.94705
314.0829, 11.31892
314.5650, 11.47277
315.0471, 11.33777
315.5293, 10.94671
316.0114, 10.73512
316.4935, 10.75418
316.9756, 10.89537
317.4577, 11.40322
317.9398, 11.96470
318.4220, 11.96499
318.9041, 11.05523
319.3862, 9.724682
319.8683, 9.557118
320.3504, 12.54895
320.8326, 14.18595
321.3147, 13.21624
321.7968, 11.31911
322.2789, 10.23309
322.7610, 10.50031
323.2431, 11.25507
323.7253, 10.94809
324.2074, 8.526959
324.6895, 7.124334
325.1716, 7.301039
325.6537, 7.916730
326.1358, 8.226168
326.6180, 8.132269
327.1001, 7.971110
327.5822, 8.101286
328.0643, 8.562704
328.5464, 9.133094
329.0285, 10.08814
329.5107, 10.87793
329.9928, 11.33873
330.4749, 11.44310
330.9570, 11.12443
331.4391, 10.25801
331.9212, 8.915732
332.4034, 8.176628
332.8855, 8.394135
333.3676, 8.870386
333.8497, 10.02281
334.3318, 11.22100
334.8139, 11.43413
335.2961, 10.11740
335.7782, 7.945017
336.2603, 6.937336
336.7424, 7.939314
337.2245, 8.929854
337.7066, 9.997143
338.1888, 10.85974
338.6709, 11.19329
339.1530, 10.94282
339.6351, 10.41079
340.1172, 10.04313
340.5993, 9.911732
341.0815, 9.768449
341.5636, 9.719054
342.0457, 9.574820
342.5278, 9.139421
343.0099, 8.474173
343.4920, 7.817994
343.9742, 7.314909
344.4563, 6.936313
344.9384, 7.241372
345.4205, 9.452528
345.9026, 11.16895
346.3847, 11.50028
346.8669, 10.90334
347.3490, 10.23662
347.8311, 10.01544
348.3132, 10.12186
348.7953, 10.07602
349.2774, 9.677341
349.7596, 9.444605
350.2417, 9.562769
350.7238, 9.827143
351.2059, 10.12629
351.6880, 10.41459
352.1701, 10.50235
352.6523, 9.864851
353.1344, 7.948859
353.6165, 7.030628
354.0986, 8.651037
354.5807, 10.30290
355.0628, 10.28201
355.5450, 8.631949
356.0271, 6.818629
356.5092, 6.250807
356.9913, 6.968109
357.4734, 7.833765
357.9555, 9.407543
358.4377, 10.45913
358.9198, 10.16103
359.4019, 9.005494
359.8840, 7.977231
360.3661, 7.606468
360.8482, 7.789900
361.3304, 8.345100
361.8125, 9.660629
362.2946, 10.46033
362.7767, 9.684385
363.2588, 8.488166
363.7409, 8.237377
364.2231, 9.464063
364.7052, 10.92955
365.1873, 10.75899
365.6694, 8.697577
366.1515, 7.389006
366.6336, 8.215358
367.1158, 9.373378
367.5979, 9.511582
368.0800, 8.611616
368.5621, 7.531960
369.0442, 6.709773
369.5263, 6.181642
370.0085, 6.273305
370.4906, 7.455609
370.9727, 8.437283
371.4548, 8.018746
371.9369, 6.758156
372.4190, 5.907976
372.9012, 6.172495
373.3833, 6.955513
373.8654, 7.374324
374.3475, 7.384455
374.8296, 7.408458
375.3117, 7.806559
375.7939, 8.256229
376.2760, 8.230413
376.7581, 7.504310
377.2402, 6.766868
377.7223, 6.634016
378.2044, 6.948572
378.6866, 6.907891
379.1687, 5.995673
379.6508, 5.161740
380.1329, 5.854180
380.6150, 8.010194
381.0971, 9.886785
381.5793, 11.05100
382.0614, 11.57006
382.5435, 11.40238
383.0256, 10.51950
383.5077, 9.383633
383.9898, 8.041843
384.4720, 6.710504
384.9541, 6.474084
385.4362, 8.623218
385.9183, 10.73585
386.4004, 11.22406
386.8825, 10.41286
387.3647, 9.414243
387.8468, 8.682118
388.3289, 8.197002
388.8110, 7.970343
389.2931, 8.167807
389.7752, 8.214074
390.2574, 7.857230
390.7395, 7.346184
391.2216, 6.941728
391.7037, 6.707881
392.1858, 6.655180
392.6679, 6.865438
393.1501, 7.470129
393.6322, 7.559231
394.1143, 6.824510
394.5964, 5.902858
395.0785, 4.808444
395.5606, 3.788845
396.0428, 3.470864
396.5249, 4.315377
397.0070, 6.095849
397.4891, 7.634133
397.9712, 9.270597
398.4533, 10.21053
398.9355, 9.980018
399.4176, 9.187510
399.8997, 8.340830
400.3818, 7.643617
400.8639, 7.240939
401.3460, 7.462422
401.8282, 8.820751
402.3103, 9.347358
402.7924, 8.375283
403.2745, 7.293316
403.7566, 6.651710
404.2387, 6.506449
404.7209, 6.776057
405.2030, 7.464234
405.6851, 8.497830
406.1672, 9.342822
406.6493, 10.47487
407.1314, 10.63484
407.6136, 8.665400
408.0957, 6.063552
408.5778, 4.481429
409.0599, 4.513646
409.5420, 5.446142
410.0241, 6.458922
410.5063, 7.685779
410.9884, 8.233852
411.4705, 7.037875
411.9526, 5.903089
412.4347, 6.025461
412.9168, 7.232557
413.3990, 8.449907
413.8811, 9.185369
414.3632, 9.362660
414.8453, 8.395330
415.3274, 5.576905
415.8095, 3.367737
416.2917, 3.883860
416.7738, 5.579814
417.2559, 6.356589
417.7380, 5.350043
418.2201, 4.067923
418.7022, 4.050742
419.1844, 5.174173
419.6665, 6.274157
420.1486, 7.067469
420.6307, 7.613724
421.1128, 7.973876
421.5949, 8.158494
422.0771, 8.244225
422.5592, 8.109021
423.0413, 7.957179
423.5234, 8.169130
424.0055, 8.786932
424.4876, 9.301841
424.9698, 9.284075
425.4519, 8.814098
425.9340, 8.527078
426.4161, 8.800452
426.8982, 8.854722
427.3803, 7.999749
427.8625, 6.699567
428.3446, 6.010263
428.8267, 6.363044
429.3088, 7.195433
429.7909, 7.561010
430.2730, 7.286706
430.7552, 6.862842
431.2373, 5.925774
431.7194, 5.117777
432.2015, 4.913658
432.6836, 5.310905
433.1657, 6.106001
433.6479, 7.228667
434.1300, 8.602617
434.6121, 9.203822
435.0942, 8.015339
435.5763, 7.216531
436.0584, 7.596074
436.5406, 8.354890
437.0227, 8.335843
437.5048, 7.200212
437.9869, 5.944833
438.4690, 6.437856
438.9511, 9.721392
439.4333, 11.35032
439.9154, 9.640759
440.3975, 7.697011
440.8796, 6.713037
441.3617, 6.655742
441.8438, 7.124765
442.3260, 8.042037
442.8081, 9.166140
443.2902, 9.605035
443.7723, 9.104738
444.2544, 8.555895
444.7365, 8.113531
445.2187, 7.846482
445.7008, 7.877659
446.1829, 8.240844
446.6650, 8.729465
447.1471, 9.358377
447.6292, 10.02545
448.1114, 9.990602
448.5935, 8.684527
449.0756, 7.577455
449.5577, 8.509826
450.0398, 10.74330
450.5219, 12.03496
451.0041, 10.92363
451.4862, 9.241266
451.9683, 8.748942
452.4504, 9.318689
452.9325, 10.16683
453.4146, 11.18457
453.8968, 11.97902
454.3789, 11.45837
454.8610, 9.158994
455.3431, 7.335001
455.8252, 6.631307
456.3073, 6.582010
456.7895, 6.886148
457.2716, 7.422857
457.7537, 7.776897
458.2358, 7.539971
458.7179, 6.710730
459.2000, 6.156559
459.6822, 5.871165
460.1643, 5.815217
460.6464, 5.962986
461.1285, 6.338934
461.6106, 7.257569
462.0927, 8.784448
462.5748, 10.10303
463.0569, 9.606501
463.5391, 6.087076
464.0212, 4.056439
464.5033, 4.530926
464.9854, 5.443248
465.4675, 6.037643
465.9496, 6.264287
466.4318, 6.257197
466.9139, 6.045496
467.3960, 5.732091
467.8781, 5.675171
468.3602, 6.009983
468.8423, 6.247180
469.3245, 6.153749
469.8066, 5.964479
470.2887, 5.866179
470.7708, 5.884702
471.2529, 5.901394
471.7350, 5.671220
472.2172, 5.341082
472.6993, 5.561183
473.1814, 6.559092
473.6635, 7.607328
474.1456, 8.292515
474.6277, 8.636683
475.1099, 8.621854
475.5920, 8.098906
476.0741, 7.403544
476.5562, 6.454590
477.0383, 5.493903
477.5204, 5.419521
478.0026, 6.699997
478.4847, 8.284678
478.9668, 8.616062
479.4489, 7.377093
479.9310, 6.400091
480.4131, 5.588760
480.8953, 5.227682
481.3774, 5.817992
481.8595, 7.076874
482.3416, 8.193007
482.8237, 8.710377
483.3058, 8.683485
483.7880, 8.291900
484.2701, 7.186752
484.7522, 6.202150
485.2343, 5.076463
485.7164, 4.274107
486.1985, 4.305566
486.6807, 5.108884
487.1628, 6.087826
487.6449, 6.708619
488.1270, 7.004701
488.6091, 7.533465
489.0912, 8.919490
489.5734, 9.498940
490.0555, 8.106142
490.5376, 6.069173
491.0197, 4.937627
491.5018, 5.163243
491.9839, 5.835526
492.4661, 5.931791
492.9482, 5.561557
493.4303, 5.858813
493.9124, 7.476268
494.3945, 8.825262
494.8766, 8.081559
495.3588, 6.016103
495.8409, 4.689277
496.3230, 5.085466
496.8051, 5.935365
497.2872, 6.266499
497.7693, 6.173410
498.2515, 6.011217
498.7336, 5.924042
499.2157, 5.773116
499.6978, 5.197915
500.1799, 3.851800
500.6620, 3.464174
501.1442, 5.213533
501.6263, 7.066339
502.1084, 7.638743
502.5905, 7.039797
503.0726, 5.868171
503.5547, 4.386406
504.0369, 2.929727
504.5190, 2.704854
505.0011, 4.865772
505.4832, 6.462677
505.9653, 7.288762
506.4474, 7.599277
506.9296, 7.456136
507.4117, 6.950592
507.8938, 6.280135
508.3759, 5.518910
508.8580, 4.732358
509.3401, 4.329770
509.8223, 4.350482
510.3044, 4.674505
510.7865, 5.822078
511.2686, 6.948492
511.7507, 6.985495
512.2328, 5.658431
512.7150, 4.474295
513.1971, 4.877561
513.6792, 6.299660
514.1613, 7.124510
514.6434, 7.147656
515.1255, 6.582729
515.6077, 5.020599
516.0898, 2.980004
516.5719, 2.585334
517.0540, 5.583240
517.5361, 8.211405
518.0182, 8.409720
518.5004, 7.213313
518.9825, 6.268729
519.4646, 6.031888
519.9467, 6.224799
520.4288, 6.588958
520.9109, 7.219151
521.3931, 7.358888
521.8752, 6.579290
522.3573, 5.861316
522.8394, 5.548664
523.3215, 5.518319
523.8036, 5.558520
524.2858, 5.583809
524.7679, 5.657024
525.2500, 6.047720
525.7321, 6.995648
526.2142, 7.007065
526.6964, 4.798835
527.1785, 2.920273
527.6606, 2.702814
528.1427, 3.696841
528.6248, 4.924780
529.1069, 6.234799
529.5891, 7.149549
530.0712, 6.752139
530.5533, 5.130004
531.0354, 3.761246
531.5175, 3.017044
531.9996, 2.728157
532.4818, 2.680613
532.9639, 2.857495
533.4460, 3.518238
533.9281, 5.369461
534.4102, 7.176947
534.8923, 7.986051
535.3745, 7.920237
535.8566, 7.475601
536.3387, 6.848912
536.8208, 6.148835
537.3029, 5.594165
537.7850, 5.138532
538.2672, 4.948966
538.7493, 5.054739
539.2314, 5.376120
539.7135, 6.123604
540.1956, 7.050723
540.6777, 7.590920
541.1599, 7.380473
541.6420, 6.666404
542.1241, 6.037244
542.6062, 5.472239
543.0883, 5.049100
543.5704, 4.743929
544.0526, 4.631818
544.5347, 4.791305
545.0168, 5.202009
545.4989, 5.755614
545.9810, 6.546959
546.4631, 7.365569
546.9453, 8.009699
547.4274, 8.470717
547.9095, 8.250566
548.3916, 6.878994
548.8737, 5.049093
549.3558, 3.974775
549.8380, 3.672982
550.3201, 3.654157
550.8022, 4.126297
551.2843, 4.622282
551.7664, 4.563791
552.2485, 4.141154
552.7307, 4.156765
553.2128, 5.116436
553.6949, 6.606244
554.1770, 7.470023
554.6591, 7.459276
555.1412, 7.225708
555.6234, 6.395850
556.1055, 5.713987
556.5876, 5.777032
557.0697, 6.403023
557.5518, 6.932785
558.0339, 6.914382
558.5161, 6.620146
558.9982, 6.822232
559.4803, 7.694805
559.9624, 7.963594
560.4445, 6.812068
560.9266, 5.381366
561.4088, 4.847939
561.8909, 5.134758
562.3730, 5.263457
562.8551, 4.707308
563.3372, 3.936162
563.8193, 3.320839
564.3015, 2.906714
564.7836, 2.902736
565.2657, 3.468631
565.7478, 4.284093
566.2299, 4.740599
566.7120, 4.564743
567.1942, 4.702375
567.6763, 5.787139
568.1584, 6.595508
568.6405, 6.044404
569.1226, 4.675673
569.6047, 3.838136
570.0869, 4.262300
570.5690, 5.316305
571.0511, 5.681503
571.5332, 5.182748
572.0153, 4.662802
572.4974, 3.855461
572.9796, 3.411101
573.4617, 3.873894
573.9438, 4.965025
574.4259, 5.974607
574.9080, 6.706330
575.3901, 7.103709
575.8723, 6.978478
576.3544, 6.413867
576.8365, 5.854184
577.3186, 5.400203
577.8007, 5.044769
578.2828, 4.750855
578.7650, 4.520582
579.2471, 4.565116
579.7292, 5.072961
580.2113, 5.665945
580.6934, 6.276269
581.1755, 6.819426
581.6577, 7.164113
582.1398, 7.268836
582.6219, 7.244377
583.1040, 7.252215
583.5861, 7.320953
584.0682, 7.193978
584.5504, 6.739181
585.0325, 6.234428
585.5146, 5.783051
585.9967, 5.324335
586.4788, 4.738129
586.9609, 3.978885
587.4431, 3.269684
587.9252, 2.650178
588.4073, 2.232596
588.8894, 2.702366
589.3715, 4.393971
589.8536, 5.662282
590.3358, 4.973398
590.8179, 3.099595
591.3000, 2.819017
591.7821, 5.451978
592.2642, 7.277667
592.7463, 6.350982
593.2285, 4.466153
593.7106, 3.739327
594.1927, 4.280159
594.6748, 4.714419
595.1569, 3.865096
595.6390, 2.127976
596.1212, 1.665230
596.6033, 3.294101
597.0854, 4.804255
597.5675, 5.815120
598.0496, 6.714629
598.5317, 8.140287
599.0139, 9.831143
599.4960, 10.56849
599.9781, 9.058545
600.4602, 6.502840
600.9423, 5.232202
601.4244, 5.260434
601.9066, 5.292737
602.3887, 4.767450
602.8708, 4.253148
603.3529, 4.766288
603.8350, 6.325782
604.3171, 7.283474
604.7993, 6.856140
605.2814, 6.296715
605.7635, 6.401927
606.2456, 6.985097
606.7277, 7.667154
607.2098, 8.289980
607.6920, 8.684865
608.1741, 8.538372
608.6562, 7.726847
609.1383, 7.050719
609.6204, 6.641392
610.1025, 6.220498
610.5847, 5.509359
611.0668, 4.813888
611.5489, 4.543870
612.0310, 4.814060
612.5131, 5.436467
612.9952, 6.578518
613.4774, 7.938626
613.9595, 8.373093
614.4416, 7.644904
614.9237, 7.056254
615.4058, 7.655972
615.8879, 8.895071
616.3701, 8.906665
616.8522, 6.708827
617.3343, 5.417059
617.8164, 6.489704
618.2985, 8.116455
618.7806, 8.691595
619.2628, 8.245386
619.7449, 7.636166
620.2270, 7.402434
620.7091, 7.427057
621.1912, 7.308836
621.6733, 6.797981
622.1555, 6.905770
622.6376, 8.608178
623.1197, 10.16371
623.6018, 10.37148
624.0839, 9.646642
624.5660, 9.235136
625.0482, 9.857183
625.5303, 10.57664
626.0124, 10.29209
626.4945, 9.301234
626.9766, 8.606085
627.4587, 8.435355
627.9409, 8.623224
628.4230, 9.182287
628.9051, 10.08906
629.3872, 10.08534
629.8693, 8.339728
630.3514, 6.887372
630.8336, 5.981607
631.3157, 5.672141
631.7978, 6.278889
632.2799, 7.641065
632.7620, 8.925681
633.2441, 9.473608
633.7263, 9.355691
634.2084, 8.584973
634.6905, 6.776100
635.1726, 5.906207
635.6547, 7.363810
636.1368, 9.282439
636.6190, 9.618302
637.1011, 8.485871
637.5832, 7.667244
638.0653, 8.012929
638.5474, 8.622890
639.0295, 8.697384
639.5117, 8.441602
639.9938, 8.486220
640.4759, 9.046167
640.9580, 9.681301
641.4401, 9.783996
641.9222, 9.268815
642.4044, 9.024679
642.8865, 9.647494
643.3686, 9.831141
643.8507, 8.648328
644.3328, 7.251344
644.8149, 7.082617
645.2971, 8.318638
645.7792, 9.578393
646.2613, 9.648869
646.7434, 8.932810
647.2255, 8.363860
647.7076, 7.960009
648.1898, 7.718929
648.6719, 7.728166
649.1540, 7.780413
649.6361, 7.444476
650.1182, 6.572644
650.6003, 6.088018
651.0825, 6.440310
651.5646, 6.820681
652.0467, 6.567015
652.5288, 6.061917
653.0109, 6.049982
653.4930, 6.789920
653.9752, 7.911022
654.4573, 9.153219
654.9394, 10.54423
655.4215, 10.75843
655.9036, 9.164303
656.3857, 7.639894
656.8679, 7.423429
657.3500, 7.545906
657.8321, 6.751918
658.3142, 4.785593
658.7963, 3.202927
659.2784, 2.784211
659.7606, 3.047519
660.2427, 3.755498
660.7248, 4.702491
661.2069, 5.156832
661.6890, 4.723586
662.1711, 4.018007
662.6533, 4.222709
663.1354, 5.781610
663.6175, 6.682630
664.0996, 6.420190
664.5817, 6.046317
665.0638, 5.812212
665.5460, 5.694543
666.0281, 5.668861
666.5102, 5.729920
666.9923, 5.754972
667.4744, 5.498541
667.9565, 5.156057
668.4387, 5.472104
668.9208, 6.498652
669.4029, 6.676469
669.8850, 4.802893
670.3671, 2.178924
670.8492, 1.580047
671.3314, 3.960960
671.8135, 5.899160
672.2956, 7.511115
672.7777, 8.489296
673.2598, 8.278753
673.7419, 7.428720
674.2241, 6.856692
674.7062, 6.899105
675.1883, 7.090470
675.6704, 6.757978
676.1525, 5.987177
676.6346, 5.661410
677.1168, 5.886071
677.5989, 6.284653
678.0810, 6.794926
678.5631, 7.297094
679.0452, 7.644394
679.5273, 7.895508
680.0095, 7.727928
680.4916, 6.502343
680.9737, 5.324846
681.4558, 5.182522
681.9379, 5.751276
682.4200, 6.131687
682.9022, 5.962770
683.3843, 5.724616
683.8664, 6.337753
684.3485, 7.947049
684.8306, 8.084632
685.3127, 5.714533
685.7949, 3.716159
686.2770, 3.499065
686.7591, 4.142701
687.2412, 4.858005
687.7233, 5.585639
688.2054, 5.965648
688.6876, 5.712422
689.1697, 5.129947
689.6518, 4.230511
690.1339, 3.258101
690.6160, 3.092691
691.0981, 4.107280
691.5803, 5.362697
692.0624, 5.430768
692.5445, 4.084622
693.0266, 3.458654
693.5087, 3.940592
693.9908, 4.648545
694.4730, 5.915723
694.9551, 6.940255
695.4372, 6.566017
695.9193, 4.758933
696.4014, 3.358151
696.8835, 3.782043
697.3657, 4.993951
697.8478, 5.730065
698.3299, 6.017088
698.8120, 6.043881
699.2941, 5.840865
699.7762, 5.725229
700.2584, 6.211459
700.7405, 7.417825
701.2226, 7.727560
701.7047, 6.025377
702.1868, 4.789619
702.6689, 4.615830
703.1511, 4.996127
703.6332, 5.731530
704.1153, 6.617816
704.5974, 6.987284
705.0795, 6.091172
705.5616, 4.688815
706.0438, 3.808964
706.5259, 3.461570
707.0080, 3.917163
707.4901, 5.423855
707.9722, 6.829467
708.4543, 6.784575
708.9365, 5.334195
709.4186, 4.838112
709.9007, 6.554279
710.3828, 7.497733
710.8649, 6.474471
711.3470, 5.063896
711.8292, 4.474915
712.3113, 4.781765
712.7934, 5.634272
713.2755, 7.053570
713.7576, 8.460926
714.2397, 9.100059
714.7219, 8.967494
715.2040, 7.726667
715.6861, 5.024225
716.1682, 2.716341
716.6503, 2.459171
717.1324, 3.865342
717.6146, 4.766459
718.0967, 5.008544
718.5788, 5.001513
719.0609, 4.554253
719.5430, 4.063463
720.0251, 3.658642
720.5073, 3.459062
720.9894, 3.721741
721.4715, 4.617053
721.9536, 5.682704
722.4357, 6.233406
722.9178, 6.385234
723.4000, 6.952153
723.8821, 8.145193
724.3642, 8.863111
724.8463, 8.271934
725.3284, 6.900651
725.8105, 6.089526
726.2927, 5.969284
726.7748, 6.053856
727.2569, 6.634761
727.7390, 7.095459
728.2211, 7.002584
728.7032, 6.582710
729.1854, 6.126266
729.6675, 5.753795
730.1496, 5.734190
730.6317, 6.729026
731.1138, 8.319043
731.5959, 8.801301
732.0781, 8.072203
732.5602, 7.326317
733.0423, 7.005288
733.5244, 6.953617
734.0065, 6.952651
734.4886, 6.993410
734.9708, 7.173510
735.4529, 8.108686
735.9350, 8.450770
736.4171, 7.025345
736.8992, 5.181464
737.3813, 4.509162
737.8635, 5.158340
738.3456, 6.043625
738.8277, 6.426929
739.3098, 6.464006
739.7919, 6.465546
740.2740, 6.425385
740.7562, 6.161789
741.2383, 5.522089
741.7204, 5.072580
742.2025, 5.435507
742.6846, 6.508445
743.1667, 7.182852
743.6489, 7.081846
744.1310, 7.140140
744.6131, 7.897820
745.0952, 8.479572
745.5773, 8.032083
746.0594, 6.849723
746.5416, 5.878685
747.0237, 5.618449
747.5058, 5.459742
747.9879, 4.410303
748.4700, 2.828995
748.9521, 2.079904
749.4343, 2.318581
749.9164, 3.147479
750.3985, 4.538677
750.8806, 6.077301
751.3627, 6.822520
751.8448, 6.516577
752.3270, 6.040987
752.8091, 4.975714
753.2912, 4.220890
753.7733, 4.559923
754.2554, 5.219871
754.7375, 4.930840
755.2197, 3.490998
755.7018, 2.408306
756.1839, 3.110354
756.6660, 4.718630
757.1481, 5.924563
757.6302, 6.721513
758.1124, 7.148996
758.5945, 7.205752
759.0766, 7.006196
759.5587, 6.618383
760.0408, 6.054245
760.5229, 5.828435
761.0051, 6.216901
761.4872, 6.533912
761.9693, 6.499498
762.4514, 6.525168
762.9335, 7.043806
763.4156, 7.894541
763.8978, 8.509975
764.3799, 8.690660
764.8620, 8.538645
765.3441, 8.109527
765.8262, 7.413950
766.3083, 6.147680
766.7905, 4.453776
767.2726, 3.520323
767.7547, 4.109805
768.2368, 5.699826
768.7189, 7.205635
769.2010, 8.838303
769.6832, 9.573812
770.1653, 8.856920
770.6474, 8.009558
771.1295, 7.690533
771.6116, 7.516974
772.0938, 6.779612
772.5759, 5.314690
773.0580, 4.700997
773.5401, 6.549867
774.0222, 8.559854
774.5043, 8.478061
774.9865, 7.262636
775.4686, 7.157225
775.9507, 8.632571
776.4328, 9.926322
776.9149, 9.156489
777.3970, 6.889983
777.8792, 5.783905
778.3613, 6.041502
778.8434, 6.348987
779.3255, 6.549604
779.8076, 6.524439
780.2897, 5.852327
780.7719, 4.819536
781.2540, 4.702431
781.7361, 6.486335
782.2182, 7.683321
782.7003, 7.083193
783.1824, 6.180525
783.6646, 6.352987
784.1467, 7.237708
784.6288, 7.681715
785.1109, 7.186206
785.5930, 6.238092
786.0751, 5.161170
786.5573, 4.112660
787.0394, 3.806648
787.5215, 4.291315
788.0036, 5.076211
788.4857, 6.064260
788.9678, 7.000402
789.4500, 7.510787
789.9321, 7.563416
790.4142, 7.450043
790.8963, 6.964907
791.3784, 6.586725
791.8605, 6.613308
792.3427, 6.638037
792.8248, 6.184769
793.3069, 5.348670
793.7890, 4.678365
794.2711, 4.341466
794.7532, 4.433287
795.2354, 5.377631
795.7175, 6.733423
796.1996, 7.590644
796.6817, 7.825750
797.1638, 7.556332
797.6459, 6.777000
798.1281, 5.906374
798.6102, 6.075262
799.0923, 7.770572
799.5744, 8.390544
800.0565, 7.220935
800.5386, 6.109983
801.0208, 6.005868
801.5029, 6.308944
801.9850, 6.357373
802.4671, 6.104813
802.9492, 5.881358
803.4313, 5.739180
803.9135, 5.696086
804.3956, 5.827024
804.8777, 6.034147
805.3598, 6.209665
805.8419, 6.316576
806.3240, 6.319188
806.8062, 6.169011
807.2883, 5.943936
807.7704, 5.783410
808.2525, 5.689517
808.7346, 5.804900
809.2167, 6.237436
809.6989, 6.458444
810.1810, 6.017561
810.6631, 5.195663
811.1452, 4.781209
811.6273, 5.013060
812.1094, 5.117620
812.5916, 4.964378
813.0737, 4.833371
813.5558, 4.924288
814.0379, 5.060362
814.5200, 4.897425
815.0021, 4.426618
815.4843, 4.221315
815.9664, 5.068069
816.4485, 6.015749
816.9306, 5.628501
817.4127, 4.501301
817.8948, 4.353671
818.3770, 5.467215
818.8591, 6.446192
819.3412, 6.085898
819.8233, 6.764386
820.3054, 7.033090
820.7875, 6.504741
821.2697, 7.160987
821.7518, 6.093814
822.2339, 5.091303
822.7160, 5.174194
823.1981, 5.981026
823.6802, 7.061200
824.1624, 8.654416
824.6445, 9.293804
825.1266, 7.725160
825.6087, 6.163692
826.0908, 5.923204
826.5729, 6.405053
827.0551, 6.768674
827.5372, 6.828492
828.0193, 6.792482
828.5014, 6.781508
828.9835, 6.805111
829.4656, 7.001641
829.9478, 7.274058
830.4299, 7.015227
830.9120, 6.100419
831.3941, 5.354543
831.8762, 5.348386
832.3583, 5.905076
832.8404, 6.637240
833.3225, 7.906056
833.8046, 8.277864
834.2867, 6.732461
834.7689, 5.623196
835.2510, 6.285529
835.7331, 7.518903
836.2152, 7.900226
836.6973, 7.319380
837.1794, 6.744328
837.6616, 6.270841
838.1437, 6.129563
838.6258, 6.761145
839.1079, 7.648623
839.5900, 8.196347
840.0721, 8.278780
840.5543, 7.806148
841.0364, 6.588601
841.5185, 5.395119
842.0006, 5.862467
842.4827, 7.655649
842.9648, 8.550945
843.4470, 8.309228
843.9291, 7.559509
844.4112, 6.474591
844.8933, 5.370735
845.3754, 4.782033
845.8575, 4.759575
846.3397, 4.936365
846.8218, 5.518501
847.3039, 6.019869
847.7860, 6.320427
848.2681, 6.531397
848.7502, 6.712991
849.2324, 6.885835
849.7145, 7.116861
850.1966, 7.562798
850.6787, 7.819541
851.1608, 7.428113
851.6429, 6.885621
852.1251, 6.904876
852.6072, 7.292230
853.0893, 7.234759
853.5714, 6.395997
854.0535, 5.460225
854.5356, 5.418725
855.0178, 5.051274
855.4999, 4.822354
855.9820, 5.274899
856.4641, 5.003828
856.9462, 5.558215
857.4283, 6.412596
857.9105, 7.127896
858.3926, 7.679040
858.8747, 7.854544
859.3568, 7.222539
859.8389, 6.972401
860.3210, 7.589011
860.8032, 8.145844
861.2853, 8.275256
861.7674, 8.014988
862.2495, 7.299302
862.7316, 6.020015
863.2137, 5.187232
863.6959, 5.740988
864.1780, 6.388288
864.6601, 5.871667
865.1422, 4.862329
865.6243, 4.465889
866.1064, 4.900128
866.5886, 5.894470
867.0707, 7.457056
867.5528, 8.943167
868.0349, 8.853015
868.5170, 7.496577
868.9991, 6.863778
869.4813, 7.215322
869.9634, 7.810039
870.4455, 8.356212
870.9276, 8.601356
871.4097, 7.959733
871.8918, 6.170945
872.3740, 5.331051
872.8561, 6.219995
873.3382, 6.786560
873.8203, 6.133911
874.3024, 5.242033
874.7845, 4.996703
875.2667, 5.218367
875.7488, 4.942345
876.2309, 3.121666
876.7130, 2.278179
877.1951, 4.285892
877.6772, 6.778605
878.1594, 7.829067
878.6415, 7.726129
879.1236, 7.465380
879.6057, 7.370873
880.0878, 7.030373
880.5699, 5.604826
881.0521, 3.934007
881.5342, 3.717043
882.0163, 4.653069
882.4984, 5.637373
882.9805, 6.391135
883.4626, 6.673073
883.9448, 6.217117
884.4269, 5.345461
884.9090, 5.035708
885.3911, 5.403227
885.8732, 5.698469
886.3553, 5.949905
886.8375, 5.948156
887.3196, 5.306046
887.8017, 4.597442
888.2838, 4.783911
888.7659, 5.959669
889.2480, 6.829244
889.7302, 7.408015
890.2123, 7.616995
890.6944, 6.952017
891.1765, 6.319197
891.6586, 6.811762
892.1407, 7.935030
892.6229, 8.055708
893.1050, 6.338128
893.5871, 5.006223
894.0692, 6.131592
894.5513, 7.976653
895.0334, 8.714246
895.5156, 8.454144
895.9977, 7.512809
896.4798, 6.111362
896.9619, 4.983292
897.4440, 4.849478
897.9261, 5.336892
898.4083, 5.512771
898.8904, 5.417153
899.3725, 5.567978
899.8546, 6.070000
900.3367, 6.498587
900.8188, 6.596306
901.3010, 6.493256
901.7831, 6.452345
902.2652, 6.514331
902.7473, 6.349435
903.2294, 5.654579
903.7115, 5.269496
904.1937, 5.644360
904.6758, 6.217020
905.1579, 6.611523
905.6400, 6.812378
906.1221, 6.767697
906.6042, 6.442721
907.0864, 5.925203
907.5685, 5.459479
908.0506, 4.589606
908.5327, 1.992622
909.0148, -0.7882553
909.4969, -0.8543887
909.9791, 2.210340
910.4612, 4.994112
910.9433, 5.092297
911.4254, 3.989210
911.9075, 2.526229
912.3896, 1.287316
912.8718, 1.795330
913.3539, 3.913788
913.8360, 5.875155
914.3181, 6.683969
914.8002, 6.830441
915.2823, 7.031600
915.7645, 7.255922
916.2466, 7.258873
916.7287, 7.031950
917.2108, 6.658662
917.6929, 6.113744
918.1750, 5.659883
918.6572, 5.602889
919.1393, 5.843717
919.6214, 5.737436
920.1035, 4.833026
920.5856, 4.741158
921.0677, 6.502462
921.5499, 7.789781
922.0320, 6.668896
922.5141, 4.862449
922.9962, 5.028253
923.4783, 7.407661
923.9604, 8.430440
924.4426, 6.070042
924.9247, 4.279647
925.4068, 4.910388
925.8889, 6.206703
926.3710, 6.560039
926.8531, 6.242031
927.3353, 6.476794
927.8174, 7.793947
928.2995, 8.761270
928.7816, 7.861730
929.2637, 6.571507
929.7458, 6.576612
930.2280, 7.432157
930.7101, 8.166666
931.1922, 8.529297
931.6743, 8.606091
932.1564, 8.420949
932.6385, 8.119668
933.1207, 7.959793
933.6028, 7.906079
934.0849, 7.823881
934.5670, 7.698573
935.0491, 7.441734
935.5313, 6.994736
936.0134, 6.596992
936.4955, 6.567894
936.9776, 6.867557
937.4597, 7.108711
937.9418, 7.304327
938.4240, 7.374809
938.9061, 7.242095
939.3882, 7.120910
939.8703, 7.142716
940.3524, 7.271648
940.8345, 7.464979
941.3167, 7.822313
941.7988, 7.865354
942.2809, 7.416932
942.7630, 6.901782
943.2451, 5.810306
943.7272, 5.197341
944.2094, 6.634799
944.6915, 9.316446
945.1736, 10.35238
945.6557, 8.294453
946.1378, 6.847101
946.6199, 7.906026
947.1021, 9.468020
947.5842, 10.34576
948.0663, 10.67535
948.5484, 10.73889
949.0305, 10.62154
949.5126, 10.36120
949.9948, 9.891019
950.4769, 9.454912
950.9590, 8.928744
951.4411, 8.783324
951.9232, 10.35353
952.4053, 13.07374
952.8875, 14.74669
953.3696, 14.55387
953.8517, 13.55357
954.3338, 12.72308
954.8159, 12.03150
955.2980, 11.31529
955.7802, 10.63049
956.2623, 10.45624
956.7444, 10.87581
957.2265, 11.34015
957.7086, 11.55202
958.1907, 11.48165
958.6729, 11.01643
959.1550, 10.14202
959.6371, 9.352664
960.1192, 8.497293
960.6013, 8.472355
961.0834, 9.958489
961.5656, 11.31044
962.0477, 10.95942
962.5298, 9.503094
963.0119, 9.067068
963.4940, 10.31923
963.9761, 10.89496
964.4583, 10.31754
964.9404, 9.691853
965.4225, 9.141998
965.9046, 8.852342
966.3867, 9.327802
966.8688, 10.33644
967.3510, 10.45670
967.8331, 8.556534
968.3152, 7.406113
968.7973, 8.207412
969.2794, 9.298488
969.7615, 9.925045
970.2437, 10.07630
970.7258, 9.659867
971.2079, 8.758595
971.6900, 8.077838
972.1721, 8.320798
972.6542, 8.353861
973.1364, 7.058452
973.6185, 5.478800
974.1006, 4.748284
974.5827, 4.746855
975.0648, 5.012757
975.5469, 5.357539
976.0291, 5.484952
976.5112, 4.886260
976.9933, 4.177795
977.4754, 4.125181
977.9575, 4.636013
978.4396, 5.909869
978.9218, 7.652756
979.4039, 8.497401
979.8860, 7.758805
980.3681, 6.025383
980.8502, 3.358139
981.3323, 0.4764249
981.8145, 0.4365506
982.2966, 2.889008
982.7787, 5.124160
983.2608, 6.548404
983.7429, 7.025095
984.2250, 6.327995
984.7072, 5.194613
985.1893, 5.380996
985.6714, 4.720516
986.1535, 3.987530
986.6356, 4.549861
987.1177, 3.159202
987.5999, 3.716381
988.0820, 4.732049
988.5641, 4.964178
989.0462, 4.620706
989.5283, 4.309173
990.0104, 3.658283
990.4926, 4.386068
990.9747, 7.775827
991.4568, 10.04455
991.9389, 9.306700
992.4210, 7.624069
992.9031, 6.909532
993.3853, 7.064438
993.8674, 7.440460
994.3495, 8.985162
994.8316, 9.143792
995.3137, 6.074051
995.7958, 3.738241
996.2780, 4.317708
996.7601, 6.032182
997.2422, 7.043836
997.7243, 7.289077
998.2064, 7.350699
998.6885, 7.251253
999.1707, 7.112132
999.6528, 7.251347
1000.135, 7.060521
1000.617, 5.581520
1001.099, 3.818301
1001.581, 3.433391
1002.063, 4.502832
1002.545, 5.331168
1003.028, 4.998215
1003.510, 4.572059
1003.992, 4.542960
1004.474, 4.765736
1004.956, 5.358973
1005.438, 6.010649
1005.920, 6.094412
1006.402, 5.506970
1006.885, 4.867101
1007.367, 4.384751
1007.849, 4.262357
1008.331, 5.141085
1008.813, 6.218420
1009.295, 6.001029
1009.777, 4.945760
1010.259, 4.915636
1010.741, 6.468402
1011.224, 7.876404
1011.706, 7.467165
1012.188, 6.201446
1012.670, 5.250192
1013.152, 4.664620
1013.634, 4.784461
1014.116, 5.441910
1014.598, 5.713273
1015.081, 5.206001
1015.563, 4.655113
1016.045, 5.054115
1016.527, 5.870566
1017.009, 5.476426
1017.491, 4.247293
1017.973, 4.183460
1018.455, 5.448558
1018.937, 6.388136
1019.420, 6.147809
1019.902, 5.428085
1020.384, 5.168729
1020.866, 5.254900
1021.348, 5.135000
1021.830, 4.814646
1022.312, 4.363620
1022.794, 3.764902
1023.276, 3.655360
1023.759, 4.464943
1024.241, 5.611341
1024.723, 6.151275
1025.205, 6.136914
1025.687, 6.380564
1026.169, 6.976296
1026.651, 6.978337
1027.133, 6.109958
1027.616, 5.097451
1028.098, 4.321141
1028.580, 3.789943
1029.062, 3.523259
1029.544, 3.519423
1030.026, 3.896234
1030.508, 4.868701
1030.990, 5.472978
1031.473, 5.559293
1031.955, 5.132346
1032.437, 3.891824
1032.919, 2.493776
1033.401, 2.260497
1033.883, 3.343271
1034.365, 4.056635
1034.847, 4.124987
1035.329, 4.488792
1035.812, 5.804460
1036.294, 6.672158
1036.776, 5.841517
1037.258, 4.222270
1037.740, 3.636093
1038.222, 4.263410
1038.704, 4.713583
1039.186, 4.732939
1039.668, 4.991030
1040.151, 5.839191
1040.633, 6.675882
1041.115, 7.328302
1041.597, 7.641102
1042.079, 7.187496
1042.561, 5.800044
1043.043, 4.765924
1043.525, 3.842214
1044.008, 3.664077
1044.490, 5.428595
1044.972, 6.849770
1045.454, 6.068548
1045.936, 4.171691
1046.418, 3.177874
1046.900, 3.307995
1047.382, 3.348740
1047.865, 2.724302
1048.347, 2.627485
1048.829, 3.852326
1049.311, 5.153546
1049.793, 5.796922
1050.275, 5.936917
1050.757, 5.843259
1051.239, 5.536075
1051.721, 5.223625
1052.203, 4.788416
1052.686, 4.572762
1053.168, 4.867472
1053.650, 5.220513
1054.132, 5.313949
1054.614, 5.258567
1055.096, 5.311583
1055.578, 5.500028
1056.060, 5.463120
1056.543, 4.678414
1057.025, 4.248645
1057.507, 4.747272
1057.989, 5.494490
1058.471, 6.342722
1058.953, 6.948313
1059.435, 6.693807
1059.917, 5.562406
1060.400, 4.602119
1060.882, 3.889612
1061.364, 3.758740
1061.846, 5.095507
1062.328, 6.278375
1062.810, 5.810264
1063.292, 4.576353
1063.774, 3.884018
1064.256, 3.929318
1064.739, 4.424788
1065.221, 5.927544
1065.703, 6.748704
1066.185, 5.554489
1066.667, 4.096847
1067.149, 3.493220
1067.631, 3.509967
1068.113, 4.012333
1068.595, 4.754694
1069.078, 4.656749
1069.560, 2.637025
1070.042, 1.268142
1070.524, 2.271564
1071.006, 3.714999
1071.488, 4.313434
1071.970, 4.470895
1072.452, 4.878274
1072.935, 5.525140
1073.417, 5.924830
1073.899, 5.953887
1074.381, 5.598127
1074.863, 4.062743
1075.345, 3.000763
1075.827, 4.098984
1076.309, 5.933015
1076.792, 6.917168
1077.274, 6.911319
1077.756, 6.167948
1078.238, 4.480025
1078.720, 3.430980
1079.202, 4.422823
1079.684, 5.531715
1080.166, 5.449981
1080.648, 4.917113
1081.130, 4.669277
1081.613, 4.764432
1082.095, 5.092730
1082.577, 5.657544
1083.059, 6.137792
1083.541, 6.422022
1084.023, 6.550966
1084.505, 6.515975
1084.987, 6.364735
1085.469, 6.143414
1085.952, 5.843168
1086.434, 5.292406
1086.916, 4.439697
1087.398, 4.148228
1087.880, 5.525362
1088.362, 6.580005
1088.844, 6.177988
1089.326, 5.213363
1089.809, 3.905242
1090.291, 2.846244
1090.773, 3.234981
1091.255, 5.150968
1091.737, 6.500201
1092.219, 6.099718
1092.701, 5.592004
1093.183, 5.647216
1093.666, 5.782206
1094.148, 5.390942
1094.630, 4.998175
1095.112, 5.742326
1095.594, 7.461075
1096.076, 8.128837
1096.558, 6.435838
1097.040, 5.082838
1097.522, 5.321488
1098.005, 5.720853
1098.487, 5.353657
1098.969, 4.760406
1099.451, 4.674171
1099.933, 5.011278
1100.415, 5.118721
1100.897, 4.732069
1101.379, 4.490800
1101.861, 4.910512
1102.344, 5.067347
1102.826, 4.003833
1103.308, 2.976290
1103.790, 3.640557
1104.272, 5.223521
1104.754, 5.287121
1105.236, 3.036038
1105.718, 1.822598
1106.201, 3.329994
1106.683, 4.451226
1107.165, 3.909261
1107.647, 3.069243
1108.129, 2.565197
1108.611, 2.572225
1109.093, 3.640567
1109.575, 5.934761
1110.057, 7.125980
1110.540, 6.230773
1111.022, 5.362020
1111.504, 4.590357
1111.986, 4.169874
1112.468, 4.309832
1112.950, 4.815608
1113.432, 5.673809
1113.914, 6.811921
1114.396, 7.123559
1114.879, 5.935051
1115.361, 5.078692
1115.843, 4.857296
1116.325, 4.550246
1116.807, 3.563092
1117.289, 2.766669
1117.771, 3.265951
1118.253, 4.591506
1118.736, 4.821537
1119.218, 3.284487
1119.700, 2.948559
1120.182, 4.732451
1120.664, 5.720443
1121.146, 4.769408
1121.628, 3.640378
1122.110, 3.613915
1122.593, 4.230043
1123.075, 4.540385
1123.557, 4.522796
1124.039, 4.632527
1124.521, 5.098966
1125.003, 4.733095
1125.485, 3.003500
1125.967, 1.556589
1126.449, 1.245068
1126.932, 1.634318
1127.414, 2.180364
1127.896, 2.876398
1128.378, 3.835306
1128.860, 3.890999
1129.342, 5.350433
1129.824, 4.035602
1130.306, 2.967364
1130.788, 2.726742
1131.271, 3.375738
1131.753, 5.202219
1132.235, 7.358081
1132.717, 7.318633
1133.199, 5.296276
1133.681, 4.331989
1134.163, 4.460540
1134.645, 4.891000
1135.128, 5.429585
1135.610, 5.869219
1136.092, 6.079798
1136.574, 6.142517
1137.056, 6.186543
1137.538, 6.180987
1138.020, 5.887338
1138.502, 6.082504
1138.984, 5.556862
1139.467, 6.215619
1139.949, 6.671087
1140.431, 6.635602
1140.913, 6.629632
1141.395, 7.216556
1141.877, 7.984477
1142.359, 8.365510
1142.841, 8.384377
1143.323, 7.915360
1143.806, 7.149864
1144.288, 6.678451
1144.770, 6.562876
1145.252, 6.164728
1145.734, 4.973199
1146.216, 4.055786
1146.698, 4.572694
1147.180, 5.807810
1147.663, 7.496523
1148.145, 9.003018
1148.627, 9.190618
1149.109, 8.315996
1149.591, 7.551877
1150.073, 7.292442
1150.555, 7.152472
1151.037, 7.048035
1151.520, 6.803407
1152.002, 5.815317
1152.484, 5.081321
1152.966, 6.083467
1153.448, 7.782398
1153.930, 8.216914
1154.412, 7.222271
1154.894, 6.272890
1155.376, 5.705287
1155.859, 5.457945
1156.341, 5.635174
1156.823, 5.980357
1157.305, 6.699965
1157.787, 7.254022
1158.269, 6.821071
1158.751, 5.777782
1159.233, 5.456489
1159.715, 6.171733
1160.198, 6.786068
1160.680, 7.203847
1161.162, 7.559067
1161.644, 8.080347
1162.126, 8.275388
1162.608, 7.515379
1163.090, 6.581796
1163.572, 6.831996
1164.055, 8.165193
1164.537, 8.273196
1165.019, 6.604158
1165.501, 5.505239
1165.983, 5.369276
1166.465, 4.860866
1166.947, 3.163503
1167.429, 2.092443
1167.911, 3.515352
1168.394, 6.246643
1168.876, 7.215682
1169.358, 6.410785
1169.840, 5.828933
1170.322, 5.471159
1170.804, 5.502920
1171.286, 5.960822
1171.768, 6.035088
1172.250, 5.269031
1172.733, 4.490036
1173.215, 4.779867
1173.697, 5.682194
1174.179, 6.220451
1174.661, 6.340078
1175.143, 5.482644
1175.625, 3.990635
1176.107, 3.485240
1176.590, 4.290315
1177.072, 5.144876
1177.554, 5.242594
1178.036, 5.027794
1178.518, 5.122139
1179.000, 5.088346
1179.482, 3.818894
1179.964, 2.311200
1180.447, 2.459638
1180.929, 3.934809
1181.411, 5.128140
1181.893, 5.534357
1182.375, 5.699556
1182.857, 5.978347
1183.339, 6.039953
1183.821, 5.413553
1184.303, 4.786455
1184.786, 5.217199
1185.268, 5.676450
1185.750, 4.052169
1186.232, 0.8784189
1186.714, -0.2080875
1187.196, 2.517496
1187.678, 4.227034
1188.160, 2.831282
1188.642, 2.044193
1189.125, 4.411491
1189.607, 6.214952
1190.089, 3.745183
1190.571, -0.1322359
1191.053, -0.1365557
1191.535, 3.678130
1192.017, 5.316330
1192.499, 3.778224
1192.982, 3.166626
1193.464, 4.162517
1193.946, 4.710891
1194.428, 3.920335
1194.910, 3.082537
1195.392, 3.470292
1195.874, 4.272981
1196.356, 3.187706
1196.839, 0.4736550
1197.321, 5.4538321E-02
1197.803, 1.782885
1198.285, 3.717623
1198.767, 5.448864
1199.249, 6.163292
1199.731, 5.512401
1200.213, 4.649544
1200.695, 4.815200
1201.177, 5.260288
1201.660, 4.453346
1202.142, 4.579077
1202.624, 4.389462
1203.106, 3.880085
1203.588, 3.997963
1204.070, 3.405620
1204.552, 3.123725
1205.034, 3.631462
1205.517, 4.215189
1205.999, 4.340449
1206.481, 4.403649
1206.963, 5.027552
1207.445, 5.413901
1207.927, 4.081520
1208.409, 2.289925
1208.891, 2.723400
1209.374, 5.343148
1209.856, 6.673087
1210.338, 5.312386
1210.820, 3.983971
1211.302, 2.934150
1211.784, 2.210784
1212.266, 1.700639
1212.748, 1.692557
1213.230, 2.914314
1213.713, 4.414461
1214.195, 4.106003
1214.677, 1.961008
1215.159, 1.333980
1215.641, 2.573592
1216.123, 3.942376
1216.605, 5.442863
1217.087, 6.105851
1217.569, 5.456970
1218.052, 4.725347
1218.534, 5.007558
1219.016, 4.788272
1219.498, 5.808715
1219.980, 5.377161
1220.462, 5.636343
1220.944, 6.370180
1221.426, 6.734321
1221.909, 6.582232
1222.391, 5.766192
1222.873, 4.310191
1223.355, 3.058277
1223.837, 2.609487
1224.319, 2.760319
1224.801, 3.754686
1225.283, 4.823975
1225.766, 5.285346
1226.248, 5.109827
1226.730, 3.821680
1227.212, 1.989351
1227.694, 1.297082
1228.176, 2.245266
1228.658, 3.416343
1229.140, 4.914032
1229.622, 5.736468
1230.104, 5.156736
1230.587, 4.303887
1231.069, 3.692033
1231.551, 3.220402
1232.033, 2.631664
1232.515, 2.083905
1232.997, 2.249667
1233.479, 3.372341
1233.961, 3.874196
1234.444, 3.521814
1234.926, 3.528817
1235.408, 4.196108
1235.890, 4.812437
1236.372, 5.058298
1236.854, 4.843989
1237.336, 3.862655
1237.818, 2.825193
1238.301, 4.102897
1238.783, 6.808888
1239.265, 7.343600
1239.747, 6.119532
1240.229, 5.338865
1240.711, 5.292709
1241.193, 4.950587
1241.675, 3.867055
1242.157, 2.880233
1242.640, 2.743197
1243.122, 2.879478
1243.604, 2.858479
1244.086, 2.799127
1244.568, 2.708505
1245.050, 2.728371
1245.532, 3.087988
1246.014, 3.740345
1246.496, 4.454775
1246.979, 5.243262
1247.461, 5.808612
1247.943, 6.043089
1248.425, 6.138411
1248.907, 6.064719
1249.389, 5.958337
1249.871, 5.921576
1250.353, 5.817455
1250.836, 5.446386
1251.318, 4.920519
1251.800, 4.639838
1252.282, 4.612165
1252.764, 4.736506
1253.246, 5.015562
1253.728, 5.491288
1254.210, 6.127396
1254.693, 5.389197
1255.175, 2.611614
1255.657, 0.5647569
1256.139, 2.256469
1256.621, 5.202984
1257.103, 5.667253
1257.585, 4.883997
1258.067, 4.566914
1258.549, 4.681598
1259.031, 5.182833
1259.514, 5.816245
1259.996, 5.933757
1260.478, 5.347716
1260.960, 4.639219
1261.442, 3.844977
1261.924, 3.289811
1262.406, 3.001320
1262.888, 3.084014
1263.371, 3.824053
1263.853, 4.765214
1264.335, 5.433309
1264.817, 5.974750
1265.299, 6.876111
1265.781, 6.737655
1266.263, 8.270845
1266.745, 6.622151
1267.228, 5.719005
1267.710, 5.920886
1268.192, 5.798847
1268.674, 4.815657
1269.156, 4.122377
1269.638, 4.706331
1270.120, 5.597017
1270.602, 5.262857
1271.084, 4.072573
1271.567, 2.213939
1272.049, 0.4354524
1272.531, 0.7763852
1273.013, 2.539675
1273.495, 3.445778
1273.977, 3.071537
1274.459, 2.661242
1274.941, 2.638996
1275.423, 3.109975
1275.906, 4.897316
1276.388, 6.177221
1276.870, 5.304626
1277.352, 4.376492
1277.834, 5.659495
1278.316, 7.514060
1278.798, 6.957824
1279.280, 4.529489
1279.763, 4.083076
1280.245, 6.328643
1280.727, 7.574643
1281.209, 7.653002
1281.691, 7.748631
1282.173, 8.141904
1282.655, 7.946134
1283.137, 6.686217
1283.620, 5.139983
1284.102, 4.076234
1284.584, 3.420811
1285.066, 3.067393
##END=



