##NAMES=Samuelsonite
##RRUFFID=R080081
##IDEAL CHEMISTRY=Ca_9_Mn^2+^_4_Al_2_(PO_4_)_10_(OH)_2_
##LOCALITY=Buranga pegmatite,  Gatumba District,  Gisenyi Province,  Rwanda
##OWNER=RRUFF
##SOURCE=Michael Scott
##DESCRIPTION=Golden brown, flattened, striated crystals associated with blue trolleite
##STATUS=The identification of this mineral has been confirmed only by single crystal X-ray diffraction.
##URL=rruff.info/R080081
92.35352, 11.29977
92.83563, 10.76330
93.31775, 10.53503
93.79987, 10.70188
94.28198, 11.18857
94.76410, 11.79090
95.24622, 12.48153
95.72833, 13.25092
96.21045, 14.04641
96.69257, 14.86756
97.17468, 15.77628
97.65680, 16.88963
98.13892, 18.20617
98.62103, 19.38150
99.10315, 20.15444
99.58527, 20.65695
100.0674, 21.81108
100.5495, 23.71930
101.0316, 26.03351
101.5137, 28.22458
101.9958, 30.14490
102.4780, 32.51468
102.9601, 35.59687
103.4422, 39.47404
103.9243, 43.53902
104.4064, 47.96471
104.8885, 52.49074
105.3707, 56.71283
105.8528, 60.29506
106.3349, 63.99632
106.8170, 68.15701
107.2991, 73.47458
107.7813, 77.91941
108.2634, 81.12948
108.7455, 83.43195
109.2276, 85.81290
109.7097, 88.03782
110.1918, 90.53765
110.6740, 93.49574
111.1561, 97.28709
111.6382, 101.1210
112.1203, 104.7517
112.6024, 108.3060
113.0845, 112.3544
113.5667, 117.0077
114.0488, 122.1536
114.5309, 127.7741
115.0130, 134.4627
115.4951, 141.0093
115.9772, 146.9996
116.4594, 152.4939
116.9415, 158.0092
117.4236, 163.9216
117.9057, 169.9023
118.3878, 175.5750
118.8699, 180.7989
119.3521, 185.7452
119.8342, 190.5728
120.3163, 195.2949
120.7984, 199.8454
121.2805, 203.9617
121.7626, 207.8929
122.2448, 212.0648
122.7269, 217.1839
123.2090, 222.3953
123.6911, 226.8448
124.1732, 230.3830
124.6553, 233.4065
125.1375, 235.9766
125.6196, 238.2524
126.1017, 240.7383
126.5838, 243.6103
127.0659, 246.9157
127.5480, 250.8712
128.0302, 255.7458
128.5123, 260.8283
128.9944, 264.9637
129.4765, 268.2540
129.9586, 271.6513
130.4407, 276.1893
130.9229, 281.5132
131.4050, 286.1651
131.8871, 289.6171
132.3692, 292.3443
132.8513, 295.2434
133.3334, 297.8490
133.8156, 299.2704
134.2977, 300.0197
134.7798, 301.1209
135.2619, 301.8126
135.7440, 301.7215
136.2261, 301.1139
136.7083, 301.3376
137.1904, 302.5721
137.6725, 304.0704
138.1546, 305.1923
138.6367, 305.9814
139.1188, 306.2579
139.6010, 305.9099
140.0831, 304.9432
140.5652, 303.8475
141.0473, 302.4830
141.5294, 301.1543
142.0115, 300.2782
142.4937, 299.9230
142.9758, 299.7959
143.4579, 299.7710
143.9400, 299.7761
144.4221, 300.2159
144.9042, 301.3309
145.3864, 302.7221
145.8685, 303.6469
146.3506, 303.6247
146.8327, 303.7877
147.3148, 304.5448
147.7969, 306.2096
148.2791, 307.7504
148.7612, 309.2697
149.2433, 310.6597
149.7254, 311.6798
150.2075, 311.8724
150.6896, 312.0982
151.1718, 312.6668
151.6539, 313.7380
152.1360, 314.9187
152.6181, 316.3412
153.1002, 317.8917
153.5823, 319.2211
154.0645, 319.7224
154.5466, 320.4296
155.0287, 321.8358
155.5108, 325.1107
155.9929, 327.7577
156.4750, 328.8693
156.9572, 328.8740
157.4393, 329.4998
157.9214, 331.6294
158.4035, 334.1802
158.8856, 336.4818
159.3677, 337.8773
159.8499, 339.5298
160.3320, 341.8597
160.8141, 344.7692
161.2962, 347.7021
161.7783, 350.7375
162.2604, 353.5666
162.7426, 355.9354
163.2247, 357.5496
163.7068, 358.8883
164.1889, 360.1657
164.6710, 361.3654
165.1531, 362.3711
165.6353, 363.1219
166.1174, 363.6471
166.5995, 363.9779
167.0816, 363.9179
167.5637, 363.8150
168.0458, 363.9841
168.5280, 364.4227
169.0101, 364.6803
169.4922, 364.4772
169.9743, 363.9115
170.4564, 363.1191
170.9385, 362.2415
171.4207, 361.1120
171.9028, 359.4001
172.3849, 357.0716
172.8670, 354.8601
173.3491, 353.4013
173.8312, 352.4460
174.3134, 351.5132
174.7955, 350.4114
175.2776, 349.2149
175.7597, 347.9716
176.2418, 346.6590
176.7239, 345.4464
177.2061, 344.6490
177.6882, 344.0800
178.1703, 343.2480
178.6524, 341.7526
179.1345, 339.8713
179.6166, 338.0778
180.0988, 336.3871
180.5809, 334.7499
181.0630, 333.0647
181.5451, 331.3525
182.0272, 329.7719
182.5093, 328.3307
182.9915, 327.0630
183.4736, 326.1186
183.9557, 325.5381
184.4378, 325.1241
184.9199, 324.6476
185.4020, 324.1143
185.8842, 323.5116
186.3663, 322.7807
186.8484, 321.9650
187.3305, 321.2325
187.8126, 320.5718
188.2947, 320.0413
188.7769, 319.7043
189.2590, 319.5630
189.7411, 319.6499
190.2232, 320.2333
190.7053, 321.1753
191.1874, 321.4816
191.6696, 320.8862
192.1517, 319.9925
192.6338, 319.9273
193.1159, 320.7095
193.5980, 321.7927
194.0801, 322.8476
194.5623, 323.8857
195.0444, 325.2447
195.5265, 327.0767
196.0086, 329.0510
196.4907, 330.4028
196.9728, 331.0695
197.4550, 331.6245
197.9371, 332.3015
198.4192, 333.0951
198.9013, 334.2746
199.3834, 335.8681
199.8655, 337.8419
200.3477, 340.3156
200.8298, 343.4276
201.3119, 346.3895
201.7940, 348.7090
202.2761, 350.3396
202.7582, 351.8411
203.2404, 353.1663
203.7225, 354.4677
204.2046, 356.1973
204.6867, 358.4282
205.1688, 360.8551
205.6509, 363.3146
206.1331, 365.8432
206.6152, 368.2581
207.0973, 370.5375
207.5794, 372.6988
208.0615, 374.7177
208.5436, 376.4653
209.0258, 378.4196
209.5079, 380.9127
209.9900, 384.0374
210.4721, 387.2508
210.9542, 390.6768
211.4363, 394.1011
211.9185, 396.7233
212.4006, 398.2965
212.8827, 399.6062
213.3648, 401.0020
213.8469, 402.3923
214.3290, 404.2927
214.8112, 406.9937
215.2933, 410.1652
215.7754, 412.6680
216.2575, 414.2383
216.7396, 415.6377
217.2217, 417.3123
217.7038, 419.3629
218.1860, 421.3626
218.6681, 423.2757
219.1502, 425.1080
219.6323, 426.8822
220.1144, 428.6745
220.5965, 430.2606
221.0787, 431.4300
221.5608, 431.9397
222.0429, 432.7153
222.5250, 433.8983
223.0071, 435.3828
223.4892, 436.7935
223.9714, 438.3807
224.4535, 439.5352
224.9356, 439.8622
225.4177, 438.9754
225.8998, 438.1989
226.3819, 437.6592
226.8641, 437.2630
227.3462, 436.7374
227.8283, 436.1802
228.3104, 435.3415
228.7925, 434.0793
229.2746, 432.2264
229.7568, 430.2601
230.2389, 428.1329
230.7210, 425.8902
231.2031, 423.7846
231.6852, 422.0275
232.1673, 420.0942
232.6495, 417.6911
233.1316, 414.4982
233.6137, 411.5829
234.0958, 409.2322
234.5779, 407.1534
235.0600, 404.5246
235.5422, 401.0107
236.0243, 397.3915
236.5064, 393.8940
236.9885, 390.0836
237.4706, 387.4545
237.9527, 386.7130
238.4349, 386.9938
238.9170, 386.1002
239.3991, 383.4266
239.8812, 380.4808
240.3633, 377.8511
240.8454, 375.5698
241.3276, 373.5168
241.8097, 371.6544
242.2918, 370.0615
242.7739, 368.9841
243.2560, 368.7304
243.7381, 368.5193
244.2203, 368.0798
244.7024, 367.4070
245.1845, 366.4892
245.6666, 365.1029
246.1487, 363.5824
246.6308, 362.6048
247.1130, 362.5895
247.5951, 362.4217
248.0772, 361.6113
248.5593, 359.8332
249.0414, 358.5985
249.5235, 358.0851
250.0057, 358.0013
250.4878, 357.8672
250.9699, 357.6383
251.4520, 357.4277
251.9341, 357.2213
252.4162, 356.9459
252.8984, 357.0670
253.3805, 357.8389
253.8626, 358.8148
254.3447, 359.2912
254.8268, 359.0436
255.3089, 358.7689
255.7911, 358.6348
256.2732, 358.6362
256.7553, 358.8187
257.2374, 359.2120
257.7195, 359.7611
258.2017, 360.4176
258.6838, 361.2456
259.1659, 362.0486
259.6480, 362.7683
260.1301, 363.3930
260.6122, 364.1221
261.0944, 365.0473
261.5765, 365.9689
262.0586, 366.6280
262.5407, 366.8615
263.0228, 367.3173
263.5049, 368.3216
263.9871, 369.8332
264.4692, 370.3813
264.9513, 369.4304
265.4334, 368.3842
265.9155, 368.6782
266.3976, 370.7751
266.8798, 372.6208
267.3619, 373.7803
267.8440, 374.3520
268.3261, 375.0956
268.8082, 376.1425
269.2903, 377.0812
269.7725, 377.4448
270.2546, 377.0206
270.7367, 377.0009
271.2188, 377.6727
271.7009, 378.8463
272.1830, 379.7696
272.6652, 380.4230
273.1473, 380.8540
273.6294, 380.9901
274.1115, 380.7339
274.5936, 380.8292
275.0757, 381.4935
275.5579, 382.4516
276.0400, 382.8442
276.5221, 382.5577
277.0042, 382.1512
277.4863, 382.0175
277.9684, 382.1968
278.4506, 382.0387
278.9327, 381.4246
279.4148, 380.5486
279.8969, 379.8638
280.3790, 379.4197
280.8611, 378.8398
281.3433, 377.7912
281.8254, 376.2781
282.3075, 375.2433
282.7896, 374.8605
283.2717, 374.6317
283.7538, 373.5697
284.2360, 371.6318
284.7181, 370.0138
285.2002, 369.4043
285.6823, 369.6811
286.1644, 369.7301
286.6465, 369.5163
287.1287, 369.1930
287.6108, 368.9078
288.0929, 368.6617
288.5750, 368.5280
289.0571, 368.6283
289.5392, 368.8632
290.0214, 368.7948
290.5035, 368.3952
290.9856, 367.9322
291.4677, 367.6287
291.9498, 367.4879
292.4319, 367.5402
292.9141, 367.8656
293.3962, 368.3531
293.8783, 368.8660
294.3604, 369.4083
294.8425, 369.6498
295.3246, 368.9880
295.8068, 367.7372
296.2889, 367.0186
296.7710, 367.3433
297.2531, 368.0309
297.7352, 367.8656
298.2173, 366.9327
298.6995, 365.9419
299.1816, 365.2990
299.6637, 364.9781
300.1458, 365.0839
300.6279, 365.8922
301.1100, 366.5497
301.5922, 365.7570
302.0743, 363.7899
302.5564, 361.7859
303.0385, 360.6683
303.5206, 359.8298
304.0027, 358.1928
304.4849, 355.4256
304.9670, 352.7106
305.4491, 351.4268
305.9312, 351.1156
306.4133, 350.6777
306.8954, 349.6427
307.3776, 348.1796
307.8597, 346.4006
308.3418, 344.2835
308.8239, 342.0975
309.3060, 340.0490
309.7881, 338.0480
310.2703, 336.0167
310.7524, 333.7472
311.2345, 331.5404
311.7166, 329.6762
312.1987, 328.1484
312.6808, 326.6883
313.1630, 325.2483
313.6451, 323.7386
314.1272, 322.0464
314.6093, 319.8800
315.0914, 317.7770
315.5735, 315.9599
316.0557, 314.4257
316.5378, 313.1698
317.0199, 312.5622
317.5020, 312.0196
317.9841, 311.0586
318.4662, 309.1353
318.9484, 307.4706
319.4305, 306.5956
319.9126, 306.2982
320.3947, 306.0210
320.8768, 305.4418
321.3589, 304.9652
321.8411, 304.8485
322.3232, 305.3415
322.8053, 305.6591
323.2874, 305.3646
323.7695, 304.8550
324.2516, 304.7592
324.7338, 305.5163
325.2159, 306.3828
325.6980, 307.1662
326.1801, 307.8684
326.6622, 308.4351
327.1443, 308.7713
327.6265, 309.0158
328.1086, 309.3116
328.5907, 309.9153
329.0728, 310.2809
329.5549, 310.1176
330.0370, 309.4166
330.5192, 309.3302
331.0013, 310.3355
331.4834, 311.5517
331.9655, 312.3832
332.4476, 312.6466
332.9297, 312.8208
333.4119, 312.7970
333.8940, 312.6936
334.3761, 313.1031
334.8582, 314.3271
335.3403, 315.5620
335.8224, 316.3850
336.3046, 316.6674
336.7867, 316.9180
337.2688, 317.1812
337.7509, 317.3901
338.2330, 317.3505
338.7151, 316.9366
339.1973, 316.6779
339.6794, 316.8947
340.1615, 317.6272
340.6436, 317.9215
341.1257, 317.6747
341.6078, 317.2253
342.0899, 317.0390
342.5721, 317.1521
343.0542, 317.1384
343.5363, 316.8086
344.0184, 316.2650
344.5005, 316.0101
344.9826, 316.0961
345.4648, 316.1199
345.9469, 315.6564
346.4290, 314.7548
346.9111, 313.8168
347.3932, 312.7939
347.8753, 311.9215
348.3575, 311.9941
348.8396, 312.9016
349.3217, 313.4347
349.8038, 312.2458
350.2859, 310.0877
350.7680, 308.8920
351.2502, 309.0194
351.7323, 309.5893
352.2144, 309.6761
352.6965, 309.3875
353.1786, 309.0469
353.6607, 308.8536
354.1429, 308.6882
354.6250, 308.2512
355.1071, 307.5173
355.5892, 307.1239
356.0713, 308.0110
356.5534, 309.4673
357.0356, 310.4332
357.5177, 310.0800
357.9998, 309.4809
358.4819, 309.2730
358.9640, 309.4473
359.4461, 309.9713
359.9283, 311.2733
360.4104, 312.6764
360.8925, 313.6443
361.3746, 314.1339
361.8567, 314.0309
362.3388, 312.8286
362.8210, 310.9873
363.3031, 309.5284
363.7852, 309.3311
364.2673, 309.1373
364.7494, 308.3387
365.2315, 306.7465
365.7137, 305.0015
366.1958, 303.1265
366.6779, 301.2170
367.1600, 299.3682
367.6421, 297.2573
368.1242, 295.5551
368.6064, 294.4303
369.0885, 293.9017
369.5706, 293.6898
370.0527, 294.4729
370.5348, 295.0525
371.0169, 294.5572
371.4991, 291.7934
371.9812, 290.0148
372.4633, 289.7257
372.9454, 290.5644
373.4275, 291.2770
373.9096, 291.8369
374.3918, 292.3344
374.8739, 292.7596
375.3560, 293.0531
375.8381, 293.5833
376.3202, 294.4142
376.8023, 295.3878
377.2845, 296.2826
377.7666, 297.0899
378.2487, 297.8087
378.7308, 298.3741
379.2129, 298.8289
379.6950, 299.3775
380.1772, 299.9994
380.6593, 300.8336
381.1414, 302.0969
381.6235, 303.7399
382.1056, 305.4452
382.5877, 307.2003
383.0699, 308.8925
383.5520, 310.2406
384.0341, 311.2849
384.5162, 312.3001
384.9983, 313.3971
385.4804, 314.6113
385.9626, 316.1225
386.4447, 318.0176
386.9268, 319.8321
387.4089, 320.8947
387.8910, 321.5114
388.3731, 322.3479
388.8553, 323.8485
389.3374, 325.6123
389.8195, 327.1273
390.3016, 328.4044
390.7837, 330.0446
391.2658, 332.8278
391.7480, 335.9784
392.2301, 338.6425
392.7122, 340.0169
393.1943, 341.6534
393.6764, 344.4064
394.1585, 348.0217
394.6407, 351.7095
395.1228, 355.0517
395.6049, 358.5387
396.0870, 362.4760
396.5691, 366.9678
397.0512, 371.6190
397.5334, 376.3045
398.0155, 381.1466
398.4976, 386.2311
398.9797, 391.7468
399.4618, 397.3516
399.9439, 402.9736
400.4261, 408.6063
400.9082, 414.3564
401.3903, 420.2237
401.8724, 426.1957
402.3545, 432.2251
402.8366, 437.9179
403.3188, 444.4338
403.8009, 452.1580
404.2830, 460.5995
404.7651, 468.5446
405.2472, 475.8138
405.7293, 482.8826
406.2115, 489.9521
406.6936, 496.9677
407.1757, 503.8593
407.6578, 510.6447
408.1399, 517.3146
408.6220, 524.1505
409.1042, 531.1354
409.5863, 537.4420
410.0684, 543.0349
410.5505, 547.6544
411.0326, 550.8131
411.5147, 552.5383
411.9969, 553.4091
412.4790, 553.9510
412.9611, 553.9581
413.4432, 552.9818
413.9253, 550.9803
414.4074, 547.8970
414.8896, 543.4797
415.3717, 537.9294
415.8538, 531.7216
416.3359, 524.7967
416.8180, 517.5392
417.3001, 510.1890
417.7823, 502.6853
418.2644, 495.7327
418.7465, 489.6724
419.2286, 484.2007
419.7107, 479.0968
420.1928, 474.2330
420.6750, 469.7118
421.1571, 465.5284
421.6392, 461.6834
422.1213, 458.2953
422.6034, 455.3484
423.0855, 452.9096
423.5677, 451.0162
424.0498, 449.7553
424.5319, 448.8110
425.0140, 448.0859
425.4961, 447.7084
425.9782, 447.8049
426.4604, 448.4853
426.9425, 449.4957
427.4246, 450.7986
427.9067, 452.4134
428.3888, 454.3959
428.8709, 456.8508
429.3531, 459.4808
429.8352, 462.0829
430.3173, 464.5009
430.7994, 467.5650
431.2815, 471.4496
431.7636, 475.7144
432.2458, 479.6214
432.7279, 483.1547
433.2100, 486.4651
433.6921, 489.3372
434.1742, 492.0724
434.6563, 495.8961
435.1385, 500.8856
435.6206, 505.9829
436.1027, 510.2954
436.5848, 514.0202
437.0669, 517.6719
437.5490, 521.3407
438.0312, 525.0180
438.5133, 529.0240
438.9954, 533.1230
439.4775, 536.6481
439.9596, 539.1631
440.4417, 541.0264
440.9239, 542.3952
441.4060, 543.2843
441.8881, 544.2042
442.3702, 545.3610
442.8523, 546.7191
443.3344, 548.2756
443.8166, 550.8220
444.2987, 552.6253
444.7808, 552.6525
445.2629, 551.4576
445.7450, 550.6670
446.2271, 550.4495
446.7093, 550.8395
447.1914, 551.9920
447.6735, 554.2281
448.1556, 556.1737
448.6377, 557.8493
449.1198, 559.2004
449.6020, 560.1046
450.0841, 560.2032
450.5662, 560.5752
451.0483, 561.4131
451.5304, 562.6530
452.0125, 564.0332
452.4947, 565.6516
452.9768, 567.1453
453.4589, 568.1989
453.9410, 568.8005
454.4231, 569.8191
454.9052, 571.3553
455.3874, 573.0685
455.8695, 574.6992
456.3516, 576.2084
456.8337, 577.2758
457.3158, 577.7334
457.7979, 577.7589
458.2801, 577.6641
458.7622, 577.4421
459.2443, 577.0175
459.7264, 576.5634
460.2085, 575.8024
460.6906, 574.4746
461.1728, 572.6391
461.6549, 569.8499
462.1370, 565.4072
462.6191, 559.9279
463.1012, 554.4047
463.5833, 549.4967
464.0655, 544.3428
464.5476, 538.5219
465.0297, 532.1096
465.5118, 525.5456
465.9939, 519.1873
466.4760, 512.6509
466.9582, 505.7405
467.4403, 498.0754
467.9224, 490.5474
468.4045, 483.2802
468.8866, 476.1485
469.3687, 468.7881
469.8509, 460.9249
470.3330, 453.5674
470.8151, 446.9840
471.2972, 441.1369
471.7793, 435.7118
472.2614, 430.8061
472.7436, 425.9221
473.2257, 420.5248
473.7078, 414.5752
474.1899, 409.3109
474.6720, 404.8417
475.1541, 400.9259
475.6363, 397.2962
476.1184, 393.9343
476.6005, 390.7405
477.0826, 387.7483
477.5647, 384.8591
478.0468, 381.6141
478.5290, 378.1050
479.0111, 375.1664
479.4932, 374.0207
479.9753, 373.5040
480.4574, 372.0252
480.9395, 368.8643
481.4217, 366.1816
481.9038, 365.6955
482.3859, 366.4756
482.8680, 367.1722
483.3501, 367.3894
483.8322, 367.3957
484.3144, 367.0674
484.7965, 366.4633
485.2786, 366.3361
485.7607, 367.1187
486.2428, 368.1500
486.7249, 369.1546
487.2071, 370.3633
487.6892, 370.9887
488.1713, 370.6900
488.6534, 370.0516
489.1355, 370.0018
489.6176, 370.8574
490.0998, 371.4068
490.5819, 371.4111
491.0640, 370.8906
491.5461, 369.8573
492.0282, 368.2683
492.5103, 366.4992
492.9925, 364.7218
493.4746, 362.9539
493.9567, 361.5345
494.4388, 360.5490
494.9209, 359.4521
495.4030, 357.5249
495.8852, 354.9794
496.3673, 352.2874
496.8494, 349.4955
497.3315, 346.7696
497.8136, 344.3434
498.2957, 342.1286
498.7779, 339.8790
499.2600, 337.5829
499.7421, 335.0894
500.2242, 332.1962
500.7063, 328.7171
501.1884, 325.4618
501.6706, 323.0739
502.1527, 320.8776
502.6348, 318.2304
503.1169, 314.3032
503.5990, 310.8376
504.0811, 308.3576
504.5633, 306.5387
505.0454, 303.9961
505.5275, 300.0983
506.0096, 296.6573
506.4917, 294.6985
506.9738, 294.4210
507.4560, 292.7678
507.9381, 289.3380
508.4202, 285.6089
508.9023, 283.2152
509.3844, 282.0760
509.8665, 280.7480
510.3487, 278.8559
510.8308, 276.8569
511.3129, 275.6627
511.7950, 275.1063
512.2772, 274.4034
512.7593, 272.9730
513.2414, 271.2606
513.7235, 269.7220
514.2056, 268.3717
514.6877, 267.2160
515.1699, 266.4978
515.6520, 265.8493
516.1341, 264.8801
516.6162, 263.2122
517.0983, 261.7843
517.5804, 260.9013
518.0626, 260.4407
518.5447, 260.2028
519.0268, 260.5277
519.5089, 260.6671
519.9910, 260.3422
520.4731, 259.5956
520.9553, 259.1256
521.4374, 259.0215
521.9195, 259.0696
522.4016, 259.2307
522.8837, 259.5949
523.3658, 259.5259
523.8480, 258.8618
524.3301, 258.1069
524.8122, 257.9902
525.2943, 258.4780
525.7764, 259.0032
526.2585, 259.4019
526.7407, 259.7702
527.2228, 260.3557
527.7049, 261.1146
528.1870, 261.7702
528.6691, 261.8363
529.1512, 261.8784
529.6334, 262.7238
530.1155, 264.4620
530.5976, 266.0620
531.0797, 266.7750
531.5618, 267.1194
532.0439, 267.6074
532.5261, 268.5826
533.0082, 269.4013
533.4903, 269.7296
533.9724, 269.8083
534.4545, 270.1685
534.9366, 271.2743
535.4188, 272.1803
535.9009, 272.5855
536.3830, 272.5078
536.8651, 272.6426
537.3472, 273.0231
537.8293, 273.5592
538.3115, 274.1651
538.7936, 274.8268
539.2757, 275.8334
539.7578, 277.3058
540.2399, 278.8088
540.7220, 279.7122
541.2042, 280.0948
541.6863, 280.4485
542.1684, 280.7964
542.6505, 281.3470
543.1326, 282.6319
543.6147, 284.4439
544.0969, 286.0314
544.5790, 286.6302
545.0611, 286.9960
545.5432, 287.6976
546.0253, 288.7807
546.5074, 290.1416
546.9896, 291.8376
547.4717, 293.7260
547.9538, 295.6844
548.4359, 297.3779
548.9180, 299.5853
549.4001, 302.6966
549.8823, 306.2685
550.3644, 309.5060
550.8465, 312.0942
551.3286, 315.0440
551.8107, 318.8223
552.2928, 323.2501
552.7750, 326.6867
553.2571, 328.9271
553.7392, 331.2775
554.2213, 334.6862
554.7034, 338.9658
555.1855, 343.2371
555.6677, 347.4564
556.1498, 351.6815
556.6319, 355.9789
557.1140, 360.2894
557.5961, 364.4042
558.0782, 368.0303
558.5604, 371.8499
559.0425, 376.6579
559.5246, 382.0496
560.0067, 387.1021
560.4888, 391.2421
560.9709, 395.0886
561.4531, 398.8880
561.9352, 402.6682
562.4173, 406.1500
562.8994, 408.9308
563.3815, 411.7033
563.8636, 414.9419
564.3458, 419.1132
564.8279, 422.3720
565.3100, 424.4063
565.7921, 425.9716
566.2742, 428.1260
566.7563, 430.9952
567.2385, 433.3365
567.7206, 434.7961
568.2027, 435.6740
568.6848, 436.4112
569.1669, 437.0492
569.6490, 437.8277
570.1312, 439.1440
570.6133, 440.5669
571.0954, 441.3281
571.5775, 441.4662
572.0596, 441.6757
572.5417, 442.7899
573.0239, 443.9551
573.5060, 444.3221
573.9881, 443.4064
574.4702, 442.6377
574.9523, 442.5717
575.4344, 442.8364
575.9166, 442.9642
576.3987, 442.9422
576.8808, 442.7345
577.3629, 442.0993
577.8450, 441.2994
578.3271, 441.2428
578.8093, 442.1070
579.2914, 443.1577
579.7735, 443.9597
580.2556, 444.6152
580.7377, 446.1475
581.2198, 448.5918
581.7020, 451.4143
582.1841, 454.1499
582.6662, 456.9106
583.1483, 460.1669
583.6304, 464.0400
584.1125, 467.7941
584.5947, 471.0940
585.0768, 473.7714
585.5589, 475.5716
586.0410, 475.9924
586.5231, 476.0114
587.0052, 476.4241
587.4873, 476.7766
587.9694, 475.8409
588.4515, 473.1789
588.9337, 469.3853
589.4158, 464.3156
589.8979, 457.9601
590.3800, 452.1925
590.8621, 447.1754
591.3442, 442.4235
591.8264, 437.5918
592.3085, 432.6051
592.7906, 428.1952
593.2727, 424.3362
593.7548, 421.1556
594.2369, 418.9718
594.7191, 417.5828
595.2012, 416.2183
595.6833, 414.5107
596.1654, 413.0727
596.6475, 412.7036
597.1296, 413.1336
597.6118, 413.7272
598.0939, 414.5405
598.5760, 415.1467
599.0581, 415.3767
599.5402, 415.2177
600.0223, 414.6307
600.5045, 413.3870
600.9866, 411.9140
601.4687, 410.4309
601.9508, 409.0240
602.4329, 407.2004
602.9150, 404.6880
603.3972, 402.1539
603.8793, 400.3099
604.3614, 399.2373
604.8435, 397.7767
605.3256, 395.6877
605.8077, 393.4268
606.2899, 391.8969
606.7720, 390.9047
607.2541, 389.5971
607.7362, 387.3502
608.2183, 384.9449
608.7004, 383.4665
609.1826, 382.6665
609.6647, 381.7370
610.1468, 379.6091
610.6289, 377.7442
611.1110, 377.2610
611.5931, 378.2557
612.0753, 379.0595
612.5574, 379.3668
613.0395, 379.3750
613.5216, 379.1336
614.0037, 378.3041
614.4858, 378.1171
614.9680, 378.7115
615.4501, 379.7553
615.9322, 380.9891
616.4143, 382.4325
616.8964, 383.5172
617.3785, 384.0372
617.8607, 384.3095
618.3428, 384.8964
618.8249, 385.7263
619.3070, 386.5041
619.7891, 387.1844
620.2712, 387.6849
620.7534, 387.7125
621.2355, 387.4146
621.7176, 387.4622
622.1997, 388.6795
622.6818, 389.9405
623.1639, 390.5940
623.6461, 390.5130
624.1282, 390.3495
624.6103, 389.8818
625.0924, 389.5976
625.5745, 389.8164
626.0566, 390.6721
626.5388, 391.7232
627.0209, 393.1247
627.5030, 394.4091
627.9851, 394.7586
628.4672, 394.2199
628.9493, 393.9234
629.4315, 394.2177
629.9136, 394.7143
630.3957, 394.6962
630.8778, 394.3604
631.3599, 394.3005
631.8420, 395.1820
632.3242, 396.1507
632.8063, 396.6437
633.2884, 396.6759
633.7705, 396.4012
634.2526, 396.1666
634.7347, 395.3904
635.2169, 393.7720
635.6990, 391.2705
636.1811, 388.1581
636.6632, 384.3072
637.1453, 379.9853
637.6274, 375.3995
638.1096, 370.4999
638.5917, 365.3400
639.0738, 359.7926
639.5559, 354.2286
640.0380, 349.0956
640.5201, 344.2801
641.0023, 339.3692
641.4844, 334.0367
641.9665, 328.8973
642.4486, 324.5831
642.9307, 320.8338
643.4128, 317.1496
643.8950, 313.0058
644.3771, 309.1404
644.8592, 305.8037
645.3413, 303.0179
645.8234, 300.6703
646.3055, 299.2500
646.7877, 297.8097
647.2698, 296.0904
647.7519, 294.0719
648.2340, 291.8554
648.7161, 289.3178
649.1982, 286.9261
649.6804, 285.1669
650.1625, 283.9554
650.6446, 282.4375
651.1267, 280.5327
651.6088, 278.6469
652.0909, 277.1812
652.5731, 276.0589
653.0552, 275.1362
653.5373, 274.4027
654.0194, 273.8301
654.5015, 273.4753
654.9836, 273.2411
655.4658, 272.9810
655.9479, 273.0983
656.4300, 272.6834
656.9121, 271.1234
657.3942, 268.9142
657.8763, 267.4077
658.3585, 266.7790
658.8406, 266.4237
659.3227, 266.2061
659.8048, 266.0974
660.2869, 265.9861
660.7690, 265.8675
661.2512, 265.7220
661.7333, 265.5636
662.2154, 265.3553
662.6975, 264.9985
663.1796, 264.4919
663.6617, 263.9781
664.1439, 263.5551
664.6260, 263.1714
665.1081, 262.7602
665.5902, 262.2728
666.0723, 261.9259
666.5544, 261.9552
667.0366, 262.0565
667.5187, 261.9388
668.0008, 261.4324
668.4829, 261.1011
668.9650, 261.0781
669.4471, 261.1370
669.9293, 260.8994
670.4114, 260.3640
670.8935, 259.7587
671.3756, 259.0761
671.8577, 258.4560
672.3398, 258.1287
672.8220, 258.0511
673.3041, 258.0860
673.7862, 258.2022
674.2683, 258.3651
674.7504, 257.4424
675.2325, 258.7824
675.7147, 259.5295
676.1968, 259.7155
676.6789, 257.6599
677.1610, 258.4988
677.6431, 258.1778
678.1252, 257.8091
678.6074, 259.0555
679.0895, 257.3259
679.5716, 258.5467
680.0537, 258.5897
680.5358, 259.1717
681.0179, 258.5866
681.5001, 258.3619
681.9822, 259.3049
682.4643, 259.6013
682.9464, 258.8818
683.4285, 259.4981
683.9106, 257.7277
684.3928, 258.0517
684.8749, 259.2793
685.3570, 258.6185
685.8391, 259.2561
686.3212, 259.3992
686.8033, 257.2949
687.2855, 259.0991
687.7676, 259.2130
688.2497, 257.5913
688.7318, 259.2616
689.2139, 257.8792
689.6960, 257.5864
690.1782, 258.1136
690.6603, 257.7860
691.1424, 258.8062
691.6245, 258.5279
692.1066, 258.1337
692.5887, 258.2457
693.0709, 256.9231
693.5530, 258.2620
694.0351, 258.8388
694.5172, 259.5655
694.9993, 259.7837
695.4814, 259.4546
695.9636, 259.0858
696.4457, 258.7060
696.9278, 258.3385
697.4099, 257.9566
697.8920, 257.5174
698.3741, 257.3769
698.8563, 257.5988
699.3384, 257.9217
699.8205, 258.1482
700.3026, 258.2816
700.7847, 258.3346
701.2668, 258.3042
701.7490, 258.2304
702.2311, 258.1456
702.7132, 258.0450
703.1953, 257.8960
703.6774, 257.5800
704.1595, 257.4539
704.6417, 257.9611
705.1238, 258.6319
705.6059, 258.7834
706.0880, 257.9599
706.5701, 257.3163
707.0522, 256.9251
707.5344, 256.7937
708.0165, 257.0433
708.4986, 257.7070
708.9807, 258.2192
709.4628, 258.4202
709.9449, 258.3630
710.4271, 257.9378
710.9092, 257.2916
711.3913, 256.9552
711.8734, 257.7023
712.3555, 258.4396
712.8376, 258.2505
713.3198, 257.3127
713.8019, 256.5687
714.2840, 256.3715
714.7661, 256.3172
715.2482, 256.2176
715.7303, 256.0827
716.2125, 256.3144
716.6946, 257.1060
717.1767, 257.7407
717.6588, 257.6875
718.1409, 257.0540
718.6230, 256.6343
719.1052, 256.4254
719.5873, 256.4041
720.0694, 256.6945
720.5515, 257.0881
721.0336, 257.3229
721.5157, 257.3570
721.9979, 257.3005
722.4800, 257.2701
722.9621, 257.1263
723.4442, 256.6993
723.9263, 255.5719
724.4084, 255.1056
724.8906, 255.7139
725.3727, 256.4896
725.8548, 256.3728
726.3369, 255.2711
726.8190, 254.6903
727.3011, 254.8725
727.7833, 255.3705
728.2654, 255.7065
728.7475, 255.9028
729.2296, 255.9837
729.7117, 255.8557
730.1938, 255.8287
730.6760, 256.3683
731.1581, 257.0790
731.6402, 257.3600
732.1223, 256.5337
732.6044, 255.9410
733.0865, 255.9378
733.5687, 256.2241
734.0508, 256.0506
734.5329, 255.1751
735.0150, 254.9487
735.4971, 256.0192
735.9792, 257.6196
736.4614, 257.9048
736.9435, 257.0864
737.4256, 256.2525
737.9077, 255.9524
738.3898, 255.8702
738.8719, 255.7592
739.3541, 255.6286
739.8362, 255.5163
740.3183, 255.3584
740.8004, 255.2941
741.2825, 255.4168
741.7646, 255.6991
742.2468, 255.9527
742.7289, 256.1946
743.2110, 256.3534
743.6931, 256.3270
744.1752, 256.1791
744.6573, 256.3536
745.1395, 256.8385
745.6216, 257.2575
746.1037, 257.3411
746.5858, 257.2110
747.0679, 256.9247
747.5500, 256.5031
748.0322, 256.2374
748.5143, 256.3965
748.9964, 256.6467
749.4785, 256.7527
749.9606, 256.6317
750.4427, 256.7927
750.9249, 257.4904
751.4070, 258.0431
751.8891, 257.7879
752.3712, 256.7444
752.8533, 256.4176
753.3354, 256.9142
753.8176, 257.4600
754.2997, 257.1965
754.7818, 256.5563
755.2639, 256.2077
755.7460, 256.2839
756.2281, 256.4766
756.7103, 256.7439
757.1924, 256.9878
757.6745, 257.0988
758.1566, 256.8454
758.6387, 256.9402
759.1208, 257.6611
759.6030, 258.3923
760.0851, 258.3978
760.5672, 257.6453
761.0493, 257.1043
761.5314, 256.8874
762.0135, 256.8593
762.4957, 256.8019
762.9778, 256.8256
763.4599, 257.2527
763.9420, 258.4911
764.4241, 259.3076
764.9063, 258.5482
765.3884, 257.1765
765.8705, 256.3750
766.3526, 256.6010
766.8347, 257.0374
767.3168, 257.8666
767.7990, 258.7050
768.2811, 258.8215
768.7632, 258.1628
769.2453, 257.9677
769.7274, 258.6114
770.2095, 259.4932
770.6917, 259.8753
771.1738, 259.8333
771.6559, 259.5076
772.1380, 258.6629
772.6201, 257.9494
773.1022, 257.6614
773.5844, 257.7497
774.0665, 258.1550
774.5486, 259.3628
775.0307, 260.1470
775.5128, 260.2413
775.9949, 259.9083
776.4771, 259.6960
776.9592, 259.6073
777.4413, 259.5832
777.9234, 259.6738
778.4055, 259.7154
778.8876, 259.1983
779.3698, 258.4197
779.8519, 258.1422
780.3340, 259.5186
780.8161, 260.6386
781.2982, 260.2575
781.7803, 258.9435
782.2625, 258.2424
782.7446, 258.2996
783.2267, 258.9427
783.7088, 260.4559
784.1909, 262.3609
784.6730, 263.1788
785.1552, 262.9233
785.6373, 262.6684
786.1194, 262.9013
786.6015, 263.2889
787.0836, 263.2965
787.5657, 263.0495
788.0479, 262.8959
788.5300, 263.1065
789.0121, 263.3339
789.4942, 263.3766
789.9763, 263.3012
790.4584, 263.4000
790.9406, 263.8501
791.4227, 264.1163
791.9048, 263.9670
792.3869, 263.5758
792.8690, 263.4789
793.3511, 263.6689
793.8333, 264.0483
794.3154, 264.8286
794.7975, 265.5574
795.2796, 265.4948
795.7617, 264.8833
796.2438, 264.4967
796.7260, 264.9913
797.2081, 265.4168
797.6902, 265.2155
798.1723, 264.6174
798.6544, 264.5512
799.1365, 265.1688
799.6187, 265.9503
800.1008, 266.8515
800.5829, 267.7189
801.0650, 268.0075
801.5471, 267.7859
802.0292, 267.5061
802.5114, 267.2247
802.9935, 267.1371
803.4756, 267.5858
803.9577, 268.4029
804.4398, 269.0262
804.9219, 268.9559
805.4041, 269.0483
805.8862, 269.7016
806.3683, 270.7129
806.8504, 271.2037
807.3325, 271.0833
807.8146, 270.8543
808.2968, 270.5266
808.7789, 270.3631
809.2610, 271.2887
809.7431, 273.0022
810.2252, 274.2738
810.7073, 274.0889
811.1895, 273.6025
811.6716, 273.4384
812.1537, 273.5705
812.6358, 273.8598
813.1179, 274.6268
813.6000, 275.0502
814.0822, 274.7085
814.5643, 273.9590
815.0464, 274.2131
815.5285, 275.4868
816.0106, 276.7660
816.4927, 277.6911
816.9749, 278.3302
817.4570, 278.5754
817.9391, 278.5984
818.4212, 278.9027
818.9033, 280.1757
819.3854, 281.2869
819.8676, 281.5900
820.3497, 281.3336
820.8318, 281.3975
821.3139, 281.8839
821.7960, 282.4415
822.2781, 282.9917
822.7603, 283.5484
823.2424, 284.1166
823.7245, 284.7256
824.2066, 285.5713
824.6887, 287.0222
825.1708, 288.3940
825.6530, 289.0541
826.1351, 289.1752
826.6172, 289.1278
827.0993, 288.4691
827.5814, 288.3706
828.0635, 289.3090
828.5457, 290.8136
829.0278, 291.9235
829.5099, 292.5847
829.9920, 293.1747
830.4741, 293.7456
830.9562, 294.3676
831.4384, 295.2721
831.9205, 296.3230
832.4026, 297.1729
832.8847, 297.5974
833.3668, 297.9414
833.8489, 298.2286
834.3311, 298.5862
834.8132, 299.2834
835.2953, 300.7790
835.7774, 301.6760
836.2595, 301.5875
836.7416, 301.1434
837.2238, 301.4282
837.7059, 302.3607
838.1880, 303.1238
838.6701, 303.4680
839.1522, 303.8166
839.6343, 304.6996
840.1165, 305.8322
840.5986, 306.8069
841.0807, 307.5763
841.5628, 308.0741
842.0449, 308.1289
842.5270, 308.0125
843.0092, 307.9191
843.4913, 307.7828
843.9734, 308.0906
844.4555, 308.9429
844.9376, 310.0320
845.4197, 311.0765
845.9019, 312.0670
846.3840, 313.0420
846.8661, 314.0515
847.3482, 314.8379
847.8303, 314.9507
848.3124, 314.9613
848.7946, 315.4259
849.2767, 316.6182
849.7588, 317.6459
850.2409, 318.5399
850.7230, 319.2079
851.2051, 319.2991
851.6873, 318.9885
852.1694, 319.6274
852.6515, 321.3377
853.1336, 323.0484
853.6157, 323.8625
854.0978, 324.2681
854.5800, 324.6939
855.0621, 325.1802
855.5442, 325.7988
856.0263, 326.7515
856.5084, 327.6397
856.9905, 328.2371
857.4727, 328.5446
857.9548, 328.9474
858.4369, 329.4572
858.9190, 330.0034
859.4011, 330.7255
859.8832, 331.3767
860.3654, 331.2711
860.8475, 330.5466
861.3296, 330.3925
861.8117, 331.8177
862.2938, 333.5054
862.7759, 334.9417
863.2581, 336.1070
863.7402, 336.9162
864.2223, 337.2741
864.7044, 337.5636
865.1865, 337.8923
865.6686, 338.2935
866.1508, 338.8307
866.6329, 339.5085
867.1150, 340.3322
867.5971, 341.6191
868.0792, 342.7441
868.5613, 343.2314
869.0435, 343.2515
869.5256, 343.3034
870.0077, 343.2247
870.4898, 343.5704
870.9719, 344.5714
871.4540, 345.9338
871.9362, 347.0460
872.4183, 347.9304
872.9004, 348.7479
873.3825, 349.5398
873.8646, 350.3067
874.3467, 351.0221
874.8289, 351.7247
875.3110, 352.4634
875.7931, 353.1366
876.2752, 353.9960
876.7573, 354.9954
877.2394, 356.2240
877.7216, 357.8477
878.2037, 359.8781
878.6858, 362.0353
879.1679, 364.3359
879.6500, 366.5458
880.1321, 368.4292
880.6143, 370.0843
881.0964, 371.5219
881.5785, 372.5802
882.0606, 374.2188
882.5427, 377.2854
883.0248, 380.6759
883.5070, 383.5936
883.9891, 385.9678
884.4712, 388.2825
884.9533, 390.4214
885.4354, 392.9765
885.9175, 396.7780
886.3997, 401.2191
886.8818, 404.7711
887.3639, 407.4916
887.8460, 410.7371
888.3281, 415.7215
888.8102, 420.9528
889.2924, 425.6466
889.7745, 429.8025
890.2566, 433.7437
890.7387, 437.3567
891.2208, 441.0301
891.7029, 445.0054
892.1851, 449.1313
892.6672, 452.9702
893.1493, 456.6660
893.6314, 460.7282
894.1135, 466.0506
894.5956, 471.2492
895.0778, 475.1245
895.5599, 478.3296
896.0420, 482.4796
896.5241, 488.1036
897.0062, 493.7788
897.4883, 499.2603
897.9705, 504.6472
898.4526, 509.8278
898.9347, 514.9345
899.4168, 520.4965
899.8989, 526.6079
900.3810, 533.4852
900.8632, 541.7296
901.3453, 550.6926
901.8274, 559.7977
902.3095, 568.6023
902.7916, 577.7845
903.2737, 587.1328
903.7559, 597.3093
904.2380, 609.0169
904.7201, 622.2448
905.2022, 636.1428
905.6843, 650.4969
906.1664, 665.1810
906.6486, 679.8851
907.1307, 694.7009
907.6128, 709.9486
908.0949, 725.6076
908.5770, 741.2270
909.0591, 756.5297
909.5413, 772.1608
910.0234, 788.6885
910.5055, 805.8138
910.9876, 821.5659
911.4697, 835.9934
911.9518, 849.9149
912.4340, 864.7377
912.9161, 878.5892
913.3982, 889.3009
913.8803, 897.2587
914.3624, 903.3943
914.8445, 908.8547
915.3267, 911.1541
915.8088, 909.7712
916.2909, 905.1550
916.7730, 898.1530
917.2551, 888.7145
917.7372, 876.7001
918.2194, 861.9041
918.7015, 844.8812
919.1836, 825.8943
919.6657, 805.1981
920.1478, 782.9995
920.6299, 758.3952
921.1121, 734.1746
921.5942, 710.4108
922.0763, 687.0114
922.5584, 663.6510
923.0405, 640.2772
923.5226, 618.5250
924.0048, 598.5511
924.4869, 580.0092
924.9690, 562.2810
925.4511, 545.7718
925.9332, 531.1838
926.4153, 518.4615
926.8975, 507.1219
927.3796, 496.9943
927.8617, 488.3793
928.3438, 481.3988
928.8259, 475.9671
929.3080, 471.6445
929.7902, 468.4007
930.2723, 465.6627
930.7544, 462.9726
931.2365, 460.9479
931.7186, 460.4715
932.2007, 461.2142
932.6829, 462.4920
933.1650, 463.9237
933.6471, 466.1870
934.1292, 469.3458
934.6113, 473.3096
935.0934, 477.8560
935.5756, 483.0255
936.0577, 488.9926
936.5398, 495.6656
937.0219, 503.3991
937.5040, 512.4871
937.9861, 522.7552
938.4683, 533.7289
938.9504, 545.0685
939.4325, 558.4487
939.9146, 574.0211
940.3967, 591.3491
940.8788, 610.3875
941.3610, 631.0795
941.8431, 653.2978
942.3252, 677.2428
942.8073, 703.6569
943.2894, 732.7781
943.7715, 764.3511
944.2537, 798.5638
944.7358, 835.2003
945.2179, 873.9388
945.7000, 914.9893
946.1821, 957.7785
946.6642, 1002.691
947.1464, 1049.614
947.6285, 1097.689
948.1106, 1147.228
948.5927, 1199.347
949.0748, 1254.611
949.5569, 1311.595
950.0391, 1369.497
950.5212, 1428.419
951.0033, 1487.957
951.4854, 1549.559
951.9675, 1609.238
952.4496, 1667.631
952.9318, 1722.813
953.4139, 1775.195
953.8960, 1823.536
954.3781, 1861.094
954.8602, 1887.436
955.3423, 1903.202
955.8245, 1909.877
956.3066, 1905.059
956.7887, 1886.205
957.2708, 1853.319
957.7529, 1811.114
958.2350, 1758.650
958.7172, 1699.383
959.1993, 1632.535
959.6814, 1560.746
960.1635, 1489.393
960.6456, 1418.590
961.1277, 1349.409
961.6099, 1281.143
962.0920, 1216.252
962.5741, 1155.475
963.0562, 1099.029
963.5383, 1047.984
964.0204, 1002.237
964.5026, 960.7308
964.9847, 923.9562
965.4668, 890.9375
965.9489, 860.3604
966.4310, 833.3558
966.9131, 811.6435
967.3953, 795.2717
967.8774, 780.8871
968.3595, 765.5531
968.8416, 753.4073
969.3237, 747.0999
969.8058, 745.6974
970.2880, 745.6871
970.7701, 747.0886
971.2522, 749.7026
971.7343, 753.4285
972.2164, 758.4129
972.6985, 765.3160
973.1807, 773.6383
973.6628, 782.2972
974.1449, 790.6810
974.6270, 800.1286
975.1091, 812.3985
975.5912, 824.5605
976.0734, 833.5771
976.5555, 839.3397
977.0376, 846.4890
977.5197, 855.2461
978.0018, 863.5940
978.4839, 869.8264
978.9661, 874.9604
979.4482, 880.0195
979.9303, 885.0597
980.4124, 889.5255
980.8945, 893.3972
981.3766, 896.7047
981.8588, 899.3574
982.3409, 901.5613
982.8230, 903.5714
983.3051, 905.5535
983.7872, 908.5135
984.2693, 913.3583
984.7515, 918.1882
985.2336, 921.4147
985.7157, 923.9421
986.1978, 927.0436
986.6799, 931.7996
987.1620, 934.8506
987.6442, 936.0794
988.1263, 935.9003
988.6084, 934.9724
989.0905, 932.8538
989.5726, 928.2596
990.0547, 921.2474
990.5369, 913.1552
991.0190, 904.7302
991.5011, 895.3303
991.9832, 884.1429
992.4653, 871.8048
992.9474, 860.0610
993.4296, 849.1042
993.9117, 837.7887
994.3938, 825.5433
994.8759, 813.3527
995.3580, 802.4937
995.8401, 792.6697
996.3223, 782.9019
996.8044, 772.0153
997.2865, 763.3937
997.7686, 758.6523
998.2507, 754.6869
998.7328, 748.8674
999.2150, 741.3836
999.6971, 735.5401
1000.179, 731.4352
1000.661, 728.2932
1001.143, 726.2872
1001.626, 724.4705
1002.108, 722.2781
1002.590, 719.6497
1003.072, 716.3387
1003.554, 712.3965
1004.036, 707.7839
1004.518, 702.2959
1005.000, 696.5799
1005.482, 692.0943
1005.965, 688.3118
1006.447, 683.9155
1006.929, 678.4808
1007.411, 672.8883
1007.893, 667.3320
1008.375, 661.9010
1008.857, 656.5777
1009.339, 651.2874
1009.822, 646.5518
1010.304, 642.3855
1010.786, 638.7489
1011.268, 635.9735
1011.750, 633.5744
1012.232, 630.6811
1012.714, 627.6281
1013.196, 625.3476
1013.678, 625.3726
1014.161, 624.3845
1014.643, 621.3467
1015.125, 617.8164
1015.607, 616.3558
1016.089, 616.5877
1016.571, 616.1496
1017.053, 614.6824
1017.535, 612.8030
1018.018, 611.2865
1018.500, 609.3231
1018.982, 606.0491
1019.464, 601.3959
1019.946, 597.0100
1020.428, 592.9871
1020.910, 588.9041
1021.392, 584.5847
1021.874, 580.0721
1022.357, 575.5388
1022.839, 570.9181
1023.321, 566.0886
1023.803, 560.7228
1024.285, 555.5436
1024.767, 550.9344
1025.249, 546.3674
1025.731, 541.1037
1026.214, 535.0978
1026.696, 530.8015
1027.178, 528.3546
1027.660, 526.2051
1028.142, 522.7253
1028.624, 519.2988
1029.106, 517.5367
1029.588, 517.2042
1030.070, 515.7191
1030.553, 512.0916
1031.035, 509.3217
1031.517, 508.2587
1031.999, 508.1935
1032.481, 507.9532
1032.963, 507.6516
1033.445, 507.6621
1033.927, 508.2437
1034.410, 508.4930
1034.892, 507.3800
1035.374, 506.3233
1035.856, 506.3358
1036.338, 507.4376
1036.820, 508.5983
1037.302, 509.8083
1037.784, 510.7010
1038.266, 511.0934
1038.749, 511.0151
1039.231, 510.1386
1039.713, 508.8381
1040.195, 508.0543
1040.677, 508.5552
1041.159, 508.4593
1041.641, 507.4117
1042.123, 506.1167
1042.605, 505.5314
1043.088, 505.3794
1043.570, 504.9943
1044.052, 504.3032
1044.534, 503.0695
1045.016, 500.6076
1045.498, 498.1300
1045.980, 496.3420
1046.462, 495.0807
1046.945, 493.7199
1047.427, 492.2674
1047.909, 490.1216
1048.391, 486.7798
1048.873, 483.4540
1049.355, 481.6160
1049.837, 480.5032
1050.319, 479.0924
1050.802, 477.1304
1051.284, 474.8038
1051.766, 471.6935
1052.248, 469.2339
1052.730, 468.8385
1053.212, 469.8659
1053.694, 470.5886
1054.176, 470.9489
1054.658, 470.7380
1055.141, 469.3880
1055.623, 467.9759
1056.105, 466.8487
1056.587, 465.8961
1057.069, 465.0115
1057.551, 464.1998
1058.033, 463.1639
1058.515, 461.8283
1058.997, 460.5878
1059.480, 459.7245
1059.962, 459.1635
1060.444, 458.9106
1060.926, 458.9722
1061.408, 458.9926
1061.890, 459.0020
1062.372, 458.8641
1062.854, 458.5191
1063.337, 458.0289
1063.819, 457.5108
1064.301, 456.9462
1064.783, 456.2760
1065.265, 455.3917
1065.747, 454.6255
1066.229, 454.0714
1066.711, 453.6727
1067.193, 453.5179
1067.676, 453.5691
1068.158, 452.9367
1068.640, 451.6636
1069.122, 450.4618
1069.604, 449.9674
1070.086, 449.4734
1070.568, 448.4946
1071.050, 447.1470
1071.532, 445.7360
1072.015, 444.2590
1072.497, 442.6975
1072.979, 440.9874
1073.461, 439.4116
1073.943, 438.4313
1074.425, 437.6876
1074.907, 436.7810
1075.389, 435.6653
1075.872, 434.0357
1076.354, 431.2049
1076.836, 428.7564
1077.318, 427.2166
1077.800, 426.2398
1078.282, 425.1452
1078.764, 423.8996
1079.246, 422.3423
1079.729, 420.3305
1080.211, 418.3024
1080.693, 416.2571
1081.175, 414.4988
1081.657, 413.4284
1082.139, 413.0396
1082.621, 411.6768
1083.103, 409.3080
1083.585, 407.2815
1084.068, 406.7989
1084.550, 406.4795
1085.032, 404.7081
1085.514, 402.2391
1085.996, 400.5163
1086.478, 400.2695
1086.960, 399.4513
1087.442, 397.8485
1087.924, 396.1461
1088.406, 395.0767
1088.889, 394.3177
1089.371, 393.2730
1089.853, 391.9415
1090.335, 390.5097
1090.817, 388.9635
1091.299, 387.4106
1091.781, 385.7383
1092.263, 384.2170
1092.746, 383.3788
1093.228, 383.1501
1093.710, 383.3910
1094.192, 384.1676
1094.674, 384.4820
1095.156, 383.2042
1095.638, 381.6589
1096.120, 380.7666
1096.603, 380.4359
1097.085, 379.8416
1097.567, 378.9546
1098.049, 378.5197
1098.531, 379.0214
1099.013, 379.6266
1099.495, 379.4228
1099.977, 378.8175
1100.459, 378.3749
1100.942, 378.4113
1101.424, 377.8234
1101.906, 376.4550
1102.388, 374.9695
1102.870, 373.7173
1103.352, 372.6701
1103.834, 371.8221
1104.316, 371.1204
1104.798, 370.4381
1105.281, 369.7665
1105.763, 369.0419
1106.245, 368.2141
1106.727, 367.4036
1107.209, 366.8512
1107.691, 366.4517
1108.173, 365.6944
1108.655, 364.5818
1109.138, 363.6480
1109.620, 363.2464
1110.102, 363.0397
1110.584, 363.1016
1111.066, 363.1411
1111.548, 362.3387
1112.030, 360.7119
1112.512, 359.6728
1112.995, 359.5244
1113.477, 359.5731
1113.959, 359.3144
1114.441, 358.9059
1114.923, 358.4420
1115.405, 357.9340
1115.887, 357.4464
1116.369, 356.9204
1116.851, 356.7670
1117.333, 357.2859
1117.816, 357.9218
1118.298, 357.9927
1118.780, 357.6791
1119.262, 357.1917
1119.744, 356.4178
1120.226, 356.0148
1120.708, 356.1718
1121.190, 356.2765
1121.673, 355.7330
1122.155, 355.0220
1122.637, 355.4997
1123.119, 356.7701
1123.601, 357.7373
1124.083, 357.9340
1124.565, 357.8139
1125.047, 357.3090
1125.530, 356.7369
1126.012, 356.2646
1126.494, 355.9565
1126.976, 356.3328
1127.458, 357.3233
1127.940, 358.2205
1128.422, 358.3842
1128.904, 358.6387
1129.386, 359.5769
1129.869, 360.6932
1130.351, 361.1173
1130.833, 360.8623
1131.315, 360.7954
1131.797, 361.0164
1132.279, 361.4015
1132.761, 361.8523
1133.243, 362.4256
1133.725, 363.2535
1134.208, 364.2551
1134.690, 365.0796
1135.172, 365.7205
1135.654, 366.2102
1136.136, 366.5031
1136.618, 366.8782
1137.100, 367.6755
1137.582, 368.7053
1138.065, 369.8321
1138.547, 371.0621
1139.029, 371.9797
1139.511, 372.4785
1139.993, 373.0224
1140.475, 373.7843
1140.957, 374.7046
1141.439, 375.7381
1141.922, 376.8523
1142.404, 378.0626
1142.886, 379.5768
1143.368, 380.5204
1143.850, 380.6140
1144.332, 380.6122
1144.814, 381.0251
1145.296, 381.6461
1145.778, 381.8825
1146.260, 381.8708
1146.743, 382.0181
1147.225, 382.8502
1147.707, 383.3289
1148.189, 383.2386
1148.671, 382.8820
1149.153, 382.5498
1149.635, 382.1900
1150.117, 381.4266
1150.600, 380.3196
1151.082, 379.3326
1151.564, 378.8023
1152.046, 378.3156
1152.528, 377.7599
1153.010, 377.1527
1153.492, 376.5526
1153.974, 375.9457
1154.457, 375.0582
1154.939, 373.8808
1155.421, 372.7333
1155.903, 371.7143
1156.385, 370.9066
1156.867, 370.5405
1157.349, 370.3726
1157.831, 369.8193
1158.313, 368.8668
1158.796, 368.1313
1159.278, 367.7338
1159.760, 367.3540
1160.242, 366.7489
1160.724, 366.0257
1161.206, 365.2877
1161.688, 364.5169
1162.170, 363.4928
1162.652, 362.1605
1163.135, 361.2071
1163.617, 360.9770
1164.099, 360.6656
1164.581, 359.2613
1165.063, 357.4274
1165.545, 355.8072
1166.027, 354.4798
1166.509, 353.5260
1166.992, 353.0597
1167.474, 352.2783
1167.956, 350.7451
1168.438, 348.9332
1168.920, 347.2780
1169.402, 345.8033
1169.884, 344.5183
1170.366, 343.4561
1170.849, 342.5893
1171.331, 341.9649
1171.813, 341.3918
1172.295, 340.9187
1172.777, 340.2743
1173.259, 338.8370
1173.741, 336.9267
1174.223, 335.2015
1174.705, 333.7863
1175.188, 332.6866
1175.670, 331.9984
1176.152, 331.3405
1176.634, 330.3055
1177.116, 329.1495
1177.598, 328.4684
1178.080, 328.0768
1178.562, 327.4039
1179.044, 325.6032
1179.527, 324.5784
1180.009, 324.7351
1180.491, 325.1207
1180.973, 324.8101
1181.455, 324.0398
1181.937, 323.3516
1182.419, 322.7344
1182.901, 321.9885
1183.384, 320.7169
1183.866, 319.8257
1184.348, 319.5921
1184.830, 319.5544
1185.312, 318.9996
1185.794, 318.2090
1186.276, 318.0817
1186.758, 318.5981
1187.240, 318.8160
1187.723, 317.9922
1188.205, 317.2297
1188.687, 316.7067
1189.169, 316.4770
1189.651, 316.8311
1190.133, 317.5341
1190.615, 317.8733
1191.097, 317.7509
1191.579, 317.3985
1192.062, 316.3726
1192.544, 315.8705
1193.026, 316.5638
1193.508, 317.7081
1193.990, 317.6069
1194.472, 316.5539
1194.954, 315.4554
1195.436, 314.4228
1195.919, 313.8766
1196.401, 314.4128
1196.883, 315.0540
1197.365, 315.5443
1197.847, 315.7540
1198.329, 315.0580
1198.811, 313.7155
1199.293, 312.7242
1199.776, 312.3554
1200.258, 312.2003
1200.740, 312.1090
1201.222, 312.1630
1201.704, 312.5037
1202.186, 312.9740
1202.668, 312.7564
1203.150, 312.0746
1203.632, 311.9115
1204.115, 312.8569
1204.597, 313.5424
1205.079, 313.1196
1205.561, 312.4402
1206.043, 311.9097
1206.525, 311.5519
1207.007, 311.6164
1207.489, 312.0153
1207.971, 312.3373
1208.454, 312.2842
1208.936, 312.4015
1209.418, 313.1593
1209.900, 313.9416
1210.382, 314.4037
1210.864, 314.5428
1211.346, 314.1668
1211.828, 313.3873
1212.311, 312.7599
1212.793, 312.3582
1213.275, 312.4163
1213.757, 313.3597
1214.239, 314.4740
1214.721, 315.2890
1215.203, 315.8130
1215.685, 316.1165
1216.167, 316.1957
1216.650, 316.0381
1217.132, 315.5136
1217.614, 314.8994
1218.096, 313.9837
1218.578, 313.3283
1219.060, 313.7279
1219.542, 314.9253
1220.024, 315.0313
1220.506, 314.1935
1220.989, 313.4139
1221.471, 313.0465
1221.953, 313.0132
1222.435, 313.4154
1222.917, 313.9721
1223.399, 314.5141
1223.881, 314.9776
1224.363, 314.8736
1224.846, 314.3027
1225.328, 313.9600
1225.810, 314.4707
1226.292, 314.8600
1226.774, 314.7983
1227.256, 314.6430
1227.738, 314.9205
1228.220, 315.4519
1228.703, 315.4535
1229.185, 314.9932
1229.667, 314.8247
1230.149, 315.8482
1230.631, 316.3881
1231.113, 315.8207
1231.595, 315.0377
1232.077, 315.4061
1232.559, 316.4297
1233.042, 316.6336
1233.524, 316.0129
1234.006, 315.4243
1234.488, 315.1010
1234.970, 315.0694
1235.452, 315.4832
1235.934, 315.9090
1236.416, 315.5014
1236.898, 314.7485
1237.381, 314.9756
1237.863, 316.1455
1238.345, 316.8171
1238.827, 316.1261
1239.309, 315.4473
1239.791, 314.9173
1240.273, 314.6692
1240.755, 315.1105
1241.238, 315.8589
1241.720, 316.2227
1242.202, 316.1548
1242.684, 315.8755
1243.166, 315.1319
1243.648, 314.8558
1244.130, 315.3510
1244.612, 316.0038
1245.094, 315.8799
1245.577, 315.4552
1246.059, 315.4475
1246.541, 315.8966
1247.023, 316.4357
1247.505, 317.1815
1247.987, 317.5159
1248.469, 317.2433
1248.951, 316.7484
1249.433, 316.3379
1249.916, 316.1025
1250.398, 316.2349
1250.880, 316.7243
1251.362, 317.0728
1251.844, 317.2259
1252.326, 317.4375
1252.808, 317.7946
1253.290, 318.0963
1253.773, 318.2159
1254.255, 318.1083
1254.737, 317.5563
1255.219, 316.6495
1255.701, 316.2817
1256.183, 316.5308
1256.665, 316.6157
1257.147, 316.3269
1257.630, 316.0284
1258.112, 316.1172
1258.594, 316.2936
1259.076, 316.2133
1259.558, 315.9868
1260.040, 316.2282
1260.522, 316.9269
1261.004, 317.3302
1261.486, 317.2296
1261.969, 317.1082
1262.451, 317.3946
1262.933, 317.7227
1263.415, 317.8513
1263.897, 317.8265
1264.379, 317.8323
1264.861, 317.8445
1265.343, 317.6136
1265.825, 317.0347
1266.308, 316.6513
1266.790, 316.9616
1267.272, 317.3720
1267.754, 317.6644
1268.236, 317.7909
1268.718, 317.4853
1269.200, 316.8983
1269.682, 316.5623
1270.165, 316.5811
1270.647, 316.8149
1271.129, 317.4220
1271.611, 317.9840
1272.093, 318.4268
1272.575, 318.6764
1273.057, 318.4245
1273.539, 317.9121
1274.021, 317.7012
1274.504, 317.9070
1274.986, 318.1244
1275.468, 318.3300
1275.950, 318.3839
1276.432, 318.1340
1276.914, 317.9564
1277.396, 318.7392
1277.878, 319.8347
1278.360, 320.1906
1278.843, 319.6256
1279.325, 319.1386
1279.807, 318.5897
1280.289, 319.0121
1280.771, 321.0022
1281.253, 323.0716
1281.735, 323.6536
1282.217, 323.2101
1282.700, 321.8541
1283.182, 319.7437
1283.664, 318.7958
1284.146, 319.0982
1284.628, 319.5507
1285.110, 319.9081
1285.592, 320.2132
1286.074, 320.5036
1286.557, 320.7584
1287.039, 321.0656
1287.521, 321.3138
1288.003, 320.9067
1288.485, 319.9220
1288.967, 319.2982
1289.449, 319.2546
1289.931, 319.4811
1290.413, 319.9789
1290.896, 320.5025
1291.378, 320.9639
1291.860, 321.3439
1292.342, 321.5791
1292.824, 321.6880
1293.306, 321.7770
1293.788, 321.8810
1294.270, 321.7176
1294.752, 320.6635
1295.235, 320.0332
1295.717, 320.2719
1296.199, 320.9486
1296.681, 321.4112
1297.163, 321.7362
1297.645, 322.1628
1298.127, 322.7184
1298.609, 322.6523
1299.092, 321.5628
1299.574, 320.7515
1300.056, 320.5156
1300.538, 320.6843
1301.020, 321.5087
1301.502, 322.3138
1301.984, 322.0817
1302.466, 320.8997
1302.948, 320.5385
1303.431, 321.1499
1303.913, 321.5871
1304.395, 321.7042
1304.877, 321.3090
##END=



