##NAMES=Sanbornite
##RRUFFID=R060489
##IDEAL CHEMISTRY=BaSi_2_O_5_
##LOCALITY=Big Creek, Fresno County, California, USA
##OWNER=RRUFF
##SOURCE=Michael Scott
##DESCRIPTION=Colorless cleavage plate
##STATUS=The identification of this mineral has been confirmed by X-ray diffraction and chemical analysis
##URL=rruff.info/R060489
##MEASURED CHEMISTRY=Ba_1.00_Si_1.97_O_5_
8.930109e+001, 0.000000e+000
8.978320e+001, 3.878402e+001
9.026532e+001, 3.782070e+001
9.074744e+001, 3.770592e+001
9.122955e+001, 3.872867e+001
9.171167e+001, 4.022573e+001
9.219379e+001, 4.163422e+001
9.267590e+001, 4.293137e+001
9.315802e+001, 4.372767e+001
9.364014e+001, 4.337014e+001
9.412225e+001, 4.225296e+001
9.460437e+001, 4.148739e+001
9.508649e+001, 4.147283e+001
9.556860e+001, 4.188921e+001
9.605072e+001, 4.201344e+001
9.653284e+001, 4.186065e+001
9.701495e+001, 4.168391e+001
9.749707e+001, 4.149052e+001
9.797919e+001, 4.127972e+001
9.846130e+001, 4.179329e+001
9.894342e+001, 4.334851e+001
9.942554e+001, 4.587086e+001
9.990765e+001, 4.832162e+001
1.003898e+002, 5.037300e+001
1.008719e+002, 5.296269e+001
1.013540e+002, 5.706826e+001
1.018361e+002, 6.226051e+001
1.023182e+002, 7.010970e+001
1.028004e+002, 8.172615e+001
1.032825e+002, 9.790417e+001
1.037646e+002, 1.142651e+002
1.042467e+002, 1.337085e+002
1.047288e+002, 1.521209e+002
1.052109e+002, 1.590328e+002
1.056931e+002, 1.506495e+002
1.061752e+002, 1.374769e+002
1.066573e+002, 1.236521e+002
1.071394e+002, 1.070637e+002
1.076215e+002, 9.346851e+001
1.081036e+002, 8.360232e+001
1.085858e+002, 7.695234e+001
1.090679e+002, 7.110198e+001
1.095500e+002, 6.539072e+001
1.100321e+002, 6.084636e+001
1.105142e+002, 5.803420e+001
1.109963e+002, 5.796082e+001
1.114785e+002, 5.838257e+001
1.119606e+002, 5.922647e+001
1.124427e+002, 6.046679e+001
1.129248e+002, 6.163750e+001
1.134069e+002, 6.272057e+001
1.138890e+002, 6.368922e+001
1.143712e+002, 6.453423e+001
1.148533e+002, 6.464099e+001
1.153354e+002, 6.517338e+001
1.158175e+002, 6.658522e+001
1.162996e+002, 6.896059e+001
1.167817e+002, 7.157198e+001
1.172639e+002, 7.400464e+001
1.177460e+002, 7.657819e+001
1.182281e+002, 7.969901e+001
1.187102e+002, 8.397141e+001
1.191923e+002, 8.852256e+001
1.196744e+002, 9.292424e+001
1.201566e+002, 9.721497e+001
1.206387e+002, 1.010094e+002
1.211208e+002, 1.041643e+002
1.216029e+002, 1.066390e+002
1.220850e+002, 1.083069e+002
1.225671e+002, 1.092989e+002
1.230493e+002, 1.093677e+002
1.235314e+002, 1.082002e+002
1.240135e+002, 1.056268e+002
1.244956e+002, 1.020851e+002
1.249777e+002, 9.774068e+001
1.254598e+002, 9.270284e+001
1.259420e+002, 8.745634e+001
1.264241e+002, 8.179731e+001
1.269062e+002, 7.619951e+001
1.273883e+002, 7.155500e+001
1.278704e+002, 6.814938e+001
1.283525e+002, 6.564140e+001
1.288347e+002, 6.366449e+001
1.293168e+002, 6.220010e+001
1.297989e+002, 6.104178e+001
1.302810e+002, 5.996426e+001
1.307631e+002, 5.902958e+001
1.312452e+002, 5.847999e+001
1.317274e+002, 5.851453e+001
1.322095e+002, 5.891003e+001
1.326916e+002, 5.895443e+001
1.331737e+002, 5.857721e+001
1.336558e+002, 5.835918e+001
1.341379e+002, 5.903377e+001
1.346201e+002, 6.058627e+001
1.351022e+002, 6.200723e+001
1.355843e+002, 6.288201e+001
1.360664e+002, 6.332244e+001
1.365485e+002, 6.410918e+001
1.370306e+002, 6.524155e+001
1.375128e+002, 6.674362e+001
1.379949e+002, 6.865284e+001
1.384770e+002, 7.096147e+001
1.389591e+002, 7.377343e+001
1.394412e+002, 7.722887e+001
1.399233e+002, 8.133292e+001
1.404055e+002, 8.553271e+001
1.408876e+002, 8.970918e+001
1.413697e+002, 9.412563e+001
1.418518e+002, 9.915535e+001
1.423339e+002, 1.046088e+002
1.428160e+002, 1.110275e+002
1.432982e+002, 1.186169e+002
1.437803e+002, 1.273073e+002
1.442624e+002, 1.371165e+002
1.447445e+002, 1.475872e+002
1.452266e+002, 1.593681e+002
1.457087e+002, 1.734207e+002
1.461909e+002, 1.905711e+002
1.466730e+002, 2.092122e+002
1.471551e+002, 2.291803e+002
1.476372e+002, 2.524560e+002
1.481193e+002, 2.735097e+002
1.486014e+002, 2.941814e+002
1.490836e+002, 3.129026e+002
1.495657e+002, 3.249640e+002
1.500478e+002, 3.309107e+002
1.505299e+002, 3.295674e+002
1.510120e+002, 3.202751e+002
1.514941e+002, 2.969471e+002
1.519763e+002, 2.730332e+002
1.524584e+002, 2.474896e+002
1.529405e+002, 2.210332e+002
1.534226e+002, 1.967026e+002
1.539047e+002, 1.742128e+002
1.543868e+002, 1.542373e+002
1.548690e+002, 1.371435e+002
1.553511e+002, 1.240589e+002
1.558332e+002, 1.126981e+002
1.563153e+002, 1.030968e+002
1.567974e+002, 9.516384e+001
1.572795e+002, 8.819822e+001
1.577617e+002, 8.238844e+001
1.582438e+002, 7.731493e+001
1.587259e+002, 7.267463e+001
1.592080e+002, 6.826199e+001
1.596901e+002, 6.440620e+001
1.601722e+002, 6.134130e+001
1.606544e+002, 5.903985e+001
1.611365e+002, 5.694606e+001
1.616186e+002, 5.468226e+001
1.621007e+002, 5.262402e+001
1.625828e+002, 5.106415e+001
1.630649e+002, 5.060365e+001
1.635471e+002, 5.026487e+001
1.640292e+002, 4.957799e+001
1.645113e+002, 4.852549e+001
1.649934e+002, 4.746530e+001
1.654755e+002, 4.649046e+001
1.659576e+002, 4.562736e+001
1.664398e+002, 4.492047e+001
1.669219e+002, 4.445853e+001
1.674040e+002, 4.409618e+001
1.678861e+002, 4.377012e+001
1.683682e+002, 4.347869e+001
1.688503e+002, 4.316027e+001
1.693325e+002, 4.265906e+001
1.698146e+002, 4.211591e+001
1.702967e+002, 4.176438e+001
1.707788e+002, 4.194968e+001
1.712609e+002, 4.223159e+001
1.717430e+002, 4.218529e+001
1.722252e+002, 4.176054e+001
1.727073e+002, 4.123181e+001
1.731894e+002, 4.077649e+001
1.736715e+002, 4.037599e+001
1.741536e+002, 4.000377e+001
1.746357e+002, 3.971483e+001
1.751179e+002, 3.941136e+001
1.756000e+002, 3.892511e+001
1.760821e+002, 3.821196e+001
1.765642e+002, 3.751366e+001
1.770463e+002, 3.702348e+001
1.775284e+002, 3.673236e+001
1.780106e+002, 3.661844e+001
1.784927e+002, 3.675161e+001
1.789748e+002, 3.703501e+001
1.794569e+002, 3.731562e+001
1.799390e+002, 3.758828e+001
1.804211e+002, 3.783334e+001
1.809033e+002, 3.802898e+001
1.813854e+002, 3.817975e+001
1.818675e+002, 3.830196e+001
1.823496e+002, 3.839428e+001
1.828317e+002, 3.846584e+001
1.833138e+002, 3.854963e+001
1.837960e+002, 3.865631e+001
1.842781e+002, 3.875253e+001
1.847602e+002, 3.872048e+001
1.852423e+002, 3.858681e+001
1.857244e+002, 3.857751e+001
1.862065e+002, 3.891286e+001
1.866887e+002, 3.950272e+001
1.871708e+002, 4.000500e+001
1.876529e+002, 4.036267e+001
1.881350e+002, 4.065997e+001
1.886171e+002, 4.108897e+001
1.890992e+002, 4.164624e+001
1.895814e+002, 4.207561e+001
1.900635e+002, 4.209004e+001
1.905456e+002, 4.177043e+001
1.910277e+002, 4.168986e+001
1.915098e+002, 4.196068e+001
1.919919e+002, 4.242203e+001
1.924741e+002, 4.269110e+001
1.929562e+002, 4.275240e+001
1.934383e+002, 4.292658e+001
1.939204e+002, 4.354157e+001
1.944025e+002, 4.456171e+001
1.948846e+002, 4.534511e+001
1.953668e+002, 4.575473e+001
1.958489e+002, 4.595676e+001
1.963310e+002, 4.641658e+001
1.968131e+002, 4.718415e+001
1.972952e+002, 4.782636e+001
1.977773e+002, 4.799232e+001
1.982595e+002, 4.766654e+001
1.987416e+002, 4.739064e+001
1.992237e+002, 4.729209e+001
1.997058e+002, 4.723412e+001
2.001879e+002, 4.679920e+001
2.006700e+002, 4.592455e+001
2.011522e+002, 4.493779e+001
2.016343e+002, 4.401389e+001
2.021164e+002, 4.314460e+001
2.025985e+002, 4.243665e+001
2.030806e+002, 4.194854e+001
2.035627e+002, 4.161173e+001
2.040449e+002, 4.120533e+001
2.045270e+002, 4.070288e+001
2.050091e+002, 4.021686e+001
2.054912e+002, 3.977631e+001
2.059733e+002, 3.934515e+001
2.064554e+002, 3.920678e+001
2.069376e+002, 3.949923e+001
2.074197e+002, 4.007751e+001
2.079018e+002, 4.038573e+001
2.083839e+002, 4.035844e+001
2.088660e+002, 4.022785e+001
2.093481e+002, 4.010534e+001
2.098303e+002, 3.994586e+001
2.103124e+002, 4.000667e+001
2.107945e+002, 4.037125e+001
2.112766e+002, 4.096806e+001
2.117587e+002, 4.154731e+001
2.122408e+002, 4.215776e+001
2.127230e+002, 4.265006e+001
2.132051e+002, 4.288965e+001
2.136872e+002, 4.277986e+001
2.141693e+002, 4.274958e+001
2.146514e+002, 4.285143e+001
2.151335e+002, 4.306687e+001
2.156157e+002, 4.329140e+001
2.160978e+002, 4.347996e+001
2.165799e+002, 4.376190e+001
2.170620e+002, 4.427617e+001
2.175441e+002, 4.517456e+001
2.180262e+002, 4.585775e+001
2.185084e+002, 4.622943e+001
2.189905e+002, 4.634391e+001
2.194726e+002, 4.644734e+001
2.199547e+002, 4.651799e+001
2.204368e+002, 4.661800e+001
2.209189e+002, 4.678583e+001
2.214011e+002, 4.703265e+001
2.218832e+002, 4.733161e+001
2.223653e+002, 4.772199e+001
2.228474e+002, 4.816512e+001
2.233295e+002, 4.849079e+001
2.238116e+002, 4.863177e+001
2.242938e+002, 4.875124e+001
2.247759e+002, 4.894219e+001
2.252580e+002, 4.921194e+001
2.257401e+002, 4.953974e+001
2.262222e+002, 4.997355e+001
2.267043e+002, 5.046435e+001
2.271865e+002, 5.083838e+001
2.276686e+002, 5.112155e+001
2.281507e+002, 5.123823e+001
2.286328e+002, 5.108864e+001
2.291149e+002, 5.044871e+001
2.295970e+002, 5.007599e+001
2.300792e+002, 5.008214e+001
2.305613e+002, 5.038967e+001
2.310434e+002, 5.069508e+001
2.315255e+002, 5.096044e+001
2.320076e+002, 5.127477e+001
2.324897e+002, 5.169838e+001
2.329719e+002, 5.231362e+001
2.334540e+002, 5.285831e+001
2.339361e+002, 5.335085e+001
2.344182e+002, 5.376721e+001
2.349003e+002, 5.400644e+001
2.353824e+002, 5.393049e+001
2.358646e+002, 5.387506e+001
2.363467e+002, 5.399983e+001
2.368288e+002, 5.433098e+001
2.373109e+002, 5.478747e+001
2.377930e+002, 5.538965e+001
2.382751e+002, 5.611323e+001
2.387573e+002, 5.687823e+001
2.392394e+002, 5.773700e+001
2.397215e+002, 5.856029e+001
2.402036e+002, 5.927272e+001
2.406857e+002, 5.974606e+001
2.411678e+002, 6.040415e+001
2.416500e+002, 6.131718e+001
2.421321e+002, 6.239071e+001
2.426142e+002, 6.341090e+001
2.430963e+002, 6.437691e+001
2.435784e+002, 6.528199e+001
2.440605e+002, 6.610374e+001
2.445427e+002, 6.680384e+001
2.450248e+002, 6.750473e+001
2.455069e+002, 6.804769e+001
2.459890e+002, 6.865988e+001
2.464711e+002, 6.987447e+001
2.469532e+002, 7.203214e+001
2.474354e+002, 7.425134e+001
2.479175e+002, 7.619660e+001
2.483996e+002, 7.784603e+001
2.488817e+002, 7.929362e+001
2.493638e+002, 8.030803e+001
2.498459e+002, 8.125306e+001
2.503281e+002, 8.286848e+001
2.508102e+002, 8.558732e+001
2.512923e+002, 8.823430e+001
2.517744e+002, 9.043308e+001
2.522565e+002, 9.208114e+001
2.527386e+002, 9.358444e+001
2.532208e+002, 9.471480e+001
2.537029e+002, 9.586826e+001
2.541850e+002, 9.771893e+001
2.546671e+002, 1.004933e+002
2.551492e+002, 1.035340e+002
2.556313e+002, 1.066053e+002
2.561135e+002, 1.096439e+002
2.565956e+002, 1.130652e+002
2.570777e+002, 1.169322e+002
2.575598e+002, 1.210732e+002
2.580419e+002, 1.251725e+002
2.585240e+002, 1.288901e+002
2.590062e+002, 1.332375e+002
2.594883e+002, 1.386089e+002
2.599704e+002, 1.449586e+002
2.604525e+002, 1.515071e+002
2.609346e+002, 1.579809e+002
2.614167e+002, 1.648901e+002
2.618989e+002, 1.727079e+002
2.623810e+002, 1.811514e+002
2.628631e+002, 1.910699e+002
2.633452e+002, 2.024892e+002
2.638273e+002, 2.155750e+002
2.643094e+002, 2.304263e+002
2.647916e+002, 2.475684e+002
2.652737e+002, 2.659926e+002
2.657558e+002, 2.850936e+002
2.662379e+002, 3.048204e+002
2.667200e+002, 3.252451e+002
2.672021e+002, 3.477707e+002
2.676843e+002, 3.716175e+002
2.681664e+002, 3.904983e+002
2.686485e+002, 4.048230e+002
2.691306e+002, 4.133043e+002
2.696127e+002, 4.141207e+002
2.700948e+002, 4.063945e+002
2.705770e+002, 3.947459e+002
2.710591e+002, 3.790172e+002
2.715412e+002, 3.600890e+002
2.720233e+002, 3.412259e+002
2.725054e+002, 3.222443e+002
2.729875e+002, 3.046500e+002
2.734697e+002, 2.894026e+002
2.739518e+002, 2.762868e+002
2.744339e+002, 2.661855e+002
2.749160e+002, 2.594740e+002
2.753981e+002, 2.556949e+002
2.758802e+002, 2.535634e+002
2.763624e+002, 2.532231e+002
2.768445e+002, 2.541228e+002
2.773266e+002, 2.559263e+002
2.778087e+002, 2.586199e+002
2.782908e+002, 2.625340e+002
2.787729e+002, 2.678608e+002
2.792551e+002, 2.742260e+002
2.797372e+002, 2.803629e+002
2.802193e+002, 2.860703e+002
2.807014e+002, 2.930659e+002
2.811835e+002, 3.024705e+002
2.816656e+002, 3.142645e+002
2.821478e+002, 3.269893e+002
2.826299e+002, 3.404965e+002
2.831120e+002, 3.551027e+002
2.835941e+002, 3.713774e+002
2.840762e+002, 3.894199e+002
2.845583e+002, 4.086652e+002
2.850405e+002, 4.288190e+002
2.855226e+002, 4.499774e+002
2.860047e+002, 4.730790e+002
2.864868e+002, 4.982093e+002
2.869689e+002, 5.250217e+002
2.874510e+002, 5.533589e+002
2.879332e+002, 5.831778e+002
2.884153e+002, 6.138848e+002
2.888974e+002, 6.449742e+002
2.893795e+002, 6.764449e+002
2.898616e+002, 7.077965e+002
2.903438e+002, 7.392342e+002
2.908259e+002, 7.690975e+002
2.913080e+002, 7.969780e+002
2.917901e+002, 8.221381e+002
2.922722e+002, 8.418412e+002
2.927543e+002, 8.554460e+002
2.932365e+002, 8.626871e+002
2.937186e+002, 8.624941e+002
2.942007e+002, 8.548545e+002
2.946828e+002, 8.407426e+002
2.951649e+002, 8.197740e+002
2.956470e+002, 7.929011e+002
2.961292e+002, 7.622595e+002
2.966113e+002, 7.279012e+002
2.970934e+002, 6.910954e+002
2.975755e+002, 6.527758e+002
2.980576e+002, 6.129117e+002
2.985397e+002, 5.732198e+002
2.990219e+002, 5.336097e+002
2.995040e+002, 4.946521e+002
2.999861e+002, 4.580490e+002
3.004682e+002, 4.240863e+002
3.009503e+002, 3.927221e+002
3.014324e+002, 3.633514e+002
3.019146e+002, 3.363282e+002
3.023967e+002, 3.118648e+002
3.028788e+002, 2.911938e+002
3.033609e+002, 2.730392e+002
3.038430e+002, 2.559887e+002
3.043251e+002, 2.398550e+002
3.048073e+002, 2.248017e+002
3.052894e+002, 2.107026e+002
3.057715e+002, 1.977372e+002
3.062536e+002, 1.859426e+002
3.067357e+002, 1.754762e+002
3.072178e+002, 1.662364e+002
3.077000e+002, 1.585857e+002
3.081821e+002, 1.526749e+002
3.086642e+002, 1.470795e+002
3.091463e+002, 1.404107e+002
3.096284e+002, 1.334480e+002
3.101105e+002, 1.273132e+002
3.105927e+002, 1.230166e+002
3.110748e+002, 1.194269e+002
3.115569e+002, 1.155443e+002
3.120390e+002, 1.113651e+002
3.125211e+002, 1.079242e+002
3.130032e+002, 1.060416e+002
3.134854e+002, 1.050678e+002
3.139675e+002, 1.043407e+002
3.144496e+002, 1.038430e+002
3.149317e+002, 1.033588e+002
3.154138e+002, 1.025202e+002
3.158959e+002, 1.014724e+002
3.163781e+002, 1.010613e+002
3.168602e+002, 1.019701e+002
3.173423e+002, 1.034778e+002
3.178244e+002, 1.050958e+002
3.183065e+002, 1.069625e+002
3.187886e+002, 1.085743e+002
3.192708e+002, 1.094315e+002
3.197529e+002, 1.098510e+002
3.202350e+002, 1.107288e+002
3.207171e+002, 1.123025e+002
3.211992e+002, 1.144082e+002
3.216813e+002, 1.169793e+002
3.221635e+002, 1.200461e+002
3.226456e+002, 1.234848e+002
3.231277e+002, 1.271876e+002
3.236098e+002, 1.312583e+002
3.240919e+002, 1.358909e+002
3.245740e+002, 1.398655e+002
3.250562e+002, 1.454898e+002
3.255383e+002, 1.533575e+002
3.260204e+002, 1.634664e+002
3.265025e+002, 1.759505e+002
3.269846e+002, 1.903230e+002
3.274667e+002, 2.072466e+002
3.279489e+002, 2.275932e+002
3.284310e+002, 2.505046e+002
3.289131e+002, 2.777779e+002
3.293952e+002, 3.086180e+002
3.298773e+002, 3.428900e+002
3.303594e+002, 3.866170e+002
3.308416e+002, 4.396910e+002
3.313237e+002, 5.017584e+002
3.318058e+002, 5.737808e+002
3.322879e+002, 6.679842e+002
3.327700e+002, 7.532188e+002
3.332521e+002, 8.379862e+002
3.337343e+002, 9.142457e+002
3.342164e+002, 9.414719e+002
3.346985e+002, 9.085997e+002
3.351806e+002, 8.437088e+002
3.356627e+002, 7.552185e+002
3.361448e+002, 6.310561e+002
3.366270e+002, 5.223708e+002
3.371091e+002, 4.314606e+002
3.375912e+002, 3.571423e+002
3.380733e+002, 2.969107e+002
3.385554e+002, 2.527785e+002
3.390375e+002, 2.180911e+002
3.395197e+002, 1.913799e+002
3.400018e+002, 1.731269e+002
3.404839e+002, 1.581308e+002
3.409660e+002, 1.469333e+002
3.414481e+002, 1.384112e+002
3.419302e+002, 1.320192e+002
3.424124e+002, 1.278652e+002
3.428945e+002, 1.236532e+002
3.433766e+002, 1.187945e+002
3.438587e+002, 1.133184e+002
3.443408e+002, 1.069058e+002
3.448229e+002, 9.946849e+001
3.453051e+002, 9.190310e+001
3.457872e+002, 8.469994e+001
3.462693e+002, 7.797551e+001
3.467514e+002, 7.238255e+001
3.472335e+002, 6.834964e+001
3.477156e+002, 6.522006e+001
3.481978e+002, 6.174606e+001
3.486799e+002, 5.798360e+001
3.491620e+002, 5.463270e+001
3.496441e+002, 5.230971e+001
3.501262e+002, 5.073713e+001
3.506083e+002, 4.932345e+001
3.510905e+002, 4.802569e+001
3.515726e+002, 4.671815e+001
3.520547e+002, 4.506202e+001
3.525368e+002, 4.323188e+001
3.530189e+002, 4.175764e+001
3.535010e+002, 4.121504e+001
3.539832e+002, 4.102890e+001
3.544653e+002, 4.049163e+001
3.549474e+002, 3.955846e+001
3.554295e+002, 3.854341e+001
3.559116e+002, 3.759925e+001
3.563937e+002, 3.674541e+001
3.568759e+002, 3.602477e+001
3.573580e+002, 3.560731e+001
3.578401e+002, 3.519030e+001
3.583222e+002, 3.448225e+001
3.588043e+002, 3.353924e+001
3.592864e+002, 3.273536e+001
3.597686e+002, 3.236360e+001
3.602507e+002, 3.216407e+001
3.607328e+002, 3.192340e+001
3.612149e+002, 3.158511e+001
3.616970e+002, 3.121029e+001
3.621791e+002, 3.073849e+001
3.626613e+002, 3.024482e+001
3.631434e+002, 2.990243e+001
3.636255e+002, 2.996335e+001
3.641076e+002, 3.002998e+001
3.645897e+002, 2.989487e+001
3.650718e+002, 2.946961e+001
3.655540e+002, 2.908117e+001
3.660361e+002, 2.890545e+001
3.665182e+002, 2.875729e+001
3.670003e+002, 2.841463e+001
3.674824e+002, 2.735675e+001
3.679645e+002, 2.661288e+001
3.684467e+002, 2.660106e+001
3.689288e+002, 2.737232e+001
3.694109e+002, 2.769157e+001
3.698930e+002, 2.715560e+001
3.703751e+002, 2.647910e+001
3.708572e+002, 2.615722e+001
3.713394e+002, 2.653297e+001
3.718215e+002, 2.667896e+001
3.723036e+002, 2.639373e+001
3.727857e+002, 2.583523e+001
3.732678e+002, 2.558821e+001
3.737499e+002, 2.581140e+001
3.742321e+002, 2.606024e+001
3.747142e+002, 2.610902e+001
3.751963e+002, 2.588885e+001
3.756784e+002, 2.577053e+001
3.761605e+002, 2.578778e+001
3.766426e+002, 2.586475e+001
3.771248e+002, 2.592640e+001
3.776069e+002, 2.600172e+001
3.780890e+002, 2.587458e+001
3.785711e+002, 2.531558e+001
3.790532e+002, 2.444364e+001
3.795353e+002, 2.430552e+001
3.800175e+002, 2.503488e+001
3.804996e+002, 2.581992e+001
3.809817e+002, 2.575190e+001
3.814638e+002, 2.494810e+001
3.819459e+002, 2.439373e+001
3.824280e+002, 2.433949e+001
3.829102e+002, 2.457682e+001
3.833923e+002, 2.475132e+001
3.838744e+002, 2.486719e+001
3.843565e+002, 2.495407e+001
3.848386e+002, 2.509338e+001
3.853207e+002, 2.520782e+001
3.858029e+002, 2.510166e+001
3.862850e+002, 2.472712e+001
3.867671e+002, 2.428035e+001
3.872492e+002, 2.386243e+001
3.877313e+002, 2.352032e+001
3.882134e+002, 2.337115e+001
3.886956e+002, 2.367283e+001
3.891777e+002, 2.405791e+001
3.896598e+002, 2.415732e+001
3.901419e+002, 2.398171e+001
3.906240e+002, 2.381525e+001
3.911061e+002, 2.388332e+001
3.915883e+002, 2.402803e+001
3.920704e+002, 2.408599e+001
3.925525e+002, 2.400714e+001
3.930346e+002, 2.384200e+001
3.935167e+002, 2.348124e+001
3.939988e+002, 2.303447e+001
3.944810e+002, 2.280388e+001
3.949631e+002, 2.319315e+001
3.954452e+002, 2.359266e+001
3.959273e+002, 2.362811e+001
3.964094e+002, 2.306343e+001
3.968915e+002, 2.275514e+001
3.973737e+002, 2.310834e+001
3.978558e+002, 2.371952e+001
3.983379e+002, 2.409145e+001
3.988200e+002, 2.401839e+001
3.993021e+002, 2.386579e+001
3.997842e+002, 2.361641e+001
4.002664e+002, 2.327152e+001
4.007485e+002, 2.318494e+001
4.012306e+002, 2.354325e+001
4.017127e+002, 2.397808e+001
4.021948e+002, 2.426087e+001
4.026769e+002, 2.434997e+001
4.031591e+002, 2.437975e+001
4.036412e+002, 2.437844e+001
4.041233e+002, 2.431246e+001
4.046054e+002, 2.404615e+001
4.050875e+002, 2.347690e+001
4.055696e+002, 2.301829e+001
4.060518e+002, 2.286424e+001
4.065339e+002, 2.302304e+001
4.070160e+002, 2.322040e+001
4.074981e+002, 2.348014e+001
4.079802e+002, 2.370728e+001
4.084623e+002, 2.379490e+001
4.089445e+002, 2.374385e+001
4.094266e+002, 2.357805e+001
4.099087e+002, 2.323115e+001
4.103908e+002, 2.283424e+001
4.108729e+002, 2.273514e+001
4.113550e+002, 2.292685e+001
4.118372e+002, 2.317805e+001
4.123193e+002, 2.336511e+001
4.128014e+002, 2.348686e+001
4.132835e+002, 2.353354e+001
4.137656e+002, 2.349501e+001
4.142477e+002, 2.341856e+001
4.147299e+002, 2.332364e+001
4.152120e+002, 2.322791e+001
4.156941e+002, 2.317673e+001
4.161762e+002, 2.317839e+001
4.166583e+002, 2.324114e+001
4.171404e+002, 2.343649e+001
4.176226e+002, 2.375562e+001
4.181047e+002, 2.395916e+001
4.185868e+002, 2.380682e+001
4.190689e+002, 2.352141e+001
4.195510e+002, 2.330988e+001
4.200331e+002, 2.322142e+001
4.205153e+002, 2.322559e+001
4.209974e+002, 2.339834e+001
4.214795e+002, 2.366327e+001
4.219616e+002, 2.381927e+001
4.224437e+002, 2.369167e+001
4.229258e+002, 2.355241e+001
4.234080e+002, 2.352787e+001
4.238901e+002, 2.367012e+001
4.243722e+002, 2.376897e+001
4.248543e+002, 2.383923e+001
4.253364e+002, 2.384429e+001
4.258185e+002, 2.373516e+001
4.263007e+002, 2.329798e+001
4.267828e+002, 2.306235e+001
4.272649e+002, 2.317146e+001
4.277470e+002, 2.356587e+001
4.282291e+002, 2.386772e+001
4.287112e+002, 2.406405e+001
4.291934e+002, 2.418554e+001
4.296755e+002, 2.423260e+001
4.301576e+002, 2.418168e+001
4.306397e+002, 2.417675e+001
4.311218e+002, 2.423136e+001
4.316039e+002, 2.431642e+001
4.320861e+002, 2.436431e+001
4.325682e+002, 2.436751e+001
4.330503e+002, 2.445985e+001
4.335324e+002, 2.471613e+001
4.340145e+002, 2.509218e+001
4.344966e+002, 2.542394e+001
4.349788e+002, 2.570926e+001
4.354609e+002, 2.602160e+001
4.359430e+002, 2.653569e+001
4.364251e+002, 2.713386e+001
4.369072e+002, 2.743337e+001
4.373893e+002, 2.726588e+001
4.378715e+002, 2.704684e+001
4.383536e+002, 2.726783e+001
4.388357e+002, 2.782628e+001
4.393178e+002, 2.843590e+001
4.397999e+002, 2.899931e+001
4.402820e+002, 2.951785e+001
4.407642e+002, 2.989367e+001
4.412463e+002, 3.012469e+001
4.417284e+002, 3.058092e+001
4.422105e+002, 3.159426e+001
4.426926e+002, 3.287398e+001
4.431747e+002, 3.414816e+001
4.436569e+002, 3.549705e+001
4.441390e+002, 3.664927e+001
4.446211e+002, 3.730451e+001
4.451032e+002, 3.766969e+001
4.455853e+002, 3.832299e+001
4.460674e+002, 3.939521e+001
4.465496e+002, 4.075748e+001
4.470317e+002, 4.234956e+001
4.475138e+002, 4.414508e+001
4.479959e+002, 4.629641e+001
4.484780e+002, 4.888317e+001
4.489601e+002, 5.178291e+001
4.494423e+002, 5.488192e+001
4.499244e+002, 5.792657e+001
4.504065e+002, 6.160663e+001
4.508886e+002, 6.592069e+001
4.513707e+002, 7.093890e+001
4.518528e+002, 7.719030e+001
4.523350e+002, 8.486135e+001
4.528171e+002, 9.334778e+001
4.532992e+002, 1.033280e+002
4.537813e+002, 1.148897e+002
4.542634e+002, 1.234811e+002
4.547455e+002, 1.289584e+002
4.552277e+002, 1.318350e+002
4.557098e+002, 1.318574e+002
4.561919e+002, 1.294525e+002
4.566740e+002, 1.274915e+002
4.571561e+002, 1.267096e+002
4.576382e+002, 1.271282e+002
4.581204e+002, 1.291489e+002
4.586025e+002, 1.326434e+002
4.590846e+002, 1.365360e+002
4.595667e+002, 1.412093e+002
4.600488e+002, 1.454521e+002
4.605309e+002, 1.477212e+002
4.610131e+002, 1.477340e+002
4.614952e+002, 1.460826e+002
4.619773e+002, 1.421844e+002
4.624594e+002, 1.371186e+002
4.629415e+002, 1.324047e+002
4.634236e+002, 1.285490e+002
4.639058e+002, 1.252907e+002
4.643879e+002, 1.224117e+002
4.648700e+002, 1.199828e+002
4.653521e+002, 1.182843e+002
4.658342e+002, 1.175611e+002
4.663163e+002, 1.174410e+002
4.667985e+002, 1.176325e+002
4.672806e+002, 1.174012e+002
4.677627e+002, 1.188144e+002
4.682448e+002, 1.219075e+002
4.687269e+002, 1.266355e+002
4.692090e+002, 1.328701e+002
4.696912e+002, 1.401218e+002
4.701733e+002, 1.499248e+002
4.706554e+002, 1.627583e+002
4.711375e+002, 1.785095e+002
4.716196e+002, 1.957751e+002
4.721017e+002, 2.140258e+002
4.725839e+002, 2.353333e+002
4.730660e+002, 2.604787e+002
4.735481e+002, 2.893463e+002
4.740302e+002, 3.252298e+002
4.745123e+002, 3.671032e+002
4.749944e+002, 4.194751e+002
4.754766e+002, 4.937759e+002
4.759587e+002, 5.870623e+002
4.764408e+002, 6.824811e+002
4.769229e+002, 7.932534e+002
4.774050e+002, 8.891569e+002
4.778871e+002, 9.172646e+002
4.783693e+002, 8.804664e+002
4.788514e+002, 8.046836e+002
4.793335e+002, 6.795164e+002
4.798156e+002, 5.373123e+002
4.802977e+002, 4.163385e+002
4.807798e+002, 3.239872e+002
4.812620e+002, 2.518801e+002
4.817441e+002, 2.015666e+002
4.822262e+002, 1.672544e+002
4.827083e+002, 1.404044e+002
4.831904e+002, 1.212320e+002
4.836725e+002, 1.060727e+002
4.841547e+002, 9.447758e+001
4.846368e+002, 8.629523e+001
4.851189e+002, 7.958437e+001
4.856010e+002, 7.448945e+001
4.860831e+002, 7.051363e+001
4.865652e+002, 6.746609e+001
4.870474e+002, 6.565194e+001
4.875295e+002, 6.405051e+001
4.880116e+002, 6.249341e+001
4.884937e+002, 6.129130e+001
4.889758e+002, 6.089349e+001
4.894579e+002, 6.141176e+001
4.899401e+002, 6.241618e+001
4.904222e+002, 6.386715e+001
4.909043e+002, 6.571495e+001
4.913864e+002, 6.782339e+001
4.918685e+002, 7.021516e+001
4.923506e+002, 7.277915e+001
4.928328e+002, 7.598479e+001
4.933149e+002, 7.943163e+001
4.937970e+002, 8.130042e+001
4.942791e+002, 8.139842e+001
4.947612e+002, 8.019971e+001
4.952433e+002, 7.791535e+001
4.957255e+002, 7.474387e+001
4.962076e+002, 7.114010e+001
4.966897e+002, 6.684579e+001
4.971718e+002, 6.260537e+001
4.976539e+002, 5.897688e+001
4.981360e+002, 5.601209e+001
4.986182e+002, 5.384615e+001
4.991003e+002, 5.307730e+001
4.995824e+002, 5.279853e+001
5.000645e+002, 5.239120e+001
5.005466e+002, 5.170169e+001
5.010287e+002, 5.120776e+001
5.015109e+002, 5.116681e+001
5.019930e+002, 5.133285e+001
5.024751e+002, 5.146167e+001
5.029572e+002, 5.128228e+001
5.034393e+002, 5.135296e+001
5.039214e+002, 5.174566e+001
5.044036e+002, 5.242782e+001
5.048857e+002, 5.332915e+001
5.053678e+002, 5.460868e+001
5.058499e+002, 5.584633e+001
5.063320e+002, 5.681971e+001
5.068141e+002, 5.749429e+001
5.072963e+002, 5.844650e+001
5.077784e+002, 5.974903e+001
5.082605e+002, 6.117089e+001
5.087426e+002, 6.234285e+001
5.092247e+002, 6.331536e+001
5.097068e+002, 6.490202e+001
5.101890e+002, 6.734038e+001
5.106711e+002, 7.028420e+001
5.111532e+002, 7.325260e+001
5.116353e+002, 7.623321e+001
5.121174e+002, 7.908802e+001
5.125995e+002, 8.147208e+001
5.130817e+002, 8.386805e+001
5.135638e+002, 8.682256e+001
5.140459e+002, 9.034542e+001
5.145280e+002, 9.431117e+001
5.150101e+002, 9.871080e+001
5.154922e+002, 1.034996e+002
5.159744e+002, 1.085667e+002
5.164565e+002, 1.138478e+002
5.169386e+002, 1.195603e+002
5.174207e+002, 1.254761e+002
5.179028e+002, 1.319276e+002
5.183849e+002, 1.394595e+002
5.188671e+002, 1.488461e+002
5.193492e+002, 1.585951e+002
5.198313e+002, 1.682121e+002
5.203134e+002, 1.777082e+002
5.207955e+002, 1.886226e+002
5.212776e+002, 2.012703e+002
5.217598e+002, 2.149246e+002
5.222419e+002, 2.289434e+002
5.227240e+002, 2.432002e+002
5.232061e+002, 2.588670e+002
5.236882e+002, 2.761455e+002
5.241703e+002, 2.945946e+002
5.246525e+002, 3.131419e+002
5.251346e+002, 3.319950e+002
5.256167e+002, 3.535365e+002
5.260988e+002, 3.783061e+002
5.265809e+002, 4.059001e+002
5.270630e+002, 4.351574e+002
5.275452e+002, 4.662519e+002
5.280273e+002, 5.006012e+002
5.285094e+002, 5.392526e+002
5.289915e+002, 5.817355e+002
5.294736e+002, 6.275439e+002
5.299557e+002, 6.767836e+002
5.304379e+002, 7.311812e+002
5.309200e+002, 7.938755e+002
5.314021e+002, 8.619054e+002
5.318842e+002, 9.326437e+002
5.323663e+002, 1.005587e+003
5.328484e+002, 1.080816e+003
5.333306e+002, 1.162252e+003
5.338127e+002, 1.245555e+003
5.342948e+002, 1.319511e+003
5.347769e+002, 1.390492e+003
5.352590e+002, 1.445045e+003
5.357411e+002, 1.482223e+003
5.362233e+002, 1.501829e+003
5.367054e+002, 1.494747e+003
5.371875e+002, 1.456918e+003
5.376696e+002, 1.400430e+003
5.381517e+002, 1.329998e+003
5.386339e+002, 1.245566e+003
5.391160e+002, 1.154292e+003
5.395981e+002, 1.054398e+003
5.400802e+002, 9.549068e+002
5.405623e+002, 8.640003e+002
5.410444e+002, 7.816732e+002
5.415266e+002, 7.055656e+002
5.420087e+002, 6.349205e+002
5.424908e+002, 5.701445e+002
5.429729e+002, 5.128552e+002
5.434550e+002, 4.632750e+002
5.439371e+002, 4.203271e+002
5.444193e+002, 3.855322e+002
5.449014e+002, 3.553243e+002
5.453835e+002, 3.266644e+002
5.458656e+002, 2.992407e+002
5.463477e+002, 2.745670e+002
5.468298e+002, 2.534836e+002
5.473120e+002, 2.349586e+002
5.477941e+002, 2.183060e+002
5.482762e+002, 2.038261e+002
5.487583e+002, 1.904459e+002
5.492404e+002, 1.778622e+002
5.497225e+002, 1.663679e+002
5.502047e+002, 1.565806e+002
5.506868e+002, 1.491225e+002
5.511689e+002, 1.421512e+002
5.516510e+002, 1.352802e+002
5.521331e+002, 1.285490e+002
5.526152e+002, 1.224322e+002
5.530974e+002, 1.169708e+002
5.535795e+002, 1.119289e+002
5.540616e+002, 1.072719e+002
5.545437e+002, 1.029416e+002
5.550258e+002, 9.846821e+001
5.555079e+002, 9.373756e+001
5.559901e+002, 8.940114e+001
5.564722e+002, 8.621817e+001
5.569543e+002, 8.387367e+001
5.574364e+002, 8.174458e+001
5.579185e+002, 7.975361e+001
5.584006e+002, 7.774696e+001
5.588828e+002, 7.552187e+001
5.593649e+002, 7.317534e+001
5.598470e+002, 7.088248e+001
5.603291e+002, 6.860240e+001
5.608112e+002, 6.649451e+001
5.612933e+002, 6.462025e+001
5.617755e+002, 6.298244e+001
5.622576e+002, 6.148280e+001
5.627397e+002, 6.011802e+001
5.632218e+002, 5.890274e+001
5.637039e+002, 5.786664e+001
5.641860e+002, 5.713107e+001
5.646682e+002, 5.622478e+001
5.651503e+002, 5.501355e+001
5.656324e+002, 5.378925e+001
5.661145e+002, 5.301115e+001
5.665966e+002, 5.273487e+001
5.670787e+002, 5.232484e+001
5.675609e+002, 5.163556e+001
5.680430e+002, 5.074992e+001
5.685251e+002, 4.978495e+001
5.690072e+002, 4.875550e+001
5.694893e+002, 4.784837e+001
5.699714e+002, 4.720835e+001
5.704536e+002, 4.672059e+001
5.709357e+002, 4.624418e+001
5.714178e+002, 4.577436e+001
5.718999e+002, 4.527317e+001
5.723820e+002, 4.466879e+001
5.728641e+002, 4.405300e+001
5.733463e+002, 4.351043e+001
5.738284e+002, 4.304712e+001
5.743105e+002, 4.266462e+001
5.747926e+002, 4.253567e+001
5.752747e+002, 4.242447e+001
5.757568e+002, 4.202892e+001
5.762390e+002, 4.095457e+001
5.767211e+002, 4.008451e+001
5.772032e+002, 3.957832e+001
5.776853e+002, 3.933937e+001
5.781674e+002, 3.905379e+001
5.786495e+002, 3.870017e+001
5.791317e+002, 3.836613e+001
5.796138e+002, 3.812057e+001
5.800959e+002, 3.793952e+001
5.805780e+002, 3.760781e+001
5.810601e+002, 3.711405e+001
5.815422e+002, 3.656565e+001
5.820244e+002, 3.597724e+001
5.825065e+002, 3.540621e+001
5.829886e+002, 3.508088e+001
5.834707e+002, 3.508958e+001
5.839528e+002, 3.499177e+001
5.844349e+002, 3.413242e+001
5.849171e+002, 3.297629e+001
5.853992e+002, 3.221968e+001
5.858813e+002, 3.262410e+001
5.863634e+002, 3.291264e+001
5.868455e+002, 3.231260e+001
5.873276e+002, 3.117124e+001
5.878098e+002, 3.045989e+001
5.882919e+002, 3.085877e+001
5.887740e+002, 3.120786e+001
5.892561e+002, 3.110828e+001
5.897382e+002, 3.054881e+001
5.902203e+002, 3.021726e+001
5.907025e+002, 3.021400e+001
5.911846e+002, 3.026387e+001
5.916667e+002, 3.020676e+001
5.921488e+002, 3.004023e+001
5.926309e+002, 2.975841e+001
5.931130e+002, 2.932656e+001
5.935952e+002, 2.890441e+001
5.940773e+002, 2.875965e+001
5.945594e+002, 2.880636e+001
5.950415e+002, 2.870520e+001
5.955236e+002, 2.833144e+001
5.960057e+002, 2.784949e+001
5.964879e+002, 2.735375e+001
5.969700e+002, 2.689274e+001
5.974521e+002, 2.658669e+001
5.979342e+002, 2.668342e+001
5.984163e+002, 2.678006e+001
5.988984e+002, 2.663552e+001
5.993806e+002, 2.626721e+001
5.998627e+002, 2.589593e+001
6.003448e+002, 2.538338e+001
6.008269e+002, 2.504475e+001
6.013090e+002, 2.508296e+001
6.017911e+002, 2.566204e+001
6.022733e+002, 2.596202e+001
6.027554e+002, 2.590639e+001
6.032375e+002, 2.567969e+001
6.037196e+002, 2.542884e+001
6.042017e+002, 2.514637e+001
6.046838e+002, 2.489080e+001
6.051660e+002, 2.465959e+001
6.056481e+002, 2.447455e+001
6.061302e+002, 2.441906e+001
6.066123e+002, 2.445857e+001
6.070944e+002, 2.442380e+001
6.075765e+002, 2.415454e+001
6.080587e+002, 2.387741e+001
6.085408e+002, 2.391038e+001
6.090229e+002, 2.417403e+001
6.095050e+002, 2.438522e+001
6.099871e+002, 2.429669e+001
6.104692e+002, 2.419004e+001
6.109514e+002, 2.431196e+001
6.114335e+002, 2.470106e+001
6.119156e+002, 2.484192e+001
6.123977e+002, 2.437056e+001
6.128798e+002, 2.381702e+001
6.133619e+002, 2.349203e+001
6.138441e+002, 2.346197e+001
6.143262e+002, 2.351096e+001
6.148083e+002, 2.368450e+001
6.152904e+002, 2.387614e+001
6.157725e+002, 2.392670e+001
6.162546e+002, 2.382504e+001
6.167368e+002, 2.379270e+001
6.172189e+002, 2.390467e+001
6.177010e+002, 2.404991e+001
6.181831e+002, 2.401540e+001
6.186652e+002, 2.383406e+001
6.191473e+002, 2.363474e+001
6.196295e+002, 2.340844e+001
6.201116e+002, 2.324507e+001
6.205937e+002, 2.327379e+001
6.210758e+002, 2.346255e+001
6.215579e+002, 2.365368e+001
6.220400e+002, 2.386120e+001
6.225222e+002, 2.397198e+001
6.230043e+002, 2.386987e+001
6.234864e+002, 2.348548e+001
6.239685e+002, 2.323607e+001
6.244506e+002, 2.330748e+001
6.249327e+002, 2.340436e+001
6.254149e+002, 2.331143e+001
6.258970e+002, 2.291670e+001
6.263791e+002, 2.266146e+001
6.268612e+002, 2.254490e+001
6.273433e+002, 2.259697e+001
6.278254e+002, 2.303246e+001
6.283076e+002, 2.381598e+001
6.287897e+002, 2.412629e+001
6.292718e+002, 2.358930e+001
6.297539e+002, 2.275804e+001
6.302360e+002, 2.251824e+001
6.307181e+002, 2.273223e+001
6.312003e+002, 2.296992e+001
6.316824e+002, 2.299911e+001
6.321645e+002, 2.298128e+001
6.326466e+002, 2.308288e+001
6.331287e+002, 2.327345e+001
6.336108e+002, 2.333737e+001
6.340930e+002, 2.298382e+001
6.345751e+002, 2.266751e+001
6.350572e+002, 2.269431e+001
6.355393e+002, 2.320246e+001
6.360214e+002, 2.336141e+001
6.365035e+002, 2.295845e+001
6.369857e+002, 2.246478e+001
6.374678e+002, 2.224806e+001
6.379499e+002, 2.234767e+001
6.384320e+002, 2.244873e+001
6.389141e+002, 2.253808e+001
6.393962e+002, 2.260670e+001
6.398784e+002, 2.264426e+001
6.403605e+002, 2.265048e+001
6.408426e+002, 2.262460e+001
6.413247e+002, 2.256378e+001
6.418068e+002, 2.247607e+001
6.422889e+002, 2.233862e+001
6.427711e+002, 2.218143e+001
6.432532e+002, 2.206894e+001
6.437353e+002, 2.194995e+001
6.442174e+002, 2.195993e+001
6.446995e+002, 2.229743e+001
6.451816e+002, 2.288558e+001
6.456638e+002, 2.321920e+001
6.461459e+002, 2.311908e+001
6.466280e+002, 2.284688e+001
6.471101e+002, 2.238961e+001
6.475922e+002, 2.171979e+001
6.480743e+002, 2.147193e+001
6.485565e+002, 2.177684e+001
6.490386e+002, 2.217080e+001
6.495207e+002, 2.228587e+001
6.500028e+002, 2.215344e+001
6.504849e+002, 2.204174e+001
6.509670e+002, 2.197404e+001
6.514492e+002, 2.189876e+001
6.519313e+002, 2.172517e+001
6.524134e+002, 2.151186e+001
6.528955e+002, 2.140432e+001
6.533776e+002, 2.154656e+001
6.538597e+002, 2.155280e+001
6.543419e+002, 2.090899e+001
6.548240e+002, 2.003711e+001
6.553061e+002, 1.959485e+001
6.557882e+002, 2.012704e+001
6.562703e+002, 2.068561e+001
6.567524e+002, 2.115392e+001
6.572346e+002, 2.149810e+001
6.577167e+002, 2.158272e+001
6.581988e+002, 2.129604e+001
6.586809e+002, 2.100651e+001
6.591630e+002, 2.085951e+001
6.596451e+002, 2.081484e+001
6.601273e+002, 2.059991e+001
6.606094e+002, 2.020106e+001
6.610915e+002, 1.984305e+001
6.615736e+002, 1.967869e+001
6.620557e+002, 1.965548e+001
6.625378e+002, 1.969467e+001
6.630200e+002, 1.979119e+001
6.635021e+002, 1.988408e+001
6.639842e+002, 1.991250e+001
6.644663e+002, 1.992712e+001
6.649484e+002, 1.999069e+001
6.654305e+002, 2.016017e+001
6.659127e+002, 2.024289e+001
6.663948e+002, 2.009331e+001
6.668769e+002, 1.988768e+001
6.673590e+002, 1.982575e+001
6.678411e+002, 2.010502e+001
6.683232e+002, 2.008676e+001
6.688054e+002, 1.959837e+001
6.692875e+002, 1.893202e+001
6.697696e+002, 1.860927e+001
6.702517e+002, 1.863547e+001
6.707338e+002, 1.873923e+001
6.712159e+002, 1.887924e+001
6.716981e+002, 1.900193e+001
6.721802e+002, 1.900733e+001
6.726623e+002, 1.891178e+001
6.731444e+002, 1.877403e+001
6.736265e+002, 1.852794e+001
6.741086e+002, 1.833124e+001
6.745908e+002, 1.833739e+001
6.750729e+002, 1.851913e+001
6.755550e+002, 1.868297e+001
6.760371e+002, 1.885963e+001
6.765192e+002, 1.892092e+001
6.770013e+002, 1.874864e+001
6.774835e+002, 1.830330e+001
6.779656e+002, 1.808439e+001
6.784477e+002, 1.817625e+001
6.789298e+002, 1.833879e+001
6.794119e+002, 1.839670e+001
6.798940e+002, 1.834943e+001
6.803762e+002, 1.836275e+001
6.808583e+002, 1.844177e+001
6.813404e+002, 1.858211e+001
6.818225e+002, 1.889552e+001
6.823046e+002, 1.924886e+001
6.827867e+002, 1.932641e+001
6.832689e+002, 1.898185e+001
6.837510e+002, 1.863258e+001
6.842331e+002, 1.860505e+001
6.847152e+002, 1.874652e+001
6.851973e+002, 1.886386e+001
6.856794e+002, 1.880729e+001
6.861616e+002, 1.884263e+001
6.866437e+002, 1.919130e+001
6.871258e+002, 1.961696e+001
6.876079e+002, 1.964006e+001
6.880900e+002, 1.904510e+001
6.885721e+002, 1.861864e+001
6.890543e+002, 1.859284e+001
6.895364e+002, 1.883402e+001
6.900185e+002, 1.897424e+001
6.905006e+002, 1.901377e+001
6.909827e+002, 1.899363e+001
6.914648e+002, 1.884541e+001
6.919470e+002, 1.869566e+001
6.924291e+002, 1.876287e+001
6.929112e+002, 1.901885e+001
6.933933e+002, 1.930605e+001
6.938754e+002, 1.960385e+001
6.943575e+002, 1.985447e+001
6.948397e+002, 2.000868e+001
6.953218e+002, 2.005736e+001
6.958039e+002, 2.009818e+001
6.962860e+002, 2.019876e+001
6.967681e+002, 2.024447e+001
6.972502e+002, 2.016975e+001
6.977324e+002, 1.995316e+001
6.982145e+002, 1.969439e+001
6.986966e+002, 1.934988e+001
6.991787e+002, 1.908641e+001
6.996608e+002, 1.918651e+001
7.001429e+002, 1.954406e+001
7.006251e+002, 1.954680e+001
7.011072e+002, 1.903971e+001
7.015893e+002, 1.860802e+001
7.020714e+002, 1.902898e+001
7.025535e+002, 1.983873e+001
7.030356e+002, 2.034897e+001
7.035178e+002, 2.021929e+001
7.039999e+002, 2.000689e+001
7.044820e+002, 1.986329e+001
7.049641e+002, 1.978372e+001
7.054462e+002, 1.976453e+001
7.059283e+002, 1.987925e+001
7.064105e+002, 1.992341e+001
7.068926e+002, 1.981387e+001
7.073747e+002, 1.965363e+001
7.078568e+002, 1.974595e+001
7.083389e+002, 2.012066e+001
7.088210e+002, 2.033990e+001
7.093032e+002, 2.017089e+001
7.097853e+002, 1.983611e+001
7.102674e+002, 1.979530e+001
7.107495e+002, 1.999701e+001
7.112316e+002, 2.022649e+001
7.117137e+002, 2.043958e+001
7.121959e+002, 2.057645e+001
7.126780e+002, 2.052737e+001
7.131601e+002, 2.032720e+001
7.136422e+002, 2.022855e+001
7.141243e+002, 2.047181e+001
7.146064e+002, 2.066242e+001
7.150886e+002, 2.058695e+001
7.155707e+002, 2.023135e+001
7.160528e+002, 2.012466e+001
7.165349e+002, 2.033466e+001
7.170170e+002, 2.061873e+001
7.174991e+002, 2.084774e+001
7.179813e+002, 2.102071e+001
7.184634e+002, 2.115204e+001
7.189455e+002, 2.124241e+001
7.194276e+002, 2.126294e+001
7.199097e+002, 2.112826e+001
7.203918e+002, 2.093467e+001
7.208740e+002, 2.080160e+001
7.213561e+002, 2.074175e+001
7.218382e+002, 2.076683e+001
7.223203e+002, 2.088346e+001
7.228024e+002, 2.108677e+001
7.232845e+002, 2.138793e+001
7.237667e+002, 2.201188e+001
7.242488e+002, 2.231439e+001
7.247309e+002, 2.212308e+001
7.252130e+002, 2.179642e+001
7.256951e+002, 2.179206e+001
7.261772e+002, 2.213916e+001
7.266594e+002, 2.235160e+001
7.271415e+002, 2.233582e+001
7.276236e+002, 2.221381e+001
7.281057e+002, 2.211120e+001
7.285878e+002, 2.203579e+001
7.290699e+002, 2.200789e+001
7.295521e+002, 2.204674e+001
7.300342e+002, 2.211504e+001
7.305163e+002, 2.219641e+001
7.309984e+002, 2.228843e+001
7.314805e+002, 2.238667e+001
7.319626e+002, 2.256269e+001
7.324448e+002, 2.264894e+001
7.329269e+002, 2.250645e+001
7.334090e+002, 2.227995e+001
7.338911e+002, 2.243771e+001
7.343732e+002, 2.311810e+001
7.348553e+002, 2.358433e+001
7.353375e+002, 2.349060e+001
7.358196e+002, 2.312252e+001
7.363017e+002, 2.322758e+001
7.367838e+002, 2.375558e+001
7.372659e+002, 2.439969e+001
7.377480e+002, 2.519712e+001
7.382302e+002, 2.588105e+001
7.387123e+002, 2.604133e+001
7.391944e+002, 2.581017e+001
7.396765e+002, 2.584326e+001
7.401586e+002, 2.663516e+001
7.406407e+002, 2.750322e+001
7.411229e+002, 2.807095e+001
7.416050e+002, 2.836292e+001
7.420871e+002, 2.899591e+001
7.425692e+002, 3.008125e+001
7.430513e+002, 3.125474e+001
7.435334e+002, 3.236298e+001
7.440156e+002, 3.340675e+001
7.444977e+002, 3.426271e+001
7.449798e+002, 3.493438e+001
7.454619e+002, 3.577775e+001
7.459440e+002, 3.707444e+001
7.464261e+002, 3.868577e+001
7.469083e+002, 4.045494e+001
7.473904e+002, 4.236688e+001
7.478725e+002, 4.448917e+001
7.483546e+002, 4.677427e+001
7.488367e+002, 4.931272e+001
7.493188e+002, 5.220248e+001
7.498010e+002, 5.544013e+001
7.502831e+002, 5.881163e+001
7.507652e+002, 6.210185e+001
7.512473e+002, 6.586500e+001
7.517294e+002, 7.079630e+001
7.522115e+002, 7.683738e+001
7.526937e+002, 8.274863e+001
7.531758e+002, 8.853539e+001
7.536579e+002, 9.380573e+001
7.541400e+002, 9.857153e+001
7.546221e+002, 1.024364e+002
7.551042e+002, 1.047534e+002
7.555864e+002, 1.052809e+002
7.560685e+002, 1.046390e+002
7.565506e+002, 1.027128e+002
7.570327e+002, 9.998592e+001
7.575148e+002, 9.699464e+001
7.579969e+002, 9.377438e+001
7.584791e+002, 9.023967e+001
7.589612e+002, 8.633239e+001
7.594433e+002, 8.217538e+001
7.599254e+002, 7.792367e+001
7.604075e+002, 7.353085e+001
7.608896e+002, 6.924772e+001
7.613718e+002, 6.506407e+001
7.618539e+002, 6.114518e+001
7.623360e+002, 5.771197e+001
7.628181e+002, 5.470667e+001
7.633002e+002, 5.204202e+001
7.637823e+002, 4.977763e+001
7.642645e+002, 4.763176e+001
7.647466e+002, 4.529914e+001
7.652287e+002, 4.304130e+001
7.657108e+002, 4.119143e+001
7.661929e+002, 4.010773e+001
7.666750e+002, 3.903085e+001
7.671572e+002, 3.785786e+001
7.676393e+002, 3.669472e+001
7.681214e+002, 3.573521e+001
7.686035e+002, 3.499052e+001
7.690856e+002, 3.431714e+001
7.695677e+002, 3.368553e+001
7.700499e+002, 3.308202e+001
7.705320e+002, 3.243035e+001
7.710141e+002, 3.178798e+001
7.714962e+002, 3.130375e+001
7.719783e+002, 3.118904e+001
7.724604e+002, 3.109140e+001
7.729426e+002, 3.083277e+001
7.734247e+002, 3.045734e+001
7.739068e+002, 3.006556e+001
7.743889e+002, 2.960198e+001
7.748710e+002, 2.921487e+001
7.753531e+002, 2.889877e+001
7.758353e+002, 2.868950e+001
7.763174e+002, 2.879362e+001
7.767995e+002, 2.923548e+001
7.772816e+002, 2.943326e+001
7.777637e+002, 2.906152e+001
7.782458e+002, 2.844840e+001
7.787280e+002, 2.812890e+001
7.792101e+002, 2.803565e+001
7.796922e+002, 2.795754e+001
7.801743e+002, 2.781983e+001
7.806564e+002, 2.764223e+001
7.811385e+002, 2.737417e+001
7.816207e+002, 2.705809e+001
7.821028e+002, 2.688573e+001
7.825849e+002, 2.690134e+001
7.830670e+002, 2.701301e+001
7.835491e+002, 2.729921e+001
7.840313e+002, 2.763790e+001
7.845134e+002, 2.743546e+001
7.849955e+002, 2.667942e+001
7.854776e+002, 2.606674e+001
7.859597e+002, 2.600790e+001
7.864418e+002, 2.622116e+001
7.869240e+002, 2.633615e+001
7.874061e+002, 2.635005e+001
7.878882e+002, 2.624761e+001
7.883703e+002, 2.575194e+001
7.888524e+002, 2.539802e+001
7.893345e+002, 2.556748e+001
7.898167e+002, 2.618637e+001
7.902988e+002, 2.658698e+001
7.907809e+002, 2.671114e+001
7.912630e+002, 2.670591e+001
7.917451e+002, 2.659794e+001
7.922272e+002, 2.640588e+001
7.927094e+002, 2.617720e+001
7.931915e+002, 2.591674e+001
7.936736e+002, 2.569828e+001
7.941557e+002, 2.565020e+001
7.946378e+002, 2.561713e+001
7.951199e+002, 2.529183e+001
7.956021e+002, 2.477087e+001
7.960842e+002, 2.447722e+001
7.965663e+002, 2.488510e+001
7.970484e+002, 2.528497e+001
7.975305e+002, 2.531600e+001
7.980126e+002, 2.502203e+001
7.984948e+002, 2.479893e+001
7.989769e+002, 2.462400e+001
7.994590e+002, 2.458888e+001
7.999411e+002, 2.479006e+001
8.004232e+002, 2.514754e+001
8.009053e+002, 2.533078e+001
8.013875e+002, 2.535369e+001
8.018696e+002, 2.535338e+001
8.023517e+002, 2.539571e+001
8.028338e+002, 2.546755e+001
8.033159e+002, 2.558968e+001
8.037980e+002, 2.574302e+001
8.042802e+002, 2.582032e+001
8.047623e+002, 2.581550e+001
8.052444e+002, 2.568841e+001
8.057265e+002, 2.532327e+001
8.062086e+002, 2.478133e+001
8.066907e+002, 2.468679e+001
8.071729e+002, 2.517461e+001
8.076550e+002, 2.552175e+001
8.081371e+002, 2.527227e+001
8.086192e+002, 2.468293e+001
8.091013e+002, 2.447591e+001
8.095834e+002, 2.458702e+001
8.100656e+002, 2.464953e+001
8.105477e+002, 2.436092e+001
8.110298e+002, 2.402187e+001
8.115119e+002, 2.382366e+001
8.119940e+002, 2.376303e+001
8.124761e+002, 2.375292e+001
8.129583e+002, 2.382397e+001
8.134404e+002, 2.389234e+001
8.139225e+002, 2.396665e+001
8.144046e+002, 2.402135e+001
8.148867e+002, 2.382467e+001
8.153688e+002, 2.335865e+001
8.158510e+002, 2.303683e+001
8.163331e+002, 2.313043e+001
8.168152e+002, 2.346921e+001
8.172973e+002, 2.388989e+001
8.177794e+002, 2.433414e+001
8.182615e+002, 2.456077e+001
8.187437e+002, 2.423291e+001
8.192258e+002, 2.386661e+001
8.197079e+002, 2.369043e+001
8.201900e+002, 2.369567e+001
8.206721e+002, 2.374713e+001
8.211542e+002, 2.392999e+001
8.216364e+002, 2.395093e+001
8.221185e+002, 2.359398e+001
8.226006e+002, 2.306531e+001
8.230827e+002, 2.316736e+001
8.235648e+002, 2.381252e+001
8.240469e+002, 2.429174e+001
8.245291e+002, 2.407256e+001
8.250112e+002, 2.364510e+001
8.254933e+002, 2.345174e+001
8.259754e+002, 2.343926e+001
8.264575e+002, 2.343136e+001
8.269396e+002, 2.336223e+001
8.274218e+002, 2.329899e+001
8.279039e+002, 2.319752e+001
8.283860e+002, 2.312156e+001
8.288681e+002, 2.337250e+001
8.293502e+002, 2.405100e+001
8.298323e+002, 2.445273e+001
8.303145e+002, 2.422928e+001
8.307966e+002, 2.372856e+001
8.312787e+002, 2.364490e+001
8.317608e+002, 2.385446e+001
8.322429e+002, 2.397622e+001
8.327250e+002, 2.365660e+001
8.332072e+002, 2.338162e+001
8.336893e+002, 2.355695e+001
8.341714e+002, 2.397079e+001
8.346535e+002, 2.402230e+001
8.351356e+002, 2.328272e+001
8.356177e+002, 2.293134e+001
8.360999e+002, 2.333352e+001
8.365820e+002, 2.409009e+001
8.370641e+002, 2.418727e+001
8.375462e+002, 2.370053e+001
8.380283e+002, 2.352660e+001
8.385104e+002, 2.410413e+001
8.389926e+002, 2.483057e+001
8.394747e+002, 2.510526e+001
8.399568e+002, 2.504240e+001
8.404389e+002, 2.484234e+001
8.409210e+002, 2.437624e+001
8.414031e+002, 2.401620e+001
8.418853e+002, 2.381661e+001
8.423674e+002, 2.378235e+001
8.428495e+002, 2.399638e+001
8.433316e+002, 2.455112e+001
8.438137e+002, 2.487448e+001
8.442958e+002, 2.484241e+001
8.447780e+002, 2.463338e+001
8.452601e+002, 2.441793e+001
8.457422e+002, 2.424000e+001
8.462243e+002, 2.421684e+001
8.467064e+002, 2.443283e+001
8.471885e+002, 2.467445e+001
8.476707e+002, 2.483889e+001
8.481528e+002, 2.495274e+001
8.486349e+002, 2.504936e+001
8.491170e+002, 2.519348e+001
8.495991e+002, 2.518229e+001
8.500812e+002, 2.490480e+001
8.505634e+002, 2.464342e+001
8.510455e+002, 2.481860e+001
8.515276e+002, 2.535073e+001
8.520097e+002, 2.557369e+001
8.524918e+002, 2.536434e+001
8.529739e+002, 2.512263e+001
8.534561e+002, 2.530359e+001
8.539382e+002, 2.561037e+001
8.544203e+002, 2.571630e+001
8.549024e+002, 2.553950e+001
8.553845e+002, 2.522954e+001
8.558666e+002, 2.454318e+001
8.563488e+002, 2.397613e+001
8.568309e+002, 2.394751e+001
8.573130e+002, 2.457118e+001
8.577951e+002, 2.476514e+001
8.582772e+002, 2.446020e+001
8.587593e+002, 2.417011e+001
8.592415e+002, 2.454178e+001
8.597236e+002, 2.515397e+001
8.602057e+002, 2.521264e+001
8.606878e+002, 2.465466e+001
8.611699e+002, 2.418032e+001
8.616520e+002, 2.422450e+001
8.621342e+002, 2.437690e+001
8.626163e+002, 2.436216e+001
8.630984e+002, 2.416434e+001
8.635805e+002, 2.413895e+001
8.640626e+002, 2.436040e+001
8.645447e+002, 2.453722e+001
8.650269e+002, 2.446402e+001
8.655090e+002, 2.422214e+001
8.659911e+002, 2.406590e+001
8.664732e+002, 2.399692e+001
8.669553e+002, 2.402407e+001
8.674374e+002, 2.434251e+001
8.679196e+002, 2.459683e+001
8.684017e+002, 2.444468e+001
8.688838e+002, 2.394981e+001
8.693659e+002, 2.364167e+001
8.698480e+002, 2.368953e+001
8.703301e+002, 2.371414e+001
8.708123e+002, 2.359645e+001
8.712944e+002, 2.338071e+001
8.717765e+002, 2.319928e+001
8.722586e+002, 2.305558e+001
8.727407e+002, 2.296968e+001
8.732228e+002, 2.297245e+001
8.737050e+002, 2.301409e+001
8.741871e+002, 2.308063e+001
8.746692e+002, 2.314360e+001
8.751513e+002, 2.314144e+001
8.756334e+002, 2.288465e+001
8.761155e+002, 2.278887e+001
8.765977e+002, 2.305143e+001
8.770798e+002, 2.342891e+001
8.775619e+002, 2.342828e+001
8.780440e+002, 2.301499e+001
8.785261e+002, 2.272483e+001
8.790082e+002, 2.267608e+001
8.794904e+002, 2.275541e+001
8.799725e+002, 2.293429e+001
8.804546e+002, 2.310308e+001
8.809367e+002, 2.304491e+001
8.814188e+002, 2.257316e+001
8.819009e+002, 2.215129e+001
8.823831e+002, 2.198465e+001
8.828652e+002, 2.191858e+001
8.833473e+002, 2.176990e+001
8.838294e+002, 2.144485e+001
8.843115e+002, 2.146161e+001
8.847936e+002, 2.193379e+001
8.852758e+002, 2.239006e+001
8.857579e+002, 2.219928e+001
8.862400e+002, 2.165700e+001
8.867221e+002, 2.150165e+001
8.872042e+002, 2.184624e+001
8.876863e+002, 2.209436e+001
8.881685e+002, 2.177725e+001
8.886506e+002, 2.133912e+001
8.891327e+002, 2.110363e+001
8.896148e+002, 2.111696e+001
8.900969e+002, 2.107637e+001
8.905790e+002, 2.094539e+001
8.910612e+002, 2.085307e+001
8.915433e+002, 2.091535e+001
8.920254e+002, 2.107560e+001
8.925075e+002, 2.113881e+001
8.929896e+002, 2.110557e+001
8.934717e+002, 2.098525e+001
8.939539e+002, 2.056453e+001
8.944360e+002, 2.025233e+001
8.949181e+002, 2.045222e+001
8.954002e+002, 2.106676e+001
8.958823e+002, 2.140684e+001
8.963644e+002, 2.136353e+001
8.968466e+002, 2.117430e+001
8.973287e+002, 2.082648e+001
8.978108e+002, 2.043746e+001
8.982929e+002, 2.037184e+001
8.987750e+002, 2.057728e+001
8.992571e+002, 2.070629e+001
8.997393e+002, 2.055889e+001
9.002214e+002, 2.038833e+001
9.007035e+002, 2.040764e+001
9.011856e+002, 2.054945e+001
9.016677e+002, 2.070013e+001
9.021498e+002, 2.095002e+001
9.026320e+002, 2.103481e+001
9.031141e+002, 2.089283e+001
9.035962e+002, 2.063727e+001
9.040783e+002, 2.037503e+001
9.045604e+002, 2.011472e+001
9.050425e+002, 2.002643e+001
9.055247e+002, 2.015495e+001
9.060068e+002, 2.032807e+001
9.064889e+002, 2.037985e+001
9.069710e+002, 2.038743e+001
9.074531e+002, 2.045280e+001
9.079352e+002, 2.063430e+001
9.084174e+002, 2.071618e+001
9.088995e+002, 2.070894e+001
9.093816e+002, 2.054945e+001
9.098637e+002, 2.010376e+001
9.103458e+002, 1.936808e+001
9.108279e+002, 1.906978e+001
9.113101e+002, 1.921515e+001
9.117922e+002, 1.946649e+001
9.122743e+002, 1.967514e+001
9.127564e+002, 1.979459e+001
9.132385e+002, 1.968033e+001
9.137206e+002, 1.938143e+001
9.142028e+002, 1.925977e+001
9.146849e+002, 1.974479e+001
9.151670e+002, 2.003565e+001
9.156491e+002, 1.976804e+001
9.161312e+002, 1.915464e+001
9.166133e+002, 1.908179e+001
9.170955e+002, 1.955931e+001
9.175776e+002, 2.000829e+001
9.180597e+002, 2.022748e+001
9.185418e+002, 2.030139e+001
9.190239e+002, 2.030326e+001
9.195060e+002, 2.024250e+001
9.199882e+002, 2.013791e+001
9.204703e+002, 1.988518e+001
9.209524e+002, 1.973385e+001
9.214345e+002, 1.973248e+001
9.219166e+002, 1.983949e+001
9.223987e+002, 2.003775e+001
9.228809e+002, 2.033780e+001
9.233630e+002, 2.056091e+001
9.238451e+002, 2.068341e+001
9.243272e+002, 2.075488e+001
9.248093e+002, 2.082015e+001
9.252914e+002, 2.086935e+001
9.257736e+002, 2.086731e+001
9.262557e+002, 2.078994e+001
9.267378e+002, 2.079132e+001
9.272199e+002, 2.108175e+001
9.277020e+002, 2.129841e+001
9.281841e+002, 2.117283e+001
9.286663e+002, 2.070714e+001
9.291484e+002, 2.075705e+001
9.296305e+002, 2.134952e+001
9.301126e+002, 2.186949e+001
9.305947e+002, 2.179944e+001
9.310768e+002, 2.151947e+001
9.315590e+002, 2.153419e+001
9.320411e+002, 2.178001e+001
9.325232e+002, 2.195980e+001
9.330053e+002, 2.203656e+001
9.334874e+002, 2.194692e+001
9.339695e+002, 2.159625e+001
9.344517e+002, 2.111897e+001
9.349338e+002, 2.085657e+001
9.354159e+002, 2.081578e+001
9.358980e+002, 2.075654e+001
9.363801e+002, 2.061721e+001
9.368622e+002, 2.043360e+001
9.373444e+002, 2.018501e+001
9.378265e+002, 1.994487e+001
9.383086e+002, 1.981694e+001
9.387907e+002, 1.982631e+001
9.392728e+002, 1.997032e+001
9.397549e+002, 2.042813e+001
9.402371e+002, 2.083459e+001
9.407192e+002, 2.081912e+001
9.412013e+002, 2.036151e+001
9.416834e+002, 2.019734e+001
9.421655e+002, 2.036064e+001
9.426476e+002, 2.060976e+001
9.431298e+002, 2.085133e+001
9.436119e+002, 2.099882e+001
9.440940e+002, 2.091793e+001
9.445761e+002, 2.061084e+001
9.450582e+002, 2.032825e+001
9.455403e+002, 2.015484e+001
9.460225e+002, 1.997510e+001
9.465046e+002, 1.969981e+001
9.469867e+002, 1.940362e+001
9.474688e+002, 1.946300e+001
9.479509e+002, 1.985205e+001
9.484330e+002, 2.017097e+001
9.489152e+002, 2.017515e+001
9.493973e+002, 2.014177e+001
9.498794e+002, 2.041807e+001
9.503615e+002, 2.082867e+001
9.508436e+002, 2.106320e+001
9.513257e+002, 2.084947e+001
9.518079e+002, 2.073277e+001
9.522900e+002, 2.078310e+001
9.527721e+002, 2.088401e+001
9.532542e+002, 2.089582e+001
9.537363e+002, 2.082853e+001
9.542184e+002, 2.075544e+001
9.547006e+002, 2.068471e+001
9.551827e+002, 2.060763e+001
9.556648e+002, 2.046093e+001
9.561469e+002, 2.034283e+001
9.566290e+002, 2.037603e+001
9.571111e+002, 2.059989e+001
9.575933e+002, 2.070025e+001
9.580754e+002, 2.064425e+001
9.585575e+002, 2.050614e+001
9.590396e+002, 2.028198e+001
9.595217e+002, 2.001808e+001
9.600038e+002, 1.984559e+001
9.604860e+002, 1.977101e+001
9.609681e+002, 1.982860e+001
9.614502e+002, 2.018528e+001
9.619323e+002, 2.052789e+001
9.624144e+002, 2.055870e+001
9.628965e+002, 2.046173e+001
9.633787e+002, 2.068799e+001
9.638608e+002, 2.154791e+001
9.643429e+002, 2.192489e+001
9.648250e+002, 2.158780e+001
9.653071e+002, 2.097529e+001
9.657892e+002, 2.058945e+001
9.662714e+002, 2.041825e+001
9.667535e+002, 2.049577e+001
9.672356e+002, 2.087181e+001
9.677177e+002, 2.114898e+001
9.681998e+002, 2.096031e+001
9.686819e+002, 2.070930e+001
9.691641e+002, 2.069057e+001
9.696462e+002, 2.092256e+001
9.701283e+002, 2.115086e+001
9.706104e+002, 2.137650e+001
9.710925e+002, 2.160972e+001
9.715746e+002, 2.193152e+001
9.720568e+002, 2.222530e+001
9.725389e+002, 2.216616e+001
9.730210e+002, 2.188084e+001
9.735031e+002, 2.178980e+001
9.739852e+002, 2.233555e+001
9.744673e+002, 2.277391e+001
9.749495e+002, 2.269919e+001
9.754316e+002, 2.249765e+001
9.759137e+002, 2.295411e+001
9.763958e+002, 2.412450e+001
9.768779e+002, 2.487841e+001
9.773600e+002, 2.498019e+001
9.778422e+002, 2.480689e+001
9.783243e+002, 2.460346e+001
9.788064e+002, 2.445177e+001
9.792885e+002, 2.448174e+001
9.797706e+002, 2.475467e+001
9.802527e+002, 2.500885e+001
9.807349e+002, 2.523702e+001
9.812170e+002, 2.539048e+001
9.816991e+002, 2.540824e+001
9.821812e+002, 2.531663e+001
9.826633e+002, 2.523923e+001
9.831454e+002, 2.519772e+001
9.836276e+002, 2.543789e+001
9.841097e+002, 2.634001e+001
9.845918e+002, 2.736547e+001
9.850739e+002, 2.807751e+001
9.855560e+002, 2.858698e+001
9.860381e+002, 2.919390e+001
9.865203e+002, 2.996037e+001
9.870024e+002, 3.075727e+001
9.874845e+002, 3.160221e+001
9.879666e+002, 3.240669e+001
9.884487e+002, 3.293587e+001
9.889308e+002, 3.332144e+001
9.894130e+002, 3.394521e+001
9.898951e+002, 3.486796e+001
9.903772e+002, 3.606035e+001
9.908593e+002, 3.775278e+001
9.913414e+002, 3.951195e+001
9.918235e+002, 4.092826e+001
9.923057e+002, 4.197176e+001
9.927878e+002, 4.345058e+001
9.932699e+002, 4.534436e+001
9.937520e+002, 4.785246e+001
9.942341e+002, 5.124224e+001
9.947162e+002, 5.520797e+001
9.951984e+002, 5.896249e+001
9.956805e+002, 6.283020e+001
9.961626e+002, 6.758517e+001
9.966447e+002, 7.352932e+001
9.971268e+002, 8.051634e+001
9.976089e+002, 8.893395e+001
9.980911e+002, 9.804738e+001
9.985732e+002, 1.070135e+002
9.990553e+002, 1.158613e+002
9.995374e+002, 1.242772e+002
1.000020e+003, 1.323959e+002
1.000502e+003, 1.372374e+002
1.000984e+003, 1.352693e+002
1.001466e+003, 1.290725e+002
1.001948e+003, 1.204147e+002
1.002430e+003, 1.093670e+002
1.002912e+003, 9.853995e+001
1.003394e+003, 8.786233e+001
1.003876e+003, 7.804496e+001
1.004359e+003, 6.925785e+001
1.004841e+003, 6.160340e+001
1.005323e+003, 5.594865e+001
1.005805e+003, 5.197168e+001
1.006287e+003, 4.858765e+001
1.006769e+003, 4.526908e+001
1.007251e+003, 4.240503e+001
1.007733e+003, 4.035894e+001
1.008216e+003, 3.885027e+001
1.008698e+003, 3.748771e+001
1.009180e+003, 3.621789e+001
1.009662e+003, 3.527839e+001
1.010144e+003, 3.472575e+001
1.010626e+003, 3.428870e+001
1.011108e+003, 3.366762e+001
1.011590e+003, 3.302036e+001
1.012072e+003, 3.258604e+001
1.012555e+003, 3.237465e+001
1.013037e+003, 3.228738e+001
1.013519e+003, 3.255278e+001
1.014001e+003, 3.261458e+001
1.014483e+003, 3.219812e+001
1.014965e+003, 3.148522e+001
1.015447e+003, 3.107722e+001
1.015929e+003, 3.095779e+001
1.016411e+003, 3.100860e+001
1.016894e+003, 3.127272e+001
1.017376e+003, 3.150035e+001
1.017858e+003, 3.134442e+001
1.018340e+003, 3.108171e+001
1.018822e+003, 3.107857e+001
1.019304e+003, 3.154521e+001
1.019786e+003, 3.184448e+001
1.020268e+003, 3.194152e+001
1.020751e+003, 3.196505e+001
1.021233e+003, 3.198764e+001
1.021715e+003, 3.201900e+001
1.022197e+003, 3.209021e+001
1.022679e+003, 3.219668e+001
1.023161e+003, 3.230746e+001
1.023643e+003, 3.246225e+001
1.024125e+003, 3.255626e+001
1.024607e+003, 3.254923e+001
1.025090e+003, 3.245313e+001
1.025572e+003, 3.223899e+001
1.026054e+003, 3.188729e+001
1.026536e+003, 3.171930e+001
1.027018e+003, 3.182591e+001
1.027500e+003, 3.197158e+001
1.027982e+003, 3.190842e+001
1.028464e+003, 3.174102e+001
1.028947e+003, 3.153492e+001
1.029429e+003, 3.124128e+001
1.029911e+003, 3.132086e+001
1.030393e+003, 3.209014e+001
1.030875e+003, 3.266198e+001
1.031357e+003, 3.249495e+001
1.031839e+003, 3.182471e+001
1.032321e+003, 3.137364e+001
1.032803e+003, 3.113611e+001
1.033286e+003, 3.107048e+001
1.033768e+003, 3.124963e+001
1.034250e+003, 3.149294e+001
1.034732e+003, 3.169270e+001
1.035214e+003, 3.192976e+001
1.035696e+003, 3.236360e+001
1.036178e+003, 3.309209e+001
1.036660e+003, 3.344395e+001
1.037143e+003, 3.333279e+001
1.037625e+003, 3.313432e+001
1.038107e+003, 3.304238e+001
1.038589e+003, 3.315961e+001
1.039071e+003, 3.373668e+001
1.039553e+003, 3.475244e+001
1.040035e+003, 3.557086e+001
1.040517e+003, 3.590108e+001
1.041000e+003, 3.625974e+001
1.041482e+003, 3.676698e+001
1.041964e+003, 3.739845e+001
1.042446e+003, 3.817997e+001
1.042928e+003, 3.904187e+001
1.043410e+003, 3.963337e+001
1.043892e+003, 3.974786e+001
1.044374e+003, 3.988842e+001
1.044856e+003, 4.046780e+001
1.045339e+003, 4.112503e+001
1.045821e+003, 4.148661e+001
1.046303e+003, 4.146072e+001
1.046785e+003, 4.176923e+001
1.047267e+003, 4.241036e+001
1.047749e+003, 4.337957e+001
1.048231e+003, 4.497691e+001
1.048713e+003, 4.666793e+001
1.049195e+003, 4.768719e+001
1.049677e+003, 4.822121e+001
1.050160e+003, 4.879012e+001
1.050642e+003, 4.954266e+001
1.051124e+003, 5.032365e+001
1.051606e+003, 5.103697e+001
1.052088e+003, 5.189256e+001
1.052570e+003, 5.326652e+001
1.053052e+003, 5.503123e+001
1.053534e+003, 5.655455e+001
1.054017e+003, 5.775046e+001
1.054499e+003, 5.913665e+001
1.054981e+003, 6.115977e+001
1.055463e+003, 6.337170e+001
1.055945e+003, 6.550204e+001
1.056427e+003, 6.756367e+001
1.056909e+003, 6.952616e+001
1.057391e+003, 7.134078e+001
1.057874e+003, 7.361610e+001
1.058356e+003, 7.655591e+001
1.058838e+003, 8.005626e+001
1.059320e+003, 8.396030e+001
1.059802e+003, 8.834065e+001
1.060284e+003, 9.342538e+001
1.060766e+003, 9.938962e+001
1.061248e+003, 1.058270e+002
1.061730e+003, 1.126858e+002
1.062213e+003, 1.200414e+002
1.062695e+003, 1.274682e+002
1.063177e+003, 1.354817e+002
1.063659e+003, 1.460314e+002
1.064141e+003, 1.589822e+002
1.064623e+003, 1.735257e+002
1.065105e+003, 1.881939e+002
1.065587e+003, 2.056149e+002
1.066070e+003, 2.275462e+002
1.066552e+003, 2.527753e+002
1.067034e+003, 2.796212e+002
1.067516e+003, 3.079483e+002
1.067998e+003, 3.381510e+002
1.068480e+003, 3.698466e+002
1.068962e+003, 4.049292e+002
1.069444e+003, 4.446109e+002
1.069927e+003, 4.886913e+002
1.070409e+003, 5.362004e+002
1.070891e+003, 5.869195e+002
1.071373e+003, 6.488951e+002
1.071855e+003, 7.212688e+002
1.072337e+003, 8.068263e+002
1.072819e+003, 9.053126e+002
1.073301e+003, 1.020742e+003
1.073783e+003, 1.165699e+003
1.074266e+003, 1.334148e+003
1.074748e+003, 1.511325e+003
1.075230e+003, 1.682177e+003
1.075712e+003, 1.893146e+003
1.076194e+003, 2.179983e+003
1.076676e+003, 2.488427e+003
1.077158e+003, 2.827617e+003
1.077640e+003, 3.177161e+003
1.078122e+003, 3.343855e+003
1.078604e+003, 3.333189e+003
1.079087e+003, 3.192110e+003
1.079569e+003, 2.875622e+003
1.080051e+003, 2.512689e+003
1.080533e+003, 2.142751e+003
1.081015e+003, 1.795160e+003
1.081497e+003, 1.510582e+003
1.081979e+003, 1.302292e+003
1.082461e+003, 1.114375e+003
1.082944e+003, 9.430696e+002
1.083426e+003, 7.937543e+002
1.083908e+003, 6.775089e+002
1.084390e+003, 5.850018e+002
1.084872e+003, 5.076936e+002
1.085354e+003, 4.441265e+002
1.085836e+003, 3.911617e+002
1.086318e+003, 3.487817e+002
1.086801e+003, 3.129034e+002
1.087283e+003, 2.832410e+002
1.087765e+003, 2.584883e+002
1.088247e+003, 2.368396e+002
1.088729e+003, 2.180200e+002
1.089211e+003, 2.018760e+002
1.089693e+003, 1.885188e+002
1.090175e+003, 1.764080e+002
1.090657e+003, 1.649820e+002
1.091140e+003, 1.546275e+002
1.091622e+003, 1.455937e+002
1.092104e+003, 1.378067e+002
1.092586e+003, 1.308337e+002
1.093068e+003, 1.246083e+002
1.093550e+003, 1.186175e+002
1.094032e+003, 1.119270e+002
1.094514e+003, 1.063388e+002
1.094997e+003, 1.039443e+002
1.095479e+003, 1.030990e+002
1.095961e+003, 1.014477e+002
1.096443e+003, 9.838165e+001
1.096925e+003, 9.616940e+001
1.097407e+003, 9.478377e+001
1.097889e+003, 9.441031e+001
1.098371e+003, 9.582393e+001
1.098854e+003, 9.790361e+001
1.099336e+003, 9.966344e+001
1.099818e+003, 1.008908e+002
1.100300e+003, 1.009230e+002
1.100782e+003, 9.969458e+001
1.101264e+003, 9.703882e+001
1.101746e+003, 9.271497e+001
1.102228e+003, 8.744106e+001
1.102710e+003, 8.180542e+001
1.103193e+003, 7.608012e+001
1.103675e+003, 7.070950e+001
1.104157e+003, 6.577602e+001
1.104639e+003, 6.145116e+001
1.105121e+003, 5.793142e+001
1.105603e+003, 5.488961e+001
1.106085e+003, 5.217996e+001
1.106567e+003, 4.978645e+001
1.107049e+003, 4.777295e+001
1.107531e+003, 4.608162e+001
1.108014e+003, 4.445158e+001
1.108496e+003, 4.275113e+001
1.108978e+003, 4.119968e+001
1.109460e+003, 3.993287e+001
1.109942e+003, 3.889830e+001
1.110424e+003, 3.815240e+001
1.110906e+003, 3.770304e+001
1.111388e+003, 3.680459e+001
1.111871e+003, 3.540913e+001
1.112353e+003, 3.426752e+001
1.112835e+003, 3.389851e+001
1.113317e+003, 3.378499e+001
1.113799e+003, 3.343361e+001
1.114281e+003, 3.293534e+001
1.114763e+003, 3.244281e+001
1.115245e+003, 3.218569e+001
1.115728e+003, 3.139637e+001
1.116210e+003, 2.983540e+001
1.116692e+003, 2.854300e+001
1.117174e+003, 2.875029e+001
1.117656e+003, 2.964780e+001
1.118138e+003, 2.975029e+001
1.118620e+003, 2.918603e+001
1.119102e+003, 2.864467e+001
1.119584e+003, 2.847462e+001
1.120067e+003, 2.817362e+001
1.120549e+003, 2.761844e+001
1.121031e+003, 2.697766e+001
1.121513e+003, 2.648276e+001
1.121995e+003, 2.609082e+001
1.122477e+003, 2.563318e+001
1.122959e+003, 2.509211e+001
1.123441e+003, 2.467185e+001
1.123924e+003, 2.451602e+001
1.124406e+003, 2.447949e+001
1.124888e+003, 2.458644e+001
1.125370e+003, 2.471512e+001
1.125852e+003, 2.445434e+001
1.126334e+003, 2.384546e+001
1.126816e+003, 2.337475e+001
1.127298e+003, 2.316648e+001
1.127781e+003, 2.306222e+001
1.128263e+003, 2.303502e+001
1.128745e+003, 2.299348e+001
1.129227e+003, 2.281759e+001
1.129709e+003, 2.251873e+001
1.130191e+003, 2.243282e+001
1.130673e+003, 2.257344e+001
1.131155e+003, 2.270049e+001
1.131637e+003, 2.269982e+001
1.132120e+003, 2.267509e+001
1.132602e+003, 2.284660e+001
1.133084e+003, 2.301409e+001
1.133566e+003, 2.284445e+001
1.134048e+003, 2.210952e+001
1.134530e+003, 2.172487e+001
1.135012e+003, 2.175323e+001
1.135494e+003, 2.187811e+001
1.135976e+003, 2.197126e+001
1.136458e+003, 2.198077e+001
1.136941e+003, 2.180136e+001
1.137423e+003, 2.147218e+001
1.137905e+003, 2.109001e+001
1.138387e+003, 2.046777e+001
1.138869e+003, 2.014431e+001
1.139351e+003, 2.022106e+001
1.139833e+003, 2.044037e+001
1.140315e+003, 2.062380e+001
1.140798e+003, 2.073511e+001
1.141280e+003, 2.066340e+001
1.141762e+003, 2.042401e+001
1.142244e+003, 2.014188e+001
1.142726e+003, 1.976315e+001
1.143208e+003, 1.948911e+001
1.143690e+003, 1.938321e+001
1.144172e+003, 1.936786e+001
1.144655e+003, 1.935925e+001
1.145137e+003, 1.933939e+001
1.145619e+003, 1.924083e+001
1.146101e+003, 1.905561e+001
1.146583e+003, 1.877412e+001
1.147065e+003, 1.815385e+001
1.147547e+003, 1.770473e+001
1.148029e+003, 1.772502e+001
1.148511e+003, 1.803801e+001
1.148994e+003, 1.819786e+001
1.149476e+003, 1.819918e+001
1.149958e+003, 1.793045e+001
1.150440e+003, 1.729156e+001
1.150922e+003, 1.675281e+001
1.151404e+003, 1.671245e+001
1.151886e+003, 1.685861e+001
1.152368e+003, 1.699696e+001
1.152851e+003, 1.711187e+001
1.153333e+003, 1.709108e+001
1.153815e+003, 1.693364e+001
1.154297e+003, 1.677997e+001
1.154779e+003, 1.667706e+001
1.155261e+003, 1.660815e+001
1.155743e+003, 1.660485e+001
1.156225e+003, 1.660275e+001
1.156708e+003, 1.648596e+001
1.157190e+003, 1.620255e+001
1.157672e+003, 1.620838e+001
1.158154e+003, 1.653760e+001
1.158636e+003, 1.686456e+001
1.159118e+003, 1.703905e+001
1.159600e+003, 1.708174e+001
1.160082e+003, 1.693954e+001
1.160564e+003, 1.670394e+001
1.161047e+003, 1.652816e+001
1.161529e+003, 1.637358e+001
1.162011e+003, 1.646138e+001
1.162493e+003, 1.686306e+001
1.162975e+003, 1.721575e+001
1.163457e+003, 1.720169e+001
1.163939e+003, 1.699775e+001
1.164421e+003, 1.679315e+001
1.164903e+003, 1.660809e+001
1.165385e+003, 1.649146e+001
1.165868e+003, 1.651175e+001
1.166350e+003, 1.647738e+001
1.166832e+003, 1.633633e+001
1.167314e+003, 1.624483e+001
1.167796e+003, 1.645676e+001
1.168278e+003, 1.678824e+001
1.168760e+003, 1.686519e+001
1.169242e+003, 1.671886e+001
1.169725e+003, 1.668009e+001
1.170207e+003, 1.691775e+001
1.170689e+003, 1.719299e+001
1.171171e+003, 1.752127e+001
1.171653e+003, 1.777545e+001
1.172135e+003, 1.771623e+001
1.172617e+003, 1.745852e+001
1.173099e+003, 1.723499e+001
1.173582e+003, 1.707447e+001
1.174064e+003, 1.698344e+001
1.174546e+003, 1.715299e+001
1.175028e+003, 1.712148e+001
1.175510e+003, 1.667643e+001
1.175992e+003, 1.608377e+001
1.176474e+003, 1.592060e+001
1.176956e+003, 1.605442e+001
1.177438e+003, 1.608484e+001
1.177921e+003, 1.591360e+001
1.178403e+003, 1.585419e+001
1.178885e+003, 1.624810e+001
1.179367e+003, 1.653095e+001
1.179849e+003, 1.646091e+001
1.180331e+003, 1.613526e+001
1.180813e+003, 1.576411e+001
1.181295e+003, 1.539395e+001
1.181778e+003, 1.521982e+001
1.182260e+003, 1.534214e+001
1.182742e+003, 1.549092e+001
1.183224e+003, 1.560238e+001
1.183706e+003, 1.564294e+001
1.184188e+003, 1.558792e+001
1.184670e+003, 1.544857e+001
1.185152e+003, 1.521974e+001
1.185635e+003, 1.494716e+001
1.186117e+003, 1.487666e+001
1.186599e+003, 1.522521e+001
1.187081e+003, 1.553180e+001
1.187563e+003, 1.557664e+001
1.188045e+003, 1.547427e+001
1.188527e+003, 1.527840e+001
1.189009e+003, 1.500327e+001
1.189491e+003, 1.477107e+001
1.189974e+003, 1.459943e+001
1.190456e+003, 1.462518e+001
1.190938e+003, 1.516789e+001
1.191420e+003, 1.558262e+001
1.191902e+003, 1.545519e+001
1.192384e+003, 1.510882e+001
1.192866e+003, 1.482606e+001
1.193348e+003, 1.460465e+001
1.193830e+003, 1.458859e+001
1.194313e+003, 1.476058e+001
1.194795e+003, 1.491617e+001
1.195277e+003, 1.491283e+001
1.195759e+003, 1.488294e+001
1.196241e+003, 1.488425e+001
1.196723e+003, 1.490862e+001
1.197205e+003, 1.496103e+001
1.197687e+003, 1.504428e+001
1.198169e+003, 1.501822e+001
1.198652e+003, 1.488265e+001
1.199134e+003, 1.479767e+001
1.199616e+003, 1.497112e+001
1.200098e+003, 1.512368e+001
1.200580e+003, 1.501503e+001
1.201062e+003, 1.480985e+001
1.201544e+003, 1.485612e+001
1.202026e+003, 1.517052e+001
1.202509e+003, 1.496616e+001
1.202991e+003, 1.416866e+001
1.203473e+003, 1.354810e+001
1.203955e+003, 1.392210e+001
1.204437e+003, 1.439685e+001
1.204919e+003, 1.432262e+001
1.205401e+003, 1.394165e+001
1.205883e+003, 1.381741e+001
1.206365e+003, 1.395526e+001
1.206848e+003, 1.400203e+001
1.207330e+003, 1.390083e+001
1.207812e+003, 1.388939e+001
1.208294e+003, 1.422469e+001
1.208776e+003, 1.464643e+001
1.209258e+003, 1.510454e+001
1.209740e+003, 1.548020e+001
1.210222e+003, 1.533937e+001
1.210705e+003, 1.467328e+001
1.211187e+003, 1.419964e+001
1.211669e+003, 1.405727e+001
1.212151e+003, 1.399993e+001
1.212633e+003, 1.378924e+001
1.213115e+003, 1.363133e+001
1.213597e+003, 1.379350e+001
1.214079e+003, 1.413505e+001
1.214562e+003, 1.409741e+001
1.215044e+003, 1.369070e+001
1.215526e+003, 1.332870e+001
1.216008e+003, 1.307248e+001
1.216490e+003, 1.305193e+001
1.216972e+003, 1.370336e+001
1.217454e+003, 1.433250e+001
1.217936e+003, 1.427576e+001
1.218418e+003, 1.371675e+001
1.218901e+003, 1.364254e+001
1.219383e+003, 1.402619e+001
1.219865e+003, 1.427695e+001
1.220347e+003, 1.420634e+001
1.220829e+003, 1.404944e+001
1.221311e+003, 1.398243e+001
1.221793e+003, 1.389216e+001
1.222275e+003, 1.363272e+001
1.222757e+003, 1.325845e+001
1.223240e+003, 1.326316e+001
1.223722e+003, 1.360420e+001
1.224204e+003, 1.368933e+001
1.224686e+003, 1.320439e+001
1.225168e+003, 1.276626e+001
1.225650e+003, 1.283806e+001
1.226132e+003, 1.308487e+001
1.226614e+003, 1.327422e+001
1.227096e+003, 1.339784e+001
1.227579e+003, 1.332907e+001
1.228061e+003, 1.309853e+001
1.228543e+003, 1.298305e+001
1.229025e+003, 1.313458e+001
1.229507e+003, 1.331535e+001
1.229989e+003, 1.345771e+001
1.230471e+003, 1.350312e+001
1.230953e+003, 1.337776e+001
1.231436e+003, 1.311057e+001
1.231918e+003, 1.298923e+001
1.232400e+003, 1.299636e+001
1.232882e+003, 1.301929e+001
1.233364e+003, 1.303112e+001
1.233846e+003, 1.301067e+001
1.234328e+003, 1.295762e+001
1.234810e+003, 1.285409e+001
1.235292e+003, 1.265253e+001
1.235775e+003, 1.238105e+001
1.236257e+003, 1.224868e+001
1.236739e+003, 1.224942e+001
1.237221e+003, 1.235388e+001
1.237703e+003, 1.268419e+001
1.238185e+003, 1.289730e+001
1.238667e+003, 1.277367e+001
1.239149e+003, 1.256945e+001
1.239632e+003, 1.244605e+001
1.240114e+003, 1.239658e+001
1.240596e+003, 1.234384e+001
1.241078e+003, 1.231087e+001
1.241560e+003, 1.239692e+001
1.242042e+003, 1.287031e+001
1.242524e+003, 1.312548e+001
1.243006e+003, 1.288311e+001
1.243489e+003, 1.256465e+001
1.243971e+003, 1.250100e+001
1.244453e+003, 1.263610e+001
1.244935e+003, 1.279513e+001
1.245417e+003, 1.295280e+001
1.245899e+003, 1.301139e+001
1.246381e+003, 1.282792e+001
1.246863e+003, 1.269349e+001
1.247345e+003, 1.266949e+001
1.247828e+003, 1.266763e+001
1.248310e+003, 1.257715e+001
1.248792e+003, 1.246303e+001
1.249274e+003, 1.255029e+001
1.249756e+003, 1.277470e+001
1.250238e+003, 1.291147e+001
1.250720e+003, 1.286088e+001
1.251202e+003, 1.272460e+001
1.251684e+003, 1.247563e+001
1.252167e+003, 1.223481e+001
1.252649e+003, 1.210344e+001
1.253131e+003, 1.205362e+001
1.253613e+003, 1.201661e+001
1.254095e+003, 1.201139e+001
1.254577e+003, 1.210915e+001
1.255059e+003, 1.251402e+001
1.255541e+003, 1.263386e+001
1.256023e+003, 1.236280e+001
1.256506e+003, 1.206292e+001
1.256988e+003, 1.206946e+001
1.257470e+003, 1.222864e+001
1.257952e+003, 1.237854e+001
1.258434e+003, 1.249508e+001
1.258916e+003, 1.251838e+001
1.259398e+003, 1.245162e+001
1.259880e+003, 1.226324e+001
1.260363e+003, 1.192993e+001
1.260845e+003, 1.160593e+001
1.261327e+003, 1.135867e+001
1.261809e+003, 1.123975e+001
1.262291e+003, 1.137508e+001
1.262773e+003, 1.167008e+001
1.263255e+003, 1.188439e+001
1.263737e+003, 1.201853e+001
1.264219e+003, 1.198340e+001
1.264702e+003, 1.175692e+001
1.265184e+003, 1.159551e+001
1.265666e+003, 1.185397e+001
1.266148e+003, 1.210246e+001
1.266630e+003, 1.187518e+001
1.267112e+003, 1.144132e+001
1.267594e+003, 1.141982e+001
1.268076e+003, 1.185343e+001
1.268559e+003, 1.198834e+001
1.269041e+003, 1.177783e+001
1.269523e+003, 1.155000e+001
1.270005e+003, 1.157121e+001
1.270487e+003, 1.159501e+001
1.270969e+003, 1.139322e+001
1.271451e+003, 1.115953e+001
1.271933e+003, 1.120163e+001
1.272416e+003, 1.149158e+001
1.272898e+003, 1.165829e+001
1.273380e+003, 1.168635e+001
1.273862e+003, 1.169658e+001
1.274344e+003, 1.179116e+001
1.274826e+003, 1.183608e+001
1.275308e+003, 1.178045e+001
1.275790e+003, 1.166366e+001
1.276272e+003, 1.148949e+001
1.276755e+003, 1.129710e+001
1.277237e+003, 1.124502e+001
1.277719e+003, 1.132960e+001
1.278201e+003, 1.145396e+001
1.278683e+003, 1.164082e+001
1.279165e+003, 1.176201e+001
1.279647e+003, 1.177189e+001
1.280129e+003, 1.175908e+001
1.280611e+003, 1.189454e+001
1.281094e+003, 1.205254e+001
1.281576e+003, 1.188401e+001
1.282058e+003, 1.145901e+001
1.282540e+003, 1.120555e+001
1.283022e+003, 1.134956e+001
1.283504e+003, 1.145636e+001
1.283986e+003, 1.148338e+001
1.284468e+003, 1.146829e+001
1.284950e+003, 1.144000e+001
1.285433e+003, 1.139824e+001
1.285915e+003, 1.131970e+001
1.286397e+003, 1.122617e+001
1.286879e+003, 1.120334e+001
1.287361e+003, 1.127079e+001
1.287843e+003, 1.136626e+001
1.288325e+003, 1.149787e+001
1.288807e+003, 1.154057e+001
1.289290e+003, 1.124790e+001
1.289772e+003, 1.094760e+001
1.290254e+003, 1.100578e+001
1.290736e+003, 1.125529e+001
1.291218e+003, 1.123334e+001
1.291700e+003, 1.089865e+001
1.292182e+003, 1.091724e+001
1.292664e+003, 1.133126e+001
1.293146e+003, 1.168495e+001
1.293629e+003, 1.167089e+001
1.294111e+003, 1.149033e+001
1.294593e+003, 1.106358e+001
1.295075e+003, 1.066838e+001
1.295557e+003, 1.075295e+001
1.296039e+003, 1.123273e+001
1.296521e+003, 1.137108e+001
1.297003e+003, 1.116751e+001
1.297486e+003, 1.097734e+001
1.297968e+003, 1.101956e+001
1.298450e+003, 1.106418e+001
1.298932e+003, 1.104974e+001
1.299414e+003, 1.101750e+001
1.299896e+003, 1.102447e+001
1.300378e+003, 1.104706e+001
1.300860e+003, 1.099800e+001
1.301343e+003, 1.089795e+001
1.301825e+003, 1.084607e+001
##END=



