##NAMES=Santaclaraite
##RRUFFID=R060346
##IDEAL CHEMISTRY=CaMn^2+^_4_Si_5_O_14_(OH)_2_&#183;H_2_O
##LOCALITY=Pennsylvania mine, Santa Clara County, California, USA
##OWNER=RRUFF
##SOURCE=Michael Scott
##DESCRIPTION=Pink radiating thin prismatic crystals
##STATUS=The identification of this mineral is confirmed by single-crystal X-ray diffraction and chemical analysis.
##URL=rruff.info/R060346
##MEASURED CHEMISTRY=(Ca_0.92_Mn^+2^_0.04_Na_0.04_)_Σ=1_(Mn^2+^_3.92_Mn^3+^_0.04_Mg_0.04_)_Σ=4_Si_5.00_O_14_(OH)_2_·1.21H_2_O; OH by stoichiometry; Mn^3+^ by charge balance; H_2_O by difference
129.5436, 11.11854
130.0258, 13.92969
130.5079, 18.24004
130.9900, 20.54115
131.4721, 20.81497
131.9542, 20.85420
132.4363, 22.29428
132.9185, 24.94907
133.4006, 27.47570
133.8827, 29.18400
134.3648, 30.53203
134.8469, 33.74289
135.3290, 39.20948
135.8112, 44.83347
136.2933, 47.64423
136.7754, 47.42692
137.2575, 47.98893
137.7396, 50.76506
138.2217, 55.65230
138.7039, 60.69261
139.1860, 65.85506
139.6681, 71.23442
140.1502, 76.94596
140.6323, 82.74680
141.1144, 89.50762
141.5966, 98.08450
142.0787, 109.2500
142.5608, 118.5571
143.0429, 125.7954
143.5250, 131.2909
144.0071, 135.4492
144.4893, 137.2870
144.9714, 139.3264
145.4535, 142.6363
145.9356, 147.5216
146.4177, 153.2161
146.8998, 160.3145
147.3820, 168.3043
147.8641, 175.2958
148.3462, 180.1088
148.8283, 184.9453
149.3104, 191.0464
149.7925, 199.2221
150.2747, 207.5803
150.7568, 216.0256
151.2389, 224.5355
151.7210, 232.8265
152.2031, 239.1116
152.6852, 246.1644
153.1674, 255.7884
153.6495, 270.5990
154.1316, 285.2575
154.6137, 299.4327
155.0958, 313.1224
155.5779, 325.2944
156.0601, 336.1644
156.5422, 345.3483
157.0243, 352.3773
157.5064, 355.1802
157.9885, 357.6742
158.4706, 361.3792
158.9528, 366.6650
159.4349, 370.4701
159.9170, 369.9429
160.3991, 368.1299
160.8812, 368.5524
161.3633, 373.6636
161.8455, 380.0703
162.3276, 386.4869
162.8097, 392.7076
163.2918, 398.9094
163.7739, 404.7117
164.2560, 410.0991
164.7382, 413.1729
165.2203, 415.0034
165.7024, 418.4870
166.1845, 425.2896
166.6666, 436.4677
167.1487, 448.0464
167.6309, 457.6484
168.1130, 466.1821
168.5951, 475.3868
169.0772, 487.7037
169.5593, 500.2803
170.0414, 510.7903
170.5236, 518.8894
171.0057, 524.9262
171.4878, 530.0125
171.9699, 533.5775
172.4520, 533.7347
172.9341, 527.8025
173.4163, 518.5708
173.8984, 509.0450
174.3805, 499.1920
174.8626, 490.2660
175.3447, 483.3142
175.8268, 478.1422
176.3090, 473.9207
176.7911, 469.9967
177.2732, 466.6759
177.7553, 464.5841
178.2374, 464.2792
178.7195, 464.7842
179.2017, 464.8344
179.6838, 464.4868
180.1659, 464.3101
180.6480, 464.7177
181.1301, 465.6191
181.6122, 466.8654
182.0944, 468.6979
182.5765, 470.6389
183.0586, 471.9398
183.5407, 472.5864
184.0228, 472.8076
184.5049, 471.8914
184.9871, 470.4608
185.4692, 470.8874
185.9513, 474.7057
186.4334, 480.5432
186.9155, 485.5744
187.3976, 489.7928
187.8798, 493.0626
188.3619, 495.5814
188.8440, 497.2308
189.3261, 496.9922
189.8082, 493.9883
190.2903, 488.8555
190.7725, 483.8925
191.2546, 479.1209
191.7367, 474.0649
192.2188, 467.4897
192.7009, 459.4708
193.1830, 452.6489
193.6652, 448.4594
194.1473, 446.4253
194.6294, 443.6135
195.1115, 439.7320
195.5936, 436.0309
196.0757, 434.4245
196.5579, 434.9756
197.0400, 435.6600
197.5221, 435.4739
198.0042, 434.5236
198.4863, 434.6732
198.9684, 436.2492
199.4506, 438.2097
199.9327, 438.7914
200.4148, 437.8271
200.8969, 437.0614
201.3790, 437.2375
201.8611, 438.3812
202.3433, 439.5644
202.8254, 440.6408
203.3075, 441.9789
203.7896, 444.6038
204.2717, 448.9503
204.7538, 452.4160
205.2360, 453.1326
205.7181, 450.5231
206.2002, 450.6913
206.6823, 454.3973
207.1644, 459.9478
207.6465, 464.4055
208.1287, 467.6837
208.6108, 470.0660
209.0929, 471.3269
209.5750, 471.0893
210.0571, 472.0527
210.5392, 474.9089
211.0214, 478.3799
211.5035, 479.4758
211.9856, 477.3022
212.4677, 475.2405
212.9498, 474.9584
213.4319, 476.9661
213.9141, 478.6167
214.3962, 479.8474
214.8783, 480.7342
215.3604, 481.1229
215.8425, 480.2457
216.3246, 480.5728
216.8067, 483.6303
217.2889, 490.4655
217.7710, 496.1838
218.2531, 500.1996
218.7352, 503.2977
219.2173, 507.6373
219.6994, 514.0165
220.1816, 520.1295
220.6637, 524.8520
221.1458, 527.4369
221.6279, 531.0225
222.1100, 536.7080
222.5921, 543.0363
223.0743, 546.2914
223.5564, 545.8507
224.0385, 543.4207
224.5206, 539.5540
225.0027, 533.4583
225.4848, 528.0294
225.9670, 523.7898
226.4491, 520.1448
226.9312, 515.2783
227.4133, 508.3444
227.8954, 501.5991
228.3775, 496.2326
228.8597, 492.5380
229.3418, 489.2749
229.8239, 486.5511
230.3060, 484.1870
230.7881, 481.6870
231.2702, 478.4713
231.7524, 475.9195
232.2345, 474.7959
232.7166, 475.8476
233.1987, 476.5841
233.6808, 477.3009
234.1629, 477.6216
234.6451, 476.2797
235.1272, 471.8908
235.6093, 467.9392
236.0914, 465.9271
236.5735, 466.2071
237.0556, 467.8540
237.5378, 472.1318
238.0199, 477.4313
238.5020, 479.4197
238.9841, 476.1917
239.4662, 472.5242
239.9483, 470.2945
240.4305, 469.5275
240.9126, 470.2661
241.3947, 473.1831
241.8768, 477.3840
242.3589, 480.6939
242.8410, 482.8493
243.3232, 484.4974
243.8053, 485.8625
244.2874, 486.9132
244.7695, 487.6677
245.2516, 487.6708
245.7337, 487.5546
246.2159, 488.7939
246.6980, 491.9368
247.1801, 495.5904
247.6622, 499.3208
248.1443, 503.2682
248.6264, 506.8688
249.1086, 509.7111
249.5907, 512.4349
250.0728, 516.4724
250.5549, 522.5715
251.0370, 528.7252
251.5191, 534.1941
252.0013, 538.7433
252.4834, 543.2353
252.9655, 547.7496
253.4476, 552.1048
253.9297, 555.9438
254.4118, 559.1610
254.8940, 561.9822
255.3761, 564.6750
255.8582, 567.6403
256.3403, 568.6024
256.8224, 566.2740
257.3046, 562.9366
257.7867, 562.8935
258.2688, 568.3135
258.7509, 572.4619
259.2330, 572.7353
259.7151, 568.3542
260.1973, 564.8186
260.6794, 562.4338
261.1615, 560.6826
261.6436, 558.9227
262.1257, 557.1749
262.6078, 555.3141
263.0900, 553.1235
263.5721, 550.4439
264.0542, 548.8216
264.5363, 548.4261
265.0184, 548.8489
265.5005, 549.6174
265.9827, 550.7672
266.4648, 552.1356
266.9469, 553.8124
267.4290, 555.8068
267.9111, 557.2283
268.3932, 558.0469
268.8754, 558.3110
269.3575, 557.9492
269.8396, 556.7616
270.3217, 555.6329
270.8038, 554.5491
271.2859, 553.5641
271.7681, 554.0858
272.2502, 556.5709
272.7323, 559.6202
273.2144, 561.6666
273.6965, 562.4963
274.1786, 563.5759
274.6608, 565.3831
275.1429, 567.7517
275.6250, 569.5715
276.1071, 570.8438
276.5892, 571.5720
277.0714, 571.5229
277.5535, 570.5820
278.0356, 570.0800
278.5177, 570.7043
278.9998, 571.8527
279.4819, 570.7012
279.9641, 566.8111
280.4462, 562.4308
280.9283, 559.7155
281.4104, 558.7874
281.8925, 556.4680
282.3746, 552.0900
282.8568, 546.1563
283.3389, 539.7127
283.8210, 532.6241
284.3031, 526.0275
284.7852, 520.7644
285.2673, 516.8245
285.7495, 513.3494
286.2316, 510.2545
286.7137, 507.5281
287.1958, 505.2534
287.6779, 503.4358
288.1600, 501.7026
288.6422, 499.6287
289.1243, 497.3187
289.6064, 495.6990
290.0885, 494.8767
290.5706, 494.6183
291.0527, 494.9326
291.5349, 495.7505
292.0170, 495.9860
292.4991, 493.9824
292.9812, 490.7494
293.4633, 490.5862
293.9454, 494.2672
294.4276, 498.6808
294.9097, 498.9650
295.3918, 495.9427
295.8739, 493.9308
296.3560, 496.3118
296.8381, 501.0699
297.3203, 503.0148
297.8024, 501.7782
298.2845, 500.0983
298.7666, 500.8539
299.2487, 503.5246
299.7308, 506.5462
300.2130, 509.4177
300.6951, 512.1995
301.1772, 515.2648
301.6593, 518.6042
302.1414, 521.3563
302.6235, 522.2549
303.1057, 522.0275
303.5878, 522.0964
304.0699, 522.9215
304.5520, 524.3029
305.0341, 526.3955
305.5162, 529.0704
305.9984, 531.2928
306.4805, 532.1489
306.9626, 532.1121
307.4447, 531.7793
307.9268, 531.1091
308.4089, 530.4485
308.8911, 529.8478
309.3732, 529.4207
309.8553, 529.6512
310.3374, 532.2001
310.8195, 534.9114
311.3016, 535.3065
311.7838, 531.8287
312.2659, 528.2126
312.7480, 526.7014
313.2301, 526.9370
313.7122, 527.9723
314.1943, 530.4782
314.6765, 532.9357
315.1586, 534.1572
315.6407, 533.6891
316.1228, 533.0119
316.6049, 532.5026
317.0870, 532.2867
317.5692, 532.5716
318.0513, 534.8854
318.5334, 536.5244
319.0155, 535.5276
319.4976, 531.2109
319.9797, 528.0679
320.4619, 528.8203
320.9440, 531.0721
321.4261, 532.1339
321.9082, 530.5350
322.3903, 528.4542
322.8724, 526.0707
323.3546, 523.3895
323.8367, 521.9852
324.3188, 522.4789
324.8009, 524.1996
325.2830, 526.6234
325.7651, 531.6666
326.2473, 535.2518
326.7294, 536.0334
327.2115, 534.4263
327.6936, 533.6833
328.1757, 535.0209
328.6578, 536.5248
329.1400, 537.2503
329.6221, 536.6253
330.1042, 535.9636
330.5863, 534.8325
331.0684, 533.6479
331.5505, 533.7863
332.0327, 537.2383
332.5148, 539.6528
332.9969, 539.0510
333.4790, 533.9975
333.9611, 529.8128
334.4432, 526.1439
334.9254, 523.5376
335.4075, 523.2839
335.8896, 526.8263
336.3717, 529.7950
336.8538, 530.6118
337.3359, 529.0319
337.8180, 528.0262
338.3001, 527.6124
338.7823, 527.7538
339.2644, 528.6600
339.7465, 530.6608
340.2286, 531.9669
340.7107, 531.8713
341.1928, 530.6548
341.6750, 530.4802
342.1571, 531.6249
342.6392, 532.7512
343.1213, 532.9075
343.6034, 532.0901
344.0855, 530.0971
344.5677, 526.4739
345.0498, 522.0963
345.5319, 519.1851
346.0140, 517.7675
346.4961, 517.0434
346.9782, 517.2839
347.4604, 518.0256
347.9425, 516.7045
348.4246, 512.7029
348.9067, 507.7323
349.3888, 503.7376
349.8709, 500.7578
350.3531, 498.9907
350.8352, 499.3003
351.3173, 500.7262
351.7994, 501.5710
352.2815, 501.7870
352.7636, 501.2702
353.2458, 499.0680
353.7279, 496.0568
354.2100, 494.1504
354.6921, 494.9265
355.1742, 496.5666
355.6563, 497.1561
356.1385, 496.7676
356.6206, 496.2441
357.1027, 496.3170
357.5848, 496.5176
358.0669, 496.1497
358.5490, 494.1314
359.0312, 492.8383
359.5133, 494.8592
359.9954, 499.0496
360.4775, 501.8900
360.9596, 499.7748
361.4417, 496.9777
361.9239, 496.7958
362.4060, 500.9177
362.8881, 504.1719
363.3702, 503.8730
363.8523, 501.6303
364.3344, 499.9114
364.8166, 499.9911
365.2987, 500.1922
365.7808, 499.6012
366.2629, 497.9581
366.7450, 497.3912
367.2271, 500.0397
367.7093, 503.0315
368.1914, 503.8427
368.6735, 498.7672
369.1556, 495.3742
369.6377, 495.2985
370.1198, 498.1542
370.6020, 500.8112
371.0841, 504.0478
371.5662, 506.3696
372.0483, 506.7633
372.5304, 503.3249
373.0125, 501.6132
373.4947, 502.4803
373.9768, 504.8824
374.4589, 506.3568
374.9410, 506.4984
375.4231, 506.5506
375.9052, 507.0921
376.3874, 508.2645
376.8695, 508.6775
377.3516, 507.9713
377.8337, 507.1220
378.3158, 507.6047
378.7979, 509.6759
379.2801, 511.1389
379.7622, 511.2095
380.2443, 510.2285
380.7264, 509.8766
381.2085, 510.2723
381.6906, 510.4461
382.1728, 509.8676
382.6549, 508.4559
383.1370, 505.4605
383.6191, 500.1414
384.1012, 494.2337
384.5833, 490.7923
385.0655, 489.5472
385.5476, 488.4442
386.0297, 485.8211
386.5118, 482.6200
386.9939, 480.7819
387.4760, 480.6670
387.9582, 480.5670
388.4403, 478.4437
388.9224, 475.1424
389.4045, 472.4385
389.8866, 471.4410
390.3687, 471.0623
390.8509, 470.4598
391.3330, 469.6466
391.8151, 468.8522
392.2972, 467.4746
392.7793, 466.5272
393.2614, 467.2136
393.7436, 472.0111
394.2257, 475.3708
394.7078, 473.4291
395.1899, 468.0980
395.6720, 464.3951
396.1541, 464.6429
396.6363, 466.3000
397.1184, 468.4855
397.6005, 471.5934
398.0826, 473.6894
398.5647, 473.3969
399.0468, 472.3123
399.5290, 472.3700
400.0111, 474.9137
400.4932, 477.3087
400.9753, 479.1689
401.4574, 480.4989
401.9395, 481.4072
402.4217, 481.3543
402.9038, 481.4467
403.3859, 482.5151
403.8680, 485.1456
404.3501, 487.2731
404.8322, 488.3326
405.3144, 488.9932
405.7965, 491.1500
406.2786, 495.2160
406.7607, 499.4371
407.2428, 503.0818
407.7249, 506.1516
408.2071, 508.8873
408.6892, 511.1892
409.1713, 513.4881
409.6534, 516.1188
410.1355, 519.1016
410.6176, 523.0272
411.0998, 528.4009
411.5819, 534.6447
412.0640, 540.6951
412.5461, 546.4819
413.0282, 551.5204
413.5103, 554.8260
413.9925, 557.1191
414.4746, 559.9888
414.9567, 563.8357
415.4388, 567.9075
415.9209, 571.0951
416.4030, 573.8837
416.8852, 577.5764
417.3673, 583.7928
417.8494, 590.4933
418.3315, 596.0983
418.8136, 600.4596
419.2957, 604.2565
419.7779, 607.1190
420.2600, 609.8831
420.7421, 613.3401
421.2242, 618.9265
421.7063, 624.0213
422.1884, 628.2067
422.6706, 631.3572
423.1527, 633.1565
423.6348, 633.3627
424.1169, 632.3196
424.5990, 630.1888
425.0811, 627.0617
425.5633, 622.6625
426.0454, 616.7008
426.5275, 609.6382
427.0096, 601.8369
427.4917, 592.3152
427.9738, 583.6680
428.4560, 576.8557
428.9381, 571.6946
429.4202, 565.2579
429.9023, 557.2000
430.3844, 548.6487
430.8665, 540.3986
431.3487, 532.4161
431.8308, 524.8925
432.3129, 517.8348
432.7950, 511.2501
433.2771, 505.1908
433.7592, 499.6900
434.2414, 495.0669
434.7235, 492.1248
435.2056, 490.2717
435.6877, 486.6462
436.1698, 481.0898
436.6519, 475.8568
437.1341, 473.5700
437.6162, 473.4503
438.0983, 473.4558
438.5804, 473.1765
439.0625, 472.5968
439.5446, 471.5644
440.0268, 470.1813
440.5089, 468.8106
440.9910, 467.5794
441.4731, 466.5142
441.9552, 465.6862
442.4373, 465.1689
442.9195, 464.5798
443.4016, 463.2403
443.8837, 461.8806
444.3658, 461.3876
444.8479, 463.2481
445.3300, 464.7832
445.8122, 464.8427
446.2943, 463.6123
446.7764, 462.8853
447.2585, 463.2694
447.7406, 463.9487
448.2227, 464.5334
448.7049, 464.9731
449.1870, 465.3900
449.6691, 465.7869
450.1512, 466.1574
450.6333, 466.5478
451.1154, 467.2122
451.5976, 467.3150
452.0797, 466.3672
452.5618, 464.4881
453.0439, 463.7112
453.5260, 464.4070
454.0081, 465.0923
454.4903, 464.1969
454.9724, 461.7647
455.4545, 460.5049
455.9366, 460.8995
456.4187, 462.2936
456.9008, 463.8380
457.3830, 465.5057
457.8651, 466.9212
458.3472, 467.7916
458.8293, 468.3542
459.3114, 468.9503
459.7935, 469.5844
460.2757, 470.5014
460.7578, 472.0163
461.2399, 473.8931
461.7220, 476.0020
462.2041, 479.2546
462.6862, 481.1403
463.1684, 479.1723
463.6505, 474.5696
464.1326, 470.1967
464.6147, 466.8855
465.0968, 464.3260
465.5789, 462.6514
466.0611, 461.9898
466.5432, 461.0914
467.0253, 459.3016
467.5074, 457.3936
467.9895, 456.0266
468.4716, 456.1449
468.9538, 455.5816
469.4359, 453.6470
469.9180, 450.9600
470.4001, 449.6706
470.8822, 450.8340
471.3643, 451.5283
471.8465, 450.1711
472.3286, 446.4051
472.8107, 444.5568
473.2928, 445.0105
473.7749, 446.4900
474.2570, 447.9577
474.7392, 449.4115
475.2213, 449.7597
475.7034, 448.1659
476.1855, 446.0628
476.6676, 446.8654
477.1497, 450.2943
477.6319, 453.6505
478.1140, 455.1100
478.5961, 455.5284
479.0782, 456.5385
479.5603, 458.3232
480.0424, 459.5576
480.5246, 458.2791
481.0067, 456.0078
481.4888, 454.9366
481.9709, 456.8851
482.4530, 458.8990
482.9352, 458.6283
483.4173, 457.0396
483.8994, 457.1911
484.3815, 463.4878
484.8636, 468.9996
485.3457, 469.7740
485.8279, 463.8993
486.3100, 459.5806
486.7921, 457.9606
487.2742, 457.9563
487.7563, 458.8060
488.2384, 461.8521
488.7206, 463.3740
489.2027, 462.3964
489.6848, 459.6957
490.1669, 458.0086
490.6490, 457.5144
491.1311, 457.5458
491.6133, 457.9871
492.0954, 458.8306
492.5775, 459.2152
493.0596, 459.0832
493.5417, 458.7374
494.0238, 458.5522
494.5060, 458.4586
494.9881, 458.0221
495.4702, 456.8182
495.9523, 455.7316
496.4344, 456.6253
496.9165, 458.9197
497.3987, 460.4368
497.8808, 458.9913
498.3629, 456.7799
498.8450, 456.2126
499.3271, 457.5476
499.8092, 458.3907
500.2914, 456.3533
500.7735, 453.7483
501.2556, 452.7361
501.7377, 455.3345
502.2198, 457.7950
502.7019, 459.4827
503.1841, 460.4595
503.6662, 460.9178
504.1483, 460.3585
504.6304, 459.8312
505.1125, 459.5689
505.5946, 459.5604
506.0768, 459.9497
506.5589, 460.7679
507.0410, 461.9488
507.5231, 463.6403
508.0052, 466.0212
508.4873, 467.9614
508.9695, 469.7494
509.4516, 470.3502
509.9337, 466.5200
510.4158, 458.5599
510.8979, 452.2292
511.3800, 451.0770
511.8622, 452.9074
512.3443, 452.2563
512.8264, 449.3004
513.3085, 447.2863
513.7906, 450.2762
514.2728, 455.0841
514.7549, 457.3710
515.2370, 455.7330
515.7191, 453.2891
516.2012, 451.6159
516.6833, 450.4891
517.1655, 449.5329
517.6476, 448.5028
518.1297, 447.7554
518.6118, 447.7374
519.0939, 448.3339
519.5760, 448.2345
520.0582, 446.2844
520.5403, 444.4658
521.0224, 443.5522
521.5045, 443.4805
521.9866, 444.5939
522.4688, 447.5381
522.9509, 450.9490
523.4330, 453.2452
523.9151, 454.3468
524.3972, 454.6264
524.8793, 453.7418
525.3615, 452.4299
525.8436, 452.9137
526.3257, 455.1696
526.8078, 457.3782
527.2899, 457.9860
527.7720, 457.8854
528.2542, 459.6458
528.7363, 463.4525
529.2184, 466.5483
529.7005, 465.4655
530.1826, 462.5787
530.6647, 461.1557
531.1469, 462.6958
531.6290, 464.9107
532.1111, 467.7538
532.5932, 470.2790
533.0753, 470.5585
533.5574, 465.6505
534.0396, 460.7042
534.5217, 457.4408
535.0038, 456.0379
535.4859, 454.9985
535.9680, 454.5695
536.4501, 454.2083
536.9323, 453.7166
537.4144, 453.4124
537.8965, 451.9167
538.3786, 448.7445
538.8607, 445.0066
539.3428, 442.5504
539.8250, 441.4617
540.3071, 440.2353
540.7892, 438.4450
541.2713, 436.2638
541.7534, 433.8660
542.2355, 431.3307
542.7177, 429.4860
543.1998, 429.4176
543.6819, 430.1523
544.1640, 430.0780
544.6461, 429.0352
545.1282, 428.0569
545.6104, 428.3454
546.0925, 428.9072
546.5746, 428.5707
547.0567, 426.0677
547.5388, 423.9442
548.0209, 423.3574
548.5031, 423.7515
548.9852, 423.8877
549.4673, 422.5670
549.9494, 422.0817
550.4315, 423.6268
550.9136, 427.1861
551.3958, 428.6288
551.8779, 427.4980
552.3600, 425.0161
552.8421, 421.2399
553.3242, 415.7677
553.8063, 413.1910
554.2885, 414.2719
554.7706, 416.6832
555.2527, 417.2209
555.7348, 416.2028
556.2169, 415.6961
556.6990, 416.7125
557.1812, 418.0370
557.6633, 417.9817
558.1454, 416.7390
558.6275, 415.0245
559.1096, 412.5220
559.5917, 410.2265
560.0739, 409.1943
560.5560, 409.5072
561.0381, 409.7420
561.5202, 409.2574
562.0023, 408.5101
562.4844, 407.8385
562.9666, 407.4170
563.4487, 406.8560
563.9308, 405.6511
564.4129, 404.4949
564.8950, 404.6333
565.3771, 406.9782
565.8593, 408.5169
566.3414, 408.3602
566.8235, 406.9030
567.3056, 405.7701
567.7877, 404.9274
568.2698, 404.6949
568.7520, 405.8557
569.2341, 407.8487
569.7162, 408.4188
570.1983, 407.4402
570.6804, 405.9453
571.1625, 404.0685
571.6447, 402.5378
572.1268, 402.9627
572.6089, 407.2146
573.0910, 410.2671
573.5731, 406.7413
574.0552, 400.1682
574.5374, 396.6436
575.0195, 402.1641
575.5016, 407.0250
575.9837, 407.0450
576.4658, 402.6902
576.9479, 400.8130
577.4301, 403.6923
577.9122, 406.5560
578.3943, 407.1166
578.8764, 404.7120
579.3585, 403.8168
579.8406, 404.8084
580.3228, 406.4659
580.8049, 407.5391
581.2870, 408.0594
581.7691, 408.7960
582.2512, 410.0121
582.7333, 411.1472
583.2155, 411.0584
583.6976, 410.1266
584.1797, 409.5573
584.6617, 410.2148
585.1439, 411.2542
585.6260, 411.9245
586.1081, 412.2906
586.5902, 412.7040
587.0723, 413.6457
587.5544, 414.4305
588.0366, 414.4413
588.5187, 413.2221
589.0008, 412.9818
589.4829, 415.0826
589.9650, 417.5250
590.4471, 418.7757
590.9293, 418.1875
591.4114, 417.8956
591.8935, 418.0021
592.3756, 418.5037
592.8577, 419.5306
593.3398, 421.1131
593.8220, 422.6089
594.3041, 423.9431
594.7862, 424.9551
595.2683, 424.8183
595.7504, 423.7472
596.2325, 423.3094
596.7147, 425.5263
597.1968, 428.3565
597.6789, 429.2945
598.1610, 428.1376
598.6431, 426.7471
599.1252, 425.8762
599.6074, 425.3961
600.0895, 425.2221
600.5716, 425.5396
601.0537, 425.8165
601.5358, 425.5396
602.0179, 425.3548
602.5001, 426.2602
602.9822, 429.3464
603.4643, 431.3275
603.9464, 431.6264
604.4285, 430.4598
604.9106, 427.7689
605.3928, 423.2036
605.8749, 420.4603
606.3570, 422.5964
606.8391, 427.8826
607.3212, 430.4537
607.8033, 430.3970
608.2855, 430.0423
608.7676, 431.2296
609.2497, 433.1499
609.7318, 434.8331
610.2139, 436.1769
610.6960, 437.1285
611.1782, 437.6742
611.6603, 437.8107
612.1424, 437.5372
612.6245, 435.8253
613.1066, 434.9477
613.5887, 435.1600
614.0709, 436.3908
614.5530, 438.8129
615.0351, 443.4035
615.5172, 446.9536
615.9993, 448.2657
616.4814, 447.8505
616.9636, 448.6245
617.4457, 450.6874
617.9278, 452.7884
618.4099, 453.9745
618.8920, 454.5918
619.3741, 455.6236
619.8563, 457.1178
620.3384, 458.7613
620.8205, 460.5586
621.3026, 462.2466
621.7847, 463.3778
622.2668, 463.5355
622.7490, 464.0591
623.2311, 465.6665
623.7132, 467.9342
624.1953, 470.3219
624.6774, 473.0450
625.1595, 475.4990
625.6417, 477.4691
626.1238, 479.1565
626.6059, 481.2188
627.0880, 484.0197
627.5701, 486.0891
628.0522, 486.4698
628.5344, 485.7073
629.0165, 486.6720
629.4986, 489.3931
629.9807, 492.5958
630.4628, 495.5704
630.9449, 498.3339
631.4271, 500.8887
631.9092, 503.2195
632.3913, 505.6680
632.8734, 508.1487
633.3555, 511.0262
633.8376, 514.7537
634.3198, 519.6223
634.8019, 524.8673
635.2840, 530.4145
635.7661, 536.1584
636.2482, 541.9695
636.7303, 546.9144
637.2125, 553.4562
637.6946, 562.1683
638.1767, 572.6090
638.6588, 583.5793
639.1409, 595.1243
639.6230, 607.5367
640.1052, 621.0820
640.5873, 635.7035
641.0694, 650.8086
641.5515, 666.5740
642.0336, 683.4534
642.5157, 701.6721
642.9979, 721.3151
643.4800, 742.1523
643.9621, 764.3547
644.4442, 787.7899
644.9263, 813.2861
645.4084, 839.7971
645.8906, 866.1677
646.3727, 890.8547
646.8548, 918.0318
647.3369, 948.8290
647.8190, 981.4749
648.3011, 1012.946
648.7833, 1042.242
649.2654, 1074.806
649.7475, 1112.925
650.2296, 1153.473
650.7117, 1190.749
651.1938, 1225.295
651.6760, 1259.830
652.1581, 1296.391
652.6402, 1333.389
653.1223, 1370.436
653.6044, 1406.234
654.0865, 1437.537
654.5687, 1462.649
655.0508, 1481.971
655.5329, 1496.706
656.0150, 1506.907
656.4971, 1508.901
656.9792, 1500.684
657.4614, 1484.707
657.9435, 1462.561
658.4256, 1434.422
658.9077, 1398.823
659.3898, 1353.862
659.8719, 1304.760
660.3541, 1256.463
660.8362, 1209.128
661.3183, 1160.684
661.8004, 1110.996
662.2825, 1062.192
662.7646, 1016.939
663.2468, 974.9868
663.7289, 935.6836
664.2110, 898.3079
664.6931, 864.1385
665.1752, 834.6849
665.6573, 809.2553
666.1395, 785.4935
666.6216, 762.4756
667.1037, 741.2969
667.5858, 722.7943
668.0679, 706.5577
668.5500, 690.9697
669.0322, 676.1112
669.5143, 661.4625
669.9964, 646.4586
670.4785, 631.1863
670.9606, 616.9892
671.4427, 603.7758
671.9249, 592.0526
672.4070, 583.0196
672.8891, 575.4360
673.3712, 566.4695
673.8533, 555.5857
674.3354, 545.3217
674.8176, 537.5800
675.2997, 531.2423
675.7818, 525.2850
676.2639, 519.6703
676.7460, 513.9300
677.2281, 507.8259
677.7103, 501.7076
678.1924, 496.0316
678.6745, 490.9046
679.1566, 486.1288
679.6387, 481.7031
680.1208, 477.5992
680.6030, 473.5755
681.0851, 469.6956
681.5672, 466.2059
682.0493, 463.2669
682.5314, 460.7498
683.0135, 458.6554
683.4957, 456.8703
683.9778, 455.0420
684.4599, 452.5140
684.9420, 450.2275
685.4241, 449.0071
685.9063, 448.7935
686.3884, 448.2992
686.8705, 447.1248
687.3526, 445.6696
687.8347, 444.0397
688.3168, 442.1823
688.7990, 440.6605
689.2811, 439.6405
689.7632, 438.5497
690.2453, 436.4695
690.7274, 433.5767
691.2095, 432.7613
691.6917, 434.4394
692.1738, 436.4597
692.6559, 436.1382
693.1380, 434.6821
693.6201, 434.3355
694.1022, 436.1802
694.5844, 437.5704
695.0665, 436.5994
695.5486, 434.4039
696.0307, 432.4352
696.5128, 430.9061
696.9949, 429.7821
697.4771, 429.2704
697.9592, 429.0568
698.4413, 428.5271
698.9234, 427.6212
699.4055, 426.6881
699.8876, 425.9587
700.3698, 425.1307
700.8519, 422.9387
701.3340, 419.6778
701.8161, 417.3748
702.2982, 418.1567
702.7803, 419.7293
703.2625, 419.3659
703.7446, 417.4323
704.2267, 415.8631
704.7088, 415.8643
705.1909, 416.1336
705.6730, 416.0544
706.1552, 415.5641
706.6373, 415.0074
707.1194, 414.5579
707.6015, 413.7819
708.0836, 412.0919
708.5657, 409.3644
709.0479, 408.4130
709.5300, 409.4202
710.0121, 411.0268
710.4942, 412.6017
710.9763, 413.7426
711.4584, 413.3131
711.9406, 411.0074
712.4227, 408.3743
712.9048, 405.9738
713.3869, 404.1049
713.8690, 403.1229
714.3511, 403.5251
714.8333, 404.0918
715.3154, 405.1343
715.7975, 405.9635
716.2796, 405.7919
716.7617, 404.3818
717.2438, 402.6123
717.7260, 400.3566
718.2081, 398.1888
718.6902, 397.5048
719.1723, 398.0696
719.6544, 398.0309
720.1365, 396.5508
720.6187, 394.6163
721.1008, 393.1587
721.5829, 392.1506
722.0650, 391.4945
722.5471, 391.3409
723.0292, 391.3365
723.5114, 391.4781
723.9935, 391.6700
724.4756, 391.5217
724.9577, 390.8004
725.4398, 390.1014
725.9219, 389.7115
726.4041, 389.4981
726.8862, 388.3524
727.3683, 386.1151
727.8504, 384.6897
728.3325, 385.5754
728.8146, 387.8798
729.2968, 390.1296
729.7789, 392.2249
730.2610, 393.3969
730.7431, 392.1724
731.2252, 390.5833
731.7073, 390.3578
732.1895, 391.7973
732.6716, 392.4998
733.1537, 390.6447
733.6358, 389.2140
734.1179, 389.9327
734.6000, 393.3647
735.0822, 395.8150
735.5643, 397.4122
736.0464, 397.6433
736.5285, 394.7896
737.0106, 390.0280
737.4927, 388.2400
737.9749, 390.1458
738.4570, 392.6879
738.9391, 393.4509
739.4212, 393.2353
739.9033, 392.8677
740.3854, 392.3737
740.8676, 392.1416
741.3497, 392.3994
741.8318, 392.9234
742.3139, 393.5161
742.7960, 394.3378
743.2781, 394.7634
743.7603, 394.6093
744.2424, 394.2738
744.7245, 394.4461
745.2066, 395.0291
745.6887, 395.2401
746.1708, 394.8101
746.6530, 394.1392
747.1351, 393.7597
747.6172, 393.4486
748.0993, 392.8189
748.5814, 391.4428
749.0635, 390.0536
749.5457, 388.8489
750.0278, 387.8031
750.5099, 386.7957
750.9920, 385.0988
751.4741, 384.9721
751.9562, 387.5995
752.4384, 391.4641
752.9205, 392.4819
753.4026, 390.7299
753.8847, 388.4180
754.3668, 385.9376
754.8489, 383.8949
755.3311, 383.4948
755.8132, 384.3012
756.2953, 385.0497
756.7774, 385.5653
757.2595, 385.4797
757.7416, 383.9638
758.2238, 381.4753
758.7059, 380.5165
759.1880, 382.7603
759.6701, 383.9613
760.1522, 382.3255
760.6343, 378.6359
761.1165, 377.2463
761.5986, 378.2639
762.0807, 379.4740
762.5628, 379.4938
763.0449, 378.9890
763.5270, 379.3956
764.0092, 380.4673
764.4913, 380.8845
764.9734, 378.8326
765.4555, 376.8214
765.9376, 376.5434
766.4197, 378.0735
766.9019, 379.4356
767.3840, 381.2036
767.8661, 381.7606
768.3482, 379.6938
768.8303, 375.1990
769.3124, 374.2834
769.7946, 377.2753
770.2767, 379.9132
770.7588, 378.2464
771.2409, 374.5362
771.7230, 372.8441
772.2051, 373.2737
772.6873, 374.1474
773.1694, 374.7926
773.6515, 375.2927
774.1336, 375.6465
774.6157, 375.7966
775.0978, 376.2215
775.5800, 377.4530
776.0621, 378.2493
776.5442, 377.6007
777.0263, 375.3955
777.5084, 374.2217
777.9905, 374.1273
778.4727, 374.5069
778.9548, 374.9177
779.4369, 375.4250
779.9190, 376.2886
780.4011, 377.5546
780.8832, 378.5115
781.3654, 378.6660
781.8475, 378.4122
782.3296, 378.0204
782.8117, 377.5192
783.2938, 376.8479
783.7759, 375.7382
784.2581, 374.8419
784.7402, 374.6270
785.2223, 375.0926
785.7044, 376.4659
786.1865, 378.9137
786.6686, 380.7213
787.1508, 379.2126
787.6329, 376.3711
788.1150, 375.5689
788.5971, 377.6655
789.0792, 379.3258
789.5613, 378.7647
790.0435, 377.2184
790.5256, 375.4460
791.0077, 372.7128
791.4898, 372.1622
791.9719, 374.7930
792.4540, 377.9427
792.9362, 378.9071
793.4183, 377.9145
793.9004, 377.6913
794.3825, 378.5639
794.8646, 379.1929
795.3467, 377.5362
795.8289, 375.1766
796.3110, 374.4912
796.7931, 376.3354
797.2752, 377.8492
797.7573, 378.2635
798.2394, 377.7399
798.7216, 376.2204
799.2037, 372.4379
799.6858, 371.3223
800.1679, 373.6963
800.6500, 376.8703
801.1321, 378.1977
801.6143, 377.9826
802.0964, 377.6285
802.5785, 377.2412
803.0606, 377.1962
803.5427, 378.5320
804.0248, 380.0251
804.5070, 380.1434
804.9891, 377.9519
805.4712, 376.4167
805.9533, 376.7369
806.4354, 377.5196
806.9175, 377.7432
807.3997, 377.2005
807.8818, 377.0177
808.3639, 377.2507
808.8460, 377.7534
809.3281, 378.7627
809.8102, 379.8880
810.2924, 379.8038
810.7745, 378.1600
811.2566, 376.9702
811.7387, 378.4224
812.2208, 380.5139
812.7029, 381.3276
813.1851, 379.7910
813.6672, 379.1636
814.1493, 380.1803
814.6314, 381.4185
815.1135, 381.7290
815.5956, 381.0757
816.0778, 380.2353
816.5599, 379.1817
817.0420, 378.3735
817.5241, 378.3530
818.0062, 378.8296
818.4883, 379.4497
818.9705, 380.2047
819.4526, 380.7289
819.9347, 380.7397
820.4168, 380.5361
820.8989, 380.2809
821.3810, 379.9059
821.8632, 379.8458
822.3453, 380.2140
822.8274, 380.6513
823.3095, 380.8128
823.7916, 380.7714
824.2737, 381.1111
824.7559, 381.8709
825.2380, 382.1338
825.7201, 380.0186
826.2022, 377.7433
826.6843, 378.0430
827.1664, 381.6211
827.6486, 383.8935
828.1307, 382.9101
828.6128, 381.1811
829.0949, 379.6267
829.5770, 378.1984
830.0591, 378.2470
830.5413, 380.0811
831.0234, 381.5010
831.5055, 379.8471
831.9876, 376.9645
832.4697, 377.1896
832.9518, 380.4073
833.4340, 382.6103
833.9161, 380.0066
834.3982, 376.8203
834.8803, 375.7472
835.3624, 377.1412
835.8445, 378.5368
836.3267, 380.4304
836.8088, 381.3062
837.2909, 379.8089
837.7730, 376.5887
838.2551, 375.8135
838.7372, 377.3437
839.2194, 378.8983
839.7015, 378.8626
840.1836, 378.2582
840.6657, 378.0237
841.1478, 378.1401
841.6299, 378.2846
842.1121, 378.1896
842.5942, 378.3020
843.0763, 378.8374
843.5584, 379.7034
844.0405, 380.4780
844.5226, 381.2038
845.0048, 381.4775
845.4869, 381.0502
845.9690, 380.1050
846.4511, 378.7569
846.9332, 377.1666
847.4153, 375.8912
847.8975, 375.4510
848.3796, 375.1329
848.8617, 374.6045
849.3438, 373.9223
849.8259, 373.3012
850.3080, 372.7081
850.7902, 372.2442
851.2723, 371.8755
851.7544, 371.7288
852.2365, 372.3091
852.7186, 373.4667
853.2007, 374.2549
853.6829, 374.0372
854.1650, 373.8091
854.6471, 374.7550
855.1292, 376.2212
855.6113, 377.1101
856.0934, 376.8219
856.5756, 376.2799
857.0577, 375.3966
857.5398, 374.4767
858.0219, 374.0338
858.5040, 374.1056
858.9861, 373.7853
859.4683, 372.7869
859.9504, 371.8354
860.4325, 372.0019
860.9146, 372.7945
861.3967, 373.3769
861.8788, 373.4595
862.3610, 373.5391
862.8431, 373.6093
863.3252, 373.8898
863.8073, 374.6120
864.2894, 376.0444
864.7715, 377.0988
865.2537, 377.7087
865.7358, 378.1154
866.2179, 378.3130
866.7000, 378.5309
867.1821, 379.7108
867.6642, 382.0189
868.1464, 383.7030
868.6285, 383.2087
869.1106, 381.9419
869.5927, 380.6495
870.0748, 379.1273
870.5569, 379.5454
871.0391, 382.9023
871.5212, 386.3372
872.0033, 388.0878
872.4854, 388.3722
872.9675, 388.9163
873.4496, 389.6761
873.9318, 389.9347
874.4139, 388.4698
874.8960, 386.8401
875.3781, 386.5786
875.8602, 387.5553
876.3423, 388.3681
876.8245, 388.4257
877.3066, 388.5934
877.7887, 389.2254
878.2708, 390.1280
878.7529, 390.5667
879.2350, 390.5483
879.7172, 389.8817
880.1993, 387.8133
880.6814, 385.8501
881.1635, 386.7404
881.6456, 389.2599
882.1277, 390.5478
882.6099, 387.4663
883.0920, 385.5067
883.5741, 387.7148
884.0562, 391.2115
884.5383, 390.8906
885.0204, 385.8702
885.5026, 382.7383
885.9847, 382.9005
886.4668, 384.6167
886.9489, 386.1535
887.4310, 387.3418
887.9131, 387.6235
888.3953, 386.3094
888.8774, 385.6759
889.3595, 387.6477
889.8416, 390.1994
890.3237, 391.2789
890.8058, 389.9517
891.2880, 389.8348
891.7701, 391.1280
892.2522, 393.0116
892.7343, 395.1512
893.2164, 397.2535
893.6985, 398.3450
894.1807, 398.3531
894.6628, 398.3713
895.1449, 399.0732
895.6270, 400.0368
896.1091, 401.0169
896.5912, 401.9854
897.0734, 403.1142
897.5555, 404.7966
898.0376, 405.6488
898.5197, 404.7452
899.0018, 402.5757
899.4839, 400.6642
899.9661, 399.0422
900.4482, 397.8951
900.9303, 398.0838
901.4124, 398.0594
901.8945, 396.3156
902.3766, 393.4878
902.8588, 391.6995
903.3409, 391.7509
903.8230, 391.7484
904.3051, 391.2900
904.7872, 390.6876
905.2693, 390.6718
905.7515, 391.1231
906.2336, 391.1655
906.7157, 390.2018
907.1978, 389.7509
907.6799, 391.6482
908.1620, 394.5689
908.6442, 396.9830
909.1263, 399.0010
909.6084, 399.4271
910.0905, 397.0603
910.5726, 394.7922
911.0547, 395.6501
911.5369, 399.3253
912.0190, 402.4128
912.5011, 404.7379
912.9832, 405.7581
913.4653, 403.5215
913.9474, 400.7915
914.4296, 400.6458
914.9117, 403.4956
915.3938, 405.0589
915.8759, 403.4695
916.3580, 402.2219
916.8401, 402.8496
917.3223, 404.9868
917.8044, 406.9948
918.2865, 408.7803
918.7686, 409.1116
919.2507, 405.3624
919.7328, 401.5441
920.2150, 402.2048
920.6971, 405.8866
921.1792, 408.9722
921.6613, 409.9225
922.1434, 410.9390
922.6255, 412.1109
923.1077, 413.7267
923.5898, 416.7800
924.0719, 421.1076
924.5540, 424.0813
925.0361, 425.0013
925.5182, 425.1924
926.0004, 425.7136
926.4825, 426.4201
926.9646, 426.9834
927.4467, 426.7978
927.9288, 428.1819
928.4109, 432.4547
928.8931, 436.9265
929.3752, 439.6983
929.8573, 440.7942
930.3394, 441.6190
930.8215, 442.1691
931.3036, 443.2887
931.7858, 446.8986
932.2679, 450.4347
932.7500, 450.5553
933.2321, 447.7796
933.7142, 446.8341
934.1964, 450.1411
934.6785, 453.6275
935.1606, 456.4475
935.6427, 458.6744
936.1248, 460.1743
936.6069, 461.0482
937.0891, 462.3344
937.5712, 464.4590
938.0533, 467.0248
938.5354, 469.7322
939.0175, 472.6067
939.4996, 475.6361
939.9818, 479.1034
940.4639, 482.3361
940.9460, 485.1428
941.4281, 487.8817
941.9102, 491.2885
942.3923, 495.1346
942.8745, 496.8558
943.3566, 496.2188
943.8387, 495.5677
944.3208, 496.5802
944.8029, 498.5920
945.2850, 501.5045
945.7672, 505.3224
946.2493, 507.8422
946.7314, 507.9554
947.2135, 508.5446
947.6956, 510.7181
948.1777, 514.2210
948.6599, 518.2908
949.1420, 522.8239
949.6241, 527.1178
950.1062, 530.2838
950.5883, 533.7693
951.0704, 539.0743
951.5526, 545.3106
952.0347, 550.6096
952.5168, 553.6780
952.9989, 558.2324
953.4810, 564.6920
953.9631, 572.4169
954.4453, 581.2539
954.9274, 590.7146
955.4095, 599.0395
955.8916, 605.8772
956.3737, 612.2296
956.8558, 620.3285
957.3380, 626.9423
957.8201, 629.1747
958.3022, 626.6805
958.7843, 624.2760
959.2664, 622.0756
959.7485, 619.6174
960.2307, 617.2803
960.7128, 614.1441
961.1949, 607.2269
961.6770, 597.4301
962.1591, 588.0892
962.6412, 581.4435
963.1234, 574.6968
963.6055, 565.7039
964.0876, 556.2571
964.5697, 549.3371
965.0518, 545.5787
965.5339, 541.6171
966.0161, 536.9209
966.4982, 532.3729
966.9803, 528.5837
967.4624, 525.7906
967.9445, 524.5316
968.4266, 524.9295
968.9088, 526.3262
969.3909, 530.0345
969.8730, 533.1362
970.3551, 533.8469
970.8372, 532.3293
971.3193, 531.9343
971.8015, 532.6926
972.2836, 533.5824
972.7657, 534.0324
973.2478, 534.3119
973.7299, 535.3962
974.2120, 536.5423
974.6942, 535.9325
975.1763, 531.3329
975.6584, 527.1951
976.1405, 524.2126
976.6226, 521.7804
977.1047, 519.0498
977.5869, 516.0322
978.0690, 513.1423
978.5511, 510.5070
979.0332, 507.6128
979.5153, 503.4636
979.9974, 499.2090
980.4796, 495.7583
980.9617, 493.2349
981.4438, 491.9198
981.9259, 492.2527
982.4080, 492.7928
982.8901, 492.7729
983.3723, 492.5246
983.8544, 492.8059
984.3365, 493.7278
984.8186, 495.7540
985.3007, 499.4084
985.7828, 503.8925
986.2650, 509.3930
986.7471, 515.3035
987.2292, 520.5670
987.7113, 524.9070
988.1934, 529.6426
988.6755, 535.0140
989.1577, 540.2838
989.6398, 544.3948
990.1219, 547.8802
990.6040, 551.1348
991.0861, 554.1872
991.5682, 559.0418
992.0504, 568.3583
992.5325, 577.7482
993.0146, 585.1072
993.4967, 590.8043
993.9788, 597.2665
994.4609, 604.5029
994.9431, 613.2593
995.4252, 624.2201
995.9073, 636.3089
996.3894, 649.6031
996.8715, 662.9739
997.3536, 674.8306
997.8358, 681.9520
998.3179, 691.6439
998.8000, 704.9451
999.2821, 719.4742
999.7642, 733.6159
1000.246, 747.2883
1000.728, 759.5167
1001.211, 770.3752
1001.693, 779.2829
1002.175, 785.5075
1002.657, 790.1155
1003.139, 793.6917
1003.621, 796.1864
1004.103, 797.3969
1004.585, 797.6359
1005.068, 795.2791
1005.550, 789.5010
1006.032, 781.6252
1006.514, 772.5643
1006.996, 763.2056
1007.478, 755.2413
1007.960, 749.7352
1008.442, 744.2994
1008.924, 736.9584
1009.407, 730.4227
1009.889, 726.2072
1010.371, 724.3295
1010.853, 725.6784
1011.335, 730.3025
1011.817, 735.3860
1012.299, 738.8844
1012.781, 742.1439
1013.263, 746.4753
1013.746, 751.6530
1014.228, 756.8720
1014.710, 762.2230
1015.192, 767.4099
1015.674, 772.9723
1016.156, 777.3046
1016.638, 778.0636
1017.120, 775.6338
1017.603, 771.1623
1018.085, 764.7879
1018.567, 756.5140
1019.049, 745.4448
1019.531, 733.1868
1020.013, 720.7009
1020.495, 708.0183
1020.977, 694.6508
1021.459, 680.5795
1021.942, 665.8828
1022.424, 649.6996
1022.906, 633.9590
1023.388, 621.6663
1023.870, 611.5226
1024.352, 600.9820
1024.834, 588.0513
1025.316, 576.4874
1025.799, 566.7725
1026.281, 558.2244
1026.763, 550.6076
1027.245, 543.7574
1027.727, 535.3430
1028.209, 525.3146
1028.691, 515.7122
1029.173, 508.0017
1029.656, 501.0875
1030.138, 494.1322
1030.620, 487.3690
1031.102, 482.0267
1031.584, 478.4374
1032.066, 474.9488
1032.548, 471.3015
1033.030, 467.0997
1033.512, 461.2660
1033.995, 454.6554
1034.477, 448.7809
1034.959, 443.9816
1035.441, 439.9818
1035.923, 437.4875
1036.405, 434.8819
1036.887, 430.9690
1037.369, 426.0506
1037.851, 422.5536
1038.334, 420.4558
1038.816, 418.9764
1039.298, 418.4468
1039.780, 417.6455
1040.262, 415.4141
1040.744, 412.4070
1041.226, 409.8784
1041.708, 407.7542
1042.191, 406.6256
1042.673, 406.8315
1043.155, 406.8460
1043.637, 404.6073
1044.119, 401.2779
1044.601, 398.4863
1045.083, 396.3966
1045.565, 395.7209
1046.047, 398.7735
1046.530, 400.7104
1047.012, 399.4510
1047.494, 396.3961
1047.976, 395.6849
1048.458, 396.9866
1048.940, 397.6304
1049.422, 396.6885
1049.904, 395.5448
1050.386, 394.8880
1050.869, 394.7682
1051.351, 395.2466
1051.833, 396.2661
1052.315, 398.2171
1052.797, 401.3806
1053.279, 404.2104
1053.761, 406.0757
1054.243, 406.8991
1054.726, 405.5273
1055.208, 403.0292
1055.690, 402.2384
1056.172, 405.8945
1056.654, 408.9726
1057.136, 410.6765
1057.618, 411.7144
1058.100, 412.9140
1058.583, 414.2037
1059.065, 415.0903
1059.547, 415.5414
1060.029, 415.7453
1060.511, 415.3367
1060.993, 415.1815
1061.475, 416.3656
1061.957, 418.3386
1062.439, 418.6207
1062.922, 416.9377
1063.404, 415.3338
1063.886, 414.4399
1064.368, 413.4733
1064.850, 411.6701
1065.332, 409.0796
1065.814, 405.6183
1066.296, 401.0646
1066.778, 396.6785
1067.261, 392.4689
1067.743, 388.5977
1068.225, 384.9968
1068.707, 381.8470
1069.189, 379.9826
1069.671, 379.2121
1070.153, 378.9161
1070.635, 379.6761
1071.118, 379.7052
1071.600, 377.7524
1072.082, 375.0541
1072.564, 372.7567
1073.046, 370.8881
1073.528, 369.1125
1074.010, 367.4093
1074.492, 366.5656
1074.974, 367.6908
1075.457, 369.5384
1075.939, 371.5221
1076.421, 373.3150
1076.903, 373.7465
1077.385, 372.0785
1077.867, 371.0219
1078.349, 371.1342
1078.831, 371.6908
1079.313, 371.4675
1079.796, 371.1069
1080.278, 372.1704
1080.760, 374.9951
1081.242, 376.6800
1081.724, 374.4238
1082.206, 373.0605
1082.688, 374.7066
1083.170, 378.2368
1083.652, 380.2743
1084.135, 380.9435
1084.617, 380.6632
1085.099, 379.2097
1085.581, 377.8012
1086.063, 377.2655
1086.545, 377.0893
1087.027, 376.9413
1087.509, 376.9297
1087.992, 375.5708
1088.474, 372.7706
1088.956, 370.1342
1089.438, 368.8823
1089.920, 368.0722
1090.402, 366.1739
1090.884, 364.0321
1091.366, 363.6015
1091.849, 367.2750
1092.331, 368.2427
1092.813, 365.6182
1093.295, 361.7367
1093.777, 358.6955
1094.259, 356.1712
1094.741, 353.1609
1095.223, 349.8061
1095.705, 347.4338
1096.188, 347.0957
1096.670, 347.3129
1097.152, 348.0122
1097.634, 348.7289
1098.116, 348.3133
1098.598, 347.0671
1099.080, 346.9011
1099.562, 348.2627
1100.044, 349.1413
1100.527, 347.6575
1101.009, 345.7412
1101.491, 344.8097
1101.973, 344.6348
1102.455, 343.3589
1102.937, 340.8819
1103.419, 340.2550
1103.901, 343.3692
1104.384, 346.5169
1104.866, 344.8998
1105.348, 341.5804
1105.830, 340.4450
1106.312, 342.9108
1106.794, 343.3841
1107.276, 341.1193
1107.758, 339.5089
1108.240, 340.9685
1108.723, 343.8948
1109.205, 346.0934
1109.687, 347.4629
1110.169, 347.8012
1110.651, 344.6227
1111.133, 344.3561
1111.615, 349.1400
1112.097, 354.0459
1112.579, 353.9105
1113.062, 350.1884
1113.544, 348.0635
1114.026, 347.5313
1114.508, 347.5502
1114.990, 348.0117
1115.472, 348.4195
1115.954, 348.5631
1116.436, 348.5712
1116.919, 348.5486
1117.401, 348.5140
1117.883, 348.8767
1118.365, 349.6940
1118.847, 350.4813
1119.329, 351.0178
1119.811, 351.2627
1120.293, 351.0759
1120.776, 350.5550
1121.258, 350.0267
1121.740, 349.4695
1122.222, 349.2030
1122.704, 349.4554
1123.186, 349.3978
1123.668, 347.3376
1124.150, 345.0029
1124.632, 344.7460
1125.115, 347.2288
1125.597, 347.3952
1126.079, 344.4647
1126.561, 341.6349
1127.043, 340.0748
1127.525, 339.4156
1128.007, 339.2599
1128.489, 339.4816
1128.971, 340.0157
1129.454, 341.4244
1129.936, 341.3510
1130.418, 339.0536
1130.900, 336.3730
1131.382, 333.9591
1131.864, 332.1667
1132.346, 332.6469
1132.828, 334.6575
1133.311, 335.8405
1133.793, 333.8036
1134.275, 332.8863
1134.757, 334.9586
1135.239, 337.4098
1135.721, 338.0573
1136.203, 337.0372
1136.685, 334.8878
1137.167, 331.8547
1137.650, 329.9810
1138.132, 331.5708
1138.614, 333.3206
1139.096, 333.4457
1139.578, 332.9791
1140.060, 333.4951
1140.542, 335.0196
1141.024, 335.6001
1141.506, 335.0692
1141.989, 334.3622
1142.471, 334.5508
1142.953, 334.4720
1143.435, 332.9235
1143.917, 330.4277
1144.399, 328.5540
1144.881, 327.1954
1145.363, 327.7617
1145.846, 330.8008
1146.328, 333.8212
1146.810, 334.1827
1147.292, 333.3551
1147.774, 333.0201
1148.256, 333.1714
1148.738, 330.9072
1149.220, 324.8045
1149.703, 322.1362
1150.185, 325.7460
1150.667, 331.1367
1151.149, 332.4564
1151.631, 331.8234
1152.113, 332.4328
1152.595, 335.1605
1153.077, 335.7791
1153.559, 333.1606
1154.042, 330.8250
1154.524, 330.2211
1155.006, 330.6401
1155.488, 331.1518
1155.970, 331.6124
1156.452, 331.7208
1156.934, 331.3493
1157.416, 330.7082
1157.898, 329.3764
1158.381, 328.6933
1158.863, 329.9243
1159.345, 332.0327
1159.827, 331.2664
1160.309, 328.8818
1160.791, 328.4556
1161.273, 333.3362
1161.755, 336.5174
1162.238, 335.8447
1162.720, 334.1888
1163.202, 333.5094
1163.684, 333.6369
1164.166, 333.7943
1164.648, 333.9326
1165.130, 333.8225
1165.612, 333.6410
1166.094, 332.7642
1166.577, 330.1175
1167.059, 327.5414
1167.541, 327.1897
1168.023, 328.7445
1168.505, 329.4651
1168.987, 329.3061
1169.469, 328.6834
1169.951, 326.6261
1170.433, 325.5448
1170.916, 327.0702
1171.398, 329.8639
1171.880, 332.7801
1172.362, 335.7433
1172.844, 336.5279
1173.326, 335.0058
1173.808, 332.9256
1174.290, 330.7918
1174.773, 329.2005
1175.255, 328.3365
1175.737, 328.3503
1176.219, 330.4000
1176.701, 334.5271
1177.183, 335.0498
1177.665, 331.0135
1178.147, 327.6292
1178.630, 330.1701
1179.112, 333.7661
1179.594, 335.4016
1180.076, 335.1887
1180.558, 333.3284
1181.040, 329.6510
1181.522, 327.4959
1182.004, 327.6358
1182.486, 328.3864
1182.969, 328.5696
1183.451, 328.4590
1183.933, 327.8741
1184.415, 327.0809
1184.897, 328.0638
1185.379, 331.0761
1185.861, 333.0575
1186.343, 333.1093
1186.825, 332.3441
1187.308, 331.5971
1187.790, 330.7430
1188.272, 329.4030
1188.754, 327.6380
1189.236, 327.0853
1189.718, 327.8326
1190.200, 329.1945
1190.682, 331.2590
1191.165, 332.9846
1191.647, 333.1017
1192.129, 332.3887
1192.611, 331.4550
1193.093, 330.3251
1193.575, 330.2824
1194.057, 331.5550
1194.539, 332.1194
1195.021, 330.7641
1195.504, 329.2195
1195.986, 329.4764
1196.468, 330.6924
1196.950, 332.0672
1197.432, 333.7625
1197.914, 333.3920
1198.396, 330.5434
1198.878, 328.4234
1199.360, 328.8871
1199.843, 330.3356
1200.325, 331.1899
1200.807, 331.6978
1201.289, 332.2290
1201.771, 332.9262
1202.253, 333.1207
1202.735, 332.7266
1203.217, 332.4362
1203.700, 332.8812
1204.182, 333.3407
1204.664, 332.9041
1205.146, 331.9477
1205.628, 331.0130
1206.110, 330.0060
1206.592, 329.5968
1207.074, 329.8462
1207.557, 330.2547
1208.039, 330.3844
1208.521, 330.6104
1209.003, 331.6809
1209.485, 333.0511
1209.967, 333.6663
1210.449, 333.2296
1210.931, 332.5732
1211.413, 331.5745
1211.896, 331.1391
1212.378, 332.4268
1212.860, 334.1314
1213.342, 334.8747
1213.824, 334.9810
1214.306, 335.1901
1214.788, 336.0373
1215.270, 334.9297
1215.752, 331.4282
1216.235, 329.1526
1216.717, 332.3503
1217.199, 336.7121
1217.681, 338.1978
1218.163, 337.4580
1218.645, 335.9463
1219.127, 333.4591
1219.609, 331.7104
1220.092, 330.8224
1220.574, 330.0585
1221.056, 328.1152
1221.538, 326.6706
1222.020, 327.8958
1222.502, 330.6971
1222.984, 332.5750
1223.466, 333.4850
1223.948, 332.9460
1224.431, 330.7885
1224.913, 329.0363
1225.395, 329.8525
1225.877, 331.2535
1226.359, 331.7120
1226.841, 331.4453
1227.323, 331.0158
1227.805, 330.2435
1228.287, 330.9135
1228.770, 333.2328
1229.252, 335.3300
1229.734, 335.7659
1230.216, 335.3455
1230.698, 333.9897
1231.180, 332.4061
1231.662, 332.2705
1232.144, 333.7364
1232.627, 334.3351
1233.109, 333.8382
1233.591, 333.3450
1234.073, 333.9419
1234.555, 334.5569
1235.037, 334.2935
1235.519, 333.6380
1236.001, 333.4785
1236.484, 333.8181
1236.966, 334.8198
1237.448, 336.4812
1237.930, 336.9238
1238.412, 333.2485
1238.894, 329.7198
1239.376, 329.3365
1239.858, 330.3636
1240.340, 329.5634
1240.823, 327.2832
1241.305, 328.0659
1241.787, 332.2091
1242.269, 335.7310
1242.751, 335.9833
1243.233, 335.1181
1243.715, 333.4051
1244.197, 331.7757
1244.679, 332.0652
1245.162, 333.8069
1245.644, 334.4052
1246.126, 333.6903
1246.608, 332.8614
1247.090, 332.1987
1247.572, 332.0294
1248.054, 332.6616
1248.536, 333.4726
1249.019, 333.2225
1249.501, 332.3809
1249.983, 332.5210
1250.465, 333.7185
1250.947, 335.1181
1251.429, 337.4727
1251.911, 338.2001
1252.393, 336.1529
1252.875, 333.4574
1253.358, 333.0970
1253.840, 334.2372
1254.322, 335.1786
1254.804, 335.7667
1255.286, 336.0445
1255.768, 336.2686
1256.250, 335.5877
1256.732, 333.4598
1257.214, 331.4673
1257.697, 331.7536
1258.179, 333.3617
1258.661, 335.3563
1259.143, 337.3950
1259.625, 337.5865
1260.107, 334.5004
1260.589, 333.0423
1261.071, 334.0672
1261.554, 336.1737
1262.036, 339.0760
1262.518, 341.3279
1263.000, 340.6425
1263.482, 337.6286
1263.964, 335.6485
1264.446, 334.8485
1264.928, 335.3550
1265.411, 337.3946
1265.893, 339.0174
1266.375, 338.0299
1266.857, 336.2624
1267.339, 334.8771
1267.821, 334.0914
1268.303, 334.4214
1268.785, 336.0244
1269.267, 336.4493
1269.750, 335.3913
1270.232, 334.5710
1270.714, 335.6255
1271.196, 336.9732
1271.678, 337.4676
1272.160, 337.6519
1272.642, 338.6598
1273.124, 340.3606
1273.606, 340.5786
1274.089, 339.2534
1274.571, 338.4237
1275.053, 340.5975
1275.535, 341.8233
1276.017, 340.0313
1276.499, 337.3089
1276.981, 336.5361
1277.463, 337.2059
1277.946, 337.3442
1278.428, 336.9174
1278.910, 336.6890
1279.392, 337.2080
1279.874, 337.6892
1280.356, 338.0868
1280.838, 338.2202
1281.320, 337.4057
1281.802, 336.3967
1282.285, 337.1700
1282.767, 339.3077
1283.249, 340.6444
1283.731, 340.1500
1284.213, 339.5878
1284.695, 338.8631
1285.177, 338.9672
1285.659, 342.2930
1286.141, 345.8615
1286.624, 345.1328
1287.106, 341.5300
1287.588, 339.3752
1288.070, 339.3775
1288.552, 339.1320
1289.034, 338.4801
1289.516, 338.1249
1289.998, 339.2244
1290.481, 340.2178
1290.963, 339.0841
1291.445, 337.3771
1291.927, 338.0607
1292.409, 341.3945
1292.891, 341.7311
1293.373, 339.2172
1293.855, 337.9229
1294.338, 342.3616
1294.820, 346.1045
1295.302, 345.5705
1295.784, 343.3486
1296.266, 340.8009
1296.748, 338.3167
1297.230, 339.3514
1297.712, 343.1204
1298.194, 346.0756
1298.677, 346.3920
1299.159, 345.6798
1299.641, 343.6965
1300.123, 341.8822
1300.605, 341.1746
1301.087, 341.4841
1301.569, 343.3768
1302.051, 345.8990
1302.533, 346.9798
1303.016, 345.8175
##END=



