##NAMES=Sarabauite
##RRUFFID=R060495
##IDEAL CHEMISTRY=CaSb^3+^_10_O_10_S^2-^_6_
##LOCALITY=Sarabau mine, near Bau, Sarawak, Borneo (Malaysia)
##OWNER=RRUFF
##SOURCE=Michael Scott
##DESCRIPTION=Red tabular crystals associated with white wollastonite
##STATUS=The identification of this mineral is confirmed by single-crystal X-ray diffraction and chemical analysis.
##URL=rruff.info/R060495
##MEASURED CHEMISTRY=Ca_1.00_Sb^3+^_10.00_O_10_S_6.00_
9.059570e+001, 1.609426e+005
9.107782e+001, 1.509830e+005
9.155994e+001, 1.474492e+005
9.204205e+001, 1.545040e+005
9.252417e+001, 1.651905e+005
9.300629e+001, 1.779038e+005
9.348840e+001, 1.906981e+005
9.397052e+001, 2.009391e+005
9.445264e+001, 2.060815e+005
9.493475e+001, 2.102219e+005
9.541687e+001, 2.091447e+005
9.589898e+001, 2.016647e+005
9.638110e+001, 1.911016e+005
9.686321e+001, 1.797963e+005
9.734533e+001, 1.685509e+005
9.782745e+001, 1.575103e+005
9.830956e+001, 1.490191e+005
9.879168e+001, 1.432006e+005
9.927380e+001, 1.387578e+005
9.975591e+001, 1.351020e+005
1.002380e+002, 1.323843e+005
1.007201e+002, 1.312735e+005
1.012023e+002, 1.322733e+005
1.016844e+002, 1.353443e+005
1.021665e+002, 1.391158e+005
1.026486e+002, 1.452095e+005
1.031307e+002, 1.509711e+005
1.036128e+002, 1.542705e+005
1.040950e+002, 1.552260e+005
1.045771e+002, 1.534240e+005
1.050592e+002, 1.471561e+005
1.055413e+002, 1.381707e+005
1.060234e+002, 1.287344e+005
1.065055e+002, 1.192661e+005
1.069877e+002, 1.099890e+005
1.074698e+002, 1.017922e+005
1.079519e+002, 9.481523e+004
1.084340e+002, 8.891133e+004
1.089161e+002, 8.395338e+004
1.093982e+002, 7.987370e+004
1.098804e+002, 7.660593e+004
1.103625e+002, 7.411961e+004
1.108446e+002, 7.246993e+004
1.113267e+002, 7.140270e+004
1.118088e+002, 7.099555e+004
1.122909e+002, 7.102959e+004
1.127731e+002, 7.146118e+004
1.132552e+002, 7.226095e+004
1.137373e+002, 7.339398e+004
1.142194e+002, 7.479680e+004
1.147015e+002, 7.649074e+004
1.151836e+002, 7.853670e+004
1.156658e+002, 8.089174e+004
1.161479e+002, 8.359580e+004
1.166300e+002, 8.664752e+004
1.171121e+002, 9.004605e+004
1.175942e+002, 9.387521e+004
1.180763e+002, 9.839923e+004
1.185584e+002, 1.036030e+005
1.190406e+002, 1.092765e+005
1.195227e+002, 1.155453e+005
1.200048e+002, 1.222591e+005
1.204869e+002, 1.291674e+005
1.209690e+002, 1.364542e+005
1.214511e+002, 1.435286e+005
1.219333e+002, 1.496646e+005
1.224154e+002, 1.551993e+005
1.228975e+002, 1.592419e+005
1.233796e+002, 1.610057e+005
1.238617e+002, 1.604618e+005
1.243438e+002, 1.579511e+005
1.248260e+002, 1.521445e+005
1.253081e+002, 1.449235e+005
1.257902e+002, 1.376181e+005
1.262723e+002, 1.304755e+005
1.267544e+002, 1.238443e+005
1.272365e+002, 1.185832e+005
1.277187e+002, 1.148238e+005
1.282008e+002, 1.124431e+005
1.286829e+002, 1.112569e+005
1.291650e+002, 1.111530e+005
1.296471e+002, 1.119999e+005
1.301292e+002, 1.137190e+005
1.306114e+002, 1.163103e+005
1.310935e+002, 1.198021e+005
1.315756e+002, 1.242233e+005
1.320577e+002, 1.296287e+005
1.325398e+002, 1.361930e+005
1.330219e+002, 1.438123e+005
1.335041e+002, 1.522384e+005
1.339862e+002, 1.613417e+005
1.344683e+002, 1.712854e+005
1.349504e+002, 1.811501e+005
1.354325e+002, 1.905011e+005
1.359146e+002, 2.001340e+005
1.363968e+002, 2.108579e+005
1.368789e+002, 2.225950e+005
1.373610e+002, 2.343797e+005
1.378431e+002, 2.456294e+005
1.383252e+002, 2.569358e+005
1.388073e+002, 2.627548e+005
1.392895e+002, 2.622382e+005
1.397716e+002, 2.563170e+005
1.402537e+002, 2.449798e+005
1.407358e+002, 2.275115e+005
1.412179e+002, 2.075205e+005
1.417000e+002, 1.887017e+005
1.421821e+002, 1.708610e+005
1.426643e+002, 1.554820e+005
1.431464e+002, 1.432920e+005
1.436285e+002, 1.341031e+005
1.441106e+002, 1.272507e+005
1.445927e+002, 1.232137e+005
1.450748e+002, 1.211014e+005
1.455570e+002, 1.201258e+005
1.460391e+002, 1.202537e+005
1.465212e+002, 1.205445e+005
1.470033e+002, 1.203737e+005
1.474854e+002, 1.197631e+005
1.479675e+002, 1.184531e+005
1.484497e+002, 1.158180e+005
1.489318e+002, 1.127727e+005
1.494139e+002, 1.095410e+005
1.498960e+002, 1.062351e+005
1.503781e+002, 1.032018e+005
1.508602e+002, 1.009729e+005
1.513424e+002, 9.961279e+004
1.518245e+002, 9.900348e+004
1.523066e+002, 9.926247e+004
1.527887e+002, 1.000060e+005
1.532708e+002, 1.010573e+005
1.537529e+002, 1.023257e+005
1.542351e+002, 1.036682e+005
1.547172e+002, 1.047310e+005
1.551993e+002, 1.056350e+005
1.556814e+002, 1.060222e+005
1.561635e+002, 1.059412e+005
1.566456e+002, 1.053316e+005
1.571278e+002, 1.040491e+005
1.576099e+002, 1.019998e+005
1.580920e+002, 9.933353e+004
1.585741e+002, 9.665683e+004
1.590562e+002, 9.361813e+004
1.595383e+002, 9.094545e+004
1.600205e+002, 8.871177e+004
1.605026e+002, 8.697414e+004
1.609847e+002, 8.587198e+004
1.614668e+002, 8.552637e+004
1.619489e+002, 8.591246e+004
1.624310e+002, 8.668007e+004
1.629131e+002, 8.835366e+004
1.633953e+002, 8.988233e+004
1.638774e+002, 9.093691e+004
1.643595e+002, 9.147556e+004
1.648416e+002, 9.099663e+004
1.653237e+002, 8.887268e+004
1.658058e+002, 8.547877e+004
1.662880e+002, 8.182089e+004
1.667701e+002, 7.769497e+004
1.672522e+002, 7.356548e+004
1.677343e+002, 6.991732e+004
1.682164e+002, 6.675636e+004
1.686985e+002, 6.408095e+004
1.691807e+002, 6.198488e+004
1.696628e+002, 6.035943e+004
1.701449e+002, 5.914804e+004
1.706270e+002, 5.834301e+004
1.711091e+002, 5.794023e+004
1.715912e+002, 5.794926e+004
1.720734e+002, 5.843927e+004
1.725555e+002, 5.926863e+004
1.730376e+002, 6.044243e+004
1.735197e+002, 6.184289e+004
1.740018e+002, 6.335782e+004
1.744839e+002, 6.501231e+004
1.749661e+002, 6.671327e+004
1.754482e+002, 6.788137e+004
1.759303e+002, 6.859997e+004
1.764124e+002, 6.856376e+004
1.768945e+002, 6.758280e+004
1.773766e+002, 6.582708e+004
1.778588e+002, 6.355974e+004
1.783409e+002, 6.091776e+004
1.788230e+002, 5.789217e+004
1.793051e+002, 5.489024e+004
1.797872e+002, 5.188048e+004
1.802693e+002, 4.891959e+004
1.807515e+002, 4.595327e+004
1.812336e+002, 4.304060e+004
1.817157e+002, 4.033308e+004
1.821978e+002, 3.794996e+004
1.826799e+002, 3.590064e+004
1.831620e+002, 3.417048e+004
1.836441e+002, 3.280370e+004
1.841263e+002, 3.163096e+004
1.846084e+002, 3.061019e+004
1.850905e+002, 2.972301e+004
1.855726e+002, 2.893898e+004
1.860547e+002, 2.823658e+004
1.865368e+002, 2.762637e+004
1.870190e+002, 2.710171e+004
1.875011e+002, 2.668277e+004
1.879832e+002, 2.633387e+004
1.884653e+002, 2.603587e+004
1.889474e+002, 2.578689e+004
1.894296e+002, 2.557998e+004
1.899117e+002, 2.540947e+004
1.903938e+002, 2.527862e+004
1.908759e+002, 2.519830e+004
1.913580e+002, 2.518459e+004
1.918401e+002, 2.521617e+004
1.923223e+002, 2.527163e+004
1.928044e+002, 2.534929e+004
1.932865e+002, 2.544816e+004
1.937686e+002, 2.556605e+004
1.942507e+002, 2.570275e+004
1.947328e+002, 2.587240e+004
1.952150e+002, 2.607614e+004
1.956971e+002, 2.631669e+004
1.961792e+002, 2.659933e+004
1.966613e+002, 2.692354e+004
1.971434e+002, 2.729581e+004
1.976255e+002, 2.771536e+004
1.981077e+002, 2.818120e+004
1.985898e+002, 2.869196e+004
1.990719e+002, 2.926602e+004
1.995540e+002, 2.989186e+004
2.000361e+002, 3.052782e+004
2.005182e+002, 3.124557e+004
2.010004e+002, 3.186293e+004
2.014825e+002, 3.235409e+004
2.019646e+002, 3.269311e+004
2.024467e+002, 3.281327e+004
2.029288e+002, 3.264899e+004
2.034109e+002, 3.220915e+004
2.038930e+002, 3.162729e+004
2.043752e+002, 3.077079e+004
2.048573e+002, 2.990178e+004
2.053394e+002, 2.908121e+004
2.058215e+002, 2.832893e+004
2.063036e+002, 2.766197e+004
2.067857e+002, 2.709810e+004
2.072679e+002, 2.663798e+004
2.077500e+002, 2.626917e+004
2.082321e+002, 2.602775e+004
2.087142e+002, 2.585147e+004
2.091963e+002, 2.573724e+004
2.096784e+002, 2.567675e+004
2.101606e+002, 2.565657e+004
2.106427e+002, 2.566429e+004
2.111248e+002, 2.569767e+004
2.116069e+002, 2.578030e+004
2.120890e+002, 2.591250e+004
2.125711e+002, 2.608672e+004
2.130533e+002, 2.629251e+004
2.135354e+002, 2.653613e+004
2.140175e+002, 2.683797e+004
2.144996e+002, 2.721732e+004
2.149817e+002, 2.767981e+004
2.154638e+002, 2.819938e+004
2.159460e+002, 2.876213e+004
2.164281e+002, 2.937949e+004
2.169102e+002, 3.009621e+004
2.173923e+002, 3.088790e+004
2.178744e+002, 3.168346e+004
2.183565e+002, 3.242921e+004
2.188387e+002, 3.312698e+004
2.193208e+002, 3.365276e+004
2.198029e+002, 3.396420e+004
2.202850e+002, 3.416516e+004
2.207671e+002, 3.426798e+004
2.212492e+002, 3.429509e+004
2.217314e+002, 3.433902e+004
2.222135e+002, 3.447713e+004
2.226956e+002, 3.472051e+004
2.231777e+002, 3.499514e+004
2.236598e+002, 3.530227e+004
2.241419e+002, 3.563900e+004
2.246240e+002, 3.599445e+004
2.251062e+002, 3.637029e+004
2.255883e+002, 3.678920e+004
2.260704e+002, 3.727556e+004
2.265525e+002, 3.782821e+004
2.270346e+002, 3.841067e+004
2.275167e+002, 3.901063e+004
2.279989e+002, 3.964530e+004
2.284810e+002, 4.030880e+004
2.289631e+002, 4.099797e+004
2.294452e+002, 4.176334e+004
2.299273e+002, 4.263399e+004
2.304094e+002, 4.361192e+004
2.308916e+002, 4.470630e+004
2.313737e+002, 4.587159e+004
2.318558e+002, 4.717825e+004
2.323379e+002, 4.869027e+004
2.328200e+002, 5.040366e+004
2.333021e+002, 5.234610e+004
2.337843e+002, 5.462793e+004
2.342664e+002, 5.715307e+004
2.347485e+002, 5.983309e+004
2.352306e+002, 6.282366e+004
2.357127e+002, 6.580927e+004
2.361948e+002, 6.853851e+004
2.366770e+002, 7.115812e+004
2.371591e+002, 7.294987e+004
2.376412e+002, 7.336498e+004
2.381233e+002, 7.280277e+004
2.386054e+002, 7.148165e+004
2.390875e+002, 6.927364e+004
2.395697e+002, 6.661358e+004
2.400518e+002, 6.411221e+004
2.405339e+002, 6.168865e+004
2.410160e+002, 5.966901e+004
2.414981e+002, 5.822050e+004
2.419802e+002, 5.719438e+004
2.424624e+002, 5.651256e+004
2.429445e+002, 5.616599e+004
2.434266e+002, 5.611048e+004
2.439087e+002, 5.630127e+004
2.443908e+002, 5.679569e+004
2.448729e+002, 5.738896e+004
2.453550e+002, 5.806257e+004
2.458372e+002, 5.877930e+004
2.463193e+002, 5.952192e+004
2.468014e+002, 6.028827e+004
2.472835e+002, 6.104738e+004
2.477656e+002, 6.175613e+004
2.482477e+002, 6.239935e+004
2.487299e+002, 6.302037e+004
2.492120e+002, 6.362655e+004
2.496941e+002, 6.421532e+004
2.501762e+002, 6.476950e+004
2.506583e+002, 6.528728e+004
2.511404e+002, 6.580390e+004
2.516226e+002, 6.637999e+004
2.521047e+002, 6.701189e+004
2.525868e+002, 6.771402e+004
2.530689e+002, 6.844887e+004
2.535510e+002, 6.926418e+004
2.540331e+002, 7.019118e+004
2.545153e+002, 7.123892e+004
2.549974e+002, 7.241084e+004
2.554795e+002, 7.372487e+004
2.559616e+002, 7.520077e+004
2.564437e+002, 7.678663e+004
2.569258e+002, 7.847566e+004
2.574080e+002, 8.025021e+004
2.578901e+002, 8.211823e+004
2.583722e+002, 8.407190e+004
2.588543e+002, 8.609583e+004
2.593364e+002, 8.818446e+004
2.598185e+002, 9.040988e+004
2.603007e+002, 9.251175e+004
2.607828e+002, 9.460921e+004
2.612649e+002, 9.654352e+004
2.617470e+002, 9.824299e+004
2.622291e+002, 9.968992e+004
2.627112e+002, 1.008568e+005
2.631934e+002, 1.017141e+005
2.636755e+002, 1.022264e+005
2.641576e+002, 1.025088e+005
2.646397e+002, 1.024305e+005
2.651218e+002, 1.022798e+005
2.656039e+002, 1.021059e+005
2.660861e+002, 1.019768e+005
2.665682e+002, 1.020247e+005
2.670503e+002, 1.023573e+005
2.675324e+002, 1.029488e+005
2.680145e+002, 1.040935e+005
2.684966e+002, 1.057518e+005
2.689788e+002, 1.078611e+005
2.694609e+002, 1.104018e+005
2.699430e+002, 1.133644e+005
2.704251e+002, 1.167443e+005
2.709072e+002, 1.205593e+005
2.713893e+002, 1.247929e+005
2.718715e+002, 1.293399e+005
2.723536e+002, 1.342903e+005
2.728357e+002, 1.393798e+005
2.733178e+002, 1.445693e+005
2.737999e+002, 1.498056e+005
2.742820e+002, 1.549749e+005
2.747642e+002, 1.600179e+005
2.752463e+002, 1.649320e+005
2.757284e+002, 1.695473e+005
2.762105e+002, 1.739456e+005
2.766926e+002, 1.780593e+005
2.771747e+002, 1.819766e+005
2.776568e+002, 1.856145e+005
2.781389e+002, 1.887925e+005
2.786211e+002, 1.914290e+005
2.791032e+002, 1.935156e+005
2.795853e+002, 1.949483e+005
2.800674e+002, 1.956423e+005
2.805495e+002, 1.959512e+005
2.810316e+002, 1.958510e+005
2.815138e+002, 1.954378e+005
2.819959e+002, 1.947914e+005
2.824780e+002, 1.938921e+005
2.829601e+002, 1.929519e+005
2.834422e+002, 1.925408e+005
2.839243e+002, 1.925661e+005
2.844065e+002, 1.931495e+005
2.848886e+002, 1.943003e+005
2.853707e+002, 1.960310e+005
2.858528e+002, 1.983558e+005
2.863349e+002, 2.012842e+005
2.868170e+002, 2.048144e+005
2.872992e+002, 2.090570e+005
2.877813e+002, 2.140307e+005
2.882634e+002, 2.194756e+005
2.887455e+002, 2.254619e+005
2.892276e+002, 2.318359e+005
2.897097e+002, 2.385344e+005
2.901919e+002, 2.455679e+005
2.906740e+002, 2.524805e+005
2.911561e+002, 2.589211e+005
2.916382e+002, 2.649238e+005
2.921203e+002, 2.697800e+005
2.926024e+002, 2.738096e+005
2.930846e+002, 2.764332e+005
2.935667e+002, 2.772126e+005
2.940488e+002, 2.760816e+005
2.945309e+002, 2.728772e+005
2.950130e+002, 2.672778e+005
2.954951e+002, 2.590723e+005
2.959773e+002, 2.494894e+005
2.964594e+002, 2.379060e+005
2.969415e+002, 2.254297e+005
2.974236e+002, 2.125123e+005
2.979057e+002, 1.993288e+005
2.983878e+002, 1.864855e+005
2.988700e+002, 1.742575e+005
2.993521e+002, 1.628445e+005
2.998342e+002, 1.525774e+005
3.003163e+002, 1.434786e+005
3.007984e+002, 1.355417e+005
3.012805e+002, 1.287568e+005
3.017627e+002, 1.231150e+005
3.022448e+002, 1.184715e+005
3.027269e+002, 1.148128e+005
3.032090e+002, 1.120973e+005
3.036911e+002, 1.100022e+005
3.041732e+002, 1.085478e+005
3.046554e+002, 1.075616e+005
3.051375e+002, 1.070098e+005
3.056196e+002, 1.068696e+005
3.061017e+002, 1.070765e+005
3.065838e+002, 1.075945e+005
3.070659e+002, 1.084774e+005
3.075481e+002, 1.098240e+005
3.080302e+002, 1.115489e+005
3.085123e+002, 1.137879e+005
3.089944e+002, 1.165359e+005
3.094765e+002, 1.198321e+005
3.099586e+002, 1.237359e+005
3.104408e+002, 1.282555e+005
3.109229e+002, 1.333473e+005
3.114050e+002, 1.390101e+005
3.118871e+002, 1.452313e+005
3.123692e+002, 1.518012e+005
3.128513e+002, 1.588338e+005
3.133335e+002, 1.661182e+005
3.138156e+002, 1.735470e+005
3.142977e+002, 1.810960e+005
3.147798e+002, 1.885430e+005
3.152619e+002, 1.957015e+005
3.157440e+002, 2.025894e+005
3.162262e+002, 2.093574e+005
3.167083e+002, 2.157711e+005
3.171904e+002, 2.222422e+005
3.176725e+002, 2.291256e+005
3.181546e+002, 2.364415e+005
3.186367e+002, 2.439860e+005
3.191188e+002, 2.519560e+005
3.196010e+002, 2.599615e+005
3.200831e+002, 2.666704e+005
3.205652e+002, 2.730813e+005
3.210473e+002, 2.773269e+005
3.215294e+002, 2.786832e+005
3.220115e+002, 2.771035e+005
3.224937e+002, 2.722582e+005
3.229758e+002, 2.637329e+005
3.234579e+002, 2.520849e+005
3.239400e+002, 2.388490e+005
3.244221e+002, 2.234092e+005
3.249042e+002, 2.079737e+005
3.253864e+002, 1.927726e+005
3.258685e+002, 1.781537e+005
3.263506e+002, 1.645790e+005
3.268327e+002, 1.521476e+005
3.273148e+002, 1.409268e+005
3.277969e+002, 1.311533e+005
3.282791e+002, 1.227941e+005
3.287612e+002, 1.154671e+005
3.292433e+002, 1.092532e+005
3.297254e+002, 1.040043e+005
3.302075e+002, 9.959858e+004
3.306896e+002, 9.601486e+004
3.311718e+002, 9.316558e+004
3.316539e+002, 9.099582e+004
3.321360e+002, 8.958244e+004
3.326181e+002, 8.869255e+004
3.331002e+002, 8.839830e+004
3.335823e+002, 8.857107e+004
3.340645e+002, 8.917755e+004
3.345466e+002, 9.019039e+004
3.350287e+002, 9.152415e+004
3.355108e+002, 9.315481e+004
3.359929e+002, 9.506638e+004
3.364750e+002, 9.701496e+004
3.369572e+002, 9.895349e+004
3.374393e+002, 1.009907e+005
3.379214e+002, 1.031437e+005
3.384035e+002, 1.054349e+005
3.388856e+002, 1.078968e+005
3.393677e+002, 1.105454e+005
3.398499e+002, 1.133631e+005
3.403320e+002, 1.163184e+005
3.408141e+002, 1.194566e+005
3.412962e+002, 1.226129e+005
3.417783e+002, 1.257089e+005
3.422604e+002, 1.288263e+005
3.427426e+002, 1.319872e+005
3.432247e+002, 1.351844e+005
3.437068e+002, 1.385891e+005
3.441889e+002, 1.423841e+005
3.446710e+002, 1.465145e+005
3.451531e+002, 1.514564e+005
3.456353e+002, 1.570609e+005
3.461174e+002, 1.635482e+005
3.465995e+002, 1.710843e+005
3.470816e+002, 1.796378e+005
3.475637e+002, 1.892507e+005
3.480458e+002, 1.999061e+005
3.485280e+002, 2.116917e+005
3.490101e+002, 2.239939e+005
3.494922e+002, 2.375038e+005
3.499743e+002, 2.507423e+005
3.504564e+002, 2.638473e+005
3.509385e+002, 2.761027e+005
3.514207e+002, 2.864717e+005
3.519028e+002, 2.944848e+005
3.523849e+002, 2.997067e+005
3.528670e+002, 3.000365e+005
3.533491e+002, 2.945796e+005
3.538312e+002, 2.854100e+005
3.543134e+002, 2.713583e+005
3.547955e+002, 2.542796e+005
3.552776e+002, 2.356014e+005
3.557597e+002, 2.159282e+005
3.562418e+002, 1.962030e+005
3.567239e+002, 1.778013e+005
3.572061e+002, 1.606778e+005
3.576882e+002, 1.452975e+005
3.581703e+002, 1.318474e+005
3.586524e+002, 1.197848e+005
3.591345e+002, 1.090070e+005
3.596166e+002, 9.933523e+004
3.600987e+002, 9.052485e+004
3.605808e+002, 8.229087e+004
3.610630e+002, 7.462303e+004
3.615451e+002, 6.766952e+004
3.620272e+002, 6.145242e+004
3.625093e+002, 5.588109e+004
3.629914e+002, 5.102372e+004
3.634735e+002, 4.677260e+004
3.639557e+002, 4.305241e+004
3.644378e+002, 3.981585e+004
3.649199e+002, 3.703439e+004
3.654020e+002, 3.459453e+004
3.658841e+002, 3.263492e+004
3.663662e+002, 3.087180e+004
3.668484e+002, 2.929143e+004
3.673305e+002, 2.787356e+004
3.678126e+002, 2.661459e+004
3.682947e+002, 2.551435e+004
3.687768e+002, 2.453490e+004
3.692589e+002, 2.361874e+004
3.697411e+002, 2.276810e+004
3.702232e+002, 2.198421e+004
3.707053e+002, 2.127160e+004
3.711874e+002, 2.061436e+004
3.716695e+002, 2.000559e+004
3.721516e+002, 1.944412e+004
3.726338e+002, 1.891673e+004
3.731159e+002, 1.841638e+004
3.735980e+002, 1.794385e+004
3.740801e+002, 1.749636e+004
3.745622e+002, 1.707609e+004
3.750443e+002, 1.668101e+004
3.755265e+002, 1.631124e+004
3.760086e+002, 1.596322e+004
3.764907e+002, 1.563490e+004
3.769728e+002, 1.532290e+004
3.774549e+002, 1.503014e+004
3.779370e+002, 1.476326e+004
3.784192e+002, 1.452661e+004
3.789013e+002, 1.430432e+004
3.793834e+002, 1.409033e+004
3.798655e+002, 1.388956e+004
3.803476e+002, 1.370865e+004
3.808297e+002, 1.354878e+004
3.813119e+002, 1.340092e+004
3.817940e+002, 1.325206e+004
3.822761e+002, 1.310245e+004
3.827582e+002, 1.298237e+004
3.832403e+002, 1.291347e+004
3.837224e+002, 1.285533e+004
3.842046e+002, 1.277289e+004
3.846867e+002, 1.267519e+004
3.851688e+002, 1.259330e+004
3.856509e+002, 1.255023e+004
3.861330e+002, 1.253419e+004
3.866151e+002, 1.251977e+004
3.870973e+002, 1.250732e+004
3.875794e+002, 1.249521e+004
3.880615e+002, 1.248432e+004
3.885436e+002, 1.247245e+004
3.890257e+002, 1.245527e+004
3.895078e+002, 1.242867e+004
3.899900e+002, 1.240246e+004
3.904721e+002, 1.238418e+004
3.909542e+002, 1.237354e+004
3.914363e+002, 1.237065e+004
3.919184e+002, 1.238036e+004
3.924005e+002, 1.239178e+004
3.928827e+002, 1.238660e+004
3.933648e+002, 1.236307e+004
3.938469e+002, 1.234763e+004
3.943290e+002, 1.234856e+004
3.948111e+002, 1.236473e+004
3.952932e+002, 1.239625e+004
3.957754e+002, 1.244410e+004
3.962575e+002, 1.250029e+004
3.967396e+002, 1.255712e+004
3.972217e+002, 1.261626e+004
3.977038e+002, 1.268894e+004
3.981859e+002, 1.277984e+004
3.986681e+002, 1.288161e+004
3.991501e+002, 1.299256e+004
3.996323e+002, 1.311108e+004
4.001144e+002, 1.323331e+004
4.005965e+002, 1.335843e+004
4.010786e+002, 1.348405e+004
4.015607e+002, 1.360195e+004
4.020428e+002, 1.371960e+004
4.025250e+002, 1.381861e+004
4.030071e+002, 1.389890e+004
4.034892e+002, 1.395745e+004
4.039713e+002, 1.399106e+004
4.044534e+002, 1.399869e+004
4.049355e+002, 1.397978e+004
4.054177e+002, 1.393340e+004
4.058998e+002, 1.385866e+004
4.063819e+002, 1.375500e+004
4.068640e+002, 1.360668e+004
4.073461e+002, 1.344907e+004
4.078282e+002, 1.329530e+004
4.083104e+002, 1.314616e+004
4.087925e+002, 1.299632e+004
4.092746e+002, 1.283940e+004
4.097567e+002, 1.268210e+004
4.102388e+002, 1.255239e+004
4.107209e+002, 1.246420e+004
4.112031e+002, 1.238895e+004
4.116852e+002, 1.231584e+004
4.121673e+002, 1.225864e+004
4.126494e+002, 1.223549e+004
4.131315e+002, 1.224885e+004
4.136136e+002, 1.227937e+004
4.140958e+002, 1.230193e+004
4.145779e+002, 1.231398e+004
4.150600e+002, 1.232880e+004
4.155421e+002, 1.235740e+004
4.160242e+002, 1.237842e+004
4.165063e+002, 1.239287e+004
4.169885e+002, 1.239305e+004
4.174706e+002, 1.236403e+004
4.179527e+002, 1.229525e+004
4.184348e+002, 1.219140e+004
4.189169e+002, 1.206708e+004
4.193990e+002, 1.192460e+004
4.198812e+002, 1.175657e+004
4.203633e+002, 1.155862e+004
4.208454e+002, 1.133826e+004
4.213275e+002, 1.109856e+004
4.218096e+002, 1.084015e+004
4.222917e+002, 1.057402e+004
4.227739e+002, 1.030838e+004
4.232560e+002, 1.004392e+004
4.237381e+002, 9.784674e+003
4.242202e+002, 9.528490e+003
4.247023e+002, 9.282688e+003
4.251844e+002, 9.050260e+003
4.256666e+002, 8.830492e+003
4.261487e+002, 8.619658e+003
4.266308e+002, 8.414748e+003
4.271129e+002, 8.218182e+003
4.275950e+002, 8.034124e+003
4.280771e+002, 7.861374e+003
4.285593e+002, 7.703301e+003
4.290414e+002, 7.565139e+003
4.295235e+002, 7.443081e+003
4.300056e+002, 7.325330e+003
4.304877e+002, 7.210207e+003
4.309698e+002, 7.103057e+003
4.314520e+002, 7.008150e+003
4.319341e+002, 6.923359e+003
4.324162e+002, 6.844456e+003
4.328983e+002, 6.771048e+003
4.333804e+002, 6.701501e+003
4.338625e+002, 6.632701e+003
4.343447e+002, 6.564000e+003
4.348268e+002, 6.507563e+003
4.353089e+002, 6.470753e+003
4.357910e+002, 6.440340e+003
4.362731e+002, 6.405820e+003
4.367552e+002, 6.369750e+003
4.372374e+002, 6.343269e+003
4.377195e+002, 6.333877e+003
4.382016e+002, 6.336854e+003
4.386837e+002, 6.334460e+003
4.391658e+002, 6.320149e+003
4.396479e+002, 6.308787e+003
4.401301e+002, 6.298477e+003
4.406122e+002, 6.293212e+003
4.410943e+002, 6.299059e+003
4.415764e+002, 6.316050e+003
4.420585e+002, 6.336795e+003
4.425406e+002, 6.353052e+003
4.430227e+002, 6.364493e+003
4.435049e+002, 6.374304e+003
4.439870e+002, 6.372558e+003
4.444691e+002, 6.379607e+003
4.449512e+002, 6.406544e+003
4.454333e+002, 6.445590e+003
4.459154e+002, 6.484389e+003
4.463976e+002, 6.516409e+003
4.468797e+002, 6.544478e+003
4.473618e+002, 6.574286e+003
4.478439e+002, 6.605239e+003
4.483260e+002, 6.639638e+003
4.488081e+002, 6.684138e+003
4.492903e+002, 6.727841e+003
4.497724e+002, 6.764013e+003
4.502545e+002, 6.792257e+003
4.507366e+002, 6.816155e+003
4.512187e+002, 6.836358e+003
4.517008e+002, 6.854047e+003
4.521830e+002, 6.874681e+003
4.526651e+002, 6.900368e+003
4.531472e+002, 6.923643e+003
4.536293e+002, 6.936651e+003
4.541114e+002, 6.945236e+003
4.545935e+002, 6.958208e+003
4.550757e+002, 6.979663e+003
4.555578e+002, 7.001306e+003
4.560399e+002, 7.016897e+003
4.565220e+002, 7.026953e+003
4.570041e+002, 7.033234e+003
4.574862e+002, 7.034909e+003
4.579684e+002, 7.035802e+003
4.584505e+002, 7.041064e+003
4.589326e+002, 7.050509e+003
4.594147e+002, 7.061225e+003
4.598968e+002, 7.071871e+003
4.603789e+002, 7.084220e+003
4.608611e+002, 7.101370e+003
4.613432e+002, 7.122403e+003
4.618253e+002, 7.141262e+003
4.623074e+002, 7.153146e+003
4.627895e+002, 7.161293e+003
4.632716e+002, 7.179722e+003
4.637538e+002, 7.221284e+003
4.642359e+002, 7.255632e+003
4.647180e+002, 7.273265e+003
4.652001e+002, 7.285640e+003
4.656822e+002, 7.306575e+003
4.661643e+002, 7.337667e+003
4.666465e+002, 7.367121e+003
4.671286e+002, 7.380729e+003
4.676107e+002, 7.376026e+003
4.680928e+002, 7.380023e+003
4.685749e+002, 7.400831e+003
4.690570e+002, 7.421759e+003
4.695392e+002, 7.442263e+003
4.700213e+002, 7.458944e+003
4.705034e+002, 7.465742e+003
4.709855e+002, 7.459653e+003
4.714676e+002, 7.448083e+003
4.719497e+002, 7.444207e+003
4.724319e+002, 7.449621e+003
4.729140e+002, 7.455840e+003
4.733961e+002, 7.463427e+003
4.738782e+002, 7.470072e+003
4.743603e+002, 7.472450e+003
4.748424e+002, 7.472126e+003
4.753246e+002, 7.475285e+003
4.758067e+002, 7.485227e+003
4.762888e+002, 7.501268e+003
4.767709e+002, 7.522808e+003
4.772530e+002, 7.550287e+003
4.777351e+002, 7.579600e+003
4.782173e+002, 7.604492e+003
4.786994e+002, 7.633149e+003
4.791815e+002, 7.677549e+003
4.796636e+002, 7.740201e+003
4.801457e+002, 7.810713e+003
4.806278e+002, 7.887218e+003
4.811100e+002, 7.967236e+003
4.815920e+002, 8.045397e+003
4.820742e+002, 8.120529e+003
4.825563e+002, 8.198356e+003
4.830384e+002, 8.284176e+003
4.835205e+002, 8.378166e+003
4.840026e+002, 8.476894e+003
4.844847e+002, 8.582515e+003
4.849669e+002, 8.689846e+003
4.854490e+002, 8.798649e+003
4.859311e+002, 8.907850e+003
4.864132e+002, 9.014816e+003
4.868953e+002, 9.118942e+003
4.873774e+002, 9.222808e+003
4.878596e+002, 9.330553e+003
4.883417e+002, 9.447986e+003
4.888238e+002, 9.555104e+003
4.893059e+002, 9.649826e+003
4.897880e+002, 9.737933e+003
4.902701e+002, 9.816009e+003
4.907523e+002, 9.889646e+003
4.912344e+002, 9.970889e+003
4.917165e+002, 1.006819e+004
4.921986e+002, 1.017352e+004
4.926807e+002, 1.026448e+004
4.931628e+002, 1.033725e+004
4.936450e+002, 1.040566e+004
4.941271e+002, 1.046578e+004
4.946092e+002, 1.052689e+004
4.950913e+002, 1.059364e+004
4.955734e+002, 1.066684e+004
4.960555e+002, 1.074843e+004
4.965377e+002, 1.083788e+004
4.970198e+002, 1.093627e+004
4.975019e+002, 1.104785e+004
4.979840e+002, 1.117466e+004
4.984661e+002, 1.130549e+004
4.989482e+002, 1.143025e+004
4.994304e+002, 1.155879e+004
4.999125e+002, 1.170776e+004
5.003946e+002, 1.188105e+004
5.008767e+002, 1.206837e+004
5.013588e+002, 1.226638e+004
5.018409e+002, 1.247564e+004
5.023231e+002, 1.270064e+004
5.028052e+002, 1.294181e+004
5.032873e+002, 1.319467e+004
5.037694e+002, 1.345247e+004
5.042515e+002, 1.371732e+004
5.047336e+002, 1.400585e+004
5.052158e+002, 1.431650e+004
5.056979e+002, 1.464918e+004
5.061800e+002, 1.500969e+004
5.066621e+002, 1.539089e+004
5.071442e+002, 1.577825e+004
5.076263e+002, 1.616711e+004
5.081085e+002, 1.656705e+004
5.085906e+002, 1.698963e+004
5.090727e+002, 1.743545e+004
5.095548e+002, 1.790306e+004
5.100369e+002, 1.840664e+004
5.105190e+002, 1.891657e+004
5.110012e+002, 1.942274e+004
5.114833e+002, 1.992867e+004
5.119654e+002, 2.044087e+004
5.124475e+002, 2.096206e+004
5.129296e+002, 2.149602e+004
5.134117e+002, 2.205668e+004
5.138939e+002, 2.265133e+004
5.143760e+002, 2.323329e+004
5.148581e+002, 2.379723e+004
5.153402e+002, 2.434290e+004
5.158223e+002, 2.487268e+004
5.163044e+002, 2.538544e+004
5.167866e+002, 2.587284e+004
5.172687e+002, 2.633180e+004
5.177508e+002, 2.676579e+004
5.182329e+002, 2.718991e+004
5.187150e+002, 2.760135e+004
5.191971e+002, 2.796641e+004
5.196793e+002, 2.827646e+004
5.201614e+002, 2.852257e+004
5.206435e+002, 2.867182e+004
5.211256e+002, 2.872672e+004
5.216077e+002, 2.870907e+004
5.220898e+002, 2.862264e+004
5.225720e+002, 2.846496e+004
5.230541e+002, 2.822479e+004
5.235362e+002, 2.790876e+004
5.240183e+002, 2.753988e+004
5.245004e+002, 2.713589e+004
5.249825e+002, 2.669601e+004
5.254647e+002, 2.620223e+004
5.259468e+002, 2.564043e+004
5.264289e+002, 2.504504e+004
5.269110e+002, 2.439979e+004
5.273931e+002, 2.373542e+004
5.278752e+002, 2.307869e+004
5.283574e+002, 2.243230e+004
5.288395e+002, 2.178245e+004
5.293216e+002, 2.111355e+004
5.298037e+002, 2.043134e+004
5.302858e+002, 1.975884e+004
5.307679e+002, 1.909381e+004
5.312501e+002, 1.844828e+004
5.317322e+002, 1.783014e+004
5.322143e+002, 1.723438e+004
5.326964e+002, 1.664793e+004
5.331785e+002, 1.606761e+004
5.336606e+002, 1.551204e+004
5.341428e+002, 1.499421e+004
5.346249e+002, 1.450785e+004
5.351070e+002, 1.403310e+004
5.355891e+002, 1.356686e+004
5.360712e+002, 1.312022e+004
5.365533e+002, 1.270354e+004
5.370355e+002, 1.231556e+004
5.375176e+002, 1.194982e+004
5.379997e+002, 1.160745e+004
5.384818e+002, 1.128227e+004
5.389639e+002, 1.096703e+004
5.394460e+002, 1.066900e+004
5.399282e+002, 1.039970e+004
5.404103e+002, 1.016038e+004
5.408924e+002, 9.937125e+003
5.413745e+002, 9.717150e+003
5.418566e+002, 9.500260e+003
5.423387e+002, 9.292733e+003
5.428209e+002, 9.087594e+003
5.433029e+002, 8.903267e+003
5.437850e+002, 8.751073e+003
5.442672e+002, 8.618343e+003
5.447493e+002, 8.493286e+003
5.452314e+002, 8.372207e+003
5.457135e+002, 8.255234e+003
5.461956e+002, 8.142137e+003
5.466777e+002, 8.033104e+003
5.471599e+002, 7.935658e+003
5.476420e+002, 7.850829e+003
5.481241e+002, 7.776539e+003
5.486062e+002, 7.714784e+003
5.490883e+002, 7.662312e+003
5.495704e+002, 7.614591e+003
5.500526e+002, 7.571672e+003
5.505347e+002, 7.532247e+003
5.510168e+002, 7.496084e+003
5.514989e+002, 7.462582e+003
5.519810e+002, 7.430547e+003
5.524631e+002, 7.399745e+003
5.529453e+002, 7.369721e+003
5.534274e+002, 7.339875e+003
5.539095e+002, 7.310100e+003
5.543916e+002, 7.282958e+003
5.548737e+002, 7.259669e+003
5.553558e+002, 7.237073e+003
5.558380e+002, 7.215729e+003
5.563201e+002, 7.193781e+003
5.568022e+002, 7.168251e+003
5.572843e+002, 7.138751e+003
5.577664e+002, 7.109423e+003
5.582485e+002, 7.084815e+003
5.587307e+002, 7.065163e+003
5.592128e+002, 7.047117e+003
5.596949e+002, 7.031448e+003
5.601770e+002, 7.016605e+003
5.606591e+002, 7.003395e+003
5.611412e+002, 6.990021e+003
5.616234e+002, 6.972532e+003
5.621055e+002, 6.949331e+003
5.625876e+002, 6.929494e+003
5.630697e+002, 6.923340e+003
5.635518e+002, 6.927099e+003
5.640339e+002, 6.926539e+003
5.645161e+002, 6.918319e+003
5.649982e+002, 6.914642e+003
5.654803e+002, 6.925147e+003
5.659624e+002, 6.947834e+003
5.664445e+002, 6.970842e+003
5.669266e+002, 6.990376e+003
5.674088e+002, 7.015521e+003
5.678909e+002, 7.052517e+003
5.683730e+002, 7.095315e+003
5.688551e+002, 7.135714e+003
5.693372e+002, 7.172551e+003
5.698193e+002, 7.212103e+003
5.703015e+002, 7.259826e+003
5.707836e+002, 7.315581e+003
5.712657e+002, 7.373048e+003
5.717478e+002, 7.428124e+003
5.722299e+002, 7.491272e+003
5.727120e+002, 7.569377e+003
5.731942e+002, 7.652799e+003
5.736763e+002, 7.732591e+003
5.741584e+002, 7.807732e+003
5.746405e+002, 7.882668e+003
5.751226e+002, 7.962141e+003
5.756047e+002, 8.044803e+003
5.760869e+002, 8.125958e+003
5.765690e+002, 8.206301e+003
5.770511e+002, 8.281705e+003
5.775332e+002, 8.348238e+003
5.780153e+002, 8.408718e+003
5.784974e+002, 8.470239e+003
5.789796e+002, 8.536109e+003
5.794617e+002, 8.588497e+003
5.799438e+002, 8.620744e+003
5.804259e+002, 8.635969e+003
5.809080e+002, 8.639483e+003
5.813901e+002, 8.630615e+003
5.818723e+002, 8.602338e+003
5.823544e+002, 8.549322e+003
5.828365e+002, 8.475131e+003
5.833186e+002, 8.391798e+003
5.838007e+002, 8.301768e+003
5.842828e+002, 8.197123e+003
5.847650e+002, 8.070664e+003
5.852471e+002, 7.936135e+003
5.857292e+002, 7.803289e+003
5.862113e+002, 7.670662e+003
5.866934e+002, 7.529682e+003
5.871755e+002, 7.373240e+003
5.876577e+002, 7.208660e+003
5.881398e+002, 7.052812e+003
5.886219e+002, 6.905247e+003
5.891040e+002, 6.767742e+003
5.895861e+002, 6.639913e+003
5.900682e+002, 6.522996e+003
5.905504e+002, 6.419878e+003
5.910325e+002, 6.329087e+003
5.915146e+002, 6.242714e+003
5.919967e+002, 6.155254e+003
5.924788e+002, 6.074191e+003
5.929609e+002, 6.008133e+003
5.934431e+002, 5.954718e+003
5.939252e+002, 5.905520e+003
5.944073e+002, 5.857429e+003
5.948894e+002, 5.815444e+003
5.953715e+002, 5.786661e+003
5.958536e+002, 5.772811e+003
5.963358e+002, 5.764976e+003
5.968179e+002, 5.765130e+003
5.973000e+002, 5.768156e+003
5.977821e+002, 5.767862e+003
5.982642e+002, 5.770915e+003
5.987463e+002, 5.785554e+003
5.992285e+002, 5.814811e+003
5.997106e+002, 5.858349e+003
6.001927e+002, 5.919683e+003
6.006748e+002, 5.998339e+003
6.011569e+002, 6.074266e+003
6.016390e+002, 6.143200e+003
6.021212e+002, 6.216017e+003
6.026033e+002, 6.295313e+003
6.030854e+002, 6.383621e+003
6.035675e+002, 6.484245e+003
6.040496e+002, 6.598025e+003
6.045317e+002, 6.723922e+003
6.050139e+002, 6.867306e+003
6.054960e+002, 7.020656e+003
6.059781e+002, 7.169649e+003
6.064602e+002, 7.313712e+003
6.069423e+002, 7.467394e+003
6.074244e+002, 7.640675e+003
6.079066e+002, 7.830798e+003
6.083887e+002, 8.027426e+003
6.088708e+002, 8.224033e+003
6.093529e+002, 8.436961e+003
6.098350e+002, 8.668560e+003
6.103171e+002, 8.914483e+003
6.107993e+002, 9.173630e+003
6.112814e+002, 9.444496e+003
6.117635e+002, 9.725262e+003
6.122456e+002, 1.001797e+004
6.127277e+002, 1.031494e+004
6.132098e+002, 1.060116e+004
6.136920e+002, 1.087717e+004
6.141741e+002, 1.115601e+004
6.146562e+002, 1.145075e+004
6.151383e+002, 1.173786e+004
6.156204e+002, 1.200065e+004
6.161025e+002, 1.223999e+004
6.165847e+002, 1.244830e+004
6.170668e+002, 1.262402e+004
6.175489e+002, 1.276823e+004
6.180310e+002, 1.288151e+004
6.185131e+002, 1.296345e+004
6.189952e+002, 1.301599e+004
6.194774e+002, 1.303933e+004
6.199595e+002, 1.302605e+004
6.204416e+002, 1.296721e+004
6.209237e+002, 1.286187e+004
6.214058e+002, 1.272153e+004
6.218879e+002, 1.254784e+004
6.223701e+002, 1.233307e+004
6.228522e+002, 1.206853e+004
6.233343e+002, 1.176794e+004
6.238164e+002, 1.144363e+004
6.242985e+002, 1.110008e+004
6.247806e+002, 1.073814e+004
6.252628e+002, 1.035316e+004
6.257448e+002, 9.952775e+003
6.262269e+002, 9.558979e+003
6.267090e+002, 9.171822e+003
6.271912e+002, 8.786225e+003
6.276733e+002, 8.391311e+003
6.281554e+002, 8.002507e+003
6.286375e+002, 7.645854e+003
6.291196e+002, 7.321983e+003
6.296017e+002, 7.019769e+003
6.300839e+002, 6.739560e+003
6.305660e+002, 6.477496e+003
6.310481e+002, 6.226879e+003
6.315302e+002, 5.991293e+003
6.320123e+002, 5.779169e+003
6.324944e+002, 5.595332e+003
6.329766e+002, 5.432147e+003
6.334587e+002, 5.278069e+003
6.339408e+002, 5.131936e+003
6.344229e+002, 4.997683e+003
6.349050e+002, 4.878023e+003
6.353871e+002, 4.768478e+003
6.358693e+002, 4.667247e+003
6.363514e+002, 4.573798e+003
6.368335e+002, 4.486815e+003
6.373156e+002, 4.405904e+003
6.377977e+002, 4.333581e+003
6.382798e+002, 4.273387e+003
6.387620e+002, 4.223089e+003
6.392441e+002, 4.179701e+003
6.397262e+002, 4.142772e+003
6.402083e+002, 4.106077e+003
6.406904e+002, 4.064925e+003
6.411725e+002, 4.021811e+003
6.416547e+002, 3.984734e+003
6.421368e+002, 3.957693e+003
6.426189e+002, 3.931348e+003
6.431010e+002, 3.905064e+003
6.435831e+002, 3.880068e+003
6.440652e+002, 3.856844e+003
6.445474e+002, 3.835500e+003
6.450295e+002, 3.816360e+003
6.455116e+002, 3.800031e+003
6.459937e+002, 3.784368e+003
6.464758e+002, 3.763965e+003
6.469579e+002, 3.738923e+003
6.474401e+002, 3.722096e+003
6.479222e+002, 3.717982e+003
6.484043e+002, 3.717047e+003
6.488864e+002, 3.712939e+003
6.493685e+002, 3.706271e+003
6.498506e+002, 3.698775e+003
6.503328e+002, 3.687538e+003
6.508149e+002, 3.680251e+003
6.512970e+002, 3.681105e+003
6.517791e+002, 3.686954e+003
6.522612e+002, 3.693774e+003
6.527433e+002, 3.701384e+003
6.532255e+002, 3.712693e+003
6.537076e+002, 3.730192e+003
6.541897e+002, 3.752273e+003
6.546718e+002, 3.772564e+003
6.551539e+002, 3.787906e+003
6.556360e+002, 3.808959e+003
6.561182e+002, 3.839884e+003
6.566003e+002, 3.874792e+003
6.570824e+002, 3.910562e+003
6.575645e+002, 3.947783e+003
6.580466e+002, 3.988588e+003
6.585287e+002, 4.034948e+003
6.590109e+002, 4.083516e+003
6.594930e+002, 4.130357e+003
6.599751e+002, 4.176796e+003
6.604572e+002, 4.226317e+003
6.609393e+002, 4.279440e+003
6.614214e+002, 4.338350e+003
6.619036e+002, 4.404510e+003
6.623857e+002, 4.478433e+003
6.628678e+002, 4.563882e+003
6.633499e+002, 4.671257e+003
6.638320e+002, 4.776633e+003
6.643141e+002, 4.872999e+003
6.647963e+002, 4.971003e+003
6.652784e+002, 5.083094e+003
6.657605e+002, 5.205888e+003
6.662426e+002, 5.323599e+003
6.667247e+002, 5.426299e+003
6.672068e+002, 5.520055e+003
6.676890e+002, 5.620057e+003
6.681711e+002, 5.725757e+003
6.686532e+002, 5.819679e+003
6.691353e+002, 5.901834e+003
6.696174e+002, 5.961132e+003
6.700995e+002, 5.985869e+003
6.705817e+002, 5.975527e+003
6.710638e+002, 5.941908e+003
6.715459e+002, 5.882453e+003
6.720280e+002, 5.803153e+003
6.725101e+002, 5.704073e+003
6.729922e+002, 5.587725e+003
6.734744e+002, 5.453544e+003
6.739565e+002, 5.303598e+003
6.744386e+002, 5.143667e+003
6.749207e+002, 4.976368e+003
6.754028e+002, 4.803573e+003
6.758849e+002, 4.627671e+003
6.763671e+002, 4.444731e+003
6.768492e+002, 4.276616e+003
6.773313e+002, 4.130135e+003
6.778134e+002, 3.996225e+003
6.782955e+002, 3.868172e+003
6.787776e+002, 3.745982e+003
6.792598e+002, 3.630708e+003
6.797419e+002, 3.522174e+003
6.802240e+002, 3.421161e+003
6.807061e+002, 3.325744e+003
6.811882e+002, 3.239176e+003
6.816703e+002, 3.168245e+003
6.821525e+002, 3.113080e+003
6.826346e+002, 3.063110e+003
6.831167e+002, 3.009224e+003
6.835988e+002, 2.954044e+003
6.840809e+002, 2.910332e+003
6.845630e+002, 2.881731e+003
6.850452e+002, 2.856836e+003
6.855273e+002, 2.832171e+003
6.860094e+002, 2.812870e+003
6.864915e+002, 2.802199e+003
6.869736e+002, 2.799517e+003
6.874557e+002, 2.803165e+003
6.879379e+002, 2.815947e+003
6.884200e+002, 2.828769e+003
6.889021e+002, 2.829803e+003
6.893842e+002, 2.825257e+003
6.898663e+002, 2.829619e+003
6.903484e+002, 2.845529e+003
6.908306e+002, 2.868050e+003
6.913127e+002, 2.894147e+003
6.917948e+002, 2.923137e+003
6.922769e+002, 2.951823e+003
6.927590e+002, 2.974133e+003
6.932411e+002, 3.006375e+003
6.937233e+002, 3.052564e+003
6.942054e+002, 3.104980e+003
6.946875e+002, 3.160177e+003
6.951696e+002, 3.217903e+003
6.956517e+002, 3.278335e+003
6.961339e+002, 3.341524e+003
6.966160e+002, 3.407634e+003
6.970981e+002, 3.478060e+003
6.975802e+002, 3.551734e+003
6.980623e+002, 3.627698e+003
6.985444e+002, 3.705792e+003
6.990266e+002, 3.780284e+003
6.995087e+002, 3.849229e+003
6.999908e+002, 3.910113e+003
7.004729e+002, 3.952271e+003
7.009550e+002, 3.968463e+003
7.014371e+002, 3.975717e+003
7.019193e+002, 3.976687e+003
7.024014e+002, 3.966460e+003
7.028835e+002, 3.942159e+003
7.033656e+002, 3.904289e+003
7.038477e+002, 3.852359e+003
7.043298e+002, 3.785681e+003
7.048120e+002, 3.712521e+003
7.052941e+002, 3.643082e+003
7.057762e+002, 3.576747e+003
7.062583e+002, 3.508751e+003
7.067404e+002, 3.438167e+003
7.072225e+002, 3.371038e+003
7.077046e+002, 3.311832e+003
7.081867e+002, 3.257346e+003
7.086688e+002, 3.198995e+003
7.091509e+002, 3.134631e+003
7.096331e+002, 3.072034e+003
7.101152e+002, 3.013169e+003
7.105973e+002, 2.954287e+003
7.110794e+002, 2.893830e+003
7.115615e+002, 2.831732e+003
7.120436e+002, 2.767385e+003
7.125258e+002, 2.700333e+003
7.130079e+002, 2.635246e+003
7.134900e+002, 2.577676e+003
7.139721e+002, 2.526671e+003
7.144542e+002, 2.476084e+003
7.149363e+002, 2.426275e+003
7.154185e+002, 2.374939e+003
7.159006e+002, 2.319973e+003
7.163827e+002, 2.264729e+003
7.168648e+002, 2.215091e+003
7.173469e+002, 2.172048e+003
7.178290e+002, 2.128713e+003
7.183112e+002, 2.082853e+003
7.187933e+002, 2.038562e+003
7.192754e+002, 1.997707e+003
7.197575e+002, 1.959847e+003
7.202396e+002, 1.923325e+003
7.207217e+002, 1.888134e+003
7.212039e+002, 1.856887e+003
7.216860e+002, 1.833911e+003
7.221681e+002, 1.816519e+003
7.226502e+002, 1.793285e+003
7.231323e+002, 1.762991e+003
7.236144e+002, 1.736232e+003
7.240966e+002, 1.718074e+003
7.245787e+002, 1.702337e+003
7.250608e+002, 1.681535e+003
7.255429e+002, 1.655649e+003
7.260250e+002, 1.632203e+003
7.265071e+002, 1.612232e+003
7.269893e+002, 1.593868e+003
7.274714e+002, 1.575647e+003
7.279535e+002, 1.559105e+003
7.284356e+002, 1.547736e+003
7.289177e+002, 1.540719e+003
7.293998e+002, 1.532154e+003
7.298820e+002, 1.516812e+003
7.303641e+002, 1.498800e+003
7.308462e+002, 1.488973e+003
7.313283e+002, 1.487764e+003
7.318104e+002, 1.481928e+003
7.322925e+002, 1.467093e+003
7.327747e+002, 1.451453e+003
7.332568e+002, 1.442696e+003
7.337389e+002, 1.439000e+003
7.342210e+002, 1.430398e+003
7.347031e+002, 1.409992e+003
7.351852e+002, 1.395422e+003
7.356674e+002, 1.396193e+003
7.361495e+002, 1.399330e+003
7.366316e+002, 1.393527e+003
7.371137e+002, 1.380467e+003
7.375958e+002, 1.367969e+003
7.380779e+002, 1.359844e+003
7.385601e+002, 1.353488e+003
7.390422e+002, 1.345000e+003
7.395243e+002, 1.334634e+003
7.400064e+002, 1.324028e+003
7.404885e+002, 1.312687e+003
7.409706e+002, 1.304354e+003
7.414528e+002, 1.302289e+003
7.419349e+002, 1.303784e+003
7.424170e+002, 1.302843e+003
7.428991e+002, 1.298833e+003
7.433812e+002, 1.294880e+003
7.438633e+002, 1.291080e+003
7.443455e+002, 1.287568e+003
7.448276e+002, 1.285943e+003
7.453097e+002, 1.284075e+003
7.457918e+002, 1.277656e+003
7.462739e+002, 1.266000e+003
7.467560e+002, 1.254734e+003
7.472382e+002, 1.250667e+003
7.477203e+002, 1.251039e+003
7.482024e+002, 1.246722e+003
7.486845e+002, 1.237568e+003
7.491666e+002, 1.229784e+003
7.496487e+002, 1.225765e+003
7.501309e+002, 1.223011e+003
7.506130e+002, 1.217895e+003
7.510951e+002, 1.210090e+003
7.515772e+002, 1.207331e+003
7.520593e+002, 1.216092e+003
7.525414e+002, 1.221046e+003
7.530236e+002, 1.217585e+003
7.535057e+002, 1.209776e+003
7.539878e+002, 1.199070e+003
7.544699e+002, 1.187378e+003
7.549520e+002, 1.179350e+003
7.554341e+002, 1.178722e+003
7.559163e+002, 1.180559e+003
7.563984e+002, 1.177849e+003
7.568805e+002, 1.171530e+003
7.573626e+002, 1.165829e+003
7.578447e+002, 1.161467e+003
7.583268e+002, 1.156829e+003
7.588090e+002, 1.150395e+003
7.592911e+002, 1.143204e+003
7.597732e+002, 1.138793e+003
7.602553e+002, 1.139900e+003
7.607374e+002, 1.138821e+003
7.612195e+002, 1.133663e+003
7.617017e+002, 1.128525e+003
7.621838e+002, 1.125134e+003
7.626659e+002, 1.123138e+003
7.631480e+002, 1.122346e+003
7.636301e+002, 1.122822e+003
7.641122e+002, 1.121932e+003
7.645944e+002, 1.115588e+003
7.650765e+002, 1.107760e+003
7.655586e+002, 1.105659e+003
7.660407e+002, 1.108429e+003
7.665228e+002, 1.109821e+003
7.670049e+002, 1.107337e+003
7.674871e+002, 1.103886e+003
7.679692e+002, 1.103967e+003
7.684513e+002, 1.107952e+003
7.689334e+002, 1.104877e+003
7.694155e+002, 1.087557e+003
7.698976e+002, 1.074877e+003
7.703798e+002, 1.072852e+003
7.708619e+002, 1.075260e+003
7.713440e+002, 1.079579e+003
7.718261e+002, 1.084534e+003
7.723082e+002, 1.085755e+003
7.727903e+002, 1.078531e+003
7.732725e+002, 1.071425e+003
7.737546e+002, 1.073247e+003
7.742367e+002, 1.077818e+003
7.747188e+002, 1.073645e+003
7.752009e+002, 1.060826e+003
7.756830e+002, 1.049695e+003
7.761652e+002, 1.047089e+003
7.766473e+002, 1.050225e+003
7.771294e+002, 1.053499e+003
7.776115e+002, 1.057594e+003
7.780936e+002, 1.056714e+003
7.785757e+002, 1.047078e+003
7.790579e+002, 1.038768e+003
7.795400e+002, 1.038659e+003
7.800221e+002, 1.042729e+003
7.805042e+002, 1.044760e+003
7.809863e+002, 1.044781e+003
7.814684e+002, 1.041815e+003
7.819506e+002, 1.031587e+003
7.824327e+002, 1.022346e+003
7.829148e+002, 1.020795e+003
7.833969e+002, 1.023367e+003
7.838790e+002, 1.024050e+003
7.843611e+002, 1.021210e+003
7.848433e+002, 1.016777e+003
7.853254e+002, 1.012057e+003
7.858075e+002, 1.007380e+003
7.862896e+002, 1.003452e+003
7.867717e+002, 1.000264e+003
7.872538e+002, 9.997487e+002
7.877360e+002, 1.003277e+003
7.882181e+002, 1.006843e+003
7.887002e+002, 1.006240e+003
7.891823e+002, 1.002187e+003
7.896644e+002, 1.000828e+003
7.901465e+002, 1.006093e+003
7.906286e+002, 1.008266e+003
7.911107e+002, 1.003221e+003
7.915928e+002, 9.980332e+002
7.920750e+002, 9.988395e+002
7.925571e+002, 1.002792e+003
7.930392e+002, 1.002721e+003
7.935213e+002, 9.956219e+002
7.940034e+002, 9.880617e+002
7.944855e+002, 9.880184e+002
7.949677e+002, 9.905186e+002
7.954498e+002, 9.834036e+002
7.959319e+002, 9.682129e+002
7.964140e+002, 9.606345e+002
7.968961e+002, 9.676527e+002
7.973782e+002, 9.792381e+002
7.978604e+002, 9.811190e+002
7.983425e+002, 9.727144e+002
7.988246e+002, 9.689510e+002
7.993067e+002, 9.728597e+002
7.997888e+002, 9.758877e+002
8.002709e+002, 9.750389e+002
8.007531e+002, 9.732457e+002
8.012352e+002, 9.722542e+002
8.017173e+002, 9.721583e+002
8.021994e+002, 9.729512e+002
8.026815e+002, 9.744684e+002
8.031636e+002, 9.771043e+002
8.036458e+002, 9.832524e+002
8.041279e+002, 9.892445e+002
8.046100e+002, 9.897997e+002
8.050921e+002, 9.857861e+002
8.055742e+002, 9.822496e+002
8.060563e+002, 9.819907e+002
8.065385e+002, 9.826515e+002
8.070206e+002, 9.800617e+002
8.075027e+002, 9.745360e+002
8.079848e+002, 9.704663e+002
8.084669e+002, 9.681455e+002
8.089490e+002, 9.665862e+002
8.094312e+002, 9.652194e+002
8.099133e+002, 9.646170e+002
8.103954e+002, 9.662311e+002
8.108775e+002, 9.708512e+002
8.113596e+002, 9.722133e+002
8.118417e+002, 9.659042e+002
8.123239e+002, 9.619973e+002
8.128060e+002, 9.661501e+002
8.132881e+002, 9.718306e+002
8.137702e+002, 9.731285e+002
8.142523e+002, 9.698338e+002
8.147344e+002, 9.643345e+002
8.152166e+002, 9.564132e+002
8.156987e+002, 9.497598e+002
8.161808e+002, 9.495874e+002
8.166629e+002, 9.533162e+002
8.171450e+002, 9.548509e+002
8.176271e+002, 9.537863e+002
8.181093e+002, 9.544269e+002
8.185914e+002, 9.596330e+002
8.190735e+002, 9.654758e+002
8.195556e+002, 9.633668e+002
8.200377e+002, 9.512642e+002
8.205198e+002, 9.441854e+002
8.210020e+002, 9.440010e+002
8.214841e+002, 9.452368e+002
8.219662e+002, 9.471136e+002
8.224483e+002, 9.485343e+002
8.229304e+002, 9.485651e+002
8.234125e+002, 9.471764e+002
8.238947e+002, 9.438898e+002
8.243768e+002, 9.368719e+002
8.248589e+002, 9.300560e+002
8.253410e+002, 9.238818e+002
8.258231e+002, 9.196165e+002
8.263052e+002, 9.201027e+002
8.267874e+002, 9.240954e+002
8.272695e+002, 9.263513e+002
8.277516e+002, 9.235742e+002
8.282337e+002, 9.195676e+002
8.287158e+002, 9.217653e+002
8.291979e+002, 9.275977e+002
8.296801e+002, 9.250490e+002
8.301622e+002, 9.130533e+002
8.306443e+002, 9.001756e+002
8.311264e+002, 8.898486e+002
8.316085e+002, 8.834297e+002
8.320906e+002, 8.837662e+002
8.325728e+002, 8.920716e+002
8.330549e+002, 8.983304e+002
8.335370e+002, 9.042500e+002
8.340191e+002, 9.053962e+002
8.345012e+002, 8.949331e+002
8.349833e+002, 8.842609e+002
8.354655e+002, 8.845087e+002
8.359476e+002, 8.937004e+002
8.364297e+002, 8.996406e+002
8.369118e+002, 8.970516e+002
8.373939e+002, 8.930919e+002
8.378760e+002, 8.914710e+002
8.383582e+002, 8.907013e+002
8.388403e+002, 8.883117e+002
8.393224e+002, 8.850786e+002
8.398045e+002, 8.844937e+002
8.402866e+002, 8.882257e+002
8.407687e+002, 8.929202e+002
8.412509e+002, 8.933843e+002
8.417330e+002, 8.905638e+002
8.422151e+002, 8.904710e+002
8.426972e+002, 8.934496e+002
8.431793e+002, 8.946431e+002
8.436614e+002, 8.916373e+002
8.441436e+002, 8.881710e+002
8.446257e+002, 8.891168e+002
8.451078e+002, 8.942941e+002
8.455899e+002, 8.959215e+002
8.460720e+002, 8.912277e+002
8.465541e+002, 8.869469e+002
8.470363e+002, 8.815084e+002
8.475184e+002, 8.786547e+002
8.480005e+002, 8.838411e+002
8.484826e+002, 8.928457e+002
8.489647e+002, 8.956823e+002
8.494468e+002, 8.885067e+002
8.499290e+002, 8.810101e+002
8.504111e+002, 8.770197e+002
8.508932e+002, 8.763701e+002
8.513753e+002, 8.818262e+002
8.518574e+002, 8.899160e+002
8.523395e+002, 8.925029e+002
8.528217e+002, 8.874409e+002
8.533038e+002, 8.797250e+002
8.537859e+002, 8.733063e+002
8.542680e+002, 8.688680e+002
8.547501e+002, 8.694077e+002
8.552322e+002, 8.749199e+002
8.557144e+002, 8.795543e+002
8.561965e+002, 8.811808e+002
8.566786e+002, 8.871751e+002
8.571607e+002, 9.073226e+002
8.576428e+002, 9.328175e+002
8.581249e+002, 9.340967e+002
8.586071e+002, 8.939457e+002
8.590892e+002, 8.668966e+002
8.595713e+002, 8.597208e+002
8.600534e+002, 8.573202e+002
8.605355e+002, 8.551224e+002
8.610176e+002, 8.543870e+002
8.614998e+002, 8.585051e+002
8.619819e+002, 8.673241e+002
8.624640e+002, 8.725657e+002
8.629461e+002, 8.696380e+002
8.634282e+002, 8.634600e+002
8.639103e+002, 8.554799e+002
8.643925e+002, 8.473671e+002
8.648746e+002, 8.411786e+002
8.653567e+002, 8.372261e+002
8.658388e+002, 8.354095e+002
8.663209e+002, 8.357539e+002
8.668030e+002, 8.374426e+002
8.672852e+002, 8.399224e+002
8.677673e+002, 8.427765e+002
8.682494e+002, 8.438873e+002
8.687315e+002, 8.431301e+002
8.692136e+002, 8.401765e+002
8.696957e+002, 8.343580e+002
8.701779e+002, 8.281040e+002
8.706600e+002, 8.248539e+002
8.711421e+002, 8.246328e+002
8.716242e+002, 8.232795e+002
8.721063e+002, 8.180341e+002
8.725884e+002, 8.165208e+002
8.730705e+002, 8.250345e+002
8.735526e+002, 8.329396e+002
8.740347e+002, 8.331052e+002
8.745168e+002, 8.278281e+002
8.749990e+002, 8.227173e+002
8.754811e+002, 8.180790e+002
8.759632e+002, 8.155119e+002
8.764453e+002, 8.180527e+002
8.769274e+002, 8.205021e+002
8.774095e+002, 8.184244e+002
8.778917e+002, 8.137454e+002
8.783738e+002, 8.098912e+002
8.788559e+002, 8.077286e+002
8.793380e+002, 8.062934e+002
8.798201e+002, 8.054592e+002
8.803022e+002, 8.041857e+002
8.807844e+002, 7.991359e+002
8.812665e+002, 7.920793e+002
8.817486e+002, 7.899774e+002
8.822307e+002, 7.937603e+002
8.827128e+002, 8.000146e+002
8.831949e+002, 8.071774e+002
8.836771e+002, 8.128793e+002
8.841592e+002, 8.110724e+002
8.846413e+002, 8.001560e+002
8.851234e+002, 7.940608e+002
8.856055e+002, 7.947286e+002
8.860876e+002, 7.953836e+002
8.865698e+002, 7.932114e+002
8.870519e+002, 7.904810e+002
8.875340e+002, 7.896047e+002
8.880161e+002, 7.905247e+002
8.884982e+002, 7.922096e+002
8.889803e+002, 7.984021e+002
8.894625e+002, 8.000372e+002
8.899446e+002, 7.904672e+002
8.904267e+002, 7.806595e+002
8.909088e+002, 7.792020e+002
8.913909e+002, 7.829681e+002
8.918730e+002, 7.848050e+002
8.923552e+002, 7.826981e+002
8.928373e+002, 7.802135e+002
8.933194e+002, 7.796722e+002
8.938015e+002, 7.798556e+002
8.942836e+002, 7.793070e+002
8.947657e+002, 7.785173e+002
8.952479e+002, 7.789417e+002
8.957300e+002, 7.806312e+002
8.962121e+002, 7.820125e+002
8.966942e+002, 7.820612e+002
8.971763e+002, 7.805648e+002
8.976584e+002, 7.755599e+002
8.981406e+002, 7.678095e+002
8.986227e+002, 7.659567e+002
8.991048e+002, 7.713378e+002
8.995869e+002, 7.754612e+002
9.000690e+002, 7.739456e+002
9.005511e+002, 7.701663e+002
9.010333e+002, 7.688741e+002
9.015154e+002, 7.700855e+002
9.019975e+002, 7.738038e+002
9.024796e+002, 7.839457e+002
9.029617e+002, 7.892964e+002
9.034438e+002, 7.842360e+002
9.039260e+002, 7.771915e+002
9.044081e+002, 7.741563e+002
9.048902e+002, 7.735455e+002
9.053723e+002, 7.708087e+002
9.058544e+002, 7.635915e+002
9.063365e+002, 7.596774e+002
9.068187e+002, 7.628927e+002
9.073008e+002, 7.679000e+002
9.077829e+002, 7.735099e+002
9.082650e+002, 7.778623e+002
9.087471e+002, 7.776271e+002
9.092292e+002, 7.731650e+002
9.097114e+002, 7.699605e+002
9.101935e+002, 7.720671e+002
9.106756e+002, 7.754705e+002
9.111577e+002, 7.760516e+002
9.116398e+002, 7.750182e+002
9.121219e+002, 7.747673e+002
9.126041e+002, 7.752559e+002
9.130862e+002, 7.747319e+002
9.135683e+002, 7.723668e+002
9.140504e+002, 7.695040e+002
9.145325e+002, 7.677289e+002
9.150146e+002, 7.670409e+002
9.154968e+002, 7.676449e+002
9.159789e+002, 7.696057e+002
9.164610e+002, 7.711436e+002
9.169431e+002, 7.717935e+002
9.174252e+002, 7.720946e+002
9.179073e+002, 7.725211e+002
9.183895e+002, 7.729343e+002
9.188716e+002, 7.726776e+002
9.193537e+002, 7.707634e+002
9.198358e+002, 7.708082e+002
9.203179e+002, 7.749889e+002
9.208000e+002, 7.779855e+002
9.212822e+002, 7.762742e+002
9.217643e+002, 7.732403e+002
9.222464e+002, 7.735017e+002
9.227285e+002, 7.768175e+002
9.232106e+002, 7.764791e+002
9.236927e+002, 7.664304e+002
9.241749e+002, 7.595636e+002
9.246570e+002, 7.619732e+002
9.251391e+002, 7.666981e+002
9.256212e+002, 7.689271e+002
9.261033e+002, 7.689413e+002
9.265854e+002, 7.684604e+002
9.270676e+002, 7.680011e+002
9.275497e+002, 7.667186e+002
9.280318e+002, 7.638901e+002
9.285139e+002, 7.601481e+002
9.289960e+002, 7.555724e+002
9.294781e+002, 7.507367e+002
9.299603e+002, 7.471210e+002
9.304424e+002, 7.445581e+002
9.309245e+002, 7.406073e+002
9.314066e+002, 7.333937e+002
9.318887e+002, 7.258802e+002
9.323708e+002, 7.232889e+002
9.328530e+002, 7.244942e+002
9.333351e+002, 7.246574e+002
9.338172e+002, 7.236265e+002
9.342993e+002, 7.240487e+002
9.347814e+002, 7.270900e+002
9.352635e+002, 7.298531e+002
9.357457e+002, 7.290548e+002
9.362278e+002, 7.252794e+002
9.367099e+002, 7.217752e+002
9.371920e+002, 7.183046e+002
9.376741e+002, 7.160123e+002
9.381563e+002, 7.146309e+002
9.386384e+002, 7.154545e+002
9.391205e+002, 7.205107e+002
9.396026e+002, 7.271940e+002
9.400847e+002, 7.312452e+002
9.405668e+002, 7.328165e+002
9.410490e+002, 7.308354e+002
9.415311e+002, 7.208936e+002
9.420132e+002, 7.135663e+002
9.424953e+002, 7.124291e+002
9.429774e+002, 7.131335e+002
9.434595e+002, 7.140165e+002
9.439417e+002, 7.139587e+002
9.444238e+002, 7.100483e+002
9.449059e+002, 7.001554e+002
9.453880e+002, 6.924525e+002
9.458701e+002, 6.911083e+002
9.463522e+002, 6.914911e+002
9.468344e+002, 6.914918e+002
9.473165e+002, 6.908212e+002
9.477986e+002, 6.894249e+002
9.482807e+002, 6.872518e+002
9.487628e+002, 6.837997e+002
9.492449e+002, 6.777684e+002
9.497271e+002, 6.730568e+002
9.502092e+002, 6.747965e+002
9.506913e+002, 6.794257e+002
9.511734e+002, 6.818700e+002
9.516555e+002, 6.820197e+002
9.521376e+002, 6.812598e+002
9.526198e+002, 6.800494e+002
9.531019e+002, 6.776316e+002
9.535840e+002, 6.725258e+002
9.540661e+002, 6.666216e+002
9.545482e+002, 6.649174e+002
9.550303e+002, 6.668297e+002
9.555124e+002, 6.688696e+002
9.559945e+002, 6.705396e+002
9.564766e+002, 6.707451e+002
9.569587e+002, 6.686202e+002
9.574409e+002, 6.663246e+002
9.579230e+002, 6.677433e+002
9.584051e+002, 6.727750e+002
9.588872e+002, 6.747392e+002
9.593693e+002, 6.726682e+002
9.598514e+002, 6.719160e+002
9.603336e+002, 6.744517e+002
9.608157e+002, 6.765500e+002
9.612978e+002, 6.746660e+002
9.617799e+002, 6.707626e+002
9.622620e+002, 6.708520e+002
9.627441e+002, 6.780443e+002
9.632263e+002, 6.795380e+002
9.637084e+002, 6.693137e+002
9.641905e+002, 6.615571e+002
9.646726e+002, 6.619308e+002
9.651547e+002, 6.646884e+002
9.656368e+002, 6.640820e+002
9.661190e+002, 6.613245e+002
9.666011e+002, 6.627570e+002
9.670832e+002, 6.728665e+002
9.675653e+002, 6.796348e+002
9.680474e+002, 6.775596e+002
9.685295e+002, 6.746627e+002
9.690117e+002, 6.758170e+002
9.694938e+002, 6.787683e+002
9.699759e+002, 6.802006e+002
9.704580e+002, 6.798166e+002
9.709401e+002, 6.795760e+002
9.714222e+002, 6.812594e+002
9.719044e+002, 6.818007e+002
9.723865e+002, 6.765702e+002
9.728686e+002, 6.713318e+002
9.733507e+002, 6.746379e+002
9.738328e+002, 6.826079e+002
9.743149e+002, 6.851352e+002
9.747971e+002, 6.795319e+002
9.752792e+002, 6.723522e+002
9.757613e+002, 6.683943e+002
9.762434e+002, 6.661266e+002
9.767255e+002, 6.638666e+002
9.772076e+002, 6.616127e+002
9.776898e+002, 6.587383e+002
9.781719e+002, 6.556667e+002
9.786540e+002, 6.549027e+002
9.791361e+002, 6.576172e+002
9.796182e+002, 6.613087e+002
9.801003e+002, 6.634633e+002
9.805825e+002, 6.638893e+002
9.810646e+002, 6.609275e+002
9.815467e+002, 6.551436e+002
9.820288e+002, 6.514813e+002
9.825109e+002, 6.509247e+002
9.829930e+002, 6.498615e+002
9.834752e+002, 6.457294e+002
9.839573e+002, 6.407629e+002
9.844394e+002, 6.394911e+002
9.849215e+002, 6.419451e+002
9.854036e+002, 6.435911e+002
9.858857e+002, 6.443577e+002
9.863679e+002, 6.448120e+002
9.868500e+002, 6.453056e+002
9.873321e+002, 6.447534e+002
9.878142e+002, 6.418283e+002
9.882963e+002, 6.375924e+002
9.887784e+002, 6.355834e+002
9.892606e+002, 6.368845e+002
9.897427e+002, 6.364615e+002
9.902248e+002, 6.330060e+002
9.907069e+002, 6.304283e+002
9.911890e+002, 6.311520e+002
9.916711e+002, 6.318417e+002
9.921533e+002, 6.279557e+002
9.926354e+002, 6.208566e+002
9.931175e+002, 6.188455e+002
9.935996e+002, 6.260485e+002
9.940817e+002, 6.308945e+002
9.945638e+002, 6.332914e+002
9.950460e+002, 6.332504e+002
9.955281e+002, 6.282637e+002
9.960102e+002, 6.225786e+002
9.964923e+002, 6.208810e+002
9.969744e+002, 6.229639e+002
9.974565e+002, 6.255460e+002
9.979387e+002, 6.297640e+002
9.984208e+002, 6.315141e+002
9.989029e+002, 6.273175e+002
9.993850e+002, 6.228958e+002
9.998671e+002, 6.214432e+002
1.000349e+003, 6.222670e+002
1.000831e+003, 6.253322e+002
1.001313e+003, 6.299310e+002
1.001796e+003, 6.314200e+002
1.002278e+003, 6.254779e+002
1.002760e+003, 6.196478e+002
1.003242e+003, 6.188520e+002
1.003724e+003, 6.193326e+002
1.004206e+003, 6.170678e+002
1.004688e+003, 6.134659e+002
1.005170e+003, 6.125330e+002
1.005653e+003, 6.148237e+002
1.006135e+003, 6.154790e+002
1.006617e+003, 6.095629e+002
1.007099e+003, 6.032467e+002
1.007581e+003, 6.031168e+002
1.008063e+003, 6.057332e+002
1.008545e+003, 6.064899e+002
1.009027e+003, 6.054227e+002
1.009509e+003, 6.041489e+002
1.009992e+003, 6.032941e+002
1.010474e+003, 6.028595e+002
1.010956e+003, 6.030770e+002
1.011438e+003, 6.034700e+002
1.011920e+003, 6.029669e+002
1.012402e+003, 6.021826e+002
1.012884e+003, 6.025535e+002
1.013366e+003, 6.041500e+002
1.013849e+003, 6.070245e+002
1.014331e+003, 6.111117e+002
1.014813e+003, 6.133298e+002
1.015295e+003, 6.090570e+002
1.015777e+003, 6.012853e+002
1.016259e+003, 5.973658e+002
1.016741e+003, 5.967545e+002
1.017223e+003, 5.973901e+002
1.017705e+003, 5.988206e+002
1.018188e+003, 6.004325e+002
1.018670e+003, 6.019896e+002
1.019152e+003, 6.020114e+002
1.019634e+003, 5.970690e+002
1.020116e+003, 5.892310e+002
1.020598e+003, 5.901976e+002
1.021080e+003, 5.995140e+002
1.021562e+003, 6.045057e+002
1.022044e+003, 6.027797e+002
1.022527e+003, 6.006150e+002
1.023009e+003, 6.016700e+002
1.023491e+003, 6.040753e+002
1.023973e+003, 6.049100e+002
1.024455e+003, 6.042361e+002
1.024937e+003, 6.033514e+002
1.025419e+003, 6.025096e+002
1.025901e+003, 5.984875e+002
1.026384e+003, 5.893732e+002
1.026866e+003, 5.833715e+002
1.027348e+003, 5.867089e+002
1.027830e+003, 5.937357e+002
1.028312e+003, 5.932825e+002
1.028794e+003, 5.848070e+002
1.029276e+003, 5.832185e+002
1.029758e+003, 5.914356e+002
1.030240e+003, 5.959595e+002
1.030723e+003, 5.928746e+002
1.031205e+003, 5.890032e+002
1.031687e+003, 5.890082e+002
1.032169e+003, 5.908559e+002
1.032651e+003, 5.901069e+002
1.033133e+003, 5.861131e+002
1.033615e+003, 5.850591e+002
1.034097e+003, 5.882368e+002
1.034579e+003, 5.916449e+002
1.035062e+003, 5.954338e+002
1.035544e+003, 5.979421e+002
1.036026e+003, 5.981757e+002
1.036508e+003, 5.962571e+002
1.036990e+003, 5.916488e+002
1.037472e+003, 5.829509e+002
1.037954e+003, 5.795204e+002
1.038436e+003, 5.853893e+002
1.038919e+003, 5.901031e+002
1.039401e+003, 5.919158e+002
1.039883e+003, 5.920206e+002
1.040365e+003, 5.899110e+002
1.040847e+003, 5.870143e+002
1.041329e+003, 5.867898e+002
1.041811e+003, 5.901731e+002
1.042293e+003, 5.912711e+002
1.042776e+003, 5.873207e+002
1.043258e+003, 5.848237e+002
1.043740e+003, 5.869263e+002
1.044222e+003, 5.888969e+002
1.044704e+003, 5.869214e+002
1.045186e+003, 5.829053e+002
1.045668e+003, 5.806008e+002
1.046150e+003, 5.804001e+002
1.046632e+003, 5.808356e+002
1.047115e+003, 5.837053e+002
1.047597e+003, 5.844916e+002
1.048079e+003, 5.794729e+002
1.048561e+003, 5.745678e+002
1.049043e+003, 5.750389e+002
1.049525e+003, 5.780941e+002
1.050007e+003, 5.777008e+002
1.050489e+003, 5.727524e+002
1.050971e+003, 5.698586e+002
1.051454e+003, 5.712484e+002
1.051936e+003, 5.735548e+002
1.052418e+003, 5.789255e+002
1.052900e+003, 5.818271e+002
1.053382e+003, 5.745524e+002
1.053864e+003, 5.634118e+002
1.054346e+003, 5.611335e+002
1.054828e+003, 5.697462e+002
1.055311e+003, 5.757935e+002
1.055793e+003, 5.738362e+002
1.056275e+003, 5.713309e+002
1.056757e+003, 5.706862e+002
1.057239e+003, 5.705531e+002
1.057721e+003, 5.703535e+002
1.058203e+003, 5.697347e+002
1.058685e+003, 5.675695e+002
1.059167e+003, 5.638029e+002
1.059650e+003, 5.623341e+002
1.060132e+003, 5.671080e+002
1.060614e+003, 5.707850e+002
1.061096e+003, 5.691082e+002
1.061578e+003, 5.667379e+002
1.062060e+003, 5.674049e+002
1.062542e+003, 5.698004e+002
1.063024e+003, 5.716840e+002
1.063506e+003, 5.726066e+002
1.063989e+003, 5.724294e+002
1.064471e+003, 5.706686e+002
1.064953e+003, 5.684081e+002
1.065435e+003, 5.654948e+002
1.065917e+003, 5.628385e+002
1.066399e+003, 5.610278e+002
1.066881e+003, 5.599981e+002
1.067363e+003, 5.596266e+002
1.067846e+003, 5.598725e+002
1.068328e+003, 5.606864e+002
1.068810e+003, 5.628318e+002
1.069292e+003, 5.641778e+002
1.069774e+003, 5.631057e+002
1.070256e+003, 5.615597e+002
1.070738e+003, 5.612941e+002
1.071220e+003, 5.613329e+002
1.071703e+003, 5.596667e+002
1.072185e+003, 5.565114e+002
1.072667e+003, 5.547631e+002
1.073149e+003, 5.564545e+002
1.073631e+003, 5.574521e+002
1.074113e+003, 5.547078e+002
1.074595e+003, 5.517520e+002
1.075077e+003, 5.516435e+002
1.075559e+003, 5.525753e+002
1.076042e+003, 5.512082e+002
1.076524e+003, 5.481342e+002
1.077006e+003, 5.479505e+002
1.077488e+003, 5.533971e+002
1.077970e+003, 5.580599e+002
1.078452e+003, 5.591478e+002
1.078934e+003, 5.582495e+002
1.079416e+003, 5.550623e+002
1.079898e+003, 5.514842e+002
1.080380e+003, 5.493777e+002
1.080863e+003, 5.489208e+002
1.081345e+003, 5.497656e+002
1.081827e+003, 5.519349e+002
1.082309e+003, 5.547492e+002
1.082791e+003, 5.584843e+002
1.083273e+003, 5.621098e+002
1.083755e+003, 5.662231e+002
1.084237e+003, 5.689297e+002
1.084720e+003, 5.674314e+002
1.085202e+003, 5.629208e+002
1.085684e+003, 5.586639e+002
1.086166e+003, 5.554299e+002
1.086648e+003, 5.533582e+002
1.087130e+003, 5.521108e+002
1.087612e+003, 5.525317e+002
1.088094e+003, 5.581290e+002
1.088577e+003, 5.629352e+002
1.089059e+003, 5.590892e+002
1.089541e+003, 5.507529e+002
1.090023e+003, 5.481605e+002
1.090505e+003, 5.534232e+002
1.090987e+003, 5.566976e+002
1.091469e+003, 5.511366e+002
1.091951e+003, 5.470744e+002
1.092433e+003, 5.514297e+002
1.092916e+003, 5.565783e+002
1.093398e+003, 5.566633e+002
1.093880e+003, 5.531762e+002
1.094362e+003, 5.482838e+002
1.094844e+003, 5.426978e+002
1.095326e+003, 5.397301e+002
1.095808e+003, 5.406637e+002
1.096290e+003, 5.440432e+002
1.096772e+003, 5.536141e+002
1.097255e+003, 5.609442e+002
1.097737e+003, 5.578197e+002
1.098219e+003, 5.509788e+002
1.098701e+003, 5.503319e+002
1.099183e+003, 5.556810e+002
1.099665e+003, 5.584465e+002
1.100147e+003, 5.541631e+002
1.100629e+003, 5.524257e+002
1.101112e+003, 5.595269e+002
1.101594e+003, 5.651808e+002
1.102076e+003, 5.623477e+002
1.102558e+003, 5.570322e+002
1.103040e+003, 5.560317e+002
1.103522e+003, 5.584404e+002
1.104004e+003, 5.591093e+002
1.104486e+003, 5.569146e+002
1.104969e+003, 5.541786e+002
1.105451e+003, 5.487318e+002
1.105933e+003, 5.461722e+002
1.106415e+003, 5.514999e+002
1.106897e+003, 5.576586e+002
1.107379e+003, 5.578917e+002
1.107861e+003, 5.547514e+002
1.108343e+003, 5.552586e+002
1.108825e+003, 5.608156e+002
1.109307e+003, 5.648347e+002
1.109790e+003, 5.682848e+002
1.110272e+003, 5.679500e+002
1.110754e+003, 5.580416e+002
1.111236e+003, 5.495994e+002
1.111718e+003, 5.518563e+002
1.112200e+003, 5.585822e+002
1.112682e+003, 5.587523e+002
1.113164e+003, 5.517922e+002
1.113647e+003, 5.482182e+002
1.114129e+003, 5.492037e+002
1.114611e+003, 5.517015e+002
1.115093e+003, 5.570249e+002
1.115575e+003, 5.618160e+002
1.116057e+003, 5.652709e+002
1.116539e+003, 5.669055e+002
1.117021e+003, 5.656050e+002
1.117504e+003, 5.618206e+002
1.117986e+003, 5.588737e+002
1.118468e+003, 5.569140e+002
1.118950e+003, 5.553414e+002
1.119432e+003, 5.531674e+002
1.119914e+003, 5.535591e+002
1.120396e+003, 5.588527e+002
1.120878e+003, 5.649030e+002
1.121360e+003, 5.684774e+002
1.121843e+003, 5.698815e+002
1.122325e+003, 5.697654e+002
1.122807e+003, 5.676859e+002
1.123289e+003, 5.666888e+002
1.123771e+003, 5.666027e+002
1.124253e+003, 5.687502e+002
1.124735e+003, 5.749099e+002
1.125217e+003, 5.784594e+002
1.125699e+003, 5.742338e+002
1.126182e+003, 5.670260e+002
1.126664e+003, 5.654044e+002
1.127146e+003, 5.689432e+002
1.127628e+003, 5.692931e+002
1.128110e+003, 5.658132e+002
1.128592e+003, 5.652531e+002
1.129074e+003, 5.688763e+002
1.129556e+003, 5.724461e+002
1.130039e+003, 5.740405e+002
1.130521e+003, 5.747579e+002
1.131003e+003, 5.758063e+002
1.131485e+003, 5.770421e+002
1.131967e+003, 5.777593e+002
1.132449e+003, 5.780353e+002
1.132931e+003, 5.794357e+002
1.133413e+003, 5.820268e+002
1.133896e+003, 5.849120e+002
1.134378e+003, 5.878131e+002
1.134860e+003, 5.884423e+002
1.135342e+003, 5.846772e+002
1.135824e+003, 5.794156e+002
1.136306e+003, 5.781636e+002
1.136788e+003, 5.798858e+002
1.137270e+003, 5.805476e+002
1.137752e+003, 5.804061e+002
1.138234e+003, 5.810829e+002
1.138717e+003, 5.828024e+002
1.139199e+003, 5.848547e+002
1.139681e+003, 5.868885e+002
1.140163e+003, 5.885145e+002
1.140645e+003, 5.891048e+002
1.141127e+003, 5.892064e+002
1.141609e+003, 5.897932e+002
1.142091e+003, 5.906925e+002
1.142574e+003, 5.915329e+002
1.143056e+003, 5.923122e+002
1.143538e+003, 5.931017e+002
1.144020e+003, 5.939714e+002
1.144502e+003, 5.952684e+002
1.144984e+003, 5.974396e+002
1.145466e+003, 5.996693e+002
1.145948e+003, 6.015126e+002
1.146431e+003, 6.025933e+002
1.146913e+003, 6.018341e+002
1.147395e+003, 6.002227e+002
1.147877e+003, 5.994393e+002
1.148359e+003, 5.997277e+002
1.148841e+003, 6.004440e+002
1.149323e+003, 6.012250e+002
1.149805e+003, 6.029696e+002
1.150287e+003, 6.072567e+002
1.150770e+003, 6.115629e+002
1.151252e+003, 6.153399e+002
1.151734e+003, 6.171464e+002
1.152216e+003, 6.139176e+002
1.152698e+003, 6.079305e+002
1.153180e+003, 6.042252e+002
1.153662e+003, 6.038644e+002
1.154144e+003, 6.050157e+002
1.154626e+003, 6.096769e+002
1.155109e+003, 6.120429e+002
1.155591e+003, 6.063902e+002
1.156073e+003, 6.020558e+002
1.156555e+003, 6.074747e+002
1.157037e+003, 6.159240e+002
1.157519e+003, 6.184257e+002
1.158001e+003, 6.151788e+002
1.158483e+003, 6.117312e+002
1.158966e+003, 6.077120e+002
1.159448e+003, 6.053820e+002
1.159930e+003, 6.043258e+002
1.160412e+003, 6.057982e+002
1.160894e+003, 6.126326e+002
1.161376e+003, 6.192167e+002
1.161858e+003, 6.199506e+002
1.162340e+003, 6.183846e+002
1.162822e+003, 6.231346e+002
1.163305e+003, 6.353828e+002
1.163787e+003, 6.408881e+002
1.164269e+003, 6.367993e+002
1.164751e+003, 6.342663e+002
1.165233e+003, 6.350484e+002
1.165715e+003, 6.366992e+002
1.166197e+003, 6.383884e+002
1.166679e+003, 6.396624e+002
1.167161e+003, 6.400994e+002
1.167644e+003, 6.395613e+002
1.168126e+003, 6.363515e+002
1.168608e+003, 6.301923e+002
1.169090e+003, 6.314379e+002
1.169572e+003, 6.407953e+002
1.170054e+003, 6.464480e+002
1.170536e+003, 6.450838e+002
1.171018e+003, 6.432700e+002
1.171500e+003, 6.455348e+002
1.171983e+003, 6.498259e+002
1.172465e+003, 6.536122e+002
1.172947e+003, 6.564507e+002
1.173429e+003, 6.560380e+002
1.173911e+003, 6.533923e+002
1.174393e+003, 6.531736e+002
1.174875e+003, 6.550540e+002
1.175357e+003, 6.529222e+002
1.175840e+003, 6.450486e+002
1.176322e+003, 6.404297e+002
1.176804e+003, 6.480812e+002
1.177286e+003, 6.589420e+002
1.177768e+003, 6.624928e+002
1.178250e+003, 6.615252e+002
1.178732e+003, 6.574128e+002
1.179214e+003, 6.531534e+002
1.179697e+003, 6.555630e+002
1.180179e+003, 6.635157e+002
1.180661e+003, 6.676520e+002
1.181143e+003, 6.636565e+002
1.181625e+003, 6.592791e+002
1.182107e+003, 6.585551e+002
1.182589e+003, 6.598126e+002
1.183071e+003, 6.626205e+002
1.183553e+003, 6.663080e+002
1.184036e+003, 6.704802e+002
1.184518e+003, 6.749743e+002
1.185000e+003, 6.797745e+002
1.185482e+003, 6.848364e+002
1.185964e+003, 6.895643e+002
1.186446e+003, 6.950243e+002
1.186928e+003, 6.982375e+002
1.187410e+003, 6.969542e+002
1.187892e+003, 6.955295e+002
1.188375e+003, 6.956642e+002
1.188857e+003, 6.965994e+002
1.189339e+003, 6.980087e+002
1.189821e+003, 6.995159e+002
1.190303e+003, 6.996644e+002
1.190785e+003, 6.977133e+002
1.191267e+003, 6.991495e+002
1.191749e+003, 7.061410e+002
1.192232e+003, 7.101566e+002
1.192714e+003, 7.088657e+002
1.193196e+003, 7.072219e+002
1.193678e+003, 7.074301e+002
1.194160e+003, 7.093644e+002
1.194642e+003, 7.133644e+002
1.195124e+003, 7.183654e+002
1.195606e+003, 7.192277e+002
1.196089e+003, 7.162289e+002
1.196571e+003, 7.174420e+002
1.197053e+003, 7.230561e+002
1.197535e+003, 7.299178e+002
1.198017e+003, 7.370292e+002
1.198499e+003, 7.419526e+002
1.198981e+003, 7.431229e+002
1.199463e+003, 7.420093e+002
1.199945e+003, 7.386826e+002
1.200427e+003, 7.358853e+002
1.200910e+003, 7.399745e+002
1.201392e+003, 7.485609e+002
1.201874e+003, 7.583441e+002
1.202356e+003, 7.673317e+002
1.202838e+003, 7.703784e+002
1.203320e+003, 7.671791e+002
1.203802e+003, 7.658973e+002
1.204284e+003, 7.723329e+002
1.204767e+003, 7.788667e+002
1.205249e+003, 7.783849e+002
1.205731e+003, 7.770343e+002
1.206213e+003, 7.784118e+002
1.206695e+003, 7.830375e+002
1.207177e+003, 7.937659e+002
1.207659e+003, 8.074308e+002
1.208141e+003, 8.157805e+002
1.208624e+003, 8.168608e+002
1.209106e+003, 8.184025e+002
1.209588e+003, 8.235819e+002
1.210070e+003, 8.273658e+002
1.210552e+003, 8.246124e+002
1.211034e+003, 8.251375e+002
1.211516e+003, 8.361442e+002
1.211998e+003, 8.508348e+002
1.212480e+003, 8.631971e+002
1.212963e+003, 8.734924e+002
1.213445e+003, 8.828300e+002
1.213927e+003, 8.919922e+002
1.214409e+003, 8.954574e+002
1.214891e+003, 8.911165e+002
1.215373e+003, 8.895563e+002
1.215855e+003, 8.930610e+002
1.216337e+003, 8.976503e+002
1.216819e+003, 9.008258e+002
1.217302e+003, 9.065826e+002
1.217784e+003, 9.212292e+002
1.218266e+003, 9.399601e+002
1.218748e+003, 9.464432e+002
1.219230e+003, 9.432968e+002
1.219712e+003, 9.418090e+002
1.220194e+003, 9.434536e+002
1.220676e+003, 9.533713e+002
1.221159e+003, 9.711768e+002
1.221641e+003, 9.866808e+002
1.222123e+003, 9.943456e+002
1.222605e+003, 1.000687e+003
1.223087e+003, 1.012777e+003
1.223569e+003, 1.026507e+003
1.224051e+003, 1.036306e+003
1.224533e+003, 1.045549e+003
1.225016e+003, 1.060315e+003
1.225498e+003, 1.077230e+003
1.225980e+003, 1.087680e+003
1.226462e+003, 1.091704e+003
1.226944e+003, 1.099423e+003
1.227426e+003, 1.115114e+003
1.227908e+003, 1.132168e+003
1.228390e+003, 1.151299e+003
1.228872e+003, 1.167304e+003
1.229354e+003, 1.172341e+003
1.229837e+003, 1.178960e+003
1.230319e+003, 1.201631e+003
1.230801e+003, 1.230238e+003
1.231283e+003, 1.244526e+003
1.231765e+003, 1.245243e+003
1.232247e+003, 1.256703e+003
1.232729e+003, 1.282424e+003
1.233211e+003, 1.308387e+003
1.233694e+003, 1.334465e+003
1.234176e+003, 1.359207e+003
1.234658e+003, 1.381701e+003
1.235140e+003, 1.404975e+003
1.235622e+003, 1.431144e+003
1.236104e+003, 1.460304e+003
1.236586e+003, 1.494183e+003
1.237068e+003, 1.530377e+003
1.237551e+003, 1.557296e+003
1.238033e+003, 1.577638e+003
1.238515e+003, 1.603885e+003
1.238997e+003, 1.636681e+003
1.239479e+003, 1.671576e+003
1.239961e+003, 1.707716e+003
1.240443e+003, 1.750518e+003
1.240925e+003, 1.804693e+003
1.241407e+003, 1.860092e+003
1.241890e+003, 1.904724e+003
1.242372e+003, 1.948252e+003
1.242854e+003, 1.999846e+003
1.243336e+003, 2.056927e+003
1.243818e+003, 2.116034e+003
1.244300e+003, 2.177891e+003
1.244782e+003, 2.244541e+003
1.245264e+003, 2.316532e+003
1.245746e+003, 2.391207e+003
1.246229e+003, 2.465394e+003
1.246711e+003, 2.546394e+003
1.247193e+003, 2.638392e+003
1.247675e+003, 2.733852e+003
1.248157e+003, 2.831558e+003
1.248639e+003, 2.929959e+003
1.249121e+003, 3.024960e+003
1.249603e+003, 3.123012e+003
1.250085e+003, 3.237989e+003
1.250568e+003, 3.368509e+003
1.251050e+003, 3.491992e+003
1.251532e+003, 3.606643e+003
1.252014e+003, 3.734032e+003
1.252496e+003, 3.876464e+003
1.252978e+003, 4.026062e+003
1.253460e+003, 4.180478e+003
1.253942e+003, 4.335444e+003
1.254425e+003, 4.487101e+003
1.254907e+003, 4.637903e+003
1.255389e+003, 4.787646e+003
1.255871e+003, 4.938792e+003
1.256353e+003, 5.096159e+003
1.256835e+003, 5.256891e+003
1.257317e+003, 5.415470e+003
1.257799e+003, 5.569506e+003
1.258281e+003, 5.717192e+003
1.258764e+003, 5.857255e+003
1.259246e+003, 5.989781e+003
1.259728e+003, 6.114901e+003
1.260210e+003, 6.230292e+003
1.260692e+003, 6.334956e+003
1.261174e+003, 6.429422e+003
1.261656e+003, 6.514515e+003
1.262138e+003, 6.589502e+003
1.262620e+003, 6.655404e+003
1.263103e+003, 6.709959e+003
1.263585e+003, 6.750923e+003
1.264067e+003, 6.778051e+003
1.264549e+003, 6.785844e+003
1.265031e+003, 6.772698e+003
1.265513e+003, 6.744857e+003
1.265995e+003, 6.701301e+003
1.266477e+003, 6.648323e+003
1.266960e+003, 6.587608e+003
1.267442e+003, 6.514086e+003
1.267924e+003, 6.424552e+003
1.268406e+003, 6.324088e+003
1.268888e+003, 6.216819e+003
1.269370e+003, 6.104147e+003
1.269852e+003, 5.992505e+003
1.270334e+003, 5.876001e+003
1.270817e+003, 5.733032e+003
1.271299e+003, 5.572585e+003
1.271781e+003, 5.421743e+003
1.272263e+003, 5.282091e+003
1.272745e+003, 5.136700e+003
1.273227e+003, 4.979282e+003
1.273709e+003, 4.825427e+003
1.274191e+003, 4.687104e+003
1.274673e+003, 4.550037e+003
1.275156e+003, 4.397321e+003
1.275638e+003, 4.252651e+003
1.276120e+003, 4.135869e+003
1.276602e+003, 4.031244e+003
1.277084e+003, 3.922748e+003
1.277566e+003, 3.809718e+003
1.278048e+003, 3.694748e+003
1.278530e+003, 3.576496e+003
1.279012e+003, 3.468798e+003
1.279495e+003, 3.373189e+003
1.279977e+003, 3.282221e+003
1.280459e+003, 3.195129e+003
1.280941e+003, 3.116089e+003
1.281423e+003, 3.047361e+003
1.281905e+003, 2.978854e+003
1.282387e+003, 2.901536e+003
1.282869e+003, 2.821626e+003
1.283352e+003, 2.747766e+003
1.283834e+003, 2.680246e+003
1.284316e+003, 2.619789e+003
1.284798e+003, 2.566481e+003
##END=



