##NAMES=Sartorite
##RRUFFID=R130104
##IDEAL CHEMISTRY=Pb^2+^As^3+^_2_S^2-^_4_
##LOCALITY=Lengenbach Quarry, Im Feld, Binn Valley, Wallis, Switzerland
##OWNER=RRUFF
##SOURCE=Donald Doell (Small piece), Rock Currier (Large piece)
##DESCRIPTION=Prismatic dark lead-grey crystals, associated with pyrite, dolomite, and quartz.
##STATUS=The identification of this mineral has been confirmed by single-crystal X-ray diffraction.
##URL=rruff.info/R130104
8.975323e+001, 0.000000e+000
9.023535e+001, 2.054202e+003
9.071747e+001, 1.991739e+003
9.119958e+001, 1.961602e+003
9.168170e+001, 2.026883e+003
9.216382e+001, 2.098240e+003
9.264594e+001, 2.152104e+003
9.312805e+001, 2.190302e+003
9.361017e+001, 2.221731e+003
9.409229e+001, 2.248248e+003
9.457440e+001, 2.269831e+003
9.505651e+001, 2.286076e+003
9.553863e+001, 2.298541e+003
9.602074e+001, 2.308277e+003
9.650286e+001, 2.316096e+003
9.698498e+001, 2.320909e+003
9.746709e+001, 2.318711e+003
9.794921e+001, 2.315822e+003
9.843133e+001, 2.312133e+003
9.891344e+001, 2.308938e+003
9.939556e+001, 2.306493e+003
9.987768e+001, 2.304231e+003
1.003598e+002, 2.301059e+003
1.008419e+002, 2.295777e+003
1.013240e+002, 2.289000e+003
1.018061e+002, 2.283616e+003
1.022883e+002, 2.281272e+003
1.027704e+002, 2.278900e+003
1.032525e+002, 2.273073e+003
1.037346e+002, 2.263008e+003
1.042167e+002, 2.252852e+003
1.046988e+002, 2.245187e+003
1.051810e+002, 2.238691e+003
1.056631e+002, 2.231570e+003
1.061452e+002, 2.222421e+003
1.066273e+002, 2.211832e+003
1.071094e+002, 2.202304e+003
1.075915e+002, 2.194016e+003
1.080737e+002, 2.186565e+003
1.085558e+002, 2.180483e+003
1.090379e+002, 2.175099e+003
1.095200e+002, 2.168980e+003
1.100021e+002, 2.160447e+003
1.104842e+002, 2.148774e+003
1.109664e+002, 2.138665e+003
1.114485e+002, 2.131511e+003
1.119306e+002, 2.124642e+003
1.124127e+002, 2.116654e+003
1.128948e+002, 2.107459e+003
1.133769e+002, 2.097888e+003
1.138591e+002, 2.089145e+003
1.143412e+002, 2.080675e+003
1.148233e+002, 2.074296e+003
1.153054e+002, 2.071545e+003
1.157875e+002, 2.070023e+003
1.162696e+002, 2.067006e+003
1.167517e+002, 2.061400e+003
1.172339e+002, 2.054849e+003
1.177160e+002, 2.051610e+003
1.181981e+002, 2.052805e+003
1.186802e+002, 2.053956e+003
1.191623e+002, 2.053679e+003
1.196444e+002, 2.052328e+003
1.201266e+002, 2.051034e+003
1.206087e+002, 2.050738e+003
1.210908e+002, 2.050288e+003
1.215729e+002, 2.047697e+003
1.220550e+002, 2.042256e+003
1.225371e+002, 2.035869e+003
1.230193e+002, 2.030411e+003
1.235014e+002, 2.026061e+003
1.239835e+002, 2.020968e+003
1.244656e+002, 2.013776e+003
1.249477e+002, 2.005566e+003
1.254298e+002, 1.996975e+003
1.259120e+002, 1.988032e+003
1.263941e+002, 1.979192e+003
1.268762e+002, 1.971779e+003
1.273583e+002, 1.966981e+003
1.278404e+002, 1.961628e+003
1.283225e+002, 1.954285e+003
1.288047e+002, 1.945987e+003
1.292868e+002, 1.938193e+003
1.297689e+002, 1.931920e+003
1.302510e+002, 1.927026e+003
1.307331e+002, 1.921408e+003
1.312152e+002, 1.913951e+003
1.316974e+002, 1.906766e+003
1.321795e+002, 1.900214e+003
1.326616e+002, 1.894357e+003
1.331437e+002, 1.889221e+003
1.336258e+002, 1.884837e+003
1.341079e+002, 1.881279e+003
1.345901e+002, 1.878038e+003
1.350722e+002, 1.875594e+003
1.355543e+002, 1.873028e+003
1.360364e+002, 1.869738e+003
1.365185e+002, 1.865710e+003
1.370006e+002, 1.861438e+003
1.374828e+002, 1.857581e+003
1.379649e+002, 1.854278e+003
1.384470e+002, 1.850514e+003
1.389291e+002, 1.845106e+003
1.394112e+002, 1.839642e+003
1.398933e+002, 1.836479e+003
1.403755e+002, 1.836582e+003
1.408576e+002, 1.837283e+003
1.413397e+002, 1.834719e+003
1.418218e+002, 1.829217e+003
1.423039e+002, 1.823913e+003
1.427860e+002, 1.820349e+003
1.432681e+002, 1.818073e+003
1.437503e+002, 1.815362e+003
1.442324e+002, 1.811479e+003
1.447145e+002, 1.807470e+003
1.451966e+002, 1.804288e+003
1.456787e+002, 1.801943e+003
1.461608e+002, 1.799783e+003
1.466430e+002, 1.797575e+003
1.471251e+002, 1.795420e+003
1.476072e+002, 1.792128e+003
1.480893e+002, 1.786200e+003
1.485714e+002, 1.779768e+003
1.490535e+002, 1.773864e+003
1.495357e+002, 1.768745e+003
1.500178e+002, 1.764058e+003
1.504999e+002, 1.759260e+003
1.509820e+002, 1.753883e+003
1.514641e+002, 1.749420e+003
1.519462e+002, 1.746024e+003
1.524284e+002, 1.743358e+003
1.529105e+002, 1.740993e+003
1.533926e+002, 1.738807e+003
1.538747e+002, 1.737172e+003
1.543568e+002, 1.737057e+003
1.548389e+002, 1.739513e+003
1.553211e+002, 1.742462e+003
1.558032e+002, 1.745137e+003
1.562853e+002, 1.748417e+003
1.567674e+002, 1.753538e+003
1.572495e+002, 1.761185e+003
1.577316e+002, 1.770774e+003
1.582138e+002, 1.779883e+003
1.586959e+002, 1.788149e+003
1.591780e+002, 1.796422e+003
1.596601e+002, 1.804815e+003
1.601422e+002, 1.813337e+003
1.606243e+002, 1.821999e+003
1.611065e+002, 1.830735e+003
1.615886e+002, 1.839634e+003
1.620707e+002, 1.848820e+003
1.625528e+002, 1.859619e+003
1.630349e+002, 1.869448e+003
1.635170e+002, 1.876167e+003
1.639991e+002, 1.880069e+003
1.644813e+002, 1.883871e+003
1.649634e+002, 1.889306e+003
1.654455e+002, 1.895816e+003
1.659276e+002, 1.902104e+003
1.664097e+002, 1.908850e+003
1.668918e+002, 1.914709e+003
1.673740e+002, 1.917552e+003
1.678561e+002, 1.916724e+003
1.683382e+002, 1.915958e+003
1.688203e+002, 1.917858e+003
1.693024e+002, 1.921016e+003
1.697845e+002, 1.923813e+003
1.702667e+002, 1.925571e+003
1.707488e+002, 1.926631e+003
1.712309e+002, 1.927878e+003
1.717130e+002, 1.929815e+003
1.721951e+002, 1.930932e+003
1.726772e+002, 1.930406e+003
1.731594e+002, 1.928910e+003
1.736415e+002, 1.927460e+003
1.741236e+002, 1.926845e+003
1.746057e+002, 1.926756e+003
1.750878e+002, 1.925243e+003
1.755699e+002, 1.921188e+003
1.760521e+002, 1.916822e+003
1.765342e+002, 1.913495e+003
1.770163e+002, 1.910284e+003
1.774984e+002, 1.905528e+003
1.779805e+002, 1.897848e+003
1.784626e+002, 1.887201e+003
1.789448e+002, 1.876786e+003
1.794269e+002, 1.866417e+003
1.799090e+002, 1.856434e+003
1.803911e+002, 1.847629e+003
1.808732e+002, 1.839413e+003
1.813553e+002, 1.830476e+003
1.818375e+002, 1.819601e+003
1.823196e+002, 1.806539e+003
1.828017e+002, 1.793821e+003
1.832838e+002, 1.781709e+003
1.837659e+002, 1.769605e+003
1.842480e+002, 1.757389e+003
1.847301e+002, 1.744989e+003
1.852123e+002, 1.732227e+003
1.856944e+002, 1.718970e+003
1.861765e+002, 1.705131e+003
1.866586e+002, 1.691313e+003
1.871407e+002, 1.677030e+003
1.876228e+002, 1.663213e+003
1.881050e+002, 1.650395e+003
1.885871e+002, 1.638711e+003
1.890692e+002, 1.628247e+003
1.895513e+002, 1.619557e+003
1.900334e+002, 1.612625e+003
1.905155e+002, 1.605160e+003
1.909977e+002, 1.595922e+003
1.914798e+002, 1.586543e+003
1.919619e+002, 1.578991e+003
1.924440e+002, 1.573667e+003
1.929261e+002, 1.569188e+003
1.934082e+002, 1.564232e+003
1.938904e+002, 1.559014e+003
1.943725e+002, 1.554372e+003
1.948546e+002, 1.550911e+003
1.953367e+002, 1.548129e+003
1.958188e+002, 1.544960e+003
1.963009e+002, 1.541116e+003
1.967831e+002, 1.537342e+003
1.972652e+002, 1.534238e+003
1.977473e+002, 1.531612e+003
1.982294e+002, 1.529087e+003
1.987115e+002, 1.526473e+003
1.991936e+002, 1.523786e+003
1.996758e+002, 1.521142e+003
2.001579e+002, 1.518615e+003
2.006400e+002, 1.516003e+003
2.011221e+002, 1.512904e+003
2.016042e+002, 1.509606e+003
2.020863e+002, 1.506881e+003
2.025685e+002, 1.505672e+003
2.030506e+002, 1.505832e+003
2.035327e+002, 1.504811e+003
2.040148e+002, 1.501474e+003
2.044969e+002, 1.498042e+003
2.049790e+002, 1.495599e+003
2.054612e+002, 1.493797e+003
2.059433e+002, 1.491700e+003
2.064254e+002, 1.488608e+003
2.069075e+002, 1.484502e+003
2.073896e+002, 1.479690e+003
2.078717e+002, 1.472980e+003
2.083539e+002, 1.466610e+003
2.088360e+002, 1.461546e+003
2.093181e+002, 1.457511e+003
2.098002e+002, 1.453665e+003
2.102823e+002, 1.449358e+003
2.107644e+002, 1.444680e+003
2.112466e+002, 1.438942e+003
2.117287e+002, 1.430514e+003
2.122108e+002, 1.422663e+003
2.126929e+002, 1.416737e+003
2.131750e+002, 1.412613e+003
2.136571e+002, 1.409302e+003
2.141393e+002, 1.405862e+003
2.146214e+002, 1.402087e+003
2.151035e+002, 1.399837e+003
2.155856e+002, 1.398839e+003
2.160677e+002, 1.399188e+003
2.165498e+002, 1.400780e+003
2.170320e+002, 1.403699e+003
2.175141e+002, 1.408365e+003
2.179962e+002, 1.415341e+003
2.184783e+002, 1.424969e+003
2.189604e+002, 1.434297e+003
2.194425e+002, 1.442448e+003
2.199247e+002, 1.451063e+003
2.204068e+002, 1.461428e+003
2.208889e+002, 1.473445e+003
2.213710e+002, 1.485835e+003
2.218531e+002, 1.497533e+003
2.223352e+002, 1.508466e+003
2.228174e+002, 1.519582e+003
2.232995e+002, 1.531439e+003
2.237816e+002, 1.543086e+003
2.242637e+002, 1.553962e+003
2.247458e+002, 1.564020e+003
2.252279e+002, 1.573061e+003
2.257100e+002, 1.581025e+003
2.261922e+002, 1.587686e+003
2.266743e+002, 1.592737e+003
2.271564e+002, 1.596214e+003
2.276385e+002, 1.598013e+003
2.281206e+002, 1.597679e+003
2.286027e+002, 1.595165e+003
2.290849e+002, 1.591647e+003
2.295670e+002, 1.587873e+003
2.300491e+002, 1.583715e+003
2.305312e+002, 1.578789e+003
2.310133e+002, 1.573464e+003
2.314954e+002, 1.567116e+003
2.319776e+002, 1.558651e+003
2.324597e+002, 1.547819e+003
2.329418e+002, 1.536674e+003
2.334239e+002, 1.527005e+003
2.339060e+002, 1.517715e+003
2.343881e+002, 1.506890e+003
2.348703e+002, 1.492870e+003
2.353524e+002, 1.478102e+003
2.358345e+002, 1.466253e+003
2.363166e+002, 1.458007e+003
2.367987e+002, 1.449550e+003
2.372808e+002, 1.438668e+003
2.377630e+002, 1.426501e+003
2.382451e+002, 1.413804e+003
2.387272e+002, 1.400155e+003
2.392093e+002, 1.387017e+003
2.396914e+002, 1.377040e+003
2.401735e+002, 1.370882e+003
2.406557e+002, 1.365718e+003
2.411378e+002, 1.360570e+003
2.416199e+002, 1.355776e+003
2.421020e+002, 1.351537e+003
2.425841e+002, 1.347786e+003
2.430662e+002, 1.345102e+003
2.435484e+002, 1.344750e+003
2.440305e+002, 1.347511e+003
2.445126e+002, 1.350541e+003
2.449947e+002, 1.352529e+003
2.454768e+002, 1.354673e+003
2.459589e+002, 1.358224e+003
2.464410e+002, 1.363668e+003
2.469232e+002, 1.369959e+003
2.474053e+002, 1.375300e+003
2.478874e+002, 1.379105e+003
2.483695e+002, 1.383323e+003
2.488516e+002, 1.388268e+003
2.493337e+002, 1.393686e+003
2.498159e+002, 1.399551e+003
2.502980e+002, 1.405840e+003
2.507801e+002, 1.412185e+003
2.512622e+002, 1.417924e+003
2.517443e+002, 1.422464e+003
2.522264e+002, 1.427697e+003
2.527086e+002, 1.434559e+003
2.531907e+002, 1.441559e+003
2.536728e+002, 1.447367e+003
2.541549e+002, 1.451756e+003
2.546370e+002, 1.455915e+003
2.551191e+002, 1.461925e+003
2.556013e+002, 1.471323e+003
2.560834e+002, 1.479193e+003
2.565655e+002, 1.485207e+003
2.570476e+002, 1.490170e+003
2.575297e+002, 1.494250e+003
2.580118e+002, 1.497655e+003
2.584940e+002, 1.500996e+003
2.589761e+002, 1.505146e+003
2.594582e+002, 1.510546e+003
2.599403e+002, 1.515669e+003
2.604224e+002, 1.520590e+003
2.609045e+002, 1.525293e+003
2.613867e+002, 1.529514e+003
2.618688e+002, 1.533380e+003
2.623509e+002, 1.537422e+003
2.628330e+002, 1.542332e+003
2.633151e+002, 1.548438e+003
2.637972e+002, 1.554248e+003
2.642794e+002, 1.558986e+003
2.647615e+002, 1.564103e+003
2.652436e+002, 1.570129e+003
2.657257e+002, 1.577207e+003
2.662078e+002, 1.585477e+003
2.666899e+002, 1.595173e+003
2.671721e+002, 1.606484e+003
2.676542e+002, 1.617988e+003
2.681363e+002, 1.630395e+003
2.686184e+002, 1.642321e+003
2.691005e+002, 1.652271e+003
2.695826e+002, 1.660846e+003
2.700648e+002, 1.670313e+003
2.705469e+002, 1.682816e+003
2.710290e+002, 1.698451e+003
2.715111e+002, 1.711754e+003
2.719932e+002, 1.720580e+003
2.724753e+002, 1.729675e+003
2.729575e+002, 1.741184e+003
2.734396e+002, 1.754641e+003
2.739217e+002, 1.768456e+003
2.744038e+002, 1.781640e+003
2.748859e+002, 1.794228e+003
2.753680e+002, 1.806287e+003
2.758501e+002, 1.817961e+003
2.763322e+002, 1.829144e+003
2.768144e+002, 1.839659e+003
2.772965e+002, 1.849705e+003
2.777786e+002, 1.859784e+003
2.782607e+002, 1.870301e+003
2.787428e+002, 1.880868e+003
2.792249e+002, 1.889758e+003
2.797071e+002, 1.895708e+003
2.801892e+002, 1.901867e+003
2.806713e+002, 1.909951e+003
2.811534e+002, 1.918671e+003
2.816355e+002, 1.925666e+003
2.821176e+002, 1.929849e+003
2.825998e+002, 1.931987e+003
2.830819e+002, 1.933714e+003
2.835640e+002, 1.934344e+003
2.840461e+002, 1.935900e+003
2.845282e+002, 1.939850e+003
2.850103e+002, 1.944709e+003
2.854925e+002, 1.948153e+003
2.859746e+002, 1.949339e+003
2.864567e+002, 1.949450e+003
2.869388e+002, 1.950463e+003
2.874209e+002, 1.952574e+003
2.879030e+002, 1.954798e+003
2.883852e+002, 1.956795e+003
2.888673e+002, 1.958894e+003
2.893494e+002, 1.961529e+003
2.898315e+002, 1.964802e+003
2.903136e+002, 1.968397e+003
2.907957e+002, 1.972040e+003
2.912779e+002, 1.975736e+003
2.917600e+002, 1.979259e+003
2.922421e+002, 1.982446e+003
2.927242e+002, 1.985520e+003
2.932063e+002, 1.988448e+003
2.936884e+002, 1.991256e+003
2.941706e+002, 1.994706e+003
2.946527e+002, 1.999939e+003
2.951348e+002, 2.006938e+003
2.956169e+002, 2.012324e+003
2.960990e+002, 2.015624e+003
2.965811e+002, 2.017533e+003
2.970633e+002, 2.018498e+003
2.975454e+002, 2.018552e+003
2.980275e+002, 2.017686e+003
2.985096e+002, 2.015881e+003
2.989917e+002, 2.013031e+003
2.994738e+002, 2.009313e+003
2.999560e+002, 2.005816e+003
3.004381e+002, 2.000547e+003
3.009202e+002, 1.991597e+003
3.014023e+002, 1.979553e+003
3.018844e+002, 1.967073e+003
3.023665e+002, 1.955646e+003
3.028487e+002, 1.944513e+003
3.033308e+002, 1.931453e+003
3.038129e+002, 1.915777e+003
3.042950e+002, 1.899458e+003
3.047771e+002, 1.882723e+003
3.052592e+002, 1.865955e+003
3.057414e+002, 1.850439e+003
3.062235e+002, 1.837111e+003
3.067056e+002, 1.824449e+003
3.071877e+002, 1.809333e+003
3.076698e+002, 1.791223e+003
3.081519e+002, 1.773468e+003
3.086341e+002, 1.756859e+003
3.091162e+002, 1.741389e+003
3.095983e+002, 1.727308e+003
3.100804e+002, 1.714798e+003
3.105625e+002, 1.703427e+003
3.110446e+002, 1.693001e+003
3.115268e+002, 1.683470e+003
3.120089e+002, 1.674215e+003
3.124910e+002, 1.665385e+003
3.129731e+002, 1.656651e+003
3.134552e+002, 1.647475e+003
3.139373e+002, 1.637788e+003
3.144195e+002, 1.628081e+003
3.149016e+002, 1.619089e+003
3.153837e+002, 1.610626e+003
3.158658e+002, 1.600761e+003
3.163479e+002, 1.588300e+003
3.168300e+002, 1.575108e+003
3.173121e+002, 1.562744e+003
3.177943e+002, 1.551170e+003
3.182764e+002, 1.539588e+003
3.187585e+002, 1.527329e+003
3.192406e+002, 1.514667e+003
3.197227e+002, 1.502643e+003
3.202048e+002, 1.492538e+003
3.206870e+002, 1.481747e+003
3.211691e+002, 1.468197e+003
3.216512e+002, 1.452638e+003
3.221333e+002, 1.437373e+003
3.226154e+002, 1.423428e+003
3.230975e+002, 1.410636e+003
3.235797e+002, 1.398801e+003
3.240618e+002, 1.387610e+003
3.245439e+002, 1.377652e+003
3.250260e+002, 1.369193e+003
3.255081e+002, 1.362075e+003
3.259902e+002, 1.356032e+003
3.264724e+002, 1.351053e+003
3.269545e+002, 1.346831e+003
3.274366e+002, 1.342730e+003
3.279187e+002, 1.338429e+003
3.284008e+002, 1.335741e+003
3.288829e+002, 1.336445e+003
3.293651e+002, 1.338281e+003
3.298472e+002, 1.338380e+003
3.303293e+002, 1.336241e+003
3.308114e+002, 1.333795e+003
3.312935e+002, 1.332966e+003
3.317756e+002, 1.333913e+003
3.322578e+002, 1.334811e+003
3.327399e+002, 1.336584e+003
3.332220e+002, 1.337535e+003
3.337041e+002, 1.336412e+003
3.341862e+002, 1.333231e+003
3.346683e+002, 1.328812e+003
3.351505e+002, 1.324075e+003
3.356326e+002, 1.318469e+003
3.361147e+002, 1.309154e+003
3.365968e+002, 1.295304e+003
3.370789e+002, 1.279072e+003
3.375610e+002, 1.260443e+003
3.380432e+002, 1.240054e+003
3.385253e+002, 1.219275e+003
3.390074e+002, 1.198543e+003
3.394895e+002, 1.178301e+003
3.399716e+002, 1.159831e+003
3.404537e+002, 1.141953e+003
3.409359e+002, 1.127543e+003
3.414180e+002, 1.116980e+003
3.419001e+002, 1.110230e+003
3.423822e+002, 1.107334e+003
3.428643e+002, 1.108302e+003
3.433464e+002, 1.113107e+003
3.438286e+002, 1.121675e+003
3.443107e+002, 1.134341e+003
3.447928e+002, 1.151507e+003
3.452749e+002, 1.173530e+003
3.457570e+002, 1.199695e+003
3.462391e+002, 1.229802e+003
3.467213e+002, 1.263495e+003
3.472034e+002, 1.300642e+003
3.476855e+002, 1.340881e+003
3.481676e+002, 1.384505e+003
3.486497e+002, 1.429744e+003
3.491318e+002, 1.477148e+003
3.496140e+002, 1.525290e+003
3.500961e+002, 1.574293e+003
3.505782e+002, 1.623203e+003
3.510603e+002, 1.670539e+003
3.515424e+002, 1.715268e+003
3.520245e+002, 1.757463e+003
3.525067e+002, 1.797778e+003
3.529888e+002, 1.836556e+003
3.534709e+002, 1.872950e+003
3.539530e+002, 1.906542e+003
3.544351e+002, 1.937741e+003
3.549172e+002, 1.967301e+003
3.553994e+002, 1.995410e+003
3.558815e+002, 2.021502e+003
3.563636e+002, 2.044643e+003
3.568457e+002, 2.062596e+003
3.573278e+002, 2.082009e+003
3.578099e+002, 2.102925e+003
3.582920e+002, 2.125114e+003
3.587741e+002, 2.149215e+003
3.592563e+002, 2.174800e+003
3.597384e+002, 2.199940e+003
3.602205e+002, 2.223295e+003
3.607026e+002, 2.245235e+003
3.611847e+002, 2.261474e+003
3.616668e+002, 2.271696e+003
3.621490e+002, 2.277011e+003
3.626311e+002, 2.277538e+003
3.631132e+002, 2.273392e+003
3.635953e+002, 2.264542e+003
3.640774e+002, 2.250903e+003
3.645595e+002, 2.232776e+003
3.650417e+002, 2.211382e+003
3.655238e+002, 2.185901e+003
3.660059e+002, 2.157827e+003
3.664880e+002, 2.126353e+003
3.669701e+002, 2.093154e+003
3.674522e+002, 2.059868e+003
3.679344e+002, 2.027133e+003
3.684165e+002, 1.994077e+003
3.688986e+002, 1.958944e+003
3.693807e+002, 1.920672e+003
3.698628e+002, 1.883381e+003
3.703449e+002, 1.847564e+003
3.708271e+002, 1.812317e+003
3.713092e+002, 1.776517e+003
3.717913e+002, 1.740565e+003
3.722734e+002, 1.705343e+003
3.727555e+002, 1.672012e+003
3.732376e+002, 1.640576e+003
3.737198e+002, 1.608891e+003
3.742019e+002, 1.577560e+003
3.746840e+002, 1.545047e+003
3.751661e+002, 1.511728e+003
3.756482e+002, 1.476776e+003
3.761303e+002, 1.439355e+003
3.766125e+002, 1.398870e+003
3.770946e+002, 1.355511e+003
3.775767e+002, 1.309329e+003
3.780588e+002, 1.259842e+003
3.785409e+002, 1.208815e+003
3.790230e+002, 1.155786e+003
3.795052e+002, 1.101940e+003
3.799873e+002, 1.047820e+003
3.804694e+002, 9.935525e+002
3.809515e+002, 9.396977e+002
3.814336e+002, 8.869471e+002
3.819157e+002, 8.352004e+002
3.823979e+002, 7.846653e+002
3.828800e+002, 7.344811e+002
3.833621e+002, 6.868480e+002
3.838442e+002, 6.423881e+002
3.843263e+002, 6.012783e+002
3.848084e+002, 5.628721e+002
3.852906e+002, 5.270739e+002
3.857727e+002, 4.941038e+002
3.862548e+002, 4.644566e+002
3.867369e+002, 4.385525e+002
3.872190e+002, 4.148021e+002
3.877011e+002, 3.926101e+002
3.881833e+002, 3.719225e+002
3.886654e+002, 3.528283e+002
3.891475e+002, 3.353708e+002
3.896296e+002, 3.194715e+002
3.901117e+002, 3.052953e+002
3.905938e+002, 2.927029e+002
3.910760e+002, 2.810814e+002
3.915581e+002, 2.703241e+002
3.920402e+002, 2.603936e+002
3.925223e+002, 2.511602e+002
3.930044e+002, 2.425967e+002
3.934865e+002, 2.346182e+002
3.939687e+002, 2.273106e+002
3.944508e+002, 2.205470e+002
3.949329e+002, 2.141965e+002
3.954150e+002, 2.081800e+002
3.958971e+002, 2.026458e+002
3.963792e+002, 1.977589e+002
3.968614e+002, 1.935158e+002
3.973435e+002, 1.894492e+002
3.978256e+002, 1.855073e+002
3.983077e+002, 1.817187e+002
3.987898e+002, 1.781272e+002
3.992719e+002, 1.747037e+002
3.997540e+002, 1.713339e+002
4.002361e+002, 1.679478e+002
4.007183e+002, 1.646017e+002
4.012004e+002, 1.615266e+002
4.016825e+002, 1.587986e+002
4.021646e+002, 1.561497e+002
4.026467e+002, 1.534522e+002
4.031288e+002, 1.508453e+002
4.036110e+002, 1.485336e+002
4.040931e+002, 1.465633e+002
4.045752e+002, 1.447748e+002
4.050573e+002, 1.430038e+002
4.055394e+002, 1.412829e+002
4.060215e+002, 1.394601e+002
4.065037e+002, 1.374263e+002
4.069858e+002, 1.354168e+002
4.074679e+002, 1.334580e+002
4.079500e+002, 1.316102e+002
4.084321e+002, 1.300125e+002
4.089142e+002, 1.287597e+002
4.093964e+002, 1.277590e+002
4.098785e+002, 1.265571e+002
4.103606e+002, 1.249745e+002
4.108427e+002, 1.234117e+002
4.113248e+002, 1.218168e+002
4.118069e+002, 1.203001e+002
4.122891e+002, 1.189815e+002
4.127712e+002, 1.178825e+002
4.132533e+002, 1.169043e+002
4.137354e+002, 1.159407e+002
4.142175e+002, 1.150135e+002
4.146996e+002, 1.139925e+002
4.151818e+002, 1.128002e+002
4.156639e+002, 1.115886e+002
4.161460e+002, 1.103129e+002
4.166281e+002, 1.090587e+002
4.171102e+002, 1.080338e+002
4.175923e+002, 1.074011e+002
4.180745e+002, 1.070549e+002
4.185566e+002, 1.066417e+002
4.190387e+002, 1.061945e+002
4.195208e+002, 1.056055e+002
4.200029e+002, 1.047578e+002
4.204850e+002, 1.038128e+002
4.209672e+002, 1.029230e+002
4.214493e+002, 1.021273e+002
4.219314e+002, 1.013431e+002
4.224135e+002, 1.004593e+002
4.228956e+002, 9.948602e+001
4.233777e+002, 9.860324e+001
4.238599e+002, 9.788065e+001
4.243420e+002, 9.719959e+001
4.248241e+002, 9.643587e+001
4.253062e+002, 9.562407e+001
4.257883e+002, 9.488649e+001
4.262704e+002, 9.439907e+001
4.267526e+002, 9.395798e+001
4.272347e+002, 9.317528e+001
4.277168e+002, 9.201698e+001
4.281989e+002, 9.101602e+001
4.286810e+002, 9.051355e+001
4.291631e+002, 9.033635e+001
4.296453e+002, 9.006802e+001
4.301274e+002, 8.970190e+001
4.306095e+002, 8.925596e+001
4.310916e+002, 8.869945e+001
4.315737e+002, 8.807690e+001
4.320558e+002, 8.745962e+001
4.325380e+002, 8.686244e+001
4.330201e+002, 8.631181e+001
4.335022e+002, 8.585020e+001
4.339843e+002, 8.549165e+001
4.344664e+002, 8.512389e+001
4.349485e+002, 8.469402e+001
4.354307e+002, 8.429476e+001
4.359128e+002, 8.407230e+001
4.363949e+002, 8.395220e+001
4.368770e+002, 8.367264e+001
4.373591e+002, 8.306404e+001
4.378412e+002, 8.221822e+001
4.383234e+002, 8.149475e+001
4.388055e+002, 8.103239e+001
4.392876e+002, 8.051505e+001
4.397697e+002, 7.975039e+001
4.402518e+002, 7.902137e+001
4.407339e+002, 7.868755e+001
4.412160e+002, 7.877477e+001
4.416982e+002, 7.891765e+001
4.421803e+002, 7.866747e+001
4.426624e+002, 7.793498e+001
4.431445e+002, 7.746078e+001
4.436266e+002, 7.763148e+001
4.441087e+002, 7.766268e+001
4.445909e+002, 7.721265e+001
4.450730e+002, 7.648090e+001
4.455551e+002, 7.579906e+001
4.460372e+002, 7.533998e+001
4.465193e+002, 7.502938e+001
4.470014e+002, 7.472962e+001
4.474836e+002, 7.448365e+001
4.479657e+002, 7.411956e+001
4.484478e+002, 7.334377e+001
4.489299e+002, 7.263004e+001
4.494120e+002, 7.237489e+001
4.498941e+002, 7.255050e+001
4.503763e+002, 7.270551e+001
4.508584e+002, 7.244985e+001
4.513405e+002, 7.187851e+001
4.518226e+002, 7.138148e+001
4.523047e+002, 7.094764e+001
4.527868e+002, 7.063893e+001
4.532690e+002, 7.060481e+001
4.537511e+002, 7.069266e+001
4.542332e+002, 7.067686e+001
4.547153e+002, 7.045660e+001
4.551974e+002, 7.022822e+001
4.556795e+002, 7.025742e+001
4.561617e+002, 7.044776e+001
4.566438e+002, 7.032059e+001
4.571259e+002, 6.963389e+001
4.576080e+002, 6.881229e+001
4.580901e+002, 6.847946e+001
4.585722e+002, 6.863161e+001
4.590544e+002, 6.862516e+001
4.595365e+002, 6.813577e+001
4.600186e+002, 6.759470e+001
4.605007e+002, 6.748201e+001
4.609828e+002, 6.772648e+001
4.614649e+002, 6.782146e+001
4.619471e+002, 6.744101e+001
4.624292e+002, 6.668857e+001
4.629113e+002, 6.597799e+001
4.633934e+002, 6.515533e+001
4.638755e+002, 6.456977e+001
4.643576e+002, 6.446510e+001
4.648398e+002, 6.450047e+001
4.653219e+002, 6.426049e+001
4.658040e+002, 6.369935e+001
4.662861e+002, 6.317499e+001
4.667682e+002, 6.311927e+001
4.672503e+002, 6.360990e+001
4.677325e+002, 6.380847e+001
4.682146e+002, 6.348653e+001
4.686967e+002, 6.310883e+001
4.691788e+002, 6.280074e+001
4.696609e+002, 6.251267e+001
4.701430e+002, 6.211428e+001
4.706252e+002, 6.153847e+001
4.711073e+002, 6.097586e+001
4.715894e+002, 6.085478e+001
4.720715e+002, 6.134685e+001
4.725536e+002, 6.152489e+001
4.730357e+002, 6.099738e+001
4.735179e+002, 6.033057e+001
4.740000e+002, 5.984009e+001
4.744821e+002, 5.950374e+001
4.749642e+002, 5.913029e+001
4.754463e+002, 5.853466e+001
4.759284e+002, 5.785456e+001
4.764106e+002, 5.741774e+001
4.768927e+002, 5.726540e+001
4.773748e+002, 5.710203e+001
4.778569e+002, 5.672442e+001
4.783390e+002, 5.629399e+001
4.788211e+002, 5.607118e+001
4.793033e+002, 5.610885e+001
4.797854e+002, 5.619715e+001
4.802675e+002, 5.634711e+001
4.807496e+002, 5.644755e+001
4.812317e+002, 5.623624e+001
4.817138e+002, 5.565557e+001
4.821959e+002, 5.501634e+001
4.826780e+002, 5.457075e+001
4.831602e+002, 5.432814e+001
4.836423e+002, 5.418004e+001
4.841244e+002, 5.420880e+001
4.846065e+002, 5.423653e+001
4.850886e+002, 5.421168e+001
4.855707e+002, 5.413197e+001
4.860529e+002, 5.400842e+001
4.865350e+002, 5.384459e+001
4.870171e+002, 5.360920e+001
4.874992e+002, 5.323115e+001
4.879813e+002, 5.257696e+001
4.884634e+002, 5.214695e+001
4.889456e+002, 5.216800e+001
4.894277e+002, 5.215906e+001
4.899098e+002, 5.178024e+001
4.903919e+002, 5.118573e+001
4.908740e+002, 5.077721e+001
4.913561e+002, 5.082557e+001
4.918383e+002, 5.113835e+001
4.923204e+002, 5.117060e+001
4.928025e+002, 5.081477e+001
4.932846e+002, 5.047633e+001
4.937667e+002, 5.018440e+001
4.942488e+002, 4.998085e+001
4.947310e+002, 4.997966e+001
4.952131e+002, 5.014796e+001
4.956952e+002, 5.021713e+001
4.961773e+002, 4.994100e+001
4.966594e+002, 4.942976e+001
4.971415e+002, 4.894716e+001
4.976237e+002, 4.847272e+001
4.981058e+002, 4.815543e+001
4.985879e+002, 4.818476e+001
4.990700e+002, 4.838526e+001
4.995521e+002, 4.842385e+001
5.000342e+002, 4.826366e+001
5.005164e+002, 4.799141e+001
5.009985e+002, 4.750909e+001
5.014806e+002, 4.697930e+001
5.019627e+002, 4.672898e+001
5.024448e+002, 4.682856e+001
5.029269e+002, 4.701551e+001
5.034091e+002, 4.706001e+001
5.038912e+002, 4.695606e+001
5.043733e+002, 4.675963e+001
5.048554e+002, 4.636707e+001
5.053375e+002, 4.600898e+001
5.058196e+002, 4.571571e+001
5.063018e+002, 4.552456e+001
5.067839e+002, 4.555478e+001
5.072660e+002, 4.583453e+001
5.077481e+002, 4.613633e+001
5.082302e+002, 4.605955e+001
5.087123e+002, 4.540481e+001
5.091945e+002, 4.509380e+001
5.096766e+002, 4.546813e+001
5.101587e+002, 4.584623e+001
5.106408e+002, 4.602778e+001
5.111229e+002, 4.601542e+001
5.116050e+002, 4.582447e+001
5.120872e+002, 4.542717e+001
5.125693e+002, 4.497076e+001
5.130514e+002, 4.474017e+001
5.135335e+002, 4.476552e+001
5.140156e+002, 4.478045e+001
5.144977e+002, 4.473671e+001
5.149799e+002, 4.465342e+001
5.154620e+002, 4.457272e+001
5.159441e+002, 4.448235e+001
5.164262e+002, 4.430248e+001
5.169083e+002, 4.384931e+001
5.173904e+002, 4.337342e+001
5.178726e+002, 4.321516e+001
5.183547e+002, 4.336315e+001
5.188368e+002, 4.362334e+001
5.193189e+002, 4.396703e+001
5.198010e+002, 4.429416e+001
5.202831e+002, 4.430012e+001
5.207653e+002, 4.377898e+001
5.212474e+002, 4.359356e+001
5.217295e+002, 4.433887e+001
5.222116e+002, 4.516395e+001
5.226937e+002, 4.523821e+001
5.231758e+002, 4.460221e+001
5.236580e+002, 4.385022e+001
5.241401e+002, 4.339818e+001
5.246222e+002, 4.320418e+001
5.251043e+002, 4.304586e+001
5.255864e+002, 4.290014e+001
5.260685e+002, 4.283268e+001
5.265507e+002, 4.294175e+001
5.270328e+002, 4.306250e+001
5.275149e+002, 4.303268e+001
5.279970e+002, 4.285415e+001
5.284791e+002, 4.268121e+001
5.289612e+002, 4.268611e+001
5.294434e+002, 4.282065e+001
5.299255e+002, 4.278140e+001
5.304076e+002, 4.252735e+001
5.308897e+002, 4.219419e+001
5.313718e+002, 4.165523e+001
5.318539e+002, 4.115664e+001
5.323361e+002, 4.099685e+001
5.328182e+002, 4.125737e+001
5.333003e+002, 4.159911e+001
5.337824e+002, 4.189735e+001
5.342645e+002, 4.210101e+001
5.347466e+002, 4.206880e+001
5.352288e+002, 4.177103e+001
5.357109e+002, 4.138050e+001
5.361930e+002, 4.096508e+001
5.366751e+002, 4.056671e+001
5.371572e+002, 4.041482e+001
5.376393e+002, 4.075051e+001
5.381215e+002, 4.101390e+001
5.386036e+002, 4.099834e+001
5.390857e+002, 4.084634e+001
5.395678e+002, 4.073018e+001
5.400499e+002, 4.068726e+001
5.405320e+002, 4.065659e+001
5.410142e+002, 4.057448e+001
5.414963e+002, 4.043932e+001
5.419784e+002, 4.030207e+001
5.424604e+002, 4.005474e+001
5.429426e+002, 3.994252e+001
5.434247e+002, 4.021196e+001
5.439068e+002, 4.054642e+001
5.443889e+002, 4.051490e+001
5.448710e+002, 4.002258e+001
5.453531e+002, 3.949630e+001
5.458353e+002, 3.947543e+001
5.463174e+002, 3.990637e+001
5.467995e+002, 4.014813e+001
5.472816e+002, 4.012738e+001
5.477637e+002, 4.000086e+001
5.482458e+002, 3.979142e+001
5.487280e+002, 3.955555e+001
5.492101e+002, 3.939738e+001
5.496922e+002, 3.938530e+001
5.501743e+002, 3.934462e+001
5.506564e+002, 3.906318e+001
5.511385e+002, 3.869218e+001
5.516207e+002, 3.859090e+001
5.521028e+002, 3.883970e+001
5.525849e+002, 3.914984e+001
5.530670e+002, 3.924755e+001
5.535491e+002, 3.913185e+001
5.540313e+002, 3.908210e+001
5.545134e+002, 3.910508e+001
5.549955e+002, 3.917498e+001
5.554776e+002, 3.934765e+001
5.559597e+002, 3.953533e+001
5.564418e+002, 3.964473e+001
5.569240e+002, 3.964677e+001
5.574061e+002, 3.954211e+001
5.578882e+002, 3.929406e+001
5.583703e+002, 3.889328e+001
5.588524e+002, 3.864390e+001
5.593345e+002, 3.859199e+001
5.598167e+002, 3.863908e+001
5.602988e+002, 3.888506e+001
5.607809e+002, 3.913886e+001
5.612630e+002, 3.913701e+001
5.617451e+002, 3.879566e+001
5.622272e+002, 3.838788e+001
5.627094e+002, 3.808279e+001
5.631915e+002, 3.789876e+001
5.636736e+002, 3.797224e+001
5.641557e+002, 3.838637e+001
5.646378e+002, 3.870049e+001
5.651199e+002, 3.850499e+001
5.656021e+002, 3.794708e+001
5.660842e+002, 3.770439e+001
5.665663e+002, 3.799623e+001
5.670484e+002, 3.828764e+001
5.675305e+002, 3.841204e+001
5.680126e+002, 3.842866e+001
5.684948e+002, 3.840053e+001
5.689769e+002, 3.834449e+001
5.694590e+002, 3.826617e+001
5.699411e+002, 3.817588e+001
5.704232e+002, 3.807056e+001
5.709053e+002, 3.788911e+001
5.713875e+002, 3.740457e+001
5.718696e+002, 3.715916e+001
5.723517e+002, 3.744809e+001
5.728338e+002, 3.786846e+001
5.733159e+002, 3.807904e+001
5.737980e+002, 3.801461e+001
5.742802e+002, 3.777217e+001
5.747623e+002, 3.732044e+001
5.752444e+002, 3.674608e+001
5.757265e+002, 3.640654e+001
5.762086e+002, 3.631304e+001
5.766907e+002, 3.642268e+001
5.771729e+002, 3.688981e+001
5.776550e+002, 3.744987e+001
5.781371e+002, 3.767256e+001
5.786192e+002, 3.749424e+001
5.791013e+002, 3.723478e+001
5.795834e+002, 3.692138e+001
5.800656e+002, 3.664496e+001
5.805477e+002, 3.653444e+001
5.810298e+002, 3.657930e+001
5.815119e+002, 3.665608e+001
5.819940e+002, 3.669332e+001
5.824761e+002, 3.669231e+001
5.829583e+002, 3.665676e+001
5.834404e+002, 3.654702e+001
5.839225e+002, 3.646189e+001
5.844046e+002, 3.642130e+001
5.848867e+002, 3.638822e+001
5.853688e+002, 3.632014e+001
5.858510e+002, 3.623512e+001
5.863331e+002, 3.620033e+001
5.868152e+002, 3.627447e+001
5.872973e+002, 3.639326e+001
5.877794e+002, 3.638622e+001
5.882615e+002, 3.622539e+001
5.887437e+002, 3.613704e+001
5.892258e+002, 3.624097e+001
5.897079e+002, 3.636223e+001
5.901900e+002, 3.632409e+001
5.906721e+002, 3.615027e+001
5.911542e+002, 3.599169e+001
5.916364e+002, 3.592012e+001
5.921185e+002, 3.586036e+001
5.926006e+002, 3.571034e+001
5.930827e+002, 3.551784e+001
5.935648e+002, 3.545390e+001
5.940469e+002, 3.559084e+001
5.945291e+002, 3.577154e+001
5.950112e+002, 3.577525e+001
5.954933e+002, 3.556614e+001
5.959754e+002, 3.533720e+001
5.964575e+002, 3.504816e+001
5.969396e+002, 3.478744e+001
5.974218e+002, 3.452876e+001
5.979039e+002, 3.433784e+001
5.983860e+002, 3.433756e+001
5.988681e+002, 3.456297e+001
5.993502e+002, 3.484412e+001
5.998323e+002, 3.500532e+001
6.003145e+002, 3.504642e+001
6.007966e+002, 3.492022e+001
6.012787e+002, 3.452986e+001
6.017608e+002, 3.417376e+001
6.022429e+002, 3.405784e+001
6.027250e+002, 3.407534e+001
6.032072e+002, 3.408667e+001
6.036893e+002, 3.409316e+001
6.041714e+002, 3.403950e+001
6.046535e+002, 3.385131e+001
6.051356e+002, 3.360566e+001
6.056177e+002, 3.341356e+001
6.060999e+002, 3.328747e+001
6.065820e+002, 3.319436e+001
6.070641e+002, 3.312239e+001
6.075462e+002, 3.305339e+001
6.080283e+002, 3.289875e+001
6.085104e+002, 3.247303e+001
6.089926e+002, 3.223408e+001
6.094747e+002, 3.240581e+001
6.099568e+002, 3.259572e+001
6.104389e+002, 3.250696e+001
6.109210e+002, 3.217367e+001
6.114031e+002, 3.180063e+001
6.118853e+002, 3.148241e+001
6.123674e+002, 3.126081e+001
6.128495e+002, 3.129483e+001
6.133316e+002, 3.162118e+001
6.138137e+002, 3.174379e+001
6.142958e+002, 3.140272e+001
6.147780e+002, 3.100328e+001
6.152601e+002, 3.102075e+001
6.157422e+002, 3.137560e+001
6.162243e+002, 3.158805e+001
6.167064e+002, 3.147302e+001
6.171885e+002, 3.127431e+001
6.176707e+002, 3.113181e+001
6.181528e+002, 3.102124e+001
6.186349e+002, 3.086023e+001
6.191170e+002, 3.062906e+001
6.195991e+002, 3.044344e+001
6.200812e+002, 3.044898e+001
6.205634e+002, 3.065908e+001
6.210455e+002, 3.085941e+001
6.215276e+002, 3.112609e+001
6.220097e+002, 3.128311e+001
6.224918e+002, 3.128210e+001
6.229739e+002, 3.116253e+001
6.234561e+002, 3.091525e+001
6.239382e+002, 3.055774e+001
6.244203e+002, 3.024281e+001
6.249023e+002, 3.013314e+001
6.253845e+002, 3.015641e+001
6.258666e+002, 3.011806e+001
6.263487e+002, 3.000949e+001
6.268308e+002, 2.988750e+001
6.273129e+002, 2.975016e+001
6.277950e+002, 2.964019e+001
6.282772e+002, 2.965347e+001
6.287593e+002, 2.980632e+001
6.292414e+002, 2.996836e+001
6.297235e+002, 2.986240e+001
6.302056e+002, 2.998906e+001
6.306877e+002, 3.118379e+001
6.311699e+002, 3.285844e+001
6.316520e+002, 3.350793e+001
6.321341e+002, 3.243780e+001
6.326162e+002, 3.064114e+001
6.330983e+002, 2.985926e+001
6.335804e+002, 3.034799e+001
6.340626e+002, 3.051185e+001
6.345447e+002, 3.007715e+001
6.350268e+002, 2.964223e+001
6.355089e+002, 2.947291e+001
6.359910e+002, 2.946846e+001
6.364731e+002, 2.948773e+001
6.369553e+002, 2.950740e+001
6.374374e+002, 2.950400e+001
6.379195e+002, 2.947462e+001
6.384016e+002, 2.940671e+001
6.388837e+002, 2.922978e+001
6.393658e+002, 2.894511e+001
6.398480e+002, 2.874958e+001
6.403301e+002, 2.879142e+001
6.408122e+002, 2.899368e+001
6.412943e+002, 2.909885e+001
6.417764e+002, 2.900084e+001
6.422585e+002, 2.895865e+001
6.427407e+002, 2.903486e+001
6.432228e+002, 2.911090e+001
6.437049e+002, 2.909919e+001
6.441870e+002, 2.902393e+001
6.446691e+002, 2.896830e+001
6.451512e+002, 2.898210e+001
6.456334e+002, 2.900696e+001
6.461155e+002, 2.893915e+001
6.465976e+002, 2.877959e+001
6.470797e+002, 2.861154e+001
6.475618e+002, 2.840247e+001
6.480439e+002, 2.828597e+001
6.485261e+002, 2.847062e+001
6.490082e+002, 2.883261e+001
6.494903e+002, 2.896031e+001
6.499724e+002, 2.853981e+001
6.504545e+002, 2.832035e+001
6.509366e+002, 2.892294e+001
6.514188e+002, 2.970618e+001
6.519009e+002, 2.985923e+001
6.523830e+002, 2.933657e+001
6.528651e+002, 2.859075e+001
6.533472e+002, 2.792294e+001
6.538293e+002, 2.736540e+001
6.543115e+002, 2.705729e+001
6.547936e+002, 2.710571e+001
6.552757e+002, 2.714563e+001
6.557578e+002, 2.706237e+001
6.562399e+002, 2.701714e+001
6.567220e+002, 2.718714e+001
6.572042e+002, 2.747689e+001
6.576863e+002, 2.758471e+001
6.581684e+002, 2.732108e+001
6.586505e+002, 2.695770e+001
6.591326e+002, 2.671786e+001
6.596147e+002, 2.658458e+001
6.600969e+002, 2.651004e+001
6.605790e+002, 2.648467e+001
6.610611e+002, 2.652067e+001
6.615432e+002, 2.665017e+001
6.620253e+002, 2.685575e+001
6.625074e+002, 2.694663e+001
6.629896e+002, 2.686260e+001
6.634717e+002, 2.674035e+001
6.639538e+002, 2.653313e+001
6.644359e+002, 2.633599e+001
6.649180e+002, 2.622608e+001
6.654001e+002, 2.619897e+001
6.658823e+002, 2.621200e+001
6.663644e+002, 2.626491e+001
6.668465e+002, 2.629852e+001
6.673286e+002, 2.616687e+001
6.678107e+002, 2.587672e+001
6.682928e+002, 2.566813e+001
6.687750e+002, 2.560569e+001
6.692571e+002, 2.561438e+001
6.697392e+002, 2.566918e+001
6.702213e+002, 2.575121e+001
6.707034e+002, 2.570182e+001
6.711855e+002, 2.539027e+001
6.716677e+002, 2.510495e+001
6.721498e+002, 2.501493e+001
6.726319e+002, 2.495241e+001
6.731140e+002, 2.465829e+001
6.735961e+002, 2.416256e+001
6.740782e+002, 2.378918e+001
6.745604e+002, 2.381481e+001
6.750425e+002, 2.409289e+001
6.755246e+002, 2.415284e+001
6.760067e+002, 2.397359e+001
6.764888e+002, 2.365339e+001
6.769709e+002, 2.304007e+001
6.774531e+002, 2.248345e+001
6.779352e+002, 2.230154e+001
6.784173e+002, 2.240661e+001
6.788994e+002, 2.249254e+001
6.793815e+002, 2.250690e+001
6.798636e+002, 2.246432e+001
6.803458e+002, 2.231484e+001
6.808279e+002, 2.213651e+001
6.813100e+002, 2.205359e+001
6.817921e+002, 2.208504e+001
6.822742e+002, 2.219015e+001
6.827563e+002, 2.236102e+001
6.832385e+002, 2.254702e+001
6.837206e+002, 2.247820e+001
6.842027e+002, 2.200256e+001
6.846848e+002, 2.160497e+001
6.851669e+002, 2.136251e+001
6.856490e+002, 2.120690e+001
6.861312e+002, 2.114336e+001
6.866133e+002, 2.113785e+001
6.870954e+002, 2.110387e+001
6.875775e+002, 2.101150e+001
6.880596e+002, 2.087634e+001
6.885417e+002, 2.069895e+001
6.890239e+002, 2.049196e+001
6.895060e+002, 2.025850e+001
6.899881e+002, 2.000154e+001
6.904702e+002, 1.983708e+001
6.909523e+002, 1.988675e+001
6.914344e+002, 2.008000e+001
6.919166e+002, 2.005237e+001
6.923987e+002, 1.956956e+001
6.928808e+002, 1.923912e+001
6.933629e+002, 1.918175e+001
6.938450e+002, 1.919124e+001
6.943271e+002, 1.917967e+001
6.948093e+002, 1.912832e+001
6.952914e+002, 1.900516e+001
6.957735e+002, 1.876016e+001
6.962556e+002, 1.855161e+001
6.967377e+002, 1.862413e+001
6.972198e+002, 1.888498e+001
6.977020e+002, 1.899422e+001
6.981841e+002, 1.889394e+001
6.986662e+002, 1.873311e+001
6.991483e+002, 1.859298e+001
6.996304e+002, 1.848675e+001
7.001125e+002, 1.846907e+001
7.005947e+002, 1.866442e+001
7.010768e+002, 1.875698e+001
7.015589e+002, 1.866290e+001
7.020410e+002, 1.853960e+001
7.025231e+002, 1.846720e+001
7.030052e+002, 1.844448e+001
7.034874e+002, 1.846057e+001
7.039695e+002, 1.851709e+001
7.044516e+002, 1.855405e+001
7.049337e+002, 1.846831e+001
7.054158e+002, 1.829157e+001
7.058979e+002, 1.817813e+001
7.063801e+002, 1.814541e+001
7.068622e+002, 1.816230e+001
7.073442e+002, 1.823861e+001
7.078264e+002, 1.833201e+001
7.083085e+002, 1.833402e+001
7.087906e+002, 1.823191e+001
7.092727e+002, 1.807681e+001
7.097548e+002, 1.773433e+001
7.102369e+002, 1.747264e+001
7.107191e+002, 1.751373e+001
7.112012e+002, 1.773217e+001
7.116833e+002, 1.791614e+001
7.121654e+002, 1.798668e+001
7.126475e+002, 1.795164e+001
7.131296e+002, 1.772931e+001
7.136118e+002, 1.738655e+001
7.140939e+002, 1.735715e+001
7.145760e+002, 1.771990e+001
7.150581e+002, 1.796658e+001
7.155402e+002, 1.782636e+001
7.160223e+002, 1.748332e+001
7.165045e+002, 1.722924e+001
7.169866e+002, 1.706893e+001
7.174687e+002, 1.695646e+001
7.179508e+002, 1.690232e+001
7.184329e+002, 1.688099e+001
7.189150e+002, 1.688476e+001
7.193972e+002, 1.691113e+001
7.198793e+002, 1.688391e+001
7.203614e+002, 1.682078e+001
7.208435e+002, 1.698713e+001
7.213256e+002, 1.781113e+001
7.218077e+002, 1.903929e+001
7.222899e+002, 1.966813e+001
7.227720e+002, 1.967085e+001
7.232541e+002, 1.928711e+001
7.237362e+002, 1.843668e+001
7.242183e+002, 1.745969e+001
7.247004e+002, 1.672135e+001
7.251826e+002, 1.621546e+001
7.256647e+002, 1.589491e+001
7.261468e+002, 1.587533e+001
7.266289e+002, 1.589708e+001
7.271110e+002, 1.588336e+001
7.275931e+002, 1.585167e+001
7.280753e+002, 1.582371e+001
7.285574e+002, 1.580265e+001
7.290395e+002, 1.577757e+001
7.295216e+002, 1.573418e+001
7.300037e+002, 1.569317e+001
7.304858e+002, 1.574397e+001
7.309680e+002, 1.589481e+001
7.314501e+002, 1.585306e+001
7.319322e+002, 1.546712e+001
7.324143e+002, 1.510260e+001
7.328964e+002, 1.510541e+001
7.333785e+002, 1.539471e+001
7.338607e+002, 1.552022e+001
7.343428e+002, 1.536489e+001
7.348249e+002, 1.522754e+001
7.353070e+002, 1.521974e+001
7.357891e+002, 1.521118e+001
7.362712e+002, 1.507978e+001
7.367534e+002, 1.485111e+001
7.372355e+002, 1.461345e+001
7.377176e+002, 1.440460e+001
7.381997e+002, 1.424404e+001
7.386818e+002, 1.419431e+001
7.391639e+002, 1.423734e+001
7.396461e+002, 1.417986e+001
7.401282e+002, 1.398304e+001
7.406103e+002, 1.379450e+001
7.410924e+002, 1.369290e+001
7.415745e+002, 1.365504e+001
7.420566e+002, 1.365491e+001
7.425388e+002, 1.375244e+001
7.430209e+002, 1.368404e+001
7.435030e+002, 1.322679e+001
7.439851e+002, 1.280825e+001
7.444672e+002, 1.267468e+001
7.449493e+002, 1.272073e+001
7.454315e+002, 1.279356e+001
7.459136e+002, 1.283960e+001
7.463957e+002, 1.283827e+001
7.468778e+002, 1.277587e+001
7.473599e+002, 1.264955e+001
7.478420e+002, 1.241196e+001
7.483242e+002, 1.205811e+001
7.488063e+002, 1.178232e+001
7.492884e+002, 1.164160e+001
7.497705e+002, 1.162825e+001
7.502526e+002, 1.179157e+001
7.507347e+002, 1.215198e+001
7.512169e+002, 1.224522e+001
7.516990e+002, 1.183467e+001
7.521811e+002, 1.148795e+001
7.526632e+002, 1.139314e+001
7.531453e+002, 1.136731e+001
7.536274e+002, 1.125725e+001
7.541096e+002, 1.105058e+001
7.545917e+002, 1.079693e+001
7.550738e+002, 1.051147e+001
7.555559e+002, 1.021656e+001
7.560380e+002, 9.939678e+000
7.565201e+002, 9.679855e+000
7.570023e+002, 9.425365e+000
7.574844e+002, 9.170013e+000
7.579665e+002, 8.986867e+000
7.584486e+002, 8.952181e+000
7.589307e+002, 9.004905e+000
7.594128e+002, 8.935431e+000
7.598950e+002, 8.622815e+000
7.603771e+002, 8.407256e+000
7.608592e+002, 8.373734e+000
7.613413e+002, 8.341603e+000
7.618234e+002, 8.202924e+000
7.623055e+002, 8.017318e+000
7.627877e+002, 7.891218e+000
7.632698e+002, 7.856223e+000
7.637519e+002, 7.829500e+000
7.642340e+002, 7.729203e+000
7.647161e+002, 7.609156e+000
7.651982e+002, 7.581340e+000
7.656804e+002, 7.624745e+000
7.661625e+002, 7.571436e+000
7.666446e+002, 7.344811e+000
7.671267e+002, 7.164099e+000
7.676088e+002, 7.375681e+000
7.680909e+002, 8.013791e+000
7.685731e+002, 8.160471e+000
7.690552e+002, 7.416810e+000
7.695373e+002, 6.832737e+000
7.700194e+002, 6.779266e+000
7.705015e+002, 6.850496e+000
7.709836e+002, 6.772340e+000
7.714658e+002, 6.536838e+000
7.719479e+002, 6.207624e+000
7.724300e+002, 5.636414e+000
7.729121e+002, 5.207246e+000
7.733942e+002, 5.023424e+000
7.738763e+002, 5.228301e+000
7.743585e+002, 6.535933e+000
7.748406e+002, 8.689378e+000
7.753227e+002, 9.852010e+000
7.758048e+002, 8.700686e+000
7.762869e+002, 6.349755e+000
7.767690e+002, 5.578612e+000
7.772512e+002, 6.708086e+000
7.777333e+002, 7.226292e+000
7.782154e+002, 6.729139e+000
7.786975e+002, 6.061819e+000
7.791796e+002, 5.561076e+000
7.796617e+002, 5.227408e+000
7.801439e+002, 5.103406e+000
7.806260e+002, 5.247457e+000
7.811081e+002, 5.307489e+000
7.815902e+002, 5.073759e+000
7.820723e+002, 4.854739e+000
7.825544e+002, 4.895055e+000
7.830366e+002, 5.070503e+000
7.835187e+002, 5.165114e+000
7.840008e+002, 5.122652e+000
7.844829e+002, 5.026143e+000
7.849650e+002, 4.939162e+000
7.854471e+002, 4.864382e+000
7.859293e+002, 4.810237e+000
7.864114e+002, 4.776919e+000
7.868935e+002, 4.774907e+000
7.873756e+002, 4.825342e+000
7.878577e+002, 4.848266e+000
7.883398e+002, 4.746454e+000
7.888220e+002, 4.543667e+000
7.893040e+002, 4.445724e+000
7.897861e+002, 4.550994e+000
7.902682e+002, 4.614068e+000
7.907504e+002, 4.632889e+000
7.912325e+002, 4.589565e+000
7.917146e+002, 4.410065e+000
7.921967e+002, 4.172198e+000
7.926788e+002, 4.031861e+000
7.931609e+002, 4.049490e+000
7.936431e+002, 4.136332e+000
7.941252e+002, 4.248338e+000
7.946073e+002, 4.362780e+000
7.950894e+002, 4.440447e+000
7.955715e+002, 4.479071e+000
7.960536e+002, 4.475200e+000
7.965358e+002, 4.425494e+000
7.970179e+002, 4.352989e+000
7.975000e+002, 4.284343e+000
7.979821e+002, 4.217840e+000
7.984642e+002, 4.190962e+000
7.989464e+002, 4.209240e+000
7.994285e+002, 4.256902e+000
7.999106e+002, 4.400103e+000
8.003927e+002, 4.515653e+000
8.008748e+002, 4.485290e+000
8.013569e+002, 4.335705e+000
8.018391e+002, 4.205928e+000
8.023212e+002, 4.110322e+000
8.028033e+002, 4.073655e+000
8.032854e+002, 4.175285e+000
8.037675e+002, 4.302050e+000
8.042496e+002, 4.315051e+000
8.047318e+002, 4.219912e+000
8.052139e+002, 4.078058e+000
8.056960e+002, 3.917473e+000
8.061781e+002, 3.805636e+000
8.066602e+002, 3.901681e+000
8.071423e+002, 4.182358e+000
8.076245e+002, 4.292304e+000
8.081066e+002, 4.175802e+000
8.085887e+002, 4.112794e+000
8.090708e+002, 4.264146e+000
8.095529e+002, 4.482560e+000
8.100350e+002, 4.552179e+000
8.105172e+002, 4.454822e+000
8.109993e+002, 4.308775e+000
8.114814e+002, 3.986020e+000
8.119635e+002, 3.778272e+000
8.124456e+002, 3.821440e+000
8.129277e+002, 3.974770e+000
8.134099e+002, 4.167661e+000
8.138920e+002, 4.349432e+000
8.143741e+002, 4.399009e+000
8.148562e+002, 4.205321e+000
8.153383e+002, 3.965352e+000
8.158204e+002, 3.896048e+000
8.163026e+002, 3.933685e+000
8.167847e+002, 3.946159e+000
8.172668e+002, 3.916263e+000
8.177489e+002, 3.852707e+000
8.182310e+002, 3.753196e+000
8.187131e+002, 3.666548e+000
8.191953e+002, 3.706449e+000
8.196774e+002, 3.908202e+000
8.201595e+002, 4.010587e+000
8.206416e+002, 3.978508e+000
8.211237e+002, 3.913803e+000
8.216058e+002, 3.836398e+000
8.220880e+002, 3.757036e+000
8.225701e+002, 3.682555e+000
8.230522e+002, 3.613690e+000
8.235343e+002, 3.569382e+000
8.240164e+002, 3.566497e+000
8.244985e+002, 3.573485e+000
8.249807e+002, 3.535152e+000
8.254628e+002, 3.526478e+000
8.259449e+002, 3.694226e+000
8.264270e+002, 3.984716e+000
8.269091e+002, 4.166757e+000
8.273912e+002, 4.104463e+000
8.278734e+002, 3.911404e+000
8.283555e+002, 3.684663e+000
8.288376e+002, 3.459827e+000
8.293197e+002, 3.428584e+000
8.298018e+002, 3.608811e+000
8.302839e+002, 3.746886e+000
8.307661e+002, 3.712658e+000
8.312482e+002, 3.578351e+000
8.317303e+002, 3.437726e+000
8.322124e+002, 3.261722e+000
8.326945e+002, 3.303811e+000
8.331766e+002, 3.855312e+000
8.336588e+002, 4.201029e+000
8.341409e+002, 3.728095e+000
8.346230e+002, 3.357054e+000
8.351051e+002, 4.256692e+000
8.355872e+002, 6.067046e+000
8.360693e+002, 6.879746e+000
8.365515e+002, 5.479844e+000
8.370336e+002, 3.995762e+000
8.375157e+002, 3.655848e+000
8.379978e+002, 3.804754e+000
8.384799e+002, 3.695546e+000
8.389620e+002, 3.341609e+000
8.394442e+002, 3.098674e+000
8.399263e+002, 3.134604e+000
8.404084e+002, 3.320884e+000
8.408905e+002, 3.559674e+000
8.413726e+002, 3.811590e+000
8.418547e+002, 3.785202e+000
8.423369e+002, 3.454160e+000
8.428190e+002, 3.215680e+000
8.433011e+002, 3.221450e+000
8.437832e+002, 3.353675e+000
8.442653e+002, 3.502759e+000
8.447474e+002, 3.666343e+000
8.452296e+002, 3.724694e+000
8.457117e+002, 3.561778e+000
8.461938e+002, 3.463070e+000
8.466759e+002, 3.559115e+000
8.471580e+002, 3.624627e+000
8.476401e+002, 3.418994e+000
8.481223e+002, 3.091373e+000
8.486044e+002, 3.015143e+000
8.490865e+002, 3.348235e+000
8.495686e+002, 3.650093e+000
8.500507e+002, 3.653424e+000
8.505328e+002, 3.533981e+000
8.510150e+002, 3.423367e+000
8.514971e+002, 3.348117e+000
8.519792e+002, 3.363176e+000
8.524613e+002, 3.471855e+000
8.529434e+002, 3.553253e+000
8.534255e+002, 3.459714e+000
8.539077e+002, 3.272373e+000
8.543898e+002, 3.269245e+000
8.548719e+002, 3.450076e+000
8.553540e+002, 3.601073e+000
8.558361e+002, 3.685094e+000
8.563182e+002, 3.702929e+000
8.568004e+002, 3.631050e+000
8.572825e+002, 3.510284e+000
8.577646e+002, 3.473520e+000
8.582467e+002, 3.558599e+000
8.587288e+002, 3.646711e+000
8.592109e+002, 3.882472e+000
8.596931e+002, 3.952974e+000
8.601752e+002, 3.546985e+000
8.606573e+002, 3.029682e+000
8.611394e+002, 2.864945e+000
8.616215e+002, 3.091590e+000
8.621036e+002, 3.345734e+000
8.625858e+002, 3.578497e+000
8.630679e+002, 3.688412e+000
8.635500e+002, 3.510518e+000
8.640321e+002, 3.217415e+000
8.645142e+002, 3.032608e+000
8.649963e+002, 2.984142e+000
8.654785e+002, 3.022244e+000
8.659606e+002, 3.123944e+000
8.664427e+002, 3.247581e+000
8.669248e+002, 3.345875e+000
8.674069e+002, 3.412113e+000
8.678890e+002, 3.388276e+000
8.683712e+002, 3.267496e+000
8.688533e+002, 3.179118e+000
8.693354e+002, 3.177522e+000
8.698175e+002, 3.228722e+000
8.702996e+002, 3.292407e+000
8.707817e+002, 3.368863e+000
8.712639e+002, 3.440912e+000
8.717459e+002, 3.565534e+000
8.722280e+002, 3.585166e+000
8.727101e+002, 3.359458e+000
8.731923e+002, 3.127388e+000
8.736744e+002, 3.029341e+000
8.741565e+002, 3.035864e+000
8.746386e+002, 3.078197e+000
8.751207e+002, 3.179241e+000
8.756028e+002, 3.211193e+000
8.760850e+002, 2.989525e+000
8.765671e+002, 2.817317e+000
8.770492e+002, 3.035764e+000
8.775313e+002, 3.418489e+000
8.780134e+002, 3.525776e+000
8.784955e+002, 3.288487e+000
8.789777e+002, 3.062810e+000
8.794598e+002, 3.152376e+000
8.799419e+002, 3.381431e+000
8.804240e+002, 3.480794e+000
8.809061e+002, 3.470299e+000
8.813882e+002, 3.403774e+000
8.818704e+002, 3.294713e+000
8.823525e+002, 3.196633e+000
8.828346e+002, 3.142370e+000
8.833167e+002, 3.125587e+000
8.837988e+002, 3.135549e+000
8.842809e+002, 3.174161e+000
8.847631e+002, 3.225522e+000
8.852452e+002, 3.290795e+000
8.857273e+002, 3.373317e+000
8.862094e+002, 3.541019e+000
8.866915e+002, 3.657222e+000
8.871736e+002, 3.498827e+000
8.876558e+002, 3.093959e+000
8.881379e+002, 2.878969e+000
8.886200e+002, 3.017519e+000
8.891021e+002, 3.132462e+000
8.895842e+002, 3.143093e+000
8.900663e+002, 3.125354e+000
8.905485e+002, 3.108353e+000
8.910306e+002, 3.109664e+000
8.915127e+002, 3.173970e+000
8.919948e+002, 3.318758e+000
8.924769e+002, 3.407593e+000
8.929590e+002, 3.286178e+000
8.934412e+002, 3.121954e+000
8.939233e+002, 3.133630e+000
8.944054e+002, 3.231102e+000
8.948875e+002, 3.190236e+000
8.953696e+002, 2.985985e+000
8.958517e+002, 2.803577e+000
8.963339e+002, 2.788509e+000
8.968160e+002, 2.854089e+000
8.972981e+002, 2.805920e+000
8.977802e+002, 2.662584e+000
8.982623e+002, 2.605366e+000
8.987444e+002, 2.650959e+000
8.992266e+002, 2.802975e+000
8.997087e+002, 3.102346e+000
9.001908e+002, 3.398339e+000
9.006729e+002, 3.451934e+000
9.011550e+002, 3.249331e+000
9.016371e+002, 3.110840e+000
9.021193e+002, 3.016407e+000
9.026014e+002, 3.025651e+000
9.030835e+002, 3.303723e+000
9.035656e+002, 3.537236e+000
9.040477e+002, 3.465669e+000
9.045298e+002, 3.192748e+000
9.050120e+002, 2.976027e+000
9.054941e+002, 2.828217e+000
9.059762e+002, 2.779488e+000
9.064583e+002, 2.931715e+000
9.069404e+002, 3.085496e+000
9.074225e+002, 3.108169e+000
9.079047e+002, 3.064697e+000
9.083868e+002, 2.959786e+000
9.088689e+002, 2.856936e+000
9.093510e+002, 3.074023e+000
9.098331e+002, 4.093086e+000
9.103152e+002, 5.038004e+000
9.107974e+002, 4.819150e+000
9.112795e+002, 3.971051e+000
9.117616e+002, 3.436656e+000
9.122437e+002, 3.287174e+000
9.127258e+002, 3.224926e+000
9.132079e+002, 3.109529e+000
9.136901e+002, 3.006426e+000
9.141722e+002, 3.047901e+000
9.146543e+002, 3.182488e+000
9.151364e+002, 3.041662e+000
9.156185e+002, 2.608774e+000
9.161006e+002, 2.423188e+000
9.165828e+002, 2.670822e+000
9.170649e+002, 2.947811e+000
9.175470e+002, 2.894958e+000
9.180291e+002, 2.630147e+000
9.185112e+002, 2.602373e+000
9.189933e+002, 2.977498e+000
9.194755e+002, 3.159221e+000
9.199576e+002, 2.993453e+000
9.204397e+002, 2.854047e+000
9.209218e+002, 2.970026e+000
9.214039e+002, 3.132073e+000
9.218860e+002, 3.061755e+000
9.223682e+002, 2.772002e+000
9.228503e+002, 2.640697e+000
9.233324e+002, 2.873393e+000
9.238145e+002, 3.062270e+000
9.242966e+002, 3.051429e+000
9.247787e+002, 2.991967e+000
9.252609e+002, 3.028670e+000
9.257430e+002, 3.105019e+000
9.262251e+002, 3.059642e+000
9.267072e+002, 2.840928e+000
9.271893e+002, 2.660934e+000
9.276714e+002, 2.688493e+000
9.281536e+002, 2.796770e+000
9.286357e+002, 2.868603e+000
9.291178e+002, 2.920369e+000
9.295999e+002, 2.997430e+000
9.300820e+002, 3.101432e+000
9.305641e+002, 3.213055e+000
9.310463e+002, 3.335906e+000
9.315284e+002, 3.369025e+000
9.320105e+002, 3.006876e+000
9.324926e+002, 2.410014e+000
9.329747e+002, 2.355674e+000
9.334568e+002, 2.844212e+000
9.339390e+002, 3.131186e+000
9.344211e+002, 2.925420e+000
9.349032e+002, 2.582540e+000
9.353853e+002, 2.483478e+000
9.358674e+002, 2.590016e+000
9.363495e+002, 2.683869e+000
9.368317e+002, 2.765181e+000
9.373138e+002, 2.835831e+000
9.377959e+002, 2.905067e+000
9.382780e+002, 2.940467e+000
9.387601e+002, 2.894503e+000
9.392422e+002, 2.829229e+000
9.397244e+002, 2.879811e+000
9.402065e+002, 3.093401e+000
9.406886e+002, 3.143533e+000
9.411707e+002, 2.802460e+000
9.416528e+002, 2.615234e+000
9.421349e+002, 2.855552e+000
9.426171e+002, 3.129580e+000
9.430992e+002, 3.099005e+000
9.435813e+002, 2.874898e+000
9.440634e+002, 2.787352e+000
9.445455e+002, 2.942486e+000
9.450276e+002, 3.071341e+000
9.455098e+002, 3.084445e+000
9.459919e+002, 3.035007e+000
9.464740e+002, 2.905009e+000
9.469561e+002, 2.763787e+000
9.474382e+002, 2.713975e+000
9.479203e+002, 2.752929e+000
9.484025e+002, 2.784300e+000
9.488846e+002, 2.756031e+000
9.493667e+002, 2.704313e+000
9.498488e+002, 2.642323e+000
9.503309e+002, 2.591412e+000
9.508130e+002, 2.573815e+000
9.512952e+002, 2.598091e+000
9.517773e+002, 2.702062e+000
9.522594e+002, 2.889760e+000
9.527415e+002, 3.066054e+000
9.532236e+002, 3.143138e+000
9.537057e+002, 3.140805e+000
9.541878e+002, 3.085192e+000
9.546699e+002, 2.988030e+000
9.551520e+002, 2.922869e+000
9.556342e+002, 2.900004e+000
9.561163e+002, 2.931197e+000
9.565984e+002, 3.033692e+000
9.570805e+002, 3.129421e+000
9.575626e+002, 3.067595e+000
9.580447e+002, 2.853633e+000
9.585269e+002, 2.849267e+000
9.590090e+002, 3.133599e+000
9.594911e+002, 3.278080e+000
9.599732e+002, 3.148980e+000
9.604553e+002, 2.951065e+000
9.609374e+002, 2.804871e+000
9.614196e+002, 2.723583e+000
9.619017e+002, 2.758785e+000
9.623838e+002, 2.986998e+000
9.628659e+002, 3.094114e+000
9.633480e+002, 2.981844e+000
9.638301e+002, 2.880403e+000
9.643123e+002, 2.680157e+000
9.647944e+002, 2.652645e+000
9.652765e+002, 3.310915e+000
9.657586e+002, 4.402936e+000
9.662407e+002, 4.748699e+000
9.667228e+002, 3.710130e+000
9.672050e+002, 2.929225e+000
9.676871e+002, 2.953051e+000
9.681692e+002, 3.111278e+000
9.686513e+002, 3.049699e+000
9.691334e+002, 2.874342e+000
9.696155e+002, 2.702430e+000
9.700977e+002, 2.578373e+000
9.705798e+002, 2.603150e+000
9.710619e+002, 2.709370e+000
9.715440e+002, 3.158007e+000
9.720261e+002, 4.696618e+000
9.725082e+002, 6.204961e+000
9.729904e+002, 6.340563e+000
9.734725e+002, 5.459609e+000
9.739546e+002, 4.487710e+000
9.744367e+002, 3.741129e+000
9.749188e+002, 3.188064e+000
9.754009e+002, 2.824772e+000
9.758831e+002, 2.624431e+000
9.763652e+002, 2.622710e+000
9.768473e+002, 2.733294e+000
9.773294e+002, 2.773651e+000
9.778115e+002, 2.730018e+000
9.782936e+002, 2.657281e+000
9.787758e+002, 2.581721e+000
9.792579e+002, 2.555161e+000
9.797400e+002, 2.683308e+000
9.802221e+002, 2.897649e+000
9.807042e+002, 2.946431e+000
9.811863e+002, 2.850496e+000
9.816685e+002, 2.769149e+000
9.821506e+002, 2.734244e+000
9.826327e+002, 2.756674e+000
9.831148e+002, 2.855334e+000
9.835969e+002, 2.960446e+000
9.840790e+002, 2.930683e+000
9.845612e+002, 2.765329e+000
9.850433e+002, 2.582837e+000
9.855254e+002, 2.359730e+000
9.860075e+002, 2.282689e+000
9.864896e+002, 2.443547e+000
9.869717e+002, 2.621619e+000
9.874539e+002, 2.628896e+000
9.879360e+002, 2.524581e+000
9.884181e+002, 2.497232e+000
9.889002e+002, 2.573548e+000
9.893823e+002, 2.631120e+000
9.898644e+002, 2.652293e+000
9.903466e+002, 2.692786e+000
9.908287e+002, 2.821728e+000
9.913108e+002, 2.917973e+000
9.917929e+002, 2.805964e+000
9.922750e+002, 2.543334e+000
9.927571e+002, 2.480556e+000
9.932393e+002, 2.797280e+000
9.937214e+002, 2.989471e+000
9.942035e+002, 3.020518e+000
9.946856e+002, 2.962363e+000
9.951677e+002, 2.752113e+000
9.956498e+002, 2.529069e+000
9.961320e+002, 2.437300e+000
9.966141e+002, 2.475131e+000
9.970962e+002, 2.571533e+000
9.975783e+002, 2.786858e+000
9.980604e+002, 2.936909e+000
9.985425e+002, 2.920009e+000
9.990247e+002, 2.881354e+000
9.995068e+002, 2.923417e+000
9.999889e+002, 2.994894e+000
1.000471e+003, 3.004543e+000
1.000953e+003, 2.948646e+000
1.001435e+003, 2.919633e+000
1.001917e+003, 2.995945e+000
1.002399e+003, 3.046231e+000
1.002882e+003, 2.986445e+000
1.003364e+003, 2.879322e+000
1.003846e+003, 2.735294e+000
1.004328e+003, 2.606074e+000
1.004810e+003, 2.597126e+000
1.005292e+003, 2.720317e+000
1.005774e+003, 2.829978e+000
1.006256e+003, 2.831506e+000
1.006739e+003, 2.785672e+000
1.007221e+003, 2.755539e+000
1.007703e+003, 2.710335e+000
1.008185e+003, 2.546313e+000
1.008667e+003, 2.331899e+000
1.009149e+003, 2.298537e+000
1.009631e+003, 2.512340e+000
1.010113e+003, 2.735597e+000
1.010595e+003, 2.765780e+000
1.011078e+003, 2.676920e+000
1.011560e+003, 2.526607e+000
1.012042e+003, 2.359863e+000
1.012524e+003, 2.296818e+000
1.013006e+003, 2.331028e+000
1.013488e+003, 2.370529e+000
1.013970e+003, 2.373934e+000
1.014452e+003, 2.333720e+000
1.014935e+003, 2.189632e+000
1.015417e+003, 2.036477e+000
1.015899e+003, 2.188703e+000
1.016381e+003, 2.560290e+000
1.016863e+003, 2.716777e+000
1.017345e+003, 2.611606e+000
1.017827e+003, 2.511277e+000
1.018309e+003, 2.553329e+000
1.018791e+003, 2.649097e+000
1.019274e+003, 2.682003e+000
1.019756e+003, 2.661395e+000
1.020238e+003, 2.619223e+000
1.020720e+003, 2.557950e+000
1.021202e+003, 2.536098e+000
1.021684e+003, 2.563143e+000
1.022166e+003, 2.670986e+000
1.022648e+003, 2.902344e+000
1.023130e+003, 3.103944e+000
1.023613e+003, 3.005317e+000
1.024095e+003, 2.627282e+000
1.024577e+003, 2.294819e+000
1.025059e+003, 1.991296e+000
1.025541e+003, 1.916174e+000
1.026023e+003, 2.156096e+000
1.026505e+003, 2.400577e+000
1.026987e+003, 2.446500e+000
1.027469e+003, 2.402508e+000
1.027952e+003, 2.482244e+000
1.028434e+003, 2.696339e+000
1.028916e+003, 2.769160e+000
1.029398e+003, 2.655301e+000
1.029880e+003, 2.564212e+000
1.030362e+003, 2.552290e+000
1.030844e+003, 2.531542e+000
1.031326e+003, 2.456245e+000
1.031809e+003, 2.318168e+000
1.032291e+003, 2.068399e+000
1.032773e+003, 1.663443e+000
1.033255e+003, 1.528068e+000
1.033737e+003, 1.790187e+000
1.034219e+003, 2.051556e+000
1.034701e+003, 2.308031e+000
1.035183e+003, 2.434110e+000
1.035666e+003, 2.244358e+000
1.036148e+003, 1.928344e+000
1.036630e+003, 1.913430e+000
1.037112e+003, 2.284032e+000
1.037594e+003, 2.478370e+000
1.038076e+003, 2.351773e+000
1.038558e+003, 2.279106e+000
1.039040e+003, 2.352176e+000
1.039522e+003, 2.466891e+000
1.040005e+003, 2.608129e+000
1.040487e+003, 2.728416e+000
1.040969e+003, 2.689511e+000
1.041451e+003, 2.423938e+000
1.041933e+003, 2.356210e+000
1.042415e+003, 2.794498e+000
1.042897e+003, 3.008987e+000
1.043379e+003, 2.642993e+000
1.043861e+003, 2.235559e+000
1.044344e+003, 2.097561e+000
1.044826e+003, 2.176877e+000
1.045308e+003, 2.424060e+000
1.045790e+003, 2.895253e+000
1.046272e+003, 3.098266e+000
1.046754e+003, 2.758472e+000
1.047236e+003, 2.452941e+000
1.047718e+003, 2.298045e+000
1.048201e+003, 2.246561e+000
1.048683e+003, 2.309290e+000
1.049165e+003, 2.432708e+000
1.049647e+003, 2.527081e+000
1.050129e+003, 2.580488e+000
1.050611e+003, 2.623614e+000
1.051093e+003, 2.740791e+000
1.051575e+003, 2.741010e+000
1.052057e+003, 2.376870e+000
1.052540e+003, 2.060211e+000
1.053022e+003, 2.217534e+000
1.053504e+003, 2.586975e+000
1.053986e+003, 2.620719e+000
1.054468e+003, 2.231122e+000
1.054950e+003, 1.995110e+000
1.055432e+003, 2.200659e+000
1.055914e+003, 2.399199e+000
1.056396e+003, 2.432461e+000
1.056879e+003, 2.408176e+000
1.057361e+003, 2.379582e+000
1.057843e+003, 2.364208e+000
1.058325e+003, 2.380001e+000
1.058807e+003, 2.429452e+000
1.059289e+003, 2.495925e+000
1.059771e+003, 2.555272e+000
1.060253e+003, 2.656134e+000
1.060736e+003, 2.636056e+000
1.061218e+003, 2.840788e+000
1.061700e+003, 4.043313e+000
1.062182e+003, 5.421426e+000
1.062664e+003, 5.439043e+000
1.063146e+003, 3.964467e+000
1.063628e+003, 2.674484e+000
1.064110e+003, 2.182009e+000
1.064593e+003, 1.969019e+000
1.065075e+003, 1.975589e+000
1.065557e+003, 2.028888e+000
1.066039e+003, 1.964277e+000
1.066521e+003, 1.873105e+000
1.067003e+003, 1.934443e+000
1.067485e+003, 2.153572e+000
1.067967e+003, 2.334519e+000
1.068449e+003, 2.381353e+000
1.068932e+003, 2.417439e+000
1.069414e+003, 2.545139e+000
1.069896e+003, 2.634847e+000
1.070378e+003, 2.542557e+000
1.070860e+003, 2.376485e+000
1.071342e+003, 2.283324e+000
1.071824e+003, 2.283281e+000
1.072306e+003, 2.335714e+000
1.072788e+003, 2.462114e+000
1.073271e+003, 2.554791e+000
1.073753e+003, 2.557679e+000
1.074235e+003, 2.514756e+000
1.074717e+003, 2.418367e+000
1.075199e+003, 2.320576e+000
1.075681e+003, 2.288040e+000
1.076163e+003, 2.319588e+000
1.076645e+003, 2.372666e+000
1.077127e+003, 2.451536e+000
1.077610e+003, 2.489897e+000
1.078092e+003, 2.382286e+000
1.078574e+003, 2.305861e+000
1.079056e+003, 2.454029e+000
1.079538e+003, 2.650244e+000
1.080020e+003, 2.689791e+000
1.080502e+003, 2.571877e+000
1.080984e+003, 2.361554e+000
1.081467e+003, 2.035057e+000
1.081949e+003, 1.842153e+000
1.082431e+003, 2.003314e+000
1.082913e+003, 2.205068e+000
1.083395e+003, 2.260262e+000
1.083877e+003, 2.252940e+000
1.084359e+003, 2.269151e+000
1.084841e+003, 2.311391e+000
1.085323e+003, 2.372857e+000
1.085806e+003, 2.462485e+000
1.086288e+003, 2.458827e+000
1.086770e+003, 2.228358e+000
1.087252e+003, 1.993948e+000
1.087734e+003, 1.785295e+000
1.088216e+003, 1.698508e+000
1.088698e+003, 1.954761e+000
1.089180e+003, 2.358842e+000
1.089662e+003, 2.472042e+000
1.090145e+003, 2.203922e+000
1.090627e+003, 1.974176e+000
1.091109e+003, 2.000093e+000
1.091591e+003, 2.015415e+000
1.092073e+003, 1.759902e+000
1.092555e+003, 1.590764e+000
1.093037e+003, 1.689706e+000
1.093519e+003, 2.123303e+000
1.094002e+003, 3.316588e+000
1.094484e+003, 5.177602e+000
1.094966e+003, 5.964174e+000
1.095448e+003, 4.227551e+000
1.095930e+003, 2.664923e+000
1.096412e+003, 2.136600e+000
1.096894e+003, 2.078228e+000
1.097376e+003, 2.431643e+000
1.097859e+003, 2.844359e+000
1.098341e+003, 2.797669e+000
1.098823e+003, 2.342558e+000
1.099305e+003, 2.137330e+000
1.099787e+003, 2.511402e+000
1.100269e+003, 2.768359e+000
1.100751e+003, 2.643736e+000
1.101233e+003, 2.463024e+000
1.101715e+003, 2.366771e+000
1.102198e+003, 2.309590e+000
1.102680e+003, 2.225386e+000
1.103162e+003, 2.129901e+000
1.103644e+003, 2.101971e+000
1.104126e+003, 2.181231e+000
1.104608e+003, 2.236796e+000
1.105090e+003, 2.239168e+000
1.105572e+003, 2.222745e+000
1.106054e+003, 2.225873e+000
1.106537e+003, 2.191007e+000
1.107019e+003, 2.008599e+000
1.107501e+003, 1.765674e+000
1.107983e+003, 1.690322e+000
1.108465e+003, 1.837032e+000
1.108947e+003, 1.928982e+000
1.109429e+003, 1.840965e+000
1.109911e+003, 1.840619e+000
1.110394e+003, 2.141308e+000
1.110876e+003, 2.375344e+000
1.111358e+003, 2.218038e+000
1.111840e+003, 1.901218e+000
1.112322e+003, 1.832695e+000
1.112804e+003, 2.033513e+000
1.113286e+003, 2.127802e+000
1.113768e+003, 2.007174e+000
1.114250e+003, 1.959561e+000
1.114733e+003, 2.026093e+000
1.115215e+003, 2.140497e+000
1.115697e+003, 2.329257e+000
1.116179e+003, 2.502845e+000
1.116661e+003, 2.562327e+000
1.117143e+003, 2.513394e+000
1.117625e+003, 2.387321e+000
1.118107e+003, 2.087222e+000
1.118589e+003, 1.948392e+000
1.119072e+003, 2.045199e+000
1.119554e+003, 2.167265e+000
1.120036e+003, 2.291805e+000
1.120518e+003, 2.345600e+000
1.121000e+003, 2.232884e+000
1.121482e+003, 2.024890e+000
1.121964e+003, 1.937607e+000
1.122446e+003, 1.995366e+000
1.122929e+003, 2.022820e+000
1.123411e+003, 2.002904e+000
1.123893e+003, 2.019215e+000
1.124375e+003, 2.111956e+000
1.124857e+003, 2.168345e+000
1.125339e+003, 2.097117e+000
1.125821e+003, 1.991435e+000
1.126303e+003, 2.025265e+000
1.126786e+003, 2.186346e+000
1.127268e+003, 2.235803e+000
1.127750e+003, 2.156636e+000
1.128232e+003, 2.128164e+000
1.128714e+003, 2.184928e+000
1.129196e+003, 2.186150e+000
1.129678e+003, 2.049593e+000
1.130160e+003, 1.951391e+000
1.130642e+003, 2.121396e+000
1.131125e+003, 2.447283e+000
1.131607e+003, 2.524959e+000
1.132089e+003, 2.366190e+000
1.132571e+003, 2.130381e+000
1.133053e+003, 1.833048e+000
1.133535e+003, 1.732626e+000
1.134017e+003, 1.907272e+000
1.134499e+003, 2.083707e+000
1.134981e+003, 2.042970e+000
1.135464e+003, 1.914752e+000
1.135946e+003, 1.937544e+000
1.136428e+003, 2.073878e+000
1.136910e+003, 2.225091e+000
1.137392e+003, 2.359671e+000
1.137874e+003, 2.304002e+000
1.138356e+003, 2.053976e+000
1.138838e+003, 1.798291e+000
1.139321e+003, 1.632208e+000
1.139803e+003, 1.593020e+000
1.140285e+003, 1.787295e+000
1.140767e+003, 2.074001e+000
1.141249e+003, 2.198065e+000
1.141731e+003, 2.212216e+000
1.142213e+003, 2.234096e+000
1.142695e+003, 2.258947e+000
1.143177e+003, 2.184350e+000
1.143660e+003, 2.001351e+000
1.144142e+003, 1.916321e+000
1.144624e+003, 2.123477e+000
1.145106e+003, 2.371480e+000
1.145588e+003, 2.338160e+000
1.146070e+003, 2.241548e+000
1.146552e+003, 2.470102e+000
1.147034e+003, 2.794716e+000
1.147516e+003, 2.672844e+000
1.147999e+003, 2.154314e+000
1.148481e+003, 1.863756e+000
1.148963e+003, 2.103323e+000
1.149445e+003, 2.348900e+000
1.149927e+003, 2.200408e+000
1.150409e+003, 2.019009e+000
1.150891e+003, 2.094793e+000
1.151373e+003, 2.252450e+000
1.151856e+003, 2.355028e+000
1.152338e+003, 2.355965e+000
1.152820e+003, 2.130503e+000
1.153302e+003, 1.656004e+000
1.153784e+003, 1.422275e+000
1.154266e+003, 1.848698e+000
1.154748e+003, 2.177384e+000
1.155230e+003, 2.125215e+000
1.155713e+003, 1.936666e+000
1.156195e+003, 1.614546e+000
1.156677e+003, 1.343563e+000
1.157159e+003, 1.416458e+000
1.157641e+003, 1.782063e+000
1.158123e+003, 1.989357e+000
1.158605e+003, 1.898062e+000
1.159087e+003, 1.861634e+000
1.159569e+003, 1.927976e+000
1.160052e+003, 2.017426e+000
1.160534e+003, 2.173195e+000
1.161016e+003, 2.272012e+000
1.161498e+003, 2.189135e+000
1.161980e+003, 2.002986e+000
1.162462e+003, 1.873085e+000
1.162944e+003, 1.795210e+000
1.163426e+003, 1.825506e+000
1.163908e+003, 2.016231e+000
1.164391e+003, 2.168915e+000
1.164873e+003, 2.273645e+000
1.165355e+003, 2.219183e+000
1.165837e+003, 1.767415e+000
1.166319e+003, 1.699787e+000
1.166801e+003, 3.213940e+000
1.167283e+003, 5.602894e+000
1.167765e+003, 5.658236e+000
1.168247e+003, 3.270943e+000
1.168730e+003, 1.998652e+000
1.169212e+003, 2.021564e+000
1.169694e+003, 2.150905e+000
1.170176e+003, 2.066968e+000
1.170658e+003, 1.946834e+000
1.171140e+003, 1.911867e+000
1.171622e+003, 1.911468e+000
1.172104e+003, 1.877541e+000
1.172587e+003, 1.806886e+000
1.173069e+003, 1.615597e+000
1.173551e+003, 1.380180e+000
1.174033e+003, 1.423182e+000
1.174515e+003, 1.739295e+000
1.174997e+003, 2.117701e+000
1.175479e+003, 2.465735e+000
1.175961e+003, 2.680967e+000
1.176443e+003, 2.642513e+000
1.176926e+003, 2.518362e+000
1.177408e+003, 2.531238e+000
1.177890e+003, 2.581321e+000
1.178372e+003, 2.470475e+000
1.178854e+003, 2.303998e+000
1.179336e+003, 2.375375e+000
1.179818e+003, 2.639411e+000
1.180300e+003, 2.688359e+000
1.180782e+003, 2.322253e+000
1.181265e+003, 1.992939e+000
1.181747e+003, 1.957539e+000
1.182229e+003, 2.071121e+000
1.182711e+003, 2.075858e+000
1.183193e+003, 2.331482e+000
1.183675e+003, 3.768524e+000
1.184157e+003, 5.464890e+000
1.184639e+003, 5.453997e+000
1.185122e+003, 3.574141e+000
1.185604e+003, 2.253130e+000
1.186086e+003, 2.432310e+000
1.186568e+003, 2.565505e+000
1.187050e+003, 2.367773e+000
1.187532e+003, 2.110701e+000
1.188014e+003, 1.708590e+000
1.188496e+003, 1.478766e+000
1.188979e+003, 1.877959e+000
1.189461e+003, 2.628078e+000
1.189943e+003, 2.888899e+000
1.190425e+003, 2.547739e+000
1.190907e+003, 2.395851e+000
1.191389e+003, 2.547647e+000
1.191871e+003, 2.545575e+000
1.192353e+003, 2.235281e+000
1.192835e+003, 2.020612e+000
1.193318e+003, 2.134263e+000
1.193800e+003, 2.350237e+000
1.194282e+003, 2.397273e+000
1.194764e+003, 2.310420e+000
1.195246e+003, 2.214954e+000
1.195728e+003, 2.112040e+000
1.196210e+003, 2.016170e+000
1.196692e+003, 1.933318e+000
1.197174e+003, 1.991600e+000
1.197657e+003, 2.211972e+000
1.198139e+003, 2.367507e+000
1.198621e+003, 2.313425e+000
1.199103e+003, 2.184637e+000
1.199585e+003, 2.153638e+000
1.200067e+003, 2.178879e+000
1.200549e+003, 2.183270e+000
1.201031e+003, 2.175687e+000
1.201514e+003, 2.196080e+000
1.201996e+003, 2.220791e+000
1.202478e+003, 2.142227e+000
1.202960e+003, 1.955468e+000
1.203442e+003, 1.847646e+000
1.203924e+003, 1.964847e+000
1.204406e+003, 2.078286e+000
1.204888e+003, 2.000746e+000
1.205370e+003, 1.863098e+000
1.205853e+003, 1.685631e+000
1.206335e+003, 1.578542e+000
1.206817e+003, 1.736899e+000
1.207299e+003, 2.056459e+000
1.207781e+003, 2.251411e+000
1.208263e+003, 2.262137e+000
1.208745e+003, 2.210697e+000
1.209227e+003, 1.972734e+000
1.209709e+003, 1.905448e+000
1.210192e+003, 2.301726e+000
1.210674e+003, 2.625442e+000
1.211156e+003, 2.575106e+000
1.211638e+003, 2.350002e+000
1.212120e+003, 2.079459e+000
1.212602e+003, 1.812968e+000
1.213084e+003, 1.771989e+000
1.213566e+003, 2.051848e+000
1.214049e+003, 2.029644e+000
1.214531e+003, 1.559084e+000
1.215013e+003, 1.395532e+000
1.215495e+003, 1.731767e+000
1.215977e+003, 2.163097e+000
1.216459e+003, 2.503372e+000
1.216941e+003, 2.680582e+000
1.217423e+003, 2.577308e+000
1.217906e+003, 2.287365e+000
1.218388e+003, 2.053716e+000
1.218870e+003, 1.895988e+000
1.219352e+003, 2.006117e+000
1.219834e+003, 2.307196e+000
1.220316e+003, 2.325213e+000
1.220798e+003, 1.999961e+000
1.221280e+003, 1.702461e+000
1.221762e+003, 1.630961e+000
1.222245e+003, 1.676675e+000
1.222727e+003, 1.758120e+000
1.223209e+003, 1.870017e+000
1.223691e+003, 2.083786e+000
1.224173e+003, 2.264960e+000
1.224655e+003, 2.168828e+000
1.225137e+003, 1.926576e+000
1.225619e+003, 1.797975e+000
1.226101e+003, 1.827801e+000
1.226584e+003, 1.949320e+000
1.227066e+003, 2.204745e+000
1.227548e+003, 2.355319e+000
1.228030e+003, 2.198206e+000
1.228512e+003, 2.078694e+000
1.228994e+003, 2.278231e+000
1.229476e+003, 2.436733e+000
1.229958e+003, 2.176357e+000
1.230441e+003, 1.727890e+000
1.230923e+003, 1.522435e+000
1.231405e+003, 1.550849e+000
1.231887e+003, 1.498785e+000
1.232369e+003, 1.252174e+000
1.232851e+003, 1.315585e+000
1.233333e+003, 1.843003e+000
1.233815e+003, 2.199402e+000
1.234297e+003, 2.171621e+000
1.234780e+003, 2.011559e+000
1.235262e+003, 1.876749e+000
1.235744e+003, 1.822943e+000
1.236226e+003, 1.984238e+000
1.236708e+003, 2.288893e+000
1.237190e+003, 2.209069e+000
1.237672e+003, 1.992827e+000
1.238154e+003, 3.282667e+000
1.238636e+003, 5.675790e+000
1.239119e+003, 6.395224e+000
1.239601e+003, 4.837477e+000
1.240083e+003, 3.043167e+000
1.240565e+003, 2.247084e+000
1.241047e+003, 1.934273e+000
1.241529e+003, 1.702873e+000
1.242011e+003, 1.614255e+000
1.242493e+003, 1.849074e+000
1.242975e+003, 2.165282e+000
1.243458e+003, 2.240973e+000
1.243940e+003, 2.165691e+000
1.244422e+003, 2.207368e+000
1.244904e+003, 2.397381e+000
1.245386e+003, 2.502301e+000
1.245868e+003, 2.418022e+000
1.246350e+003, 2.325674e+000
1.246832e+003, 2.246472e+000
1.247315e+003, 2.174695e+000
1.247797e+003, 2.044716e+000
1.248279e+003, 2.003066e+000
1.248761e+003, 2.213033e+000
1.249243e+003, 2.520499e+000
1.249725e+003, 2.650007e+000
1.250207e+003, 2.608234e+000
1.250689e+003, 2.500925e+000
1.251172e+003, 2.315055e+000
1.251654e+003, 2.224398e+000
1.252136e+003, 2.246711e+000
1.252618e+003, 2.199925e+000
1.253100e+003, 2.030040e+000
1.253582e+003, 1.906315e+000
1.254064e+003, 1.947923e+000
1.254546e+003, 2.067163e+000
1.255028e+003, 2.164740e+000
1.255510e+003, 2.239137e+000
1.255993e+003, 2.308575e+000
1.256475e+003, 2.340043e+000
1.256957e+003, 2.229264e+000
1.257439e+003, 2.037234e+000
1.257921e+003, 1.907217e+000
1.258403e+003, 1.873562e+000
1.258885e+003, 1.924752e+000
1.259367e+003, 2.103231e+000
1.259850e+003, 2.183545e+000
1.260332e+003, 1.942327e+000
1.260814e+003, 1.734795e+000
1.261296e+003, 1.741372e+000
1.261778e+003, 1.833191e+000
1.262260e+003, 1.975761e+000
1.262742e+003, 2.096710e+000
1.263224e+003, 2.044697e+000
1.263707e+003, 1.856500e+000
1.264189e+003, 1.857490e+000
1.264671e+003, 2.145624e+000
1.265153e+003, 2.273668e+000
1.265635e+003, 2.189480e+000
1.266117e+003, 2.192811e+000
1.266599e+003, 2.377683e+000
1.267081e+003, 2.447375e+000
1.267563e+003, 2.224511e+000
1.268046e+003, 1.915615e+000
1.268528e+003, 1.750291e+000
1.269010e+003, 1.705115e+000
1.269492e+003, 1.735399e+000
1.269974e+003, 1.835306e+000
1.270456e+003, 2.059670e+000
1.270938e+003, 2.322518e+000
1.271420e+003, 2.346808e+000
1.271902e+003, 2.167744e+000
1.272385e+003, 2.142193e+000
1.272867e+003, 2.406990e+000
1.273349e+003, 2.547111e+000
1.273831e+003, 2.138960e+000
1.274313e+003, 1.789623e+000
1.274795e+003, 1.847099e+000
1.275277e+003, 2.012982e+000
1.275759e+003, 2.187601e+000
1.276242e+003, 2.283598e+000
1.276724e+003, 2.131922e+000
1.277206e+003, 1.842103e+000
1.277688e+003, 1.794307e+000
1.278170e+003, 2.032177e+000
1.278652e+003, 2.095542e+000
1.279134e+003, 1.902242e+000
1.279616e+003, 1.854387e+000
1.280099e+003, 2.034280e+000
1.280581e+003, 2.129651e+000
1.281063e+003, 2.016621e+000
1.281545e+003, 1.892404e+000
1.282027e+003, 1.913478e+000
1.282509e+003, 2.010561e+000
1.282991e+003, 2.079657e+000
1.283473e+003, 2.128465e+000
1.283955e+003, 2.173622e+000
##END=



