##NAMES=Sassolite
##RRUFFID=R060224
##IDEAL CHEMISTRY=B(OH)_3_
##LOCALITY=Tuscany, Italy
##OWNER=RRUFF
##SOURCE=Marcus Origlieri
##DESCRIPTION=Colorless micaceous aggregate
##STATUS=The identification of this mineral has been confirmed only by single crystal X-ray diffraction.
##URL=rruff.info/R060224
92.07813, 478.8270
92.56024, 478.1658
93.04236, 478.7653
93.52448, 480.2750
94.00659, 481.4002
94.48871, 480.7390
94.97083, 479.1076
95.45294, 478.0353
95.93506, 476.8558
96.41718, 477.9318
96.89929, 488.6335
97.38141, 509.0455
97.86353, 526.6080
98.34564, 529.8745
98.82776, 519.5012
99.30988, 511.2867
99.79199, 507.1786
100.2741, 507.1947
100.7562, 512.9509
101.2383, 526.6623
101.7205, 540.0003
102.2026, 544.2773
102.6847, 536.5395
103.1668, 531.0366
103.6489, 531.0851
104.1310, 536.7994
104.6132, 542.9158
105.0953, 550.2706
105.5774, 557.1824
106.0595, 561.5446
106.5416, 563.3085
107.0237, 562.5820
107.5059, 558.4549
107.9880, 548.5319
108.4701, 542.7573
108.9522, 542.3173
109.4343, 545.7669
109.9164, 550.5164
110.3986, 559.2052
110.8807, 566.9037
111.3628, 571.8700
111.8449, 570.2291
112.3270, 572.0394
112.8091, 577.1317
113.2913, 586.0195
113.7734, 600.0370
114.2555, 620.9470
114.7376, 646.2725
115.2197, 674.4981
115.7018, 705.5979
116.1840, 739.5115
116.6661, 774.3665
117.1482, 811.0813
117.6303, 854.2344
118.1124, 906.4700
118.5945, 966.1295
119.0767, 1031.224
119.5588, 1099.649
120.0409, 1175.161
120.5230, 1257.978
121.0051, 1347.927
121.4872, 1450.254
121.9694, 1563.617
122.4515, 1691.323
122.9336, 1838.613
123.4157, 2005.649
123.8978, 2192.721
124.3799, 2397.354
124.8621, 2618.862
125.3442, 2865.655
125.8263, 3152.651
126.3084, 3471.539
126.7905, 3803.427
127.2726, 4141.262
127.7548, 4482.848
128.2369, 4824.210
128.7190, 5166.415
129.2011, 5502.999
129.6832, 5832.835
130.1653, 6151.271
130.6474, 6448.835
131.1296, 6712.662
131.6117, 6947.704
132.0938, 7177.913
132.5759, 7402.204
133.0580, 7629.981
133.5401, 7869.167
134.0223, 8120.292
134.5044, 8397.254
134.9865, 8709.669
135.4686, 9060.479
135.9507, 9438.253
136.4328, 9849.256
136.9150, 10289.30
137.3971, 10735.98
137.8792, 11191.33
138.3613, 11654.58
138.8434, 12133.46
139.3255, 12631.39
139.8077, 13108.91
140.2898, 13564.03
140.7719, 13993.35
141.2540, 14404.87
141.7361, 14795.58
142.2182, 15166.05
142.7004, 15515.09
143.1825, 15835.47
143.6646, 16146.08
144.1467, 16445.19
144.6288, 16737.05
145.1109, 17012.25
145.5931, 17268.33
146.0752, 17511.69
146.5573, 17753.63
147.0394, 17986.95
147.5215, 18227.23
148.0036, 18472.23
148.4858, 18723.88
148.9679, 18987.09
149.4500, 19258.79
149.9321, 19543.81
150.4142, 19843.25
150.8963, 20160.32
151.3785, 20494.32
151.8606, 20842.32
152.3427, 21216.27
152.8248, 21589.97
153.3069, 21959.13
153.7890, 22329.58
154.2712, 22643.91
154.7533, 22822.73
155.2354, 22985.94
155.7175, 23136.65
156.1996, 23268.85
156.6817, 23394.15
157.1639, 23516.61
157.6460, 23633.79
158.1281, 23737.65
158.6102, 23826.38
159.0923, 23902.06
159.5744, 23965.47
160.0566, 24011.70
160.5387, 24053.50
161.0208, 24096.39
161.5029, 24138.19
161.9850, 24171.83
162.4671, 24187.78
162.9493, 24199.85
163.4314, 24217.32
163.9135, 24244.32
164.3956, 24274.80
164.8777, 24303.57
165.3598, 24332.51
165.8420, 24370.07
166.3241, 24426.81
166.8062, 24490.12
167.2883, 24548.53
167.7704, 24594.41
168.2525, 24637.92
168.7346, 24685.09
169.2168, 24735.17
169.6989, 24785.47
170.1810, 24833.31
170.6631, 24880.47
171.1452, 24929.39
171.6273, 24980.52
172.1095, 25033.29
172.5916, 25091.41
173.0737, 25154.06
173.5558, 25210.24
174.0379, 25249.16
174.5201, 25276.81
175.0022, 25303.42
175.4843, 25331.58
175.9664, 25361.34
176.4485, 25393.72
176.9306, 25428.79
177.4128, 25460.79
177.8949, 25484.29
178.3770, 25500.73
178.8591, 25513.97
179.3412, 25525.46
179.8233, 25534.44
180.3055, 25538.54
180.7876, 25537.48
181.2697, 25536.39
181.7518, 25537.40
182.2339, 25542.01
182.7160, 25555.08
183.1982, 25586.72
183.6803, 25627.51
184.1624, 25654.29
184.6445, 25665.58
185.1266, 25673.37
185.6087, 25691.11
186.0909, 25717.62
186.5730, 25745.32
187.0551, 25771.97
187.5372, 25797.29
188.0193, 25820.49
188.5014, 25840.75
188.9836, 25860.92
189.4657, 25885.16
189.9478, 25912.75
190.4299, 25941.50
190.9120, 25970.08
191.3941, 25998.17
191.8763, 26026.94
192.3584, 26056.93
192.8405, 26085.06
193.3226, 26107.10
193.8047, 26122.97
194.2868, 26137.65
194.7690, 26155.29
195.2511, 26175.35
195.7332, 26188.24
196.2153, 26191.83
196.6974, 26193.68
197.1795, 26206.89
197.6617, 26232.44
198.1438, 26260.94
198.6259, 26290.03
199.1080, 26319.77
199.5901, 26343.35
200.0722, 26357.68
200.5544, 26370.35
201.0365, 26395.32
201.5186, 26433.64
202.0007, 26476.29
202.4828, 26520.90
202.9649, 26567.74
203.4471, 26607.12
203.9292, 26635.16
204.4113, 26660.05
204.8934, 26700.91
205.3755, 26761.33
205.8576, 26820.28
206.3398, 26867.73
206.8219, 26902.46
207.3040, 26933.44
207.7861, 26960.45
208.2682, 26983.99
208.7503, 27005.46
209.2325, 27025.77
209.7146, 27041.41
210.1967, 27052.21
210.6788, 27059.88
211.1609, 27055.01
211.6430, 27034.74
212.1252, 27004.34
212.6073, 26975.38
213.0894, 26948.72
213.5715, 26922.27
214.0536, 26896.01
214.5357, 26871.35
215.0179, 26840.26
215.5000, 26797.77
215.9821, 26751.62
216.4642, 26719.94
216.9463, 26707.10
217.4284, 26699.40
217.9105, 26691.40
218.3927, 26683.33
218.8748, 26673.68
219.3569, 26660.88
219.8390, 26647.18
220.3211, 26636.99
220.8032, 26629.63
221.2854, 26626.99
221.7675, 26631.04
222.2496, 26645.35
222.7317, 26654.50
223.2138, 26656.04
223.6959, 26653.41
224.1781, 26654.21
224.6602, 26659.13
225.1423, 26666.13
225.6244, 26675.03
226.1065, 26688.18
226.5886, 26696.01
227.0708, 26696.33
227.5529, 26692.38
228.0350, 26691.03
228.5171, 26694.20
228.9992, 26696.79
229.4813, 26696.93
229.9635, 26694.08
230.4456, 26690.90
230.9277, 26688.41
231.4098, 26685.41
231.8919, 26678.72
232.3740, 26664.92
232.8562, 26653.55
233.3383, 26648.26
233.8204, 26650.56
234.3025, 26654.93
234.7846, 26663.58
235.2667, 26673.37
235.7489, 26677.81
236.2310, 26673.51
236.7131, 26669.83
237.1952, 26670.11
237.6773, 26675.64
238.1594, 26681.12
238.6416, 26685.21
239.1237, 26690.40
239.6058, 26700.84
240.0879, 26719.31
240.5700, 26738.86
241.0521, 26757.31
241.5343, 26773.88
242.0164, 26791.45
242.4985, 26809.73
242.9806, 26828.69
243.4627, 26847.81
243.9448, 26864.51
244.4270, 26884.88
244.9091, 26912.43
245.3912, 26949.97
245.8733, 26976.65
246.3554, 26988.32
246.8375, 26991.82
247.3197, 26995.38
247.8018, 26996.09
248.2839, 27002.07
248.7660, 27018.99
249.2481, 27050.34
249.7302, 27065.61
250.2124, 27055.91
250.6945, 27039.30
251.1766, 27037.74
251.6587, 27061.97
252.1408, 27081.26
252.6229, 27086.35
253.1051, 27075.99
253.5872, 27076.06
254.0693, 27090.30
254.5514, 27111.05
255.0335, 27131.61
255.5156, 27154.43
255.9978, 27170.52
256.4799, 27175.20
256.9620, 27168.39
257.4441, 27168.54
257.9262, 27176.94
258.4083, 27189.80
258.8904, 27203.84
259.3726, 27219.23
259.8547, 27235.57
260.3368, 27254.87
260.8189, 27276.18
261.3010, 27286.13
261.7831, 27280.72
262.2653, 27270.36
262.7474, 27261.96
263.2295, 27253.65
263.7116, 27253.71
264.1937, 27266.71
264.6758, 27289.69
265.1580, 27305.46
265.6401, 27312.45
266.1222, 27315.66
266.6043, 27317.71
267.0864, 27317.70
267.5685, 27320.14
268.0507, 27324.84
268.5328, 27332.67
269.0149, 27349.40
269.4970, 27381.39
269.9791, 27408.04
270.4612, 27414.13
270.9434, 27393.29
271.4255, 27382.41
271.9076, 27385.39
272.3897, 27398.23
272.8718, 27410.64
273.3539, 27421.49
273.8361, 27434.18
274.3182, 27451.42
274.8003, 27473.86
275.2824, 27492.53
275.7645, 27506.25
276.2466, 27516.19
276.7288, 27523.74
277.2109, 27527.78
277.6930, 27533.79
278.1751, 27545.53
278.6572, 27563.57
279.1393, 27578.19
279.6215, 27589.28
280.1036, 27598.10
280.5857, 27606.65
281.0678, 27615.37
281.5499, 27623.20
282.0320, 27631.18
282.5142, 27639.13
282.9963, 27639.71
283.4784, 27631.65
283.9605, 27620.59
284.4426, 27610.70
284.9247, 27601.76
285.4069, 27602.53
285.8890, 27621.20
286.3711, 27652.23
286.8532, 27666.01
287.3353, 27659.40
287.8174, 27652.07
288.2996, 27668.67
288.7817, 27706.88
289.2638, 27738.77
289.7459, 27754.12
290.2280, 27759.63
290.7101, 27774.65
291.1923, 27799.73
291.6744, 27827.42
292.1565, 27852.88
292.6386, 27875.99
293.1207, 27896.18
293.6028, 27912.34
294.0850, 27926.04
294.5671, 27941.82
295.0492, 27959.14
295.5313, 27973.73
296.0134, 27979.12
296.4955, 27978.60
296.9777, 27982.64
297.4598, 27993.52
297.9419, 28007.29
298.4240, 28019.13
298.9061, 28029.19
299.3882, 28038.11
299.8704, 28049.90
300.3525, 28060.79
300.8346, 28060.51
301.3167, 28045.60
301.7988, 28032.08
302.2809, 28041.57
302.7631, 28067.79
303.2452, 28091.68
303.7273, 28098.44
304.2094, 28099.33
304.6915, 28109.96
305.1736, 28131.79
305.6558, 28156.67
306.1379, 28180.60
306.6200, 28202.12
307.1021, 28218.47
307.5842, 28217.77
308.0663, 28217.33
308.5485, 28239.12
309.0306, 28281.89
309.5127, 28318.93
309.9948, 28324.91
310.4769, 28315.83
310.9590, 28312.21
311.4412, 28323.68
311.9233, 28339.38
312.4054, 28353.22
312.8875, 28365.29
313.3696, 28375.66
313.8517, 28382.77
314.3339, 28389.28
314.8160, 28398.49
315.2981, 28416.47
315.7802, 28430.03
316.2623, 28429.82
316.7444, 28420.52
317.2266, 28413.66
317.7087, 28412.36
318.1908, 28416.96
318.6729, 28429.29
319.1550, 28453.71
319.6371, 28474.69
320.1193, 28484.26
320.6014, 28487.07
321.0835, 28490.93
321.5656, 28496.40
322.0477, 28503.90
322.5298, 28514.14
323.0120, 28527.62
323.4941, 28538.99
323.9762, 28544.40
324.4583, 28547.71
324.9404, 28553.14
325.4225, 28561.31
325.9047, 28572.02
326.3868, 28585.62
326.8689, 28602.57
327.3510, 28621.82
327.8331, 28651.62
328.3152, 28679.72
328.7974, 28697.64
329.2795, 28691.42
329.7616, 28692.04
330.2437, 28705.05
330.7258, 28727.89
331.2079, 28746.79
331.6901, 28758.85
332.1722, 28769.34
332.6543, 28780.70
333.1364, 28793.83
333.6185, 28804.56
334.1006, 28810.18
334.5828, 28813.43
335.0649, 28820.71
335.5470, 28831.47
336.0291, 28846.68
336.5112, 28868.25
336.9933, 28898.85
337.4755, 28922.91
337.9576, 28939.71
338.4397, 28950.95
338.9218, 28957.50
339.4039, 28957.33
339.8860, 28960.38
340.3681, 28970.23
340.8503, 28986.56
341.3324, 29003.53
341.8145, 29023.31
342.2966, 29038.57
342.7787, 29038.63
343.2608, 29022.42
343.7430, 29016.28
344.2251, 29028.98
344.7072, 29052.56
345.1893, 29061.01
345.6714, 29053.06
346.1535, 29046.52
346.6357, 29054.55
347.1178, 29075.37
347.5999, 29100.36
348.0820, 29131.24
348.5641, 29159.64
349.0462, 29167.59
349.5284, 29157.91
350.0105, 29153.22
350.4926, 29172.15
350.9747, 29203.47
351.4568, 29221.30
351.9389, 29223.61
352.4211, 29221.29
352.9032, 29223.91
353.3853, 29230.55
353.8674, 29238.91
354.3495, 29250.03
354.8316, 29261.54
355.3138, 29271.07
355.7959, 29278.80
356.2780, 29284.90
356.7601, 29288.05
357.2422, 29290.45
357.7243, 29294.80
358.2065, 29301.77
358.6886, 29311.15
359.1707, 29324.80
359.6528, 29341.06
360.1349, 29354.98
360.6170, 29358.17
361.0992, 29361.61
361.5813, 29373.76
362.0634, 29397.62
362.5455, 29422.93
363.0276, 29446.09
363.5097, 29467.57
363.9919, 29488.22
364.4740, 29510.02
364.9561, 29529.00
365.4382, 29543.43
365.9203, 29553.00
366.4024, 29559.75
366.8846, 29560.83
367.3667, 29561.08
367.8488, 29564.43
368.3309, 29577.09
368.8130, 29586.83
369.2951, 29593.59
369.7773, 29597.12
370.2594, 29594.81
370.7415, 29579.91
371.2236, 29566.13
371.7057, 29559.50
372.1878, 29561.46
372.6700, 29568.77
373.1521, 29584.01
373.6342, 29603.49
374.1163, 29619.94
374.5984, 29632.10
375.0805, 29642.98
375.5627, 29653.07
376.0448, 29662.08
376.5269, 29671.25
377.0090, 29679.42
377.4911, 29689.16
377.9732, 29705.29
378.4554, 29729.31
378.9375, 29747.88
379.4196, 29757.28
379.9017, 29759.64
380.3838, 29763.41
380.8659, 29769.05
381.3481, 29773.44
381.8302, 29772.70
382.3123, 29768.10
382.7944, 29768.71
383.2765, 29777.16
383.7586, 29787.85
384.2408, 29791.55
384.7229, 29789.48
385.2050, 29788.21
385.6871, 29789.02
386.1692, 29793.59
386.6513, 29806.76
387.1335, 29828.85
387.6156, 29852.82
388.0977, 29869.08
388.5798, 29882.45
389.0619, 29902.61
389.5440, 29937.77
390.0262, 29975.13
390.5083, 30003.99
390.9904, 30025.13
391.4725, 30041.95
391.9546, 30052.10
392.4367, 30060.75
392.9189, 30073.82
393.4010, 30095.87
393.8831, 30113.04
394.3652, 30112.67
394.8473, 30103.88
395.3294, 30101.68
395.8116, 30116.23
396.2937, 30134.20
396.7758, 30150.98
397.2579, 30166.32
397.7400, 30180.65
398.2221, 30194.83
398.7043, 30207.53
399.1864, 30217.55
399.6685, 30220.50
400.1506, 30225.57
400.6327, 30238.12
401.1148, 30254.75
401.5970, 30258.46
402.0791, 30235.73
402.5612, 30215.71
403.0433, 30213.33
403.5254, 30240.21
404.0075, 30252.40
404.4897, 30243.22
404.9718, 30226.23
405.4539, 30223.43
405.9360, 30240.69
406.4181, 30255.44
406.9002, 30260.71
407.3824, 30257.73
407.8645, 30256.76
408.3466, 30257.37
408.8287, 30260.90
409.3108, 30268.20
409.7929, 30278.93
410.2751, 30293.18
410.7572, 30311.25
411.2393, 30331.18
411.7214, 30348.56
412.2035, 30363.52
412.6856, 30379.60
413.1678, 30400.29
413.6499, 30423.22
414.1320, 30445.56
414.6141, 30468.14
415.0962, 30484.56
415.5783, 30483.53
416.0605, 30473.44
416.5426, 30469.85
417.0247, 30484.30
417.5068, 30502.93
417.9889, 30514.01
418.4710, 30518.77
418.9532, 30522.75
419.4353, 30526.01
419.9174, 30530.96
420.3995, 30539.04
420.8816, 30549.72
421.3637, 30564.17
421.8459, 30584.06
422.3280, 30606.77
422.8101, 30628.88
423.2922, 30650.88
423.7743, 30669.69
424.2564, 30684.57
424.7386, 30695.50
425.2207, 30701.08
425.7028, 30699.59
426.1849, 30694.30
426.6670, 30687.15
427.1491, 30673.96
427.6313, 30667.34
428.1134, 30670.45
428.5955, 30680.99
429.0776, 30692.74
429.5597, 30708.39
430.0418, 30721.36
430.5240, 30728.88
431.0061, 30730.69
431.4882, 30731.74
431.9703, 30731.63
432.4524, 30731.20
432.9345, 30728.88
433.4167, 30724.13
433.8988, 30728.47
434.3809, 30746.78
434.8630, 30773.29
435.3451, 30795.51
435.8272, 30813.35
436.3094, 30827.07
436.7915, 30833.68
437.2736, 30836.63
437.7557, 30843.69
438.2378, 30855.54
438.7199, 30872.22
439.2020, 30901.18
439.6841, 30934.83
440.1663, 30957.54
440.6484, 30948.74
441.1305, 30936.75
441.6126, 30948.49
442.0947, 30980.16
442.5768, 31008.79
443.0590, 31020.42
443.5411, 31024.98
444.0232, 31029.24
444.5053, 31032.09
444.9874, 31039.24
445.4695, 31057.81
445.9517, 31080.45
446.4338, 31095.60
446.9159, 31089.79
447.3980, 31087.39
447.8801, 31097.25
448.3622, 31120.54
448.8444, 31139.29
449.3265, 31149.80
449.8086, 31159.41
450.2907, 31173.67
450.7728, 31198.10
451.2549, 31216.39
451.7371, 31228.21
452.2192, 31233.64
452.7013, 31229.62
453.1834, 31212.21
453.6655, 31201.05
454.1476, 31206.96
454.6298, 31227.82
455.1119, 31239.59
455.5940, 31240.49
456.0761, 31240.23
456.5582, 31246.10
457.0403, 31258.16
457.5225, 31279.34
458.0046, 31312.98
458.4867, 31349.21
458.9688, 31370.46
459.4509, 31379.93
459.9330, 31390.79
460.4152, 31418.77
460.8973, 31448.07
461.3794, 31456.05
461.8615, 31441.31
462.3436, 31426.56
462.8257, 31425.89
463.3079, 31433.81
463.7900, 31444.24
464.2721, 31458.69
464.7542, 31471.79
465.2363, 31481.66
465.7184, 31488.74
466.2006, 31494.03
466.6827, 31497.30
467.1648, 31499.55
467.6469, 31501.52
468.1290, 31503.86
468.6111, 31503.83
469.0933, 31496.49
469.5754, 31490.24
470.0575, 31492.82
470.5396, 31508.64
471.0217, 31524.33
471.5038, 31536.95
471.9860, 31548.91
472.4681, 31570.81
472.9502, 31606.73
473.4323, 31638.74
473.9144, 31655.31
474.3965, 31657.03
474.8787, 31664.64
475.3608, 31678.63
475.8429, 31694.76
476.3250, 31709.25
476.8071, 31721.74
477.2892, 31730.72
477.7714, 31733.88
478.2535, 31735.73
478.7356, 31743.07
479.2177, 31755.07
479.6998, 31767.82
480.1819, 31781.88
480.6641, 31794.48
481.1462, 31800.92
481.6283, 31800.63
482.1104, 31803.27
482.5925, 31817.42
483.0746, 31836.71
483.5568, 31854.60
484.0389, 31860.76
484.5210, 31874.93
485.0031, 31907.07
485.4852, 31952.02
485.9673, 31994.65
486.4495, 32032.81
486.9316, 32067.11
487.4137, 32096.48
487.8958, 32119.11
488.3779, 32143.55
488.8600, 32168.59
489.3422, 32195.67
489.8243, 32227.00
490.3064, 32263.22
490.7885, 32298.72
491.2706, 32333.01
491.7527, 32365.50
492.2349, 32395.25
492.7170, 32421.82
493.1991, 32448.88
493.6812, 32475.32
494.1633, 32503.48
494.6454, 32545.93
495.1276, 32603.26
495.6097, 32663.09
496.0918, 32711.94
496.5739, 32755.21
497.0560, 32802.32
497.5381, 32857.94
498.0203, 32914.79
498.5024, 32974.68
498.9845, 33031.30
499.4666, 33072.16
499.9487, 33093.25
500.4308, 33094.90
500.9130, 33079.83
501.3951, 33048.20
501.8772, 32989.20
502.3593, 32871.29
502.8414, 32744.05
503.3235, 32638.57
503.8057, 32564.13
504.2878, 32505.15
504.7699, 32466.33
505.2520, 32440.26
505.7341, 32414.10
506.2162, 32383.25
506.6984, 32360.30
507.1805, 32348.34
507.6626, 32346.73
508.1447, 32354.12
508.6268, 32372.54
509.1089, 32391.17
509.5911, 32401.62
510.0732, 32404.58
510.5553, 32408.57
511.0374, 32414.57
511.5195, 32420.95
512.0016, 32425.92
512.4838, 32429.81
512.9659, 32433.52
513.4480, 32440.46
513.9301, 32445.05
514.4122, 32437.18
514.8943, 32420.25
515.3765, 32408.05
515.8586, 32415.50
516.3407, 32425.99
516.8228, 32424.69
517.3049, 32406.82
517.7870, 32393.58
518.2692, 32393.57
518.7513, 32400.95
519.2334, 32410.24
519.7155, 32424.01
520.1976, 32435.56
520.6797, 32444.81
521.1619, 32451.49
521.6440, 32453.74
522.1261, 32446.42
522.6082, 32444.43
523.0903, 32455.05
523.5724, 32478.81
524.0546, 32497.61
524.5367, 32510.63
525.0188, 32521.91
525.5009, 32535.24
525.9830, 32550.51
526.4651, 32563.38
526.9473, 32571.22
527.4294, 32582.13
527.9115, 32614.65
528.3936, 32661.17
528.8757, 32697.53
529.3578, 32703.68
529.8400, 32698.98
530.3221, 32699.59
530.8042, 32705.59
531.2863, 32718.87
531.7684, 32745.93
532.2505, 32776.51
532.7327, 32803.11
533.2148, 32824.34
533.6969, 32841.56
534.1790, 32853.02
534.6611, 32861.54
535.1432, 32870.20
535.6254, 32885.65
536.1075, 32894.00
536.5896, 32890.96
537.0717, 32880.63
537.5538, 32876.98
538.0359, 32883.30
538.5181, 32889.71
539.0002, 32890.23
539.4823, 32885.36
539.9644, 32893.68
540.4465, 32917.71
540.9286, 32942.66
541.4108, 32950.23
541.8929, 32945.55
542.3750, 32952.55
542.8571, 32977.76
543.3392, 33007.44
543.8214, 33027.11
544.3035, 33038.33
544.7856, 33045.99
545.2677, 33048.30
545.7498, 33050.83
546.2319, 33054.54
546.7141, 33060.64
547.1962, 33076.27
547.6783, 33117.78
548.1604, 33159.07
548.6425, 33184.80
549.1246, 33187.09
549.6068, 33192.01
550.0889, 33208.31
550.5710, 33224.23
551.0531, 33228.38
551.5352, 33214.71
552.0173, 33201.39
552.4995, 33187.65
552.9816, 33177.48
553.4637, 33184.17
553.9458, 33210.58
554.4279, 33235.11
554.9100, 33250.24
555.3922, 33256.58
555.8743, 33252.31
556.3564, 33237.59
556.8385, 33225.18
557.3206, 33225.13
557.8027, 33234.38
558.2849, 33249.16
558.7670, 33270.18
559.2491, 33290.50
559.7312, 33307.87
560.2133, 33320.25
560.6954, 33324.70
561.1776, 33304.71
561.6597, 33292.50
562.1418, 33306.39
562.6239, 33338.16
563.1060, 33357.76
563.5881, 33350.23
564.0703, 33340.59
564.5524, 33334.57
565.0345, 33331.88
565.5166, 33338.56
565.9987, 33360.25
566.4808, 33382.04
566.9630, 33391.43
567.4451, 33387.32
567.9272, 33385.47
568.4093, 33387.33
568.8914, 33391.53
569.3735, 33395.51
569.8557, 33400.07
570.3378, 33408.73
570.8199, 33424.15
571.3020, 33442.95
571.7841, 33464.89
572.2662, 33487.36
572.7484, 33500.75
573.2305, 33485.18
573.7126, 33469.57
574.1947, 33477.93
574.6768, 33513.36
575.1589, 33543.68
575.6411, 33555.23
576.1232, 33559.55
576.6053, 33564.13
577.0874, 33567.00
577.5695, 33574.20
578.0516, 33591.62
578.5338, 33609.08
579.0159, 33607.36
579.4980, 33575.84
579.9801, 33565.09
580.4622, 33593.63
580.9443, 33646.23
581.4265, 33675.65
581.9086, 33682.04
582.3907, 33679.13
582.8728, 33667.67
583.3549, 33654.35
583.8370, 33656.64
584.3192, 33674.55
584.8013, 33690.10
585.2834, 33682.59
585.7655, 33669.10
586.2476, 33668.86
586.7297, 33687.89
587.2118, 33714.18
587.6939, 33756.97
588.1760, 33799.07
588.6581, 33818.57
589.1403, 33785.00
589.6224, 33759.46
590.1045, 33752.71
590.5866, 33759.90
591.0687, 33765.42
591.5508, 33768.29
592.0330, 33771.27
592.5151, 33775.80
592.9972, 33781.65
593.4793, 33785.30
593.9614, 33786.57
594.4435, 33788.58
594.9257, 33796.02
595.4078, 33806.72
595.8899, 33813.75
596.3720, 33816.60
596.8541, 33816.68
597.3362, 33810.19
597.8184, 33803.45
598.3005, 33806.16
598.7826, 33825.61
599.2647, 33849.82
599.7468, 33876.04
600.2289, 33902.75
600.7111, 33926.74
601.1932, 33948.98
601.6753, 33965.20
602.1574, 33969.59
602.6395, 33963.17
603.1216, 33967.77
603.6038, 33988.62
604.0859, 34009.27
604.5680, 34020.25
605.0501, 34020.54
605.5322, 34021.38
606.0143, 34022.35
606.4965, 34024.55
606.9786, 34029.09
607.4607, 34035.91
607.9428, 34046.70
608.4249, 34065.02
608.9070, 34079.06
609.3892, 34069.30
609.8713, 34048.13
610.3534, 34038.11
610.8355, 34066.61
611.3176, 34091.44
611.7997, 34086.96
612.2819, 34061.47
612.7640, 34046.43
613.2461, 34058.49
613.7282, 34071.80
614.2103, 34078.14
614.6924, 34077.06
615.1746, 34073.62
615.6567, 34066.84
616.1388, 34059.02
616.6209, 34050.07
617.1030, 34039.86
617.5851, 34037.46
618.0673, 34044.63
618.5494, 34055.02
619.0315, 34064.13
619.5136, 34070.90
619.9957, 34070.09
620.4778, 34056.51
620.9600, 34043.80
621.4421, 34045.85
621.9242, 34058.19
622.4063, 34071.60
622.8884, 34083.18
623.3705, 34093.74
623.8527, 34102.42
624.3348, 34109.24
624.8169, 34117.04
625.2990, 34124.55
625.7811, 34133.59
626.2632, 34145.46
626.7454, 34160.46
627.2275, 34170.48
627.7096, 34174.68
628.1917, 34176.45
628.6738, 34178.96
629.1559, 34182.38
629.6381, 34184.13
630.1202, 34184.25
630.6023, 34184.52
631.0844, 34189.24
631.5665, 34195.70
632.0486, 34196.43
632.5308, 34182.41
633.0129, 34174.62
633.4950, 34194.31
633.9771, 34229.70
634.4592, 34258.48
634.9413, 34271.85
635.4235, 34278.71
635.9056, 34274.63
636.3877, 34262.84
636.8698, 34266.41
637.3519, 34290.26
637.8340, 34320.59
638.3162, 34355.24
638.7983, 34393.83
639.2804, 34414.22
639.7625, 34414.32
640.2446, 34407.74
640.7267, 34405.41
641.2089, 34405.49
641.6910, 34401.09
642.1731, 34391.29
642.6552, 34381.82
643.1373, 34379.87
643.6194, 34381.49
644.1016, 34380.91
644.5837, 34373.75
645.0658, 34370.36
645.5479, 34378.15
646.0300, 34392.57
646.5121, 34405.79
646.9943, 34422.91
647.4764, 34431.38
647.9585, 34424.16
648.4406, 34407.36
648.9227, 34404.10
649.4048, 34417.74
649.8870, 34431.55
650.3691, 34437.65
650.8512, 34437.98
651.3333, 34441.34
651.8154, 34447.43
652.2975, 34457.45
652.7797, 34475.02
653.2618, 34495.75
653.7439, 34514.75
654.2260, 34531.56
654.7081, 34544.09
655.1902, 34552.42
655.6724, 34555.23
656.1545, 34550.73
656.6366, 34533.84
657.1187, 34519.87
657.6008, 34509.30
658.0829, 34504.07
658.5651, 34506.79
659.0472, 34519.42
659.5293, 34535.77
660.0114, 34557.24
660.4935, 34579.22
660.9756, 34593.35
661.4578, 34599.46
661.9399, 34596.68
662.4220, 34578.37
662.9041, 34557.23
663.3862, 34554.92
663.8683, 34567.80
664.3505, 34581.43
664.8326, 34587.55
665.3147, 34591.80
665.7968, 34598.71
666.2789, 34608.36
666.7610, 34615.33
667.2432, 34615.57
667.7253, 34615.52
668.2074, 34618.13
668.6895, 34623.69
669.1716, 34630.01
669.6537, 34635.37
670.1359, 34644.52
670.6180, 34668.41
671.1001, 34705.52
671.5822, 34715.59
672.0643, 34690.86
672.5464, 34657.45
673.0286, 34642.60
673.5107, 34642.73
673.9928, 34652.48
674.4749, 34677.75
674.9570, 34697.39
675.4391, 34690.82
675.9213, 34670.12
676.4034, 34655.14
676.8855, 34658.93
677.3676, 34661.14
677.8497, 34657.77
678.3318, 34649.75
678.8140, 34638.42
679.2961, 34620.73
679.7782, 34606.80
680.2603, 34598.55
680.7424, 34596.96
681.2245, 34610.08
681.7067, 34638.23
682.1888, 34662.00
682.6709, 34668.20
683.1530, 34662.79
683.6351, 34654.04
684.1172, 34642.71
684.5994, 34631.20
685.0815, 34618.46
685.5636, 34608.30
686.0457, 34603.18
686.5278, 34603.30
687.0099, 34609.95
687.4921, 34625.50
687.9742, 34646.38
688.4563, 34670.73
688.9384, 34699.82
689.4205, 34727.45
689.9026, 34753.26
690.3848, 34777.19
690.8669, 34800.03
691.3490, 34821.29
691.8311, 34837.63
692.3132, 34847.90
692.7953, 34852.73
693.2775, 34849.08
693.7596, 34840.69
694.2417, 34835.46
694.7238, 34841.83
695.2059, 34846.43
695.6880, 34839.54
696.1702, 34826.27
696.6523, 34820.44
697.1344, 34822.95
697.6165, 34835.94
698.0986, 34867.39
698.5807, 34911.18
699.0629, 34927.87
699.5450, 34911.05
700.0271, 34898.60
700.5092, 34917.18
700.9913, 34953.60
701.4734, 34959.67
701.9556, 34937.16
702.4377, 34910.11
702.9198, 34891.25
703.4019, 34879.20
703.8840, 34874.12
704.3661, 34876.18
704.8483, 34878.07
705.3304, 34874.36
705.8125, 34871.48
706.2946, 34874.99
706.7767, 34889.75
707.2589, 34897.08
707.7410, 34893.93
708.2231, 34887.91
708.7052, 34885.32
709.1873, 34886.14
709.6694, 34890.05
710.1516, 34897.54
710.6337, 34905.51
711.1158, 34908.49
711.5979, 34909.15
712.0800, 34913.60
712.5621, 34924.31
713.0443, 34937.14
713.5264, 34952.85
714.0085, 34967.96
714.4906, 34977.64
714.9727, 34974.73
715.4548, 34973.40
715.9370, 34974.88
716.4191, 34979.74
716.9012, 34990.99
717.3833, 35012.02
717.8654, 35027.23
718.3475, 35031.19
718.8297, 35027.58
719.3118, 35023.99
719.7939, 35020.81
720.2760, 35021.27
720.7581, 35027.02
721.2402, 35036.99
721.7224, 35053.05
722.2045, 35073.02
722.6866, 35087.68
723.1687, 35082.49
723.6508, 35080.56
724.1329, 35098.12
724.6151, 35135.53
725.0972, 35154.15
725.5793, 35143.87
726.0614, 35131.67
726.5435, 35132.28
727.0256, 35145.18
727.5078, 35151.46
727.9899, 35150.69
728.4720, 35151.30
728.9541, 35164.67
729.4362, 35182.64
729.9183, 35191.85
730.4005, 35191.05
730.8826, 35179.11
731.3647, 35136.00
731.8468, 35093.53
732.3289, 35080.70
732.8110, 35116.55
733.2932, 35142.56
733.7753, 35151.12
734.2574, 35152.01
734.7395, 35152.38
735.2216, 35151.70
735.7037, 35156.52
736.1859, 35170.61
736.6680, 35180.96
737.1501, 35162.43
737.6322, 35126.23
738.1143, 35109.88
738.5964, 35126.55
739.0786, 35149.46
739.5607, 35155.19
740.0428, 35153.81
740.5249, 35159.14
741.0070, 35191.43
741.4891, 35210.33
741.9713, 35194.13
742.4534, 35165.95
742.9355, 35161.87
743.4176, 35192.65
743.8997, 35211.20
744.3818, 35203.93
744.8640, 35185.82
745.3461, 35188.42
745.8282, 35209.05
746.3103, 35232.02
746.7924, 35256.28
747.2745, 35273.86
747.7567, 35270.40
748.2388, 35253.55
748.7209, 35242.55
749.2030, 35252.80
749.6851, 35261.93
750.1672, 35261.16
750.6494, 35253.05
751.1315, 35245.68
751.6136, 35235.15
752.0957, 35236.36
752.5778, 35261.07
753.0599, 35299.25
753.5421, 35308.93
754.0242, 35291.58
754.5063, 35272.87
754.9884, 35262.20
755.4705, 35261.61
755.9526, 35280.56
756.4348, 35314.74
756.9169, 35341.18
757.3990, 35335.33
757.8811, 35331.05
758.3632, 35351.07
758.8453, 35395.74
759.3275, 35417.14
759.8096, 35401.24
760.2917, 35386.11
760.7738, 35393.09
761.2559, 35418.58
761.7380, 35424.11
762.2202, 35408.92
762.7023, 35398.21
763.1844, 35417.70
763.6665, 35449.70
764.1486, 35470.17
764.6307, 35477.79
765.1129, 35477.87
765.5950, 35467.53
766.0771, 35455.21
766.5592, 35445.80
767.0413, 35439.74
767.5234, 35436.73
768.0056, 35438.05
768.4877, 35440.43
768.9698, 35441.85
769.4519, 35442.45
769.9340, 35443.62
770.4161, 35445.63
770.8983, 35447.53
771.3804, 35446.25
771.8625, 35445.43
772.3446, 35452.73
772.8267, 35470.23
773.3088, 35484.16
773.7910, 35480.24
774.2731, 35474.77
774.7552, 35482.62
775.2373, 35516.15
775.7194, 35528.22
776.2015, 35504.93
776.6837, 35480.18
777.1658, 35486.98
777.6479, 35524.09
778.1300, 35549.95
778.6121, 35560.67
779.0942, 35566.98
779.5764, 35577.87
780.0585, 35592.45
780.5406, 35611.73
781.0227, 35639.14
781.5048, 35658.13
781.9869, 35648.40
782.4691, 35634.19
782.9512, 35638.66
783.4332, 35675.68
783.9153, 35704.18
784.3975, 35722.56
784.8796, 35733.53
785.3617, 35734.71
785.8438, 35727.64
786.3259, 35739.11
786.8080, 35777.14
787.2902, 35807.38
787.7723, 35780.39
788.2544, 35727.46
788.7365, 35694.20
789.2186, 35695.54
789.7007, 35704.73
790.1829, 35717.48
790.6650, 35731.01
791.1471, 35742.96
791.6292, 35756.81
792.1113, 35759.71
792.5934, 35745.30
793.0756, 35731.65
793.5577, 35747.48
794.0398, 35787.00
794.5219, 35813.46
795.0040, 35819.81
795.4861, 35816.46
795.9683, 35805.82
796.4504, 35794.82
796.9325, 35792.95
797.4146, 35807.44
797.8967, 35821.71
798.3788, 35827.21
798.8610, 35833.16
799.3431, 35850.48
799.8252, 35885.34
800.3073, 35907.21
800.7894, 35909.16
801.2715, 35907.88
801.7537, 35931.30
802.2358, 35970.55
802.7179, 35994.89
803.2000, 35995.79
803.6821, 35987.52
804.1642, 35974.55
804.6464, 35961.87
805.1285, 35955.46
805.6106, 35959.29
806.0927, 35966.08
806.5748, 35978.66
807.0569, 35991.38
807.5391, 35996.96
808.0212, 35993.86
808.5033, 35999.36
808.9854, 36017.32
809.4675, 36037.88
809.9496, 36052.01
810.4318, 36059.13
810.9139, 36055.39
811.3960, 36035.96
811.8781, 36019.86
812.3602, 36021.80
812.8423, 36030.55
813.3245, 36033.72
813.8066, 36016.99
814.2887, 36017.56
814.7708, 36044.45
815.2529, 36075.36
815.7350, 36083.83
816.2172, 36070.86
816.6993, 36059.96
817.1814, 36054.46
817.6635, 36048.77
818.1456, 36032.24
818.6277, 36014.17
819.1099, 36008.96
819.5920, 36024.26
820.0741, 36039.46
820.5562, 36043.44
821.0383, 36047.91
821.5204, 36064.07
822.0026, 36099.95
822.4847, 36124.67
822.9668, 36136.21
823.4489, 36140.22
823.9310, 36140.18
824.4131, 36136.79
824.8953, 36132.33
825.3774, 36126.33
825.8595, 36122.40
826.3416, 36122.66
826.8237, 36126.15
827.3058, 36134.00
827.7880, 36151.44
828.2701, 36155.65
828.7522, 36133.43
829.2343, 36111.11
829.7164, 36110.48
830.1985, 36134.29
830.6807, 36151.02
831.1628, 36160.36
831.6449, 36165.60
832.1270, 36169.27
832.6091, 36171.20
833.0912, 36170.64
833.5734, 36167.52
834.0555, 36162.18
834.5376, 36138.68
835.0197, 36124.82
835.5018, 36148.57
835.9839, 36219.95
836.4661, 36248.81
836.9482, 36219.52
837.4303, 36184.20
837.9124, 36181.54
838.3945, 36203.43
838.8766, 36207.00
839.3588, 36192.78
839.8409, 36183.09
840.3230, 36198.52
840.8051, 36223.20
841.2872, 36246.60
841.7693, 36268.05
842.2515, 36280.92
842.7336, 36277.55
843.2157, 36272.79
843.6978, 36270.68
844.1799, 36271.30
844.6620, 36279.48
845.1442, 36295.36
845.6263, 36310.36
846.1084, 36317.14
846.5905, 36320.27
847.0726, 36328.94
847.5547, 36341.13
848.0369, 36348.02
848.5190, 36338.38
849.0011, 36329.33
849.4832, 36331.87
849.9653, 36342.93
850.4474, 36343.67
850.9296, 36329.21
851.4117, 36321.07
851.8938, 36330.03
852.3759, 36347.89
852.8580, 36351.19
853.3401, 36343.20
853.8223, 36337.67
854.3044, 36342.81
854.7865, 36351.57
855.2686, 36358.38
855.7507, 36365.27
856.2328, 36377.44
856.7150, 36404.13
857.1971, 36423.96
857.6792, 36430.68
858.1613, 36431.20
858.6434, 36438.75
859.1255, 36453.06
859.6077, 36473.70
860.0898, 36500.29
860.5719, 36531.48
861.0540, 36566.25
861.5361, 36603.57
862.0182, 36643.14
862.5004, 36691.03
862.9825, 36730.11
863.4646, 36748.42
863.9467, 36759.18
864.4288, 36775.15
864.9109, 36796.48
865.3931, 36823.86
865.8752, 36859.20
866.3573, 36895.97
866.8394, 36928.21
867.3215, 36956.61
867.8036, 36981.02
868.2858, 37000.25
868.7679, 37024.96
869.2500, 37052.84
869.7321, 37095.02
870.2142, 37165.89
870.6964, 37278.71
871.1785, 37375.23
871.6606, 37450.22
872.1427, 37519.03
872.6248, 37582.75
873.1069, 37648.32
873.5891, 37751.82
874.0712, 37894.56
874.5533, 38042.55
875.0354, 38158.31
875.5175, 38278.59
875.9996, 38439.64
876.4818, 38644.63
876.9639, 38840.24
877.4460, 39018.21
877.9281, 39189.73
878.4102, 39361.14
878.8923, 39530.73
879.3745, 39691.26
879.8566, 39841.92
880.3387, 39953.64
880.8208, 40015.92
881.3029, 40026.81
881.7850, 39993.06
882.2672, 39907.60
882.7493, 39747.94
883.2314, 39446.52
883.7135, 39141.46
884.1956, 38863.33
884.6777, 38605.54
885.1599, 38345.62
885.6420, 38082.01
886.1241, 37843.80
886.6062, 37635.32
887.0883, 37462.35
887.5704, 37340.71
888.0526, 37256.90
888.5347, 37187.40
889.0168, 37122.24
889.4989, 37071.69
889.9810, 37054.61
890.4631, 37044.46
890.9453, 37007.77
891.4274, 36933.13
891.9095, 36883.64
892.3916, 36868.92
892.8737, 36862.21
893.3558, 36828.09
893.8380, 36780.55
894.3201, 36748.69
894.8022, 36738.39
895.2843, 36734.44
895.7664, 36739.23
896.2485, 36740.35
896.7307, 36725.45
897.2128, 36690.31
897.6949, 36667.50
898.1770, 36657.81
898.6591, 36657.65
899.1412, 36668.59
899.6234, 36686.27
900.1055, 36696.32
900.5876, 36699.75
901.0697, 36707.89
901.5518, 36738.95
902.0339, 36765.89
902.5161, 36768.35
902.9982, 36748.92
903.4803, 36738.08
903.9624, 36740.58
904.4445, 36740.70
904.9266, 36730.35
905.4088, 36717.80
905.8909, 36729.32
906.3730, 36758.41
906.8551, 36777.52
907.3372, 36767.98
907.8193, 36755.52
908.3015, 36757.57
908.7836, 36767.90
909.2657, 36776.21
909.7478, 36780.50
910.2299, 36784.02
910.7120, 36788.22
911.1942, 36789.68
911.6763, 36781.32
912.1584, 36765.70
912.6405, 36755.85
913.1226, 36754.53
913.6047, 36755.87
914.0869, 36761.95
914.5690, 36764.81
915.0511, 36753.74
915.5332, 36720.01
916.0153, 36705.46
916.4974, 36720.36
916.9796, 36739.13
917.4617, 36746.07
917.9438, 36742.93
918.4259, 36741.23
918.9080, 36740.91
919.3901, 36743.51
919.8723, 36753.90
920.3544, 36764.03
920.8365, 36767.08
921.3186, 36763.88
921.8007, 36760.29
922.2828, 36758.09
922.7650, 36753.64
923.2471, 36743.83
923.7292, 36733.38
924.2113, 36737.90
924.6934, 36754.64
925.1755, 36762.67
925.6577, 36748.80
926.1398, 36736.68
926.6219, 36753.15
927.1040, 36781.84
927.5861, 36799.52
928.0682, 36781.95
928.5504, 36783.73
929.0325, 36816.42
929.5146, 36851.64
929.9967, 36855.55
930.4788, 36832.79
930.9609, 36820.88
931.4431, 36823.18
931.9252, 36828.80
932.4073, 36833.79
932.8894, 36835.15
933.3715, 36824.70
933.8536, 36800.27
934.3358, 36801.15
934.8179, 36852.46
935.3000, 36890.17
935.7821, 36881.05
936.2642, 36839.01
936.7463, 36819.06
937.2285, 36819.61
937.7106, 36830.04
938.1927, 36855.86
938.6748, 36878.63
939.1569, 36878.79
939.6390, 36865.98
940.1212, 36862.82
940.6033, 36882.58
941.0854, 36891.63
941.5675, 36881.81
942.0496, 36866.32
942.5317, 36868.67
943.0139, 36884.02
943.4960, 36887.68
943.9781, 36873.62
944.4602, 36859.42
944.9423, 36855.43
945.4244, 36859.83
945.9066, 36873.73
946.3887, 36903.06
946.8708, 36919.32
947.3529, 36920.93
947.8350, 36914.03
948.3171, 36900.83
948.7993, 36882.50
949.2814, 36857.81
949.7635, 36829.25
950.2456, 36812.45
950.7277, 36825.91
951.2098, 36845.13
951.6920, 36855.74
952.1741, 36860.32
952.6562, 36870.52
953.1383, 36890.16
953.6204, 36904.58
954.1025, 36909.88
954.5847, 36909.97
955.0668, 36912.79
955.5489, 36915.67
956.0310, 36909.15
956.5131, 36884.85
956.9952, 36869.81
957.4774, 36889.17
957.9595, 36916.98
958.4416, 36930.02
958.9237, 36925.55
959.4058, 36915.75
959.8879, 36897.92
960.3701, 36888.51
960.8522, 36913.00
961.3343, 36950.20
961.8164, 36950.08
962.2985, 36918.14
962.7806, 36895.99
963.2628, 36913.86
963.7449, 36932.75
964.2270, 36930.65
964.7091, 36918.32
965.1912, 36935.13
965.6733, 36985.89
966.1555, 37014.59
966.6376, 37003.33
967.1197, 36972.48
967.6018, 36931.03
968.0839, 36894.79
968.5660, 36894.86
969.0482, 36967.52
969.5303, 37012.83
970.0124, 36993.00
970.4945, 36959.20
970.9766, 36948.58
971.4587, 36961.93
971.9409, 36970.35
972.4230, 36973.10
972.9051, 36975.63
973.3872, 36980.26
973.8693, 36987.16
974.3514, 36999.00
974.8336, 37013.86
975.3157, 37020.84
975.7978, 37003.41
976.2799, 37000.27
976.7620, 37024.59
977.2441, 37064.49
977.7263, 37094.43
978.2084, 37115.63
978.6905, 37131.57
979.1726, 37142.07
979.6547, 37152.73
980.1368, 37177.85
980.6190, 37200.84
981.1010, 37200.49
981.5831, 37163.61
982.0652, 37136.67
982.5474, 37118.06
983.0295, 37114.25
983.5116, 37142.63
983.9937, 37187.80
984.4758, 37199.91
984.9579, 37182.52
985.4401, 37171.16
985.9222, 37191.38
986.4043, 37214.74
986.8864, 37228.06
987.3685, 37233.36
987.8506, 37235.85
988.3328, 37234.30
988.8149, 37238.03
989.2970, 37250.98
989.7791, 37265.82
990.2612, 37273.47
990.7433, 37275.95
991.2255, 37275.93
991.7076, 37272.71
992.1897, 37271.36
992.6718, 37274.90
993.1539, 37278.76
993.6360, 37280.74
994.1182, 37280.71
994.6003, 37275.91
995.0824, 37266.14
995.5645, 37254.29
996.0466, 37236.12
996.5287, 37221.31
997.0109, 37224.46
997.4930, 37239.01
997.9751, 37240.18
998.4572, 37215.88
998.9393, 37195.63
999.4214, 37183.86
999.9036, 37179.43
1000.386, 37182.87
1000.868, 37192.32
1001.350, 37203.45
1001.832, 37217.32
1002.314, 37221.71
1002.796, 37198.77
1003.278, 37171.37
1003.760, 37157.68
1004.243, 37158.44
1004.725, 37158.63
1005.207, 37157.18
1005.689, 37159.18
1006.171, 37167.93
1006.653, 37180.67
1007.135, 37195.79
1007.617, 37211.10
1008.100, 37221.93
1008.582, 37220.05
1009.064, 37221.23
1009.546, 37230.25
1010.028, 37241.54
1010.510, 37249.67
1010.992, 37254.43
1011.474, 37249.16
1011.956, 37232.88
1012.439, 37213.96
1012.921, 37197.80
1013.403, 37184.66
1013.885, 37174.39
1014.367, 37167.74
1014.849, 37169.74
1015.331, 37185.71
1015.813, 37198.91
1016.296, 37201.73
1016.778, 37199.21
1017.260, 37199.71
1017.742, 37204.28
1018.224, 37216.50
1018.706, 37239.41
1019.188, 37265.43
1019.670, 37292.35
1020.152, 37318.44
1020.635, 37341.73
1021.117, 37361.18
1021.599, 37381.73
1022.081, 37404.24
1022.563, 37414.80
1023.045, 37389.10
1023.527, 37354.38
1024.009, 37348.08
1024.492, 37365.51
1024.974, 37367.78
1025.456, 37326.45
1025.938, 37301.02
1026.420, 37309.17
1026.902, 37333.93
1027.384, 37342.71
1027.866, 37339.26
1028.349, 37338.75
1028.831, 37346.38
1029.313, 37351.16
1029.795, 37346.95
1030.277, 37336.54
1030.759, 37319.03
1031.241, 37292.96
1031.723, 37283.73
1032.205, 37294.29
1032.688, 37302.55
1033.170, 37289.31
1033.652, 37271.75
1034.134, 37274.31
1034.616, 37293.27
1035.098, 37319.64
1035.580, 37364.86
1036.062, 37396.11
1036.544, 37406.12
1037.027, 37404.44
1037.509, 37400.49
1037.991, 37394.29
1038.473, 37388.52
1038.955, 37383.23
1039.437, 37376.39
1039.919, 37364.29
1040.401, 37352.09
1040.884, 37342.73
1041.366, 37336.68
1041.848, 37336.52
1042.330, 37346.12
1042.812, 37345.20
1043.294, 37322.76
1043.776, 37299.30
1044.258, 37314.59
1044.740, 37347.17
1045.223, 37356.04
1045.705, 37315.29
1046.187, 37298.69
1046.669, 37341.73
1047.151, 37384.07
1047.633, 37377.76
1048.115, 37332.54
1048.597, 37331.24
1049.079, 37369.53
1049.562, 37413.75
1050.044, 37454.05
1050.526, 37482.71
1051.008, 37487.23
1051.490, 37476.99
1051.972, 37471.86
1052.454, 37470.45
1052.936, 37480.83
1053.419, 37506.70
1053.901, 37530.70
1054.383, 37533.88
1054.865, 37523.89
1055.347, 37507.29
1055.829, 37485.55
1056.311, 37473.77
1056.793, 37486.62
1057.276, 37497.76
1057.758, 37500.67
1058.240, 37497.05
1058.722, 37488.58
1059.204, 37476.92
1059.686, 37467.65
1060.168, 37462.08
1060.650, 37460.11
1061.132, 37460.43
1061.615, 37465.04
1062.097, 37477.63
1062.579, 37499.92
1063.061, 37506.69
1063.543, 37495.21
1064.025, 37492.64
1064.507, 37535.52
1064.989, 37582.43
1065.471, 37571.84
1065.954, 37524.63
1066.436, 37492.98
1066.918, 37503.36
1067.400, 37509.94
1067.882, 37508.74
1068.364, 37504.84
1068.846, 37499.47
1069.328, 37496.57
1069.811, 37512.05
1070.293, 37545.98
1070.775, 37578.16
1071.257, 37602.00
1071.739, 37616.13
1072.221, 37617.43
1072.703, 37609.73
1073.185, 37604.23
1073.667, 37601.00
1074.150, 37600.14
1074.632, 37601.61
1075.114, 37606.63
1075.596, 37624.29
1076.078, 37641.79
1076.560, 37641.50
1077.042, 37615.07
1077.524, 37613.48
1078.006, 37646.44
1078.489, 37670.36
1078.971, 37655.08
1079.453, 37621.80
1079.935, 37605.38
1080.417, 37604.73
1080.899, 37617.38
1081.381, 37666.37
1081.863, 37693.12
1082.345, 37680.42
1082.828, 37657.80
1083.310, 37653.88
1083.792, 37666.13
1084.274, 37675.43
1084.756, 37681.79
1085.238, 37693.91
1085.720, 37723.75
1086.202, 37754.39
1086.685, 37780.35
1087.167, 37798.96
1087.649, 37799.45
1088.131, 37777.85
1088.613, 37777.44
1089.095, 37808.39
1089.577, 37844.62
1090.059, 37864.05
1090.542, 37870.93
1091.024, 37863.93
1091.506, 37841.82
1091.988, 37838.91
1092.470, 37862.24
1092.952, 37889.54
1093.434, 37915.09
1093.916, 37936.59
1094.398, 37949.11
1094.880, 37953.97
1095.363, 37953.58
1095.845, 37947.01
1096.327, 37938.64
1096.809, 37925.21
1097.291, 37915.13
1097.773, 37916.19
1098.255, 37925.85
1098.737, 37925.01
1099.220, 37914.80
1099.702, 37902.08
1100.184, 37877.53
1100.666, 37866.68
1101.148, 37900.39
1101.630, 37947.38
1102.112, 37962.33
1102.594, 37942.17
1103.077, 37918.48
1103.559, 37892.93
1104.041, 37868.05
1104.523, 37840.01
1105.005, 37818.30
1105.487, 37809.69
1105.969, 37814.98
1106.451, 37838.36
1106.933, 37894.35
1107.416, 37920.04
1107.898, 37896.43
1108.380, 37860.07
1108.862, 37859.58
1109.344, 37878.14
1109.826, 37887.25
1110.308, 37881.55
1110.790, 37884.09
1111.272, 37907.52
1111.755, 37929.64
1112.237, 37946.08
1112.719, 37954.59
1113.201, 37945.12
1113.683, 37923.00
1114.165, 37903.77
1114.647, 37891.19
1115.129, 37885.59
1115.612, 37892.22
1116.094, 37902.19
1116.576, 37910.52
1117.058, 37916.93
1117.540, 37917.84
1118.022, 37913.14
1118.504, 37904.58
1118.986, 37888.33
1119.469, 37873.52
1119.951, 37864.82
1120.433, 37861.74
1120.915, 37865.66
1121.397, 37881.68
1121.879, 37878.53
1122.361, 37854.02
1122.843, 37828.00
1123.325, 37820.83
1123.807, 37816.92
1124.290, 37797.14
1124.772, 37766.62
1125.254, 37744.19
1125.736, 37733.95
1126.218, 37725.46
1126.700, 37715.52
1127.182, 37714.16
1127.664, 37742.38
1128.147, 37782.57
1128.629, 37805.73
1129.111, 37809.70
1129.593, 37803.57
1130.075, 37772.09
1130.557, 37756.82
1131.039, 37774.47
1131.521, 37803.30
1132.004, 37795.75
1132.486, 37766.07
1132.968, 37758.50
1133.450, 37785.46
1133.932, 37806.02
1134.414, 37790.10
1134.896, 37777.77
1135.378, 37792.63
1135.860, 37825.23
1136.343, 37830.71
1136.825, 37814.15
1137.307, 37805.49
1137.789, 37815.25
1138.271, 37832.56
1138.753, 37857.19
1139.235, 37880.35
1139.717, 37894.39
1140.199, 37898.90
1140.682, 37893.83
1141.164, 37879.05
1141.646, 37870.94
1142.128, 37886.22
1142.610, 37902.10
1143.092, 37900.02
1143.574, 37887.00
1144.056, 37873.41
1144.539, 37860.08
1145.021, 37847.07
1145.503, 37834.45
1145.985, 37827.18
1146.467, 37835.40
1146.949, 37846.63
1147.431, 37844.13
1147.913, 37833.34
1148.396, 37830.65
1148.878, 37842.89
1149.360, 37848.13
1149.842, 37841.79
1150.324, 37836.31
1150.806, 37850.86
1151.288, 37870.78
1151.770, 37870.52
1152.252, 37852.28
1152.734, 37844.02
1153.217, 37860.40
1153.699, 37872.38
1154.181, 37874.46
1154.663, 37870.73
1155.145, 37863.57
1155.627, 37856.19
1156.109, 37858.68
1156.591, 37872.46
1157.074, 37877.14
1157.556, 37855.95
1158.038, 37836.57
1158.520, 37826.43
1159.002, 37822.52
1159.484, 37819.46
1159.966, 37817.05
1160.448, 37814.75
1160.931, 37812.43
1161.413, 37810.58
1161.895, 37808.11
1162.377, 37808.30
1162.859, 37813.89
1163.341, 37822.95
1163.823, 37825.26
1164.305, 37823.29
1164.787, 37830.67
1165.270, 37857.75
1165.752, 37879.17
1166.234, 37876.64
1166.716, 37867.58
1167.198, 37864.96
1167.680, 37868.02
1168.162, 37862.60
1168.644, 37850.20
1169.126, 37845.64
1169.609, 37868.63
1170.091, 37881.46
1170.573, 37840.14
1171.055, 37791.92
1171.537, 37792.18
1172.019, 37846.98
1172.501, 37872.13
1172.983, 37867.48
1173.466, 37853.59
1173.948, 37834.09
1174.430, 37818.73
1174.912, 37821.08
1175.394, 37828.85
1175.876, 37818.66
1176.358, 37784.19
1176.840, 37781.52
1177.323, 37814.95
1177.805, 37834.62
1178.287, 37780.80
1178.769, 37717.98
1179.251, 37706.93
1179.733, 37729.30
1180.215, 37729.40
1180.697, 37697.63
1181.179, 37691.00
1181.661, 37717.70
1182.144, 37745.32
1182.626, 37741.01
1183.108, 37726.55
1183.590, 37723.93
1184.072, 37730.54
1184.554, 37727.04
1185.036, 37704.81
1185.518, 37708.49
1186.001, 37749.89
1186.483, 37791.23
1186.965, 37785.98
1187.447, 37762.75
1187.929, 37750.20
1188.411, 37750.32
1188.893, 37756.75
1189.375, 37778.15
1189.858, 37768.91
1190.340, 37709.18
1190.822, 37650.45
1191.304, 37660.65
1191.786, 37705.31
1192.268, 37749.19
1192.750, 37787.85
1193.232, 37806.02
1193.714, 37797.51
1194.197, 37788.31
1194.679, 37786.03
1195.161, 37785.45
1195.643, 37774.93
1196.125, 37763.20
1196.607, 37763.98
1197.089, 37781.01
1197.571, 37793.54
1198.053, 37799.76
1198.536, 37803.95
1199.018, 37810.05
1199.500, 37811.18
1199.982, 37788.54
1200.464, 37757.80
1200.946, 37746.26
1201.428, 37768.79
1201.910, 37770.22
1202.393, 37743.18
1202.875, 37713.71
1203.357, 37690.20
1203.839, 37677.26
1204.321, 37685.80
1204.803, 37709.32
1205.285, 37738.09
1205.767, 37775.52
1206.250, 37798.58
1206.732, 37802.83
1207.214, 37802.63
1207.696, 37804.33
1208.178, 37807.01
1208.660, 37807.73
1209.142, 37808.39
1209.624, 37813.30
1210.106, 37827.95
1210.589, 37836.43
1211.071, 37836.60
1211.553, 37837.68
1212.035, 37849.84
1212.517, 37864.13
1212.999, 37859.77
1213.481, 37847.36
1213.963, 37849.35
1214.445, 37895.80
1214.928, 37913.18
1215.410, 37894.87
1215.892, 37870.41
1216.374, 37857.07
1216.856, 37854.77
1217.338, 37875.02
1217.820, 37904.50
1218.302, 37909.73
1218.785, 37853.07
1219.267, 37832.56
1219.749, 37858.02
1220.231, 37892.27
1220.713, 37906.82
1221.195, 37910.61
1221.677, 37915.11
1222.159, 37920.11
1222.641, 37924.67
1223.124, 37932.14
1223.606, 37929.08
1224.088, 37911.37
1224.570, 37898.79
1225.052, 37917.82
1225.534, 37946.06
1226.016, 37954.90
1226.498, 37947.57
1226.980, 37937.02
1227.463, 37922.54
1227.945, 37912.55
1228.427, 37908.37
1228.909, 37904.24
1229.391, 37893.33
1229.873, 37880.44
1230.355, 37868.77
1230.837, 37860.13
1231.320, 37861.45
1231.802, 37878.93
1232.284, 37883.08
1232.766, 37869.55
1233.248, 37853.63
1233.730, 37854.53
1234.212, 37857.56
1234.694, 37844.41
1235.177, 37841.38
1235.659, 37833.67
1236.141, 37820.50
1236.623, 37820.69
1237.105, 37805.18
1237.587, 37807.27
1238.069, 37889.30
1238.551, 37974.83
1239.033, 37978.80
1239.516, 37924.63
1239.998, 37919.07
1240.480, 37967.71
1240.962, 38010.49
1241.444, 38038.48
1241.926, 38058.71
1242.408, 38078.41
1242.890, 38091.12
1243.372, 38084.26
1243.855, 38097.50
1244.337, 38070.29
1244.819, 38095.89
1245.301, 38101.81
1245.783, 38081.65
1246.265, 38054.58
1246.747, 38029.68
1247.229, 38011.14
1247.712, 38008.96
1248.194, 38014.88
1248.676, 38006.61
1249.158, 37986.19
1249.640, 37971.96
1250.122, 37967.17
1250.604, 37967.37
1251.086, 37969.00
1251.568, 37976.04
1252.051, 37995.77
1252.533, 38017.61
1253.015, 38011.93
1253.497, 37984.83
1253.979, 37972.46
1254.461, 37980.08
1254.943, 37995.07
1255.425, 38020.30
1255.907, 38037.36
1256.390, 38035.32
1256.872, 38025.34
1257.354, 38028.67
1257.836, 38043.48
1258.318, 38068.64
1258.800, 38104.64
1259.282, 38126.93
1259.764, 38122.55
1260.247, 38104.19
1260.729, 38067.42
1261.211, 38032.10
1261.693, 38041.52
1262.175, 38076.29
1262.657, 38092.45
1263.139, 38083.88
1263.621, 38077.89
1264.104, 38080.49
1264.586, 38086.79
1265.068, 38097.50
1265.550, 38105.94
1266.032, 38097.51
1266.514, 38082.29
1266.996, 38076.30
1267.478, 38081.20
1267.960, 38086.67
1268.443, 38086.36
1268.925, 38107.25
1269.407, 38164.29
1269.889, 38216.22
1270.371, 38203.07
1270.853, 38164.29
1271.335, 38146.46
1271.817, 38151.73
1272.299, 38140.47
1272.782, 38106.71
1273.264, 38095.90
1273.746, 38122.23
1274.228, 38151.50
1274.710, 38141.50
1275.192, 38127.59
1275.674, 38152.75
1276.156, 38202.31
1276.639, 38204.33
1277.121, 38158.47
1277.603, 38123.77
1278.085, 38112.36
1278.567, 38113.57
1279.049, 38133.86
1279.531, 38149.85
1280.013, 38142.55
1280.495, 38123.09
1280.978, 38121.38
1281.460, 38134.22
1281.942, 38140.14
1282.424, 38135.19
1282.906, 38132.73
1283.388, 38143.63
1283.870, 38153.17
1284.352, 38154.56
1284.834, 38152.52
1285.317, 38156.30
1285.799, 38164.05
1286.281, 38170.93
1286.763, 38176.26
1287.245, 38182.82
1287.727, 38197.45
1288.209, 38202.95
1288.691, 38192.29
1289.173, 38178.79
1289.656, 38184.50
1290.138, 38198.62
1290.620, 38203.46
1291.102, 38197.86
1291.584, 38191.11
1292.066, 38185.69
1292.548, 38173.93
1293.030, 38151.86
1293.513, 38133.14
1293.995, 38131.68
1294.477, 38142.80
1294.959, 38165.30
1295.441, 38196.54
1295.923, 38225.93
1296.405, 38256.13
1296.887, 38255.23
1297.370, 38215.31
1297.852, 38182.30
1298.334, 38197.98
1298.816, 38236.05
1299.298, 38288.75
1299.780, 38331.03
1300.262, 38337.44
1300.744, 38312.18
1301.226, 38305.68
1301.708, 38321.42
1302.191, 38332.87
1302.673, 38307.96
1303.155, 38278.46
1303.637, 38230.72
1304.119, 38147.86
##END=



