##NAMES=Scawtite
##RRUFFID=R060340
##IDEAL CHEMISTRY=Ca_7_(Si_3_O_9_)_2_(CO_3_)&#183;2H_2_O
##LOCALITY=Crestmore Quarry, near Riverside, Riverside County, California, USA
##OWNER=RRUFF
##SOURCE=Michael Scott
##DESCRIPTION=Aggregates of tabular colorless crystals, associated with grossular, calcite, and monticellite
##STATUS=The identification of this mineral has been confirmed by single-crystal X-ray diffraction.
##URL=rruff.info/R060340
9.059570e+001, 8.292268e+001
9.107782e+001, 8.121118e+001
9.155994e+001, 8.060664e+001
9.204205e+001, 8.167302e+001
9.252417e+001, 8.347678e+001
9.300629e+001, 8.579514e+001
9.348840e+001, 8.804836e+001
9.397052e+001, 8.953811e+001
9.445264e+001, 8.986970e+001
9.493475e+001, 9.040623e+001
9.541687e+001, 9.062117e+001
9.589898e+001, 9.045976e+001
9.638110e+001, 9.017278e+001
9.686321e+001, 8.998518e+001
9.734533e+001, 8.993035e+001
9.782745e+001, 8.977806e+001
9.830956e+001, 8.960450e+001
9.879168e+001, 8.932137e+001
9.927380e+001, 8.916435e+001
9.975591e+001, 8.929048e+001
1.002380e+002, 8.958598e+001
1.007201e+002, 8.972431e+001
1.012023e+002, 8.940054e+001
1.016844e+002, 8.880163e+001
1.021665e+002, 8.864246e+001
1.026486e+002, 8.926009e+001
1.031307e+002, 9.007068e+001
1.036128e+002, 9.048647e+001
1.040950e+002, 9.042945e+001
1.045771e+002, 9.038567e+001
1.050592e+002, 9.053864e+001
1.055413e+002, 9.089520e+001
1.060234e+002, 9.154626e+001
1.065055e+002, 9.266943e+001
1.069877e+002, 9.413712e+001
1.074698e+002, 9.542977e+001
1.079519e+002, 9.639671e+001
1.084340e+002, 9.735368e+001
1.089161e+002, 9.835957e+001
1.093982e+002, 9.945010e+001
1.098804e+002, 1.006815e+002
1.103625e+002, 1.021288e+002
1.108446e+002, 1.038225e+002
1.113267e+002, 1.055390e+002
1.118088e+002, 1.072869e+002
1.122909e+002, 1.090497e+002
1.127731e+002, 1.107400e+002
1.132552e+002, 1.123813e+002
1.137373e+002, 1.141496e+002
1.142194e+002, 1.162802e+002
1.147015e+002, 1.189853e+002
1.151836e+002, 1.217753e+002
1.156658e+002, 1.246486e+002
1.161479e+002, 1.276098e+002
1.166300e+002, 1.306195e+002
1.171121e+002, 1.336623e+002
1.175942e+002, 1.368472e+002
1.180763e+002, 1.404909e+002
1.185584e+002, 1.447962e+002
1.190406e+002, 1.490282e+002
1.195227e+002, 1.528787e+002
1.200048e+002, 1.564700e+002
1.204869e+002, 1.602051e+002
1.209690e+002, 1.643550e+002
1.214511e+002, 1.686500e+002
1.219333e+002, 1.726051e+002
1.224154e+002, 1.762072e+002
1.228975e+002, 1.794928e+002
1.233796e+002, 1.825320e+002
1.238617e+002, 1.853685e+002
1.243438e+002, 1.876470e+002
1.248260e+002, 1.893195e+002
1.253081e+002, 1.902641e+002
1.257902e+002, 1.902094e+002
1.262723e+002, 1.890115e+002
1.267544e+002, 1.868131e+002
1.272365e+002, 1.839432e+002
1.277187e+002, 1.803908e+002
1.282008e+002, 1.760206e+002
1.286829e+002, 1.707359e+002
1.291650e+002, 1.647717e+002
1.296471e+002, 1.583952e+002
1.301292e+002, 1.516936e+002
1.306114e+002, 1.447110e+002
1.310935e+002, 1.381090e+002
1.315756e+002, 1.316793e+002
1.320577e+002, 1.258251e+002
1.325398e+002, 1.207505e+002
1.330219e+002, 1.163714e+002
1.335041e+002, 1.124940e+002
1.339862e+002, 1.089157e+002
1.344683e+002, 1.055838e+002
1.349504e+002, 1.030258e+002
1.354325e+002, 1.013534e+002
1.359146e+002, 1.001795e+002
1.363968e+002, 9.944058e+001
1.368789e+002, 9.907040e+001
1.373610e+002, 9.881687e+001
1.378431e+002, 9.834673e+001
1.383252e+002, 9.754864e+001
1.388073e+002, 9.723143e+001
1.392895e+002, 9.782207e+001
1.397716e+002, 9.876616e+001
1.402537e+002, 9.940884e+001
1.407358e+002, 9.957653e+001
1.412179e+002, 9.955009e+001
1.417000e+002, 9.965177e+001
1.421821e+002, 9.986523e+001
1.426643e+002, 1.001410e+002
1.431464e+002, 1.004324e+002
1.436285e+002, 1.007636e+002
1.441106e+002, 1.012327e+002
1.445927e+002, 1.019104e+002
1.450748e+002, 1.026895e+002
1.455570e+002, 1.034557e+002
1.460391e+002, 1.042064e+002
1.465212e+002, 1.049985e+002
1.470033e+002, 1.058848e+002
1.474854e+002, 1.068728e+002
1.479675e+002, 1.078957e+002
1.484497e+002, 1.090775e+002
1.489318e+002, 1.102131e+002
1.494139e+002, 1.111950e+002
1.498960e+002, 1.119950e+002
1.503781e+002, 1.126537e+002
1.508602e+002, 1.132358e+002
1.513424e+002, 1.138113e+002
1.518245e+002, 1.141380e+002
1.523066e+002, 1.141043e+002
1.527887e+002, 1.139224e+002
1.532708e+002, 1.137884e+002
1.537529e+002, 1.137713e+002
1.542351e+002, 1.137562e+002
1.547172e+002, 1.134487e+002
1.551993e+002, 1.124681e+002
1.556814e+002, 1.116316e+002
1.561635e+002, 1.110416e+002
1.566456e+002, 1.105954e+002
1.571278e+002, 1.101711e+002
1.576099e+002, 1.097060e+002
1.580920e+002, 1.092248e+002
1.585741e+002, 1.088397e+002
1.590562e+002, 1.085420e+002
1.595383e+002, 1.083293e+002
1.600205e+002, 1.081552e+002
1.605026e+002, 1.080626e+002
1.609847e+002, 1.081585e+002
1.614668e+002, 1.085183e+002
1.619489e+002, 1.091185e+002
1.624310e+002, 1.097783e+002
1.629131e+002, 1.107412e+002
1.633953e+002, 1.115350e+002
1.638774e+002, 1.119051e+002
1.643595e+002, 1.118643e+002
1.648416e+002, 1.115084e+002
1.653237e+002, 1.107990e+002
1.658058e+002, 1.098075e+002
1.662880e+002, 1.087572e+002
1.667701e+002, 1.078575e+002
1.672522e+002, 1.067533e+002
1.677343e+002, 1.049339e+002
1.682164e+002, 1.022689e+002
1.686985e+002, 9.952354e+001
1.691807e+002, 9.709904e+001
1.696628e+002, 9.488294e+001
1.701449e+002, 9.276292e+001
1.706270e+002, 9.075690e+001
1.711091e+002, 8.879774e+001
1.715912e+002, 8.670653e+001
1.720734e+002, 8.436387e+001
1.725555e+002, 8.211431e+001
1.730376e+002, 8.003772e+001
1.735197e+002, 7.811424e+001
1.740018e+002, 7.630456e+001
1.744839e+002, 7.458739e+001
1.749661e+002, 7.297118e+001
1.754482e+002, 7.153464e+001
1.759303e+002, 7.038122e+001
1.764124e+002, 6.931487e+001
1.768945e+002, 6.833224e+001
1.773766e+002, 6.739461e+001
1.778588e+002, 6.644248e+001
1.783409e+002, 6.540832e+001
1.788230e+002, 6.428808e+001
1.793051e+002, 6.338709e+001
1.797872e+002, 6.283118e+001
1.802693e+002, 6.236573e+001
1.807515e+002, 6.186638e+001
1.812336e+002, 6.138747e+001
1.817157e+002, 6.109977e+001
1.821978e+002, 6.117619e+001
1.826799e+002, 6.167319e+001
1.831620e+002, 6.197660e+001
1.836441e+002, 6.201954e+001
1.841263e+002, 6.197789e+001
1.846084e+002, 6.188468e+001
1.850905e+002, 6.176772e+001
1.855726e+002, 6.168520e+001
1.860547e+002, 6.167267e+001
1.865368e+002, 6.173398e+001
1.870190e+002, 6.200680e+001
1.875011e+002, 6.276672e+001
1.879832e+002, 6.353402e+001
1.884653e+002, 6.387422e+001
1.889474e+002, 6.375592e+001
1.894296e+002, 6.360042e+001
1.899117e+002, 6.382372e+001
1.903938e+002, 6.442307e+001
1.908759e+002, 6.504148e+001
1.913580e+002, 6.564492e+001
1.918401e+002, 6.624648e+001
1.923223e+002, 6.686861e+001
1.928044e+002, 6.751898e+001
1.932865e+002, 6.816891e+001
1.937686e+002, 6.881270e+001
1.942507e+002, 6.944270e+001
1.947328e+002, 7.000616e+001
1.952150e+002, 7.043291e+001
1.956971e+002, 7.079224e+001
1.961792e+002, 7.123177e+001
1.966613e+002, 7.179257e+001
1.971434e+002, 7.236881e+001
1.976255e+002, 7.290882e+001
1.981077e+002, 7.341013e+001
1.985898e+002, 7.384394e+001
1.990719e+002, 7.414030e+001
1.995540e+002, 7.434475e+001
2.000361e+002, 7.467086e+001
2.005182e+002, 7.525662e+001
2.010004e+002, 7.577524e+001
2.014825e+002, 7.606741e+001
2.019646e+002, 7.616695e+001
2.024467e+002, 7.615221e+001
2.029288e+002, 7.599940e+001
2.034109e+002, 7.572758e+001
2.038930e+002, 7.567905e+001
2.043752e+002, 7.604810e+001
2.048573e+002, 7.645979e+001
2.053394e+002, 7.675355e+001
2.058215e+002, 7.696836e+001
2.063036e+002, 7.721774e+001
2.067857e+002, 7.758608e+001
2.072679e+002, 7.807508e+001
2.077500e+002, 7.865372e+001
2.082321e+002, 7.950291e+001
2.087142e+002, 8.028054e+001
2.091963e+002, 8.078502e+001
2.096784e+002, 8.110305e+001
2.101606e+002, 8.148241e+001
2.106427e+002, 8.216795e+001
2.111248e+002, 8.320766e+001
2.116069e+002, 8.408572e+001
2.120890e+002, 8.465546e+001
2.125711e+002, 8.521439e+001
2.130533e+002, 8.594242e+001
2.135354e+002, 8.678487e+001
2.140175e+002, 8.754763e+001
2.144996e+002, 8.804063e+001
2.149817e+002, 8.821815e+001
2.154638e+002, 8.843441e+001
2.159460e+002, 8.871804e+001
2.164281e+002, 8.900645e+001
2.169102e+002, 8.932958e+001
2.173923e+002, 8.965124e+001
2.178744e+002, 8.985069e+001
2.183565e+002, 8.979677e+001
2.188387e+002, 8.944908e+001
2.193208e+002, 8.918187e+001
2.198029e+002, 8.891309e+001
2.202850e+002, 8.877551e+001
2.207671e+002, 8.887006e+001
2.212492e+002, 8.918945e+001
2.217314e+002, 8.963529e+001
2.222135e+002, 9.012640e+001
2.226956e+002, 9.067216e+001
2.231777e+002, 9.132435e+001
2.236598e+002, 9.197839e+001
2.241419e+002, 9.281015e+001
2.246240e+002, 9.406729e+001
2.251062e+002, 9.573689e+001
2.255883e+002, 9.738042e+001
2.260704e+002, 9.861181e+001
2.265525e+002, 9.947102e+001
2.270346e+002, 1.004259e+002
2.275167e+002, 1.015166e+002
2.279989e+002, 1.027047e+002
2.284810e+002, 1.040056e+002
2.289631e+002, 1.054241e+002
2.294452e+002, 1.067659e+002
2.299273e+002, 1.078932e+002
2.304094e+002, 1.088182e+002
2.308916e+002, 1.095844e+002
2.313737e+002, 1.100977e+002
2.318558e+002, 1.105057e+002
2.323379e+002, 1.109556e+002
2.328200e+002, 1.114464e+002
2.333021e+002, 1.119868e+002
2.337843e+002, 1.127194e+002
2.342664e+002, 1.134820e+002
2.347485e+002, 1.139882e+002
2.352306e+002, 1.139858e+002
2.357127e+002, 1.138484e+002
2.361948e+002, 1.141392e+002
2.366770e+002, 1.149679e+002
2.371591e+002, 1.157783e+002
2.376412e+002, 1.163485e+002
2.381233e+002, 1.167232e+002
2.386054e+002, 1.169321e+002
2.390875e+002, 1.170018e+002
2.395697e+002, 1.168829e+002
2.400518e+002, 1.163974e+002
2.405339e+002, 1.153665e+002
2.410160e+002, 1.145415e+002
2.414981e+002, 1.143288e+002
2.419802e+002, 1.144039e+002
2.424624e+002, 1.145178e+002
2.429445e+002, 1.146119e+002
2.434266e+002, 1.146301e+002
2.439087e+002, 1.144229e+002
2.443908e+002, 1.138533e+002
2.448729e+002, 1.134363e+002
2.453550e+002, 1.133424e+002
2.458372e+002, 1.134307e+002
2.463193e+002, 1.136349e+002
2.468014e+002, 1.139418e+002
2.472835e+002, 1.142518e+002
2.477656e+002, 1.143392e+002
2.482477e+002, 1.139911e+002
2.487299e+002, 1.139454e+002
2.492120e+002, 1.146464e+002
2.496941e+002, 1.154749e+002
2.501762e+002, 1.159620e+002
2.506583e+002, 1.159653e+002
2.511404e+002, 1.156598e+002
2.516226e+002, 1.153205e+002
2.521047e+002, 1.149475e+002
2.525868e+002, 1.145414e+002
2.530689e+002, 1.143507e+002
2.535510e+002, 1.139814e+002
2.540331e+002, 1.130912e+002
2.545153e+002, 1.116184e+002
2.549974e+002, 1.098246e+002
2.554795e+002, 1.080989e+002
2.559616e+002, 1.065525e+002
2.564437e+002, 1.048342e+002
2.569258e+002, 1.028166e+002
2.574080e+002, 1.007496e+002
2.578901e+002, 9.877864e+001
2.583722e+002, 9.693804e+001
2.588543e+002, 9.516611e+001
2.593364e+002, 9.338151e+001
2.598185e+002, 9.156963e+001
2.603007e+002, 8.978166e+001
2.607828e+002, 8.803661e+001
2.612649e+002, 8.627970e+001
2.617470e+002, 8.443613e+001
2.622291e+002, 8.251797e+001
2.627112e+002, 8.065894e+001
2.631934e+002, 7.900759e+001
2.636755e+002, 7.762102e+001
2.641576e+002, 7.624928e+001
2.646397e+002, 7.474210e+001
2.651218e+002, 7.337106e+001
2.656039e+002, 7.234666e+001
2.660861e+002, 7.163914e+001
2.665682e+002, 7.105106e+001
2.670503e+002, 7.041116e+001
2.675324e+002, 6.973763e+001
2.680145e+002, 6.887222e+001
2.684966e+002, 6.761596e+001
2.689788e+002, 6.638901e+001
2.694609e+002, 6.541145e+001
2.699430e+002, 6.466187e+001
2.704251e+002, 6.399436e+001
2.709072e+002, 6.329277e+001
2.713893e+002, 6.255933e+001
2.718715e+002, 6.185765e+001
2.723536e+002, 6.106986e+001
2.728357e+002, 6.041919e+001
2.733178e+002, 6.014167e+001
2.737999e+002, 6.010257e+001
2.742820e+002, 5.991205e+001
2.747642e+002, 5.926394e+001
2.752463e+002, 5.822128e+001
2.757284e+002, 5.759748e+001
2.762105e+002, 5.761808e+001
2.766926e+002, 5.769963e+001
2.771747e+002, 5.764094e+001
2.776568e+002, 5.749399e+001
2.781389e+002, 5.738691e+001
2.786211e+002, 5.738601e+001
2.791032e+002, 5.748159e+001
2.795853e+002, 5.764389e+001
2.800674e+002, 5.791990e+001
2.805495e+002, 5.819322e+001
2.810316e+002, 5.837814e+001
2.815138e+002, 5.854763e+001
2.819959e+002, 5.886577e+001
2.824780e+002, 5.942634e+001
2.829601e+002, 6.010019e+001
2.834422e+002, 6.053428e+001
2.839243e+002, 6.066370e+001
2.844065e+002, 6.073097e+001
2.848886e+002, 6.073254e+001
2.853707e+002, 6.071429e+001
2.858528e+002, 6.076300e+001
2.863349e+002, 6.091612e+001
2.868170e+002, 6.108765e+001
2.872992e+002, 6.111423e+001
2.877813e+002, 6.094046e+001
2.882634e+002, 6.082378e+001
2.887455e+002, 6.081112e+001
2.892276e+002, 6.087398e+001
2.897097e+002, 6.100166e+001
2.901919e+002, 6.119486e+001
2.906740e+002, 6.139082e+001
2.911561e+002, 6.152754e+001
2.916382e+002, 6.160791e+001
2.921203e+002, 6.157935e+001
2.926024e+002, 6.135271e+001
2.930846e+002, 6.106133e+001
2.935667e+002, 6.090105e+001
2.940488e+002, 6.088966e+001
2.945309e+002, 6.075223e+001
2.950130e+002, 6.020429e+001
2.954951e+002, 5.922581e+001
2.959773e+002, 5.824834e+001
2.964594e+002, 5.731958e+001
2.969415e+002, 5.637201e+001
2.974236e+002, 5.533427e+001
2.979057e+002, 5.421494e+001
2.983878e+002, 5.308366e+001
2.988700e+002, 5.196574e+001
2.993521e+002, 5.088345e+001
2.998342e+002, 4.991025e+001
3.003163e+002, 4.914960e+001
3.007984e+002, 4.840908e+001
3.012805e+002, 4.749330e+001
3.017627e+002, 4.646598e+001
3.022448e+002, 4.563019e+001
3.027269e+002, 4.521117e+001
3.032090e+002, 4.504174e+001
3.036911e+002, 4.458717e+001
3.041732e+002, 4.359278e+001
3.046554e+002, 4.274686e+001
3.051375e+002, 4.242198e+001
3.056196e+002, 4.248360e+001
3.061017e+002, 4.260104e+001
3.065838e+002, 4.266937e+001
3.070659e+002, 4.270227e+001
3.075481e+002, 4.271311e+001
3.080302e+002, 4.268557e+001
3.085123e+002, 4.269742e+001
3.089944e+002, 4.271032e+001
3.094765e+002, 4.279120e+001
3.099586e+002, 4.308521e+001
3.104408e+002, 4.365043e+001
3.109229e+002, 4.433514e+001
3.114050e+002, 4.491537e+001
3.118871e+002, 4.538020e+001
3.123692e+002, 4.597851e+001
3.128513e+002, 4.681683e+001
3.133335e+002, 4.778675e+001
3.138156e+002, 4.876730e+001
3.142977e+002, 4.973786e+001
3.147798e+002, 5.073792e+001
3.152619e+002, 5.174154e+001
3.157440e+002, 5.278369e+001
3.162262e+002, 5.417006e+001
3.167083e+002, 5.620518e+001
3.171904e+002, 5.839674e+001
3.176725e+002, 6.032261e+001
3.181546e+002, 6.199088e+001
3.186367e+002, 6.363731e+001
3.191188e+002, 6.536822e+001
3.196010e+002, 6.722169e+001
3.200831e+002, 6.930743e+001
3.205652e+002, 7.187139e+001
3.210473e+002, 7.442593e+001
3.215294e+002, 7.664305e+001
3.220115e+002, 7.860818e+001
3.224937e+002, 8.064397e+001
3.229758e+002, 8.285311e+001
3.234579e+002, 8.526728e+001
3.239400e+002, 8.791255e+001
3.244221e+002, 9.082879e+001
3.249042e+002, 9.384740e+001
3.253864e+002, 9.691151e+001
3.258685e+002, 1.000416e+002
3.263506e+002, 1.032557e+002
3.268327e+002, 1.065284e+002
3.273148e+002, 1.100238e+002
3.277969e+002, 1.140951e+002
3.282791e+002, 1.187982e+002
3.287612e+002, 1.235580e+002
3.292433e+002, 1.282866e+002
3.297254e+002, 1.329963e+002
3.302075e+002, 1.376999e+002
3.306896e+002, 1.423996e+002
3.311718e+002, 1.470882e+002
3.316539e+002, 1.517922e+002
3.321360e+002, 1.565069e+002
3.326181e+002, 1.611780e+002
3.331002e+002, 1.661254e+002
3.335823e+002, 1.707541e+002
3.340645e+002, 1.747814e+002
3.345466e+002, 1.781277e+002
3.350287e+002, 1.806924e+002
3.355108e+002, 1.824043e+002
3.359929e+002, 1.832053e+002
3.364750e+002, 1.830544e+002
3.369572e+002, 1.819280e+002
3.374393e+002, 1.800151e+002
3.379214e+002, 1.771718e+002
3.384035e+002, 1.735893e+002
3.388856e+002, 1.696843e+002
3.393677e+002, 1.656098e+002
3.398499e+002, 1.614310e+002
3.403320e+002, 1.573268e+002
3.408141e+002, 1.532061e+002
3.412962e+002, 1.493122e+002
3.417783e+002, 1.456515e+002
3.422604e+002, 1.422526e+002
3.427426e+002, 1.391318e+002
3.432247e+002, 1.363045e+002
3.437068e+002, 1.338672e+002
3.441889e+002, 1.319535e+002
3.446710e+002, 1.306328e+002
3.451531e+002, 1.298549e+002
3.456353e+002, 1.299008e+002
3.461174e+002, 1.303044e+002
3.465995e+002, 1.306750e+002
3.470816e+002, 1.310025e+002
3.475637e+002, 1.315794e+002
3.480458e+002, 1.326813e+002
3.485280e+002, 1.343416e+002
3.490101e+002, 1.360591e+002
3.494922e+002, 1.378667e+002
3.499743e+002, 1.396871e+002
3.504564e+002, 1.414012e+002
3.509385e+002, 1.430853e+002
3.514207e+002, 1.449336e+002
3.519028e+002, 1.470585e+002
3.523849e+002, 1.494074e+002
3.528670e+002, 1.517852e+002
3.533491e+002, 1.548990e+002
3.538312e+002, 1.571640e+002
3.543134e+002, 1.577858e+002
3.547955e+002, 1.576928e+002
3.552776e+002, 1.580196e+002
3.557597e+002, 1.591501e+002
3.562418e+002, 1.605708e+002
3.567239e+002, 1.614133e+002
3.572061e+002, 1.613583e+002
3.576882e+002, 1.613231e+002
3.581703e+002, 1.613913e+002
3.586524e+002, 1.614150e+002
3.591345e+002, 1.612185e+002
3.596166e+002, 1.608353e+002
3.600987e+002, 1.605120e+002
3.605808e+002, 1.605232e+002
3.610630e+002, 1.609331e+002
3.615451e+002, 1.610417e+002
3.620272e+002, 1.609394e+002
3.625093e+002, 1.604697e+002
3.629914e+002, 1.596093e+002
3.634735e+002, 1.583329e+002
3.639557e+002, 1.566000e+002
3.644378e+002, 1.543734e+002
3.649199e+002, 1.517050e+002
3.654020e+002, 1.488263e+002
3.658841e+002, 1.459387e+002
3.663662e+002, 1.425040e+002
3.668484e+002, 1.382168e+002
3.673305e+002, 1.335270e+002
3.678126e+002, 1.288645e+002
3.682947e+002, 1.243851e+002
3.687768e+002, 1.199163e+002
3.692589e+002, 1.151322e+002
3.697411e+002, 1.098597e+002
3.702232e+002, 1.047640e+002
3.707053e+002, 9.977559e+001
3.711874e+002, 9.501762e+001
3.716695e+002, 9.048310e+001
3.721516e+002, 8.621602e+001
3.726338e+002, 8.223525e+001
3.731159e+002, 7.863182e+001
3.735980e+002, 7.540083e+001
3.740801e+002, 7.214710e+001
3.745622e+002, 6.867567e+001
3.750443e+002, 6.543507e+001
3.755265e+002, 6.252763e+001
3.760086e+002, 5.993249e+001
3.764907e+002, 5.765739e+001
3.769728e+002, 5.571623e+001
3.774549e+002, 5.403299e+001
3.779370e+002, 5.244978e+001
3.784192e+002, 5.099207e+001
3.789013e+002, 4.956483e+001
3.793834e+002, 4.813413e+001
3.798655e+002, 4.672655e+001
3.803476e+002, 4.534921e+001
3.808297e+002, 4.400474e+001
3.813119e+002, 4.273278e+001
3.817940e+002, 4.153954e+001
3.822761e+002, 4.042535e+001
3.827582e+002, 3.957063e+001
3.832403e+002, 3.919159e+001
3.837224e+002, 3.885581e+001
3.842046e+002, 3.820623e+001
3.846867e+002, 3.733447e+001
3.851688e+002, 3.656163e+001
3.856509e+002, 3.613682e+001
3.861330e+002, 3.592368e+001
3.866151e+002, 3.557240e+001
3.870973e+002, 3.501496e+001
3.875794e+002, 3.457073e+001
3.880615e+002, 3.460592e+001
3.885436e+002, 3.481924e+001
3.890257e+002, 3.475223e+001
3.895078e+002, 3.418956e+001
3.899900e+002, 3.356605e+001
3.904721e+002, 3.328322e+001
3.909542e+002, 3.330205e+001
3.914363e+002, 3.332505e+001
3.919184e+002, 3.324843e+001
3.924005e+002, 3.314476e+001
3.928827e+002, 3.311803e+001
3.933648e+002, 3.317162e+001
3.938469e+002, 3.323228e+001
3.943290e+002, 3.328921e+001
3.948111e+002, 3.333013e+001
3.952932e+002, 3.332286e+001
3.957754e+002, 3.325840e+001
3.962575e+002, 3.318744e+001
3.967396e+002, 3.310020e+001
3.972217e+002, 3.302803e+001
3.977038e+002, 3.319985e+001
3.981859e+002, 3.381761e+001
3.986681e+002, 3.451612e+001
3.991501e+002, 3.507869e+001
3.996323e+002, 3.552222e+001
4.001144e+002, 3.592204e+001
4.005965e+002, 3.630291e+001
4.010786e+002, 3.668429e+001
4.015607e+002, 3.712402e+001
4.020428e+002, 3.766661e+001
4.025250e+002, 3.818023e+001
4.030071e+002, 3.868811e+001
4.034892e+002, 3.913457e+001
4.039713e+002, 3.946540e+001
4.044534e+002, 3.966405e+001
4.049355e+002, 3.971650e+001
4.054177e+002, 3.958763e+001
4.058998e+002, 3.923163e+001
4.063819e+002, 3.891657e+001
4.068640e+002, 3.881456e+001
4.073461e+002, 3.858858e+001
4.078282e+002, 3.798705e+001
4.083104e+002, 3.711857e+001
4.087925e+002, 3.626287e+001
4.092746e+002, 3.558432e+001
4.097567e+002, 3.505820e+001
4.102388e+002, 3.455808e+001
4.107209e+002, 3.411986e+001
4.112031e+002, 3.366304e+001
4.116852e+002, 3.302160e+001
4.121673e+002, 3.244432e+001
4.126494e+002, 3.222783e+001
4.131315e+002, 3.242162e+001
4.136136e+002, 3.275708e+001
4.140958e+002, 3.287038e+001
4.145779e+002, 3.269390e+001
4.150600e+002, 3.256779e+001
4.155421e+002, 3.244461e+001
4.160242e+002, 3.242017e+001
4.165063e+002, 3.255343e+001
4.169885e+002, 3.282022e+001
4.174706e+002, 3.315973e+001
4.179527e+002, 3.354323e+001
4.184348e+002, 3.396371e+001
4.189169e+002, 3.440698e+001
4.193990e+002, 3.487984e+001
4.198812e+002, 3.535608e+001
4.203633e+002, 3.577142e+001
4.208454e+002, 3.621264e+001
4.213275e+002, 3.677715e+001
4.218096e+002, 3.748985e+001
4.222917e+002, 3.824668e+001
4.227739e+002, 3.893853e+001
4.232560e+002, 3.956813e+001
4.237381e+002, 4.022442e+001
4.242202e+002, 4.092943e+001
4.247023e+002, 4.165052e+001
4.251844e+002, 4.246735e+001
4.256666e+002, 4.330801e+001
4.261487e+002, 4.390369e+001
4.266308e+002, 4.403732e+001
4.271129e+002, 4.390878e+001
4.275950e+002, 4.380024e+001
4.280771e+002, 4.371583e+001
4.285593e+002, 4.360815e+001
4.290414e+002, 4.351439e+001
4.295235e+002, 4.333894e+001
4.300056e+002, 4.289817e+001
4.304877e+002, 4.207992e+001
4.309698e+002, 4.125030e+001
4.314520e+002, 4.061374e+001
4.319341e+002, 4.009324e+001
4.324162e+002, 3.950568e+001
4.328983e+002, 3.879553e+001
4.333804e+002, 3.810841e+001
4.338625e+002, 3.761468e+001
4.343447e+002, 3.733947e+001
4.348268e+002, 3.713081e+001
4.353089e+002, 3.697476e+001
4.357910e+002, 3.689124e+001
4.362731e+002, 3.692481e+001
4.367552e+002, 3.704903e+001
4.372374e+002, 3.716816e+001
4.377195e+002, 3.721556e+001
4.382016e+002, 3.723772e+001
4.386837e+002, 3.741344e+001
4.391658e+002, 3.781842e+001
4.396479e+002, 3.828584e+001
4.401301e+002, 3.880626e+001
4.406122e+002, 3.938261e+001
4.410943e+002, 3.999442e+001
4.415764e+002, 4.064620e+001
4.420585e+002, 4.140654e+001
4.425406e+002, 4.238269e+001
4.430227e+002, 4.363585e+001
4.435049e+002, 4.467426e+001
4.439870e+002, 4.517901e+001
4.444691e+002, 4.579601e+001
4.449512e+002, 4.681184e+001
4.454333e+002, 4.805177e+001
4.459154e+002, 4.923767e+001
4.463976e+002, 5.022107e+001
4.468797e+002, 5.105702e+001
4.473618e+002, 5.189579e+001
4.478439e+002, 5.282205e+001
4.483260e+002, 5.349311e+001
4.488081e+002, 5.371327e+001
4.492903e+002, 5.375435e+001
4.497724e+002, 5.373872e+001
4.502545e+002, 5.369080e+001
4.507366e+002, 5.363046e+001
4.512187e+002, 5.360206e+001
4.517008e+002, 5.357947e+001
4.521830e+002, 5.346653e+001
4.526651e+002, 5.328875e+001
4.531472e+002, 5.295256e+001
4.536293e+002, 5.227507e+001
4.541114e+002, 5.143297e+001
4.545935e+002, 5.070249e+001
4.550757e+002, 5.027281e+001
4.555578e+002, 4.971418e+001
4.560399e+002, 4.857375e+001
4.565220e+002, 4.697160e+001
4.570041e+002, 4.539653e+001
4.574862e+002, 4.396617e+001
4.579684e+002, 4.264878e+001
4.584505e+002, 4.145325e+001
4.589326e+002, 4.038276e+001
4.594147e+002, 3.922323e+001
4.598968e+002, 3.771693e+001
4.603789e+002, 3.626964e+001
4.608611e+002, 3.530140e+001
4.613432e+002, 3.476353e+001
4.618253e+002, 3.427301e+001
4.623074e+002, 3.358327e+001
4.627895e+002, 3.276924e+001
4.632716e+002, 3.212931e+001
4.637538e+002, 3.170605e+001
4.642359e+002, 3.138639e+001
4.647180e+002, 3.119447e+001
4.652001e+002, 3.107736e+001
4.656822e+002, 3.097531e+001
4.661643e+002, 3.087947e+001
4.666465e+002, 3.083377e+001
4.671286e+002, 3.089293e+001
4.676107e+002, 3.106977e+001
4.680928e+002, 3.123220e+001
4.685749e+002, 3.130272e+001
4.690570e+002, 3.144283e+001
4.695392e+002, 3.171094e+001
4.700213e+002, 3.207274e+001
4.705034e+002, 3.245733e+001
4.709855e+002, 3.283044e+001
4.714676e+002, 3.326359e+001
4.719497e+002, 3.393068e+001
4.724319e+002, 3.491380e+001
4.729140e+002, 3.576379e+001
4.733961e+002, 3.627473e+001
4.738782e+002, 3.675102e+001
4.743603e+002, 3.732426e+001
4.748424e+002, 3.800575e+001
4.753246e+002, 3.880513e+001
4.758067e+002, 3.977268e+001
4.762888e+002, 4.084189e+001
4.767709e+002, 4.184649e+001
4.772530e+002, 4.275161e+001
4.777351e+002, 4.379943e+001
4.782173e+002, 4.524847e+001
4.786994e+002, 4.683033e+001
4.791815e+002, 4.808381e+001
4.796636e+002, 4.889176e+001
4.801457e+002, 4.972876e+001
4.806278e+002, 5.089903e+001
4.811100e+002, 5.224117e+001
4.815920e+002, 5.348763e+001
4.820742e+002, 5.459332e+001
4.825563e+002, 5.556191e+001
4.830384e+002, 5.635102e+001
4.835205e+002, 5.696724e+001
4.840026e+002, 5.776599e+001
4.844847e+002, 5.889424e+001
4.849669e+002, 6.003038e+001
4.854490e+002, 6.109589e+001
4.859311e+002, 6.207429e+001
4.864132e+002, 6.293076e+001
4.868953e+002, 6.365620e+001
4.873774e+002, 6.429860e+001
4.878596e+002, 6.492556e+001
4.883417e+002, 6.552603e+001
4.888238e+002, 6.615549e+001
4.893059e+002, 6.699538e+001
4.897880e+002, 6.768748e+001
4.902701e+002, 6.804092e+001
4.907523e+002, 6.810385e+001
4.912344e+002, 6.802271e+001
4.917165e+002, 6.789252e+001
4.921986e+002, 6.765531e+001
4.926807e+002, 6.713924e+001
4.931628e+002, 6.629525e+001
4.936450e+002, 6.531206e+001
4.941271e+002, 6.423817e+001
4.946092e+002, 6.303434e+001
4.950913e+002, 6.160661e+001
4.955734e+002, 5.998174e+001
4.960555e+002, 5.835554e+001
4.965377e+002, 5.689734e+001
4.970198e+002, 5.554894e+001
4.975019e+002, 5.420542e+001
4.979840e+002, 5.290183e+001
4.984661e+002, 5.140498e+001
4.989482e+002, 4.940123e+001
4.994304e+002, 4.717041e+001
4.999125e+002, 4.526147e+001
5.003946e+002, 4.376849e+001
5.008767e+002, 4.241856e+001
5.013588e+002, 4.108717e+001
5.018409e+002, 3.979488e+001
5.023231e+002, 3.857484e+001
5.028052e+002, 3.743808e+001
5.032873e+002, 3.631562e+001
5.037694e+002, 3.513110e+001
5.042515e+002, 3.387280e+001
5.047336e+002, 3.274446e+001
5.052158e+002, 3.174024e+001
5.056979e+002, 3.085565e+001
5.061800e+002, 3.015834e+001
5.066621e+002, 2.955770e+001
5.071442e+002, 2.891841e+001
5.076263e+002, 2.819323e+001
5.081085e+002, 2.745130e+001
5.085906e+002, 2.680573e+001
5.090727e+002, 2.627991e+001
5.095548e+002, 2.576358e+001
5.100369e+002, 2.521472e+001
5.105190e+002, 2.471891e+001
5.110012e+002, 2.431956e+001
5.114833e+002, 2.399481e+001
5.119654e+002, 2.370328e+001
5.124475e+002, 2.342648e+001
5.129296e+002, 2.316471e+001
5.134117e+002, 2.293612e+001
5.138939e+002, 2.275273e+001
5.143760e+002, 2.249453e+001
5.148581e+002, 2.204047e+001
5.153402e+002, 2.159927e+001
5.158223e+002, 2.135306e+001
5.163044e+002, 2.128149e+001
5.167866e+002, 2.123771e+001
5.172687e+002, 2.116675e+001
5.177508e+002, 2.108608e+001
5.182329e+002, 2.098831e+001
5.187150e+002, 2.088169e+001
5.191971e+002, 2.087678e+001
5.196793e+002, 2.105481e+001
5.201614e+002, 2.133152e+001
5.206435e+002, 2.151787e+001
5.211256e+002, 2.161255e+001
5.216077e+002, 2.164995e+001
5.220898e+002, 2.157425e+001
5.225720e+002, 2.148592e+001
5.230541e+002, 2.145451e+001
5.235362e+002, 2.149392e+001
5.240183e+002, 2.161612e+001
5.245004e+002, 2.183838e+001
5.249825e+002, 2.213739e+001
5.254647e+002, 2.239798e+001
5.259468e+002, 2.258245e+001
5.264289e+002, 2.277810e+001
5.269110e+002, 2.301464e+001
5.273931e+002, 2.325068e+001
5.278752e+002, 2.347783e+001
5.283574e+002, 2.367909e+001
5.288395e+002, 2.379980e+001
5.293216e+002, 2.377122e+001
5.298037e+002, 2.361719e+001
5.302858e+002, 2.347124e+001
5.307679e+002, 2.331203e+001
5.312501e+002, 2.321217e+001
5.317322e+002, 2.330728e+001
5.322143e+002, 2.342806e+001
5.326964e+002, 2.338620e+001
5.331785e+002, 2.313874e+001
5.336606e+002, 2.283362e+001
5.341428e+002, 2.253227e+001
5.346249e+002, 2.224841e+001
5.351070e+002, 2.201834e+001
5.355891e+002, 2.184996e+001
5.360712e+002, 2.168956e+001
5.365533e+002, 2.149096e+001
5.370355e+002, 2.126592e+001
5.375176e+002, 2.108924e+001
5.379997e+002, 2.100075e+001
5.384818e+002, 2.090661e+001
5.389639e+002, 2.074026e+001
5.394460e+002, 2.057149e+001
5.399282e+002, 2.049241e+001
5.404103e+002, 2.051887e+001
5.408924e+002, 2.059686e+001
5.413745e+002, 2.067070e+001
5.418566e+002, 2.073938e+001
5.423387e+002, 2.083825e+001
5.428209e+002, 2.094826e+001
5.433029e+002, 2.111533e+001
5.437850e+002, 2.143518e+001
5.442672e+002, 2.177455e+001
5.447493e+002, 2.195258e+001
5.452314e+002, 2.192965e+001
5.457135e+002, 2.188332e+001
5.461956e+002, 2.204428e+001
5.466777e+002, 2.238769e+001
5.471599e+002, 2.260760e+001
5.476420e+002, 2.266429e+001
5.481241e+002, 2.264746e+001
5.486062e+002, 2.257533e+001
5.490883e+002, 2.247370e+001
5.495704e+002, 2.238888e+001
5.500526e+002, 2.235683e+001
5.505347e+002, 2.228233e+001
5.510168e+002, 2.210989e+001
5.514989e+002, 2.185080e+001
5.519810e+002, 2.150137e+001
5.524631e+002, 2.105823e+001
5.529453e+002, 2.062200e+001
5.534274e+002, 2.029743e+001
5.539095e+002, 2.008406e+001
5.543916e+002, 1.980540e+001
5.548737e+002, 1.942655e+001
5.553558e+002, 1.903489e+001
5.558380e+002, 1.858327e+001
5.563201e+002, 1.816175e+001
5.568022e+002, 1.791743e+001
5.572843e+002, 1.786984e+001
5.577664e+002, 1.786768e+001
5.582485e+002, 1.773269e+001
5.587307e+002, 1.746058e+001
5.592128e+002, 1.720131e+001
5.596949e+002, 1.695284e+001
5.601770e+002, 1.672488e+001
5.606591e+002, 1.648214e+001
5.611412e+002, 1.627504e+001
5.616234e+002, 1.619222e+001
5.621055e+002, 1.626863e+001
5.625876e+002, 1.633313e+001
5.630697e+002, 1.620819e+001
5.635518e+002, 1.594912e+001
5.640339e+002, 1.573065e+001
5.645161e+002, 1.556714e+001
5.649982e+002, 1.547360e+001
5.654803e+002, 1.549175e+001
5.659624e+002, 1.559072e+001
5.664445e+002, 1.562593e+001
5.669266e+002, 1.554151e+001
5.674088e+002, 1.547328e+001
5.678909e+002, 1.549290e+001
5.683730e+002, 1.554221e+001
5.688551e+002, 1.551935e+001
5.693372e+002, 1.542192e+001
5.698193e+002, 1.537931e+001
5.703015e+002, 1.553432e+001
5.707836e+002, 1.586913e+001
5.712657e+002, 1.602508e+001
5.717478e+002, 1.582910e+001
5.722299e+002, 1.568132e+001
5.727120e+002, 1.568341e+001
5.731942e+002, 1.573356e+001
5.736763e+002, 1.570512e+001
5.741584e+002, 1.559447e+001
5.746405e+002, 1.554752e+001
5.751226e+002, 1.576996e+001
5.756047e+002, 1.617173e+001
5.760869e+002, 1.634925e+001
5.765690e+002, 1.624877e+001
5.770511e+002, 1.614762e+001
5.775332e+002, 1.616922e+001
5.780153e+002, 1.627290e+001
5.784974e+002, 1.638884e+001
5.789796e+002, 1.651638e+001
5.794617e+002, 1.665414e+001
5.799438e+002, 1.682810e+001
5.804259e+002, 1.699630e+001
5.809080e+002, 1.711738e+001
5.813901e+002, 1.718650e+001
5.818723e+002, 1.719296e+001
5.823544e+002, 1.711213e+001
5.828365e+002, 1.699837e+001
5.833186e+002, 1.703762e+001
5.838007e+002, 1.734035e+001
5.842828e+002, 1.763642e+001
5.847650e+002, 1.800620e+001
5.852471e+002, 1.829888e+001
5.857292e+002, 1.833154e+001
5.862113e+002, 1.818857e+001
5.866934e+002, 1.814232e+001
5.871755e+002, 1.838145e+001
5.876577e+002, 1.878827e+001
5.881398e+002, 1.910288e+001
5.886219e+002, 1.931912e+001
5.891040e+002, 1.948197e+001
5.895861e+002, 1.956170e+001
5.900682e+002, 1.963644e+001
5.905504e+002, 1.979074e+001
5.910325e+002, 2.001072e+001
5.915146e+002, 2.020465e+001
5.919967e+002, 2.031394e+001
5.924788e+002, 2.041155e+001
5.929609e+002, 2.057864e+001
5.934431e+002, 2.078541e+001
5.939252e+002, 2.090216e+001
5.944073e+002, 2.086802e+001
5.948894e+002, 2.087609e+001
5.953715e+002, 2.123283e+001
5.958536e+002, 2.207595e+001
5.963358e+002, 2.264194e+001
5.968179e+002, 2.276314e+001
5.973000e+002, 2.283683e+001
5.977821e+002, 2.298612e+001
5.982642e+002, 2.318216e+001
5.987463e+002, 2.336616e+001
5.992285e+002, 2.351914e+001
5.997106e+002, 2.367533e+001
6.001927e+002, 2.390223e+001
6.006748e+002, 2.419506e+001
6.011569e+002, 2.438301e+001
6.016390e+002, 2.440134e+001
6.021212e+002, 2.443579e+001
6.026033e+002, 2.462984e+001
6.030854e+002, 2.489622e+001
6.035675e+002, 2.508916e+001
6.040496e+002, 2.515482e+001
6.045317e+002, 2.525907e+001
6.050139e+002, 2.552207e+001
6.054960e+002, 2.586011e+001
6.059781e+002, 2.618454e+001
6.064602e+002, 2.647149e+001
6.069423e+002, 2.664419e+001
6.074244e+002, 2.662504e+001
6.079066e+002, 2.646938e+001
6.083887e+002, 2.642941e+001
6.088708e+002, 2.664278e+001
6.093529e+002, 2.677741e+001
6.098350e+002, 2.677229e+001
6.103171e+002, 2.672700e+001
6.107993e+002, 2.668446e+001
6.112814e+002, 2.666427e+001
6.117635e+002, 2.669324e+001
6.122456e+002, 2.679250e+001
6.127277e+002, 2.694442e+001
6.132098e+002, 2.713012e+001
6.136920e+002, 2.735711e+001
6.141741e+002, 2.753344e+001
6.146562e+002, 2.760616e+001
6.151383e+002, 2.766207e+001
6.156204e+002, 2.778188e+001
6.161025e+002, 2.795968e+001
6.165847e+002, 2.817382e+001
6.170668e+002, 2.847861e+001
6.175489e+002, 2.876004e+001
6.180310e+002, 2.888336e+001
6.185131e+002, 2.894131e+001
6.189952e+002, 2.913703e+001
6.194774e+002, 2.952792e+001
6.199595e+002, 2.998773e+001
6.204416e+002, 3.035473e+001
6.209237e+002, 3.061431e+001
6.214058e+002, 3.103031e+001
6.218879e+002, 3.181618e+001
6.223701e+002, 3.249839e+001
6.228522e+002, 3.278297e+001
6.233343e+002, 3.302706e+001
6.238164e+002, 3.365567e+001
6.242985e+002, 3.472263e+001
6.247806e+002, 3.583397e+001
6.252628e+002, 3.657467e+001
6.257448e+002, 3.712531e+001
6.262269e+002, 3.796370e+001
6.267090e+002, 3.911068e+001
6.271912e+002, 4.045325e+001
6.276733e+002, 4.200991e+001
6.281554e+002, 4.367281e+001
6.286375e+002, 4.519714e+001
6.291196e+002, 4.647071e+001
6.296017e+002, 4.810028e+001
6.300839e+002, 5.033223e+001
6.305660e+002, 5.281216e+001
6.310481e+002, 5.525824e+001
6.315302e+002, 5.776275e+001
6.320123e+002, 6.055287e+001
6.324944e+002, 6.371917e+001
6.329766e+002, 6.731546e+001
6.334587e+002, 7.147744e+001
6.339408e+002, 7.631686e+001
6.344229e+002, 8.124078e+001
6.349050e+002, 8.613010e+001
6.353871e+002, 9.122971e+001
6.358693e+002, 9.666036e+001
6.363514e+002, 1.023316e+002
6.368335e+002, 1.080971e+002
6.373156e+002, 1.138717e+002
6.377977e+002, 1.198657e+002
6.382798e+002, 1.261193e+002
6.387620e+002, 1.326751e+002
6.392441e+002, 1.396986e+002
6.397262e+002, 1.471813e+002
6.402083e+002, 1.550976e+002
6.406904e+002, 1.633930e+002
6.411725e+002, 1.721353e+002
6.416547e+002, 1.816454e+002
6.421368e+002, 1.921608e+002
6.426189e+002, 2.031195e+002
6.431010e+002, 2.141135e+002
6.435831e+002, 2.258752e+002
6.440652e+002, 2.390659e+002
6.445474e+002, 2.534471e+002
6.450295e+002, 2.684563e+002
6.455116e+002, 2.837550e+002
6.459937e+002, 2.993965e+002
6.464758e+002, 3.158132e+002
6.469579e+002, 3.329886e+002
6.474401e+002, 3.491152e+002
6.479222e+002, 3.643011e+002
6.484043e+002, 3.775065e+002
6.488864e+002, 3.881541e+002
6.493685e+002, 3.960996e+002
6.498506e+002, 4.006281e+002
6.503328e+002, 4.024158e+002
6.508149e+002, 3.996595e+002
6.512970e+002, 3.908651e+002
6.517791e+002, 3.775638e+002
6.522612e+002, 3.609088e+002
6.527433e+002, 3.414757e+002
6.532255e+002, 3.202547e+002
6.537076e+002, 2.977659e+002
6.541897e+002, 2.745532e+002
6.546718e+002, 2.522940e+002
6.551539e+002, 2.307229e+002
6.556360e+002, 2.109007e+002
6.561182e+002, 1.932767e+002
6.566003e+002, 1.772615e+002
6.570824e+002, 1.626552e+002
6.575645e+002, 1.494223e+002
6.580466e+002, 1.376579e+002
6.585287e+002, 1.275302e+002
6.590109e+002, 1.185695e+002
6.594930e+002, 1.104947e+002
6.599751e+002, 1.032447e+002
6.604572e+002, 9.651369e+001
6.609393e+002, 9.025271e+001
6.614214e+002, 8.468250e+001
6.619036e+002, 8.004285e+001
6.623857e+002, 7.626160e+001
6.628678e+002, 7.264014e+001
6.633499e+002, 6.912110e+001
6.638320e+002, 6.585151e+001
6.643141e+002, 6.286267e+001
6.647963e+002, 6.009981e+001
6.652784e+002, 5.746308e+001
6.657605e+002, 5.499617e+001
6.662426e+002, 5.289726e+001
6.667247e+002, 5.135902e+001
6.672068e+002, 5.011556e+001
6.676890e+002, 4.865099e+001
6.681711e+002, 4.697403e+001
6.686532e+002, 4.535665e+001
6.691353e+002, 4.380455e+001
6.696174e+002, 4.248145e+001
6.700995e+002, 4.167741e+001
6.705817e+002, 4.132339e+001
6.710638e+002, 4.070827e+001
6.715459e+002, 3.951428e+001
6.720280e+002, 3.843616e+001
6.725101e+002, 3.775463e+001
6.729922e+002, 3.727185e+001
6.734744e+002, 3.679392e+001
6.739565e+002, 3.628413e+001
6.744386e+002, 3.577411e+001
6.749207e+002, 3.528144e+001
6.754028e+002, 3.481194e+001
6.758849e+002, 3.437033e+001
6.763671e+002, 3.394033e+001
6.768492e+002, 3.361772e+001
6.773313e+002, 3.349331e+001
6.778134e+002, 3.339997e+001
6.782955e+002, 3.319349e+001
6.787776e+002, 3.290501e+001
6.792598e+002, 3.264550e+001
6.797419e+002, 3.242285e+001
6.802240e+002, 3.225727e+001
6.807061e+002, 3.214944e+001
6.811882e+002, 3.211087e+001
6.816703e+002, 3.217266e+001
6.821525e+002, 3.233269e+001
6.826346e+002, 3.254238e+001
6.831167e+002, 3.276651e+001
6.835988e+002, 3.300222e+001
6.840809e+002, 3.323275e+001
6.845630e+002, 3.343201e+001
6.850452e+002, 3.368231e+001
6.855273e+002, 3.405833e+001
6.860094e+002, 3.443049e+001
6.864915e+002, 3.469699e+001
6.869736e+002, 3.489500e+001
6.874557e+002, 3.514594e+001
6.879379e+002, 3.550454e+001
6.884200e+002, 3.591185e+001
6.889021e+002, 3.632619e+001
6.893842e+002, 3.674593e+001
6.898663e+002, 3.716722e+001
6.903484e+002, 3.759140e+001
6.908306e+002, 3.802351e+001
6.913127e+002, 3.849665e+001
6.917948e+002, 3.896374e+001
6.922769e+002, 3.918964e+001
6.927590e+002, 3.901014e+001
6.932411e+002, 3.884450e+001
6.937233e+002, 3.861236e+001
6.942054e+002, 3.849104e+001
6.946875e+002, 3.865026e+001
6.951696e+002, 3.900627e+001
6.956517e+002, 3.932449e+001
6.961339e+002, 3.947455e+001
6.966160e+002, 3.963966e+001
6.970981e+002, 4.004619e+001
6.975802e+002, 4.063997e+001
6.980623e+002, 4.124522e+001
6.985444e+002, 4.183300e+001
6.990266e+002, 4.242023e+001
6.995087e+002, 4.301708e+001
6.999908e+002, 4.362252e+001
7.004729e+002, 4.422437e+001
7.009550e+002, 4.478999e+001
7.014371e+002, 4.539902e+001
7.019193e+002, 4.598214e+001
7.024014e+002, 4.667353e+001
7.028835e+002, 4.762146e+001
7.033656e+002, 4.873086e+001
7.038477e+002, 4.979588e+001
7.043298e+002, 5.071427e+001
7.048120e+002, 5.163006e+001
7.052941e+002, 5.274281e+001
7.057762e+002, 5.400309e+001
7.062583e+002, 5.519044e+001
7.067404e+002, 5.628387e+001
7.072225e+002, 5.727127e+001
7.077046e+002, 5.807939e+001
7.081867e+002, 5.883184e+001
7.086688e+002, 5.988132e+001
7.091509e+002, 6.142705e+001
7.096331e+002, 6.274467e+001
7.101152e+002, 6.379749e+001
7.105973e+002, 6.460666e+001
7.110794e+002, 6.512337e+001
7.115615e+002, 6.541994e+001
7.120436e+002, 6.567193e+001
7.125258e+002, 6.593545e+001
7.130079e+002, 6.592758e+001
7.134900e+002, 6.523808e+001
7.139721e+002, 6.396893e+001
7.144542e+002, 6.268815e+001
7.149363e+002, 6.144934e+001
7.154185e+002, 5.999016e+001
7.159006e+002, 5.813443e+001
7.163827e+002, 5.607180e+001
7.168648e+002, 5.410118e+001
7.173469e+002, 5.224379e+001
7.178290e+002, 5.037213e+001
7.183112e+002, 4.842949e+001
7.187933e+002, 4.652778e+001
7.192754e+002, 4.473434e+001
7.197575e+002, 4.301527e+001
7.202396e+002, 4.125932e+001
7.207217e+002, 3.946738e+001
7.212039e+002, 3.783289e+001
7.216860e+002, 3.661651e+001
7.221681e+002, 3.569278e+001
7.226502e+002, 3.453124e+001
7.231323e+002, 3.307531e+001
7.236144e+002, 3.179799e+001
7.240966e+002, 3.088015e+001
7.245787e+002, 3.016004e+001
7.250608e+002, 2.949752e+001
7.255429e+002, 2.888591e+001
7.260250e+002, 2.824883e+001
7.265071e+002, 2.749978e+001
7.269893e+002, 2.681963e+001
7.274714e+002, 2.631510e+001
7.279535e+002, 2.588776e+001
7.284356e+002, 2.541607e+001
7.289177e+002, 2.490007e+001
7.293998e+002, 2.445375e+001
7.298820e+002, 2.418445e+001
7.303641e+002, 2.399576e+001
7.308462e+002, 2.365811e+001
7.313283e+002, 2.316746e+001
7.318104e+002, 2.264481e+001
7.322925e+002, 2.209333e+001
7.327747e+002, 2.155963e+001
7.332568e+002, 2.108296e+001
7.337389e+002, 2.065833e+001
7.342210e+002, 2.024732e+001
7.347031e+002, 1.984593e+001
7.351852e+002, 1.946782e+001
7.356674e+002, 1.914482e+001
7.361495e+002, 1.882111e+001
7.366316e+002, 1.842165e+001
7.371137e+002, 1.797882e+001
7.375958e+002, 1.759746e+001
7.380779e+002, 1.733085e+001
7.385601e+002, 1.710043e+001
7.390422e+002, 1.675356e+001
7.395243e+002, 1.631430e+001
7.400064e+002, 1.602630e+001
7.404885e+002, 1.593523e+001
7.409706e+002, 1.587814e+001
7.414528e+002, 1.576248e+001
7.419349e+002, 1.562604e+001
7.424170e+002, 1.556030e+001
7.428991e+002, 1.559171e+001
7.433812e+002, 1.559568e+001
7.438633e+002, 1.556765e+001
7.443455e+002, 1.550451e+001
7.448276e+002, 1.532170e+001
7.453097e+002, 1.513453e+001
7.457918e+002, 1.517068e+001
7.462739e+002, 1.546897e+001
7.467560e+002, 1.574130e+001
7.472382e+002, 1.567709e+001
7.477203e+002, 1.537528e+001
7.482024e+002, 1.510064e+001
7.486845e+002, 1.485065e+001
7.491666e+002, 1.474242e+001
7.496487e+002, 1.484406e+001
7.501309e+002, 1.503283e+001
7.506130e+002, 1.518407e+001
7.510951e+002, 1.529748e+001
7.515772e+002, 1.534364e+001
7.520593e+002, 1.526113e+001
7.525414e+002, 1.519652e+001
7.530236e+002, 1.516285e+001
7.535057e+002, 1.517399e+001
7.539878e+002, 1.530110e+001
7.544699e+002, 1.549454e+001
7.549520e+002, 1.554668e+001
7.554341e+002, 1.524916e+001
7.559163e+002, 1.494890e+001
7.563984e+002, 1.537398e+001
7.568805e+002, 1.626602e+001
7.573626e+002, 1.636619e+001
7.578447e+002, 1.542851e+001
7.583268e+002, 1.437683e+001
7.588090e+002, 1.383968e+001
7.592911e+002, 1.370187e+001
7.597732e+002, 1.358104e+001
7.602553e+002, 1.354461e+001
7.607374e+002, 1.339887e+001
7.612195e+002, 1.303951e+001
7.617017e+002, 1.269001e+001
7.621838e+002, 1.241802e+001
7.626659e+002, 1.223963e+001
7.631480e+002, 1.220999e+001
7.636301e+002, 1.235309e+001
7.641122e+002, 1.243832e+001
7.645944e+002, 1.220981e+001
7.650765e+002, 1.185998e+001
7.655586e+002, 1.171726e+001
7.660407e+002, 1.175427e+001
7.665228e+002, 1.175405e+001
7.670049e+002, 1.163263e+001
7.674871e+002, 1.144502e+001
7.679692e+002, 1.125546e+001
7.684513e+002, 1.106051e+001
7.689334e+002, 1.091592e+001
7.694155e+002, 1.082852e+001
7.698976e+002, 1.078071e+001
7.703798e+002, 1.079308e+001
7.708619e+002, 1.082222e+001
7.713440e+002, 1.084472e+001
7.718261e+002, 1.085545e+001
7.723082e+002, 1.084057e+001
7.727903e+002, 1.075977e+001
7.732725e+002, 1.069967e+001
7.737546e+002, 1.078284e+001
7.742367e+002, 1.089876e+001
7.747188e+002, 1.084548e+001
7.752009e+002, 1.062268e+001
7.756830e+002, 1.039683e+001
7.761652e+002, 1.027321e+001
7.766473e+002, 1.023400e+001
7.771294e+002, 1.024340e+001
7.776115e+002, 1.030632e+001
7.780936e+002, 1.039245e+001
7.785757e+002, 1.053481e+001
7.790579e+002, 1.063516e+001
7.795400e+002, 1.060214e+001
7.800221e+002, 1.050924e+001
7.805042e+002, 1.049658e+001
7.809863e+002, 1.060098e+001
7.814684e+002, 1.062007e+001
7.819506e+002, 1.040244e+001
7.824327e+002, 1.018739e+001
7.829148e+002, 1.013492e+001
7.833969e+002, 1.018879e+001
7.838790e+002, 1.026842e+001
7.843611e+002, 1.033989e+001
7.848433e+002, 1.035540e+001
7.853254e+002, 1.022944e+001
7.858075e+002, 1.003959e+001
7.862896e+002, 1.006237e+001
7.867717e+002, 1.030207e+001
7.872538e+002, 1.043869e+001
7.877360e+002, 1.037229e+001
7.882181e+002, 1.024669e+001
7.887002e+002, 1.019975e+001
7.891823e+002, 1.021464e+001
7.896644e+002, 1.014945e+001
7.901465e+002, 9.866374e+000
7.906286e+002, 9.704810e+000
7.911107e+002, 9.771548e+000
7.915928e+002, 9.891521e+000
7.920750e+002, 9.961821e+000
7.925571e+002, 9.993812e+000
7.930392e+002, 1.004877e+001
7.935213e+002, 1.015674e+001
7.940034e+002, 1.021587e+001
7.944855e+002, 1.006185e+001
7.949677e+002, 9.828913e+000
7.954498e+002, 9.802379e+000
7.959319e+002, 9.964543e+000
7.964140e+002, 1.008680e+001
7.968961e+002, 1.007326e+001
7.973782e+002, 9.997306e+000
7.978604e+002, 9.953992e+000
7.983425e+002, 9.943192e+000
7.988246e+002, 9.975656e+000
7.993067e+002, 1.013786e+001
7.997888e+002, 1.018680e+001
8.002709e+002, 9.854136e+000
8.007531e+002, 9.551407e+000
8.012352e+002, 9.679272e+000
8.017173e+002, 1.014266e+001
8.021994e+002, 1.043935e+001
8.026815e+002, 1.036303e+001
8.031636e+002, 1.020428e+001
8.036458e+002, 1.007015e+001
8.041279e+002, 9.962646e+000
8.046100e+002, 9.880407e+000
8.050921e+002, 9.826859e+000
8.055742e+002, 9.831158e+000
8.060563e+002, 9.914934e+000
8.065385e+002, 9.986598e+000
8.070206e+002, 9.837688e+000
8.075027e+002, 9.497025e+000
8.079848e+002, 9.410296e+000
8.084669e+002, 9.651027e+000
8.089490e+002, 9.851471e+000
8.094312e+002, 9.818531e+000
8.099133e+002, 9.704726e+000
8.103954e+002, 9.762693e+000
8.108775e+002, 1.004401e+001
8.113596e+002, 1.014609e+001
8.118417e+002, 9.900851e+000
8.123239e+002, 9.693164e+000
8.128060e+002, 9.640778e+000
8.132881e+002, 9.662967e+000
8.137702e+002, 9.709518e+000
8.142523e+002, 9.757878e+000
8.147344e+002, 9.765912e+000
8.152166e+002, 9.692340e+000
8.156987e+002, 9.613909e+000
8.161808e+002, 9.616351e+000
8.166629e+002, 9.673334e+000
8.171450e+002, 9.736715e+000
8.176271e+002, 9.796817e+000
8.181093e+002, 9.829807e+000
8.185914e+002, 9.816968e+000
8.190735e+002, 9.800043e+000
8.195556e+002, 9.877906e+000
8.200377e+002, 1.008302e+001
8.205198e+002, 1.017196e+001
8.210020e+002, 1.009684e+001
8.214841e+002, 9.996061e+000
8.219662e+002, 9.904483e+000
8.224483e+002, 9.824018e+000
8.229304e+002, 9.750115e+000
8.234125e+002, 9.683811e+000
8.238947e+002, 9.656651e+000
8.243768e+002, 9.717145e+000
8.248589e+002, 9.767615e+000
8.253410e+002, 9.743692e+000
8.258231e+002, 9.702024e+000
8.263052e+002, 9.726538e+000
8.267874e+002, 9.800662e+000
8.272695e+002, 9.817683e+000
8.277516e+002, 9.703182e+000
8.282337e+002, 9.576380e+000
8.287158e+002, 9.651331e+000
8.291979e+002, 9.864386e+000
8.296801e+002, 9.939554e+000
8.301622e+002, 9.852042e+000
8.306443e+002, 9.712326e+000
8.311264e+002, 9.555192e+000
8.316085e+002, 9.435868e+000
8.320906e+002, 9.462877e+000
8.325728e+002, 9.672111e+000
8.330549e+002, 9.763726e+000
8.335370e+002, 9.663224e+000
8.340191e+002, 9.549134e+000
8.345012e+002, 9.399209e+000
8.349833e+002, 9.301562e+000
8.354655e+002, 9.360580e+000
8.359476e+002, 9.547194e+000
8.364297e+002, 9.708648e+000
8.369118e+002, 9.826009e+000
8.373939e+002, 9.866552e+000
8.378760e+002, 9.743334e+000
8.383582e+002, 9.579890e+000
8.388403e+002, 9.530013e+000
8.393224e+002, 9.578243e+000
8.398045e+002, 9.615119e+000
8.402866e+002, 9.588742e+000
8.407687e+002, 9.559387e+000
8.412509e+002, 9.645506e+000
8.417330e+002, 9.810911e+000
8.422151e+002, 9.816020e+000
8.426972e+002, 9.645150e+000
8.431793e+002, 9.508023e+000
8.436614e+002, 9.473480e+000
8.441436e+002, 9.526003e+000
8.446257e+002, 9.681778e+000
8.451078e+002, 9.934956e+000
8.455899e+002, 1.001329e+001
8.460720e+002, 9.727918e+000
8.465541e+002, 9.542986e+000
8.470363e+002, 9.578681e+000
8.475184e+002, 9.647654e+000
8.480005e+002, 9.619562e+000
8.484826e+002, 9.535850e+000
8.489647e+002, 9.510558e+000
8.494468e+002, 9.587158e+000
8.499290e+002, 9.657404e+000
8.504111e+002, 9.658793e+000
8.508932e+002, 9.628850e+000
8.513753e+002, 9.576097e+000
8.518574e+002, 9.529376e+000
8.523395e+002, 9.568625e+000
8.528217e+002, 9.706601e+000
8.533038e+002, 9.833728e+000
8.537859e+002, 9.836969e+000
8.542680e+002, 9.750413e+000
8.547501e+002, 9.660773e+000
8.552322e+002, 9.567880e+000
8.557144e+002, 9.559045e+000
8.561965e+002, 9.675716e+000
8.566786e+002, 9.768518e+000
8.571607e+002, 9.707275e+000
8.576428e+002, 9.551055e+000
8.581249e+002, 9.492575e+000
8.586071e+002, 9.591517e+000
8.590892e+002, 9.659353e+000
8.595713e+002, 9.704770e+000
8.600534e+002, 9.709900e+000
8.605355e+002, 9.627136e+000
8.610176e+002, 9.523865e+000
8.614998e+002, 9.493271e+000
8.619819e+002, 9.540766e+000
8.624640e+002, 9.563389e+000
8.629461e+002, 9.459513e+000
8.634282e+002, 9.382010e+000
8.639103e+002, 9.491078e+000
8.643925e+002, 9.661983e+000
8.648746e+002, 9.705924e+000
8.653567e+002, 9.622642e+000
8.658388e+002, 9.540154e+000
8.663209e+002, 9.534468e+000
8.668030e+002, 9.553701e+000
8.672852e+002, 9.506969e+000
8.677673e+002, 9.411867e+000
8.682494e+002, 9.365323e+000
8.687315e+002, 9.374104e+000
8.692136e+002, 9.395670e+000
8.696957e+002, 9.414434e+000
8.701779e+002, 9.430990e+000
8.706600e+002, 9.442661e+000
8.711421e+002, 9.449168e+000
8.716242e+002, 9.487622e+000
8.721063e+002, 9.607184e+000
8.725884e+002, 9.671994e+000
8.730705e+002, 9.577941e+000
8.735526e+002, 9.498764e+000
8.740347e+002, 9.576702e+000
8.745168e+002, 9.744991e+000
8.749990e+002, 9.826167e+000
8.754811e+002, 9.747624e+000
8.759632e+002, 9.716887e+000
8.764453e+002, 9.852890e+000
8.769274e+002, 1.001742e+001
8.774095e+002, 1.011055e+001
8.778917e+002, 1.015871e+001
8.783738e+002, 1.022468e+001
8.788559e+002, 1.031850e+001
8.793380e+002, 1.039192e+001
8.798201e+002, 1.041136e+001
8.803022e+002, 1.038375e+001
8.807844e+002, 1.029067e+001
8.812665e+002, 1.015895e+001
8.817486e+002, 1.011304e+001
8.822307e+002, 1.016510e+001
8.827128e+002, 1.015297e+001
8.831949e+002, 9.957667e+000
8.836771e+002, 9.708354e+000
8.841592e+002, 9.698103e+000
8.846413e+002, 9.971355e+000
8.851234e+002, 1.014218e+001
8.856055e+002, 1.016842e+001
8.860876e+002, 1.019354e+001
8.865698e+002, 1.024728e+001
8.870519e+002, 1.034259e+001
8.875340e+002, 1.054338e+001
8.880161e+002, 1.083333e+001
8.884982e+002, 1.096887e+001
8.889803e+002, 1.072395e+001
8.894625e+002, 1.063382e+001
8.899446e+002, 1.089761e+001
8.904267e+002, 1.124348e+001
8.909088e+002, 1.147859e+001
8.913909e+002, 1.165476e+001
8.918730e+002, 1.191136e+001
8.923552e+002, 1.229174e+001
8.928373e+002, 1.266919e+001
8.933194e+002, 1.295131e+001
8.938015e+002, 1.320105e+001
8.942836e+002, 1.346677e+001
8.947657e+002, 1.375663e+001
8.952479e+002, 1.407892e+001
8.957300e+002, 1.443433e+001
8.962121e+002, 1.483148e+001
8.966942e+002, 1.528623e+001
8.971763e+002, 1.574452e+001
8.976584e+002, 1.608973e+001
8.981406e+002, 1.632930e+001
8.986227e+002, 1.652717e+001
8.991048e+002, 1.667876e+001
8.995869e+002, 1.692156e+001
9.000690e+002, 1.734306e+001
9.005511e+002, 1.782807e+001
9.010333e+002, 1.820130e+001
9.015154e+002, 1.845550e+001
9.019975e+002, 1.876485e+001
9.024796e+002, 1.919377e+001
9.029617e+002, 1.956042e+001
9.034438e+002, 1.979450e+001
9.039260e+002, 1.999209e+001
9.044081e+002, 2.029404e+001
9.048902e+002, 2.060237e+001
9.053723e+002, 2.064832e+001
9.058544e+002, 2.034150e+001
9.063365e+002, 1.994976e+001
9.068187e+002, 1.958157e+001
9.073008e+002, 1.910120e+001
9.077829e+002, 1.835750e+001
9.082650e+002, 1.749267e+001
9.087471e+002, 1.667291e+001
9.092292e+002, 1.594058e+001
9.097114e+002, 1.527931e+001
9.101935e+002, 1.468579e+001
9.106756e+002, 1.415675e+001
9.111577e+002, 1.371393e+001
9.116398e+002, 1.331955e+001
9.121219e+002, 1.289844e+001
9.126041e+002, 1.245486e+001
9.130862e+002, 1.204647e+001
9.135683e+002, 1.170102e+001
9.140504e+002, 1.138020e+001
9.145325e+002, 1.100043e+001
9.150146e+002, 1.059713e+001
9.154968e+002, 1.038638e+001
9.159789e+002, 1.037445e+001
9.164610e+002, 1.037052e+001
9.169431e+002, 1.032756e+001
9.174252e+002, 1.027515e+001
9.179073e+002, 1.022920e+001
9.183895e+002, 1.020007e+001
9.188716e+002, 1.023372e+001
9.193537e+002, 1.038835e+001
9.198358e+002, 1.045538e+001
9.203179e+002, 1.038062e+001
9.208000e+002, 1.029488e+001
9.212822e+002, 1.022014e+001
9.217643e+002, 1.017902e+001
9.222464e+002, 1.022717e+001
9.227285e+002, 1.035758e+001
9.232106e+002, 1.041168e+001
9.236927e+002, 1.024835e+001
9.241749e+002, 1.016755e+001
9.246570e+002, 1.039009e+001
9.251391e+002, 1.060412e+001
9.256212e+002, 1.050910e+001
9.261033e+002, 1.022557e+001
9.265854e+002, 1.003138e+001
9.270676e+002, 1.000840e+001
9.275497e+002, 1.005032e+001
9.280318e+002, 1.010016e+001
9.285139e+002, 1.016977e+001
9.289960e+002, 1.029055e+001
9.294781e+002, 1.043413e+001
9.299603e+002, 1.053010e+001
9.304424e+002, 1.058217e+001
9.309245e+002, 1.068845e+001
9.314066e+002, 1.092457e+001
9.318887e+002, 1.116975e+001
9.323708e+002, 1.120258e+001
9.328530e+002, 1.107724e+001
9.333351e+002, 1.100073e+001
9.338172e+002, 1.098632e+001
9.342993e+002, 1.106499e+001
9.347814e+002, 1.125504e+001
9.352635e+002, 1.146640e+001
9.357457e+002, 1.159791e+001
9.362278e+002, 1.166613e+001
9.367099e+002, 1.176669e+001
9.371920e+002, 1.190114e+001
9.376741e+002, 1.206139e+001
9.381563e+002, 1.224519e+001
9.386384e+002, 1.246350e+001
9.391205e+002, 1.276361e+001
9.396026e+002, 1.307076e+001
9.400847e+002, 1.323622e+001
9.405668e+002, 1.322195e+001
9.410490e+002, 1.328956e+001
9.415311e+002, 1.342947e+001
9.420132e+002, 1.366094e+001
9.424953e+002, 1.408553e+001
9.429774e+002, 1.451492e+001
9.434595e+002, 1.481937e+001
9.439417e+002, 1.501735e+001
9.444238e+002, 1.516032e+001
9.449059e+002, 1.523619e+001
9.453880e+002, 1.534366e+001
9.458701e+002, 1.556731e+001
9.463522e+002, 1.578226e+001
9.468344e+002, 1.596533e+001
9.473165e+002, 1.605372e+001
9.477986e+002, 1.592837e+001
9.482807e+002, 1.561364e+001
9.487628e+002, 1.529291e+001
9.492449e+002, 1.506890e+001
9.497271e+002, 1.485936e+001
9.502092e+002, 1.453087e+001
9.506913e+002, 1.419582e+001
9.511734e+002, 1.404356e+001
9.516555e+002, 1.404646e+001
9.521376e+002, 1.408712e+001
9.526198e+002, 1.411840e+001
9.531019e+002, 1.411127e+001
9.535840e+002, 1.403076e+001
9.540661e+002, 1.390072e+001
9.545482e+002, 1.376190e+001
9.550303e+002, 1.362170e+001
9.555124e+002, 1.350999e+001
9.559945e+002, 1.343127e+001
9.564766e+002, 1.348876e+001
9.569587e+002, 1.375431e+001
9.574409e+002, 1.409364e+001
9.579230e+002, 1.428009e+001
9.584051e+002, 1.431896e+001
9.588872e+002, 1.445699e+001
9.593693e+002, 1.473393e+001
9.598514e+002, 1.493640e+001
9.603336e+002, 1.499590e+001
9.608157e+002, 1.501856e+001
9.612978e+002, 1.505700e+001
9.617799e+002, 1.513198e+001
9.622620e+002, 1.530717e+001
9.627441e+002, 1.561568e+001
9.632263e+002, 1.592152e+001
9.637084e+002, 1.622957e+001
9.641905e+002, 1.652690e+001
9.646726e+002, 1.676289e+001
9.651547e+002, 1.702454e+001
9.656368e+002, 1.739956e+001
9.661190e+002, 1.787047e+001
9.666011e+002, 1.834320e+001
9.670832e+002, 1.876139e+001
9.675653e+002, 1.927464e+001
9.680474e+002, 1.990811e+001
9.685295e+002, 2.065339e+001
9.690117e+002, 2.161122e+001
9.694938e+002, 2.261632e+001
9.699759e+002, 2.337331e+001
9.704580e+002, 2.390574e+001
9.709401e+002, 2.463631e+001
9.714222e+002, 2.579112e+001
9.719044e+002, 2.712026e+001
9.723865e+002, 2.843833e+001
9.728686e+002, 2.987343e+001
9.733507e+002, 3.156400e+001
9.738328e+002, 3.347915e+001
9.743149e+002, 3.548400e+001
9.747971e+002, 3.755249e+001
9.752792e+002, 3.989315e+001
9.757613e+002, 4.263811e+001
9.762434e+002, 4.576490e+001
9.767255e+002, 4.932752e+001
9.772076e+002, 5.321791e+001
9.776898e+002, 5.723495e+001
9.781719e+002, 6.138282e+001
9.786540e+002, 6.567448e+001
9.791361e+002, 7.014205e+001
9.796182e+002, 7.491504e+001
9.801003e+002, 8.009097e+001
9.805825e+002, 8.574522e+001
9.810646e+002, 9.198378e+001
9.815467e+002, 9.879292e+001
9.820288e+002, 1.062019e+002
9.825109e+002, 1.141861e+002
9.829930e+002, 1.226824e+002
9.834752e+002, 1.316130e+002
9.839573e+002, 1.410341e+002
9.844394e+002, 1.510455e+002
9.849215e+002, 1.616287e+002
9.854036e+002, 1.728919e+002
9.858857e+002, 1.849269e+002
9.863679e+002, 1.971303e+002
9.868500e+002, 2.094841e+002
9.873321e+002, 2.217415e+002
9.878142e+002, 2.339936e+002
9.882963e+002, 2.457364e+002
9.887784e+002, 2.555637e+002
9.892606e+002, 2.639173e+002
9.897427e+002, 2.686553e+002
9.902248e+002, 2.696377e+002
9.907069e+002, 2.672179e+002
9.911890e+002, 2.610606e+002
9.916711e+002, 2.519697e+002
9.921533e+002, 2.399558e+002
9.926354e+002, 2.254944e+002
9.931175e+002, 2.114911e+002
9.935996e+002, 1.979032e+002
9.940817e+002, 1.849170e+002
9.945638e+002, 1.726380e+002
9.950460e+002, 1.607417e+002
9.955281e+002, 1.489049e+002
9.960102e+002, 1.375757e+002
9.964923e+002, 1.272998e+002
9.969744e+002, 1.180151e+002
9.974565e+002, 1.093181e+002
9.979387e+002, 1.009995e+002
9.984208e+002, 9.354169e+001
9.989029e+002, 8.727699e+001
9.993850e+002, 8.172744e+001
9.998671e+002, 7.677338e+001
1.000349e+003, 7.231531e+001
1.000831e+003, 6.827953e+001
1.001313e+003, 6.465224e+001
1.001796e+003, 6.150592e+001
1.002278e+003, 5.889256e+001
1.002760e+003, 5.675482e+001
1.003242e+003, 5.520234e+001
1.003724e+003, 5.399406e+001
1.004206e+003, 5.282100e+001
1.004688e+003, 5.183219e+001
1.005170e+003, 5.136587e+001
1.005653e+003, 5.148092e+001
1.006135e+003, 5.186250e+001
1.006617e+003, 5.232853e+001
1.007099e+003, 5.296022e+001
1.007581e+003, 5.387059e+001
1.008063e+003, 5.496790e+001
1.008545e+003, 5.632570e+001
1.009027e+003, 5.772911e+001
1.009509e+003, 5.868108e+001
1.009992e+003, 5.899934e+001
1.010474e+003, 5.881411e+001
1.010956e+003, 5.820941e+001
1.011438e+003, 5.719980e+001
1.011920e+003, 5.574451e+001
1.012402e+003, 5.391806e+001
1.012884e+003, 5.174513e+001
1.013366e+003, 4.934441e+001
1.013849e+003, 4.712719e+001
1.014331e+003, 4.526762e+001
1.014813e+003, 4.372203e+001
1.015295e+003, 4.253059e+001
1.015777e+003, 4.153997e+001
1.016259e+003, 4.035072e+001
1.016741e+003, 3.900714e+001
1.017223e+003, 3.775091e+001
1.017705e+003, 3.661251e+001
1.018188e+003, 3.543335e+001
1.018670e+003, 3.412914e+001
1.019152e+003, 3.281266e+001
1.019634e+003, 3.161604e+001
1.020116e+003, 3.054977e+001
1.020598e+003, 2.964297e+001
1.021080e+003, 2.889806e+001
1.021562e+003, 2.831424e+001
1.022044e+003, 2.789525e+001
1.022527e+003, 2.754256e+001
1.023009e+003, 2.718708e+001
1.023491e+003, 2.692513e+001
1.023973e+003, 2.692332e+001
1.024455e+003, 2.717000e+001
1.024937e+003, 2.743296e+001
1.025419e+003, 2.767980e+001
1.025901e+003, 2.821697e+001
1.026384e+003, 2.912276e+001
1.026866e+003, 3.025907e+001
1.027348e+003, 3.158799e+001
1.027830e+003, 3.299233e+001
1.028312e+003, 3.421648e+001
1.028794e+003, 3.525199e+001
1.029276e+003, 3.654308e+001
1.029758e+003, 3.812564e+001
1.030240e+003, 3.986082e+001
1.030723e+003, 4.174683e+001
1.031205e+003, 4.373592e+001
1.031687e+003, 4.579653e+001
1.032169e+003, 4.794336e+001
1.032651e+003, 5.019976e+001
1.033133e+003, 5.254585e+001
1.033615e+003, 5.510309e+001
1.034097e+003, 5.768694e+001
1.034579e+003, 6.092517e+001
1.035062e+003, 6.519028e+001
1.035544e+003, 6.975117e+001
1.036026e+003, 7.403796e+001
1.036508e+003, 7.830455e+001
1.036990e+003, 8.316154e+001
1.037472e+003, 8.880703e+001
1.037954e+003, 9.390299e+001
1.038436e+003, 9.846654e+001
1.038919e+003, 1.024072e+002
1.039401e+003, 1.061833e+002
1.039883e+003, 1.087969e+002
1.040365e+003, 1.098552e+002
1.040847e+003, 1.092124e+002
1.041329e+003, 1.064318e+002
1.041811e+003, 1.012284e+002
1.042293e+003, 9.538203e+001
1.042776e+003, 8.840761e+001
1.043258e+003, 8.149026e+001
1.043740e+003, 7.472786e+001
1.044222e+003, 6.820361e+001
1.044704e+003, 6.188544e+001
1.045186e+003, 5.589274e+001
1.045668e+003, 5.047526e+001
1.046150e+003, 4.566315e+001
1.046632e+003, 4.146498e+001
1.047115e+003, 3.799963e+001
1.047597e+003, 3.498699e+001
1.048079e+003, 3.243561e+001
1.048561e+003, 3.025778e+001
1.049043e+003, 2.846675e+001
1.049525e+003, 2.697231e+001
1.050007e+003, 2.561304e+001
1.050489e+003, 2.438668e+001
1.050971e+003, 2.321746e+001
1.051454e+003, 2.202974e+001
1.051936e+003, 2.098950e+001
1.052418e+003, 2.023198e+001
1.052900e+003, 1.955544e+001
1.053382e+003, 1.875785e+001
1.053864e+003, 1.795605e+001
1.054346e+003, 1.740796e+001
1.054828e+003, 1.715376e+001
1.055311e+003, 1.687187e+001
1.055793e+003, 1.648171e+001
1.056275e+003, 1.604481e+001
1.056757e+003, 1.549581e+001
1.057239e+003, 1.499133e+001
1.057721e+003, 1.464899e+001
1.058203e+003, 1.443704e+001
1.058685e+003, 1.431329e+001
1.059167e+003, 1.426644e+001
1.059650e+003, 1.417643e+001
1.060132e+003, 1.400484e+001
1.060614e+003, 1.378243e+001
1.061096e+003, 1.341672e+001
1.061578e+003, 1.310513e+001
1.062060e+003, 1.303446e+001
1.062542e+003, 1.310436e+001
1.063024e+003, 1.312501e+001
1.063506e+003, 1.307421e+001
1.063989e+003, 1.310215e+001
1.064471e+003, 1.337037e+001
1.064953e+003, 1.357520e+001
1.065435e+003, 1.351494e+001
1.065917e+003, 1.342017e+001
1.066399e+003, 1.343860e+001
1.066881e+003, 1.355652e+001
1.067363e+003, 1.374835e+001
1.067846e+003, 1.400033e+001
1.068328e+003, 1.426191e+001
1.068810e+003, 1.448325e+001
1.069292e+003, 1.476518e+001
1.069774e+003, 1.529345e+001
1.070256e+003, 1.575657e+001
1.070738e+003, 1.585383e+001
1.071220e+003, 1.577547e+001
1.071703e+003, 1.579652e+001
1.072185e+003, 1.594757e+001
1.072667e+003, 1.611965e+001
1.073149e+003, 1.630148e+001
1.073631e+003, 1.643237e+001
1.074113e+003, 1.629310e+001
1.074595e+003, 1.629292e+001
1.075077e+003, 1.677950e+001
1.075559e+003, 1.755324e+001
1.076042e+003, 1.828150e+001
1.076524e+003, 1.900261e+001
1.077006e+003, 2.004879e+001
1.077488e+003, 2.150048e+001
1.077970e+003, 2.339818e+001
1.078452e+003, 2.575942e+001
1.078934e+003, 2.858835e+001
1.079416e+003, 3.211660e+001
1.079898e+003, 3.596914e+001
1.080380e+003, 3.998226e+001
1.080863e+003, 4.391678e+001
1.081345e+003, 4.717228e+001
1.081827e+003, 4.944915e+001
1.082309e+003, 5.157538e+001
1.082791e+003, 5.336444e+001
1.083273e+003, 5.577911e+001
1.083755e+003, 5.901632e+001
1.084237e+003, 6.347926e+001
1.084720e+003, 6.976405e+001
1.085202e+003, 7.758025e+001
1.085684e+003, 8.603318e+001
1.086166e+003, 9.478658e+001
1.086648e+003, 1.050510e+002
1.087130e+003, 1.166242e+002
1.087612e+003, 1.307040e+002
1.088094e+003, 1.465640e+002
1.088577e+003, 1.665578e+002
1.089059e+003, 1.938354e+002
1.089541e+003, 2.266314e+002
1.090023e+003, 2.648176e+002
1.090505e+003, 3.086742e+002
1.090987e+003, 3.364398e+002
1.091469e+003, 3.416905e+002
1.091951e+003, 3.272214e+002
1.092433e+003, 2.831991e+002
1.092916e+003, 2.306798e+002
1.093398e+003, 1.808381e+002
1.093880e+003, 1.370352e+002
1.094362e+003, 1.026273e+002
1.094844e+003, 7.788109e+001
1.095326e+003, 5.884137e+001
1.095808e+003, 4.595908e+001
1.096290e+003, 3.626859e+001
1.096772e+003, 2.984707e+001
1.097255e+003, 2.520500e+001
1.097737e+003, 2.183519e+001
1.098219e+003, 1.932619e+001
1.098701e+003, 1.735478e+001
1.099183e+003, 1.583177e+001
1.099665e+003, 1.449546e+001
1.100147e+003, 1.325327e+001
1.100629e+003, 1.226328e+001
1.101112e+003, 1.174055e+001
1.101594e+003, 1.127881e+001
1.102076e+003, 1.062152e+001
1.102558e+003, 9.964079e+000
1.103040e+003, 9.545005e+000
1.103522e+003, 9.321752e+000
1.104004e+003, 9.077261e+000
1.104486e+003, 8.753492e+000
1.104969e+003, 8.490667e+000
1.105451e+003, 8.334548e+000
1.105933e+003, 8.216949e+000
1.106415e+003, 8.138055e+000
1.106897e+003, 8.065952e+000
1.107379e+003, 7.971007e+000
1.107861e+003, 7.863969e+000
1.108343e+003, 7.785482e+000
1.108825e+003, 7.756560e+000
1.109307e+003, 7.649825e+000
1.109790e+003, 7.361295e+000
1.110272e+003, 7.126294e+000
1.110754e+003, 7.018582e+000
1.111236e+003, 6.949862e+000
1.111718e+003, 6.858265e+000
1.112200e+003, 6.774920e+000
1.112682e+003, 6.771595e+000
1.113164e+003, 6.855928e+000
1.113647e+003, 6.868773e+000
1.114129e+003, 6.762742e+000
1.114611e+003, 6.663486e+000
1.115093e+003, 6.568651e+000
1.115575e+003, 6.496666e+000
1.116057e+003, 6.462117e+000
1.116539e+003, 6.448695e+000
1.117021e+003, 6.447428e+000
1.117504e+003, 6.452781e+000
1.117986e+003, 6.419768e+000
1.118468e+003, 6.308029e+000
1.118950e+003, 6.262284e+000
1.119432e+003, 6.357089e+000
1.119914e+003, 6.360971e+000
1.120396e+003, 6.133444e+000
1.120878e+003, 5.905806e+000
1.121360e+003, 5.900073e+000
1.121843e+003, 6.027435e+000
1.122325e+003, 6.010851e+000
1.122807e+003, 5.802195e+000
1.123289e+003, 5.762809e+000
1.123771e+003, 5.969005e+000
1.124253e+003, 6.077353e+000
1.124735e+003, 5.992525e+000
1.125217e+003, 5.858561e+000
1.125699e+003, 5.748003e+000
1.126182e+003, 5.684976e+000
1.126664e+003, 5.726013e+000
1.127146e+003, 5.862058e+000
1.127628e+003, 5.918919e+000
1.128110e+003, 5.885757e+000
1.128592e+003, 5.877014e+000
1.129074e+003, 5.915527e+000
1.129556e+003, 5.906091e+000
1.130039e+003, 5.795825e+000
1.130521e+003, 5.681478e+000
1.131003e+003, 5.683402e+000
1.131485e+003, 5.754949e+000
1.131967e+003, 5.709483e+000
1.132449e+003, 5.558241e+000
1.132931e+003, 5.517825e+000
1.133413e+003, 5.597204e+000
1.133896e+003, 5.658995e+000
1.134378e+003, 5.661146e+000
1.134860e+003, 5.632787e+000
1.135342e+003, 5.592800e+000
1.135824e+003, 5.555293e+000
1.136306e+003, 5.565389e+000
1.136788e+003, 5.597668e+000
1.137270e+003, 5.524555e+000
1.137752e+003, 5.376934e+000
1.138234e+003, 5.314489e+000
1.138717e+003, 5.359157e+000
1.139199e+003, 5.448000e+000
1.139681e+003, 5.549481e+000
1.140163e+003, 5.593145e+000
1.140645e+003, 5.435349e+000
1.141127e+003, 5.228915e+000
1.141609e+003, 5.326858e+000
1.142091e+003, 5.564730e+000
1.142574e+003, 5.549241e+000
1.143056e+003, 5.318904e+000
1.143538e+003, 5.139253e+000
1.144020e+003, 5.096479e+000
1.144502e+003, 5.123926e+000
1.144984e+003, 5.189087e+000
1.145466e+003, 5.269569e+000
1.145948e+003, 5.369536e+000
1.146431e+003, 5.449063e+000
1.146913e+003, 5.452693e+000
1.147395e+003, 5.399458e+000
1.147877e+003, 5.298727e+000
1.148359e+003, 5.179483e+000
1.148841e+003, 5.144811e+000
1.149323e+003, 5.258179e+000
1.149805e+003, 5.333336e+000
1.150287e+003, 5.215034e+000
1.150770e+003, 5.059421e+000
1.151252e+003, 4.927826e+000
1.151734e+003, 4.860291e+000
1.152216e+003, 4.952189e+000
1.152698e+003, 5.124350e+000
1.153180e+003, 5.186563e+000
1.153662e+003, 5.099631e+000
1.154144e+003, 5.032094e+000
1.154626e+003, 5.056670e+000
1.155109e+003, 5.086270e+000
1.155591e+003, 5.121377e+000
1.156073e+003, 5.120862e+000
1.156555e+003, 5.011780e+000
1.157037e+003, 4.882966e+000
1.157519e+003, 4.863061e+000
1.158001e+003, 4.940320e+000
1.158483e+003, 4.980353e+000
1.158966e+003, 4.943751e+000
1.159448e+003, 4.927705e+000
1.159930e+003, 4.951007e+000
1.160412e+003, 4.978488e+000
1.160894e+003, 5.022058e+000
1.161376e+003, 5.041036e+000
1.161858e+003, 4.966623e+000
1.162340e+003, 4.869514e+000
1.162822e+003, 4.926299e+000
1.163305e+003, 5.165235e+000
1.163787e+003, 5.244451e+000
1.164269e+003, 5.094381e+000
1.164751e+003, 4.987181e+000
1.165233e+003, 4.965275e+000
1.165715e+003, 4.972127e+000
1.166197e+003, 4.990524e+000
1.166679e+003, 5.001489e+000
1.167161e+003, 4.981369e+000
1.167644e+003, 4.936353e+000
1.168126e+003, 4.878440e+000
1.168608e+003, 4.804776e+000
1.169090e+003, 4.826959e+000
1.169572e+003, 4.953266e+000
1.170054e+003, 5.033710e+000
1.170536e+003, 5.026809e+000
1.171018e+003, 4.984915e+000
1.171500e+003, 4.939614e+000
1.171983e+003, 4.910800e+000
1.172465e+003, 4.938218e+000
1.172947e+003, 5.005048e+000
1.173429e+003, 5.065734e+000
1.173911e+003, 5.115407e+000
1.174393e+003, 5.133854e+000
1.174875e+003, 5.121534e+000
1.175357e+003, 5.085109e+000
1.175840e+003, 5.030619e+000
1.176322e+003, 5.001292e+000
1.176804e+003, 5.051001e+000
1.177286e+003, 5.101305e+000
1.177768e+003, 5.010501e+000
1.178250e+003, 4.890686e+000
1.178732e+003, 4.948656e+000
1.179214e+003, 5.088678e+000
1.179697e+003, 5.075250e+000
1.180179e+003, 4.917822e+000
1.180661e+003, 4.840656e+000
1.181143e+003, 4.946451e+000
1.181625e+003, 5.055890e+000
1.182107e+003, 5.054813e+000
1.182589e+003, 5.027580e+000
1.183071e+003, 5.033022e+000
1.183553e+003, 5.034969e+000
1.184036e+003, 4.967256e+000
1.184518e+003, 4.881814e+000
1.185000e+003, 4.903008e+000
1.185482e+003, 5.038301e+000
1.185964e+003, 5.094407e+000
1.186446e+003, 4.936905e+000
1.186928e+003, 4.844651e+000
1.187410e+003, 4.950547e+000
1.187892e+003, 5.022467e+000
1.188375e+003, 4.891301e+000
1.188857e+003, 4.746654e+000
1.189339e+003, 4.794111e+000
1.189821e+003, 4.957899e+000
1.190303e+003, 5.012699e+000
1.190785e+003, 4.932220e+000
1.191267e+003, 4.903422e+000
1.191749e+003, 4.962929e+000
1.192232e+003, 4.968602e+000
1.192714e+003, 4.886269e+000
1.193196e+003, 4.767339e+000
1.193678e+003, 4.603408e+000
1.194160e+003, 4.527125e+000
1.194642e+003, 4.743810e+000
1.195124e+003, 5.132513e+000
1.195606e+003, 5.164139e+000
1.196089e+003, 4.857930e+000
1.196571e+003, 4.750037e+000
1.197053e+003, 4.855554e+000
1.197535e+003, 4.954223e+000
1.198017e+003, 4.989513e+000
1.198499e+003, 4.991420e+000
1.198981e+003, 4.976546e+000
1.199463e+003, 4.964997e+000
1.199945e+003, 4.997744e+000
1.200427e+003, 5.041575e+000
1.200910e+003, 5.028831e+000
1.201392e+003, 4.975367e+000
1.201874e+003, 4.883227e+000
1.202356e+003, 4.788193e+000
1.202838e+003, 4.801871e+000
1.203320e+003, 4.936680e+000
1.203802e+003, 5.053397e+000
1.204284e+003, 5.070930e+000
1.204767e+003, 5.047122e+000
1.205249e+003, 5.004443e+000
1.205731e+003, 4.961336e+000
1.206213e+003, 4.920568e+000
1.206695e+003, 4.898176e+000
1.207177e+003, 4.916310e+000
1.207659e+003, 4.967306e+000
1.208141e+003, 5.046520e+000
1.208624e+003, 5.159365e+000
1.209106e+003, 5.182580e+000
1.209588e+003, 4.971916e+000
1.210070e+003, 4.841057e+000
1.210552e+003, 4.943501e+000
1.211034e+003, 5.034643e+000
1.211516e+003, 4.961979e+000
1.211998e+003, 4.844973e+000
1.212480e+003, 4.787060e+000
1.212963e+003, 4.788019e+000
1.213445e+003, 4.860398e+000
1.213927e+003, 5.039500e+000
1.214409e+003, 5.103271e+000
1.214891e+003, 5.021089e+000
1.215373e+003, 4.945485e+000
1.215855e+003, 4.907212e+000
1.216337e+003, 4.860980e+000
1.216819e+003, 4.777312e+000
1.217302e+003, 4.705409e+000
1.217784e+003, 4.707202e+000
1.218266e+003, 4.766011e+000
1.218748e+003, 4.849154e+000
1.219230e+003, 4.943300e+000
1.219712e+003, 4.964988e+000
1.220194e+003, 4.928157e+000
1.220676e+003, 4.940619e+000
1.221159e+003, 5.013194e+000
1.221641e+003, 5.017485e+000
1.222123e+003, 4.878544e+000
1.222605e+003, 4.799094e+000
1.223087e+003, 5.108907e+000
1.223569e+003, 5.458764e+000
1.224051e+003, 5.430667e+000
1.224533e+003, 5.212450e+000
1.225016e+003, 4.979373e+000
1.225498e+003, 4.786397e+000
1.225980e+003, 4.689869e+000
1.226462e+003, 4.691821e+000
1.226944e+003, 4.742609e+000
1.227426e+003, 4.844150e+000
1.227908e+003, 4.936944e+000
1.228390e+003, 5.014685e+000
1.228872e+003, 5.060444e+000
1.229354e+003, 5.073544e+000
1.229837e+003, 5.045313e+000
1.230319e+003, 4.813201e+000
1.230801e+003, 4.619402e+000
1.231283e+003, 5.032622e+000
1.231765e+003, 6.016706e+000
1.232247e+003, 6.198348e+000
1.232729e+003, 5.053486e+000
1.233211e+003, 4.828048e+000
1.233694e+003, 6.010824e+000
1.234176e+003, 6.650950e+000
1.234658e+003, 6.058276e+000
1.235140e+003, 5.244192e+000
1.235622e+003, 4.917039e+000
1.236104e+003, 4.890087e+000
1.236586e+003, 4.872509e+000
1.237068e+003, 4.866424e+000
1.237551e+003, 4.897355e+000
1.238033e+003, 4.948042e+000
1.238515e+003, 4.923872e+000
1.238997e+003, 4.837186e+000
1.239479e+003, 4.796109e+000
1.239961e+003, 4.826598e+000
1.240443e+003, 4.862106e+000
1.240925e+003, 4.860683e+000
1.241407e+003, 4.849726e+000
1.241890e+003, 4.855980e+000
1.242372e+003, 4.865079e+000
1.242854e+003, 4.877894e+000
1.243336e+003, 4.873390e+000
1.243818e+003, 4.792300e+000
1.244300e+003, 4.686378e+000
1.244782e+003, 4.686412e+000
1.245264e+003, 4.801847e+000
1.245746e+003, 4.858987e+000
1.246229e+003, 4.762938e+000
1.246711e+003, 4.698287e+000
1.247193e+003, 4.702834e+000
1.247675e+003, 4.735206e+000
1.248157e+003, 4.819077e+000
1.248639e+003, 4.879661e+000
1.249121e+003, 4.854907e+000
1.249603e+003, 4.781777e+000
1.250085e+003, 4.722127e+000
1.250568e+003, 4.676563e+000
1.251050e+003, 4.651000e+000
1.251532e+003, 4.643679e+000
1.252014e+003, 4.696513e+000
1.252496e+003, 4.817529e+000
1.252978e+003, 4.830757e+000
1.253460e+003, 4.684377e+000
1.253942e+003, 4.603879e+000
1.254425e+003, 4.751233e+000
1.254907e+003, 4.968382e+000
1.255389e+003, 5.046096e+000
1.255871e+003, 5.033340e+000
1.256353e+003, 4.993391e+000
1.256835e+003, 4.946679e+000
1.257317e+003, 4.949280e+000
1.257799e+003, 4.974505e+000
1.258281e+003, 4.944396e+000
1.258764e+003, 4.850991e+000
1.259246e+003, 4.746765e+000
1.259728e+003, 4.632721e+000
1.260210e+003, 4.593429e+000
1.260692e+003, 4.755888e+000
1.261174e+003, 4.886819e+000
1.261656e+003, 4.823800e+000
1.262138e+003, 4.739985e+000
1.262620e+003, 4.794336e+000
1.263103e+003, 4.902072e+000
1.263585e+003, 4.920753e+000
1.264067e+003, 4.858686e+000
1.264549e+003, 4.784136e+000
1.265031e+003, 4.663714e+000
1.265513e+003, 4.658570e+000
1.265995e+003, 4.806790e+000
1.266477e+003, 4.899229e+000
1.266960e+003, 4.884128e+000
1.267442e+003, 4.844504e+000
1.267924e+003, 4.826334e+000
1.268406e+003, 4.803319e+000
1.268888e+003, 4.729793e+000
1.269370e+003, 4.655589e+000
1.269852e+003, 4.725126e+000
1.270334e+003, 4.872825e+000
1.270817e+003, 4.949771e+000
1.271299e+003, 4.953635e+000
1.271781e+003, 4.862051e+000
1.272263e+003, 4.720099e+000
1.272745e+003, 4.683812e+000
1.273227e+003, 4.813239e+000
1.273709e+003, 5.016757e+000
1.274191e+003, 5.393608e+000
1.274673e+003, 5.617479e+000
1.275156e+003, 5.388845e+000
1.275638e+003, 5.109607e+000
1.276120e+003, 5.068549e+000
1.276602e+003, 5.105422e+000
1.277084e+003, 4.999835e+000
1.277566e+003, 4.809457e+000
1.278048e+003, 4.753136e+000
1.278530e+003, 4.848529e+000
1.279012e+003, 4.917448e+000
1.279495e+003, 4.948764e+000
1.279977e+003, 5.001616e+000
1.280459e+003, 5.096762e+000
1.280941e+003, 5.122837e+000
1.281423e+003, 5.029928e+000
1.281905e+003, 4.949034e+000
1.282387e+003, 4.988122e+000
1.282869e+003, 5.074142e+000
1.283352e+003, 5.083951e+000
1.283834e+003, 5.046221e+000
1.284316e+003, 5.021803e+000
1.284798e+003, 5.010928e+000
##END=



