##NAMES=Schafarzikite
##RRUFFID=R120039
##IDEAL CHEMISTRY=Fe^2+^Sb^3+^_2_O_4_
##LOCALITY=Pernek, Slovakia
##OWNER=RRUFF
##SOURCE=Bob Jenkins
##DESCRIPTION=Dark red elongated prismatic crystals with good cleavage, associated with white prismatic valentinite crystals.
##STATUS=The identification of this mineral has been confirmed only by single crystal X-ray diffraction.
##URL=rruff.info/R120039
##MEASURED CHEMISTRY=Fe^2+^_0.96_Si_0.02_Sb^3+^_1.99_O_4_
9.112140e+001, 0.000000e+000
9.160352e+001, 1.956978e+002
9.208563e+001, 1.905207e+002
9.256775e+001, 1.898233e+002
9.304987e+001, 1.955752e+002
9.353198e+001, 2.034444e+002
9.401410e+001, 2.097275e+002
9.449622e+001, 2.142780e+002
9.497833e+001, 2.178737e+002
9.546045e+001, 2.211638e+002
9.594257e+001, 2.240954e+002
9.642468e+001, 2.274179e+002
9.690680e+001, 2.308722e+002
9.738892e+001, 2.351110e+002
9.787103e+001, 2.403146e+002
9.835315e+001, 2.461784e+002
9.883527e+001, 2.525474e+002
9.931738e+001, 2.600470e+002
9.979950e+001, 2.690838e+002
1.002816e+002, 2.785411e+002
1.007637e+002, 2.877429e+002
1.012458e+002, 2.975929e+002
1.017280e+002, 3.085381e+002
1.022101e+002, 3.207144e+002
1.026922e+002, 3.345277e+002
1.031743e+002, 3.512922e+002
1.036564e+002, 3.705841e+002
1.041385e+002, 3.915197e+002
1.046207e+002, 4.157041e+002
1.051028e+002, 4.417276e+002
1.055849e+002, 4.656385e+002
1.060670e+002, 4.886388e+002
1.065491e+002, 5.055866e+002
1.070313e+002, 5.131971e+002
1.075134e+002, 5.113479e+002
1.079955e+002, 5.004927e+002
1.084776e+002, 4.790874e+002
1.089597e+002, 4.449216e+002
1.094418e+002, 4.096786e+002
1.099240e+002, 3.735083e+002
1.104061e+002, 3.391609e+002
1.108882e+002, 3.090366e+002
1.113703e+002, 2.840058e+002
1.118524e+002, 2.636392e+002
1.123345e+002, 2.469304e+002
1.128167e+002, 2.351250e+002
1.132988e+002, 2.260062e+002
1.137809e+002, 2.191562e+002
1.142630e+002, 2.145543e+002
1.147451e+002, 2.122853e+002
1.152272e+002, 2.124837e+002
1.157094e+002, 2.150735e+002
1.161915e+002, 2.187432e+002
1.166736e+002, 2.235626e+002
1.171557e+002, 2.291971e+002
1.176378e+002, 2.364056e+002
1.181199e+002, 2.446206e+002
1.186021e+002, 2.523055e+002
1.190842e+002, 2.586012e+002
1.195663e+002, 2.631300e+002
1.200484e+002, 2.635258e+002
1.205305e+002, 2.586794e+002
1.210126e+002, 2.505340e+002
1.214948e+002, 2.400216e+002
1.219769e+002, 2.270338e+002
1.224590e+002, 2.134842e+002
1.229411e+002, 2.009110e+002
1.234232e+002, 1.892343e+002
1.239053e+002, 1.789781e+002
1.243875e+002, 1.704489e+002
1.248696e+002, 1.635052e+002
1.253517e+002, 1.578152e+002
1.258338e+002, 1.533030e+002
1.263159e+002, 1.503196e+002
1.267980e+002, 1.489151e+002
1.272802e+002, 1.489672e+002
1.277623e+002, 1.499141e+002
1.282444e+002, 1.514261e+002
1.287265e+002, 1.535165e+002
1.292086e+002, 1.559690e+002
1.296907e+002, 1.595016e+002
1.301729e+002, 1.628759e+002
1.306550e+002, 1.660412e+002
1.311371e+002, 1.687443e+002
1.316192e+002, 1.701662e+002
1.321013e+002, 1.690520e+002
1.325834e+002, 1.642706e+002
1.330656e+002, 1.588467e+002
1.335477e+002, 1.522253e+002
1.340298e+002, 1.454666e+002
1.345119e+002, 1.392336e+002
1.349940e+002, 1.337905e+002
1.354761e+002, 1.291147e+002
1.359583e+002, 1.252386e+002
1.364404e+002, 1.223662e+002
1.369225e+002, 1.201475e+002
1.374046e+002, 1.186301e+002
1.378867e+002, 1.177429e+002
1.383688e+002, 1.174634e+002
1.388510e+002, 1.178197e+002
1.393331e+002, 1.186944e+002
1.398152e+002, 1.197066e+002
1.402973e+002, 1.208243e+002
1.407794e+002, 1.220784e+002
1.412615e+002, 1.234986e+002
1.417437e+002, 1.250690e+002
1.422258e+002, 1.267408e+002
1.427079e+002, 1.284382e+002
1.431900e+002, 1.302623e+002
1.436721e+002, 1.323134e+002
1.441542e+002, 1.344306e+002
1.446364e+002, 1.369898e+002
1.451185e+002, 1.407728e+002
1.456006e+002, 1.460855e+002
1.460827e+002, 1.507459e+002
1.465648e+002, 1.527233e+002
1.470469e+002, 1.537347e+002
1.475291e+002, 1.554977e+002
1.480112e+002, 1.586889e+002
1.484933e+002, 1.629019e+002
1.489754e+002, 1.672120e+002
1.494575e+002, 1.714742e+002
1.499396e+002, 1.761949e+002
1.504218e+002, 1.814935e+002
1.509039e+002, 1.872812e+002
1.513860e+002, 1.934323e+002
1.518681e+002, 1.999190e+002
1.523502e+002, 2.067489e+002
1.528323e+002, 2.136055e+002
1.533145e+002, 2.206549e+002
1.537966e+002, 2.275775e+002
1.542787e+002, 2.342928e+002
1.547608e+002, 2.408571e+002
1.552429e+002, 2.475234e+002
1.557250e+002, 2.546413e+002
1.562072e+002, 2.623246e+002
1.566893e+002, 2.683313e+002
1.571714e+002, 2.727177e+002
1.576535e+002, 2.758071e+002
1.581356e+002, 2.778887e+002
1.586177e+002, 2.788598e+002
1.590999e+002, 2.783170e+002
1.595820e+002, 2.758717e+002
1.600641e+002, 2.712124e+002
1.605462e+002, 2.651735e+002
1.610283e+002, 2.574076e+002
1.615104e+002, 2.486343e+002
1.619926e+002, 2.392109e+002
1.624747e+002, 2.292216e+002
1.629568e+002, 2.188849e+002
1.634389e+002, 2.083688e+002
1.639210e+002, 1.976718e+002
1.644031e+002, 1.874255e+002
1.648853e+002, 1.776450e+002
1.653674e+002, 1.684090e+002
1.658495e+002, 1.599990e+002
1.663316e+002, 1.524242e+002
1.668137e+002, 1.456884e+002
1.672958e+002, 1.399447e+002
1.677780e+002, 1.350068e+002
1.682601e+002, 1.304212e+002
1.687422e+002, 1.259841e+002
1.692243e+002, 1.217264e+002
1.697064e+002, 1.178485e+002
1.701885e+002, 1.143739e+002
1.706707e+002, 1.113584e+002
1.711528e+002, 1.088011e+002
1.716349e+002, 1.066647e+002
1.721170e+002, 1.047754e+002
1.725991e+002, 1.030447e+002
1.730812e+002, 1.014778e+002
1.735634e+002, 9.995885e+001
1.740455e+002, 9.848689e+001
1.745276e+002, 9.705396e+001
1.750097e+002, 9.569076e+001
1.754918e+002, 9.438011e+001
1.759739e+002, 9.306461e+001
1.764561e+002, 9.162733e+001
1.769382e+002, 8.989964e+001
1.774203e+002, 8.861209e+001
1.779024e+002, 8.804586e+001
1.783845e+002, 8.764635e+001
1.788666e+002, 8.710014e+001
1.793488e+002, 8.638660e+001
1.798309e+002, 8.571291e+001
1.803130e+002, 8.539656e+001
1.807951e+002, 8.570851e+001
1.812772e+002, 8.577059e+001
1.817593e+002, 8.541533e+001
1.822415e+002, 8.495410e+001
1.827236e+002, 8.458210e+001
1.832057e+002, 8.435593e+001
1.836878e+002, 8.426070e+001
1.841699e+002, 8.429698e+001
1.846520e+002, 8.466283e+001
1.851342e+002, 8.473772e+001
1.856163e+002, 8.432545e+001
1.860984e+002, 8.369570e+001
1.865805e+002, 8.313934e+001
1.870626e+002, 8.274586e+001
1.875447e+002, 8.239680e+001
1.880269e+002, 8.185934e+001
1.885090e+002, 8.106362e+001
1.889911e+002, 8.038676e+001
1.894732e+002, 7.995017e+001
1.899553e+002, 7.968130e+001
1.904374e+002, 7.946133e+001
1.909196e+002, 7.925229e+001
1.914017e+002, 7.908825e+001
1.918838e+002, 7.904156e+001
1.923659e+002, 7.912096e+001
1.928480e+002, 7.916792e+001
1.933301e+002, 7.902648e+001
1.938123e+002, 7.877254e+001
1.942944e+002, 7.869788e+001
1.947765e+002, 7.893620e+001
1.952586e+002, 7.931733e+001
1.957407e+002, 7.964411e+001
1.962228e+002, 7.991455e+001
1.967050e+002, 8.019350e+001
1.971871e+002, 8.046209e+001
1.976692e+002, 8.073019e+001
1.981513e+002, 8.123018e+001
1.986334e+002, 8.216999e+001
1.991155e+002, 8.323781e+001
1.995977e+002, 8.421355e+001
2.000798e+002, 8.508936e+001
2.005619e+002, 8.598470e+001
2.010440e+002, 8.703337e+001
2.015261e+002, 8.826591e+001
2.020082e+002, 8.949429e+001
2.024904e+002, 9.067146e+001
2.029725e+002, 9.186361e+001
2.034546e+002, 9.310850e+001
2.039367e+002, 9.441105e+001
2.044188e+002, 9.575910e+001
2.049009e+002, 9.714067e+001
2.053831e+002, 9.857015e+001
2.058652e+002, 9.998261e+001
2.063473e+002, 1.013733e+002
2.068294e+002, 1.027475e+002
2.073115e+002, 1.041139e+002
2.077936e+002, 1.054657e+002
2.082758e+002, 1.067791e+002
2.087579e+002, 1.079644e+002
2.092400e+002, 1.087584e+002
2.097221e+002, 1.100411e+002
2.102042e+002, 1.122807e+002
2.106863e+002, 1.145899e+002
2.111685e+002, 1.162865e+002
2.116506e+002, 1.172768e+002
2.121327e+002, 1.180446e+002
2.126148e+002, 1.193143e+002
2.130969e+002, 1.214279e+002
2.135790e+002, 1.233369e+002
2.140612e+002, 1.251061e+002
2.145433e+002, 1.266474e+002
2.150254e+002, 1.277961e+002
2.155075e+002, 1.285349e+002
2.159896e+002, 1.291934e+002
2.164717e+002, 1.302900e+002
2.169539e+002, 1.323144e+002
2.174360e+002, 1.335181e+002
2.179181e+002, 1.334591e+002
2.184002e+002, 1.327751e+002
2.188823e+002, 1.320408e+002
2.193644e+002, 1.313954e+002
2.198466e+002, 1.307315e+002
2.203287e+002, 1.299366e+002
2.208108e+002, 1.290383e+002
2.212929e+002, 1.278316e+002
2.217750e+002, 1.263153e+002
2.222571e+002, 1.244636e+002
2.227393e+002, 1.221494e+002
2.232214e+002, 1.193037e+002
2.237035e+002, 1.162746e+002
2.241856e+002, 1.134280e+002
2.246677e+002, 1.107497e+002
2.251498e+002, 1.083346e+002
2.256320e+002, 1.065158e+002
2.261141e+002, 1.049035e+002
2.265962e+002, 1.027387e+002
2.270783e+002, 9.971574e+001
2.275604e+002, 9.667237e+001
2.280425e+002, 9.454427e+001
2.285247e+002, 9.314359e+001
2.290068e+002, 9.173412e+001
2.294889e+002, 8.989809e+001
2.299710e+002, 8.788256e+001
2.304531e+002, 8.628061e+001
2.309352e+002, 8.531213e+001
2.314174e+002, 8.443813e+001
2.318995e+002, 8.319157e+001
2.323816e+002, 8.169884e+001
2.328637e+002, 8.030734e+001
2.333458e+002, 7.916044e+001
2.338279e+002, 7.824075e+001
2.343101e+002, 7.747926e+001
2.347922e+002, 7.689841e+001
2.352743e+002, 7.646643e+001
2.357564e+002, 7.627939e+001
2.362385e+002, 7.620805e+001
2.367206e+002, 7.597631e+001
2.372028e+002, 7.533618e+001
2.376849e+002, 7.440636e+001
2.381670e+002, 7.369685e+001
2.386491e+002, 7.333488e+001
2.391312e+002, 7.302038e+001
2.396133e+002, 7.247029e+001
2.400955e+002, 7.188741e+001
2.405776e+002, 7.164031e+001
2.410597e+002, 7.205579e+001
2.415418e+002, 7.295384e+001
2.420239e+002, 7.342924e+001
2.425060e+002, 7.311624e+001
2.429882e+002, 7.286214e+001
2.434703e+002, 7.300300e+001
2.439524e+002, 7.333973e+001
2.444345e+002, 7.355201e+001
2.449166e+002, 7.342368e+001
2.453987e+002, 7.306625e+001
2.458809e+002, 7.302343e+001
2.463630e+002, 7.360786e+001
2.468451e+002, 7.412200e+001
2.473272e+002, 7.445940e+001
2.478093e+002, 7.463834e+001
2.482914e+002, 7.467529e+001
2.487736e+002, 7.457394e+001
2.492557e+002, 7.435918e+001
2.497378e+002, 7.412401e+001
2.502199e+002, 7.365668e+001
2.507020e+002, 7.345403e+001
2.511841e+002, 7.377332e+001
2.516663e+002, 7.432177e+001
2.521484e+002, 7.478220e+001
2.526305e+002, 7.500529e+001
2.531126e+002, 7.501180e+001
2.535947e+002, 7.486184e+001
2.540768e+002, 7.425002e+001
2.545590e+002, 7.385486e+001
2.550411e+002, 7.383375e+001
2.555232e+002, 7.400192e+001
2.560053e+002, 7.415036e+001
2.564874e+002, 7.419082e+001
2.569695e+002, 7.418993e+001
2.574517e+002, 7.430896e+001
2.579338e+002, 7.478133e+001
2.584159e+002, 7.509425e+001
2.588980e+002, 7.506761e+001
2.593801e+002, 7.495609e+001
2.598622e+002, 7.497195e+001
2.603444e+002, 7.519446e+001
2.608265e+002, 7.566954e+001
2.613086e+002, 7.650191e+001
2.617907e+002, 7.814433e+001
2.622728e+002, 7.943860e+001
2.627549e+002, 8.010817e+001
2.632371e+002, 8.055517e+001
2.637192e+002, 8.116469e+001
2.642013e+002, 8.204280e+001
2.646834e+002, 8.305118e+001
2.651655e+002, 8.397594e+001
2.656476e+002, 8.470435e+001
2.661298e+002, 8.564531e+001
2.666119e+002, 8.694976e+001
2.670940e+002, 8.839677e+001
2.675761e+002, 8.973837e+001
2.680582e+002, 9.093913e+001
2.685403e+002, 9.218883e+001
2.690225e+002, 9.370126e+001
2.695046e+002, 9.551978e+001
2.699867e+002, 9.753497e+001
2.704688e+002, 9.992355e+001
2.709509e+002, 1.023929e+002
2.714330e+002, 1.046459e+002
2.719152e+002, 1.066551e+002
2.723973e+002, 1.086800e+002
2.728794e+002, 1.109105e+002
2.733615e+002, 1.133859e+002
2.738436e+002, 1.161565e+002
2.743257e+002, 1.194006e+002
2.748079e+002, 1.228313e+002
2.752900e+002, 1.262400e+002
2.757721e+002, 1.296194e+002
2.762542e+002, 1.329122e+002
2.767363e+002, 1.360068e+002
2.772184e+002, 1.389607e+002
2.777006e+002, 1.423103e+002
2.781827e+002, 1.463233e+002
2.786648e+002, 1.504968e+002
2.791469e+002, 1.544641e+002
2.796290e+002, 1.582364e+002
2.801111e+002, 1.620017e+002
2.805933e+002, 1.657861e+002
2.810754e+002, 1.696950e+002
2.815575e+002, 1.739889e+002
2.820396e+002, 1.787439e+002
2.825217e+002, 1.837684e+002
2.830038e+002, 1.890995e+002
2.834860e+002, 1.946694e+002
2.839681e+002, 2.001484e+002
2.844502e+002, 2.053000e+002
2.849323e+002, 2.103503e+002
2.854144e+002, 2.157788e+002
2.858965e+002, 2.217058e+002
2.863787e+002, 2.276892e+002
2.868608e+002, 2.333885e+002
2.873429e+002, 2.389071e+002
2.878250e+002, 2.447448e+002
2.883071e+002, 2.511557e+002
2.887892e+002, 2.578333e+002
2.892714e+002, 2.643717e+002
2.897535e+002, 2.707581e+002
2.902356e+002, 2.770226e+002
2.907177e+002, 2.836508e+002
2.911998e+002, 2.901908e+002
2.916819e+002, 2.954953e+002
2.921641e+002, 2.992196e+002
2.926462e+002, 3.017787e+002
2.931283e+002, 3.038078e+002
2.936104e+002, 3.053214e+002
2.940925e+002, 3.055697e+002
2.945746e+002, 3.040747e+002
2.950568e+002, 3.011358e+002
2.955389e+002, 2.972546e+002
2.960210e+002, 2.923900e+002
2.965031e+002, 2.868730e+002
2.969852e+002, 2.809619e+002
2.974673e+002, 2.746388e+002
2.979495e+002, 2.675745e+002
2.984316e+002, 2.595030e+002
2.989137e+002, 2.507187e+002
2.993958e+002, 2.414589e+002
2.998779e+002, 2.315746e+002
3.003600e+002, 2.219644e+002
3.008422e+002, 2.135542e+002
3.013243e+002, 2.058031e+002
3.018064e+002, 1.979030e+002
3.022885e+002, 1.892292e+002
3.027706e+002, 1.806653e+002
3.032527e+002, 1.733299e+002
3.037349e+002, 1.672679e+002
3.042170e+002, 1.613811e+002
3.046991e+002, 1.550157e+002
3.051812e+002, 1.486186e+002
3.056633e+002, 1.427786e+002
3.061454e+002, 1.376068e+002
3.066276e+002, 1.329522e+002
3.071097e+002, 1.288287e+002
3.075918e+002, 1.252177e+002
3.080739e+002, 1.216288e+002
3.085560e+002, 1.178772e+002
3.090381e+002, 1.141602e+002
3.095203e+002, 1.106470e+002
3.100024e+002, 1.073187e+002
3.104845e+002, 1.042848e+002
3.109666e+002, 1.017125e+002
3.114487e+002, 9.953214e+001
3.119308e+002, 9.742109e+001
3.124130e+002, 9.531248e+001
3.128951e+002, 9.329342e+001
3.133772e+002, 9.149258e+001
3.138593e+002, 8.987405e+001
3.143414e+002, 8.826026e+001
3.148235e+002, 8.640916e+001
3.153057e+002, 8.449978e+001
3.157878e+002, 8.303931e+001
3.162699e+002, 8.223460e+001
3.167520e+002, 8.150050e+001
3.172341e+002, 8.027033e+001
3.177162e+002, 7.878172e+001
3.181984e+002, 7.756458e+001
3.186805e+002, 7.697207e+001
3.191626e+002, 7.669068e+001
3.196447e+002, 7.621206e+001
3.201268e+002, 7.549045e+001
3.206089e+002, 7.480444e+001
3.210911e+002, 7.437534e+001
3.215732e+002, 7.406054e+001
3.220553e+002, 7.366413e+001
3.225374e+002, 7.311762e+001
3.230195e+002, 7.252398e+001
3.235016e+002, 7.194851e+001
3.239838e+002, 7.138660e+001
3.244659e+002, 7.097230e+001
3.249480e+002, 7.085793e+001
3.254301e+002, 7.085386e+001
3.259122e+002, 7.070789e+001
3.263943e+002, 7.037535e+001
3.268765e+002, 7.006023e+001
3.273586e+002, 6.987119e+001
3.278407e+002, 6.981161e+001
3.283228e+002, 6.993487e+001
3.288049e+002, 7.035979e+001
3.292870e+002, 7.082480e+001
3.297692e+002, 7.101659e+001
3.302513e+002, 7.096191e+001
3.307334e+002, 7.097422e+001
3.312155e+002, 7.127824e+001
3.316976e+002, 7.175056e+001
3.321797e+002, 7.208671e+001
3.326619e+002, 7.221514e+001
3.331440e+002, 7.231925e+001
3.336261e+002, 7.250072e+001
3.341082e+002, 7.276546e+001
3.345903e+002, 7.316830e+001
3.350724e+002, 7.384678e+001
3.355546e+002, 7.460932e+001
3.360367e+002, 7.513251e+001
3.365188e+002, 7.537572e+001
3.370009e+002, 7.578774e+001
3.374830e+002, 7.676370e+001
3.379651e+002, 7.804599e+001
3.384473e+002, 7.913765e+001
3.389294e+002, 7.992941e+001
3.394115e+002, 8.061082e+001
3.398936e+002, 8.133485e+001
3.403757e+002, 8.208855e+001
3.408578e+002, 8.272702e+001
3.413400e+002, 8.310863e+001
3.418221e+002, 8.344691e+001
3.423042e+002, 8.409715e+001
3.427863e+002, 8.512215e+001
3.432684e+002, 8.610181e+001
3.437505e+002, 8.675977e+001
3.442327e+002, 8.722309e+001
3.447148e+002, 8.778560e+001
3.451969e+002, 8.850188e+001
3.456790e+002, 8.934750e+001
3.461611e+002, 9.042126e+001
3.466432e+002, 9.167700e+001
3.471254e+002, 9.272123e+001
3.476075e+002, 9.339290e+001
3.480896e+002, 9.382509e+001
3.485717e+002, 9.417432e+001
3.490538e+002, 9.445744e+001
3.495359e+002, 9.458592e+001
3.500181e+002, 9.444077e+001
3.505002e+002, 9.407024e+001
3.509823e+002, 9.374044e+001
3.514644e+002, 9.358404e+001
3.519465e+002, 9.337188e+001
3.524286e+002, 9.293832e+001
3.529108e+002, 9.230909e+001
3.533929e+002, 9.162472e+001
3.538750e+002, 9.101597e+001
3.543571e+002, 9.032491e+001
3.548392e+002, 8.914213e+001
3.553214e+002, 8.730479e+001
3.558035e+002, 8.543705e+001
3.562856e+002, 8.372353e+001
3.567677e+002, 8.214125e+001
3.572498e+002, 8.070095e+001
3.577319e+002, 7.943070e+001
3.582141e+002, 7.815300e+001
3.586962e+002, 7.655471e+001
3.591783e+002, 7.456233e+001
3.596604e+002, 7.271972e+001
3.601425e+002, 7.111913e+001
3.606246e+002, 6.966653e+001
3.611068e+002, 6.824447e+001
3.615889e+002, 6.684454e+001
3.620710e+002, 6.565130e+001
3.625531e+002, 6.485594e+001
3.630352e+002, 6.445641e+001
3.635173e+002, 6.396429e+001
3.639995e+002, 6.337579e+001
3.644816e+002, 6.270697e+001
3.649637e+002, 6.189510e+001
3.654458e+002, 6.100530e+001
3.659279e+002, 6.020697e+001
3.664100e+002, 5.960020e+001
3.668922e+002, 5.911774e+001
3.673743e+002, 5.854878e+001
3.678564e+002, 5.778508e+001
3.683385e+002, 5.709203e+001
3.688206e+002, 5.646746e+001
3.693027e+002, 5.594535e+001
3.697849e+002, 5.559130e+001
3.702670e+002, 5.541984e+001
3.707491e+002, 5.535352e+001
3.712312e+002, 5.529796e+001
3.717133e+002, 5.528279e+001
3.721954e+002, 5.517588e+001
3.726776e+002, 5.497380e+001
3.731597e+002, 5.469284e+001
3.736418e+002, 5.424799e+001
3.741239e+002, 5.370630e+001
3.746060e+002, 5.328764e+001
3.750881e+002, 5.317675e+001
3.755703e+002, 5.336541e+001
3.760524e+002, 5.352071e+001
3.765345e+002, 5.371165e+001
3.770166e+002, 5.379433e+001
3.774987e+002, 5.368452e+001
3.779808e+002, 5.345881e+001
3.784630e+002, 5.319718e+001
3.789451e+002, 5.293542e+001
3.794272e+002, 5.272239e+001
3.799093e+002, 5.268591e+001
3.803914e+002, 5.298206e+001
3.808735e+002, 5.320022e+001
3.813557e+002, 5.328872e+001
3.818378e+002, 5.332847e+001
3.823199e+002, 5.334583e+001
3.828020e+002, 5.336356e+001
3.832841e+002, 5.343769e+001
3.837662e+002, 5.365511e+001
3.842484e+002, 5.405401e+001
3.847305e+002, 5.433231e+001
3.852126e+002, 5.428192e+001
3.856947e+002, 5.430972e+001
3.861768e+002, 5.460590e+001
3.866589e+002, 5.507689e+001
3.871411e+002, 5.553368e+001
3.876232e+002, 5.587337e+001
3.881053e+002, 5.610267e+001
3.885874e+002, 5.624405e+001
3.890695e+002, 5.629935e+001
3.895516e+002, 5.625233e+001
3.900338e+002, 5.594060e+001
3.905159e+002, 5.562542e+001
3.909980e+002, 5.555556e+001
3.914801e+002, 5.579960e+001
3.919622e+002, 5.622362e+001
3.924443e+002, 5.669823e+001
3.929265e+002, 5.723109e+001
3.934086e+002, 5.773157e+001
3.938907e+002, 5.812622e+001
3.943728e+002, 5.854609e+001
3.948549e+002, 5.919249e+001
3.953370e+002, 5.996560e+001
3.958192e+002, 6.048748e+001
3.963013e+002, 6.034805e+001
3.967834e+002, 5.977605e+001
3.972655e+002, 5.954462e+001
3.977476e+002, 5.974802e+001
3.982297e+002, 6.005045e+001
3.987119e+002, 6.029512e+001
3.991940e+002, 6.052657e+001
3.996761e+002, 6.082721e+001
4.001582e+002, 6.127607e+001
4.006403e+002, 6.166857e+001
4.011224e+002, 6.171577e+001
4.016046e+002, 6.144369e+001
4.020867e+002, 6.132540e+001
4.025688e+002, 6.165024e+001
4.030509e+002, 6.201663e+001
4.035330e+002, 6.194370e+001
4.040151e+002, 6.142936e+001
4.044973e+002, 6.081120e+001
4.049794e+002, 6.016140e+001
4.054615e+002, 5.952442e+001
4.059436e+002, 5.898070e+001
4.064257e+002, 5.854630e+001
4.069078e+002, 5.818513e+001
4.073900e+002, 5.797992e+001
4.078721e+002, 5.784515e+001
4.083542e+002, 5.736874e+001
4.088363e+002, 5.614489e+001
4.093184e+002, 5.491148e+001
4.098005e+002, 5.419431e+001
4.102827e+002, 5.388250e+001
4.107648e+002, 5.360141e+001
4.112469e+002, 5.319355e+001
4.117290e+002, 5.270820e+001
4.122111e+002, 5.223531e+001
4.126932e+002, 5.169979e+001
4.131754e+002, 5.135022e+001
4.136575e+002, 5.144253e+001
4.141396e+002, 5.162822e+001
4.146217e+002, 5.152831e+001
4.151038e+002, 5.108521e+001
4.155859e+002, 5.048657e+001
4.160681e+002, 4.988849e+001
4.165502e+002, 4.927814e+001
4.170323e+002, 4.885031e+001
4.175144e+002, 4.871071e+001
4.179965e+002, 4.861098e+001
4.184786e+002, 4.847681e+001
4.189608e+002, 4.830616e+001
4.194429e+002, 4.806942e+001
4.199250e+002, 4.774150e+001
4.204071e+002, 4.742713e+001
4.208892e+002, 4.743570e+001
4.213713e+002, 4.816406e+001
4.218535e+002, 4.861587e+001
4.223356e+002, 4.868880e+001
4.228177e+002, 4.855018e+001
4.232998e+002, 4.823273e+001
4.237819e+002, 4.779755e+001
4.242640e+002, 4.742278e+001
4.247462e+002, 4.731307e+001
4.252283e+002, 4.749010e+001
4.257104e+002, 4.760389e+001
4.261925e+002, 4.755312e+001
4.266746e+002, 4.754807e+001
4.271567e+002, 4.774403e+001
4.276389e+002, 4.800325e+001
4.281210e+002, 4.810529e+001
4.286031e+002, 4.793611e+001
4.290852e+002, 4.759362e+001
4.295673e+002, 4.720218e+001
4.300494e+002, 4.665318e+001
4.305316e+002, 4.644142e+001
4.310137e+002, 4.703041e+001
4.314958e+002, 4.777162e+001
4.319779e+002, 4.828918e+001
4.324600e+002, 4.855001e+001
4.329421e+002, 4.869004e+001
4.334243e+002, 4.880037e+001
4.339064e+002, 4.887272e+001
4.343885e+002, 4.882713e+001
4.348706e+002, 4.855265e+001
4.353527e+002, 4.841199e+001
4.358348e+002, 4.878637e+001
4.363170e+002, 4.942764e+001
4.367991e+002, 4.993049e+001
4.372812e+002, 5.015556e+001
4.377633e+002, 5.026656e+001
4.382454e+002, 5.033805e+001
4.387275e+002, 5.039560e+001
4.392097e+002, 5.064046e+001
4.396918e+002, 5.120207e+001
4.401739e+002, 5.189020e+001
4.406560e+002, 5.240800e+001
4.411381e+002, 5.274766e+001
4.416202e+002, 5.311131e+001
4.421024e+002, 5.359232e+001
4.425845e+002, 5.410491e+001
4.430666e+002, 5.455916e+001
4.435487e+002, 5.494548e+001
4.440308e+002, 5.525580e+001
4.445129e+002, 5.543907e+001
4.449951e+002, 5.553251e+001
4.454772e+002, 5.588639e+001
4.459593e+002, 5.667466e+001
4.464414e+002, 5.747672e+001
4.469235e+002, 5.823375e+001
4.474056e+002, 5.890533e+001
4.478878e+002, 5.940276e+001
4.483699e+002, 5.969994e+001
4.488520e+002, 5.991856e+001
4.493341e+002, 6.022962e+001
4.498162e+002, 6.058459e+001
4.502983e+002, 6.119870e+001
4.507805e+002, 6.233971e+001
4.512626e+002, 6.345181e+001
4.517447e+002, 6.415051e+001
4.522268e+002, 6.456754e+001
4.527089e+002, 6.512435e+001
4.531910e+002, 6.612138e+001
4.536732e+002, 6.742927e+001
4.541553e+002, 6.851004e+001
4.546374e+002, 6.938428e+001
4.551195e+002, 6.996412e+001
4.556016e+002, 6.994278e+001
4.560837e+002, 6.985054e+001
4.565659e+002, 7.011042e+001
4.570480e+002, 7.080840e+001
4.575301e+002, 7.177792e+001
4.580122e+002, 7.305252e+001
4.584943e+002, 7.461986e+001
4.589764e+002, 7.551434e+001
4.594586e+002, 7.528795e+001
4.599407e+002, 7.499779e+001
4.604228e+002, 7.524185e+001
4.609049e+002, 7.580019e+001
4.613870e+002, 7.627299e+001
4.618691e+002, 7.646882e+001
4.623513e+002, 7.660883e+001
4.628334e+002, 7.706168e+001
4.633155e+002, 7.780581e+001
4.637976e+002, 7.825174e+001
4.642797e+002, 7.812460e+001
4.647618e+002, 7.772250e+001
4.652440e+002, 7.742210e+001
4.657261e+002, 7.722483e+001
4.662082e+002, 7.700039e+001
4.666903e+002, 7.669231e+001
4.671724e+002, 7.633945e+001
4.676545e+002, 7.599867e+001
4.681367e+002, 7.567240e+001
4.686188e+002, 7.529453e+001
4.691009e+002, 7.480036e+001
4.695830e+002, 7.422749e+001
4.700651e+002, 7.375278e+001
4.705472e+002, 7.330252e+001
4.710294e+002, 7.302817e+001
4.715115e+002, 7.320491e+001
4.719936e+002, 7.348124e+001
4.724757e+002, 7.339101e+001
4.729578e+002, 7.282288e+001
4.734399e+002, 7.200816e+001
4.739221e+002, 7.119547e+001
4.744042e+002, 7.035680e+001
4.748863e+002, 6.969303e+001
4.753684e+002, 6.933459e+001
4.758505e+002, 6.898512e+001
4.763326e+002, 6.856371e+001
4.768148e+002, 6.807163e+001
4.772969e+002, 6.753239e+001
4.777790e+002, 6.696185e+001
4.782611e+002, 6.633811e+001
4.787432e+002, 6.560830e+001
4.792253e+002, 6.473300e+001
4.797075e+002, 6.387140e+001
4.801896e+002, 6.296068e+001
4.806717e+002, 6.213915e+001
4.811538e+002, 6.156269e+001
4.816359e+002, 6.117407e+001
4.821180e+002, 6.072433e+001
4.826002e+002, 6.000515e+001
4.830823e+002, 5.911829e+001
4.835644e+002, 5.834935e+001
4.840465e+002, 5.773571e+001
4.845286e+002, 5.711486e+001
4.850107e+002, 5.634516e+001
4.854929e+002, 5.556983e+001
4.859750e+002, 5.495032e+001
4.864571e+002, 5.451371e+001
4.869392e+002, 5.420127e+001
4.874213e+002, 5.408235e+001
4.879034e+002, 5.404763e+001
4.883856e+002, 5.383028e+001
4.888677e+002, 5.336933e+001
4.893498e+002, 5.285878e+001
4.898319e+002, 5.244304e+001
4.903140e+002, 5.212817e+001
4.907961e+002, 5.188673e+001
4.912783e+002, 5.172378e+001
4.917604e+002, 5.162584e+001
4.922425e+002, 5.166327e+001
4.927246e+002, 5.174706e+001
4.932067e+002, 5.166989e+001
4.936888e+002, 5.135895e+001
4.941710e+002, 5.101612e+001
4.946531e+002, 5.098420e+001
4.951352e+002, 5.145572e+001
4.956173e+002, 5.162329e+001
4.960994e+002, 5.121351e+001
4.965815e+002, 5.081020e+001
4.970637e+002, 5.070530e+001
4.975458e+002, 5.083007e+001
4.980279e+002, 5.100200e+001
4.985100e+002, 5.112556e+001
4.989921e+002, 5.119556e+001
4.994742e+002, 5.118431e+001
4.999564e+002, 5.103508e+001
5.004385e+002, 5.094867e+001
5.009206e+002, 5.091648e+001
5.014027e+002, 5.098360e+001
5.018848e+002, 5.116174e+001
5.023669e+002, 5.146403e+001
5.028491e+002, 5.193494e+001
5.033312e+002, 5.275891e+001
5.038133e+002, 5.373924e+001
5.042954e+002, 5.432847e+001
5.047775e+002, 5.448426e+001
5.052596e+002, 5.442260e+001
5.057418e+002, 5.403025e+001
5.062239e+002, 5.359227e+001
5.067060e+002, 5.350997e+001
5.071881e+002, 5.384615e+001
5.076702e+002, 5.436450e+001
5.081523e+002, 5.505993e+001
5.086345e+002, 5.582485e+001
5.091166e+002, 5.644926e+001
5.095987e+002, 5.690398e+001
5.100808e+002, 5.737278e+001
5.105629e+002, 5.802364e+001
5.110450e+002, 5.883282e+001
5.115272e+002, 5.954280e+001
5.120093e+002, 6.015581e+001
5.124914e+002, 6.068569e+001
5.129735e+002, 6.100929e+001
5.134556e+002, 6.130524e+001
5.139377e+002, 6.184412e+001
5.144199e+002, 6.268115e+001
5.149020e+002, 6.362112e+001
5.153841e+002, 6.440082e+001
5.158662e+002, 6.498015e+001
5.163483e+002, 6.566675e+001
5.168304e+002, 6.663004e+001
5.173126e+002, 6.752013e+001
5.177947e+002, 6.817234e+001
5.182768e+002, 6.870686e+001
5.187589e+002, 6.927077e+001
5.192410e+002, 6.991630e+001
5.197231e+002, 7.069815e+001
5.202053e+002, 7.180903e+001
5.206874e+002, 7.328983e+001
5.211695e+002, 7.446635e+001
5.216516e+002, 7.522177e+001
5.221337e+002, 7.566763e+001
5.226158e+002, 7.575217e+001
5.230980e+002, 7.560992e+001
5.235801e+002, 7.564293e+001
5.240622e+002, 7.619752e+001
5.245443e+002, 7.678516e+001
5.250264e+002, 7.687315e+001
5.255085e+002, 7.651894e+001
5.259907e+002, 7.606535e+001
5.264728e+002, 7.564452e+001
5.269549e+002, 7.514241e+001
5.274370e+002, 7.437978e+001
5.279191e+002, 7.333390e+001
5.284012e+002, 7.215774e+001
5.288834e+002, 7.073331e+001
5.293655e+002, 6.929597e+001
5.298476e+002, 6.796383e+001
5.303297e+002, 6.675346e+001
5.308118e+002, 6.571864e+001
5.312939e+002, 6.490051e+001
5.317761e+002, 6.418633e+001
5.322582e+002, 6.327781e+001
5.327403e+002, 6.200289e+001
5.332224e+002, 6.084877e+001
5.337045e+002, 5.980310e+001
5.341866e+002, 5.888338e+001
5.346688e+002, 5.812078e+001
5.351509e+002, 5.749168e+001
5.356330e+002, 5.693126e+001
5.361151e+002, 5.639476e+001
5.365972e+002, 5.590157e+001
5.370793e+002, 5.554413e+001
5.375615e+002, 5.539858e+001
5.380436e+002, 5.507815e+001
5.385257e+002, 5.428606e+001
5.390078e+002, 5.341943e+001
5.394899e+002, 5.284200e+001
5.399720e+002, 5.255280e+001
5.404542e+002, 5.228906e+001
5.409363e+002, 5.187358e+001
5.414184e+002, 5.143508e+001
5.419005e+002, 5.117599e+001
5.423826e+002, 5.109620e+001
5.428647e+002, 5.104579e+001
5.433469e+002, 5.094345e+001
5.438290e+002, 5.082314e+001
5.443111e+002, 5.078176e+001
5.447932e+002, 5.086544e+001
5.452753e+002, 5.090730e+001
5.457574e+002, 5.078156e+001
5.462396e+002, 5.067735e+001
5.467217e+002, 5.081289e+001
5.472038e+002, 5.114789e+001
5.476859e+002, 5.144891e+001
5.481680e+002, 5.155225e+001
5.486501e+002, 5.149208e+001
5.491323e+002, 5.139428e+001
5.496144e+002, 5.104103e+001
5.500965e+002, 5.104889e+001
5.505786e+002, 5.190997e+001
5.510607e+002, 5.278264e+001
5.515428e+002, 5.290495e+001
5.520250e+002, 5.235240e+001
5.525071e+002, 5.191152e+001
5.529892e+002, 5.229956e+001
5.534713e+002, 5.317475e+001
5.539534e+002, 5.347365e+001
5.544355e+002, 5.306709e+001
5.549177e+002, 5.273338e+001
5.553998e+002, 5.283732e+001
5.558819e+002, 5.313552e+001
5.563640e+002, 5.329806e+001
5.568461e+002, 5.330968e+001
5.573282e+002, 5.327461e+001
5.578104e+002, 5.318478e+001
5.582925e+002, 5.309778e+001
5.587746e+002, 5.311264e+001
5.592567e+002, 5.321700e+001
5.597388e+002, 5.328666e+001
5.602209e+002, 5.325446e+001
5.607031e+002, 5.312268e+001
5.611852e+002, 5.289826e+001
5.616673e+002, 5.242611e+001
5.621494e+002, 5.207750e+001
5.626315e+002, 5.195615e+001
5.631136e+002, 5.188277e+001
5.635958e+002, 5.170853e+001
5.640779e+002, 5.145216e+001
5.645600e+002, 5.123676e+001
5.650421e+002, 5.114904e+001
5.655242e+002, 5.116514e+001
5.660063e+002, 5.124013e+001
5.664885e+002, 5.145543e+001
5.669706e+002, 5.149014e+001
5.674527e+002, 5.103292e+001
5.679348e+002, 5.054301e+001
5.684169e+002, 5.038444e+001
5.688990e+002, 5.052918e+001
5.693812e+002, 5.063128e+001
5.698633e+002, 5.040902e+001
5.703454e+002, 5.009261e+001
5.708275e+002, 5.001604e+001
5.713096e+002, 5.017258e+001
5.717917e+002, 5.044670e+001
5.722739e+002, 5.086242e+001
5.727560e+002, 5.125743e+001
5.732381e+002, 5.128313e+001
5.737202e+002, 5.079321e+001
5.742023e+002, 5.053466e+001
5.746844e+002, 5.066961e+001
5.751666e+002, 5.097607e+001
5.756487e+002, 5.137959e+001
5.761308e+002, 5.182514e+001
5.766129e+002, 5.223227e+001
5.770950e+002, 5.256263e+001
5.775771e+002, 5.280816e+001
5.780593e+002, 5.294126e+001
5.785414e+002, 5.291823e+001
5.790235e+002, 5.290069e+001
5.795056e+002, 5.273065e+001
5.799877e+002, 5.272559e+001
5.804698e+002, 5.319659e+001
5.809520e+002, 5.393953e+001
5.814341e+002, 5.447046e+001
5.819162e+002, 5.450774e+001
5.823983e+002, 5.437677e+001
5.828804e+002, 5.451110e+001
5.833625e+002, 5.488906e+001
5.838447e+002, 5.529559e+001
5.843268e+002, 5.572453e+001
5.848089e+002, 5.606610e+001
5.852910e+002, 5.609651e+001
5.857731e+002, 5.586628e+001
5.862552e+002, 5.591596e+001
5.867374e+002, 5.664247e+001
5.872195e+002, 5.729443e+001
5.877016e+002, 5.732754e+001
5.881837e+002, 5.705933e+001
5.886658e+002, 5.707383e+001
5.891479e+002, 5.753977e+001
5.896301e+002, 5.816372e+001
5.901122e+002, 5.857758e+001
5.905943e+002, 5.874546e+001
5.910764e+002, 5.904665e+001
5.915585e+002, 5.971644e+001
5.920406e+002, 6.024346e+001
5.925228e+002, 6.032041e+001
5.930049e+002, 6.027871e+001
5.934870e+002, 6.053504e+001
5.939691e+002, 6.119249e+001
5.944512e+002, 6.195466e+001
5.949333e+002, 6.255468e+001
5.954155e+002, 6.302684e+001
5.958976e+002, 6.355415e+001
5.963797e+002, 6.419389e+001
5.968618e+002, 6.465073e+001
5.973439e+002, 6.452905e+001
5.978260e+002, 6.419532e+001
5.983082e+002, 6.457230e+001
5.987903e+002, 6.603249e+001
5.992724e+002, 6.726145e+001
5.997545e+002, 6.759132e+001
6.002366e+002, 6.763337e+001
6.007188e+002, 6.802445e+001
6.012009e+002, 6.880152e+001
6.016830e+002, 6.968938e+001
6.021651e+002, 7.051517e+001
6.026472e+002, 7.128731e+001
6.031293e+002, 7.203726e+001
6.036115e+002, 7.277261e+001
6.040936e+002, 7.346987e+001
6.045757e+002, 7.410823e+001
6.050578e+002, 7.472659e+001
6.055399e+002, 7.531994e+001
6.060220e+002, 7.590974e+001
6.065042e+002, 7.655025e+001
6.069863e+002, 7.725008e+001
6.074684e+002, 7.804273e+001
6.079505e+002, 7.909093e+001
6.084326e+002, 8.038392e+001
6.089147e+002, 8.136169e+001
6.093969e+002, 8.172910e+001
6.098790e+002, 8.201318e+001
6.103611e+002, 8.284443e+001
6.108432e+002, 8.417600e+001
6.113253e+002, 8.539742e+001
6.118074e+002, 8.653224e+001
6.122896e+002, 8.745182e+001
6.127717e+002, 8.790040e+001
6.132538e+002, 8.814040e+001
6.137359e+002, 8.863326e+001
6.142180e+002, 8.950829e+001
6.147001e+002, 9.051736e+001
6.151823e+002, 9.136285e+001
6.156644e+002, 9.202984e+001
6.161465e+002, 9.284560e+001
6.166286e+002, 9.398109e+001
6.171107e+002, 9.502436e+001
6.175928e+002, 9.584765e+001
6.180750e+002, 9.654270e+001
6.185571e+002, 9.722514e+001
6.190392e+002, 9.791004e+001
6.195213e+002, 9.846983e+001
6.200034e+002, 9.862003e+001
6.204855e+002, 9.862089e+001
6.209677e+002, 9.907974e+001
6.214498e+002, 1.000297e+002
6.219319e+002, 1.011941e+002
6.224140e+002, 1.024828e+002
6.228961e+002, 1.038549e+002
6.233782e+002, 1.052801e+002
6.238604e+002, 1.068813e+002
6.243425e+002, 1.081491e+002
6.248246e+002, 1.086564e+002
6.253067e+002, 1.091313e+002
6.257888e+002, 1.100368e+002
6.262709e+002, 1.113218e+002
6.267531e+002, 1.128169e+002
6.272352e+002, 1.144367e+002
6.277173e+002, 1.160780e+002
6.281994e+002, 1.175121e+002
6.286815e+002, 1.186908e+002
6.291636e+002, 1.199282e+002
6.296458e+002, 1.210681e+002
6.301279e+002, 1.224987e+002
6.306100e+002, 1.245932e+002
6.310921e+002, 1.270374e+002
6.315742e+002, 1.292278e+002
6.320563e+002, 1.309119e+002
6.325385e+002, 1.326390e+002
6.330206e+002, 1.348431e+002
6.335027e+002, 1.373577e+002
6.339848e+002, 1.399371e+002
6.344669e+002, 1.425368e+002
6.349490e+002, 1.449391e+002
6.354312e+002, 1.468809e+002
6.359133e+002, 1.485737e+002
6.363954e+002, 1.510617e+002
6.368775e+002, 1.550923e+002
6.373596e+002, 1.589263e+002
6.378417e+002, 1.624146e+002
6.383239e+002, 1.657513e+002
6.388060e+002, 1.689363e+002
6.392881e+002, 1.720887e+002
6.397702e+002, 1.754443e+002
6.402523e+002, 1.791313e+002
6.407344e+002, 1.831327e+002
6.412166e+002, 1.873935e+002
6.416987e+002, 1.919324e+002
6.421808e+002, 1.966493e+002
6.426629e+002, 2.015134e+002
6.431450e+002, 2.066119e+002
6.436271e+002, 2.121469e+002
6.441093e+002, 2.180266e+002
6.445914e+002, 2.238424e+002
6.450735e+002, 2.292975e+002
6.455556e+002, 2.349209e+002
6.460377e+002, 2.409963e+002
6.465198e+002, 2.473780e+002
6.470020e+002, 2.537800e+002
6.474841e+002, 2.601523e+002
6.479662e+002, 2.667576e+002
6.484483e+002, 2.738346e+002
6.489304e+002, 2.813160e+002
6.494125e+002, 2.890328e+002
6.498947e+002, 2.967418e+002
6.503768e+002, 3.050723e+002
6.508589e+002, 3.149765e+002
6.513410e+002, 3.247998e+002
6.518231e+002, 3.330877e+002
6.523052e+002, 3.400731e+002
6.527874e+002, 3.473843e+002
6.532695e+002, 3.557571e+002
6.537516e+002, 3.649320e+002
6.542337e+002, 3.747451e+002
6.547158e+002, 3.850864e+002
6.551979e+002, 3.955364e+002
6.556801e+002, 4.060291e+002
6.561622e+002, 4.162571e+002
6.566443e+002, 4.258985e+002
6.571264e+002, 4.348998e+002
6.576085e+002, 4.438961e+002
6.580906e+002, 4.529291e+002
6.585728e+002, 4.618887e+002
6.590549e+002, 4.710750e+002
6.595370e+002, 4.800499e+002
6.600191e+002, 4.883885e+002
6.605012e+002, 4.960774e+002
6.609833e+002, 5.034539e+002
6.614655e+002, 5.108177e+002
6.619476e+002, 5.180964e+002
6.624297e+002, 5.251078e+002
6.629118e+002, 5.319951e+002
6.633939e+002, 5.373539e+002
6.638760e+002, 5.403069e+002
6.643582e+002, 5.420383e+002
6.648403e+002, 5.440674e+002
6.653224e+002, 5.463331e+002
6.658045e+002, 5.473914e+002
6.662866e+002, 5.461633e+002
6.667687e+002, 5.445604e+002
6.672509e+002, 5.444336e+002
6.677330e+002, 5.443867e+002
6.682151e+002, 5.419813e+002
6.686972e+002, 5.366464e+002
6.691793e+002, 5.297888e+002
6.696614e+002, 5.226925e+002
6.701436e+002, 5.153551e+002
6.706257e+002, 5.078607e+002
6.711078e+002, 5.005170e+002
6.715899e+002, 4.923365e+002
6.720720e+002, 4.823670e+002
6.725541e+002, 4.718297e+002
6.730363e+002, 4.616819e+002
6.735184e+002, 4.519156e+002
6.740005e+002, 4.416848e+002
6.744826e+002, 4.300168e+002
6.749647e+002, 4.180887e+002
6.754468e+002, 4.070539e+002
6.759290e+002, 3.967077e+002
6.764111e+002, 3.864063e+002
6.768932e+002, 3.759680e+002
6.773753e+002, 3.655313e+002
6.778574e+002, 3.553187e+002
6.783395e+002, 3.453363e+002
6.788217e+002, 3.354588e+002
6.793038e+002, 3.258607e+002
6.797859e+002, 3.161376e+002
6.802680e+002, 3.059510e+002
6.807501e+002, 2.958849e+002
6.812322e+002, 2.863891e+002
6.817144e+002, 2.775948e+002
6.821965e+002, 2.693789e+002
6.826786e+002, 2.619473e+002
6.831607e+002, 2.549539e+002
6.836428e+002, 2.479544e+002
6.841249e+002, 2.409260e+002
6.846071e+002, 2.338288e+002
6.850892e+002, 2.265148e+002
6.855713e+002, 2.195121e+002
6.860534e+002, 2.134324e+002
6.865355e+002, 2.083585e+002
6.870176e+002, 2.032491e+002
6.874998e+002, 1.979980e+002
6.879819e+002, 1.928691e+002
6.884640e+002, 1.878733e+002
6.889461e+002, 1.830745e+002
6.894282e+002, 1.784746e+002
6.899103e+002, 1.741080e+002
6.903925e+002, 1.700571e+002
6.908746e+002, 1.665011e+002
6.913567e+002, 1.632237e+002
6.918388e+002, 1.596817e+002
6.923209e+002, 1.558602e+002
6.928030e+002, 1.521723e+002
6.932852e+002, 1.487083e+002
6.937673e+002, 1.454431e+002
6.942494e+002, 1.423642e+002
6.947315e+002, 1.394604e+002
6.952136e+002, 1.366278e+002
6.956957e+002, 1.337611e+002
6.961779e+002, 1.310699e+002
6.966600e+002, 1.287029e+002
6.971421e+002, 1.265034e+002
6.976242e+002, 1.243055e+002
6.981063e+002, 1.220912e+002
6.985884e+002, 1.199098e+002
6.990706e+002, 1.177730e+002
6.995527e+002, 1.157441e+002
7.000348e+002, 1.140750e+002
7.005169e+002, 1.128583e+002
7.009990e+002, 1.113734e+002
7.014811e+002, 1.092544e+002
7.019633e+002, 1.071415e+002
7.024454e+002, 1.056654e+002
7.029275e+002, 1.046527e+002
7.034096e+002, 1.035037e+002
7.038917e+002, 1.019687e+002
7.043738e+002, 1.005223e+002
7.048560e+002, 9.948650e+001
7.053381e+002, 9.856445e+001
7.058202e+002, 9.735375e+001
7.063023e+002, 9.585336e+001
7.067844e+002, 9.434317e+001
7.072665e+002, 9.301921e+001
7.077487e+002, 9.181625e+001
7.082308e+002, 9.059403e+001
7.087129e+002, 8.935002e+001
7.091950e+002, 8.809420e+001
7.096771e+002, 8.679439e+001
7.101592e+002, 8.552951e+001
7.106414e+002, 8.441798e+001
7.111235e+002, 8.337109e+001
7.116056e+002, 8.216920e+001
7.120877e+002, 8.066128e+001
7.125698e+002, 7.927013e+001
7.130519e+002, 7.816723e+001
7.135341e+002, 7.732624e+001
7.140162e+002, 7.691833e+001
7.144983e+002, 7.679604e+001
7.149804e+002, 7.635313e+001
7.154625e+002, 7.521975e+001
7.159446e+002, 7.370787e+001
7.164268e+002, 7.250935e+001
7.169089e+002, 7.174606e+001
7.173910e+002, 7.070467e+001
7.178731e+002, 6.900838e+001
7.183552e+002, 6.751257e+001
7.188373e+002, 6.669472e+001
7.193195e+002, 6.627367e+001
7.198016e+002, 6.586457e+001
7.202837e+002, 6.540401e+001
7.207658e+002, 6.499230e+001
7.212479e+002, 6.494275e+001
7.217300e+002, 6.477909e+001
7.222122e+002, 6.374621e+001
7.226943e+002, 6.209623e+001
7.231764e+002, 6.081640e+001
7.236585e+002, 6.034154e+001
7.241406e+002, 6.018943e+001
7.246227e+002, 5.959844e+001
7.251049e+002, 5.848915e+001
7.255870e+002, 5.766980e+001
7.260691e+002, 5.729220e+001
7.265512e+002, 5.696737e+001
7.270333e+002, 5.661759e+001
7.275154e+002, 5.622280e+001
7.279976e+002, 5.573832e+001
7.284797e+002, 5.516536e+001
7.289618e+002, 5.463098e+001
7.294439e+002, 5.421813e+001
7.299260e+002, 5.384361e+001
7.304081e+002, 5.343706e+001
7.308903e+002, 5.301051e+001
7.313724e+002, 5.258438e+001
7.318545e+002, 5.216799e+001
7.323366e+002, 5.180717e+001
7.328187e+002, 5.157350e+001
7.333008e+002, 5.144376e+001
7.337830e+002, 5.111524e+001
7.342651e+002, 5.047906e+001
7.347472e+002, 4.987886e+001
7.352293e+002, 4.936079e+001
7.357114e+002, 4.893109e+001
7.361935e+002, 4.861794e+001
7.366757e+002, 4.840556e+001
7.371578e+002, 4.822338e+001
7.376399e+002, 4.812225e+001
7.381220e+002, 4.795067e+001
7.386041e+002, 4.754651e+001
7.390862e+002, 4.703080e+001
7.395684e+002, 4.658996e+001
7.400505e+002, 4.625343e+001
7.405326e+002, 4.596118e+001
7.410147e+002, 4.566621e+001
7.414968e+002, 4.539510e+001
7.419789e+002, 4.523934e+001
7.424611e+002, 4.523523e+001
7.429432e+002, 4.522249e+001
7.434253e+002, 4.529159e+001
7.439074e+002, 4.521156e+001
7.443895e+002, 4.474411e+001
7.448716e+002, 4.407424e+001
7.453538e+002, 4.354317e+001
7.458359e+002, 4.322576e+001
7.463180e+002, 4.297484e+001
7.468001e+002, 4.268226e+001
7.472822e+002, 4.245633e+001
7.477643e+002, 4.249391e+001
7.482465e+002, 4.270591e+001
7.487286e+002, 4.279197e+001
7.492107e+002, 4.261498e+001
7.496928e+002, 4.231028e+001
7.501749e+002, 4.210107e+001
7.506570e+002, 4.199970e+001
7.511392e+002, 4.166955e+001
7.516213e+002, 4.090612e+001
7.521034e+002, 4.039067e+001
7.525855e+002, 4.064013e+001
7.530676e+002, 4.110612e+001
7.535497e+002, 4.108960e+001
7.540319e+002, 4.056776e+001
7.545140e+002, 4.008428e+001
7.549961e+002, 3.973968e+001
7.554782e+002, 3.949952e+001
7.559603e+002, 3.947830e+001
7.564424e+002, 3.949512e+001
7.569246e+002, 3.919416e+001
7.574067e+002, 3.855570e+001
7.578888e+002, 3.797510e+001
7.583709e+002, 3.777734e+001
7.588530e+002, 3.790921e+001
7.593351e+002, 3.831906e+001
7.598173e+002, 3.909480e+001
7.602994e+002, 3.933346e+001
7.607815e+002, 3.857992e+001
7.612636e+002, 3.771631e+001
7.617457e+002, 3.751516e+001
7.622278e+002, 3.785315e+001
7.627100e+002, 3.808781e+001
7.631921e+002, 3.825064e+001
7.636742e+002, 3.824133e+001
7.641563e+002, 3.789427e+001
7.646384e+002, 3.748231e+001
7.651205e+002, 3.724918e+001
7.656027e+002, 3.714622e+001
7.660848e+002, 3.694995e+001
7.665669e+002, 3.654575e+001
7.670490e+002, 3.617437e+001
7.675311e+002, 3.629453e+001
7.680132e+002, 3.676799e+001
7.684954e+002, 3.674035e+001
7.689775e+002, 3.609575e+001
7.694596e+002, 3.550639e+001
7.699417e+002, 3.529070e+001
7.704238e+002, 3.531714e+001
7.709059e+002, 3.538327e+001
7.713881e+002, 3.552404e+001
7.718702e+002, 3.555410e+001
7.723523e+002, 3.540331e+001
7.728344e+002, 3.522922e+001
7.733165e+002, 3.501325e+001
7.737986e+002, 3.484555e+001
7.742808e+002, 3.490720e+001
7.747629e+002, 3.516673e+001
7.752450e+002, 3.527533e+001
7.757271e+002, 3.488483e+001
7.762092e+002, 3.432242e+001
7.766913e+002, 3.406463e+001
7.771735e+002, 3.406230e+001
7.776556e+002, 3.414024e+001
7.781377e+002, 3.426210e+001
7.786198e+002, 3.438062e+001
7.791019e+002, 3.447005e+001
7.795840e+002, 3.451186e+001
7.800662e+002, 3.438792e+001
7.805483e+002, 3.386584e+001
7.810304e+002, 3.362206e+001
7.815125e+002, 3.397824e+001
7.819946e+002, 3.433288e+001
7.824767e+002, 3.445803e+001
7.829589e+002, 3.435609e+001
7.834410e+002, 3.399123e+001
7.839231e+002, 3.327424e+001
7.844052e+002, 3.270697e+001
7.848873e+002, 3.268401e+001
7.853694e+002, 3.291331e+001
7.858516e+002, 3.312858e+001
7.863337e+002, 3.327421e+001
7.868158e+002, 3.321198e+001
7.872979e+002, 3.289087e+001
7.877800e+002, 3.257354e+001
7.882621e+002, 3.264885e+001
7.887443e+002, 3.309773e+001
7.892264e+002, 3.328273e+001
7.897085e+002, 3.308815e+001
7.901906e+002, 3.295152e+001
7.906727e+002, 3.301955e+001
7.911548e+002, 3.317754e+001
7.916370e+002, 3.340594e+001
7.921191e+002, 3.366371e+001
7.926012e+002, 3.362876e+001
7.930833e+002, 3.292938e+001
7.935654e+002, 3.233327e+001
7.940475e+002, 3.219413e+001
7.945297e+002, 3.225550e+001
7.950118e+002, 3.229237e+001
7.954939e+002, 3.227201e+001
7.959760e+002, 3.222478e+001
7.964581e+002, 3.216384e+001
7.969402e+002, 3.210694e+001
7.974224e+002, 3.208692e+001
7.979045e+002, 3.209743e+001
7.983866e+002, 3.210484e+001
7.988687e+002, 3.211018e+001
7.993508e+002, 3.207051e+001
7.998329e+002, 3.194583e+001
8.003151e+002, 3.179130e+001
8.007972e+002, 3.171368e+001
8.012793e+002, 3.173725e+001
8.017614e+002, 3.174199e+001
8.022435e+002, 3.175564e+001
8.027256e+002, 3.171891e+001
8.032078e+002, 3.155491e+001
8.036899e+002, 3.137095e+001
8.041720e+002, 3.122892e+001
8.046541e+002, 3.116373e+001
8.051362e+002, 3.128842e+001
8.056183e+002, 3.187034e+001
8.061005e+002, 3.242684e+001
8.065826e+002, 3.236559e+001
8.070647e+002, 3.191175e+001
8.075468e+002, 3.156176e+001
8.080289e+002, 3.139841e+001
8.085110e+002, 3.126090e+001
8.089932e+002, 3.102509e+001
8.094753e+002, 3.076887e+001
8.099574e+002, 3.070724e+001
8.104395e+002, 3.087729e+001
8.109216e+002, 3.110407e+001
8.114037e+002, 3.156051e+001
8.118859e+002, 3.176829e+001
8.123680e+002, 3.123493e+001
8.128501e+002, 3.042300e+001
8.133322e+002, 3.001837e+001
8.138143e+002, 3.010494e+001
8.142964e+002, 3.019175e+001
8.147786e+002, 3.016342e+001
8.152607e+002, 3.010767e+001
8.157428e+002, 3.009854e+001
8.162249e+002, 3.008301e+001
8.167070e+002, 2.993878e+001
8.171891e+002, 2.967734e+001
8.176713e+002, 2.948125e+001
8.181534e+002, 2.948798e+001
8.186355e+002, 2.965011e+001
8.191176e+002, 2.992479e+001
8.195997e+002, 3.029100e+001
8.200818e+002, 3.062340e+001
8.205640e+002, 3.091994e+001
8.210461e+002, 3.096534e+001
8.215282e+002, 3.051839e+001
8.220103e+002, 2.980776e+001
8.224924e+002, 2.954990e+001
8.229745e+002, 3.003078e+001
8.234567e+002, 3.032479e+001
8.239388e+002, 3.033115e+001
8.244209e+002, 3.026888e+001
8.249030e+002, 3.021195e+001
8.253851e+002, 3.013215e+001
8.258672e+002, 2.998324e+001
8.263494e+002, 2.975939e+001
8.268315e+002, 2.951727e+001
8.273136e+002, 2.917989e+001
8.277957e+002, 2.893307e+001
8.282778e+002, 2.903185e+001
8.287599e+002, 2.930379e+001
8.292421e+002, 2.941728e+001
8.297242e+002, 2.932422e+001
8.302063e+002, 2.921371e+001
8.306884e+002, 2.923040e+001
8.311705e+002, 2.932579e+001
8.316526e+002, 2.939351e+001
8.321348e+002, 2.943422e+001
8.326169e+002, 2.938282e+001
8.330990e+002, 2.916788e+001
8.335811e+002, 2.907697e+001
8.340632e+002, 2.933837e+001
8.345453e+002, 2.979186e+001
8.350275e+002, 3.010595e+001
8.355096e+002, 3.028560e+001
8.359917e+002, 3.028606e+001
8.364738e+002, 2.932303e+001
8.369559e+002, 2.910368e+001
8.374380e+002, 3.144626e+001
8.379202e+002, 3.413050e+001
8.384023e+002, 3.435846e+001
8.388844e+002, 3.208466e+001
8.393665e+002, 2.987184e+001
8.398486e+002, 2.914268e+001
8.403307e+002, 2.900970e+001
8.408129e+002, 2.857525e+001
8.412950e+002, 2.807447e+001
8.417771e+002, 2.808350e+001
8.422592e+002, 2.860699e+001
8.427413e+002, 2.909015e+001
8.432234e+002, 2.917800e+001
8.437056e+002, 2.903832e+001
8.441877e+002, 2.900572e+001
8.446698e+002, 2.909111e+001
8.451519e+002, 2.915422e+001
8.456340e+002, 2.920009e+001
8.461161e+002, 2.919095e+001
8.465983e+002, 2.906013e+001
8.470804e+002, 2.891368e+001
8.475625e+002, 2.893879e+001
8.480446e+002, 2.915389e+001
8.485267e+002, 2.922020e+001
8.490089e+002, 2.900492e+001
8.494910e+002, 2.879267e+001
8.499731e+002, 2.859806e+001
8.504552e+002, 2.848957e+001
8.509373e+002, 2.862726e+001
8.514194e+002, 2.890748e+001
8.519016e+002, 2.898320e+001
8.523837e+002, 2.864681e+001
8.528658e+002, 2.827579e+001
8.533479e+002, 2.826619e+001
8.538300e+002, 2.843181e+001
8.543121e+002, 2.842767e+001
8.547943e+002, 2.826774e+001
8.552764e+002, 2.815139e+001
8.557585e+002, 2.816490e+001
8.562406e+002, 2.826076e+001
8.567227e+002, 2.840104e+001
8.572048e+002, 2.857359e+001
8.576870e+002, 2.861296e+001
8.581691e+002, 2.848666e+001
8.586512e+002, 2.833769e+001
8.591333e+002, 2.812843e+001
8.596154e+002, 2.802835e+001
8.600975e+002, 2.831456e+001
8.605797e+002, 2.886654e+001
8.610618e+002, 2.900663e+001
8.615439e+002, 2.843580e+001
8.620260e+002, 2.796389e+001
8.625081e+002, 2.763140e+001
8.629902e+002, 2.746393e+001
8.634724e+002, 2.759052e+001
8.639545e+002, 2.784829e+001
8.644366e+002, 2.798119e+001
8.649187e+002, 2.792839e+001
8.654008e+002, 2.783089e+001
8.658829e+002, 2.778302e+001
8.663651e+002, 2.773910e+001
8.668472e+002, 2.761577e+001
8.673293e+002, 2.745899e+001
8.678114e+002, 2.738974e+001
8.682935e+002, 2.742645e+001
8.687756e+002, 2.748696e+001
8.692578e+002, 2.751370e+001
8.697399e+002, 2.750447e+001
8.702220e+002, 2.742936e+001
8.707041e+002, 2.728122e+001
8.711862e+002, 2.724600e+001
8.716683e+002, 2.738670e+001
8.721505e+002, 2.746155e+001
8.726326e+002, 2.732098e+001
8.731147e+002, 2.707171e+001
8.735968e+002, 2.688659e+001
8.740789e+002, 2.677365e+001
8.745610e+002, 2.668428e+001
8.750432e+002, 2.665082e+001
8.755253e+002, 2.659821e+001
8.760074e+002, 2.645976e+001
8.764895e+002, 2.633541e+001
8.769716e+002, 2.617912e+001
8.774537e+002, 2.610312e+001
8.779359e+002, 2.649226e+001
8.784180e+002, 2.767852e+001
8.789001e+002, 2.885189e+001
8.793822e+002, 2.977030e+001
8.798643e+002, 3.023221e+001
8.803464e+002, 2.976055e+001
8.808286e+002, 2.865378e+001
8.813107e+002, 2.769283e+001
8.817928e+002, 2.716703e+001
8.822749e+002, 2.684732e+001
8.827570e+002, 2.652316e+001
8.832391e+002, 2.619979e+001
8.837213e+002, 2.585499e+001
8.842034e+002, 2.549950e+001
8.846855e+002, 2.534369e+001
8.851676e+002, 2.545095e+001
8.856497e+002, 2.568216e+001
8.861318e+002, 2.596869e+001
8.866140e+002, 2.625038e+001
8.870961e+002, 2.631683e+001
8.875782e+002, 2.610917e+001
8.880603e+002, 2.582352e+001
8.885424e+002, 2.527977e+001
8.890245e+002, 2.490928e+001
8.895067e+002, 2.505901e+001
8.899888e+002, 2.536629e+001
8.904709e+002, 2.538770e+001
8.909530e+002, 2.510825e+001
8.914351e+002, 2.490123e+001
8.919172e+002, 2.493073e+001
8.923994e+002, 2.493697e+001
8.928815e+002, 2.469210e+001
8.933636e+002, 2.446672e+001
8.938457e+002, 2.464722e+001
8.943278e+002, 2.508711e+001
8.948099e+002, 2.527249e+001
8.952921e+002, 2.495979e+001
8.957742e+002, 2.456197e+001
8.962563e+002, 2.447828e+001
8.967384e+002, 2.456527e+001
8.972205e+002, 2.458160e+001
8.977026e+002, 2.453971e+001
8.981848e+002, 2.457275e+001
8.986669e+002, 2.471431e+001
8.991490e+002, 2.476910e+001
8.996311e+002, 2.450841e+001
9.001132e+002, 2.405931e+001
9.005953e+002, 2.392359e+001
9.010775e+002, 2.412590e+001
9.015596e+002, 2.439512e+001
9.020417e+002, 2.476055e+001
9.025238e+002, 2.496190e+001
9.030059e+002, 2.479163e+001
9.034880e+002, 2.440973e+001
9.039702e+002, 2.412483e+001
9.044523e+002, 2.392228e+001
9.049344e+002, 2.388117e+001
9.054165e+002, 2.418689e+001
9.058986e+002, 2.441360e+001
9.063807e+002, 2.444359e+001
9.068629e+002, 2.437654e+001
9.073450e+002, 2.428678e+001
9.078271e+002, 2.417819e+001
9.083092e+002, 2.402631e+001
9.087913e+002, 2.373618e+001
9.092734e+002, 2.358359e+001
9.097556e+002, 2.381021e+001
9.102377e+002, 2.412392e+001
9.107198e+002, 2.430993e+001
9.112019e+002, 2.436474e+001
9.116840e+002, 2.429746e+001
9.121661e+002, 2.412507e+001
9.126483e+002, 2.396142e+001
9.131304e+002, 2.391266e+001
9.136125e+002, 2.392024e+001
9.140946e+002, 2.388424e+001
9.145767e+002, 2.382401e+001
9.150588e+002, 2.378561e+001
9.155410e+002, 2.378304e+001
9.160231e+002, 2.389009e+001
9.165052e+002, 2.417447e+001
9.169873e+002, 2.447550e+001
9.174694e+002, 2.445046e+001
9.179515e+002, 2.408468e+001
9.184337e+002, 2.374997e+001
9.189158e+002, 2.340180e+001
9.193979e+002, 2.334275e+001
9.198800e+002, 2.383424e+001
9.203621e+002, 2.433167e+001
9.208442e+002, 2.419309e+001
9.213264e+002, 2.349775e+001
9.218085e+002, 2.309464e+001
9.222906e+002, 2.312617e+001
9.227727e+002, 2.321934e+001
9.232548e+002, 2.348957e+001
9.237369e+002, 2.367252e+001
9.242191e+002, 2.356547e+001
9.247012e+002, 2.332746e+001
9.251833e+002, 2.321514e+001
9.256654e+002, 2.326433e+001
9.261475e+002, 2.326098e+001
9.266296e+002, 2.306886e+001
9.271118e+002, 2.289481e+001
9.275939e+002, 2.284224e+001
9.280760e+002, 2.286268e+001
9.285581e+002, 2.295424e+001
9.290402e+002, 2.306566e+001
9.295223e+002, 2.304345e+001
9.300045e+002, 2.279336e+001
9.304866e+002, 2.257867e+001
9.309687e+002, 2.270143e+001
9.314508e+002, 2.297444e+001
9.319329e+002, 2.311145e+001
9.324150e+002, 2.313568e+001
9.328972e+002, 2.316828e+001
9.333793e+002, 2.324200e+001
9.338614e+002, 2.330672e+001
9.343435e+002, 2.331182e+001
9.348256e+002, 2.329311e+001
9.353077e+002, 2.335354e+001
9.357899e+002, 2.348516e+001
9.362720e+002, 2.359604e+001
9.367541e+002, 2.368556e+001
9.372362e+002, 2.360534e+001
9.377183e+002, 2.323112e+001
9.382004e+002, 2.281464e+001
9.386826e+002, 2.276669e+001
9.391647e+002, 2.310013e+001
9.396468e+002, 2.318912e+001
9.401289e+002, 2.288855e+001
9.406110e+002, 2.270050e+001
9.410931e+002, 2.279210e+001
9.415753e+002, 2.292405e+001
9.420574e+002, 2.290248e+001
9.425395e+002, 2.279964e+001
9.430216e+002, 2.283277e+001
9.435037e+002, 2.309833e+001
9.439858e+002, 2.320513e+001
9.444680e+002, 2.299371e+001
9.449501e+002, 2.277528e+001
9.454322e+002, 2.259735e+001
9.459143e+002, 2.251782e+001
9.463964e+002, 2.268379e+001
9.468785e+002, 2.301834e+001
9.473607e+002, 2.316416e+001
9.478428e+002, 2.294176e+001
9.483249e+002, 2.264560e+001
9.488070e+002, 2.227777e+001
9.492891e+002, 2.204288e+001
9.497712e+002, 2.228947e+001
9.502534e+002, 2.277532e+001
9.507355e+002, 2.298425e+001
9.512176e+002, 2.280307e+001
9.516997e+002, 2.257183e+001
9.521818e+002, 2.253899e+001
9.526639e+002, 2.260472e+001
9.531461e+002, 2.265502e+001
9.536282e+002, 2.269247e+001
9.541103e+002, 2.274753e+001
9.545924e+002, 2.280515e+001
9.550745e+002, 2.272936e+001
9.555566e+002, 2.244801e+001
9.560388e+002, 2.220570e+001
9.565209e+002, 2.243741e+001
9.570030e+002, 2.299145e+001
9.574851e+002, 2.297696e+001
9.579672e+002, 2.239908e+001
9.584493e+002, 2.220076e+001
9.589315e+002, 2.265120e+001
9.594136e+002, 2.302798e+001
9.598957e+002, 2.275522e+001
9.603778e+002, 2.212332e+001
9.608599e+002, 2.189944e+001
9.613420e+002, 2.218325e+001
9.618242e+002, 2.237778e+001
9.623063e+002, 2.248453e+001
9.627884e+002, 2.248743e+001
9.632705e+002, 2.231686e+001
9.637526e+002, 2.212176e+001
9.642347e+002, 2.203343e+001
9.647169e+002, 2.204980e+001
9.651990e+002, 2.215681e+001
9.656811e+002, 2.252610e+001
9.661632e+002, 2.272079e+001
9.666453e+002, 2.256163e+001
9.671274e+002, 2.243264e+001
9.676096e+002, 2.262560e+001
9.680917e+002, 2.286281e+001
9.685738e+002, 2.272403e+001
9.690559e+002, 2.220813e+001
9.695380e+002, 2.184556e+001
9.700201e+002, 2.180489e+001
9.705023e+002, 2.187981e+001
9.709844e+002, 2.209088e+001
9.714665e+002, 2.230338e+001
9.719486e+002, 2.243790e+001
9.724307e+002, 2.248119e+001
9.729128e+002, 2.240909e+001
9.733950e+002, 2.221856e+001
9.738771e+002, 2.202996e+001
9.743592e+002, 2.190134e+001
9.748413e+002, 2.181688e+001
9.753234e+002, 2.174472e+001
9.758055e+002, 2.171696e+001
9.762877e+002, 2.183902e+001
9.767698e+002, 2.205828e+001
9.772519e+002, 2.216415e+001
9.777340e+002, 2.205597e+001
9.782161e+002, 2.187370e+001
9.786982e+002, 2.173808e+001
9.791804e+002, 2.164826e+001
9.796625e+002, 2.156967e+001
9.801446e+002, 2.153751e+001
9.806267e+002, 2.174176e+001
9.811088e+002, 2.218235e+001
9.815909e+002, 2.250622e+001
9.820731e+002, 2.245733e+001
9.825552e+002, 2.223385e+001
9.830373e+002, 2.220697e+001
9.835194e+002, 2.234218e+001
9.840015e+002, 2.238751e+001
9.844836e+002, 2.233523e+001
9.849658e+002, 2.223993e+001
9.854479e+002, 2.211431e+001
9.859300e+002, 2.199016e+001
9.864121e+002, 2.189670e+001
9.868942e+002, 2.182825e+001
9.873763e+002, 2.174142e+001
9.878585e+002, 2.160508e+001
9.883406e+002, 2.170388e+001
9.888227e+002, 2.216748e+001
9.893048e+002, 2.245534e+001
9.897869e+002, 2.228007e+001
9.902690e+002, 2.194956e+001
9.907512e+002, 2.182608e+001
9.912333e+002, 2.189149e+001
9.917154e+002, 2.191975e+001
9.921975e+002, 2.187640e+001
9.926796e+002, 2.186866e+001
9.931617e+002, 2.190730e+001
9.936439e+002, 2.197725e+001
9.941260e+002, 2.207916e+001
9.946081e+002, 2.220487e+001
9.950902e+002, 2.235980e+001
9.955723e+002, 2.254720e+001
9.960544e+002, 2.266957e+001
9.965366e+002, 2.280866e+001
9.970187e+002, 2.276092e+001
9.975008e+002, 2.225566e+001
9.979829e+002, 2.179685e+001
9.984650e+002, 2.177306e+001
9.989471e+002, 2.197079e+001
9.994293e+002, 2.197770e+001
9.999114e+002, 2.172504e+001
1.000393e+003, 2.162183e+001
1.000876e+003, 2.192759e+001
1.001358e+003, 2.221744e+001
1.001840e+003, 2.234134e+001
1.002322e+003, 2.234852e+001
1.002804e+003, 2.225043e+001
1.003286e+003, 2.208402e+001
1.003768e+003, 2.187668e+001
1.004250e+003, 2.162676e+001
1.004733e+003, 2.152734e+001
1.005215e+003, 2.179710e+001
1.005697e+003, 2.213320e+001
1.006179e+003, 2.240143e+001
1.006661e+003, 2.254088e+001
1.007143e+003, 2.238785e+001
1.007625e+003, 2.204028e+001
1.008107e+003, 2.182711e+001
1.008589e+003, 2.189406e+001
1.009072e+003, 2.200686e+001
1.009554e+003, 2.197697e+001
1.010036e+003, 2.187884e+001
1.010518e+003, 2.174540e+001
1.011000e+003, 2.163276e+001
1.011482e+003, 2.169153e+001
1.011964e+003, 2.189682e+001
1.012446e+003, 2.202498e+001
1.012929e+003, 2.194914e+001
1.013411e+003, 2.180325e+001
1.013893e+003, 2.173291e+001
1.014375e+003, 2.171624e+001
1.014857e+003, 2.168765e+001
1.015339e+003, 2.167246e+001
1.015821e+003, 2.183818e+001
1.016303e+003, 2.217706e+001
1.016785e+003, 2.230185e+001
1.017268e+003, 2.191519e+001
1.017750e+003, 2.138491e+001
1.018232e+003, 2.137141e+001
1.018714e+003, 2.173313e+001
1.019196e+003, 2.187601e+001
1.019678e+003, 2.180301e+001
1.020160e+003, 2.173215e+001
1.020642e+003, 2.172311e+001
1.021125e+003, 2.168476e+001
1.021607e+003, 2.153363e+001
1.022089e+003, 2.133981e+001
1.022571e+003, 2.123843e+001
1.023053e+003, 2.123220e+001
1.023535e+003, 2.146239e+001
1.024017e+003, 2.195224e+001
1.024499e+003, 2.218936e+001
1.024981e+003, 2.199192e+001
1.025464e+003, 2.164455e+001
1.025946e+003, 2.138233e+001
1.026428e+003, 2.121162e+001
1.026910e+003, 2.116917e+001
1.027392e+003, 2.126968e+001
1.027874e+003, 2.136663e+001
1.028356e+003, 2.146465e+001
1.028838e+003, 2.150864e+001
1.029321e+003, 2.146899e+001
1.029803e+003, 2.139423e+001
1.030285e+003, 2.131531e+001
1.030767e+003, 2.125122e+001
1.031249e+003, 2.131147e+001
1.031731e+003, 2.157659e+001
1.032213e+003, 2.164892e+001
1.032695e+003, 2.146697e+001
1.033177e+003, 2.120573e+001
1.033660e+003, 2.085242e+001
1.034142e+003, 2.057104e+001
1.034624e+003, 2.054228e+001
1.035106e+003, 2.073660e+001
1.035588e+003, 2.098186e+001
1.036070e+003, 2.135670e+001
1.036552e+003, 2.159715e+001
1.037034e+003, 2.171827e+001
1.037516e+003, 2.166007e+001
1.037999e+003, 2.125272e+001
1.038481e+003, 2.080860e+001
1.038963e+003, 2.065735e+001
1.039445e+003, 2.077344e+001
1.039927e+003, 2.096377e+001
1.040409e+003, 2.140402e+001
1.040891e+003, 2.160702e+001
1.041373e+003, 2.140915e+001
1.041855e+003, 2.117986e+001
1.042338e+003, 2.097975e+001
1.042820e+003, 2.086710e+001
1.043302e+003, 2.099240e+001
1.043784e+003, 2.129992e+001
1.044266e+003, 2.135875e+001
1.044748e+003, 2.086279e+001
1.045230e+003, 2.061299e+001
1.045712e+003, 2.088999e+001
1.046195e+003, 2.113234e+001
1.046677e+003, 2.110696e+001
1.047159e+003, 2.094389e+001
1.047641e+003, 2.075971e+001
1.048123e+003, 2.056672e+001
1.048605e+003, 2.038586e+001
1.049087e+003, 2.008644e+001
1.049569e+003, 2.004041e+001
1.050052e+003, 2.061412e+001
1.050534e+003, 2.108311e+001
1.051016e+003, 2.103058e+001
1.051498e+003, 2.076098e+001
1.051980e+003, 2.059468e+001
1.052462e+003, 2.054146e+001
1.052944e+003, 2.048291e+001
1.053426e+003, 2.029476e+001
1.053908e+003, 2.031022e+001
1.054391e+003, 2.090418e+001
1.054873e+003, 2.137281e+001
1.055355e+003, 2.124302e+001
1.055837e+003, 2.087851e+001
1.056319e+003, 2.073661e+001
1.056801e+003, 2.078478e+001
1.057283e+003, 2.061668e+001
1.057765e+003, 1.990467e+001
1.058248e+003, 1.952927e+001
1.058730e+003, 2.003659e+001
1.059212e+003, 2.061797e+001
1.059694e+003, 2.088527e+001
1.060176e+003, 2.093791e+001
1.060658e+003, 2.089508e+001
1.061140e+003, 2.077525e+001
1.061622e+003, 2.055707e+001
1.062104e+003, 2.015800e+001
1.062587e+003, 1.988300e+001
1.063069e+003, 1.992756e+001
1.063551e+003, 2.003112e+001
1.064033e+003, 2.002926e+001
1.064515e+003, 2.001280e+001
1.064997e+003, 2.022250e+001
1.065479e+003, 2.053159e+001
1.065961e+003, 2.038545e+001
1.066443e+003, 1.942486e+001
1.066926e+003, 1.872855e+001
1.067408e+003, 1.894466e+001
1.067890e+003, 1.931423e+001
1.068372e+003, 1.943500e+001
1.068854e+003, 1.942556e+001
1.069336e+003, 1.942611e+001
1.069818e+003, 1.944729e+001
1.070300e+003, 1.944816e+001
1.070782e+003, 1.940816e+001
1.071265e+003, 1.939138e+001
1.071747e+003, 1.938016e+001
1.072229e+003, 1.945372e+001
1.072711e+003, 1.981519e+001
1.073193e+003, 2.016909e+001
1.073675e+003, 2.012861e+001
1.074157e+003, 1.979860e+001
1.074639e+003, 1.956196e+001
1.075122e+003, 1.953586e+001
1.075604e+003, 1.952140e+001
1.076086e+003, 1.942390e+001
1.076568e+003, 1.931617e+001
1.077050e+003, 1.923705e+001
1.077532e+003, 1.917232e+001
1.078014e+003, 1.907145e+001
1.078496e+003, 1.897852e+001
1.078979e+003, 1.900105e+001
1.079461e+003, 1.916805e+001
1.079943e+003, 1.941326e+001
1.080425e+003, 1.988350e+001
1.080907e+003, 2.020482e+001
1.081389e+003, 2.003213e+001
1.081871e+003, 1.973029e+001
1.082353e+003, 1.966230e+001
1.082835e+003, 1.974292e+001
1.083318e+003, 1.971481e+001
1.083800e+003, 1.952119e+001
1.084282e+003, 1.934060e+001
1.084764e+003, 1.917616e+001
1.085246e+003, 1.913806e+001
1.085728e+003, 1.945522e+001
1.086210e+003, 1.976214e+001
1.086692e+003, 1.965700e+001
1.087175e+003, 1.934192e+001
1.087657e+003, 1.923334e+001
1.088139e+003, 1.939248e+001
1.088621e+003, 1.950492e+001
1.089103e+003, 1.941238e+001
1.089585e+003, 1.929517e+001
1.090067e+003, 1.915532e+001
1.090549e+003, 1.909522e+001
1.091031e+003, 1.930837e+001
1.091514e+003, 1.959330e+001
1.091996e+003, 1.959351e+001
1.092478e+003, 1.930848e+001
1.092960e+003, 1.914581e+001
1.093442e+003, 1.935156e+001
1.093924e+003, 1.949250e+001
1.094406e+003, 1.934558e+001
1.094888e+003, 1.914885e+001
1.095370e+003, 1.902118e+001
1.095853e+003, 1.896008e+001
1.096335e+003, 1.896783e+001
1.096817e+003, 1.902964e+001
1.097299e+003, 1.908440e+001
1.097781e+003, 1.910159e+001
1.098263e+003, 1.914865e+001
1.098745e+003, 1.931448e+001
1.099227e+003, 1.943619e+001
1.099709e+003, 1.948469e+001
1.100192e+003, 1.940228e+001
1.100674e+003, 1.898302e+001
1.101156e+003, 1.838644e+001
1.101638e+003, 1.817150e+001
1.102120e+003, 1.857694e+001
1.102602e+003, 1.885258e+001
1.103084e+003, 1.870773e+001
1.103566e+003, 1.853912e+001
1.104049e+003, 1.848700e+001
1.104531e+003, 1.849026e+001
1.105013e+003, 1.854207e+001
1.105495e+003, 1.859169e+001
1.105977e+003, 1.850086e+001
1.106459e+003, 1.821152e+001
1.106941e+003, 1.806829e+001
1.107423e+003, 1.819981e+001
1.107906e+003, 1.838443e+001
1.108388e+003, 1.867232e+001
1.108870e+003, 1.888422e+001
1.109352e+003, 1.878989e+001
1.109834e+003, 1.858910e+001
1.110316e+003, 1.869600e+001
1.110798e+003, 1.915842e+001
1.111280e+003, 1.933654e+001
1.111762e+003, 1.893718e+001
1.112245e+003, 1.861938e+001
1.112727e+003, 1.848713e+001
1.113209e+003, 1.842529e+001
1.113691e+003, 1.837907e+001
1.114173e+003, 1.837222e+001
1.114655e+003, 1.847780e+001
1.115137e+003, 1.867893e+001
1.115619e+003, 1.874747e+001
1.116102e+003, 1.863709e+001
1.116584e+003, 1.846944e+001
1.117066e+003, 1.811128e+001
1.117548e+003, 1.790162e+001
1.118030e+003, 1.809079e+001
1.118512e+003, 1.832890e+001
1.118994e+003, 1.822908e+001
1.119476e+003, 1.790787e+001
1.119958e+003, 1.785636e+001
1.120441e+003, 1.822562e+001
1.120923e+003, 1.836767e+001
1.121405e+003, 1.813684e+001
1.121887e+003, 1.801316e+001
1.122369e+003, 1.821899e+001
1.122851e+003, 1.836774e+001
1.123333e+003, 1.811061e+001
1.123815e+003, 1.766464e+001
1.124297e+003, 1.752472e+001
1.124780e+003, 1.772091e+001
1.125262e+003, 1.783411e+001
1.125744e+003, 1.783700e+001
1.126226e+003, 1.787224e+001
1.126708e+003, 1.800484e+001
1.127190e+003, 1.800930e+001
1.127672e+003, 1.769782e+001
1.128154e+003, 1.735995e+001
1.128636e+003, 1.746350e+001
1.129119e+003, 1.792739e+001
1.129601e+003, 1.801919e+001
1.130083e+003, 1.768830e+001
1.130565e+003, 1.758908e+001
1.131047e+003, 1.782278e+001
1.131529e+003, 1.793796e+001
1.132011e+003, 1.774235e+001
1.132493e+003, 1.742743e+001
1.132976e+003, 1.714915e+001
1.133458e+003, 1.697980e+001
1.133940e+003, 1.723045e+001
1.134422e+003, 1.784664e+001
1.134904e+003, 1.808577e+001
1.135386e+003, 1.793361e+001
1.135868e+003, 1.782315e+001
1.136350e+003, 1.787005e+001
1.136833e+003, 1.785315e+001
1.137315e+003, 1.759927e+001
1.137797e+003, 1.730062e+001
1.138279e+003, 1.728932e+001
1.138761e+003, 1.749986e+001
1.139243e+003, 1.782369e+001
1.139725e+003, 1.816877e+001
1.140207e+003, 1.804844e+001
1.140689e+003, 1.747236e+001
1.141172e+003, 1.704837e+001
1.141654e+003, 1.706297e+001
1.142136e+003, 1.720567e+001
1.142618e+003, 1.713064e+001
1.143100e+003, 1.699053e+001
1.143582e+003, 1.707279e+001
1.144064e+003, 1.727405e+001
1.144546e+003, 1.741578e+001
1.145029e+003, 1.746680e+001
1.145511e+003, 1.737508e+001
1.145993e+003, 1.714953e+001
1.146475e+003, 1.696793e+001
1.146957e+003, 1.696793e+001
1.147439e+003, 1.701553e+001
1.147921e+003, 1.697406e+001
1.148403e+003, 1.690928e+001
1.148885e+003, 1.691027e+001
1.149368e+003, 1.694304e+001
1.149850e+003, 1.691908e+001
1.150332e+003, 1.685282e+001
1.150814e+003, 1.686271e+001
1.151296e+003, 1.700914e+001
1.151778e+003, 1.716376e+001
1.152260e+003, 1.736622e+001
1.152742e+003, 1.741506e+001
1.153224e+003, 1.696955e+001
1.153707e+003, 1.646496e+001
1.154189e+003, 1.639716e+001
1.154671e+003, 1.664590e+001
1.155153e+003, 1.687292e+001
1.155635e+003, 1.701136e+001
1.156117e+003, 1.705318e+001
1.156599e+003, 1.694593e+001
1.157081e+003, 1.681315e+001
1.157563e+003, 1.660797e+001
1.158046e+003, 1.648181e+001
1.158528e+003, 1.653163e+001
1.159010e+003, 1.671489e+001
1.159492e+003, 1.710010e+001
1.159974e+003, 1.761464e+001
1.160456e+003, 1.770159e+001
1.160938e+003, 1.688218e+001
1.161420e+003, 1.647768e+001
1.161903e+003, 1.684007e+001
1.162385e+003, 1.719472e+001
1.162867e+003, 1.736554e+001
1.163349e+003, 1.741712e+001
1.163831e+003, 1.738182e+001
1.164313e+003, 1.727224e+001
1.164795e+003, 1.709900e+001
1.165277e+003, 1.683465e+001
1.165760e+003, 1.675409e+001
1.166242e+003, 1.694870e+001
1.166724e+003, 1.701571e+001
1.167206e+003, 1.683337e+001
1.167688e+003, 1.672190e+001
1.168170e+003, 1.686934e+001
1.168652e+003, 1.710325e+001
1.169134e+003, 1.721061e+001
1.169616e+003, 1.720514e+001
1.170099e+003, 1.713408e+001
1.170581e+003, 1.699630e+001
1.171063e+003, 1.684499e+001
1.171545e+003, 1.668190e+001
1.172027e+003, 1.675363e+001
1.172509e+003, 1.714031e+001
1.172991e+003, 1.746564e+001
1.173473e+003, 1.744053e+001
1.173956e+003, 1.720630e+001
1.174438e+003, 1.692978e+001
1.174920e+003, 1.666361e+001
1.175402e+003, 1.660505e+001
1.175884e+003, 1.671231e+001
1.176366e+003, 1.688383e+001
1.176848e+003, 1.706577e+001
1.177330e+003, 1.709185e+001
1.177813e+003, 1.689732e+001
1.178295e+003, 1.666684e+001
1.178777e+003, 1.655648e+001
1.179259e+003, 1.650577e+001
1.179741e+003, 1.643176e+001
1.180223e+003, 1.637471e+001
1.180705e+003, 1.641777e+001
1.181187e+003, 1.651654e+001
1.181669e+003, 1.658192e+001
1.182151e+003, 1.659273e+001
1.182634e+003, 1.656224e+001
1.183116e+003, 1.649835e+001
1.183598e+003, 1.638658e+001
1.184080e+003, 1.613578e+001
1.184562e+003, 1.593042e+001
1.185044e+003, 1.590082e+001
1.185526e+003, 1.597385e+001
1.186008e+003, 1.615309e+001
1.186490e+003, 1.634502e+001
1.186973e+003, 1.628354e+001
1.187455e+003, 1.589516e+001
1.187937e+003, 1.583335e+001
1.188419e+003, 1.662290e+001
1.188901e+003, 1.715690e+001
1.189383e+003, 1.715454e+001
1.189865e+003, 1.692937e+001
1.190347e+003, 1.641175e+001
1.190830e+003, 1.592896e+001
1.191312e+003, 1.586579e+001
1.191794e+003, 1.614597e+001
1.192276e+003, 1.639873e+001
1.192758e+003, 1.664198e+001
1.193240e+003, 1.680025e+001
1.193722e+003, 1.687310e+001
1.194204e+003, 1.685329e+001
1.194687e+003, 1.672037e+001
1.195169e+003, 1.654149e+001
1.195651e+003, 1.633181e+001
1.196133e+003, 1.617575e+001
1.196615e+003, 1.621485e+001
1.197097e+003, 1.642595e+001
1.197579e+003, 1.672568e+001
1.198061e+003, 1.709982e+001
1.198543e+003, 1.719785e+001
1.199026e+003, 1.700829e+001
1.199508e+003, 1.687073e+001
1.199990e+003, 1.689770e+001
1.200472e+003, 1.694300e+001
1.200954e+003, 1.689214e+001
1.201436e+003, 1.679150e+001
1.201918e+003, 1.670333e+001
1.202400e+003, 1.662018e+001
1.202883e+003, 1.649882e+001
1.203365e+003, 1.638092e+001
1.203847e+003, 1.636526e+001
1.204329e+003, 1.645092e+001
1.204811e+003, 1.662458e+001
1.205293e+003, 1.687041e+001
1.205775e+003, 1.695905e+001
1.206257e+003, 1.659664e+001
1.206740e+003, 1.621214e+001
1.207222e+003, 1.609955e+001
1.207704e+003, 1.612156e+001
1.208186e+003, 1.624631e+001
1.208668e+003, 1.636591e+001
1.209150e+003, 1.629274e+001
1.209632e+003, 1.606722e+001
1.210114e+003, 1.597256e+001
1.210596e+003, 1.612373e+001
1.211078e+003, 1.623319e+001
1.211561e+003, 1.622350e+001
1.212043e+003, 1.619394e+001
1.212525e+003, 1.617908e+001
1.213007e+003, 1.614676e+001
1.213489e+003, 1.603776e+001
1.213971e+003, 1.592749e+001
1.214453e+003, 1.595201e+001
1.214935e+003, 1.610006e+001
1.215417e+003, 1.615176e+001
1.215900e+003, 1.604820e+001
1.216382e+003, 1.609989e+001
1.216864e+003, 1.638716e+001
1.217346e+003, 1.653368e+001
1.217828e+003, 1.640454e+001
1.218310e+003, 1.618393e+001
1.218792e+003, 1.599277e+001
1.219274e+003, 1.587118e+001
1.219757e+003, 1.595801e+001
1.220239e+003, 1.616567e+001
1.220721e+003, 1.596914e+001
1.221203e+003, 1.549056e+001
1.221685e+003, 1.539698e+001
1.222167e+003, 1.569112e+001
1.222649e+003, 1.587271e+001
1.223131e+003, 1.577980e+001
1.223614e+003, 1.570094e+001
1.224096e+003, 1.584526e+001
1.224578e+003, 1.612627e+001
1.225060e+003, 1.658874e+001
1.225542e+003, 1.700955e+001
1.226024e+003, 1.709241e+001
1.226506e+003, 1.696152e+001
1.226988e+003, 1.680739e+001
1.227470e+003, 1.664333e+001
1.227953e+003, 1.638383e+001
1.228435e+003, 1.600109e+001
1.228917e+003, 1.569374e+001
1.229399e+003, 1.547284e+001
1.229881e+003, 1.543579e+001
1.230363e+003, 1.588046e+001
1.230845e+003, 1.621355e+001
1.231327e+003, 1.588118e+001
1.231810e+003, 1.540081e+001
1.232292e+003, 1.547467e+001
1.232774e+003, 1.594003e+001
1.233256e+003, 1.611006e+001
1.233738e+003, 1.586815e+001
1.234220e+003, 1.585180e+001
1.234702e+003, 1.616540e+001
1.235184e+003, 1.636623e+001
1.235667e+003, 1.636815e+001
1.236149e+003, 1.625482e+001
1.236631e+003, 1.604613e+001
1.237113e+003, 1.585579e+001
1.237595e+003, 1.584184e+001
1.238077e+003, 1.591207e+001
1.238559e+003, 1.570453e+001
1.239041e+003, 1.532355e+001
1.239523e+003, 1.541832e+001
1.240005e+003, 1.587558e+001
1.240488e+003, 1.597222e+001
1.240970e+003, 1.561672e+001
1.241452e+003, 1.524781e+001
1.241934e+003, 1.507883e+001
1.242416e+003, 1.507299e+001
1.242898e+003, 1.527254e+001
1.243380e+003, 1.552913e+001
1.243862e+003, 1.562195e+001
1.244344e+003, 1.575375e+001
1.244827e+003, 1.644168e+001
1.245309e+003, 1.718643e+001
1.245791e+003, 1.697506e+001
1.246273e+003, 1.590619e+001
1.246755e+003, 1.513872e+001
1.247237e+003, 1.500410e+001
1.247719e+003, 1.504696e+001
1.248201e+003, 1.535004e+001
1.248684e+003, 1.555530e+001
1.249166e+003, 1.543833e+001
1.249648e+003, 1.533444e+001
1.250130e+003, 1.547843e+001
1.250612e+003, 1.569658e+001
1.251094e+003, 1.576992e+001
1.251576e+003, 1.570614e+001
1.252058e+003, 1.552532e+001
1.252541e+003, 1.518824e+001
1.253023e+003, 1.500390e+001
1.253505e+003, 1.497537e+001
1.253987e+003, 1.525205e+001
1.254469e+003, 1.587972e+001
1.254951e+003, 1.625791e+001
1.255433e+003, 1.603007e+001
1.255915e+003, 1.558603e+001
1.256397e+003, 1.534176e+001
1.256880e+003, 1.528219e+001
1.257362e+003, 1.549128e+001
1.257844e+003, 1.580101e+001
1.258326e+003, 1.587617e+001
1.258808e+003, 1.576193e+001
1.259290e+003, 1.554713e+001
1.259772e+003, 1.532171e+001
1.260254e+003, 1.536656e+001
1.260737e+003, 1.584939e+001
1.261219e+003, 1.616935e+001
1.261701e+003, 1.583780e+001
1.262183e+003, 1.549671e+001
1.262665e+003, 1.543944e+001
1.263147e+003, 1.550362e+001
1.263629e+003, 1.561443e+001
1.264111e+003, 1.573994e+001
1.264594e+003, 1.588600e+001
1.265076e+003, 1.602301e+001
1.265558e+003, 1.598693e+001
1.266040e+003, 1.572877e+001
1.266522e+003, 1.544692e+001
1.267004e+003, 1.506204e+001
1.267486e+003, 1.496385e+001
1.267968e+003, 1.528577e+001
1.268450e+003, 1.562187e+001
1.268932e+003, 1.577223e+001
1.269415e+003, 1.580665e+001
1.269897e+003, 1.580437e+001
1.270379e+003, 1.574310e+001
1.270861e+003, 1.550755e+001
1.271343e+003, 1.518793e+001
1.271825e+003, 1.505234e+001
1.272307e+003, 1.508017e+001
1.272789e+003, 1.523190e+001
1.273271e+003, 1.544552e+001
1.273754e+003, 1.549311e+001
1.274236e+003, 1.530081e+001
1.274718e+003, 1.527861e+001
1.275200e+003, 1.594153e+001
1.275682e+003, 1.647808e+001
1.276164e+003, 1.628489e+001
1.276646e+003, 1.592877e+001
1.277128e+003, 1.574597e+001
1.277611e+003, 1.568241e+001
1.278093e+003, 1.569927e+001
1.278575e+003, 1.575374e+001
1.279057e+003, 1.570399e+001
1.279539e+003, 1.551215e+001
1.280021e+003, 1.551880e+001
1.280503e+003, 1.582597e+001
1.280985e+003, 1.603158e+001
1.281468e+003, 1.608857e+001
1.281950e+003, 1.608275e+001
1.282432e+003, 1.603903e+001
1.282914e+003, 1.597051e+001
1.283396e+003, 1.588300e+001
1.283878e+003, 1.579962e+001
1.284360e+003, 1.578917e+001
1.284842e+003, 1.579897e+001
1.285324e+003, 1.568432e+001
##END=



