##NAMES=Schaurteite
##RRUFFID=R120104
##IDEAL CHEMISTRY=Ca_3_Ge(S^6+^O_4_)_2_(OH)_6_&#183;3H_2_O
##LOCALITY=Tsumeb, Namibia
##OWNER=RRUFF
##SOURCE=Marcus Origlieri
##DESCRIPTION=Aggregate of silky hair-like crystals, associated with calcite, quartz, and germanite.  Sample used in structure determination by Origlieri & Downs (2013).
##STATUS=The identification of this mineral is confirmed by single-crystal X-ray diffraction and chemical analysis.
##URL=rruff.info/R120104
##MEASURED CHEMISTRY=Ca_3.01_Ge_0.95_S_2.03_O_8_(OH)_6_.3H_2_O ; formula normalized to 17 O atoms, including 6H_2_O per formula unit
8.936163e+001, 0.000000e+000
8.984375e+001, 7.995814e+000
9.032587e+001, 8.159841e+000
9.080798e+001, 8.186743e+000
9.129010e+001, 8.008101e+000
9.177222e+001, 7.772249e+000
9.225433e+001, 7.698422e+000
9.273645e+001, 7.769567e+000
9.321857e+001, 7.803190e+000
9.370068e+001, 7.556184e+000
9.418280e+001, 7.126076e+000
9.466492e+001, 6.840238e+000
9.514703e+001, 6.899804e+000
9.562915e+001, 7.161374e+000
9.611127e+001, 7.196059e+000
9.659338e+001, 6.973870e+000
9.707550e+001, 6.672635e+000
9.755762e+001, 6.489517e+000
9.803973e+001, 6.425463e+000
9.852185e+001, 6.413651e+000
9.900397e+001, 6.471847e+000
9.948608e+001, 6.604112e+000
9.996820e+001, 6.585101e+000
1.004503e+002, 6.359070e+000
1.009324e+002, 6.044536e+000
1.014146e+002, 5.901230e+000
1.018967e+002, 5.978574e+000
1.023788e+002, 6.082476e+000
1.028609e+002, 6.102690e+000
1.033430e+002, 5.999425e+000
1.038251e+002, 5.941412e+000
1.043073e+002, 5.951700e+000
1.047894e+002, 6.018072e+000
1.052715e+002, 6.081471e+000
1.057536e+002, 6.163292e+000
1.062357e+002, 6.219320e+000
1.067178e+002, 6.215857e+000
1.072000e+002, 6.105257e+000
1.076821e+002, 6.003772e+000
1.081642e+002, 5.919101e+000
1.086463e+002, 5.849726e+000
1.091284e+002, 5.819046e+000
1.096105e+002, 5.908961e+000
1.100927e+002, 6.001936e+000
1.105748e+002, 5.987897e+000
1.110569e+002, 5.713701e+000
1.115390e+002, 5.474880e+000
1.120211e+002, 5.349298e+000
1.125032e+002, 5.371152e+000
1.129854e+002, 5.391119e+000
1.134675e+002, 5.378150e+000
1.139496e+002, 5.353617e+000
1.144317e+002, 5.348361e+000
1.149138e+002, 5.378690e+000
1.153959e+002, 5.423196e+000
1.158781e+002, 5.481860e+000
1.163602e+002, 5.586893e+000
1.168423e+002, 5.639603e+000
1.173244e+002, 5.535607e+000
1.178065e+002, 5.344162e+000
1.182886e+002, 5.241515e+000
1.187708e+002, 5.410017e+000
1.192529e+002, 5.642287e+000
1.197350e+002, 5.773873e+000
1.202171e+002, 5.726364e+000
1.206992e+002, 5.611814e+000
1.211813e+002, 5.469178e+000
1.216635e+002, 5.306511e+000
1.221456e+002, 5.172341e+000
1.226277e+002, 5.105223e+000
1.231098e+002, 5.082762e+000
1.235919e+002, 5.077484e+000
1.240740e+002, 5.157692e+000
1.245562e+002, 5.203238e+000
1.250383e+002, 5.034246e+000
1.255204e+002, 4.651635e+000
1.260025e+002, 4.279556e+000
1.264846e+002, 4.109195e+000
1.269667e+002, 4.099854e+000
1.274489e+002, 4.149765e+000
1.279310e+002, 4.251814e+000
1.284131e+002, 4.377539e+000
1.288952e+002, 4.495567e+000
1.293773e+002, 4.618727e+000
1.298594e+002, 4.667466e+000
1.303416e+002, 4.480757e+000
1.308237e+002, 4.092517e+000
1.313058e+002, 3.737411e+000
1.317879e+002, 3.550234e+000
1.322700e+002, 3.505917e+000
1.327521e+002, 3.490682e+000
1.332343e+002, 3.506025e+000
1.337164e+002, 3.529759e+000
1.341985e+002, 3.498982e+000
1.346806e+002, 3.406487e+000
1.351627e+002, 3.354863e+000
1.356448e+002, 3.444122e+000
1.361270e+002, 3.677463e+000
1.366091e+002, 3.853311e+000
1.370912e+002, 3.954211e+000
1.375733e+002, 3.977405e+000
1.380554e+002, 3.890204e+000
1.385375e+002, 3.652685e+000
1.390197e+002, 3.420352e+000
1.395018e+002, 3.337377e+000
1.399839e+002, 3.453747e+000
1.404660e+002, 3.494745e+000
1.409481e+002, 3.365741e+000
1.414302e+002, 3.091995e+000
1.419124e+002, 3.022321e+000
1.423945e+002, 3.254815e+000
1.428766e+002, 3.555424e+000
1.433587e+002, 3.690926e+000
1.438408e+002, 3.600055e+000
1.443229e+002, 3.462987e+000
1.448051e+002, 3.290317e+000
1.452872e+002, 3.060862e+000
1.457693e+002, 2.949031e+000
1.462514e+002, 3.006504e+000
1.467335e+002, 3.147089e+000
1.472156e+002, 3.267437e+000
1.476978e+002, 3.400720e+000
1.481799e+002, 3.470083e+000
1.486620e+002, 3.428206e+000
1.491441e+002, 3.183098e+000
1.496262e+002, 3.080008e+000
1.501083e+002, 3.254753e+000
1.505905e+002, 3.550805e+000
1.510726e+002, 3.693706e+000
1.515547e+002, 3.530153e+000
1.520368e+002, 3.345408e+000
1.525189e+002, 3.226947e+000
1.530010e+002, 3.233201e+000
1.534832e+002, 3.209173e+000
1.539653e+002, 3.074186e+000
1.544474e+002, 2.898095e+000
1.549295e+002, 2.848595e+000
1.554116e+002, 3.141415e+000
1.558937e+002, 3.424358e+000
1.563759e+002, 3.523529e+000
1.568580e+002, 3.176040e+000
1.573401e+002, 2.966305e+000
1.578222e+002, 3.127270e+000
1.583043e+002, 3.548937e+000
1.587864e+002, 3.825730e+000
1.592686e+002, 3.656175e+000
1.597507e+002, 3.418966e+000
1.602328e+002, 3.356725e+000
1.607149e+002, 3.690422e+000
1.611970e+002, 4.041602e+000
1.616791e+002, 4.275523e+000
1.621613e+002, 4.408497e+000
1.626434e+002, 4.571292e+000
1.631255e+002, 4.806099e+000
1.636076e+002, 5.096729e+000
1.640897e+002, 5.428761e+000
1.645718e+002, 5.814368e+000
1.650540e+002, 6.226428e+000
1.655361e+002, 6.652555e+000
1.660182e+002, 7.094701e+000
1.665003e+002, 7.553310e+000
1.669824e+002, 8.038965e+000
1.674645e+002, 8.544697e+000
1.679467e+002, 9.055003e+000
1.684288e+002, 9.559098e+000
1.689109e+002, 1.007425e+001
1.693930e+002, 1.063857e+001
1.698751e+002, 1.125937e+001
1.703572e+002, 1.182773e+001
1.708394e+002, 1.215605e+001
1.713215e+002, 1.239793e+001
1.718036e+002, 1.280615e+001
1.722857e+002, 1.366703e+001
1.727678e+002, 1.465957e+001
1.732499e+002, 1.548202e+001
1.737321e+002, 1.611665e+001
1.742142e+002, 1.661099e+001
1.746963e+002, 1.695621e+001
1.751784e+002, 1.719865e+001
1.756605e+002, 1.744918e+001
1.761426e+002, 1.771513e+001
1.766248e+002, 1.803633e+001
1.771069e+002, 1.850213e+001
1.775890e+002, 1.915432e+001
1.780711e+002, 1.981452e+001
1.785532e+002, 2.025834e+001
1.790353e+002, 2.054033e+001
1.795175e+002, 2.083875e+001
1.799996e+002, 2.132535e+001
1.804817e+002, 2.188898e+001
1.809638e+002, 2.230610e+001
1.814459e+002, 2.252215e+001
1.819280e+002, 2.266591e+001
1.824102e+002, 2.282874e+001
1.828923e+002, 2.303155e+001
1.833744e+002, 2.342769e+001
1.838565e+002, 2.431722e+001
1.843386e+002, 2.549658e+001
1.848207e+002, 2.628914e+001
1.853029e+002, 2.648775e+001
1.857850e+002, 2.649549e+001
1.862671e+002, 2.703117e+001
1.867492e+002, 2.807234e+001
1.872313e+002, 2.917440e+001
1.877134e+002, 3.001147e+001
1.881956e+002, 3.064264e+001
1.886777e+002, 3.131115e+001
1.891598e+002, 3.207412e+001
1.896419e+002, 3.288448e+001
1.901240e+002, 3.371082e+001
1.906061e+002, 3.457161e+001
1.910883e+002, 3.525614e+001
1.915704e+002, 3.544878e+001
1.920525e+002, 3.522237e+001
1.925346e+002, 3.531523e+001
1.930167e+002, 3.595729e+001
1.934988e+002, 3.690319e+001
1.939810e+002, 3.736009e+001
1.944631e+002, 3.725248e+001
1.949452e+002, 3.712516e+001
1.954273e+002, 3.732740e+001
1.959094e+002, 3.784739e+001
1.963915e+002, 3.823484e+001
1.968737e+002, 3.840262e+001
1.973558e+002, 3.838501e+001
1.978379e+002, 3.825570e+001
1.983200e+002, 3.799234e+001
1.988021e+002, 3.772943e+001
1.992842e+002, 3.765001e+001
1.997664e+002, 3.777370e+001
2.002485e+002, 3.769719e+001
2.007306e+002, 3.723641e+001
2.012127e+002, 3.650695e+001
2.016948e+002, 3.617782e+001
2.021769e+002, 3.631499e+001
2.026591e+002, 3.662623e+001
2.031412e+002, 3.684376e+001
2.036233e+002, 3.695677e+001
2.041054e+002, 3.707954e+001
2.045875e+002, 3.725035e+001
2.050696e+002, 3.745863e+001
2.055518e+002, 3.759379e+001
2.060339e+002, 3.763064e+001
2.065160e+002, 3.765156e+001
2.069981e+002, 3.775146e+001
2.074802e+002, 3.794877e+001
2.079623e+002, 3.813028e+001
2.084445e+002, 3.826907e+001
2.089266e+002, 3.836671e+001
2.094087e+002, 3.843307e+001
2.098908e+002, 3.843186e+001
2.103729e+002, 3.846279e+001
2.108550e+002, 3.868337e+001
2.113372e+002, 3.918497e+001
2.118193e+002, 3.953998e+001
2.123014e+002, 3.958988e+001
2.127835e+002, 3.933407e+001
2.132656e+002, 3.924749e+001
2.137477e+002, 3.939177e+001
2.142299e+002, 3.961616e+001
2.147120e+002, 3.974911e+001
2.151941e+002, 3.978178e+001
2.156762e+002, 3.974731e+001
2.161583e+002, 3.961242e+001
2.166404e+002, 3.936373e+001
2.171226e+002, 3.929248e+001
2.176047e+002, 3.947101e+001
2.180868e+002, 3.973903e+001
2.185689e+002, 3.990918e+001
2.190510e+002, 3.996221e+001
2.195331e+002, 3.996122e+001
2.200153e+002, 3.989076e+001
2.204974e+002, 3.973262e+001
2.209795e+002, 3.972224e+001
2.214616e+002, 3.992690e+001
2.219437e+002, 4.020857e+001
2.224258e+002, 4.040735e+001
2.229080e+002, 4.052090e+001
2.233901e+002, 4.055336e+001
2.238722e+002, 4.047942e+001
2.243543e+002, 4.027755e+001
2.248364e+002, 4.014783e+001
2.253185e+002, 4.008974e+001
2.258007e+002, 4.010312e+001
2.262828e+002, 4.019012e+001
2.267649e+002, 4.035489e+001
2.272470e+002, 4.058315e+001
2.277291e+002, 4.088639e+001
2.282112e+002, 4.128611e+001
2.286934e+002, 4.163371e+001
2.291755e+002, 4.197817e+001
2.296576e+002, 4.222919e+001
2.301397e+002, 4.223320e+001
2.306218e+002, 4.181347e+001
2.311039e+002, 4.147232e+001
2.315861e+002, 4.135059e+001
2.320682e+002, 4.147449e+001
2.325503e+002, 4.162593e+001
2.330324e+002, 4.181902e+001
2.335145e+002, 4.202887e+001
2.339966e+002, 4.223297e+001
2.344788e+002, 4.245531e+001
2.349609e+002, 4.262634e+001
2.354430e+002, 4.270265e+001
2.359251e+002, 4.265642e+001
2.364072e+002, 4.272539e+001
2.368893e+002, 4.299713e+001
2.373715e+002, 4.331137e+001
2.378536e+002, 4.345763e+001
2.383357e+002, 4.333680e+001
2.388178e+002, 4.322052e+001
2.392999e+002, 4.316219e+001
2.397820e+002, 4.315715e+001
2.402642e+002, 4.324883e+001
2.407463e+002, 4.348669e+001
2.412284e+002, 4.377772e+001
2.417105e+002, 4.399575e+001
2.421926e+002, 4.405097e+001
2.426747e+002, 4.419989e+001
2.431569e+002, 4.457007e+001
2.436390e+002, 4.522378e+001
2.441211e+002, 4.555740e+001
2.446032e+002, 4.536137e+001
2.450853e+002, 4.503498e+001
2.455674e+002, 4.507642e+001
2.460496e+002, 4.575957e+001
2.465317e+002, 4.630194e+001
2.470138e+002, 4.648289e+001
2.474959e+002, 4.626032e+001
2.479780e+002, 4.618165e+001
2.484601e+002, 4.631570e+001
2.489423e+002, 4.652584e+001
2.494244e+002, 4.664487e+001
2.499065e+002, 4.656575e+001
2.503886e+002, 4.661379e+001
2.508707e+002, 4.690598e+001
2.513528e+002, 4.745537e+001
2.518350e+002, 4.790580e+001
2.523171e+002, 4.827293e+001
2.527992e+002, 4.852020e+001
2.532813e+002, 4.856535e+001
2.537634e+002, 4.824073e+001
2.542455e+002, 4.807835e+001
2.547277e+002, 4.822400e+001
2.552098e+002, 4.868404e+001
2.556919e+002, 4.909075e+001
2.561740e+002, 4.943919e+001
2.566561e+002, 4.973872e+001
2.571382e+002, 5.001291e+001
2.576204e+002, 5.032707e+001
2.581025e+002, 5.044622e+001
2.585846e+002, 5.022525e+001
2.590667e+002, 4.969197e+001
2.595488e+002, 4.951295e+001
2.600309e+002, 4.984248e+001
2.605131e+002, 5.030538e+001
2.609952e+002, 5.055847e+001
2.614773e+002, 5.051714e+001
2.619594e+002, 5.051542e+001
2.624415e+002, 5.063336e+001
2.629236e+002, 5.085299e+001
2.634058e+002, 5.095984e+001
2.638879e+002, 5.090014e+001
2.643700e+002, 5.082196e+001
2.648521e+002, 5.082265e+001
2.653342e+002, 5.088302e+001
2.658163e+002, 5.110868e+001
2.662985e+002, 5.161332e+001
2.667806e+002, 5.230513e+001
2.672627e+002, 5.265034e+001
2.677448e+002, 5.257127e+001
2.682269e+002, 5.230143e+001
2.687090e+002, 5.193615e+001
2.691912e+002, 5.138524e+001
2.696733e+002, 5.114836e+001
2.701554e+002, 5.142811e+001
2.706375e+002, 5.203225e+001
2.711196e+002, 5.213513e+001
2.716017e+002, 5.160524e+001
2.720839e+002, 5.093874e+001
2.725660e+002, 5.048479e+001
2.730481e+002, 5.028059e+001
2.735302e+002, 5.002726e+001
2.740123e+002, 4.968550e+001
2.744944e+002, 4.928159e+001
2.749766e+002, 4.886748e+001
2.754587e+002, 4.842710e+001
2.759408e+002, 4.804324e+001
2.764229e+002, 4.780478e+001
2.769050e+002, 4.772680e+001
2.773871e+002, 4.757318e+001
2.778693e+002, 4.728414e+001
2.783514e+002, 4.696056e+001
2.788335e+002, 4.687824e+001
2.793156e+002, 4.708602e+001
2.797977e+002, 4.724210e+001
2.802798e+002, 4.713726e+001
2.807620e+002, 4.677123e+001
2.812441e+002, 4.637376e+001
2.817262e+002, 4.592120e+001
2.822083e+002, 4.550204e+001
2.826904e+002, 4.529038e+001
2.831725e+002, 4.529522e+001
2.836547e+002, 4.537150e+001
2.841368e+002, 4.548789e+001
2.846189e+002, 4.563443e+001
2.851010e+002, 4.570896e+001
2.855831e+002, 4.571196e+001
2.860652e+002, 4.563534e+001
2.865474e+002, 4.539069e+001
2.870295e+002, 4.498392e+001
2.875116e+002, 4.470731e+001
2.879937e+002, 4.473838e+001
2.884758e+002, 4.502885e+001
2.889579e+002, 4.532750e+001
2.894401e+002, 4.565642e+001
2.899222e+002, 4.590309e+001
2.904043e+002, 4.585962e+001
2.908864e+002, 4.556446e+001
2.913685e+002, 4.532670e+001
2.918506e+002, 4.529037e+001
2.923328e+002, 4.539594e+001
2.928149e+002, 4.547301e+001
2.932970e+002, 4.551962e+001
2.937791e+002, 4.556553e+001
2.942612e+002, 4.566719e+001
2.947433e+002, 4.580209e+001
2.952255e+002, 4.587092e+001
2.957076e+002, 4.577824e+001
2.961897e+002, 4.563397e+001
2.966718e+002, 4.567495e+001
2.971539e+002, 4.589685e+001
2.976360e+002, 4.616130e+001
2.981182e+002, 4.640023e+001
2.986003e+002, 4.659188e+001
2.990824e+002, 4.667593e+001
2.995645e+002, 4.658007e+001
3.000466e+002, 4.643000e+001
3.005287e+002, 4.641874e+001
3.010109e+002, 4.652953e+001
3.014930e+002, 4.664417e+001
3.019751e+002, 4.658474e+001
3.024572e+002, 4.648822e+001
3.029393e+002, 4.661512e+001
3.034214e+002, 4.710820e+001
3.039036e+002, 4.768346e+001
3.043857e+002, 4.806172e+001
3.048678e+002, 4.826826e+001
3.053499e+002, 4.840081e+001
3.058320e+002, 4.847370e+001
3.063141e+002, 4.852174e+001
3.067963e+002, 4.858652e+001
3.072784e+002, 4.867999e+001
3.077605e+002, 4.877791e+001
3.082426e+002, 4.880265e+001
3.087247e+002, 4.881064e+001
3.092068e+002, 4.893760e+001
3.096890e+002, 4.935489e+001
3.101711e+002, 4.986158e+001
3.106532e+002, 5.027947e+001
3.111353e+002, 5.057565e+001
3.116174e+002, 5.084108e+001
3.120995e+002, 5.114575e+001
3.125817e+002, 5.145122e+001
3.130638e+002, 5.170051e+001
3.135459e+002, 5.178181e+001
3.140280e+002, 5.186828e+001
3.145101e+002, 5.211556e+001
3.149922e+002, 5.254806e+001
3.154744e+002, 5.288537e+001
3.159565e+002, 5.287156e+001
3.164386e+002, 5.272992e+001
3.169207e+002, 5.271460e+001
3.174028e+002, 5.291137e+001
3.178849e+002, 5.324528e+001
3.183671e+002, 5.378957e+001
3.188492e+002, 5.452867e+001
3.193313e+002, 5.509505e+001
3.198134e+002, 5.520493e+001
3.202955e+002, 5.517795e+001
3.207776e+002, 5.526727e+001
3.212598e+002, 5.553410e+001
3.217419e+002, 5.591507e+001
3.222240e+002, 5.650828e+001
3.227061e+002, 5.724915e+001
3.231882e+002, 5.780562e+001
3.236703e+002, 5.792794e+001
3.241525e+002, 5.797680e+001
3.246346e+002, 5.814382e+001
3.251167e+002, 5.843829e+001
3.255988e+002, 5.886711e+001
3.260809e+002, 5.957179e+001
3.265630e+002, 6.042512e+001
3.270452e+002, 6.108037e+001
3.275273e+002, 6.137688e+001
3.280094e+002, 6.158651e+001
3.284915e+002, 6.179569e+001
3.289736e+002, 6.199145e+001
3.294557e+002, 6.220801e+001
3.299379e+002, 6.236721e+001
3.304200e+002, 6.257357e+001
3.309021e+002, 6.300412e+001
3.313842e+002, 6.388717e+001
3.318663e+002, 6.469411e+001
3.323484e+002, 6.527418e+001
3.328306e+002, 6.558321e+001
3.333127e+002, 6.587660e+001
3.337948e+002, 6.611126e+001
3.342769e+002, 6.636943e+001
3.347590e+002, 6.674937e+001
3.352411e+002, 6.731352e+001
3.357233e+002, 6.786665e+001
3.362054e+002, 6.835826e+001
3.366875e+002, 6.879818e+001
3.371696e+002, 6.925868e+001
3.376517e+002, 6.972190e+001
3.381339e+002, 7.024043e+001
3.386160e+002, 7.089137e+001
3.390981e+002, 7.173315e+001
3.395802e+002, 7.243378e+001
3.400623e+002, 7.292038e+001
3.405444e+002, 7.324283e+001
3.410266e+002, 7.351097e+001
3.415087e+002, 7.370493e+001
3.419908e+002, 7.395100e+001
3.424729e+002, 7.436480e+001
3.429550e+002, 7.494064e+001
3.434371e+002, 7.546139e+001
3.439193e+002, 7.589410e+001
3.444014e+002, 7.628334e+001
3.448835e+002, 7.667240e+001
3.453656e+002, 7.706187e+001
3.458477e+002, 7.752614e+001
3.463298e+002, 7.807497e+001
3.468120e+002, 7.872691e+001
3.472941e+002, 7.957471e+001
3.477762e+002, 8.065505e+001
3.482583e+002, 8.179235e+001
3.487404e+002, 8.280680e+001
3.492225e+002, 8.370968e+001
3.497047e+002, 8.454476e+001
3.501868e+002, 8.531391e+001
3.506689e+002, 8.602988e+001
3.511510e+002, 8.669698e+001
3.516331e+002, 8.731392e+001
3.521152e+002, 8.796843e+001
3.525974e+002, 8.884441e+001
3.530795e+002, 8.979576e+001
3.535616e+002, 9.055339e+001
3.540437e+002, 9.103564e+001
3.545258e+002, 9.130347e+001
3.550079e+002, 9.142705e+001
3.554901e+002, 9.139529e+001
3.559722e+002, 9.116511e+001
3.564543e+002, 9.080814e+001
3.569364e+002, 9.019474e+001
3.574185e+002, 8.915714e+001
3.579006e+002, 8.759341e+001
3.583828e+002, 8.581124e+001
3.588649e+002, 8.377385e+001
3.593470e+002, 8.165208e+001
3.598291e+002, 7.977309e+001
3.603112e+002, 7.863036e+001
3.607933e+002, 7.751142e+001
3.612755e+002, 7.588424e+001
3.617576e+002, 7.360986e+001
3.622397e+002, 7.150098e+001
3.627218e+002, 6.981802e+001
3.632039e+002, 6.847941e+001
3.636860e+002, 6.739420e+001
3.641682e+002, 6.688928e+001
3.646503e+002, 6.628574e+001
3.651324e+002, 6.527367e+001
3.656145e+002, 6.386622e+001
3.660966e+002, 6.268329e+001
3.665787e+002, 6.194909e+001
3.670609e+002, 6.139476e+001
3.675430e+002, 6.084806e+001
3.680251e+002, 6.023249e+001
3.685072e+002, 5.969500e+001
3.689893e+002, 5.931809e+001
3.694714e+002, 5.904065e+001
3.699536e+002, 5.866429e+001
3.704357e+002, 5.800107e+001
3.709178e+002, 5.743687e+001
3.713999e+002, 5.715832e+001
3.718820e+002, 5.733376e+001
3.723641e+002, 5.734516e+001
3.728463e+002, 5.709692e+001
3.733284e+002, 5.674741e+001
3.738105e+002, 5.654473e+001
3.742926e+002, 5.654152e+001
3.747747e+002, 5.656454e+001
3.752568e+002, 5.655247e+001
3.757390e+002, 5.650396e+001
3.762211e+002, 5.655826e+001
3.767032e+002, 5.675294e+001
3.771853e+002, 5.697188e+001
3.776674e+002, 5.707498e+001
3.781495e+002, 5.703752e+001
3.786317e+002, 5.712360e+001
3.791138e+002, 5.743640e+001
3.795959e+002, 5.787455e+001
3.800780e+002, 5.814680e+001
3.805601e+002, 5.824811e+001
3.810422e+002, 5.822260e+001
3.815244e+002, 5.808492e+001
3.820065e+002, 5.784143e+001
3.824886e+002, 5.752077e+001
3.829707e+002, 5.711045e+001
3.834528e+002, 5.666373e+001
3.839349e+002, 5.626698e+001
3.844171e+002, 5.590343e+001
3.848992e+002, 5.548772e+001
3.853813e+002, 5.496251e+001
3.858634e+002, 5.435786e+001
3.863455e+002, 5.363813e+001
3.868276e+002, 5.279499e+001
3.873098e+002, 5.209634e+001
3.877919e+002, 5.192761e+001
3.882740e+002, 5.203728e+001
3.887561e+002, 5.197275e+001
3.892382e+002, 5.145461e+001
3.897203e+002, 5.082836e+001
3.902025e+002, 5.035369e+001
3.906846e+002, 5.001791e+001
3.911667e+002, 4.975222e+001
3.916488e+002, 4.958643e+001
3.921309e+002, 4.944036e+001
3.926130e+002, 4.924064e+001
3.930952e+002, 4.895106e+001
3.935773e+002, 4.866231e+001
3.940594e+002, 4.837290e+001
3.945415e+002, 4.811681e+001
3.950236e+002, 4.795687e+001
3.955057e+002, 4.800183e+001
3.959879e+002, 4.806893e+001
3.964700e+002, 4.808837e+001
3.969521e+002, 4.805040e+001
3.974342e+002, 4.799770e+001
3.979163e+002, 4.794136e+001
3.983984e+002, 4.787157e+001
3.988806e+002, 4.777930e+001
3.993627e+002, 4.759617e+001
3.998448e+002, 4.746917e+001
4.003269e+002, 4.744016e+001
4.008090e+002, 4.749344e+001
4.012911e+002, 4.751638e+001
4.017733e+002, 4.753490e+001
4.022554e+002, 4.749303e+001
4.027375e+002, 4.733395e+001
4.032196e+002, 4.693446e+001
4.037017e+002, 4.673558e+001
4.041838e+002, 4.679713e+001
4.046660e+002, 4.702114e+001
4.051481e+002, 4.725470e+001
4.056302e+002, 4.753528e+001
4.061123e+002, 4.769107e+001
4.065944e+002, 4.762072e+001
4.070765e+002, 4.733688e+001
4.075587e+002, 4.711678e+001
4.080408e+002, 4.695612e+001
4.085229e+002, 4.686800e+001
4.090050e+002, 4.689131e+001
4.094871e+002, 4.701834e+001
4.099692e+002, 4.714211e+001
4.104514e+002, 4.724109e+001
4.109335e+002, 4.732136e+001
4.114156e+002, 4.740588e+001
4.118977e+002, 4.749062e+001
4.123798e+002, 4.753971e+001
4.128619e+002, 4.747372e+001
4.133441e+002, 4.736501e+001
4.138262e+002, 4.735215e+001
4.143083e+002, 4.745388e+001
4.147904e+002, 4.763817e+001
4.152725e+002, 4.795665e+001
4.157546e+002, 4.833302e+001
4.162368e+002, 4.861655e+001
4.167189e+002, 4.873127e+001
4.172010e+002, 4.872898e+001
4.176831e+002, 4.856910e+001
4.181652e+002, 4.827121e+001
4.186473e+002, 4.809630e+001
4.191295e+002, 4.830578e+001
4.196116e+002, 4.864377e+001
4.200937e+002, 4.887165e+001
4.205758e+002, 4.880250e+001
4.210579e+002, 4.880816e+001
4.215400e+002, 4.908147e+001
4.220222e+002, 4.952107e+001
4.225043e+002, 4.988457e+001
4.229864e+002, 5.011148e+001
4.234685e+002, 5.025416e+001
4.239506e+002, 5.030330e+001
4.244327e+002, 5.019805e+001
4.249149e+002, 5.020819e+001
4.253970e+002, 5.039060e+001
4.258791e+002, 5.066430e+001
4.263612e+002, 5.096356e+001
4.268433e+002, 5.137397e+001
4.273254e+002, 5.166749e+001
4.278076e+002, 5.179318e+001
4.282897e+002, 5.176772e+001
4.287718e+002, 5.167916e+001
4.292539e+002, 5.145969e+001
4.297360e+002, 5.131348e+001
4.302181e+002, 5.140959e+001
4.307003e+002, 5.180266e+001
4.311824e+002, 5.206435e+001
4.316645e+002, 5.215453e+001
4.321466e+002, 5.214570e+001
4.326287e+002, 5.214312e+001
4.331108e+002, 5.214709e+001
4.335930e+002, 5.216548e+001
4.340751e+002, 5.220949e+001
4.345572e+002, 5.227031e+001
4.350393e+002, 5.225997e+001
4.355214e+002, 5.217287e+001
4.360035e+002, 5.222348e+001
4.364857e+002, 5.264373e+001
4.369678e+002, 5.334603e+001
4.374499e+002, 5.416197e+001
4.379320e+002, 5.513013e+001
4.384141e+002, 5.604528e+001
4.388962e+002, 5.660237e+001
4.393784e+002, 5.690604e+001
4.398605e+002, 5.726403e+001
4.403426e+002, 5.785735e+001
4.408247e+002, 5.856414e+001
4.413068e+002, 5.929838e+001
4.417889e+002, 6.004530e+001
4.422711e+002, 6.082462e+001
4.427532e+002, 6.161003e+001
4.432353e+002, 6.244586e+001
4.437174e+002, 6.337821e+001
4.441995e+002, 6.470528e+001
4.446816e+002, 6.582964e+001
4.451638e+002, 6.654432e+001
4.456459e+002, 6.690279e+001
4.461280e+002, 6.719020e+001
4.466101e+002, 6.729559e+001
4.470922e+002, 6.746336e+001
4.475743e+002, 6.783437e+001
4.480565e+002, 6.856480e+001
4.485386e+002, 6.908096e+001
4.490207e+002, 6.915469e+001
4.495028e+002, 6.915519e+001
4.499849e+002, 6.956104e+001
4.504670e+002, 7.048621e+001
4.509492e+002, 7.159187e+001
4.514313e+002, 7.292383e+001
4.519134e+002, 7.440440e+001
4.523955e+002, 7.532402e+001
4.528776e+002, 7.551244e+001
4.533597e+002, 7.567586e+001
4.538419e+002, 7.641566e+001
4.543240e+002, 7.770493e+001
4.548061e+002, 7.866215e+001
4.552882e+002, 7.918647e+001
4.557703e+002, 7.941059e+001
4.562524e+002, 7.947524e+001
4.567346e+002, 7.939009e+001
4.572167e+002, 7.921935e+001
4.576988e+002, 7.896851e+001
4.581809e+002, 7.865706e+001
4.586630e+002, 7.836220e+001
4.591451e+002, 7.807491e+001
4.596273e+002, 7.761860e+001
4.601094e+002, 7.684721e+001
4.605915e+002, 7.583404e+001
4.610736e+002, 7.466662e+001
4.615557e+002, 7.332439e+001
4.620378e+002, 7.189259e+001
4.625200e+002, 7.034515e+001
4.630021e+002, 6.874535e+001
4.634842e+002, 6.724776e+001
4.639663e+002, 6.592043e+001
4.644484e+002, 6.469375e+001
4.649305e+002, 6.348887e+001
4.654127e+002, 6.228315e+001
4.658948e+002, 6.143386e+001
4.663769e+002, 6.120166e+001
4.668590e+002, 6.124915e+001
4.673411e+002, 6.133502e+001
4.678232e+002, 6.145312e+001
4.683054e+002, 6.159471e+001
4.687875e+002, 6.166742e+001
4.692696e+002, 6.177626e+001
4.697517e+002, 6.222441e+001
4.702338e+002, 6.321011e+001
4.707159e+002, 6.415747e+001
4.711981e+002, 6.481145e+001
4.716802e+002, 6.515130e+001
4.721623e+002, 6.577399e+001
4.726444e+002, 6.674555e+001
4.731265e+002, 6.779692e+001
4.736086e+002, 6.870605e+001
4.740908e+002, 6.947116e+001
4.745729e+002, 7.000546e+001
4.750550e+002, 7.030752e+001
4.755371e+002, 7.034733e+001
4.760192e+002, 6.998772e+001
4.765013e+002, 6.926180e+001
4.769835e+002, 6.845524e+001
4.774656e+002, 6.780207e+001
4.779477e+002, 6.713674e+001
4.784298e+002, 6.613279e+001
4.789119e+002, 6.476894e+001
4.793940e+002, 6.336137e+001
4.798762e+002, 6.216414e+001
4.803583e+002, 6.107019e+001
4.808404e+002, 5.992362e+001
4.813225e+002, 5.853436e+001
4.818046e+002, 5.726835e+001
4.822867e+002, 5.637004e+001
4.827689e+002, 5.574559e+001
4.832510e+002, 5.515254e+001
4.837331e+002, 5.450412e+001
4.842152e+002, 5.387633e+001
4.846973e+002, 5.329470e+001
4.851794e+002, 5.275184e+001
4.856616e+002, 5.228764e+001
4.861437e+002, 5.197602e+001
4.866258e+002, 5.170247e+001
4.871079e+002, 5.137181e+001
4.875900e+002, 5.091171e+001
4.880721e+002, 5.052458e+001
4.885543e+002, 5.027342e+001
4.890364e+002, 5.009156e+001
4.895185e+002, 4.975576e+001
4.900006e+002, 4.919207e+001
4.904827e+002, 4.871391e+001
4.909648e+002, 4.846167e+001
4.914470e+002, 4.842747e+001
4.919291e+002, 4.855629e+001
4.924112e+002, 4.889201e+001
4.928933e+002, 4.917448e+001
4.933754e+002, 4.907193e+001
4.938575e+002, 4.866839e+001
4.943397e+002, 4.832671e+001
4.948218e+002, 4.812777e+001
4.953039e+002, 4.802845e+001
4.957860e+002, 4.801910e+001
4.962681e+002, 4.807364e+001
4.967502e+002, 4.810181e+001
4.972324e+002, 4.802611e+001
4.977145e+002, 4.792033e+001
4.981966e+002, 4.784639e+001
4.986787e+002, 4.780704e+001
4.991608e+002, 4.779599e+001
4.996429e+002, 4.787006e+001
5.001251e+002, 4.793792e+001
5.006072e+002, 4.791874e+001
5.010893e+002, 4.774983e+001
5.015714e+002, 4.755232e+001
5.020535e+002, 4.726352e+001
5.025356e+002, 4.696580e+001
5.030178e+002, 4.684585e+001
5.034999e+002, 4.708913e+001
5.039820e+002, 4.732612e+001
5.044641e+002, 4.748124e+001
5.049462e+002, 4.755650e+001
5.054283e+002, 4.752665e+001
5.059105e+002, 4.732979e+001
5.063926e+002, 4.712588e+001
5.068747e+002, 4.705768e+001
5.073568e+002, 4.715655e+001
5.078389e+002, 4.716340e+001
5.083210e+002, 4.701649e+001
5.088032e+002, 4.683567e+001
5.092853e+002, 4.685539e+001
5.097674e+002, 4.706367e+001
5.102495e+002, 4.726671e+001
5.107316e+002, 4.739624e+001
5.112137e+002, 4.746297e+001
5.116959e+002, 4.746923e+001
5.121780e+002, 4.741948e+001
5.126601e+002, 4.738023e+001
5.131422e+002, 4.739526e+001
5.136243e+002, 4.745090e+001
5.141064e+002, 4.756062e+001
5.145886e+002, 4.776943e+001
5.150707e+002, 4.787518e+001
5.155528e+002, 4.761723e+001
5.160349e+002, 4.721221e+001
5.165170e+002, 4.696908e+001
5.169991e+002, 4.723118e+001
5.174813e+002, 4.742342e+001
5.179634e+002, 4.722868e+001
5.184455e+002, 4.671973e+001
5.189276e+002, 4.650975e+001
5.194097e+002, 4.695909e+001
5.198918e+002, 4.747247e+001
5.203740e+002, 4.781548e+001
5.208561e+002, 4.794874e+001
5.213382e+002, 4.803927e+001
5.218203e+002, 4.805835e+001
5.223024e+002, 4.806632e+001
5.227845e+002, 4.814920e+001
5.232667e+002, 4.832898e+001
5.237488e+002, 4.845383e+001
5.242309e+002, 4.848529e+001
5.247130e+002, 4.844956e+001
5.251951e+002, 4.840526e+001
5.256772e+002, 4.835232e+001
5.261594e+002, 4.829597e+001
5.266415e+002, 4.822605e+001
5.271236e+002, 4.815716e+001
5.276057e+002, 4.812813e+001
5.280878e+002, 4.814111e+001
5.285699e+002, 4.816488e+001
5.290521e+002, 4.817969e+001
5.295342e+002, 4.818844e+001
5.300163e+002, 4.819628e+001
5.304984e+002, 4.821223e+001
5.309805e+002, 4.821375e+001
5.314626e+002, 4.816633e+001
5.319448e+002, 4.809740e+001
5.324269e+002, 4.806014e+001
5.329090e+002, 4.812247e+001
5.333911e+002, 4.816637e+001
5.338732e+002, 4.811594e+001
5.343553e+002, 4.796360e+001
5.348375e+002, 4.793141e+001
5.353196e+002, 4.816650e+001
5.358017e+002, 4.837879e+001
5.362838e+002, 4.838190e+001
5.367659e+002, 4.803582e+001
5.372480e+002, 4.788482e+001
5.377302e+002, 4.799077e+001
5.382123e+002, 4.821236e+001
5.386944e+002, 4.832800e+001
5.391765e+002, 4.832751e+001
5.396586e+002, 4.840298e+001
5.401407e+002, 4.867735e+001
5.406229e+002, 4.899938e+001
5.411050e+002, 4.891523e+001
5.415871e+002, 4.846788e+001
5.420692e+002, 4.808215e+001
5.425513e+002, 4.810270e+001
5.430334e+002, 4.832238e+001
5.435156e+002, 4.843016e+001
5.439977e+002, 4.840327e+001
5.444798e+002, 4.833577e+001
5.449619e+002, 4.818049e+001
5.454440e+002, 4.806780e+001
5.459261e+002, 4.815381e+001
5.464083e+002, 4.866469e+001
5.468904e+002, 4.911135e+001
5.473725e+002, 4.930264e+001
5.478546e+002, 4.931170e+001
5.483367e+002, 4.930085e+001
5.488188e+002, 4.914098e+001
5.493010e+002, 4.913041e+001
5.497831e+002, 4.946264e+001
5.502652e+002, 5.012732e+001
5.507473e+002, 5.034077e+001
5.512294e+002, 4.987223e+001
5.517115e+002, 4.934256e+001
5.521937e+002, 4.915075e+001
5.526758e+002, 4.933492e+001
5.531579e+002, 4.951600e+001
5.536400e+002, 4.969469e+001
5.541221e+002, 4.982718e+001
5.546042e+002, 4.977715e+001
5.550864e+002, 4.959209e+001
5.555685e+002, 4.958411e+001
5.560506e+002, 4.992529e+001
5.565327e+002, 5.038594e+001
5.570148e+002, 5.065859e+001
5.574969e+002, 5.077064e+001
5.579791e+002, 5.082656e+001
5.584612e+002, 5.083297e+001
5.589433e+002, 5.084220e+001
5.594254e+002, 5.090818e+001
5.599075e+002, 5.103535e+001
5.603896e+002, 5.114751e+001
5.608718e+002, 5.114079e+001
5.613539e+002, 5.115054e+001
5.618360e+002, 5.128663e+001
5.623181e+002, 5.177642e+001
5.628002e+002, 5.206731e+001
5.632823e+002, 5.197853e+001
5.637645e+002, 5.174527e+001
5.642466e+002, 5.171793e+001
5.647287e+002, 5.192619e+001
5.652108e+002, 5.229572e+001
5.656929e+002, 5.291470e+001
5.661750e+002, 5.366799e+001
5.666572e+002, 5.397452e+001
5.671393e+002, 5.376530e+001
5.676214e+002, 5.359385e+001
5.681035e+002, 5.380173e+001
5.685856e+002, 5.431850e+001
5.690677e+002, 5.491904e+001
5.695499e+002, 5.559570e+001
5.700320e+002, 5.627002e+001
5.705141e+002, 5.685808e+001
5.709962e+002, 5.738892e+001
5.714783e+002, 5.789110e+001
5.719604e+002, 5.832204e+001
5.724426e+002, 5.883947e+001
5.729247e+002, 5.951961e+001
5.734068e+002, 6.036207e+001
5.738889e+002, 6.138215e+001
5.743710e+002, 6.259756e+001
5.748531e+002, 6.397106e+001
5.753353e+002, 6.549453e+001
5.758174e+002, 6.716222e+001
5.762995e+002, 6.899373e+001
5.767816e+002, 7.111742e+001
5.772637e+002, 7.322421e+001
5.777458e+002, 7.514890e+001
5.782280e+002, 7.678869e+001
5.787101e+002, 7.877410e+001
5.791922e+002, 8.118127e+001
5.796743e+002, 8.376675e+001
5.801564e+002, 8.626915e+001
5.806385e+002, 8.868725e+001
5.811207e+002, 9.120921e+001
5.816028e+002, 9.384896e+001
5.820849e+002, 9.660606e+001
5.825670e+002, 9.947083e+001
5.830491e+002, 1.024242e+002
5.835313e+002, 1.055571e+002
5.840134e+002, 1.087384e+002
5.844955e+002, 1.122036e+002
5.849776e+002, 1.161100e+002
5.854597e+002, 1.204714e+002
5.859418e+002, 1.253534e+002
5.864240e+002, 1.310977e+002
5.869061e+002, 1.371051e+002
5.873882e+002, 1.431927e+002
5.878703e+002, 1.493617e+002
5.883524e+002, 1.553609e+002
5.888345e+002, 1.610724e+002
5.893167e+002, 1.666643e+002
5.897988e+002, 1.723164e+002
5.902809e+002, 1.783422e+002
5.907630e+002, 1.838045e+002
5.912451e+002, 1.888820e+002
5.917272e+002, 1.931706e+002
5.922094e+002, 1.960949e+002
5.926915e+002, 1.976688e+002
5.931736e+002, 1.973044e+002
5.936557e+002, 1.946207e+002
5.941378e+002, 1.899885e+002
5.946199e+002, 1.841480e+002
5.951021e+002, 1.771551e+002
5.955842e+002, 1.690448e+002
5.960663e+002, 1.589386e+002
5.965484e+002, 1.482325e+002
5.970305e+002, 1.382646e+002
5.975126e+002, 1.291432e+002
5.979948e+002, 1.208095e+002
5.984769e+002, 1.134608e+002
5.989590e+002, 1.068625e+002
5.994411e+002, 1.007455e+002
5.999232e+002, 9.487941e+001
6.004053e+002, 8.977702e+001
6.008875e+002, 8.583953e+001
6.013696e+002, 8.263973e+001
6.018517e+002, 7.961530e+001
6.023338e+002, 7.663722e+001
6.028159e+002, 7.415603e+001
6.032980e+002, 7.232519e+001
6.037802e+002, 7.101759e+001
6.042623e+002, 6.971915e+001
6.047444e+002, 6.843021e+001
6.052265e+002, 6.723837e+001
6.057086e+002, 6.612679e+001
6.061907e+002, 6.515010e+001
6.066729e+002, 6.457626e+001
6.071550e+002, 6.439861e+001
6.076371e+002, 6.421778e+001
6.081192e+002, 6.353946e+001
6.086013e+002, 6.274090e+001
6.090834e+002, 6.236591e+001
6.095656e+002, 6.257960e+001
6.100477e+002, 6.287706e+001
6.105298e+002, 6.296574e+001
6.110119e+002, 6.299446e+001
6.114940e+002, 6.313202e+001
6.119761e+002, 6.341729e+001
6.124583e+002, 6.381437e+001
6.129404e+002, 6.433791e+001
6.134225e+002, 6.496806e+001
6.139046e+002, 6.570099e+001
6.143867e+002, 6.659667e+001
6.148688e+002, 6.743313e+001
6.153510e+002, 6.808486e+001
6.158331e+002, 6.861832e+001
6.163152e+002, 6.952293e+001
6.167973e+002, 7.082584e+001
6.172794e+002, 7.218129e+001
6.177615e+002, 7.327441e+001
6.182437e+002, 7.422744e+001
6.187258e+002, 7.540730e+001
6.192079e+002, 7.684304e+001
6.196900e+002, 7.844482e+001
6.201721e+002, 8.017392e+001
6.206542e+002, 8.201137e+001
6.211364e+002, 8.393047e+001
6.216185e+002, 8.596389e+001
6.221006e+002, 8.804633e+001
6.225827e+002, 9.022193e+001
6.230648e+002, 9.242855e+001
6.235469e+002, 9.457948e+001
6.240291e+002, 9.644832e+001
6.245112e+002, 9.853142e+001
6.249933e+002, 1.010415e+002
6.254754e+002, 1.038181e+002
6.259575e+002, 1.062826e+002
6.264396e+002, 1.084487e+002
6.269218e+002, 1.103265e+002
6.274039e+002, 1.119885e+002
6.278860e+002, 1.133781e+002
6.283681e+002, 1.141965e+002
6.288502e+002, 1.144489e+002
6.293323e+002, 1.140013e+002
6.298145e+002, 1.125405e+002
6.302966e+002, 1.103635e+002
6.307787e+002, 1.079572e+002
6.312608e+002, 1.053582e+002
6.317429e+002, 1.026476e+002
6.322250e+002, 9.969555e+001
6.327072e+002, 9.675504e+001
6.331893e+002, 9.407372e+001
6.336714e+002, 9.196305e+001
6.341535e+002, 8.974404e+001
6.346356e+002, 8.713187e+001
6.351177e+002, 8.434429e+001
6.355999e+002, 8.167319e+001
6.360820e+002, 7.906676e+001
6.365641e+002, 7.668161e+001
6.370462e+002, 7.459017e+001
6.375283e+002, 7.272359e+001
6.380104e+002, 7.082652e+001
6.384926e+002, 6.887027e+001
6.389747e+002, 6.696262e+001
6.394568e+002, 6.501154e+001
6.399389e+002, 6.314653e+001
6.404210e+002, 6.197559e+001
6.409031e+002, 6.145324e+001
6.413853e+002, 6.095749e+001
6.418674e+002, 5.985432e+001
6.423495e+002, 5.860872e+001
6.428316e+002, 5.784393e+001
6.433137e+002, 5.766040e+001
6.437958e+002, 5.753170e+001
6.442780e+002, 5.725264e+001
6.447601e+002, 5.687090e+001
6.452422e+002, 5.642348e+001
6.457243e+002, 5.579806e+001
6.462064e+002, 5.529191e+001
6.466885e+002, 5.493880e+001
6.471707e+002, 5.469525e+001
6.476528e+002, 5.450962e+001
6.481349e+002, 5.437405e+001
6.486170e+002, 5.431961e+001
6.490991e+002, 5.436662e+001
6.495812e+002, 5.448208e+001
6.500634e+002, 5.468068e+001
6.505455e+002, 5.494204e+001
6.510276e+002, 5.494290e+001
6.515097e+002, 5.431338e+001
6.519918e+002, 5.346655e+001
6.524739e+002, 5.304832e+001
6.529561e+002, 5.300953e+001
6.534382e+002, 5.306389e+001
6.539203e+002, 5.309169e+001
6.544024e+002, 5.312171e+001
6.548845e+002, 5.319410e+001
6.553666e+002, 5.332103e+001
6.558488e+002, 5.337803e+001
6.563309e+002, 5.328369e+001
6.568130e+002, 5.315097e+001
6.572951e+002, 5.304309e+001
6.577772e+002, 5.295050e+001
6.582593e+002, 5.292279e+001
6.587415e+002, 5.300372e+001
6.592236e+002, 5.307922e+001
6.597057e+002, 5.298265e+001
6.601878e+002, 5.271956e+001
6.606699e+002, 5.252300e+001
6.611520e+002, 5.243000e+001
6.616342e+002, 5.243956e+001
6.621163e+002, 5.263348e+001
6.625984e+002, 5.293424e+001
6.630805e+002, 5.313652e+001
6.635626e+002, 5.311625e+001
6.640447e+002, 5.301052e+001
6.645269e+002, 5.291943e+001
6.650090e+002, 5.282094e+001
6.654911e+002, 5.264866e+001
6.659732e+002, 5.221375e+001
6.664553e+002, 5.186785e+001
6.669374e+002, 5.177576e+001
6.674196e+002, 5.191874e+001
6.679017e+002, 5.204263e+001
6.683838e+002, 5.212021e+001
6.688659e+002, 5.223415e+001
6.693480e+002, 5.245313e+001
6.698301e+002, 5.277496e+001
6.703123e+002, 5.300539e+001
6.707944e+002, 5.313953e+001
6.712765e+002, 5.322459e+001
6.717586e+002, 5.329291e+001
6.722407e+002, 5.334607e+001
6.727228e+002, 5.339531e+001
6.732050e+002, 5.344804e+001
6.736871e+002, 5.345674e+001
6.741692e+002, 5.328207e+001
6.746513e+002, 5.308573e+001
6.751334e+002, 5.307316e+001
6.756155e+002, 5.354768e+001
6.760977e+002, 5.382642e+001
6.765798e+002, 5.359754e+001
6.770619e+002, 5.313134e+001
6.775440e+002, 5.281702e+001
6.780261e+002, 5.265575e+001
6.785082e+002, 5.267071e+001
6.789904e+002, 5.294871e+001
6.794725e+002, 5.334843e+001
6.799546e+002, 5.347259e+001
6.804367e+002, 5.331723e+001
6.809188e+002, 5.317689e+001
6.814009e+002, 5.317439e+001
6.818831e+002, 5.326786e+001
6.823652e+002, 5.341108e+001
6.828473e+002, 5.359301e+001
6.833294e+002, 5.374996e+001
6.838115e+002, 5.398430e+001
6.842936e+002, 5.407418e+001
6.847758e+002, 5.371244e+001
6.852579e+002, 5.289278e+001
6.857400e+002, 5.237903e+001
6.862221e+002, 5.247486e+001
6.867042e+002, 5.285624e+001
6.871863e+002, 5.345045e+001
6.876685e+002, 5.443293e+001
6.881506e+002, 5.478311e+001
6.886327e+002, 5.429445e+001
6.891148e+002, 5.360319e+001
6.895969e+002, 5.327306e+001
6.900790e+002, 5.327992e+001
6.905612e+002, 5.332196e+001
6.910433e+002, 5.338198e+001
6.915254e+002, 5.340376e+001
6.920075e+002, 5.329524e+001
6.924896e+002, 5.310634e+001
6.929717e+002, 5.292233e+001
6.934539e+002, 5.274200e+001
6.939360e+002, 5.262149e+001
6.944181e+002, 5.264630e+001
6.949002e+002, 5.274038e+001
6.953823e+002, 5.278584e+001
6.958644e+002, 5.274824e+001
6.963466e+002, 5.266722e+001
6.968287e+002, 5.249884e+001
6.973108e+002, 5.230577e+001
6.977929e+002, 5.226974e+001
6.982750e+002, 5.243328e+001
6.987571e+002, 5.260272e+001
6.992393e+002, 5.272758e+001
6.997214e+002, 5.280967e+001
7.002035e+002, 5.286353e+001
7.006856e+002, 5.288515e+001
7.011677e+002, 5.283294e+001
7.016498e+002, 5.263484e+001
7.021320e+002, 5.237856e+001
7.026141e+002, 5.212861e+001
7.030962e+002, 5.189562e+001
7.035783e+002, 5.175371e+001
7.040604e+002, 5.183379e+001
7.045425e+002, 5.193157e+001
7.050247e+002, 5.189437e+001
7.055068e+002, 5.165667e+001
7.059889e+002, 5.161825e+001
7.064710e+002, 5.193859e+001
7.069531e+002, 5.225196e+001
7.074352e+002, 5.229982e+001
7.079174e+002, 5.205540e+001
7.083995e+002, 5.183466e+001
7.088816e+002, 5.163015e+001
7.093637e+002, 5.151286e+001
7.098458e+002, 5.166658e+001
7.103279e+002, 5.195774e+001
7.108101e+002, 5.200982e+001
7.112922e+002, 5.169723e+001
7.117743e+002, 5.140987e+001
7.122564e+002, 5.150507e+001
7.127385e+002, 5.176997e+001
7.132206e+002, 5.194891e+001
7.137028e+002, 5.188082e+001
7.141849e+002, 5.185183e+001
7.146670e+002, 5.200520e+001
7.151491e+002, 5.218891e+001
7.156312e+002, 5.217775e+001
7.161133e+002, 5.188023e+001
7.165955e+002, 5.164310e+001
7.170776e+002, 5.153306e+001
7.175597e+002, 5.150631e+001
7.180418e+002, 5.143489e+001
7.185239e+002, 5.133607e+001
7.190060e+002, 5.140827e+001
7.194882e+002, 5.189332e+001
7.199703e+002, 5.240628e+001
7.204524e+002, 5.236962e+001
7.209345e+002, 5.195139e+001
7.214166e+002, 5.164939e+001
7.218987e+002, 5.183552e+001
7.223809e+002, 5.205970e+001
7.228630e+002, 5.209308e+001
7.233451e+002, 5.195452e+001
7.238272e+002, 5.186213e+001
7.243093e+002, 5.179863e+001
7.247914e+002, 5.182911e+001
7.252736e+002, 5.203967e+001
7.257557e+002, 5.239925e+001
7.262378e+002, 5.245766e+001
7.267199e+002, 5.217859e+001
7.272020e+002, 5.191882e+001
7.276841e+002, 5.198330e+001
7.281663e+002, 5.222120e+001
7.286484e+002, 5.226094e+001
7.291305e+002, 5.209970e+001
7.296126e+002, 5.198901e+001
7.300947e+002, 5.220897e+001
7.305768e+002, 5.247605e+001
7.310590e+002, 5.250434e+001
7.315411e+002, 5.217308e+001
7.320232e+002, 5.205890e+001
7.325053e+002, 5.250113e+001
7.329874e+002, 5.299833e+001
7.334695e+002, 5.324594e+001
7.339517e+002, 5.316596e+001
7.344338e+002, 5.310236e+001
7.349159e+002, 5.306520e+001
7.353980e+002, 5.301411e+001
7.358801e+002, 5.286458e+001
7.363622e+002, 5.265589e+001
7.368444e+002, 5.254762e+001
7.373265e+002, 5.256392e+001
7.378086e+002, 5.268999e+001
7.382907e+002, 5.305300e+001
7.387728e+002, 5.346456e+001
7.392549e+002, 5.367328e+001
7.397371e+002, 5.355304e+001
7.402192e+002, 5.332857e+001
7.407013e+002, 5.289727e+001
7.411834e+002, 5.246708e+001
7.416655e+002, 5.232178e+001
7.421476e+002, 5.262043e+001
7.426298e+002, 5.282103e+001
7.431119e+002, 5.283360e+001
7.435940e+002, 5.275282e+001
7.440761e+002, 5.272667e+001
7.445582e+002, 5.275578e+001
7.450403e+002, 5.286893e+001
7.455225e+002, 5.313066e+001
7.460046e+002, 5.338111e+001
7.464867e+002, 5.338655e+001
7.469688e+002, 5.323307e+001
7.474509e+002, 5.310613e+001
7.479330e+002, 5.313794e+001
7.484152e+002, 5.315208e+001
7.488973e+002, 5.307549e+001
7.493794e+002, 5.292540e+001
7.498615e+002, 5.276583e+001
7.503436e+002, 5.258443e+001
7.508257e+002, 5.241453e+001
7.513079e+002, 5.224369e+001
7.517900e+002, 5.210023e+001
7.522721e+002, 5.213100e+001
7.527542e+002, 5.233635e+001
7.532363e+002, 5.249640e+001
7.537184e+002, 5.244297e+001
7.542006e+002, 5.231933e+001
7.546827e+002, 5.245520e+001
7.551648e+002, 5.275545e+001
7.556469e+002, 5.281730e+001
7.561290e+002, 5.204667e+001
7.566111e+002, 5.133463e+001
7.570933e+002, 5.130050e+001
7.575754e+002, 5.191252e+001
7.580575e+002, 5.213649e+001
7.585396e+002, 5.163682e+001
7.590217e+002, 5.116747e+001
7.595038e+002, 5.101127e+001
7.599860e+002, 5.114748e+001
7.604681e+002, 5.138173e+001
7.609502e+002, 5.172838e+001
7.614323e+002, 5.198172e+001
7.619144e+002, 5.195093e+001
7.623965e+002, 5.175376e+001
7.628787e+002, 5.156527e+001
7.633608e+002, 5.139909e+001
7.638429e+002, 5.131929e+001
7.643250e+002, 5.146590e+001
7.648071e+002, 5.163626e+001
7.652892e+002, 5.165784e+001
7.657714e+002, 5.148324e+001
7.662535e+002, 5.145824e+001
7.667356e+002, 5.172870e+001
7.672177e+002, 5.198496e+001
7.676998e+002, 5.205740e+001
7.681819e+002, 5.193901e+001
7.686641e+002, 5.173244e+001
7.691462e+002, 5.142201e+001
7.696283e+002, 5.115796e+001
7.701104e+002, 5.109367e+001
7.705925e+002, 5.115831e+001
7.710746e+002, 5.121404e+001
7.715568e+002, 5.124604e+001
7.720389e+002, 5.131281e+001
7.725210e+002, 5.148257e+001
7.730031e+002, 5.167959e+001
7.734852e+002, 5.186300e+001
7.739673e+002, 5.206248e+001
7.744495e+002, 5.210598e+001
7.749316e+002, 5.181950e+001
7.754137e+002, 5.158191e+001
7.758958e+002, 5.177095e+001
7.763779e+002, 5.244781e+001
7.768600e+002, 5.268980e+001
7.773422e+002, 5.241463e+001
7.778243e+002, 5.203186e+001
7.783064e+002, 5.198999e+001
7.787885e+002, 5.212597e+001
7.792706e+002, 5.209451e+001
7.797527e+002, 5.180309e+001
7.802349e+002, 5.159369e+001
7.807170e+002, 5.176748e+001
7.811991e+002, 5.205934e+001
7.816812e+002, 5.224155e+001
7.821633e+002, 5.227100e+001
7.826454e+002, 5.218668e+001
7.831276e+002, 5.191204e+001
7.836097e+002, 5.161522e+001
7.840918e+002, 5.143816e+001
7.845739e+002, 5.137973e+001
7.850560e+002, 5.153185e+001
7.855381e+002, 5.193931e+001
7.860203e+002, 5.235680e+001
7.865024e+002, 5.252060e+001
7.869845e+002, 5.250219e+001
7.874666e+002, 5.242175e+001
7.879487e+002, 5.229715e+001
7.884308e+002, 5.213607e+001
7.889130e+002, 5.180518e+001
7.893951e+002, 5.150809e+001
7.898772e+002, 5.146742e+001
7.903593e+002, 5.194342e+001
7.908414e+002, 5.221825e+001
7.913235e+002, 5.222457e+001
7.918057e+002, 5.211031e+001
7.922878e+002, 5.204220e+001
7.927699e+002, 5.201563e+001
7.932520e+002, 5.195626e+001
7.937341e+002, 5.183239e+001
7.942162e+002, 5.176869e+001
7.946984e+002, 5.199994e+001
7.951805e+002, 5.235102e+001
7.956626e+002, 5.254982e+001
7.961447e+002, 5.252649e+001
7.966268e+002, 5.236296e+001
7.971089e+002, 5.185567e+001
7.975911e+002, 5.134635e+001
7.980732e+002, 5.123403e+001
7.985553e+002, 5.177942e+001
7.990374e+002, 5.209653e+001
7.995195e+002, 5.207991e+001
8.000016e+002, 5.194016e+001
8.004838e+002, 5.196898e+001
8.009659e+002, 5.212825e+001
8.014480e+002, 5.218914e+001
8.019301e+002, 5.209698e+001
8.024122e+002, 5.195449e+001
8.028943e+002, 5.177946e+001
8.033765e+002, 5.164744e+001
8.038586e+002, 5.166909e+001
8.043407e+002, 5.200087e+001
8.048228e+002, 5.225121e+001
8.053049e+002, 5.227890e+001
8.057870e+002, 5.222277e+001
8.062692e+002, 5.221605e+001
8.067513e+002, 5.227244e+001
8.072334e+002, 5.231382e+001
8.077155e+002, 5.232005e+001
8.081976e+002, 5.234377e+001
8.086797e+002, 5.253233e+001
8.091619e+002, 5.279435e+001
8.096440e+002, 5.282176e+001
8.101261e+002, 5.248103e+001
8.106082e+002, 5.216317e+001
8.110903e+002, 5.224242e+001
8.115724e+002, 5.246281e+001
8.120546e+002, 5.253656e+001
8.125367e+002, 5.219026e+001
8.130188e+002, 5.207210e+001
8.135009e+002, 5.236141e+001
8.139830e+002, 5.273665e+001
8.144651e+002, 5.281573e+001
8.149473e+002, 5.257661e+001
8.154294e+002, 5.245555e+001
8.159115e+002, 5.251883e+001
8.163936e+002, 5.260191e+001
8.168757e+002, 5.251581e+001
8.173578e+002, 5.231686e+001
8.178400e+002, 5.207018e+001
8.183221e+002, 5.173659e+001
8.188042e+002, 5.154240e+001
8.192863e+002, 5.166045e+001
8.197684e+002, 5.192981e+001
8.202505e+002, 5.220455e+001
8.207327e+002, 5.247046e+001
8.212148e+002, 5.276966e+001
8.216969e+002, 5.318777e+001
8.221790e+002, 5.347979e+001
8.226611e+002, 5.320655e+001
8.231432e+002, 5.250028e+001
8.236254e+002, 5.231404e+001
8.241075e+002, 5.279980e+001
8.245896e+002, 5.333756e+001
8.250717e+002, 5.333580e+001
8.255538e+002, 5.308014e+001
8.260359e+002, 5.288359e+001
8.265181e+002, 5.281251e+001
8.270002e+002, 5.277094e+001
8.274823e+002, 5.276442e+001
8.279644e+002, 5.276078e+001
8.284465e+002, 5.275232e+001
8.289286e+002, 5.276016e+001
8.294108e+002, 5.262538e+001
8.298929e+002, 5.230293e+001
8.303750e+002, 5.204541e+001
8.308571e+002, 5.216230e+001
8.313392e+002, 5.250069e+001
8.318214e+002, 5.274647e+001
8.323035e+002, 5.286496e+001
8.327856e+002, 5.291648e+001
8.332677e+002, 5.292959e+001
8.337498e+002, 5.289379e+001
8.342319e+002, 5.277549e+001
8.347141e+002, 5.252375e+001
8.351962e+002, 5.240275e+001
8.356783e+002, 5.246841e+001
8.361604e+002, 5.256762e+001
8.366425e+002, 5.257785e+001
8.371246e+002, 5.251111e+001
8.376068e+002, 5.259050e+001
8.380889e+002, 5.281807e+001
8.385710e+002, 5.302327e+001
8.390531e+002, 5.302081e+001
8.395352e+002, 5.296074e+001
8.400173e+002, 5.302743e+001
8.404995e+002, 5.323109e+001
8.409816e+002, 5.338586e+001
8.414637e+002, 5.343728e+001
8.419458e+002, 5.341470e+001
8.424279e+002, 5.331201e+001
8.429100e+002, 5.313147e+001
8.433922e+002, 5.300389e+001
8.438743e+002, 5.292640e+001
8.443564e+002, 5.291502e+001
8.448385e+002, 5.301393e+001
8.453206e+002, 5.317591e+001
8.458027e+002, 5.327976e+001
8.462849e+002, 5.333813e+001
8.467670e+002, 5.342115e+001
8.472491e+002, 5.365538e+001
8.477312e+002, 5.384573e+001
8.482133e+002, 5.387500e+001
8.486954e+002, 5.374782e+001
8.491776e+002, 5.356785e+001
8.496597e+002, 5.326074e+001
8.501418e+002, 5.306807e+001
8.506239e+002, 5.312350e+001
8.511060e+002, 5.332704e+001
8.515881e+002, 5.328706e+001
8.520703e+002, 5.304074e+001
8.525524e+002, 5.290165e+001
8.530345e+002, 5.317257e+001
8.535166e+002, 5.348366e+001
8.539987e+002, 5.344011e+001
8.544808e+002, 5.316870e+001
8.549630e+002, 5.299176e+001
8.554451e+002, 5.307981e+001
8.559272e+002, 5.318311e+001
8.564093e+002, 5.326638e+001
8.568914e+002, 5.332352e+001
8.573735e+002, 5.334552e+001
8.578557e+002, 5.333185e+001
8.583378e+002, 5.327322e+001
8.588199e+002, 5.314502e+001
8.593020e+002, 5.301574e+001
8.597841e+002, 5.299910e+001
8.602662e+002, 5.305778e+001
8.607484e+002, 5.311329e+001
8.612305e+002, 5.310518e+001
8.617126e+002, 5.314064e+001
8.621947e+002, 5.333715e+001
8.626768e+002, 5.356710e+001
8.631589e+002, 5.363168e+001
8.636411e+002, 5.341737e+001
8.641232e+002, 5.341085e+001
8.646053e+002, 5.375372e+001
8.650874e+002, 5.407836e+001
8.655695e+002, 5.372911e+001
8.660516e+002, 5.295548e+001
8.665338e+002, 5.258394e+001
8.670159e+002, 5.282763e+001
8.674980e+002, 5.315635e+001
8.679801e+002, 5.322185e+001
8.684622e+002, 5.317275e+001
8.689443e+002, 5.316688e+001
8.694265e+002, 5.330946e+001
8.699086e+002, 5.325994e+001
8.703907e+002, 5.286616e+001
8.708728e+002, 5.251963e+001
8.713549e+002, 5.263139e+001
8.718370e+002, 5.314770e+001
8.723192e+002, 5.339141e+001
8.728013e+002, 5.333607e+001
8.732834e+002, 5.322139e+001
8.737655e+002, 5.326019e+001
8.742476e+002, 5.332727e+001
8.747297e+002, 5.323864e+001
8.752119e+002, 5.297004e+001
8.756940e+002, 5.289487e+001
8.761761e+002, 5.338385e+001
8.766582e+002, 5.378616e+001
8.771403e+002, 5.380882e+001
8.776224e+002, 5.348531e+001
8.781046e+002, 5.324683e+001
8.785867e+002, 5.309179e+001
8.790688e+002, 5.306374e+001
8.795509e+002, 5.335165e+001
8.800330e+002, 5.368906e+001
8.805151e+002, 5.361546e+001
8.809973e+002, 5.323579e+001
8.814794e+002, 5.295509e+001
8.819615e+002, 5.303939e+001
8.824436e+002, 5.314959e+001
8.829257e+002, 5.314260e+001
8.834078e+002, 5.306842e+001
8.838900e+002, 5.309740e+001
8.843721e+002, 5.326873e+001
8.848542e+002, 5.332100e+001
8.853363e+002, 5.313164e+001
8.858184e+002, 5.286119e+001
8.863005e+002, 5.279808e+001
8.867827e+002, 5.288098e+001
8.872648e+002, 5.295540e+001
8.877469e+002, 5.296297e+001
8.882290e+002, 5.295234e+001
8.887111e+002, 5.293330e+001
8.891932e+002, 5.291264e+001
8.896754e+002, 5.289008e+001
8.901575e+002, 5.281859e+001
8.906396e+002, 5.290359e+001
8.911217e+002, 5.323372e+001
8.916038e+002, 5.354897e+001
8.920859e+002, 5.341960e+001
8.925681e+002, 5.301054e+001
8.930502e+002, 5.284295e+001
8.935323e+002, 5.302201e+001
8.940144e+002, 5.329336e+001
8.944965e+002, 5.354026e+001
8.949786e+002, 5.376162e+001
8.954608e+002, 5.398403e+001
8.959429e+002, 5.426349e+001
8.964250e+002, 5.428751e+001
8.969071e+002, 5.394293e+001
8.973892e+002, 5.356856e+001
8.978713e+002, 5.337799e+001
8.983535e+002, 5.335664e+001
8.988356e+002, 5.347930e+001
8.993177e+002, 5.373371e+001
8.997998e+002, 5.394711e+001
9.002819e+002, 5.403447e+001
9.007640e+002, 5.401226e+001
9.012462e+002, 5.382825e+001
9.017283e+002, 5.351107e+001
9.022104e+002, 5.331580e+001
9.026925e+002, 5.328233e+001
9.031746e+002, 5.335850e+001
9.036567e+002, 5.358917e+001
9.041389e+002, 5.388675e+001
9.046210e+002, 5.391247e+001
9.051031e+002, 5.370440e+001
9.055852e+002, 5.361416e+001
9.060673e+002, 5.388564e+001
9.065494e+002, 5.419434e+001
9.070316e+002, 5.427418e+001
9.075137e+002, 5.417645e+001
9.079958e+002, 5.399154e+001
9.084779e+002, 5.348321e+001
9.089600e+002, 5.327490e+001
9.094421e+002, 5.360229e+001
9.099243e+002, 5.404950e+001
9.104064e+002, 5.392815e+001
9.108885e+002, 5.328946e+001
9.113706e+002, 5.313015e+001
9.118527e+002, 5.366359e+001
9.123348e+002, 5.426031e+001
9.128170e+002, 5.429357e+001
9.132991e+002, 5.406438e+001
9.137812e+002, 5.389208e+001
9.142633e+002, 5.382379e+001
9.147454e+002, 5.384981e+001
9.152275e+002, 5.407259e+001
9.157097e+002, 5.426194e+001
9.161918e+002, 5.426222e+001
9.166739e+002, 5.407738e+001
9.171560e+002, 5.397425e+001
9.176381e+002, 5.395433e+001
9.181202e+002, 5.392560e+001
9.186024e+002, 5.372819e+001
9.190845e+002, 5.355577e+001
9.195666e+002, 5.369961e+001
9.200487e+002, 5.409497e+001
9.205308e+002, 5.435090e+001
9.210129e+002, 5.421379e+001
9.214951e+002, 5.409069e+001
9.219772e+002, 5.410851e+001
9.224593e+002, 5.420112e+001
9.229414e+002, 5.414619e+001
9.234235e+002, 5.394722e+001
9.239056e+002, 5.379175e+001
9.243878e+002, 5.375197e+001
9.248699e+002, 5.375808e+001
9.253520e+002, 5.369308e+001
9.258341e+002, 5.362976e+001
9.263162e+002, 5.368760e+001
9.267983e+002, 5.407729e+001
9.272805e+002, 5.432166e+001
9.277626e+002, 5.437445e+001
9.282447e+002, 5.426984e+001
9.287268e+002, 5.394522e+001
9.292089e+002, 5.339857e+001
9.296910e+002, 5.325719e+001
9.301732e+002, 5.359905e+001
9.306553e+002, 5.397393e+001
9.311374e+002, 5.388745e+001
9.316195e+002, 5.366018e+001
9.321016e+002, 5.367440e+001
9.325837e+002, 5.398274e+001
9.330659e+002, 5.426005e+001
9.335480e+002, 5.447663e+001
9.340301e+002, 5.458688e+001
9.345122e+002, 5.452866e+001
9.349943e+002, 5.433742e+001
9.354764e+002, 5.428302e+001
9.359586e+002, 5.435986e+001
9.364407e+002, 5.441832e+001
9.369228e+002, 5.433146e+001
9.374049e+002, 5.423737e+001
9.378870e+002, 5.433707e+001
9.383691e+002, 5.453756e+001
9.388513e+002, 5.462186e+001
9.393334e+002, 5.441660e+001
9.398155e+002, 5.424308e+001
9.402976e+002, 5.415164e+001
9.407797e+002, 5.410786e+001
9.412618e+002, 5.408997e+001
9.417440e+002, 5.409064e+001
9.422261e+002, 5.394099e+001
9.427082e+002, 5.356142e+001
9.431903e+002, 5.331526e+001
9.436724e+002, 5.375861e+001
9.441545e+002, 5.439689e+001
9.446367e+002, 5.468370e+001
9.451188e+002, 5.441145e+001
9.456009e+002, 5.426844e+001
9.460830e+002, 5.436168e+001
9.465651e+002, 5.450675e+001
9.470472e+002, 5.461769e+001
9.475294e+002, 5.468999e+001
9.480115e+002, 5.464532e+001
9.484936e+002, 5.449674e+001
9.489757e+002, 5.440331e+001
9.494578e+002, 5.459737e+001
9.499399e+002, 5.477036e+001
9.504221e+002, 5.462798e+001
9.509042e+002, 5.425137e+001
9.513863e+002, 5.396574e+001
9.518684e+002, 5.372780e+001
9.523505e+002, 5.376122e+001
9.528326e+002, 5.425457e+001
9.533148e+002, 5.484379e+001
9.537969e+002, 5.468323e+001
9.542790e+002, 5.397697e+001
9.547611e+002, 5.365013e+001
9.552432e+002, 5.403721e+001
9.557253e+002, 5.446319e+001
9.562075e+002, 5.442458e+001
9.566896e+002, 5.419540e+001
9.571717e+002, 5.404465e+001
9.576538e+002, 5.401768e+001
9.581359e+002, 5.399742e+001
9.586180e+002, 5.397336e+001
9.591002e+002, 5.397831e+001
9.595823e+002, 5.398378e+001
9.600644e+002, 5.404195e+001
9.605465e+002, 5.444788e+001
9.610286e+002, 5.513770e+001
9.615107e+002, 5.559008e+001
9.619929e+002, 5.530273e+001
9.624750e+002, 5.491076e+001
9.629571e+002, 5.475092e+001
9.634392e+002, 5.476634e+001
9.639213e+002, 5.470574e+001
9.644034e+002, 5.455119e+001
9.648856e+002, 5.438159e+001
9.653677e+002, 5.418438e+001
9.658498e+002, 5.404807e+001
9.663319e+002, 5.418183e+001
9.668140e+002, 5.446972e+001
9.672961e+002, 5.465062e+001
9.677783e+002, 5.458956e+001
9.682604e+002, 5.460009e+001
9.687425e+002, 5.494987e+001
9.692246e+002, 5.530366e+001
9.697067e+002, 5.537656e+001
9.701888e+002, 5.511220e+001
9.706710e+002, 5.496151e+001
9.711531e+002, 5.492901e+001
9.716352e+002, 5.497511e+001
9.721173e+002, 5.517083e+001
9.725994e+002, 5.536480e+001
9.730815e+002, 5.529931e+001
9.735637e+002, 5.502012e+001
9.740458e+002, 5.483081e+001
9.745279e+002, 5.496622e+001
9.750100e+002, 5.503139e+001
9.754921e+002, 5.485677e+001
9.759742e+002, 5.459362e+001
9.764564e+002, 5.465763e+001
9.769385e+002, 5.503064e+001
9.774206e+002, 5.537426e+001
9.779027e+002, 5.563282e+001
9.783848e+002, 5.572933e+001
9.788669e+002, 5.536114e+001
9.793491e+002, 5.490082e+001
9.798312e+002, 5.483826e+001
9.803133e+002, 5.553777e+001
9.807954e+002, 5.590195e+001
9.812775e+002, 5.576488e+001
9.817596e+002, 5.552481e+001
9.822418e+002, 5.548375e+001
9.827239e+002, 5.558784e+001
9.832060e+002, 5.548252e+001
9.836881e+002, 5.520283e+001
9.841702e+002, 5.507690e+001
9.846523e+002, 5.546587e+001
9.851345e+002, 5.591326e+001
9.856166e+002, 5.617167e+001
9.860987e+002, 5.625840e+001
9.865808e+002, 5.628004e+001
9.870629e+002, 5.618412e+001
9.875450e+002, 5.621265e+001
9.880272e+002, 5.645583e+001
9.885093e+002, 5.673993e+001
9.889914e+002, 5.671938e+001
9.894735e+002, 5.655902e+001
9.899556e+002, 5.662405e+001
9.904377e+002, 5.705227e+001
9.909199e+002, 5.745530e+001
9.914020e+002, 5.773577e+001
9.918841e+002, 5.787384e+001
9.923662e+002, 5.781232e+001
9.928483e+002, 5.754089e+001
9.933304e+002, 5.748753e+001
9.938126e+002, 5.766075e+001
9.942947e+002, 5.790282e+001
9.947768e+002, 5.808089e+001
9.952589e+002, 5.829761e+001
9.957410e+002, 5.877855e+001
9.962231e+002, 5.940522e+001
9.967053e+002, 5.985074e+001
9.971874e+002, 5.970727e+001
9.976695e+002, 5.980794e+001
9.981516e+002, 6.036477e+001
9.986337e+002, 6.109337e+001
9.991158e+002, 6.154119e+001
9.995980e+002, 6.175806e+001
1.000080e+003, 6.207548e+001
1.000562e+003, 6.255499e+001
1.001044e+003, 6.306792e+001
1.001526e+003, 6.349120e+001
1.002009e+003, 6.393190e+001
1.002491e+003, 6.446163e+001
1.002973e+003, 6.509398e+001
1.003455e+003, 6.583949e+001
1.003937e+003, 6.667271e+001
1.004419e+003, 6.770046e+001
1.004901e+003, 6.900749e+001
1.005383e+003, 7.051928e+001
1.005865e+003, 7.192470e+001
1.006348e+003, 7.340721e+001
1.006830e+003, 7.553455e+001
1.007312e+003, 7.846227e+001
1.007794e+003, 8.215273e+001
1.008276e+003, 8.687901e+001
1.008758e+003, 9.225246e+001
1.009240e+003, 9.803545e+001
1.009722e+003, 1.042326e+002
1.010205e+003, 1.106207e+002
1.010687e+003, 1.173089e+002
1.011169e+003, 1.237195e+002
1.011651e+003, 1.293418e+002
1.012133e+003, 1.345146e+002
1.012615e+003, 1.394341e+002
1.013097e+003, 1.441505e+002
1.013579e+003, 1.494438e+002
1.014061e+003, 1.548489e+002
1.014544e+003, 1.617122e+002
1.015026e+003, 1.702853e+002
1.015508e+003, 1.806399e+002
1.015990e+003, 1.927837e+002
1.016472e+003, 2.069789e+002
1.016954e+003, 2.243205e+002
1.017436e+003, 2.456255e+002
1.017918e+003, 2.693899e+002
1.018401e+003, 2.960562e+002
1.018883e+003, 3.238895e+002
1.019365e+003, 3.519429e+002
1.019847e+003, 3.809654e+002
1.020329e+003, 4.080858e+002
1.020811e+003, 4.348449e+002
1.021293e+003, 4.513158e+002
1.021775e+003, 4.511083e+002
1.022257e+003, 4.356597e+002
1.022740e+003, 4.021361e+002
1.023222e+003, 3.544593e+002
1.023704e+003, 3.070811e+002
1.024186e+003, 2.611222e+002
1.024668e+003, 2.214861e+002
1.025150e+003, 1.891360e+002
1.025632e+003, 1.630983e+002
1.026114e+003, 1.422434e+002
1.026596e+003, 1.266666e+002
1.027079e+003, 1.145286e+002
1.027561e+003, 1.057412e+002
1.028043e+003, 9.888993e+001
1.028525e+003, 9.351846e+001
1.029007e+003, 8.905997e+001
1.029489e+003, 8.511966e+001
1.029971e+003, 8.168403e+001
1.030453e+003, 7.883986e+001
1.030936e+003, 7.665987e+001
1.031418e+003, 7.482005e+001
1.031900e+003, 7.319824e+001
1.032382e+003, 7.177813e+001
1.032864e+003, 7.059746e+001
1.033346e+003, 6.959852e+001
1.033828e+003, 6.866771e+001
1.034310e+003, 6.766491e+001
1.034792e+003, 6.688922e+001
1.035275e+003, 6.663799e+001
1.035757e+003, 6.644296e+001
1.036239e+003, 6.579302e+001
1.036721e+003, 6.469365e+001
1.037203e+003, 6.405553e+001
1.037685e+003, 6.391493e+001
1.038167e+003, 6.392485e+001
1.038649e+003, 6.398562e+001
1.039132e+003, 6.396600e+001
1.039614e+003, 6.370800e+001
1.040096e+003, 6.325863e+001
1.040578e+003, 6.287144e+001
1.041060e+003, 6.254338e+001
1.041542e+003, 6.231496e+001
1.042024e+003, 6.220967e+001
1.042506e+003, 6.215727e+001
1.042989e+003, 6.207426e+001
1.043471e+003, 6.195586e+001
1.043953e+003, 6.177520e+001
1.044435e+003, 6.150577e+001
1.044917e+003, 6.128754e+001
1.045399e+003, 6.127004e+001
1.045881e+003, 6.120813e+001
1.046363e+003, 6.089522e+001
1.046845e+003, 6.040852e+001
1.047328e+003, 6.050415e+001
1.047810e+003, 6.113876e+001
1.048292e+003, 6.153741e+001
1.048774e+003, 6.119496e+001
1.049256e+003, 6.069153e+001
1.049738e+003, 6.040908e+001
1.050220e+003, 6.030127e+001
1.050702e+003, 6.032064e+001
1.051184e+003, 6.064146e+001
1.051667e+003, 6.059777e+001
1.052149e+003, 6.007801e+001
1.052631e+003, 5.951353e+001
1.053113e+003, 5.925410e+001
1.053595e+003, 5.922034e+001
1.054077e+003, 5.931321e+001
1.054559e+003, 5.950222e+001
1.055041e+003, 5.964106e+001
1.055523e+003, 5.972020e+001
1.056006e+003, 5.966566e+001
1.056488e+003, 5.941518e+001
1.056970e+003, 5.906816e+001
1.057452e+003, 5.882259e+001
1.057934e+003, 5.867044e+001
1.058416e+003, 5.853918e+001
1.058898e+003, 5.841860e+001
1.059380e+003, 5.829533e+001
1.059863e+003, 5.811235e+001
1.060345e+003, 5.795982e+001
1.060827e+003, 5.795812e+001
1.061309e+003, 5.811755e+001
1.061791e+003, 5.809877e+001
1.062273e+003, 5.785284e+001
1.062755e+003, 5.765733e+001
1.063237e+003, 5.764178e+001
1.063719e+003, 5.773352e+001
1.064202e+003, 5.791062e+001
1.064684e+003, 5.809121e+001
1.065166e+003, 5.810855e+001
1.065648e+003, 5.771767e+001
1.066130e+003, 5.751764e+001
1.066612e+003, 5.765255e+001
1.067094e+003, 5.785681e+001
1.067576e+003, 5.790349e+001
1.068059e+003, 5.782586e+001
1.068541e+003, 5.785778e+001
1.069023e+003, 5.797594e+001
1.069505e+003, 5.796513e+001
1.069987e+003, 5.751853e+001
1.070469e+003, 5.709819e+001
1.070951e+003, 5.698139e+001
1.071433e+003, 5.705077e+001
1.071916e+003, 5.711485e+001
1.072398e+003, 5.718164e+001
1.072880e+003, 5.714591e+001
1.073362e+003, 5.697793e+001
1.073844e+003, 5.681218e+001
1.074326e+003, 5.679115e+001
1.074808e+003, 5.684211e+001
1.075290e+003, 5.691027e+001
1.075772e+003, 5.698884e+001
1.076255e+003, 5.700601e+001
1.076737e+003, 5.695434e+001
1.077219e+003, 5.683738e+001
1.077701e+003, 5.659162e+001
1.078183e+003, 5.637852e+001
1.078665e+003, 5.663875e+001
1.079147e+003, 5.716445e+001
1.079629e+003, 5.745710e+001
1.080111e+003, 5.731407e+001
1.080594e+003, 5.714781e+001
1.081076e+003, 5.710531e+001
1.081558e+003, 5.707467e+001
1.082040e+003, 5.699302e+001
1.082522e+003, 5.686490e+001
1.083004e+003, 5.671115e+001
1.083486e+003, 5.654273e+001
1.083968e+003, 5.647962e+001
1.084450e+003, 5.671796e+001
1.084933e+003, 5.693892e+001
1.085415e+003, 5.687258e+001
1.085897e+003, 5.668597e+001
1.086379e+003, 5.666248e+001
1.086861e+003, 5.687469e+001
1.087343e+003, 5.696115e+001
1.087825e+003, 5.688813e+001
1.088307e+003, 5.681196e+001
1.088790e+003, 5.686693e+001
1.089272e+003, 5.699874e+001
1.089754e+003, 5.723440e+001
1.090236e+003, 5.751589e+001
1.090718e+003, 5.752678e+001
1.091200e+003, 5.694621e+001
1.091682e+003, 5.658776e+001
1.092164e+003, 5.663312e+001
1.092646e+003, 5.687503e+001
1.093129e+003, 5.702599e+001
1.093611e+003, 5.711616e+001
1.094093e+003, 5.725271e+001
1.094575e+003, 5.746171e+001
1.095057e+003, 5.754633e+001
1.095539e+003, 5.729383e+001
1.096021e+003, 5.702287e+001
1.096503e+003, 5.683016e+001
1.096986e+003, 5.673900e+001
1.097468e+003, 5.691581e+001
1.097950e+003, 5.731789e+001
1.098432e+003, 5.756931e+001
1.098914e+003, 5.752657e+001
1.099396e+003, 5.737410e+001
1.099878e+003, 5.709036e+001
1.100360e+003, 5.686848e+001
1.100843e+003, 5.693935e+001
1.101325e+003, 5.734495e+001
1.101807e+003, 5.760406e+001
1.102289e+003, 5.771402e+001
1.102771e+003, 5.772252e+001
1.103253e+003, 5.760076e+001
1.103735e+003, 5.744617e+001
1.104217e+003, 5.737241e+001
1.104699e+003, 5.735228e+001
1.105182e+003, 5.733323e+001
1.105664e+003, 5.728337e+001
1.106146e+003, 5.728402e+001
1.106628e+003, 5.735787e+001
1.107110e+003, 5.742773e+001
1.107592e+003, 5.745140e+001
1.108074e+003, 5.741148e+001
1.108556e+003, 5.717393e+001
1.109038e+003, 5.680494e+001
1.109521e+003, 5.665389e+001
1.110003e+003, 5.701361e+001
1.110485e+003, 5.741071e+001
1.110967e+003, 5.778666e+001
1.111449e+003, 5.810033e+001
1.111931e+003, 5.828824e+001
1.112413e+003, 5.836066e+001
1.112895e+003, 5.832728e+001
1.113377e+003, 5.818689e+001
1.113860e+003, 5.810949e+001
1.114342e+003, 5.825406e+001
1.114824e+003, 5.843620e+001
1.115306e+003, 5.856112e+001
1.115788e+003, 5.864086e+001
1.116270e+003, 5.871234e+001
1.116752e+003, 5.877629e+001
1.117234e+003, 5.883057e+001
1.117717e+003, 5.887407e+001
1.118199e+003, 5.891045e+001
1.118681e+003, 5.889520e+001
1.119163e+003, 5.890712e+001
1.119645e+003, 5.904986e+001
1.120127e+003, 5.933262e+001
1.120609e+003, 5.951931e+001
1.121091e+003, 5.959115e+001
1.121573e+003, 5.968610e+001
1.122056e+003, 5.988990e+001
1.122538e+003, 6.010010e+001
1.123020e+003, 6.010725e+001
1.123502e+003, 6.006350e+001
1.123984e+003, 6.022927e+001
1.124466e+003, 6.085778e+001
1.124948e+003, 6.118716e+001
1.125430e+003, 6.107809e+001
1.125913e+003, 6.101110e+001
1.126395e+003, 6.138106e+001
1.126877e+003, 6.198547e+001
1.127359e+003, 6.238665e+001
1.127841e+003, 6.263489e+001
1.128323e+003, 6.286285e+001
1.128805e+003, 6.299502e+001
1.129287e+003, 6.330230e+001
1.129770e+003, 6.386265e+001
1.130252e+003, 6.452337e+001
1.130734e+003, 6.516854e+001
1.131216e+003, 6.578962e+001
1.131698e+003, 6.632946e+001
1.132180e+003, 6.680939e+001
1.132662e+003, 6.740447e+001
1.133144e+003, 6.830398e+001
1.133626e+003, 6.922205e+001
1.134109e+003, 7.007128e+001
1.134591e+003, 7.088168e+001
1.135073e+003, 7.165654e+001
1.135555e+003, 7.240662e+001
1.136037e+003, 7.338765e+001
1.136519e+003, 7.463775e+001
1.137001e+003, 7.589230e+001
1.137483e+003, 7.692419e+001
1.137965e+003, 7.793495e+001
1.138448e+003, 7.900800e+001
1.138930e+003, 8.018300e+001
1.139412e+003, 8.159566e+001
1.139894e+003, 8.327148e+001
1.140376e+003, 8.496069e+001
1.140858e+003, 8.664526e+001
1.141340e+003, 8.815804e+001
1.141822e+003, 8.917867e+001
1.142304e+003, 9.009131e+001
1.142787e+003, 9.127487e+001
1.143269e+003, 9.274785e+001
1.143751e+003, 9.422818e+001
1.144233e+003, 9.568833e+001
1.144715e+003, 9.727268e+001
1.145197e+003, 9.907480e+001
1.145679e+003, 1.008324e+002
1.146161e+003, 1.020404e+002
1.146644e+003, 1.030344e+002
1.147126e+003, 1.042782e+002
1.147608e+003, 1.059145e+002
1.148090e+003, 1.075901e+002
1.148572e+003, 1.093939e+002
1.149054e+003, 1.109393e+002
1.149536e+003, 1.120752e+002
1.150018e+003, 1.127948e+002
1.150500e+003, 1.131499e+002
1.150983e+003, 1.130735e+002
1.151465e+003, 1.124325e+002
1.151947e+003, 1.110917e+002
1.152429e+003, 1.093172e+002
1.152911e+003, 1.070619e+002
1.153393e+003, 1.045836e+002
1.153875e+003, 1.020361e+002
1.154357e+003, 9.940835e+001
1.154840e+003, 9.661852e+001
1.155322e+003, 9.369510e+001
1.155804e+003, 9.086414e+001
1.156286e+003, 8.811994e+001
1.156768e+003, 8.557865e+001
1.157250e+003, 8.324752e+001
1.157732e+003, 8.109105e+001
1.158214e+003, 7.907825e+001
1.158697e+003, 7.720396e+001
1.159179e+003, 7.546718e+001
1.159661e+003, 7.387421e+001
1.160143e+003, 7.250589e+001
1.160625e+003, 7.150471e+001
1.161107e+003, 7.061755e+001
1.161589e+003, 6.982476e+001
1.162071e+003, 6.904093e+001
1.162553e+003, 6.812497e+001
1.163036e+003, 6.710799e+001
1.163518e+003, 6.615798e+001
1.164000e+003, 6.528933e+001
1.164482e+003, 6.459275e+001
1.164964e+003, 6.422970e+001
1.165446e+003, 6.393919e+001
1.165928e+003, 6.366037e+001
1.166410e+003, 6.333898e+001
1.166892e+003, 6.284886e+001
1.167375e+003, 6.220118e+001
1.167857e+003, 6.157405e+001
1.168339e+003, 6.098109e+001
1.168821e+003, 6.056902e+001
1.169303e+003, 6.054933e+001
1.169785e+003, 6.064650e+001
1.170267e+003, 6.079759e+001
1.170749e+003, 6.090108e+001
1.171231e+003, 6.053080e+001
1.171714e+003, 5.969085e+001
1.172196e+003, 5.937249e+001
1.172678e+003, 5.986806e+001
1.173160e+003, 6.034061e+001
1.173642e+003, 5.992830e+001
1.174124e+003, 5.932432e+001
1.174606e+003, 5.911049e+001
1.175088e+003, 5.923174e+001
1.175571e+003, 5.932511e+001
1.176053e+003, 5.939229e+001
1.176535e+003, 5.942130e+001
1.177017e+003, 5.941381e+001
1.177499e+003, 5.935136e+001
1.177981e+003, 5.919922e+001
1.178463e+003, 5.899616e+001
1.178945e+003, 5.874686e+001
1.179427e+003, 5.845528e+001
1.179910e+003, 5.830703e+001
1.180392e+003, 5.831741e+001
1.180874e+003, 5.829779e+001
1.181356e+003, 5.815960e+001
1.181838e+003, 5.800470e+001
1.182320e+003, 5.794801e+001
1.182802e+003, 5.793280e+001
1.183284e+003, 5.788082e+001
1.183767e+003, 5.777124e+001
1.184249e+003, 5.776692e+001
1.184731e+003, 5.789203e+001
1.185213e+003, 5.795270e+001
1.185695e+003, 5.780944e+001
1.186177e+003, 5.763283e+001
1.186659e+003, 5.765093e+001
1.187141e+003, 5.775200e+001
1.187624e+003, 5.775655e+001
1.188106e+003, 5.757500e+001
1.188588e+003, 5.760925e+001
1.189070e+003, 5.791299e+001
1.189552e+003, 5.812533e+001
1.190034e+003, 5.799087e+001
1.190516e+003, 5.770553e+001
1.190998e+003, 5.735584e+001
1.191480e+003, 5.708153e+001
1.191963e+003, 5.716412e+001
1.192445e+003, 5.791898e+001
1.192927e+003, 5.827226e+001
1.193409e+003, 5.815127e+001
1.193891e+003, 5.795905e+001
1.194373e+003, 5.804626e+001
1.194855e+003, 5.816557e+001
1.195337e+003, 5.783283e+001
1.195819e+003, 5.730583e+001
1.196302e+003, 5.719260e+001
1.196784e+003, 5.794383e+001
1.197266e+003, 5.819351e+001
1.197748e+003, 5.778772e+001
1.198230e+003, 5.743118e+001
1.198712e+003, 5.790027e+001
1.199194e+003, 5.860374e+001
1.199676e+003, 5.869176e+001
1.200158e+003, 5.835084e+001
1.200641e+003, 5.811436e+001
1.201123e+003, 5.810892e+001
1.201605e+003, 5.813091e+001
1.202087e+003, 5.818469e+001
1.202569e+003, 5.820827e+001
1.203051e+003, 5.811669e+001
1.203533e+003, 5.798162e+001
1.204015e+003, 5.787488e+001
1.204498e+003, 5.780658e+001
1.204980e+003, 5.780340e+001
1.205462e+003, 5.790307e+001
1.205944e+003, 5.798966e+001
1.206426e+003, 5.806727e+001
1.206908e+003, 5.807698e+001
1.207390e+003, 5.784767e+001
1.207872e+003, 5.759326e+001
1.208354e+003, 5.757946e+001
1.208837e+003, 5.779473e+001
1.209319e+003, 5.817042e+001
1.209801e+003, 5.894773e+001
1.210283e+003, 5.915607e+001
1.210765e+003, 5.856343e+001
1.211247e+003, 5.784033e+001
1.211729e+003, 5.763143e+001
1.212211e+003, 5.773594e+001
1.212694e+003, 5.802446e+001
1.213176e+003, 5.842606e+001
1.213658e+003, 5.859125e+001
1.214140e+003, 5.841566e+001
1.214622e+003, 5.826496e+001
1.215104e+003, 5.819689e+001
1.215586e+003, 5.814672e+001
1.216068e+003, 5.799771e+001
1.216551e+003, 5.785815e+001
1.217033e+003, 5.790400e+001
1.217515e+003, 5.810938e+001
1.217997e+003, 5.819551e+001
1.218479e+003, 5.811631e+001
1.218961e+003, 5.802752e+001
1.219443e+003, 5.795369e+001
1.219925e+003, 5.788047e+001
1.220407e+003, 5.770853e+001
1.220890e+003, 5.758431e+001
1.221372e+003, 5.775246e+001
1.221854e+003, 5.817686e+001
1.222336e+003, 5.837947e+001
1.222818e+003, 5.828094e+001
1.223300e+003, 5.823719e+001
1.223782e+003, 5.834576e+001
1.224264e+003, 5.839201e+001
1.224746e+003, 5.789695e+001
1.225229e+003, 5.739177e+001
1.225711e+003, 5.761608e+001
1.226193e+003, 5.850370e+001
1.226675e+003, 5.869399e+001
1.227157e+003, 5.799717e+001
1.227639e+003, 5.761882e+001
1.228121e+003, 5.786230e+001
1.228603e+003, 5.825985e+001
1.229085e+003, 5.832992e+001
1.229568e+003, 5.830040e+001
1.230050e+003, 5.843770e+001
1.230532e+003, 5.871363e+001
1.231014e+003, 5.868677e+001
1.231496e+003, 5.829287e+001
1.231978e+003, 5.821592e+001
1.232460e+003, 5.868396e+001
1.232942e+003, 5.914030e+001
1.233425e+003, 5.896976e+001
1.233907e+003, 5.861340e+001
1.234389e+003, 5.845318e+001
1.234871e+003, 5.847408e+001
1.235353e+003, 5.844513e+001
1.235835e+003, 5.835873e+001
1.236317e+003, 5.845677e+001
1.236799e+003, 5.885019e+001
1.237281e+003, 5.914495e+001
1.237764e+003, 5.888207e+001
1.238246e+003, 5.849336e+001
1.238728e+003, 5.835579e+001
1.239210e+003, 5.839894e+001
1.239692e+003, 5.825524e+001
1.240174e+003, 5.793985e+001
1.240656e+003, 5.782869e+001
1.241138e+003, 5.804529e+001
1.241621e+003, 5.827525e+001
1.242103e+003, 5.819808e+001
1.242585e+003, 5.814040e+001
1.243067e+003, 5.835924e+001
1.243549e+003, 5.876108e+001
1.244031e+003, 5.901191e+001
1.244513e+003, 5.912479e+001
1.244995e+003, 5.918905e+001
1.245478e+003, 5.922550e+001
1.245960e+003, 5.921853e+001
1.246442e+003, 5.917334e+001
1.246924e+003, 5.905077e+001
1.247406e+003, 5.876539e+001
1.247888e+003, 5.843742e+001
1.248370e+003, 5.849794e+001
1.248852e+003, 5.886437e+001
1.249334e+003, 5.921963e+001
1.249817e+003, 5.950961e+001
1.250299e+003, 5.965229e+001
1.250781e+003, 5.948516e+001
1.251263e+003, 5.930363e+001
1.251745e+003, 5.923538e+001
1.252227e+003, 5.922455e+001
1.252709e+003, 5.911277e+001
1.253191e+003, 5.894338e+001
1.253673e+003, 5.882906e+001
1.254156e+003, 5.878777e+001
1.254638e+003, 5.884668e+001
1.255120e+003, 5.906940e+001
1.255602e+003, 5.931244e+001
1.256084e+003, 5.953111e+001
1.256566e+003, 5.973823e+001
1.257048e+003, 6.002166e+001
1.257530e+003, 6.029442e+001
1.258012e+003, 6.037476e+001
1.258495e+003, 6.022570e+001
1.258977e+003, 5.991857e+001
1.259459e+003, 5.930885e+001
1.259941e+003, 5.892862e+001
1.260423e+003, 5.898793e+001
1.260905e+003, 5.927119e+001
1.261387e+003, 5.952032e+001
1.261869e+003, 5.972545e+001
1.262352e+003, 5.981761e+001
1.262834e+003, 5.977426e+001
1.263316e+003, 6.007929e+001
1.263798e+003, 6.097252e+001
1.264280e+003, 6.135621e+001
1.264762e+003, 6.077811e+001
1.265244e+003, 5.997212e+001
1.265726e+003, 5.984869e+001
1.266208e+003, 5.997707e+001
1.266691e+003, 5.983227e+001
1.267173e+003, 5.938052e+001
1.267655e+003, 5.920282e+001
1.268137e+003, 5.932281e+001
1.268619e+003, 5.954687e+001
1.269101e+003, 5.987017e+001
1.269583e+003, 6.007181e+001
1.270065e+003, 5.980694e+001
1.270548e+003, 5.943696e+001
1.271030e+003, 5.927337e+001
1.271512e+003, 5.929402e+001
1.271994e+003, 5.944456e+001
1.272476e+003, 5.971870e+001
1.272958e+003, 5.984144e+001
1.273440e+003, 5.974515e+001
1.273922e+003, 5.954979e+001
1.274405e+003, 5.919264e+001
1.274887e+003, 5.892659e+001
1.275369e+003, 5.896575e+001
1.275851e+003, 5.916308e+001
1.276333e+003, 5.903012e+001
1.276815e+003, 5.866171e+001
1.277297e+003, 5.857784e+001
1.277779e+003, 5.889198e+001
1.278261e+003, 5.921849e+001
1.278744e+003, 5.940255e+001
1.279226e+003, 5.949580e+001
1.279708e+003, 5.951766e+001
1.280190e+003, 5.946712e+001
1.280672e+003, 5.923849e+001
1.281154e+003, 5.895730e+001
1.281636e+003, 5.902474e+001
1.282118e+003, 5.949476e+001
1.282600e+003, 5.977810e+001
1.283083e+003, 5.957952e+001
1.283565e+003, 5.937693e+001
1.284047e+003, 5.925304e+001
1.284529e+003, 5.922386e+001
1.285011e+003, 5.939274e+001
1.285493e+003, 5.962917e+001
1.285975e+003, 5.971139e+001
1.286457e+003, 5.963184e+001
1.286939e+003, 5.961427e+001
1.287422e+003, 5.973243e+001
1.287904e+003, 5.970576e+001
1.288386e+003, 5.944518e+001
1.288868e+003, 5.920207e+001
1.289350e+003, 5.925504e+001
1.289832e+003, 5.945726e+001
1.290314e+003, 5.975253e+001
1.290796e+003, 6.006555e+001
1.291279e+003, 6.011875e+001
1.291761e+003, 5.988402e+001
1.292243e+003, 5.964616e+001
1.292725e+003, 5.943830e+001
1.293207e+003, 5.931585e+001
1.293689e+003, 5.932418e+001
1.294171e+003, 5.943141e+001
1.294653e+003, 5.976677e+001
1.295135e+003, 6.010950e+001
1.295618e+003, 5.995897e+001
1.296100e+003, 5.939607e+001
1.296582e+003, 5.926404e+001
1.297064e+003, 5.962652e+001
1.297546e+003, 6.001765e+001
1.298028e+003, 6.030264e+001
1.298510e+003, 6.032647e+001
1.298992e+003, 5.987684e+001
1.299475e+003, 5.943470e+001
1.299957e+003, 5.985543e+001
1.300439e+003, 6.074868e+001
1.300921e+003, 6.087654e+001
1.301403e+003, 6.029964e+001
1.301885e+003, 5.981746e+001
##END=



