##NAMES=Schaurteite
##RRUFFID=R120054
##IDEAL CHEMISTRY=Ca_3_Ge(S^6+^O_4_)_2_(OH)_6_&#183;3H_2_O
##LOCALITY=Tsumeb, Namibia
##OWNER=RRUFF
##SOURCE=William W. Pinch
##DESCRIPTION=Massive aggregate of parallel and radiating colorless needles intermixed with calcite, associated with tennantite and renierite
##STATUS=The identification of this mineral has been confirmed by single-crystal X-ray diffraction.
##URL=rruff.info/R120054
9.112140e+001, 0.000000e+000
9.160352e+001, 8.188974e+001
9.208563e+001, 8.151960e+001
9.256775e+001, 8.145490e+001
9.304987e+001, 8.169572e+001
9.353198e+001, 8.231945e+001
9.401410e+001, 8.244070e+001
9.449622e+001, 8.197905e+001
9.497833e+001, 8.115132e+001
9.546045e+001, 8.016330e+001
9.594257e+001, 7.901772e+001
9.642468e+001, 7.772582e+001
9.690680e+001, 7.595555e+001
9.738892e+001, 7.446629e+001
9.787103e+001, 7.363705e+001
9.835315e+001, 7.328475e+001
9.883527e+001, 7.295969e+001
9.931738e+001, 7.240855e+001
9.979950e+001, 7.158804e+001
1.002816e+002, 7.075329e+001
1.007637e+002, 6.973157e+001
1.012458e+002, 6.875202e+001
1.017280e+002, 6.800355e+001
1.022101e+002, 6.751556e+001
1.026922e+002, 6.727295e+001
1.031743e+002, 6.735413e+001
1.036564e+002, 6.775257e+001
1.041385e+002, 6.813774e+001
1.046207e+002, 6.843070e+001
1.051028e+002, 6.862516e+001
1.055849e+002, 6.868851e+001
1.060670e+002, 6.852285e+001
1.065491e+002, 6.826723e+001
1.070313e+002, 6.808347e+001
1.075134e+002, 6.798269e+001
1.079955e+002, 6.791040e+001
1.084776e+002, 6.777132e+001
1.089597e+002, 6.751029e+001
1.094418e+002, 6.741950e+001
1.099240e+002, 6.770883e+001
1.104061e+002, 6.812122e+001
1.108882e+002, 6.846463e+001
1.113703e+002, 6.866109e+001
1.118524e+002, 6.877979e+001
1.123345e+002, 6.899619e+001
1.128167e+002, 6.925020e+001
1.132988e+002, 6.971722e+001
1.137809e+002, 7.055344e+001
1.142630e+002, 7.157072e+001
1.147451e+002, 7.253664e+001
1.152272e+002, 7.329276e+001
1.157094e+002, 7.385947e+001
1.161915e+002, 7.450755e+001
1.166736e+002, 7.533298e+001
1.171557e+002, 7.613561e+001
1.176378e+002, 7.684362e+001
1.181199e+002, 7.746669e+001
1.186021e+002, 7.804350e+001
1.190842e+002, 7.857903e+001
1.195663e+002, 7.907468e+001
1.200484e+002, 7.971645e+001
1.205305e+002, 8.048212e+001
1.210126e+002, 8.140097e+001
1.214948e+002, 8.261175e+001
1.219769e+002, 8.417252e+001
1.224590e+002, 8.566329e+001
1.229411e+002, 8.653329e+001
1.234232e+002, 8.693867e+001
1.239053e+002, 8.730712e+001
1.243875e+002, 8.772813e+001
1.248696e+002, 8.821361e+001
1.253517e+002, 8.878137e+001
1.258338e+002, 8.939629e+001
1.263159e+002, 9.017459e+001
1.267980e+002, 9.120438e+001
1.272802e+002, 9.245358e+001
1.277623e+002, 9.375790e+001
1.282444e+002, 9.497249e+001
1.287265e+002, 9.607285e+001
1.292086e+002, 9.729055e+001
1.296907e+002, 9.855671e+001
1.301729e+002, 1.000245e+002
1.306550e+002, 1.019823e+002
1.311371e+002, 1.043697e+002
1.316192e+002, 1.067112e+002
1.321013e+002, 1.082820e+002
1.325834e+002, 1.085441e+002
1.330656e+002, 1.090912e+002
1.335477e+002, 1.102468e+002
1.340298e+002, 1.114754e+002
1.345119e+002, 1.123048e+002
1.349940e+002, 1.125910e+002
1.354761e+002, 1.126116e+002
1.359583e+002, 1.129975e+002
1.364404e+002, 1.145342e+002
1.369225e+002, 1.154604e+002
1.374046e+002, 1.157848e+002
1.378867e+002, 1.154277e+002
1.383688e+002, 1.141538e+002
1.388510e+002, 1.117579e+002
1.393331e+002, 1.085603e+002
1.398152e+002, 1.056457e+002
1.402973e+002, 1.033723e+002
1.407794e+002, 1.008162e+002
1.412615e+002, 9.740978e+001
1.417437e+002, 9.332303e+001
1.422258e+002, 8.919315e+001
1.427079e+002, 8.511533e+001
1.431900e+002, 8.141281e+001
1.436721e+002, 7.856499e+001
1.441542e+002, 7.686526e+001
1.446364e+002, 7.569303e+001
1.451185e+002, 7.453120e+001
1.456006e+002, 7.339306e+001
1.460827e+002, 7.218613e+001
1.465648e+002, 7.067898e+001
1.470469e+002, 6.912720e+001
1.475291e+002, 6.779990e+001
1.480112e+002, 6.680220e+001
1.484933e+002, 6.607241e+001
1.489754e+002, 6.549069e+001
1.494575e+002, 6.511132e+001
1.499396e+002, 6.479840e+001
1.504218e+002, 6.457472e+001
1.509039e+002, 6.436125e+001
1.513860e+002, 6.402740e+001
1.518681e+002, 6.345543e+001
1.523502e+002, 6.269786e+001
1.528323e+002, 6.224224e+001
1.533145e+002, 6.234977e+001
1.537966e+002, 6.254151e+001
1.542787e+002, 6.289209e+001
1.547608e+002, 6.325926e+001
1.552429e+002, 6.337564e+001
1.557250e+002, 6.298311e+001
1.562072e+002, 6.201871e+001
1.566893e+002, 6.151410e+001
1.571714e+002, 6.160390e+001
1.576535e+002, 6.192026e+001
1.581356e+002, 6.244521e+001
1.586177e+002, 6.310191e+001
1.590999e+002, 6.368652e+001
1.595820e+002, 6.398131e+001
1.600641e+002, 6.391970e+001
1.605462e+002, 6.407043e+001
1.610283e+002, 6.467587e+001
1.615104e+002, 6.531815e+001
1.619926e+002, 6.559343e+001
1.624747e+002, 6.545485e+001
1.629568e+002, 6.532627e+001
1.634389e+002, 6.573701e+001
1.639210e+002, 6.665552e+001
1.644031e+002, 6.741776e+001
1.648853e+002, 6.778521e+001
1.653674e+002, 6.796957e+001
1.658495e+002, 6.832604e+001
1.663316e+002, 6.899503e+001
1.668137e+002, 6.958482e+001
1.672958e+002, 6.967223e+001
1.677780e+002, 6.936229e+001
1.682601e+002, 6.897752e+001
1.687422e+002, 6.866985e+001
1.692243e+002, 6.841089e+001
1.697064e+002, 6.810474e+001
1.701885e+002, 6.779914e+001
1.706707e+002, 6.735107e+001
1.711528e+002, 6.659934e+001
1.716349e+002, 6.561260e+001
1.721170e+002, 6.466734e+001
1.725991e+002, 6.405415e+001
1.730812e+002, 6.379774e+001
1.735634e+002, 6.334426e+001
1.740455e+002, 6.240462e+001
1.745276e+002, 6.145570e+001
1.750097e+002, 6.070927e+001
1.754918e+002, 6.015772e+001
1.759739e+002, 5.966609e+001
1.764561e+002, 5.907364e+001
1.769382e+002, 5.830359e+001
1.774203e+002, 5.768438e+001
1.779024e+002, 5.729572e+001
1.783845e+002, 5.697680e+001
1.788666e+002, 5.668513e+001
1.793488e+002, 5.639611e+001
1.798309e+002, 5.606959e+001
1.803130e+002, 5.565009e+001
1.807951e+002, 5.508427e+001
1.812772e+002, 5.454020e+001
1.817593e+002, 5.392333e+001
1.822415e+002, 5.338388e+001
1.827236e+002, 5.307093e+001
1.832057e+002, 5.300775e+001
1.836878e+002, 5.306291e+001
1.841699e+002, 5.303869e+001
1.846520e+002, 5.287493e+001
1.851342e+002, 5.274676e+001
1.856163e+002, 5.272204e+001
1.860984e+002, 5.270761e+001
1.865805e+002, 5.257122e+001
1.870626e+002, 5.226583e+001
1.875447e+002, 5.192583e+001
1.880269e+002, 5.181862e+001
1.885090e+002, 5.202430e+001
1.889911e+002, 5.210104e+001
1.894732e+002, 5.175739e+001
1.899553e+002, 5.125006e+001
1.904374e+002, 5.109446e+001
1.909196e+002, 5.154536e+001
1.914017e+002, 5.215246e+001
1.918838e+002, 5.219687e+001
1.923659e+002, 5.164707e+001
1.928480e+002, 5.116918e+001
1.933301e+002, 5.113999e+001
1.938123e+002, 5.144780e+001
1.942944e+002, 5.169718e+001
1.947765e+002, 5.183874e+001
1.952586e+002, 5.180960e+001
1.957407e+002, 5.150682e+001
1.962228e+002, 5.092503e+001
1.967050e+002, 5.041162e+001
1.971871e+002, 5.023049e+001
1.976692e+002, 5.037101e+001
1.981513e+002, 5.060118e+001
1.986334e+002, 5.104066e+001
1.991155e+002, 5.141272e+001
1.995977e+002, 5.147694e+001
2.000798e+002, 5.123574e+001
2.005619e+002, 5.095819e+001
2.010440e+002, 5.095253e+001
2.015261e+002, 5.128287e+001
2.020082e+002, 5.145740e+001
2.024904e+002, 5.116374e+001
2.029725e+002, 5.087743e+001
2.034546e+002, 5.086985e+001
2.039367e+002, 5.115749e+001
2.044188e+002, 5.154145e+001
2.049009e+002, 5.178766e+001
2.053831e+002, 5.187279e+001
2.058652e+002, 5.188108e+001
2.063473e+002, 5.168196e+001
2.068294e+002, 5.151212e+001
2.073115e+002, 5.154092e+001
2.077936e+002, 5.177879e+001
2.082758e+002, 5.209105e+001
2.087579e+002, 5.228912e+001
2.092400e+002, 5.231990e+001
2.097221e+002, 5.234187e+001
2.102042e+002, 5.238453e+001
2.106863e+002, 5.240057e+001
2.111685e+002, 5.234187e+001
2.116506e+002, 5.220614e+001
2.121327e+002, 5.204546e+001
2.126148e+002, 5.193692e+001
2.130969e+002, 5.192902e+001
2.135790e+002, 5.187231e+001
2.140612e+002, 5.169627e+001
2.145433e+002, 5.151811e+001
2.150254e+002, 5.142256e+001
2.155075e+002, 5.143181e+001
2.159896e+002, 5.152323e+001
2.164717e+002, 5.167247e+001
2.169539e+002, 5.191909e+001
2.174360e+002, 5.213281e+001
2.179181e+002, 5.237743e+001
2.184002e+002, 5.255622e+001
2.188823e+002, 5.251992e+001
2.193644e+002, 5.223035e+001
2.198466e+002, 5.189147e+001
2.203287e+002, 5.179425e+001
2.208108e+002, 5.198127e+001
2.212929e+002, 5.215808e+001
2.217750e+002, 5.222892e+001
2.222571e+002, 5.229127e+001
2.227393e+002, 5.250611e+001
2.232214e+002, 5.292914e+001
2.237035e+002, 5.337035e+001
2.241856e+002, 5.357786e+001
2.246677e+002, 5.357383e+001
2.251498e+002, 5.350888e+001
2.256320e+002, 5.332802e+001
2.261141e+002, 5.313189e+001
2.265962e+002, 5.309026e+001
2.270783e+002, 5.324455e+001
2.275604e+002, 5.351644e+001
2.280425e+002, 5.394370e+001
2.285247e+002, 5.446890e+001
2.290068e+002, 5.480486e+001
2.294889e+002, 5.464397e+001
2.299710e+002, 5.423034e+001
2.304531e+002, 5.413703e+001
2.309352e+002, 5.451754e+001
2.314174e+002, 5.502205e+001
2.318995e+002, 5.539513e+001
2.323816e+002, 5.567215e+001
2.328637e+002, 5.594335e+001
2.333458e+002, 5.625880e+001
2.338279e+002, 5.660271e+001
2.343101e+002, 5.695789e+001
2.347922e+002, 5.742051e+001
2.352743e+002, 5.770697e+001
2.357564e+002, 5.751738e+001
2.362385e+002, 5.705936e+001
2.367206e+002, 5.675641e+001
2.372028e+002, 5.689696e+001
2.376849e+002, 5.738774e+001
2.381670e+002, 5.784986e+001
2.386491e+002, 5.834689e+001
2.391312e+002, 5.870201e+001
2.396133e+002, 5.877324e+001
2.400955e+002, 5.868648e+001
2.405776e+002, 5.866315e+001
2.410597e+002, 5.886409e+001
2.415418e+002, 5.922424e+001
2.420239e+002, 5.941058e+001
2.425060e+002, 5.924980e+001
2.429882e+002, 5.914853e+001
2.434703e+002, 5.919416e+001
2.439524e+002, 5.937452e+001
2.444345e+002, 5.969431e+001
2.449166e+002, 6.018592e+001
2.453987e+002, 6.078492e+001
2.458809e+002, 6.116555e+001
2.463630e+002, 6.109347e+001
2.468451e+002, 6.109466e+001
2.473272e+002, 6.125435e+001
2.478093e+002, 6.155088e+001
2.482914e+002, 6.198607e+001
2.487736e+002, 6.257577e+001
2.492557e+002, 6.324794e+001
2.497378e+002, 6.370101e+001
2.502199e+002, 6.376714e+001
2.507020e+002, 6.380086e+001
2.511841e+002, 6.369674e+001
2.516663e+002, 6.363485e+001
2.521484e+002, 6.387855e+001
2.526305e+002, 6.456298e+001
2.531126e+002, 6.550790e+001
2.535947e+002, 6.615559e+001
2.540768e+002, 6.610004e+001
2.545590e+002, 6.621284e+001
2.550411e+002, 6.674087e+001
2.555232e+002, 6.738896e+001
2.560053e+002, 6.781068e+001
2.564874e+002, 6.785889e+001
2.569695e+002, 6.768032e+001
2.574517e+002, 6.762877e+001
2.579338e+002, 6.765532e+001
2.584159e+002, 6.790081e+001
2.588980e+002, 6.863574e+001
2.593801e+002, 6.947412e+001
2.598622e+002, 6.999173e+001
2.603444e+002, 7.004456e+001
2.608265e+002, 6.983630e+001
2.613086e+002, 6.975291e+001
2.617907e+002, 6.999626e+001
2.622728e+002, 7.003420e+001
2.627549e+002, 6.961998e+001
2.632371e+002, 6.911313e+001
2.637192e+002, 6.890698e+001
2.642013e+002, 6.910026e+001
2.646834e+002, 6.945573e+001
2.651655e+002, 6.962415e+001
2.656476e+002, 6.951091e+001
2.661298e+002, 6.941731e+001
2.666119e+002, 6.928994e+001
2.670940e+002, 6.921715e+001
2.675761e+002, 6.931993e+001
2.680582e+002, 6.961551e+001
2.685403e+002, 6.996174e+001
2.690225e+002, 7.021575e+001
2.695046e+002, 7.037699e+001
2.699867e+002, 7.036268e+001
2.704688e+002, 7.008902e+001
2.709509e+002, 6.968930e+001
2.714330e+002, 6.923284e+001
2.719152e+002, 6.873851e+001
2.723973e+002, 6.828835e+001
2.728794e+002, 6.800530e+001
2.733615e+002, 6.789977e+001
2.738436e+002, 6.758723e+001
2.743257e+002, 6.699146e+001
2.748079e+002, 6.623360e+001
2.752900e+002, 6.528172e+001
2.757721e+002, 6.416691e+001
2.762542e+002, 6.326247e+001
2.767363e+002, 6.293330e+001
2.772184e+002, 6.311387e+001
2.777006e+002, 6.302052e+001
2.781827e+002, 6.245082e+001
2.786648e+002, 6.176634e+001
2.791469e+002, 6.117728e+001
2.796290e+002, 6.068839e+001
2.801111e+002, 6.027920e+001
2.805933e+002, 5.992694e+001
2.810754e+002, 5.966405e+001
2.815575e+002, 5.954718e+001
2.820396e+002, 5.972756e+001
2.825217e+002, 5.987062e+001
2.830038e+002, 5.973903e+001
2.834860e+002, 5.937514e+001
2.839681e+002, 5.899808e+001
2.844502e+002, 5.870064e+001
2.849323e+002, 5.845480e+001
2.854144e+002, 5.820122e+001
2.858965e+002, 5.795192e+001
2.863787e+002, 5.766899e+001
2.868608e+002, 5.724710e+001
2.873429e+002, 5.675468e+001
2.878250e+002, 5.644349e+001
2.883071e+002, 5.642642e+001
2.887892e+002, 5.659455e+001
2.892714e+002, 5.682788e+001
2.897535e+002, 5.715243e+001
2.902356e+002, 5.735237e+001
2.907177e+002, 5.730036e+001
2.911998e+002, 5.704670e+001
2.916819e+002, 5.666998e+001
2.921641e+002, 5.608239e+001
2.926462e+002, 5.558656e+001
2.931283e+002, 5.557042e+001
2.936104e+002, 5.597585e+001
2.940925e+002, 5.642793e+001
2.945746e+002, 5.691024e+001
2.950568e+002, 5.731690e+001
2.955389e+002, 5.736300e+001
2.960210e+002, 5.690549e+001
2.965031e+002, 5.641545e+001
2.969852e+002, 5.633538e+001
2.974673e+002, 5.654986e+001
2.979495e+002, 5.678264e+001
2.984316e+002, 5.699976e+001
2.989137e+002, 5.716280e+001
2.993958e+002, 5.717352e+001
2.998779e+002, 5.699308e+001
3.003600e+002, 5.683907e+001
3.008422e+002, 5.682397e+001
3.013243e+002, 5.694155e+001
3.018064e+002, 5.721674e+001
3.022885e+002, 5.777113e+001
3.027706e+002, 5.837706e+001
3.032527e+002, 5.878791e+001
3.037349e+002, 5.899963e+001
3.042170e+002, 5.908864e+001
3.046991e+002, 5.900843e+001
3.051812e+002, 5.886039e+001
3.056633e+002, 5.876586e+001
3.061454e+002, 5.871961e+001
3.066276e+002, 5.877930e+001
3.071097e+002, 5.910127e+001
3.075918e+002, 5.966080e+001
3.080739e+002, 5.999825e+001
3.085560e+002, 5.976223e+001
3.090381e+002, 5.941383e+001
3.095203e+002, 5.947989e+001
3.100024e+002, 6.000141e+001
3.104845e+002, 6.065112e+001
3.109666e+002, 6.128503e+001
3.114487e+002, 6.188409e+001
3.119308e+002, 6.232715e+001
3.124130e+002, 6.251027e+001
3.128951e+002, 6.264013e+001
3.133772e+002, 6.296103e+001
3.138593e+002, 6.343441e+001
3.143414e+002, 6.378394e+001
3.148235e+002, 6.374233e+001
3.153057e+002, 6.348045e+001
3.157878e+002, 6.343154e+001
3.162699e+002, 6.363952e+001
3.167520e+002, 6.404694e+001
3.172341e+002, 6.474238e+001
3.177162e+002, 6.559986e+001
3.181984e+002, 6.634624e+001
3.186805e+002, 6.682134e+001
3.191626e+002, 6.715524e+001
3.196447e+002, 6.751854e+001
3.201268e+002, 6.789584e+001
3.206089e+002, 6.838377e+001
3.210911e+002, 6.922746e+001
3.215732e+002, 7.016777e+001
3.220553e+002, 7.082261e+001
3.225374e+002, 7.105039e+001
3.230195e+002, 7.108512e+001
3.235016e+002, 7.107140e+001
3.239838e+002, 7.100672e+001
3.244659e+002, 7.116641e+001
3.249480e+002, 7.184654e+001
3.254301e+002, 7.267394e+001
3.259122e+002, 7.311629e+001
3.263943e+002, 7.305926e+001
3.268765e+002, 7.309598e+001
3.273586e+002, 7.385214e+001
3.278407e+002, 7.516019e+001
3.283228e+002, 7.600198e+001
3.288049e+002, 7.587277e+001
3.292870e+002, 7.558575e+001
3.297692e+002, 7.601026e+001
3.302513e+002, 7.708549e+001
3.307334e+002, 7.821244e+001
3.312155e+002, 7.914574e+001
3.316976e+002, 7.991788e+001
3.321797e+002, 8.059519e+001
3.326619e+002, 8.117388e+001
3.331440e+002, 8.168559e+001
3.336261e+002, 8.209595e+001
3.341082e+002, 8.245254e+001
3.345903e+002, 8.288264e+001
3.350724e+002, 8.342986e+001
3.355546e+002, 8.406436e+001
3.360367e+002, 8.479229e+001
3.365188e+002, 8.562590e+001
3.370009e+002, 8.638603e+001
3.374830e+002, 8.690759e+001
3.379651e+002, 8.730423e+001
3.384473e+002, 8.778233e+001
3.389294e+002, 8.836390e+001
3.394115e+002, 8.903075e+001
3.398936e+002, 8.985508e+001
3.403757e+002, 9.080138e+001
3.408578e+002, 9.154529e+001
3.413400e+002, 9.185111e+001
3.418221e+002, 9.201838e+001
3.423042e+002, 9.254525e+001
3.427863e+002, 9.350542e+001
3.432684e+002, 9.440305e+001
3.437505e+002, 9.487125e+001
3.442327e+002, 9.510177e+001
3.447148e+002, 9.559827e+001
3.451969e+002, 9.653587e+001
3.456790e+002, 9.757137e+001
3.461611e+002, 9.817942e+001
3.466432e+002, 9.844230e+001
3.471254e+002, 9.903561e+001
3.476075e+002, 1.003985e+002
3.480896e+002, 1.020572e+002
3.485717e+002, 1.034063e+002
3.490538e+002, 1.043932e+002
3.495359e+002, 1.052856e+002
3.500181e+002, 1.062472e+002
3.505002e+002, 1.072820e+002
3.509823e+002, 1.083767e+002
3.514644e+002, 1.097108e+002
3.519465e+002, 1.109444e+002
3.524286e+002, 1.116845e+002
3.529108e+002, 1.120568e+002
3.533929e+002, 1.127533e+002
3.538750e+002, 1.142789e+002
3.543571e+002, 1.161561e+002
3.548392e+002, 1.172221e+002
3.553214e+002, 1.174115e+002
3.558035e+002, 1.171253e+002
3.562856e+002, 1.164689e+002
3.567677e+002, 1.154368e+002
3.572498e+002, 1.139349e+002
3.577319e+002, 1.118859e+002
3.582141e+002, 1.096267e+002
3.586962e+002, 1.076156e+002
3.591783e+002, 1.059211e+002
3.596604e+002, 1.040355e+002
3.601425e+002, 1.018462e+002
3.606246e+002, 9.946420e+001
3.611068e+002, 9.692133e+001
3.615889e+002, 9.422884e+001
3.620710e+002, 9.160336e+001
3.625531e+002, 8.919969e+001
3.630352e+002, 8.702739e+001
3.635173e+002, 8.509519e+001
3.639995e+002, 8.361609e+001
3.644816e+002, 8.213285e+001
3.649637e+002, 8.021937e+001
3.654458e+002, 7.811672e+001
3.659279e+002, 7.649265e+001
3.664100e+002, 7.574306e+001
3.668922e+002, 7.559512e+001
3.673743e+002, 7.517917e+001
3.678564e+002, 7.430208e+001
3.683385e+002, 7.344945e+001
3.688206e+002, 7.265539e+001
3.693027e+002, 7.192761e+001
3.697849e+002, 7.128894e+001
3.702670e+002, 7.074587e+001
3.707491e+002, 7.026205e+001
3.712312e+002, 6.977890e+001
3.717133e+002, 6.925137e+001
3.721954e+002, 6.889783e+001
3.726776e+002, 6.880091e+001
3.731597e+002, 6.879443e+001
3.736418e+002, 6.881474e+001
3.741239e+002, 6.883736e+001
3.746060e+002, 6.882182e+001
3.750881e+002, 6.872130e+001
3.755703e+002, 6.854274e+001
3.760524e+002, 6.851078e+001
3.765345e+002, 6.880534e+001
3.770166e+002, 6.903810e+001
3.774987e+002, 6.902215e+001
3.779808e+002, 6.891652e+001
3.784630e+002, 6.897110e+001
3.789451e+002, 6.930212e+001
3.794272e+002, 6.979831e+001
3.799093e+002, 7.020213e+001
3.803914e+002, 7.051974e+001
3.808735e+002, 7.072043e+001
3.813557e+002, 7.085805e+001
3.818378e+002, 7.085738e+001
3.823199e+002, 7.066714e+001
3.828020e+002, 7.027786e+001
3.832841e+002, 6.970470e+001
3.837662e+002, 6.893852e+001
3.842484e+002, 6.794168e+001
3.847305e+002, 6.699221e+001
3.852126e+002, 6.627564e+001
3.856947e+002, 6.541857e+001
3.861768e+002, 6.417036e+001
3.866589e+002, 6.269469e+001
3.871411e+002, 6.130128e+001
3.876232e+002, 6.015858e+001
3.881053e+002, 5.924953e+001
3.885874e+002, 5.854219e+001
3.890695e+002, 5.814038e+001
3.895516e+002, 5.775410e+001
3.900338e+002, 5.732890e+001
3.905159e+002, 5.687703e+001
3.909980e+002, 5.639964e+001
3.914801e+002, 5.589696e+001
3.919622e+002, 5.540268e+001
3.924443e+002, 5.494535e+001
3.929265e+002, 5.452305e+001
3.934086e+002, 5.416586e+001
3.938907e+002, 5.391226e+001
3.943728e+002, 5.369930e+001
3.948549e+002, 5.346646e+001
3.953370e+002, 5.323443e+001
3.958192e+002, 5.308966e+001
3.963013e+002, 5.320925e+001
3.967834e+002, 5.345580e+001
3.972655e+002, 5.330406e+001
3.977476e+002, 5.256627e+001
3.982297e+002, 5.191876e+001
3.987119e+002, 5.183759e+001
3.991940e+002, 5.202227e+001
3.996761e+002, 5.210389e+001
4.001582e+002, 5.197380e+001
4.006403e+002, 5.175273e+001
4.011224e+002, 5.153092e+001
4.016046e+002, 5.130986e+001
4.020867e+002, 5.114388e+001
4.025688e+002, 5.103865e+001
4.030509e+002, 5.101344e+001
4.035330e+002, 5.112328e+001
4.040151e+002, 5.137337e+001
4.044973e+002, 5.154465e+001
4.049794e+002, 5.143776e+001
4.054615e+002, 5.121879e+001
4.059436e+002, 5.122565e+001
4.064257e+002, 5.152711e+001
4.069078e+002, 5.180500e+001
4.073900e+002, 5.174260e+001
4.078721e+002, 5.141728e+001
4.083542e+002, 5.125414e+001
4.088363e+002, 5.152958e+001
4.093184e+002, 5.175334e+001
4.098005e+002, 5.150206e+001
4.102827e+002, 5.090907e+001
4.107648e+002, 5.043485e+001
4.112469e+002, 5.027737e+001
4.117290e+002, 5.036236e+001
4.122111e+002, 5.057348e+001
4.126932e+002, 5.102751e+001
4.131754e+002, 5.130334e+001
4.136575e+002, 5.105717e+001
4.141396e+002, 5.074202e+001
4.146217e+002, 5.095687e+001
4.151038e+002, 5.175663e+001
4.155859e+002, 5.256155e+001
4.160681e+002, 5.277555e+001
4.165502e+002, 5.232898e+001
4.170323e+002, 5.201012e+001
4.175144e+002, 5.176963e+001
4.179965e+002, 5.168219e+001
4.184786e+002, 5.182133e+001
4.189608e+002, 5.213118e+001
4.194429e+002, 5.252370e+001
4.199250e+002, 5.295729e+001
4.204071e+002, 5.341183e+001
4.208892e+002, 5.384027e+001
4.213713e+002, 5.435268e+001
4.218535e+002, 5.464987e+001
4.223356e+002, 5.456343e+001
4.228177e+002, 5.438832e+001
4.232998e+002, 5.427208e+001
4.237819e+002, 5.427944e+001
4.242640e+002, 5.450458e+001
4.247462e+002, 5.511305e+001
4.252283e+002, 5.615327e+001
4.257104e+002, 5.689548e+001
4.261925e+002, 5.726275e+001
4.266746e+002, 5.737849e+001
4.271567e+002, 5.702526e+001
4.276389e+002, 5.650294e+001
4.281210e+002, 5.628946e+001
4.286031e+002, 5.664402e+001
4.290852e+002, 5.729394e+001
4.295673e+002, 5.770352e+001
4.300494e+002, 5.783862e+001
4.305316e+002, 5.786178e+001
4.310137e+002, 5.765846e+001
4.314958e+002, 5.745518e+001
4.319779e+002, 5.743049e+001
4.324600e+002, 5.758244e+001
4.329421e+002, 5.772730e+001
4.334243e+002, 5.760062e+001
4.339064e+002, 5.732423e+001
4.343885e+002, 5.745600e+001
4.348706e+002, 5.812260e+001
4.353527e+002, 5.896754e+001
4.358348e+002, 5.989738e+001
4.363170e+002, 6.083029e+001
4.367991e+002, 6.161485e+001
4.372812e+002, 6.213971e+001
4.377633e+002, 6.260408e+001
4.382454e+002, 6.318189e+001
4.387275e+002, 6.386494e+001
4.392097e+002, 6.454546e+001
4.396918e+002, 6.509184e+001
4.401739e+002, 6.575777e+001
4.406560e+002, 6.704704e+001
4.411381e+002, 6.901443e+001
4.416202e+002, 7.078776e+001
4.421024e+002, 7.192980e+001
4.425845e+002, 7.285633e+001
4.430666e+002, 7.405814e+001
4.435487e+002, 7.557024e+001
4.440308e+002, 7.709499e+001
4.445129e+002, 7.843434e+001
4.449951e+002, 7.958347e+001
4.454772e+002, 8.058934e+001
4.459593e+002, 8.146488e+001
4.464414e+002, 8.220192e+001
4.469235e+002, 8.264564e+001
4.474056e+002, 8.299256e+001
4.478878e+002, 8.355663e+001
4.483699e+002, 8.444230e+001
4.488520e+002, 8.547916e+001
4.493341e+002, 8.639645e+001
4.498162e+002, 8.705513e+001
4.502983e+002, 8.800066e+001
4.507805e+002, 8.927280e+001
4.512626e+002, 9.074372e+001
4.517447e+002, 9.251301e+001
4.522268e+002, 9.443694e+001
4.527089e+002, 9.623978e+001
4.531910e+002, 9.774593e+001
4.536732e+002, 9.895075e+001
4.541553e+002, 9.979964e+001
4.546374e+002, 1.001276e+002
4.551195e+002, 1.003568e+002
4.556016e+002, 1.005077e+002
4.560837e+002, 1.006339e+002
4.565659e+002, 1.008528e+002
4.570480e+002, 1.011572e+002
4.575301e+002, 1.013027e+002
4.580122e+002, 1.009215e+002
4.584943e+002, 1.000263e+002
4.589764e+002, 9.946325e+001
4.594586e+002, 9.973953e+001
4.599407e+002, 9.960239e+001
4.604228e+002, 9.835020e+001
4.609049e+002, 9.630587e+001
4.613870e+002, 9.399990e+001
4.618691e+002, 9.154465e+001
4.623513e+002, 8.902504e+001
4.628334e+002, 8.644852e+001
4.633155e+002, 8.383027e+001
4.637976e+002, 8.158195e+001
4.642797e+002, 7.990263e+001
4.647618e+002, 7.858052e+001
4.652440e+002, 7.730901e+001
4.657261e+002, 7.607404e+001
4.662082e+002, 7.508324e+001
4.666903e+002, 7.442239e+001
4.671724e+002, 7.402932e+001
4.676545e+002, 7.386821e+001
4.681367e+002, 7.392784e+001
4.686188e+002, 7.408241e+001
4.691009e+002, 7.418728e+001
4.695830e+002, 7.433775e+001
4.700651e+002, 7.502077e+001
4.705472e+002, 7.666009e+001
4.710294e+002, 7.821042e+001
4.715115e+002, 7.920950e+001
4.719936e+002, 8.005312e+001
4.724757e+002, 8.130309e+001
4.729578e+002, 8.308140e+001
4.734399e+002, 8.504932e+001
4.739221e+002, 8.686576e+001
4.744042e+002, 8.862052e+001
4.748863e+002, 8.965279e+001
4.753684e+002, 8.967478e+001
4.758505e+002, 8.938219e+001
4.763326e+002, 8.909164e+001
4.768148e+002, 8.864805e+001
4.772969e+002, 8.776379e+001
4.777790e+002, 8.630611e+001
4.782611e+002, 8.435136e+001
4.787432e+002, 8.198660e+001
4.792253e+002, 7.899773e+001
4.797075e+002, 7.623428e+001
4.801896e+002, 7.395943e+001
4.806717e+002, 7.180642e+001
4.811538e+002, 6.949498e+001
4.816359e+002, 6.709983e+001
4.821180e+002, 6.495816e+001
4.826002e+002, 6.332860e+001
4.830823e+002, 6.211296e+001
4.835644e+002, 6.105930e+001
4.840465e+002, 6.022586e+001
4.845286e+002, 5.935478e+001
4.850107e+002, 5.818615e+001
4.854929e+002, 5.700029e+001
4.859750e+002, 5.616347e+001
4.864571e+002, 5.577666e+001
4.869392e+002, 5.543767e+001
4.874213e+002, 5.486823e+001
4.879034e+002, 5.417574e+001
4.883856e+002, 5.359556e+001
4.888677e+002, 5.316130e+001
4.893498e+002, 5.283408e+001
4.898319e+002, 5.259331e+001
4.903140e+002, 5.244246e+001
4.907961e+002, 5.233888e+001
4.912783e+002, 5.250252e+001
4.917604e+002, 5.248054e+001
4.922425e+002, 5.186380e+001
4.927246e+002, 5.095256e+001
4.932067e+002, 5.035098e+001
4.936888e+002, 5.027352e+001
4.941710e+002, 5.037481e+001
4.946531e+002, 5.008928e+001
4.951352e+002, 4.914413e+001
4.956173e+002, 4.869324e+001
4.960994e+002, 4.914267e+001
4.965815e+002, 4.961840e+001
4.970637e+002, 4.964215e+001
4.975458e+002, 4.936157e+001
4.980279e+002, 4.918876e+001
4.985100e+002, 4.937098e+001
4.989921e+002, 4.972221e+001
4.994742e+002, 4.975062e+001
4.999564e+002, 4.931414e+001
5.004385e+002, 4.890985e+001
5.009206e+002, 4.859773e+001
5.014027e+002, 4.834394e+001
5.018848e+002, 4.809362e+001
5.023669e+002, 4.787087e+001
5.028491e+002, 4.780131e+001
5.033312e+002, 4.808498e+001
5.038133e+002, 4.855839e+001
5.042954e+002, 4.874996e+001
5.047775e+002, 4.860591e+001
5.052596e+002, 4.842925e+001
5.057418e+002, 4.834408e+001
5.062239e+002, 4.831518e+001
5.067060e+002, 4.829839e+001
5.071881e+002, 4.830137e+001
5.076702e+002, 4.827573e+001
5.081523e+002, 4.821376e+001
5.086345e+002, 4.810224e+001
5.091166e+002, 4.781005e+001
5.095987e+002, 4.731586e+001
5.100808e+002, 4.708562e+001
5.105629e+002, 4.762966e+001
5.110450e+002, 4.883779e+001
5.115272e+002, 4.942752e+001
5.120093e+002, 4.885220e+001
5.124914e+002, 4.839687e+001
5.129735e+002, 4.863219e+001
5.134556e+002, 4.912287e+001
5.139377e+002, 4.924888e+001
5.144199e+002, 4.886056e+001
5.149020e+002, 4.832096e+001
5.153841e+002, 4.810566e+001
5.158662e+002, 4.828811e+001
5.163483e+002, 4.829352e+001
5.168304e+002, 4.779321e+001
5.173126e+002, 4.746499e+001
5.177947e+002, 4.763831e+001
5.182768e+002, 4.806331e+001
5.187589e+002, 4.837553e+001
5.192410e+002, 4.842974e+001
5.197231e+002, 4.834254e+001
5.202053e+002, 4.824019e+001
5.206874e+002, 4.811464e+001
5.211695e+002, 4.810930e+001
5.216516e+002, 4.834343e+001
5.221337e+002, 4.857360e+001
5.226158e+002, 4.864690e+001
5.230980e+002, 4.858794e+001
5.235801e+002, 4.845850e+001
5.240622e+002, 4.819210e+001
5.245443e+002, 4.795168e+001
5.250264e+002, 4.799174e+001
5.255085e+002, 4.825041e+001
5.259907e+002, 4.829908e+001
5.264728e+002, 4.788853e+001
5.269549e+002, 4.743299e+001
5.274370e+002, 4.768062e+001
5.279191e+002, 4.882422e+001
5.284012e+002, 4.941675e+001
5.288834e+002, 4.876279e+001
5.293655e+002, 4.798688e+001
5.298476e+002, 4.793255e+001
5.303297e+002, 4.843381e+001
5.308118e+002, 4.889016e+001
5.312939e+002, 4.898413e+001
5.317761e+002, 4.880042e+001
5.322582e+002, 4.853107e+001
5.327403e+002, 4.799886e+001
5.332224e+002, 4.771740e+001
5.337045e+002, 4.779531e+001
5.341866e+002, 4.800252e+001
5.346688e+002, 4.827198e+001
5.351509e+002, 4.855369e+001
5.356330e+002, 4.875946e+001
5.361151e+002, 4.881043e+001
5.365972e+002, 4.877456e+001
5.370793e+002, 4.885429e+001
5.375615e+002, 4.909148e+001
5.380436e+002, 4.927339e+001
5.385257e+002, 4.935399e+001
5.390078e+002, 4.933591e+001
5.394899e+002, 4.915810e+001
5.399720e+002, 4.883632e+001
5.404542e+002, 4.862705e+001
5.409363e+002, 4.877538e+001
5.414184e+002, 4.905133e+001
5.419005e+002, 4.911661e+001
5.423826e+002, 4.896688e+001
5.428647e+002, 4.874939e+001
5.433469e+002, 4.846799e+001
5.438290e+002, 4.824149e+001
5.443111e+002, 4.844042e+001
5.447932e+002, 4.933063e+001
5.452753e+002, 4.995642e+001
5.457574e+002, 5.012987e+001
5.462396e+002, 5.002618e+001
5.467217e+002, 4.955988e+001
5.472038e+002, 4.890117e+001
5.476859e+002, 4.865214e+001
5.481680e+002, 4.930094e+001
5.486501e+002, 5.056797e+001
5.491323e+002, 5.117817e+001
5.496144e+002, 5.063457e+001
5.500965e+002, 5.027653e+001
5.505786e+002, 5.035547e+001
5.510607e+002, 5.056794e+001
5.515428e+002, 5.069669e+001
5.520250e+002, 5.073377e+001
5.525071e+002, 5.080501e+001
5.529892e+002, 5.103973e+001
5.534713e+002, 5.136428e+001
5.539534e+002, 5.156628e+001
5.544355e+002, 5.163307e+001
5.549177e+002, 5.162677e+001
5.553998e+002, 5.147169e+001
5.558819e+002, 5.133168e+001
5.563640e+002, 5.145619e+001
5.568461e+002, 5.188802e+001
5.573282e+002, 5.226000e+001
5.578104e+002, 5.239597e+001
5.582925e+002, 5.241816e+001
5.587746e+002, 5.241565e+001
5.592567e+002, 5.241740e+001
5.597388e+002, 5.254144e+001
5.602209e+002, 5.287513e+001
5.607031e+002, 5.335803e+001
5.611852e+002, 5.379790e+001
5.616673e+002, 5.424319e+001
5.621494e+002, 5.457513e+001
5.626315e+002, 5.455278e+001
5.631136e+002, 5.460352e+001
5.635958e+002, 5.510299e+001
5.640779e+002, 5.598930e+001
5.645600e+002, 5.691625e+001
5.650421e+002, 5.763805e+001
5.655242e+002, 5.822579e+001
5.660063e+002, 5.892475e+001
5.664885e+002, 5.976805e+001
5.669706e+002, 6.061427e+001
5.674527e+002, 6.146568e+001
5.679348e+002, 6.227721e+001
5.684169e+002, 6.289906e+001
5.688990e+002, 6.338702e+001
5.693812e+002, 6.414605e+001
5.698633e+002, 6.561337e+001
5.703454e+002, 6.734885e+001
5.708275e+002, 6.855527e+001
5.713096e+002, 6.928845e+001
5.717917e+002, 7.046891e+001
5.722739e+002, 7.257323e+001
5.727560e+002, 7.521413e+001
5.732381e+002, 7.766012e+001
5.737202e+002, 7.972281e+001
5.742023e+002, 8.237502e+001
5.746844e+002, 8.592461e+001
5.751666e+002, 8.991988e+001
5.756487e+002, 9.411324e+001
5.761308e+002, 9.849269e+001
5.766129e+002, 1.031306e+002
5.770950e+002, 1.080944e+002
5.775771e+002, 1.132589e+002
5.780593e+002, 1.184227e+002
5.785414e+002, 1.237430e+002
5.790235e+002, 1.286269e+002
5.795056e+002, 1.323270e+002
5.799877e+002, 1.362587e+002
5.804698e+002, 1.413628e+002
5.809520e+002, 1.471806e+002
5.814341e+002, 1.525510e+002
5.819162e+002, 1.566722e+002
5.823983e+002, 1.607191e+002
5.828804e+002, 1.663175e+002
5.833625e+002, 1.733754e+002
5.838447e+002, 1.806575e+002
5.843268e+002, 1.878145e+002
5.848089e+002, 1.952310e+002
5.852910e+002, 2.030968e+002
5.857731e+002, 2.114494e+002
5.862552e+002, 2.206745e+002
5.867374e+002, 2.308065e+002
5.872195e+002, 2.418216e+002
5.877016e+002, 2.536451e+002
5.881837e+002, 2.663219e+002
5.886658e+002, 2.801339e+002
5.891479e+002, 2.951154e+002
5.896301e+002, 3.106217e+002
5.901122e+002, 3.261942e+002
5.905943e+002, 3.420539e+002
5.910764e+002, 3.557440e+002
5.915585e+002, 3.680334e+002
5.920406e+002, 3.770224e+002
5.925228e+002, 3.830225e+002
5.930049e+002, 3.851401e+002
5.934870e+002, 3.822227e+002
5.939691e+002, 3.739902e+002
5.944512e+002, 3.614925e+002
5.949333e+002, 3.447233e+002
5.954155e+002, 3.242851e+002
5.958976e+002, 3.026068e+002
5.963797e+002, 2.794945e+002
5.968618e+002, 2.566624e+002
5.973439e+002, 2.346653e+002
5.978260e+002, 2.139948e+002
5.983082e+002, 1.955938e+002
5.987903e+002, 1.797262e+002
5.992724e+002, 1.654671e+002
5.997545e+002, 1.524941e+002
6.002366e+002, 1.409874e+002
6.007188e+002, 1.314886e+002
6.012009e+002, 1.238291e+002
6.016830e+002, 1.171778e+002
6.021651e+002, 1.109632e+002
6.026472e+002, 1.052364e+002
6.031293e+002, 1.001841e+002
6.036115e+002, 9.582372e+001
6.040936e+002, 9.215443e+001
6.045757e+002, 8.935979e+001
6.050578e+002, 8.701797e+001
6.055399e+002, 8.499049e+001
6.060220e+002, 8.320579e+001
6.065042e+002, 8.149989e+001
6.069863e+002, 7.970945e+001
6.074684e+002, 7.807881e+001
6.079505e+002, 7.703702e+001
6.084326e+002, 7.657420e+001
6.089147e+002, 7.634702e+001
6.093969e+002, 7.634396e+001
6.098790e+002, 7.640157e+001
6.103611e+002, 7.618185e+001
6.108432e+002, 7.574085e+001
6.113253e+002, 7.594314e+001
6.118074e+002, 7.743252e+001
6.122896e+002, 7.901054e+001
6.127717e+002, 8.008260e+001
6.132538e+002, 8.080542e+001
6.137359e+002, 8.138210e+001
6.142180e+002, 8.190195e+001
6.147001e+002, 8.255235e+001
6.151823e+002, 8.356519e+001
6.156644e+002, 8.495149e+001
6.161465e+002, 8.648685e+001
6.166286e+002, 8.835622e+001
6.171107e+002, 9.010903e+001
6.175928e+002, 9.140093e+001
6.180750e+002, 9.264823e+001
6.185571e+002, 9.428067e+001
6.190392e+002, 9.637448e+001
6.195213e+002, 9.870732e+001
6.200034e+002, 1.010881e+002
6.204855e+002, 1.035888e+002
6.209677e+002, 1.064765e+002
6.214498e+002, 1.097702e+002
6.219319e+002, 1.129664e+002
6.224140e+002, 1.156573e+002
6.228961e+002, 1.182642e+002
6.233782e+002, 1.217689e+002
6.238604e+002, 1.263530e+002
6.243425e+002, 1.311136e+002
6.248246e+002, 1.362044e+002
6.253067e+002, 1.411862e+002
6.257888e+002, 1.458311e+002
6.262709e+002, 1.501162e+002
6.267531e+002, 1.541874e+002
6.272352e+002, 1.580989e+002
6.277173e+002, 1.616707e+002
6.281994e+002, 1.646847e+002
6.286815e+002, 1.673001e+002
6.291636e+002, 1.685146e+002
6.296458e+002, 1.681475e+002
6.301279e+002, 1.664219e+002
6.306100e+002, 1.633443e+002
6.310921e+002, 1.591747e+002
6.315742e+002, 1.542519e+002
6.320563e+002, 1.484005e+002
6.325385e+002, 1.425950e+002
6.330206e+002, 1.376186e+002
6.335027e+002, 1.331754e+002
6.339848e+002, 1.287304e+002
6.344669e+002, 1.241984e+002
6.349490e+002, 1.194389e+002
6.354312e+002, 1.142593e+002
6.359133e+002, 1.088028e+002
6.363954e+002, 1.036800e+002
6.368775e+002, 9.898608e+001
6.373596e+002, 9.456944e+001
6.378417e+002, 9.053437e+001
6.383239e+002, 8.670985e+001
6.388060e+002, 8.291569e+001
6.392881e+002, 7.921301e+001
6.397702e+002, 7.582689e+001
6.402523e+002, 7.287714e+001
6.407344e+002, 7.035097e+001
6.412166e+002, 6.831799e+001
6.416987e+002, 6.678594e+001
6.421808e+002, 6.543155e+001
6.426629e+002, 6.427455e+001
6.431450e+002, 6.313268e+001
6.436271e+002, 6.170477e+001
6.441093e+002, 6.011877e+001
6.445914e+002, 5.891676e+001
6.450735e+002, 5.849434e+001
6.455556e+002, 5.810925e+001
6.460377e+002, 5.737105e+001
6.465198e+002, 5.647736e+001
6.470020e+002, 5.569695e+001
6.474841e+002, 5.508952e+001
6.479662e+002, 5.458116e+001
6.484483e+002, 5.409870e+001
6.489304e+002, 5.366362e+001
6.494125e+002, 5.344067e+001
6.498947e+002, 5.365009e+001
6.503768e+002, 5.365710e+001
6.508589e+002, 5.312937e+001
6.513410e+002, 5.254985e+001
6.518231e+002, 5.226174e+001
6.523052e+002, 5.224842e+001
6.527874e+002, 5.228030e+001
6.532695e+002, 5.227765e+001
6.537516e+002, 5.222963e+001
6.542337e+002, 5.212333e+001
6.547158e+002, 5.195976e+001
6.551979e+002, 5.171090e+001
6.556801e+002, 5.134649e+001
6.561622e+002, 5.102921e+001
6.566443e+002, 5.095419e+001
6.571264e+002, 5.113722e+001
6.576085e+002, 5.126948e+001
6.580906e+002, 5.143875e+001
6.585728e+002, 5.145720e+001
6.590549e+002, 5.106166e+001
6.595370e+002, 5.062498e+001
6.600191e+002, 5.064082e+001
6.605012e+002, 5.110207e+001
6.609833e+002, 5.147014e+001
6.614655e+002, 5.126768e+001
6.619476e+002, 5.065749e+001
6.624297e+002, 5.007088e+001
6.629118e+002, 4.947135e+001
6.633939e+002, 4.921661e+001
6.638760e+002, 4.958037e+001
6.643582e+002, 5.014238e+001
6.648403e+002, 5.038066e+001
6.653224e+002, 5.032497e+001
6.658045e+002, 5.034598e+001
6.662866e+002, 5.065505e+001
6.667687e+002, 5.089553e+001
6.672509e+002, 5.082351e+001
6.677330e+002, 5.056396e+001
6.682151e+002, 5.028127e+001
6.686972e+002, 5.003762e+001
6.691793e+002, 4.990864e+001
6.696614e+002, 5.000356e+001
6.701436e+002, 5.029815e+001
6.706257e+002, 5.044937e+001
6.711078e+002, 5.046320e+001
6.715899e+002, 5.032133e+001
6.720720e+002, 4.976811e+001
6.725541e+002, 4.923062e+001
6.730363e+002, 4.904270e+001
6.735184e+002, 4.921169e+001
6.740005e+002, 4.954944e+001
6.744826e+002, 5.014743e+001
6.749647e+002, 5.074302e+001
6.754468e+002, 5.109712e+001
6.759290e+002, 5.123204e+001
6.764111e+002, 5.118402e+001
6.768932e+002, 5.096102e+001
6.773753e+002, 5.069659e+001
6.778574e+002, 5.053996e+001
6.783395e+002, 5.049226e+001
6.788217e+002, 5.052889e+001
6.793038e+002, 5.083393e+001
6.797859e+002, 5.098483e+001
6.802680e+002, 5.088476e+001
6.807501e+002, 5.061952e+001
6.812322e+002, 5.011662e+001
6.817144e+002, 4.946424e+001
6.821965e+002, 4.910159e+001
6.826786e+002, 4.954588e+001
6.831607e+002, 5.029863e+001
6.836428e+002, 5.043468e+001
6.841249e+002, 5.004322e+001
6.846071e+002, 4.994256e+001
6.850892e+002, 5.044762e+001
6.855713e+002, 5.107201e+001
6.860534e+002, 5.125826e+001
6.865355e+002, 5.097597e+001
6.870176e+002, 5.073604e+001
6.874998e+002, 5.050898e+001
6.879819e+002, 5.035653e+001
6.884640e+002, 5.038108e+001
6.889461e+002, 5.043328e+001
6.894282e+002, 5.033092e+001
6.899103e+002, 5.007767e+001
6.903925e+002, 4.985262e+001
6.908746e+002, 4.981500e+001
6.913567e+002, 4.987818e+001
6.918388e+002, 4.981713e+001
6.923209e+002, 4.962538e+001
6.928030e+002, 4.949040e+001
6.932852e+002, 4.948956e+001
6.937673e+002, 4.950980e+001
6.942494e+002, 4.944701e+001
6.947315e+002, 4.930054e+001
6.952136e+002, 4.909331e+001
6.956957e+002, 4.865560e+001
6.961779e+002, 4.836282e+001
6.966600e+002, 4.842176e+001
6.971421e+002, 4.864626e+001
6.976242e+002, 4.891123e+001
6.981063e+002, 4.914301e+001
6.985884e+002, 4.917226e+001
6.990706e+002, 4.880573e+001
6.995527e+002, 4.825554e+001
7.000348e+002, 4.824112e+001
7.005169e+002, 4.890495e+001
7.009990e+002, 4.915017e+001
7.014811e+002, 4.852844e+001
7.019633e+002, 4.776278e+001
7.024454e+002, 4.748580e+001
7.029275e+002, 4.757228e+001
7.034096e+002, 4.761576e+001
7.038917e+002, 4.749859e+001
7.043738e+002, 4.741908e+001
7.048560e+002, 4.755343e+001
7.053381e+002, 4.771669e+001
7.058202e+002, 4.768827e+001
7.063023e+002, 4.745177e+001
7.067844e+002, 4.707291e+001
7.072665e+002, 4.656372e+001
7.077487e+002, 4.606475e+001
7.082308e+002, 4.602678e+001
7.087129e+002, 4.657142e+001
7.091950e+002, 4.700867e+001
7.096771e+002, 4.721616e+001
7.101592e+002, 4.735536e+001
7.106414e+002, 4.755702e+001
7.111235e+002, 4.776432e+001
7.116056e+002, 4.784876e+001
7.120877e+002, 4.776494e+001
7.125698e+002, 4.761482e+001
7.130519e+002, 4.740939e+001
7.135341e+002, 4.718867e+001
7.140162e+002, 4.699614e+001
7.144983e+002, 4.683601e+001
7.149804e+002, 4.668673e+001
7.154625e+002, 4.653157e+001
7.159446e+002, 4.640956e+001
7.164268e+002, 4.641577e+001
7.169089e+002, 4.658414e+001
7.173910e+002, 4.673544e+001
7.178731e+002, 4.692036e+001
7.183552e+002, 4.700869e+001
7.188373e+002, 4.678454e+001
7.193195e+002, 4.649380e+001
7.198016e+002, 4.657076e+001
7.202837e+002, 4.717077e+001
7.207658e+002, 4.758149e+001
7.212479e+002, 4.722495e+001
7.217300e+002, 4.667649e+001
7.222122e+002, 4.661292e+001
7.226943e+002, 4.693690e+001
7.231764e+002, 4.715510e+001
7.236585e+002, 4.705121e+001
7.241406e+002, 4.682260e+001
7.246227e+002, 4.678196e+001
7.251049e+002, 4.695895e+001
7.255870e+002, 4.703363e+001
7.260691e+002, 4.692445e+001
7.265512e+002, 4.684427e+001
7.270333e+002, 4.691080e+001
7.275154e+002, 4.701223e+001
7.279976e+002, 4.703934e+001
7.284797e+002, 4.698277e+001
7.289618e+002, 4.689495e+001
7.294439e+002, 4.664210e+001
7.299260e+002, 4.650112e+001
7.304081e+002, 4.688462e+001
7.308903e+002, 4.756096e+001
7.313724e+002, 4.793533e+001
7.318545e+002, 4.784725e+001
7.323366e+002, 4.764797e+001
7.328187e+002, 4.771566e+001
7.333008e+002, 4.802191e+001
7.337830e+002, 4.822143e+001
7.342651e+002, 4.828920e+001
7.347472e+002, 4.830323e+001
7.352293e+002, 4.814421e+001
7.357114e+002, 4.805125e+001
7.361935e+002, 4.827488e+001
7.366757e+002, 4.873738e+001
7.371578e+002, 4.907707e+001
7.376399e+002, 4.916289e+001
7.381220e+002, 4.912181e+001
7.386041e+002, 4.900798e+001
7.390862e+002, 4.883424e+001
7.395684e+002, 4.852126e+001
7.400505e+002, 4.811941e+001
7.405326e+002, 4.800999e+001
7.410147e+002, 4.853393e+001
7.414968e+002, 4.936652e+001
7.419789e+002, 4.941950e+001
7.424611e+002, 4.836204e+001
7.429432e+002, 4.776203e+001
7.434253e+002, 4.809103e+001
7.439074e+002, 4.849630e+001
7.443895e+002, 4.851707e+001
7.448716e+002, 4.827121e+001
7.453538e+002, 4.793553e+001
7.458359e+002, 4.746763e+001
7.463180e+002, 4.714054e+001
7.468001e+002, 4.723008e+001
7.472822e+002, 4.741150e+001
7.477643e+002, 4.733577e+001
7.482465e+002, 4.704256e+001
7.487286e+002, 4.670361e+001
7.492107e+002, 4.639776e+001
7.496928e+002, 4.622935e+001
7.501749e+002, 4.644390e+001
7.506570e+002, 4.707652e+001
7.511392e+002, 4.733813e+001
7.516213e+002, 4.711793e+001
7.521034e+002, 4.677949e+001
7.525855e+002, 4.643917e+001
7.530676e+002, 4.606676e+001
7.535497e+002, 4.556960e+001
7.540319e+002, 4.493876e+001
7.545140e+002, 4.451686e+001
7.549961e+002, 4.444410e+001
7.554782e+002, 4.454194e+001
7.559603e+002, 4.484029e+001
7.564424e+002, 4.518396e+001
7.569246e+002, 4.531722e+001
7.574067e+002, 4.520852e+001
7.578888e+002, 4.506314e+001
7.583709e+002, 4.505830e+001
7.588530e+002, 4.515145e+001
7.593351e+002, 4.520139e+001
7.598173e+002, 4.520490e+001
7.602994e+002, 4.519670e+001
7.607815e+002, 4.519984e+001
7.612636e+002, 4.516456e+001
7.617457e+002, 4.503479e+001
7.622278e+002, 4.482716e+001
7.627100e+002, 4.462617e+001
7.631921e+002, 4.440685e+001
7.636742e+002, 4.423728e+001
7.641563e+002, 4.409410e+001
7.646384e+002, 4.404004e+001
7.651205e+002, 4.424137e+001
7.656027e+002, 4.457070e+001
7.660848e+002, 4.466404e+001
7.665669e+002, 4.433976e+001
7.670490e+002, 4.393507e+001
7.675311e+002, 4.395962e+001
7.680132e+002, 4.431697e+001
7.684954e+002, 4.443651e+001
7.689775e+002, 4.425457e+001
7.694596e+002, 4.409712e+001
7.699417e+002, 4.413857e+001
7.704238e+002, 4.426583e+001
7.709059e+002, 4.427692e+001
7.713881e+002, 4.413052e+001
7.718702e+002, 4.402995e+001
7.723523e+002, 4.391312e+001
7.728344e+002, 4.391250e+001
7.733165e+002, 4.416412e+001
7.737986e+002, 4.450263e+001
7.742808e+002, 4.481701e+001
7.747629e+002, 4.504830e+001
7.752450e+002, 4.503806e+001
7.757271e+002, 4.444287e+001
7.762092e+002, 4.377529e+001
7.766913e+002, 4.393719e+001
7.771735e+002, 4.472284e+001
7.776556e+002, 4.531744e+001
7.781377e+002, 4.553926e+001
7.786198e+002, 4.544599e+001
7.791019e+002, 4.501968e+001
7.795840e+002, 4.436766e+001
7.800662e+002, 4.404054e+001
7.805483e+002, 4.407788e+001
7.810304e+002, 4.437376e+001
7.815125e+002, 4.551653e+001
7.819946e+002, 4.630957e+001
7.824767e+002, 4.584228e+001
7.829589e+002, 4.468800e+001
7.834410e+002, 4.394413e+001
7.839231e+002, 4.390432e+001
7.844052e+002, 4.413948e+001
7.848873e+002, 4.458674e+001
7.853694e+002, 4.503768e+001
7.858516e+002, 4.521213e+001
7.863337e+002, 4.515061e+001
7.868158e+002, 4.504088e+001
7.872979e+002, 4.495871e+001
7.877800e+002, 4.487009e+001
7.882621e+002, 4.471471e+001
7.887443e+002, 4.449834e+001
7.892264e+002, 4.437112e+001
7.897085e+002, 4.432979e+001
7.901906e+002, 4.440392e+001
7.906727e+002, 4.480351e+001
7.911548e+002, 4.512679e+001
7.916370e+002, 4.479923e+001
7.921191e+002, 4.395025e+001
7.926012e+002, 4.352314e+001
7.930833e+002, 4.407323e+001
7.935654e+002, 4.454511e+001
7.940475e+002, 4.443116e+001
7.945297e+002, 4.412153e+001
7.950118e+002, 4.399276e+001
7.954939e+002, 4.406252e+001
7.959760e+002, 4.420057e+001
7.964581e+002, 4.434779e+001
7.969402e+002, 4.444510e+001
7.974224e+002, 4.430854e+001
7.979045e+002, 4.400605e+001
7.983866e+002, 4.404541e+001
7.988687e+002, 4.450161e+001
7.993508e+002, 4.501783e+001
7.998329e+002, 4.548120e+001
8.003151e+002, 4.578789e+001
8.007972e+002, 4.570190e+001
8.012793e+002, 4.507232e+001
8.017614e+002, 4.464283e+001
8.022435e+002, 4.457067e+001
8.027256e+002, 4.448523e+001
8.032078e+002, 4.418842e+001
8.036899e+002, 4.388473e+001
8.041720e+002, 4.378114e+001
8.046541e+002, 4.389631e+001
8.051362e+002, 4.413624e+001
8.056183e+002, 4.455406e+001
8.061005e+002, 4.495337e+001
8.065826e+002, 4.509805e+001
8.070647e+002, 4.507296e+001
8.075468e+002, 4.504260e+001
8.080289e+002, 4.504497e+001
8.085110e+002, 4.512932e+001
8.089932e+002, 4.535334e+001
8.094753e+002, 4.560796e+001
8.099574e+002, 4.557236e+001
8.104395e+002, 4.515918e+001
8.109216e+002, 4.484576e+001
8.114037e+002, 4.467473e+001
8.118859e+002, 4.457475e+001
8.123680e+002, 4.457518e+001
8.128501e+002, 4.459591e+001
8.133322e+002, 4.450187e+001
8.138143e+002, 4.426477e+001
8.142964e+002, 4.408249e+001
8.147786e+002, 4.388014e+001
8.152607e+002, 4.387177e+001
8.157428e+002, 4.442971e+001
8.162249e+002, 4.514283e+001
8.167070e+002, 4.534135e+001
8.171891e+002, 4.497978e+001
8.176713e+002, 4.465191e+001
8.181534e+002, 4.485776e+001
8.186355e+002, 4.530271e+001
8.191176e+002, 4.538319e+001
8.195997e+002, 4.515037e+001
8.200818e+002, 4.503984e+001
8.205640e+002, 4.514709e+001
8.210461e+002, 4.518979e+001
8.215282e+002, 4.493081e+001
8.220103e+002, 4.450367e+001
8.224924e+002, 4.432994e+001
8.229745e+002, 4.460065e+001
8.234567e+002, 4.469603e+001
8.239388e+002, 4.442945e+001
8.244209e+002, 4.420286e+001
8.249030e+002, 4.412542e+001
8.253851e+002, 4.418611e+001
8.258672e+002, 4.446096e+001
8.263494e+002, 4.494705e+001
8.268315e+002, 4.519968e+001
8.273136e+002, 4.478598e+001
8.277957e+002, 4.426898e+001
8.282778e+002, 4.407943e+001
8.287599e+002, 4.414695e+001
8.292421e+002, 4.442149e+001
8.297242e+002, 4.483274e+001
8.302063e+002, 4.510387e+001
8.306884e+002, 4.500837e+001
8.311705e+002, 4.467359e+001
8.316526e+002, 4.437132e+001
8.321348e+002, 4.409841e+001
8.326169e+002, 4.400273e+001
8.330990e+002, 4.413971e+001
8.335811e+002, 4.434747e+001
8.340632e+002, 4.461510e+001
8.345453e+002, 4.482663e+001
8.350275e+002, 4.466819e+001
8.355096e+002, 4.386826e+001
8.359917e+002, 4.352494e+001
8.364738e+002, 4.413878e+001
8.369559e+002, 4.462564e+001
8.374380e+002, 4.439434e+001
8.379202e+002, 4.394530e+001
8.384023e+002, 4.391509e+001
8.388844e+002, 4.432249e+001
8.393665e+002, 4.461830e+001
8.398486e+002, 4.439613e+001
8.403307e+002, 4.407404e+001
8.408129e+002, 4.410145e+001
8.412950e+002, 4.433347e+001
8.417771e+002, 4.450177e+001
8.422592e+002, 4.456194e+001
8.427413e+002, 4.455299e+001
8.432234e+002, 4.449627e+001
8.437056e+002, 4.440330e+001
8.441877e+002, 4.426291e+001
8.446698e+002, 4.405744e+001
8.451519e+002, 4.407196e+001
8.456340e+002, 4.444182e+001
8.461161e+002, 4.464750e+001
8.465983e+002, 4.429076e+001
8.470804e+002, 4.382803e+001
8.475625e+002, 4.401290e+001
8.480446e+002, 4.490603e+001
8.485267e+002, 4.539630e+001
8.490089e+002, 4.518834e+001
8.494910e+002, 4.489505e+001
8.499731e+002, 4.458558e+001
8.504552e+002, 4.434127e+001
8.509373e+002, 4.430272e+001
8.514194e+002, 4.439275e+001
8.519016e+002, 4.430621e+001
8.523837e+002, 4.380601e+001
8.528658e+002, 4.347906e+001
8.533479e+002, 4.415310e+001
8.538300e+002, 4.523073e+001
8.543121e+002, 4.561866e+001
8.547943e+002, 4.535012e+001
8.552764e+002, 4.501748e+001
8.557585e+002, 4.487613e+001
8.562406e+002, 4.473635e+001
8.567227e+002, 4.429862e+001
8.572048e+002, 4.360789e+001
8.576870e+002, 4.324497e+001
8.581691e+002, 4.326142e+001
8.586512e+002, 4.344487e+001
8.591333e+002, 4.389737e+001
8.596154e+002, 4.425254e+001
8.600975e+002, 4.408126e+001
8.605797e+002, 4.350793e+001
8.610618e+002, 4.324437e+001
8.615439e+002, 4.341587e+001
8.620260e+002, 4.367881e+001
8.625081e+002, 4.412028e+001
8.629902e+002, 4.452086e+001
8.634724e+002, 4.482990e+001
8.639545e+002, 4.497816e+001
8.644366e+002, 4.478130e+001
8.649187e+002, 4.420945e+001
8.654008e+002, 4.376176e+001
8.658829e+002, 4.394999e+001
8.663651e+002, 4.428801e+001
8.668472e+002, 4.417692e+001
8.673293e+002, 4.377165e+001
8.678114e+002, 4.345868e+001
8.682935e+002, 4.331916e+001
8.687756e+002, 4.320923e+001
8.692578e+002, 4.301174e+001
8.697399e+002, 4.279366e+001
8.702220e+002, 4.272124e+001
8.707041e+002, 4.279784e+001
8.711862e+002, 4.298888e+001
8.716683e+002, 4.335065e+001
8.721505e+002, 4.359135e+001
8.726326e+002, 4.347626e+001
8.731147e+002, 4.325384e+001
8.735968e+002, 4.340780e+001
8.740789e+002, 4.409624e+001
8.745610e+002, 4.429845e+001
8.750432e+002, 4.348739e+001
8.755253e+002, 4.290519e+001
8.760074e+002, 4.299147e+001
8.764895e+002, 4.328996e+001
8.769716e+002, 4.347953e+001
8.774537e+002, 4.352745e+001
8.779359e+002, 4.345810e+001
8.784180e+002, 4.323088e+001
8.789001e+002, 4.300873e+001
8.793822e+002, 4.287267e+001
8.798643e+002, 4.280793e+001
8.803464e+002, 4.279725e+001
8.808286e+002, 4.284235e+001
8.813107e+002, 4.298935e+001
8.817928e+002, 4.324287e+001
8.822749e+002, 4.345098e+001
8.827570e+002, 4.343606e+001
8.832391e+002, 4.325249e+001
8.837213e+002, 4.304486e+001
8.842034e+002, 4.281750e+001
8.846855e+002, 4.263357e+001
8.851676e+002, 4.250069e+001
8.856497e+002, 4.248729e+001
8.861318e+002, 4.269054e+001
8.866140e+002, 4.300403e+001
8.870961e+002, 4.304822e+001
8.875782e+002, 4.268000e+001
8.880603e+002, 4.241271e+001
8.885424e+002, 4.236372e+001
8.890245e+002, 4.225728e+001
8.895067e+002, 4.185893e+001
8.899888e+002, 4.141909e+001
8.904709e+002, 4.122401e+001
8.909530e+002, 4.128419e+001
8.914351e+002, 4.144716e+001
8.919172e+002, 4.176575e+001
8.923994e+002, 4.207706e+001
8.928815e+002, 4.244038e+001
8.933636e+002, 4.267091e+001
8.938457e+002, 4.244627e+001
8.943278e+002, 4.193087e+001
8.948099e+002, 4.164513e+001
8.952921e+002, 4.183254e+001
8.957742e+002, 4.210744e+001
8.962563e+002, 4.211441e+001
8.967384e+002, 4.196171e+001
8.972205e+002, 4.176362e+001
8.977026e+002, 4.157092e+001
8.981848e+002, 4.157632e+001
8.986669e+002, 4.183047e+001
8.991490e+002, 4.211389e+001
8.996311e+002, 4.221555e+001
9.001132e+002, 4.217326e+001
9.005953e+002, 4.213696e+001
9.010775e+002, 4.211483e+001
9.015596e+002, 4.198392e+001
9.020417e+002, 4.167957e+001
9.025238e+002, 4.141663e+001
9.030059e+002, 4.130207e+001
9.034880e+002, 4.133384e+001
9.039702e+002, 4.154871e+001
9.044523e+002, 4.206217e+001
9.049344e+002, 4.228789e+001
9.054165e+002, 4.182457e+001
9.058986e+002, 4.159288e+001
9.063807e+002, 4.213880e+001
9.068629e+002, 4.272696e+001
9.073450e+002, 4.257589e+001
9.078271e+002, 4.186409e+001
9.083092e+002, 4.148090e+001
9.087913e+002, 4.185255e+001
9.092734e+002, 4.216349e+001
9.097556e+002, 4.190910e+001
9.102377e+002, 4.155919e+001
9.107198e+002, 4.154513e+001
9.112019e+002, 4.176244e+001
9.116840e+002, 4.193290e+001
9.121661e+002, 4.197913e+001
9.126483e+002, 4.205132e+001
9.131304e+002, 4.236522e+001
9.136125e+002, 4.270113e+001
9.140946e+002, 4.261683e+001
9.145767e+002, 4.225042e+001
9.150588e+002, 4.205561e+001
9.155410e+002, 4.209925e+001
9.160231e+002, 4.218592e+001
9.165052e+002, 4.219304e+001
9.169873e+002, 4.216630e+001
9.174694e+002, 4.224035e+001
9.179515e+002, 4.242767e+001
9.184337e+002, 4.226986e+001
9.189158e+002, 4.161858e+001
9.193979e+002, 4.134254e+001
9.198800e+002, 4.190710e+001
9.203621e+002, 4.261862e+001
9.208442e+002, 4.271958e+001
9.213264e+002, 4.227451e+001
9.218085e+002, 4.196905e+001
9.222906e+002, 4.192202e+001
9.227727e+002, 4.181936e+001
9.232548e+002, 4.150042e+001
9.237369e+002, 4.128506e+001
9.242191e+002, 4.140823e+001
9.247012e+002, 4.169292e+001
9.251833e+002, 4.189032e+001
9.256654e+002, 4.197260e+001
9.261475e+002, 4.195809e+001
9.266296e+002, 4.177081e+001
9.271118e+002, 4.158315e+001
9.275939e+002, 4.145766e+001
9.280760e+002, 4.139402e+001
9.285581e+002, 4.143523e+001
9.290402e+002, 4.153578e+001
9.295223e+002, 4.153731e+001
9.300045e+002, 4.134609e+001
9.304866e+002, 4.120564e+001
9.309687e+002, 4.144402e+001
9.314508e+002, 4.181032e+001
9.319329e+002, 4.191659e+001
9.324150e+002, 4.179817e+001
9.328972e+002, 4.158810e+001
9.333793e+002, 4.134152e+001
9.338614e+002, 4.116821e+001
9.343435e+002, 4.119246e+001
9.348256e+002, 4.129380e+001
9.353077e+002, 4.108994e+001
9.357899e+002, 4.062007e+001
9.362720e+002, 4.051977e+001
9.367541e+002, 4.089117e+001
9.372362e+002, 4.124583e+001
9.377183e+002, 4.136242e+001
9.382004e+002, 4.127117e+001
9.386826e+002, 4.097121e+001
9.391647e+002, 4.045223e+001
9.396468e+002, 4.019326e+001
9.401289e+002, 4.023199e+001
9.406110e+002, 4.046123e+001
9.410931e+002, 4.111149e+001
9.415753e+002, 4.162070e+001
9.420574e+002, 4.153984e+001
9.425395e+002, 4.102654e+001
9.430216e+002, 4.046511e+001
9.435037e+002, 3.969867e+001
9.439858e+002, 3.937058e+001
9.444680e+002, 3.995291e+001
9.449501e+002, 4.046981e+001
9.454322e+002, 4.051930e+001
9.459143e+002, 4.035370e+001
9.463964e+002, 4.019576e+001
9.468785e+002, 4.007998e+001
9.473607e+002, 4.000436e+001
9.478428e+002, 3.994630e+001
9.483249e+002, 3.997364e+001
9.488070e+002, 4.017942e+001
9.492891e+002, 4.043856e+001
9.497712e+002, 4.071070e+001
9.502534e+002, 4.091846e+001
9.507355e+002, 4.087934e+001
9.512176e+002, 4.057872e+001
9.516997e+002, 4.028888e+001
9.521818e+002, 4.017517e+001
9.526639e+002, 4.023617e+001
9.531461e+002, 4.062712e+001
9.536282e+002, 4.115103e+001
9.541103e+002, 4.128562e+001
9.545924e+002, 4.103174e+001
9.550745e+002, 4.080914e+001
9.555566e+002, 4.082681e+001
9.560388e+002, 4.086220e+001
9.565209e+002, 4.053206e+001
9.570030e+002, 3.995929e+001
9.574851e+002, 3.980181e+001
9.579672e+002, 4.005756e+001
9.584493e+002, 4.043462e+001
9.589315e+002, 4.090805e+001
9.594136e+002, 4.114595e+001
9.598957e+002, 4.084315e+001
9.603778e+002, 4.025639e+001
9.608599e+002, 4.006797e+001
9.613420e+002, 4.037381e+001
9.618242e+002, 4.059720e+001
9.623063e+002, 4.073354e+001
9.627884e+002, 4.078917e+001
9.632705e+002, 4.071393e+001
9.637526e+002, 4.062626e+001
9.642347e+002, 4.065872e+001
9.647169e+002, 4.079053e+001
9.651990e+002, 4.086900e+001
9.656811e+002, 4.088659e+001
9.661632e+002, 4.086031e+001
9.666453e+002, 4.063102e+001
9.671274e+002, 4.054054e+001
9.676096e+002, 4.099756e+001
9.680917e+002, 4.151918e+001
9.685738e+002, 4.137920e+001
9.690559e+002, 4.057679e+001
9.695380e+002, 4.003639e+001
9.700201e+002, 4.006950e+001
9.705023e+002, 4.027655e+001
9.709844e+002, 4.058886e+001
9.714665e+002, 4.095240e+001
9.719486e+002, 4.147893e+001
9.724307e+002, 4.197853e+001
9.729128e+002, 4.207264e+001
9.733950e+002, 4.166830e+001
9.738771e+002, 4.113862e+001
9.743592e+002, 4.035664e+001
9.748413e+002, 3.989101e+001
9.753234e+002, 4.058203e+001
9.758055e+002, 4.172071e+001
9.762877e+002, 4.230037e+001
9.767698e+002, 4.226348e+001
9.772519e+002, 4.193333e+001
9.777340e+002, 4.144714e+001
9.782161e+002, 4.108319e+001
9.786982e+002, 4.122920e+001
9.791804e+002, 4.165867e+001
9.796625e+002, 4.210201e+001
9.801446e+002, 4.244276e+001
9.806267e+002, 4.214933e+001
9.811088e+002, 4.120903e+001
9.815909e+002, 4.049687e+001
9.820731e+002, 4.062862e+001
9.825552e+002, 4.124441e+001
9.830373e+002, 4.177059e+001
9.835194e+002, 4.220285e+001
9.840015e+002, 4.246539e+001
9.844836e+002, 4.255932e+001
9.849658e+002, 4.282539e+001
9.854479e+002, 4.339988e+001
9.859300e+002, 4.389685e+001
9.864121e+002, 4.393198e+001
9.868942e+002, 4.365092e+001
9.873763e+002, 4.359459e+001
9.878585e+002, 4.381217e+001
9.883406e+002, 4.392485e+001
9.888227e+002, 4.388490e+001
9.893048e+002, 4.381959e+001
9.897869e+002, 4.371339e+001
9.902690e+002, 4.373452e+001
9.907512e+002, 4.413496e+001
9.912333e+002, 4.487273e+001
9.917154e+002, 4.541426e+001
9.921975e+002, 4.573211e+001
9.926796e+002, 4.589676e+001
9.931617e+002, 4.567760e+001
9.936439e+002, 4.563123e+001
9.941260e+002, 4.610044e+001
9.946081e+002, 4.685070e+001
9.950902e+002, 4.755834e+001
9.955723e+002, 4.821961e+001
9.960544e+002, 4.894221e+001
9.965366e+002, 4.981239e+001
9.970187e+002, 5.063158e+001
9.975008e+002, 5.129298e+001
9.979829e+002, 5.197158e+001
9.984650e+002, 5.290803e+001
9.989471e+002, 5.388625e+001
9.994293e+002, 5.442226e+001
9.999114e+002, 5.442185e+001
1.000393e+003, 5.474582e+001
1.000876e+003, 5.557184e+001
1.001358e+003, 5.684053e+001
1.001840e+003, 5.877126e+001
1.002322e+003, 6.091822e+001
1.002804e+003, 6.270481e+001
1.003286e+003, 6.442802e+001
1.003768e+003, 6.685741e+001
1.004250e+003, 7.020910e+001
1.004733e+003, 7.396907e+001
1.005215e+003, 7.767196e+001
1.005697e+003, 8.186815e+001
1.006179e+003, 8.631657e+001
1.006661e+003, 9.190012e+001
1.007143e+003, 9.947637e+001
1.007625e+003, 1.092474e+002
1.008107e+003, 1.219664e+002
1.008589e+003, 1.381236e+002
1.009072e+003, 1.543802e+002
1.009554e+003, 1.684107e+002
1.010036e+003, 1.805015e+002
1.010518e+003, 1.902239e+002
1.011000e+003, 1.985620e+002
1.011482e+003, 2.074758e+002
1.011964e+003, 2.172073e+002
1.012446e+003, 2.266571e+002
1.012929e+003, 2.351416e+002
1.013411e+003, 2.447888e+002
1.013893e+003, 2.578029e+002
1.014375e+003, 2.739966e+002
1.014857e+003, 2.929742e+002
1.015339e+003, 3.148338e+002
1.015821e+003, 3.402461e+002
1.016303e+003, 3.692948e+002
1.016785e+003, 4.010963e+002
1.017268e+003, 4.346725e+002
1.017750e+003, 4.733761e+002
1.018232e+003, 5.231988e+002
1.018714e+003, 5.833240e+002
1.019196e+003, 6.541292e+002
1.019678e+003, 7.336828e+002
1.020160e+003, 8.140289e+002
1.020642e+003, 8.929588e+002
1.021125e+003, 9.466945e+002
1.021607e+003, 9.572336e+002
1.022089e+003, 9.277605e+002
1.022571e+003, 8.587327e+002
1.023053e+003, 7.516628e+002
1.023535e+003, 6.420140e+002
1.024017e+003, 5.303552e+002
1.024499e+003, 4.326997e+002
1.024981e+003, 3.537960e+002
1.025464e+003, 2.906930e+002
1.025946e+003, 2.418514e+002
1.026428e+003, 2.053367e+002
1.026910e+003, 1.757208e+002
1.027392e+003, 1.533106e+002
1.027874e+003, 1.351606e+002
1.028356e+003, 1.215156e+002
1.028838e+003, 1.106708e+002
1.029321e+003, 1.023823e+002
1.029803e+003, 9.574151e+001
1.030285e+003, 8.991679e+001
1.030767e+003, 8.484170e+001
1.031249e+003, 8.020647e+001
1.031731e+003, 7.592912e+001
1.032213e+003, 7.237772e+001
1.032695e+003, 6.969006e+001
1.033177e+003, 6.738660e+001
1.033660e+003, 6.536948e+001
1.034142e+003, 6.354630e+001
1.034624e+003, 6.173823e+001
1.035106e+003, 6.003253e+001
1.035588e+003, 5.911774e+001
1.036070e+003, 5.962768e+001
1.036552e+003, 5.936977e+001
1.037034e+003, 5.778138e+001
1.037516e+003, 5.632883e+001
1.037999e+003, 5.566587e+001
1.038481e+003, 5.527894e+001
1.038963e+003, 5.458439e+001
1.039445e+003, 5.365310e+001
1.039927e+003, 5.303981e+001
1.040409e+003, 5.296893e+001
1.040891e+003, 5.282267e+001
1.041373e+003, 5.271006e+001
1.041855e+003, 5.237989e+001
1.042338e+003, 5.150291e+001
1.042820e+003, 5.053950e+001
1.043302e+003, 5.000507e+001
1.043784e+003, 4.984087e+001
1.044266e+003, 4.955952e+001
1.044748e+003, 4.896267e+001
1.045230e+003, 4.856197e+001
1.045712e+003, 4.855428e+001
1.046195e+003, 4.854399e+001
1.046677e+003, 4.832906e+001
1.047159e+003, 4.806488e+001
1.047641e+003, 4.797327e+001
1.048123e+003, 4.801396e+001
1.048605e+003, 4.786401e+001
1.049087e+003, 4.728832e+001
1.049569e+003, 4.688452e+001
1.050052e+003, 4.695850e+001
1.050534e+003, 4.696245e+001
1.051016e+003, 4.651724e+001
1.051498e+003, 4.596185e+001
1.051980e+003, 4.564827e+001
1.052462e+003, 4.558702e+001
1.052944e+003, 4.567068e+001
1.053426e+003, 4.603120e+001
1.053908e+003, 4.622743e+001
1.054391e+003, 4.611000e+001
1.054873e+003, 4.586255e+001
1.055355e+003, 4.549323e+001
1.055837e+003, 4.510257e+001
1.056319e+003, 4.479589e+001
1.056801e+003, 4.457007e+001
1.057283e+003, 4.435139e+001
1.057765e+003, 4.410683e+001
1.058248e+003, 4.390968e+001
1.058730e+003, 4.361227e+001
1.059212e+003, 4.355978e+001
1.059694e+003, 4.438660e+001
1.060176e+003, 4.525501e+001
1.060658e+003, 4.503374e+001
1.061140e+003, 4.390719e+001
1.061622e+003, 4.305936e+001
1.062104e+003, 4.282941e+001
1.062587e+003, 4.284318e+001
1.063069e+003, 4.326192e+001
1.063551e+003, 4.355309e+001
1.064033e+003, 4.337029e+001
1.064515e+003, 4.291439e+001
1.064997e+003, 4.225940e+001
1.065479e+003, 4.156029e+001
1.065961e+003, 4.126918e+001
1.066443e+003, 4.165094e+001
1.066926e+003, 4.196150e+001
1.067408e+003, 4.186117e+001
1.067890e+003, 4.164341e+001
1.068372e+003, 4.135152e+001
1.068854e+003, 4.113236e+001
1.069336e+003, 4.118157e+001
1.069818e+003, 4.144415e+001
1.070300e+003, 4.172928e+001
1.070782e+003, 4.202918e+001
1.071265e+003, 4.211804e+001
1.071747e+003, 4.169567e+001
1.072229e+003, 4.126610e+001
1.072711e+003, 4.119236e+001
1.073193e+003, 4.122687e+001
1.073675e+003, 4.106496e+001
1.074157e+003, 4.076406e+001
1.074639e+003, 4.054933e+001
1.075122e+003, 4.047383e+001
1.075604e+003, 4.056578e+001
1.076086e+003, 4.102370e+001
1.076568e+003, 4.143264e+001
1.077050e+003, 4.155642e+001
1.077532e+003, 4.150335e+001
1.078014e+003, 4.134107e+001
1.078496e+003, 4.111438e+001
1.078979e+003, 4.084776e+001
1.079461e+003, 4.053540e+001
1.079943e+003, 4.041793e+001
1.080425e+003, 4.061232e+001
1.080907e+003, 4.102517e+001
1.081389e+003, 4.194856e+001
1.081871e+003, 4.277135e+001
1.082353e+003, 4.274705e+001
1.082835e+003, 4.220711e+001
1.083318e+003, 4.190306e+001
1.083800e+003, 4.200688e+001
1.084282e+003, 4.229474e+001
1.084764e+003, 4.296381e+001
1.085246e+003, 4.341888e+001
1.085728e+003, 4.323594e+001
1.086210e+003, 4.282922e+001
1.086692e+003, 4.246040e+001
1.087175e+003, 4.217742e+001
1.087657e+003, 4.206747e+001
1.088139e+003, 4.211967e+001
1.088621e+003, 4.200681e+001
1.089103e+003, 4.129836e+001
1.089585e+003, 4.082061e+001
1.090067e+003, 4.135694e+001
1.090549e+003, 4.183502e+001
1.091031e+003, 4.123446e+001
1.091514e+003, 4.012711e+001
1.091996e+003, 3.939864e+001
1.092478e+003, 3.915910e+001
1.092960e+003, 3.906776e+001
1.093442e+003, 3.903684e+001
1.093924e+003, 3.908911e+001
1.094406e+003, 3.932170e+001
1.094888e+003, 3.954499e+001
1.095370e+003, 3.976014e+001
1.095853e+003, 3.981233e+001
1.096335e+003, 3.929591e+001
1.096817e+003, 3.838539e+001
1.097299e+003, 3.806344e+001
1.097781e+003, 3.886878e+001
1.098263e+003, 3.955524e+001
1.098745e+003, 3.972488e+001
1.099227e+003, 3.968256e+001
1.099709e+003, 3.947152e+001
1.100192e+003, 3.921902e+001
1.100674e+003, 3.901425e+001
1.101156e+003, 3.888009e+001
1.101638e+003, 3.886422e+001
1.102120e+003, 3.901326e+001
1.102602e+003, 3.913498e+001
1.103084e+003, 3.899671e+001
1.103566e+003, 3.906062e+001
1.104049e+003, 3.992369e+001
1.104531e+003, 4.069430e+001
1.105013e+003, 4.042817e+001
1.105495e+003, 3.951312e+001
1.105977e+003, 3.893209e+001
1.106459e+003, 3.882736e+001
1.106941e+003, 3.887355e+001
1.107423e+003, 3.904805e+001
1.107906e+003, 3.932466e+001
1.108388e+003, 3.992805e+001
1.108870e+003, 4.039460e+001
1.109352e+003, 4.027685e+001
1.109834e+003, 3.987719e+001
1.110316e+003, 3.971902e+001
1.110798e+003, 3.983989e+001
1.111280e+003, 4.000546e+001
1.111762e+003, 4.032233e+001
1.112245e+003, 4.049555e+001
1.112727e+003, 4.026241e+001
1.113209e+003, 4.013943e+001
1.113691e+003, 4.050648e+001
1.114173e+003, 4.104036e+001
1.114655e+003, 4.133524e+001
1.115137e+003, 4.140477e+001
1.115619e+003, 4.147013e+001
1.116102e+003, 4.163509e+001
1.116584e+003, 4.160197e+001
1.117066e+003, 4.111277e+001
1.117548e+003, 4.080711e+001
1.118030e+003, 4.103963e+001
1.118512e+003, 4.139610e+001
1.118994e+003, 4.141676e+001
1.119476e+003, 4.124255e+001
1.119958e+003, 4.149013e+001
1.120441e+003, 4.246279e+001
1.120923e+003, 4.284246e+001
1.121405e+003, 4.221781e+001
1.121887e+003, 4.191973e+001
1.122369e+003, 4.242342e+001
1.122851e+003, 4.308700e+001
1.123333e+003, 4.343739e+001
1.123815e+003, 4.362114e+001
1.124297e+003, 4.395971e+001
1.124780e+003, 4.445904e+001
1.125262e+003, 4.505493e+001
1.125744e+003, 4.583909e+001
1.126226e+003, 4.630831e+001
1.126708e+003, 4.622646e+001
1.127190e+003, 4.635209e+001
1.127672e+003, 4.717701e+001
1.128154e+003, 4.823897e+001
1.128636e+003, 4.882206e+001
1.129119e+003, 4.902229e+001
1.129601e+003, 4.966705e+001
1.130083e+003, 5.080127e+001
1.130565e+003, 5.193400e+001
1.131047e+003, 5.301527e+001
1.131529e+003, 5.406060e+001
1.132011e+003, 5.506009e+001
1.132493e+003, 5.609947e+001
1.132976e+003, 5.726605e+001
1.133458e+003, 5.853729e+001
1.133940e+003, 5.987375e+001
1.134422e+003, 6.126958e+001
1.134904e+003, 6.257211e+001
1.135386e+003, 6.378782e+001
1.135868e+003, 6.522610e+001
1.136350e+003, 6.697020e+001
1.136833e+003, 6.889626e+001
1.137315e+003, 7.092619e+001
1.137797e+003, 7.309234e+001
1.138279e+003, 7.557211e+001
1.138761e+003, 7.820314e+001
1.139243e+003, 8.028580e+001
1.139725e+003, 8.198055e+001
1.140207e+003, 8.396331e+001
1.140689e+003, 8.634086e+001
1.141172e+003, 8.899204e+001
1.141654e+003, 9.186032e+001
1.142136e+003, 9.459030e+001
1.142618e+003, 9.672668e+001
1.143100e+003, 9.854812e+001
1.143582e+003, 1.004695e+002
1.144064e+003, 1.024520e+002
1.144546e+003, 1.044327e+002
1.145029e+003, 1.064024e+002
1.145511e+003, 1.083043e+002
1.145993e+003, 1.101618e+002
1.146475e+003, 1.122164e+002
1.146957e+003, 1.146945e+002
1.147439e+003, 1.172774e+002
1.147921e+003, 1.198252e+002
1.148403e+003, 1.221587e+002
1.148885e+003, 1.239952e+002
1.149368e+003, 1.254557e+002
1.149850e+003, 1.269125e+002
1.150332e+003, 1.282480e+002
1.150814e+003, 1.289140e+002
1.151296e+003, 1.287346e+002
1.151778e+003, 1.275151e+002
1.152260e+003, 1.249287e+002
1.152742e+003, 1.215171e+002
1.153224e+003, 1.171316e+002
1.153707e+003, 1.124975e+002
1.154189e+003, 1.083804e+002
1.154671e+003, 1.046170e+002
1.155153e+003, 1.007286e+002
1.155635e+003, 9.660506e+001
1.156117e+003, 9.225077e+001
1.156599e+003, 8.710009e+001
1.157081e+003, 8.252355e+001
1.157563e+003, 7.930956e+001
1.158046e+003, 7.640019e+001
1.158528e+003, 7.309510e+001
1.159010e+003, 6.975282e+001
1.159492e+003, 6.689641e+001
1.159974e+003, 6.451393e+001
1.160456e+003, 6.210236e+001
1.160938e+003, 5.920728e+001
1.161420e+003, 5.710393e+001
1.161903e+003, 5.646965e+001
1.162385e+003, 5.574089e+001
1.162867e+003, 5.444837e+001
1.163349e+003, 5.295543e+001
1.163831e+003, 5.137982e+001
1.164313e+003, 4.990086e+001
1.164795e+003, 4.902411e+001
1.165277e+003, 4.884145e+001
1.165760e+003, 4.845651e+001
1.166242e+003, 4.779809e+001
1.166724e+003, 4.715876e+001
1.167206e+003, 4.657766e+001
1.167688e+003, 4.604433e+001
1.168170e+003, 4.555062e+001
1.168652e+003, 4.512500e+001
1.169134e+003, 4.482660e+001
1.169616e+003, 4.461147e+001
1.170099e+003, 4.426307e+001
1.170581e+003, 4.377898e+001
1.171063e+003, 4.328234e+001
1.171545e+003, 4.277820e+001
1.172027e+003, 4.240037e+001
1.172509e+003, 4.218611e+001
1.172991e+003, 4.219643e+001
1.173473e+003, 4.251645e+001
1.173956e+003, 4.285646e+001
1.174438e+003, 4.262199e+001
1.174920e+003, 4.202253e+001
1.175402e+003, 4.171623e+001
1.175884e+003, 4.166132e+001
1.176366e+003, 4.176431e+001
1.176848e+003, 4.194646e+001
1.177330e+003, 4.195046e+001
1.177813e+003, 4.166859e+001
1.178295e+003, 4.123150e+001
1.178777e+003, 4.060899e+001
1.179259e+003, 4.010383e+001
1.179741e+003, 4.027247e+001
1.180223e+003, 4.067132e+001
1.180705e+003, 4.064289e+001
1.181187e+003, 4.032738e+001
1.181669e+003, 4.009753e+001
1.182151e+003, 4.003031e+001
1.182634e+003, 4.004250e+001
1.183116e+003, 4.012972e+001
1.183598e+003, 4.016519e+001
1.184080e+003, 4.001105e+001
1.184562e+003, 3.985353e+001
1.185044e+003, 3.975669e+001
1.185526e+003, 3.977013e+001
1.186008e+003, 4.006306e+001
1.186490e+003, 4.046942e+001
1.186973e+003, 4.055476e+001
1.187455e+003, 4.022157e+001
1.187937e+003, 4.007306e+001
1.188419e+003, 4.038618e+001
1.188901e+003, 4.065593e+001
1.189383e+003, 4.091750e+001
1.189865e+003, 4.095969e+001
1.190347e+003, 4.047072e+001
1.190830e+003, 3.986583e+001
1.191312e+003, 3.954451e+001
1.191794e+003, 3.949447e+001
1.192276e+003, 3.968676e+001
1.192758e+003, 4.030431e+001
1.193240e+003, 4.050727e+001
1.193722e+003, 4.010622e+001
1.194204e+003, 3.976085e+001
1.194687e+003, 3.939620e+001
1.195169e+003, 4.000892e+001
1.195651e+003, 4.259073e+001
1.196133e+003, 4.550362e+001
1.196615e+003, 4.606439e+001
1.197097e+003, 4.462493e+001
1.197579e+003, 4.312921e+001
1.198061e+003, 4.160388e+001
1.198543e+003, 4.075268e+001
1.199026e+003, 4.061199e+001
1.199508e+003, 4.078669e+001
1.199990e+003, 4.112772e+001
1.200472e+003, 4.150496e+001
1.200954e+003, 4.184433e+001
1.201436e+003, 4.200498e+001
1.201918e+003, 4.144783e+001
1.202400e+003, 4.074813e+001
1.202883e+003, 4.135584e+001
1.203365e+003, 4.267030e+001
1.203847e+003, 4.320071e+001
1.204329e+003, 4.294768e+001
1.204811e+003, 4.281164e+001
1.205293e+003, 4.312201e+001
1.205775e+003, 4.346835e+001
1.206257e+003, 4.355000e+001
1.206740e+003, 4.359576e+001
1.207222e+003, 4.374743e+001
1.207704e+003, 4.396155e+001
1.208186e+003, 4.414129e+001
1.208668e+003, 4.439161e+001
1.209150e+003, 4.492206e+001
1.209632e+003, 4.568927e+001
1.210114e+003, 4.642541e+001
1.210596e+003, 4.714773e+001
1.211078e+003, 4.757533e+001
1.211561e+003, 4.735732e+001
1.212043e+003, 4.725066e+001
1.212525e+003, 4.744056e+001
1.213007e+003, 4.786755e+001
1.213489e+003, 4.871284e+001
1.213971e+003, 4.959346e+001
1.214453e+003, 4.978417e+001
1.214935e+003, 4.935448e+001
1.215417e+003, 4.964854e+001
1.215900e+003, 5.092904e+001
1.216382e+003, 5.191289e+001
1.216864e+003, 5.245338e+001
1.217346e+003, 5.304380e+001
1.217828e+003, 5.386180e+001
1.218310e+003, 5.462370e+001
1.218792e+003, 5.509607e+001
1.219274e+003, 5.548101e+001
1.219757e+003, 5.622109e+001
1.220239e+003, 5.719630e+001
1.220721e+003, 5.781377e+001
1.221203e+003, 5.813849e+001
1.221685e+003, 5.837901e+001
1.222167e+003, 5.863656e+001
1.222649e+003, 5.934517e+001
1.223131e+003, 6.059937e+001
1.223614e+003, 6.168159e+001
1.224096e+003, 6.199868e+001
1.224578e+003, 6.206950e+001
1.225060e+003, 6.256116e+001
1.225542e+003, 6.304189e+001
1.226024e+003, 6.270034e+001
1.226506e+003, 6.216473e+001
1.226988e+003, 6.271694e+001
1.227470e+003, 6.397909e+001
1.227953e+003, 6.438845e+001
1.228435e+003, 6.348157e+001
1.228917e+003, 6.263410e+001
1.229399e+003, 6.236219e+001
1.229881e+003, 6.225269e+001
1.230363e+003, 6.256214e+001
1.230845e+003, 6.254422e+001
1.231327e+003, 6.135443e+001
1.231810e+003, 5.990168e+001
1.232292e+003, 5.936828e+001
1.232774e+003, 5.951019e+001
1.233256e+003, 5.933073e+001
1.233738e+003, 5.875985e+001
1.234220e+003, 5.815270e+001
1.234702e+003, 5.747578e+001
1.235184e+003, 5.688225e+001
1.235667e+003, 5.640675e+001
1.236149e+003, 5.600837e+001
1.236631e+003, 5.568196e+001
1.237113e+003, 5.536110e+001
1.237595e+003, 5.496173e+001
1.238077e+003, 5.451099e+001
1.238559e+003, 5.404151e+001
1.239041e+003, 5.358615e+001
1.239523e+003, 5.336193e+001
1.240005e+003, 5.331698e+001
1.240488e+003, 5.306688e+001
1.240970e+003, 5.262385e+001
1.241452e+003, 5.261641e+001
1.241934e+003, 5.336057e+001
1.242416e+003, 5.412321e+001
1.242898e+003, 5.400405e+001
1.243380e+003, 5.383653e+001
1.243862e+003, 5.463096e+001
1.244344e+003, 5.568679e+001
1.244827e+003, 5.618443e+001
1.245309e+003, 5.637318e+001
1.245791e+003, 5.673558e+001
1.246273e+003, 5.733206e+001
1.246755e+003, 5.803799e+001
1.247237e+003, 5.887524e+001
1.247719e+003, 5.963658e+001
1.248201e+003, 6.044404e+001
1.248684e+003, 6.093744e+001
1.249166e+003, 6.049336e+001
1.249648e+003, 6.031571e+001
1.250130e+003, 6.132235e+001
1.250612e+003, 6.273341e+001
1.251094e+003, 6.354321e+001
1.251576e+003, 6.381338e+001
1.252058e+003, 6.386548e+001
1.252541e+003, 6.361780e+001
1.253023e+003, 6.387083e+001
1.253505e+003, 6.472781e+001
1.253987e+003, 6.501863e+001
1.254469e+003, 6.446175e+001
1.254951e+003, 6.380055e+001
1.255433e+003, 6.345754e+001
1.255915e+003, 6.329852e+001
1.256397e+003, 6.323653e+001
1.256880e+003, 6.314158e+001
1.257362e+003, 6.264192e+001
1.257844e+003, 6.198549e+001
1.258326e+003, 6.179443e+001
1.258808e+003, 6.183365e+001
1.259290e+003, 6.140216e+001
1.259772e+003, 6.048050e+001
1.260254e+003, 5.962074e+001
1.260737e+003, 5.904736e+001
1.261219e+003, 5.855847e+001
1.261701e+003, 5.812704e+001
1.262183e+003, 5.764858e+001
1.262665e+003, 5.724713e+001
1.263147e+003, 5.659208e+001
1.263629e+003, 5.505912e+001
1.264111e+003, 5.336918e+001
1.264594e+003, 5.268178e+001
1.265076e+003, 5.281539e+001
1.265558e+003, 5.253634e+001
1.266040e+003, 5.170621e+001
1.266522e+003, 5.092125e+001
1.267004e+003, 5.007494e+001
1.267486e+003, 4.971596e+001
1.267968e+003, 5.007393e+001
1.268450e+003, 5.033088e+001
1.268932e+003, 5.007965e+001
1.269415e+003, 4.944749e+001
1.269897e+003, 4.845510e+001
1.270379e+003, 4.745402e+001
1.270861e+003, 4.747500e+001
1.271343e+003, 4.812563e+001
1.271825e+003, 4.830037e+001
1.272307e+003, 4.801399e+001
1.272789e+003, 4.730695e+001
1.273271e+003, 4.636000e+001
1.273754e+003, 4.577048e+001
1.274236e+003, 4.574934e+001
1.274718e+003, 4.579976e+001
1.275200e+003, 4.565630e+001
1.275682e+003, 4.540656e+001
1.276164e+003, 4.493718e+001
1.276646e+003, 4.456298e+001
1.277128e+003, 4.464174e+001
1.277611e+003, 4.484074e+001
1.278093e+003, 4.474910e+001
1.278575e+003, 4.444320e+001
1.279057e+003, 4.423121e+001
1.279539e+003, 4.412218e+001
1.280021e+003, 4.415718e+001
1.280503e+003, 4.448560e+001
1.280985e+003, 4.447465e+001
1.281468e+003, 4.397656e+001
1.281950e+003, 4.349980e+001
1.282432e+003, 4.321908e+001
1.282914e+003, 4.306016e+001
1.283396e+003, 4.295067e+001
1.283878e+003, 4.297425e+001
1.284360e+003, 4.343750e+001
1.284842e+003, 4.408001e+001
1.285324e+003, 4.417494e+001
##END=



