##NAMES=Schaurteite
##RRUFFID=R120104
##IDEAL CHEMISTRY=Ca_3_Ge(S^6+^O_4_)_2_(OH)_6_&#183;3H_2_O
##LOCALITY=Tsumeb, Namibia
##OWNER=RRUFF
##SOURCE=Marcus Origlieri
##DESCRIPTION=Aggregate of silky hair-like crystals, associated with calcite, quartz, and germanite.  Sample used in structure determination by Origlieri & Downs (2013).
##STATUS=The identification of this mineral is confirmed by single-crystal X-ray diffraction and chemical analysis.
##URL=rruff.info/R120104
##MEASURED CHEMISTRY=Ca_3.01_Ge_0.95_S_2.03_O_8_(OH)_6_.3H_2_O ; formula normalized to 17 O atoms, including 6H_2_O per formula unit
8.975323e+001, 0.000000e+000
9.023535e+001, 3.862266e+001
9.071747e+001, 3.882538e+001
9.119958e+001, 3.875029e+001
9.168170e+001, 3.883348e+001
9.216382e+001, 3.866425e+001
9.264594e+001, 3.836283e+001
9.312805e+001, 3.807631e+001
9.361017e+001, 3.776307e+001
9.409229e+001, 3.712202e+001
9.457440e+001, 3.587786e+001
9.505651e+001, 3.478386e+001
9.553863e+001, 3.380027e+001
9.602074e+001, 3.298771e+001
9.650286e+001, 3.245399e+001
9.698498e+001, 3.222605e+001
9.746709e+001, 3.212319e+001
9.794921e+001, 3.182004e+001
9.843133e+001, 3.115850e+001
9.891344e+001, 3.054506e+001
9.939556e+001, 3.005886e+001
9.987768e+001, 2.968322e+001
1.003598e+002, 2.939142e+001
1.008419e+002, 2.916865e+001
1.013240e+002, 2.902489e+001
1.018061e+002, 2.894357e+001
1.022883e+002, 2.887871e+001
1.027704e+002, 2.889721e+001
1.032525e+002, 2.912540e+001
1.037346e+002, 2.961562e+001
1.042167e+002, 3.004086e+001
1.046988e+002, 3.010438e+001
1.051810e+002, 2.995903e+001
1.056631e+002, 2.981627e+001
1.061452e+002, 2.978362e+001
1.066273e+002, 2.982746e+001
1.071094e+002, 2.980818e+001
1.075915e+002, 2.968499e+001
1.080737e+002, 2.953977e+001
1.085558e+002, 2.935726e+001
1.090379e+002, 2.917290e+001
1.095200e+002, 2.906634e+001
1.100021e+002, 2.912596e+001
1.104842e+002, 2.938791e+001
1.109664e+002, 2.962755e+001
1.114485e+002, 2.981663e+001
1.119306e+002, 3.000866e+001
1.124127e+002, 3.020052e+001
1.128948e+002, 3.040557e+001
1.133769e+002, 3.067172e+001
1.138591e+002, 3.107467e+001
1.143412e+002, 3.177707e+001
1.148233e+002, 3.232760e+001
1.153054e+002, 3.257581e+001
1.157875e+002, 3.274886e+001
1.162696e+002, 3.306834e+001
1.167517e+002, 3.361606e+001
1.172339e+002, 3.432163e+001
1.177160e+002, 3.504622e+001
1.181981e+002, 3.585903e+001
1.186802e+002, 3.655891e+001
1.191623e+002, 3.702607e+001
1.196444e+002, 3.732354e+001
1.201266e+002, 3.763551e+001
1.206087e+002, 3.806582e+001
1.210908e+002, 3.853392e+001
1.215729e+002, 3.888888e+001
1.220550e+002, 3.910633e+001
1.225371e+002, 3.925279e+001
1.230193e+002, 3.935197e+001
1.235014e+002, 3.939319e+001
1.239835e+002, 3.947917e+001
1.244656e+002, 3.964545e+001
1.249477e+002, 3.988792e+001
1.254298e+002, 4.021305e+001
1.259120e+002, 4.061032e+001
1.263941e+002, 4.110459e+001
1.268762e+002, 4.176156e+001
1.273583e+002, 4.267259e+001
1.278404e+002, 4.361188e+001
1.283225e+002, 4.466481e+001
1.288047e+002, 4.567586e+001
1.292868e+002, 4.641314e+001
1.297689e+002, 4.669511e+001
1.302510e+002, 4.656017e+001
1.307331e+002, 4.656789e+001
1.312152e+002, 4.689706e+001
1.316974e+002, 4.720599e+001
1.321795e+002, 4.738355e+001
1.326616e+002, 4.746573e+001
1.331437e+002, 4.756156e+001
1.336258e+002, 4.777617e+001
1.341079e+002, 4.814480e+001
1.345901e+002, 4.839425e+001
1.350722e+002, 4.856280e+001
1.355543e+002, 4.861287e+001
1.360364e+002, 4.854158e+001
1.365185e+002, 4.834279e+001
1.370006e+002, 4.798686e+001
1.374828e+002, 4.745713e+001
1.379649e+002, 4.674709e+001
1.384470e+002, 4.573244e+001
1.389291e+002, 4.420414e+001
1.394112e+002, 4.244310e+001
1.398933e+002, 4.076720e+001
1.403755e+002, 3.925886e+001
1.408576e+002, 3.781300e+001
1.413397e+002, 3.624545e+001
1.418218e+002, 3.456356e+001
1.423039e+002, 3.305975e+001
1.427860e+002, 3.188302e+001
1.432681e+002, 3.098909e+001
1.437503e+002, 3.021942e+001
1.442324e+002, 2.958950e+001
1.447145e+002, 2.903286e+001
1.451966e+002, 2.846791e+001
1.456787e+002, 2.789535e+001
1.461608e+002, 2.736271e+001
1.466430e+002, 2.691947e+001
1.471251e+002, 2.657203e+001
1.476072e+002, 2.624557e+001
1.480893e+002, 2.586269e+001
1.485714e+002, 2.553786e+001
1.490535e+002, 2.538022e+001
1.495357e+002, 2.540388e+001
1.500178e+002, 2.547540e+001
1.504999e+002, 2.536312e+001
1.509820e+002, 2.488094e+001
1.514641e+002, 2.463178e+001
1.519462e+002, 2.480158e+001
1.524284e+002, 2.510360e+001
1.529105e+002, 2.533425e+001
1.533926e+002, 2.541305e+001
1.538747e+002, 2.537255e+001
1.543568e+002, 2.528909e+001
1.548389e+002, 2.505502e+001
1.553211e+002, 2.491126e+001
1.558032e+002, 2.492968e+001
1.562853e+002, 2.502521e+001
1.567674e+002, 2.508862e+001
1.572495e+002, 2.506229e+001
1.577316e+002, 2.498040e+001
1.582138e+002, 2.499285e+001
1.586959e+002, 2.514859e+001
1.591780e+002, 2.532712e+001
1.596601e+002, 2.547307e+001
1.601422e+002, 2.561790e+001
1.606243e+002, 2.584393e+001
1.611065e+002, 2.621189e+001
1.615886e+002, 2.669144e+001
1.620707e+002, 2.712257e+001
1.625528e+002, 2.754510e+001
1.630349e+002, 2.788895e+001
1.635170e+002, 2.808772e+001
1.639991e+002, 2.815187e+001
1.644813e+002, 2.817345e+001
1.649634e+002, 2.817270e+001
1.654455e+002, 2.817840e+001
1.659276e+002, 2.825544e+001
1.664097e+002, 2.848446e+001
1.668918e+002, 2.872979e+001
1.673740e+002, 2.885744e+001
1.678561e+002, 2.887075e+001
1.683382e+002, 2.874869e+001
1.688203e+002, 2.838072e+001
1.693024e+002, 2.789358e+001
1.697845e+002, 2.743179e+001
1.702667e+002, 2.706384e+001
1.707488e+002, 2.674751e+001
1.712309e+002, 2.638394e+001
1.717130e+002, 2.595083e+001
1.721951e+002, 2.550876e+001
1.726772e+002, 2.505462e+001
1.731594e+002, 2.460990e+001
1.736415e+002, 2.421235e+001
1.741236e+002, 2.390736e+001
1.746057e+002, 2.366656e+001
1.750878e+002, 2.331466e+001
1.755699e+002, 2.272543e+001
1.760521e+002, 2.215945e+001
1.765342e+002, 2.165730e+001
1.770163e+002, 2.122887e+001
1.774984e+002, 2.089552e+001
1.779805e+002, 2.068509e+001
1.784626e+002, 2.059867e+001
1.789448e+002, 2.043809e+001
1.794269e+002, 2.002009e+001
1.799090e+002, 1.970657e+001
1.803911e+002, 1.972684e+001
1.808732e+002, 1.996591e+001
1.813553e+002, 2.011535e+001
1.818375e+002, 1.988751e+001
1.823196e+002, 1.921950e+001
1.828017e+002, 1.879969e+001
1.832838e+002, 1.877428e+001
1.837659e+002, 1.880551e+001
1.842480e+002, 1.870178e+001
1.847301e+002, 1.847864e+001
1.852123e+002, 1.830379e+001
1.856944e+002, 1.835315e+001
1.861765e+002, 1.867033e+001
1.866586e+002, 1.884264e+001
1.871407e+002, 1.878169e+001
1.876228e+002, 1.864502e+001
1.881050e+002, 1.853361e+001
1.885871e+002, 1.846067e+001
1.890692e+002, 1.840667e+001
1.895513e+002, 1.835076e+001
1.900334e+002, 1.829491e+001
1.905155e+002, 1.826899e+001
1.909977e+002, 1.836136e+001
1.914798e+002, 1.844653e+001
1.919619e+002, 1.831092e+001
1.924440e+002, 1.787844e+001
1.929261e+002, 1.750083e+001
1.934082e+002, 1.765163e+001
1.938904e+002, 1.817023e+001
1.943725e+002, 1.858435e+001
1.948546e+002, 1.872415e+001
1.953367e+002, 1.866845e+001
1.958188e+002, 1.854746e+001
1.963009e+002, 1.832805e+001
1.967831e+002, 1.813935e+001
1.972652e+002, 1.809682e+001
1.977473e+002, 1.815837e+001
1.982294e+002, 1.822397e+001
1.987115e+002, 1.825477e+001
1.991936e+002, 1.825071e+001
1.996758e+002, 1.819911e+001
2.001579e+002, 1.803297e+001
2.006400e+002, 1.791689e+001
2.011221e+002, 1.796022e+001
2.016042e+002, 1.811854e+001
2.020863e+002, 1.828211e+001
2.025685e+002, 1.838514e+001
2.030506e+002, 1.842907e+001
2.035327e+002, 1.843147e+001
2.040148e+002, 1.836901e+001
2.044969e+002, 1.828370e+001
2.049790e+002, 1.816894e+001
2.054612e+002, 1.804263e+001
2.059433e+002, 1.793850e+001
2.064254e+002, 1.787878e+001
2.069075e+002, 1.786243e+001
2.073896e+002, 1.791118e+001
2.078717e+002, 1.819312e+001
2.083539e+002, 1.838806e+001
2.088360e+002, 1.832858e+001
2.093181e+002, 1.807907e+001
2.098002e+002, 1.782110e+001
2.102823e+002, 1.771282e+001
2.107644e+002, 1.776647e+001
2.112466e+002, 1.787061e+001
2.117287e+002, 1.811213e+001
2.122108e+002, 1.831911e+001
2.126929e+002, 1.842151e+001
2.131750e+002, 1.842537e+001
2.136571e+002, 1.837460e+001
2.141393e+002, 1.830490e+001
2.146214e+002, 1.821287e+001
2.151035e+002, 1.812426e+001
2.155856e+002, 1.802484e+001
2.160677e+002, 1.793982e+001
2.165498e+002, 1.783645e+001
2.170320e+002, 1.774180e+001
2.175141e+002, 1.776141e+001
2.179962e+002, 1.802072e+001
2.184783e+002, 1.856437e+001
2.189604e+002, 1.891282e+001
2.194425e+002, 1.897558e+001
2.199247e+002, 1.894511e+001
2.204068e+002, 1.893479e+001
2.208889e+002, 1.894846e+001
2.213710e+002, 1.891595e+001
2.218531e+002, 1.873950e+001
2.223352e+002, 1.841498e+001
2.228174e+002, 1.831251e+001
2.232995e+002, 1.865356e+001
2.237816e+002, 1.905170e+001
2.242637e+002, 1.920482e+001
2.247458e+002, 1.910278e+001
2.252279e+002, 1.893853e+001
2.257100e+002, 1.884797e+001
2.261922e+002, 1.883098e+001
2.266743e+002, 1.884140e+001
2.271564e+002, 1.884919e+001
2.276385e+002, 1.890076e+001
2.281206e+002, 1.909267e+001
2.286027e+002, 1.943543e+001
2.290849e+002, 1.970955e+001
2.295670e+002, 1.968781e+001
2.300491e+002, 1.946969e+001
2.305312e+002, 1.933498e+001
2.310133e+002, 1.936638e+001
2.314954e+002, 1.948054e+001
2.319776e+002, 1.959097e+001
2.324597e+002, 1.969632e+001
2.329418e+002, 1.980792e+001
2.334239e+002, 1.996336e+001
2.339060e+002, 2.012430e+001
2.343881e+002, 2.022292e+001
2.348703e+002, 2.020093e+001
2.353524e+002, 2.014412e+001
2.358345e+002, 2.016152e+001
2.363166e+002, 2.025640e+001
2.367987e+002, 2.041446e+001
2.372808e+002, 2.072148e+001
2.377630e+002, 2.105980e+001
2.382451e+002, 2.129025e+001
2.387272e+002, 2.134552e+001
2.392093e+002, 2.131034e+001
2.396914e+002, 2.131135e+001
2.401735e+002, 2.135260e+001
2.406557e+002, 2.141867e+001
2.411378e+002, 2.149014e+001
2.416199e+002, 2.158753e+001
2.421020e+002, 2.174940e+001
2.425841e+002, 2.200333e+001
2.430662e+002, 2.228016e+001
2.435484e+002, 2.244623e+001
2.440305e+002, 2.244816e+001
2.445126e+002, 2.248494e+001
2.449947e+002, 2.264827e+001
2.454768e+002, 2.284782e+001
2.459589e+002, 2.301266e+001
2.464410e+002, 2.311944e+001
2.469232e+002, 2.317998e+001
2.474053e+002, 2.321006e+001
2.478874e+002, 2.319515e+001
2.483695e+002, 2.318342e+001
2.488516e+002, 2.315508e+001
2.493337e+002, 2.314835e+001
2.498159e+002, 2.318987e+001
2.502980e+002, 2.328853e+001
2.507801e+002, 2.344148e+001
2.512622e+002, 2.366463e+001
2.517443e+002, 2.403055e+001
2.522264e+002, 2.429425e+001
2.527086e+002, 2.432312e+001
2.531907e+002, 2.433035e+001
2.536728e+002, 2.449759e+001
2.541549e+002, 2.485837e+001
2.546370e+002, 2.527612e+001
2.551191e+002, 2.554759e+001
2.556013e+002, 2.563370e+001
2.560834e+002, 2.564013e+001
2.565655e+002, 2.544132e+001
2.570476e+002, 2.527009e+001
2.575297e+002, 2.530677e+001
2.580118e+002, 2.556930e+001
2.584940e+002, 2.592060e+001
2.589761e+002, 2.618499e+001
2.594582e+002, 2.635964e+001
2.599403e+002, 2.643995e+001
2.604224e+002, 2.636661e+001
2.609045e+002, 2.626642e+001
2.613867e+002, 2.622341e+001
2.618688e+002, 2.624205e+001
2.623509e+002, 2.626086e+001
2.628330e+002, 2.619098e+001
2.633151e+002, 2.595175e+001
2.637972e+002, 2.593742e+001
2.642794e+002, 2.637293e+001
2.647615e+002, 2.679998e+001
2.652436e+002, 2.691925e+001
2.657257e+002, 2.675521e+001
2.662078e+002, 2.655895e+001
2.666899e+002, 2.658721e+001
2.671721e+002, 2.689605e+001
2.676542e+002, 2.706713e+001
2.681363e+002, 2.709468e+001
2.686184e+002, 2.702338e+001
2.691005e+002, 2.684193e+001
2.695826e+002, 2.657245e+001
2.700648e+002, 2.626742e+001
2.705469e+002, 2.596238e+001
2.710290e+002, 2.565784e+001
2.715111e+002, 2.540075e+001
2.719932e+002, 2.529674e+001
2.724753e+002, 2.512810e+001
2.729575e+002, 2.471655e+001
2.734396e+002, 2.415086e+001
2.739217e+002, 2.370349e+001
2.744038e+002, 2.359322e+001
2.748859e+002, 2.377041e+001
2.753680e+002, 2.360755e+001
2.758501e+002, 2.280750e+001
2.763322e+002, 2.207453e+001
2.768144e+002, 2.169711e+001
2.772965e+002, 2.156481e+001
2.777786e+002, 2.139169e+001
2.782607e+002, 2.099566e+001
2.787428e+002, 2.047905e+001
2.792249e+002, 2.030418e+001
2.797071e+002, 2.088400e+001
2.801892e+002, 2.125149e+001
2.806713e+002, 2.099709e+001
2.811534e+002, 2.038809e+001
2.816355e+002, 1.990628e+001
2.821176e+002, 1.976950e+001
2.825998e+002, 1.983964e+001
2.830819e+002, 1.975874e+001
2.835640e+002, 1.940032e+001
2.840461e+002, 1.915032e+001
2.845282e+002, 1.913764e+001
2.850103e+002, 1.926704e+001
2.854925e+002, 1.943271e+001
2.859746e+002, 1.961288e+001
2.864567e+002, 1.974087e+001
2.869388e+002, 1.967172e+001
2.874209e+002, 1.933255e+001
2.879030e+002, 1.906482e+001
2.883852e+002, 1.895856e+001
2.888673e+002, 1.893751e+001
2.893494e+002, 1.891232e+001
2.898315e+002, 1.886236e+001
2.903136e+002, 1.881644e+001
2.907957e+002, 1.881025e+001
2.912779e+002, 1.884729e+001
2.917600e+002, 1.890154e+001
2.922421e+002, 1.904127e+001
2.927242e+002, 1.915717e+001
2.932063e+002, 1.909400e+001
2.936884e+002, 1.883646e+001
2.941706e+002, 1.859428e+001
2.946527e+002, 1.858020e+001
2.951348e+002, 1.880039e+001
2.956169e+002, 1.895121e+001
2.960990e+002, 1.893398e+001
2.965811e+002, 1.890798e+001
2.970633e+002, 1.903246e+001
2.975454e+002, 1.929716e+001
2.980275e+002, 1.952534e+001
2.985096e+002, 1.957685e+001
2.989917e+002, 1.947892e+001
2.994738e+002, 1.944902e+001
2.999560e+002, 1.952376e+001
3.004381e+002, 1.963129e+001
3.009202e+002, 1.976074e+001
3.014023e+002, 1.989826e+001
3.018844e+002, 1.997416e+001
3.023665e+002, 1.992130e+001
3.028487e+002, 1.980524e+001
3.033308e+002, 1.981940e+001
3.038129e+002, 2.000308e+001
3.042950e+002, 2.023464e+001
3.047771e+002, 2.053065e+001
3.052592e+002, 2.083854e+001
3.057414e+002, 2.099706e+001
3.062235e+002, 2.090766e+001
3.067056e+002, 2.071045e+001
3.071877e+002, 2.068447e+001
3.076698e+002, 2.085358e+001
3.081519e+002, 2.104068e+001
3.086341e+002, 2.116949e+001
3.091162e+002, 2.128315e+001
3.095983e+002, 2.147257e+001
3.100804e+002, 2.177419e+001
3.105625e+002, 2.209381e+001
3.110446e+002, 2.230155e+001
3.115268e+002, 2.240062e+001
3.120089e+002, 2.246299e+001
3.124910e+002, 2.242199e+001
3.129731e+002, 2.238839e+001
3.134552e+002, 2.252292e+001
3.139373e+002, 2.285358e+001
3.144195e+002, 2.321766e+001
3.149016e+002, 2.344995e+001
3.153837e+002, 2.356411e+001
3.158658e+002, 2.376468e+001
3.163479e+002, 2.424165e+001
3.168300e+002, 2.468802e+001
3.173121e+002, 2.475530e+001
3.177943e+002, 2.446839e+001
3.182764e+002, 2.426068e+001
3.187585e+002, 2.442552e+001
3.192406e+002, 2.491949e+001
3.197227e+002, 2.542205e+001
3.202048e+002, 2.610840e+001
3.206870e+002, 2.663511e+001
3.211691e+002, 2.666255e+001
3.216512e+002, 2.633453e+001
3.221333e+002, 2.617406e+001
3.226154e+002, 2.645387e+001
3.230975e+002, 2.701682e+001
3.235797e+002, 2.745716e+001
3.240618e+002, 2.775005e+001
3.245439e+002, 2.800741e+001
3.250260e+002, 2.825257e+001
3.255081e+002, 2.849190e+001
3.259902e+002, 2.873875e+001
3.264724e+002, 2.899717e+001
3.269545e+002, 2.926641e+001
3.274366e+002, 2.955680e+001
3.279187e+002, 2.987951e+001
3.284008e+002, 3.015984e+001
3.288829e+002, 3.034240e+001
3.293651e+002, 3.049344e+001
3.298472e+002, 3.067038e+001
3.303293e+002, 3.088298e+001
3.308114e+002, 3.116755e+001
3.312935e+002, 3.158876e+001
3.317756e+002, 3.215930e+001
3.322578e+002, 3.265960e+001
3.327399e+002, 3.312373e+001
3.332220e+002, 3.348137e+001
3.337041e+002, 3.357760e+001
3.341862e+002, 3.345977e+001
3.346683e+002, 3.347306e+001
3.351505e+002, 3.391196e+001
3.356326e+002, 3.469113e+001
3.361147e+002, 3.515946e+001
3.365968e+002, 3.495059e+001
3.370789e+002, 3.485695e+001
3.375610e+002, 3.532048e+001
3.380432e+002, 3.615807e+001
3.385253e+002, 3.694067e+001
3.390074e+002, 3.748024e+001
3.394895e+002, 3.782114e+001
3.399716e+002, 3.804789e+001
3.404537e+002, 3.804406e+001
3.409359e+002, 3.815173e+001
3.414180e+002, 3.851530e+001
3.419001e+002, 3.899757e+001
3.423822e+002, 3.941965e+001
3.428643e+002, 3.972892e+001
3.433464e+002, 3.999148e+001
3.438286e+002, 4.029340e+001
3.443107e+002, 4.064289e+001
3.447928e+002, 4.102121e+001
3.452749e+002, 4.144171e+001
3.457570e+002, 4.187880e+001
3.462391e+002, 4.228445e+001
3.467213e+002, 4.266740e+001
3.472034e+002, 4.312622e+001
3.476855e+002, 4.376429e+001
3.481676e+002, 4.459784e+001
3.486497e+002, 4.529346e+001
3.491318e+002, 4.578245e+001
3.496140e+002, 4.622888e+001
3.500961e+002, 4.667074e+001
3.505782e+002, 4.712024e+001
3.510603e+002, 4.759906e+001
3.515424e+002, 4.812076e+001
3.520245e+002, 4.867262e+001
3.525067e+002, 4.920558e+001
3.529888e+002, 4.979770e+001
3.534709e+002, 5.027355e+001
3.539530e+002, 5.066422e+001
3.544351e+002, 5.090610e+001
3.549172e+002, 5.094147e+001
3.553994e+002, 5.074636e+001
3.558815e+002, 5.030769e+001
3.563636e+002, 4.958863e+001
3.568457e+002, 4.845110e+001
3.573278e+002, 4.728397e+001
3.578099e+002, 4.612925e+001
3.582920e+002, 4.491575e+001
3.587741e+002, 4.353041e+001
3.592563e+002, 4.200391e+001
3.597384e+002, 4.054712e+001
3.602205e+002, 3.938808e+001
3.607026e+002, 3.858182e+001
3.611847e+002, 3.753355e+001
3.616668e+002, 3.596239e+001
3.621490e+002, 3.446010e+001
3.626311e+002, 3.320599e+001
3.631132e+002, 3.216389e+001
3.635953e+002, 3.126824e+001
3.640774e+002, 3.048330e+001
3.645595e+002, 2.979057e+001
3.650417e+002, 2.910890e+001
3.655238e+002, 2.838620e+001
3.660059e+002, 2.775585e+001
3.664880e+002, 2.728243e+001
3.669701e+002, 2.688008e+001
3.674522e+002, 2.644755e+001
3.679344e+002, 2.595946e+001
3.684165e+002, 2.549286e+001
3.688986e+002, 2.517480e+001
3.693807e+002, 2.505471e+001
3.698628e+002, 2.495543e+001
3.703449e+002, 2.488484e+001
3.708271e+002, 2.482020e+001
3.713092e+002, 2.476841e+001
3.717913e+002, 2.471677e+001
3.722734e+002, 2.462376e+001
3.727555e+002, 2.443032e+001
3.732376e+002, 2.414242e+001
3.737198e+002, 2.395070e+001
3.742019e+002, 2.392758e+001
3.746840e+002, 2.391803e+001
3.751661e+002, 2.386613e+001
3.756482e+002, 2.379395e+001
3.761303e+002, 2.372913e+001
3.766125e+002, 2.367496e+001
3.770946e+002, 2.365894e+001
3.775767e+002, 2.375195e+001
3.780588e+002, 2.398556e+001
3.785409e+002, 2.424018e+001
3.790230e+002, 2.461296e+001
3.795052e+002, 2.491587e+001
3.799873e+002, 2.495743e+001
3.804694e+002, 2.470266e+001
3.809515e+002, 2.436009e+001
3.814336e+002, 2.416132e+001
3.819157e+002, 2.410121e+001
3.823979e+002, 2.392936e+001
3.828800e+002, 2.355008e+001
3.833621e+002, 2.312187e+001
3.838442e+002, 2.277163e+001
3.843263e+002, 2.247398e+001
3.848084e+002, 2.212376e+001
3.852906e+002, 2.163559e+001
3.857727e+002, 2.106437e+001
3.862548e+002, 2.051682e+001
3.867369e+002, 1.998389e+001
3.872190e+002, 1.951418e+001
3.877011e+002, 1.917526e+001
3.881833e+002, 1.890676e+001
3.886654e+002, 1.863377e+001
3.891475e+002, 1.835971e+001
3.896296e+002, 1.804674e+001
3.901117e+002, 1.760032e+001
3.905938e+002, 1.704882e+001
3.910760e+002, 1.664326e+001
3.915581e+002, 1.651953e+001
3.920402e+002, 1.651305e+001
3.925223e+002, 1.636965e+001
3.930044e+002, 1.607334e+001
3.934865e+002, 1.585495e+001
3.939687e+002, 1.589735e+001
3.944508e+002, 1.604427e+001
3.949329e+002, 1.602095e+001
3.954150e+002, 1.577422e+001
3.958971e+002, 1.550692e+001
3.963792e+002, 1.539211e+001
3.968614e+002, 1.542511e+001
3.973435e+002, 1.547221e+001
3.978256e+002, 1.559662e+001
3.983077e+002, 1.567359e+001
3.987898e+002, 1.556662e+001
3.992719e+002, 1.532901e+001
3.997540e+002, 1.516319e+001
4.002361e+002, 1.518400e+001
4.007183e+002, 1.531993e+001
4.012004e+002, 1.536632e+001
4.016825e+002, 1.531899e+001
4.021646e+002, 1.520827e+001
4.026467e+002, 1.495091e+001
4.031288e+002, 1.467289e+001
4.036110e+002, 1.453193e+001
4.040931e+002, 1.456057e+001
4.045752e+002, 1.466694e+001
4.050573e+002, 1.475251e+001
4.055394e+002, 1.482000e+001
4.060215e+002, 1.484130e+001
4.065037e+002, 1.481391e+001
4.069858e+002, 1.474985e+001
4.074679e+002, 1.462037e+001
4.079500e+002, 1.445756e+001
4.084321e+002, 1.432757e+001
4.089142e+002, 1.426881e+001
4.093964e+002, 1.427947e+001
4.098785e+002, 1.435146e+001
4.103606e+002, 1.458448e+001
4.108427e+002, 1.474881e+001
4.113248e+002, 1.477600e+001
4.118069e+002, 1.475463e+001
4.122891e+002, 1.476778e+001
4.127712e+002, 1.483739e+001
4.132533e+002, 1.493200e+001
4.137354e+002, 1.501285e+001
4.142175e+002, 1.508018e+001
4.146996e+002, 1.513364e+001
4.151818e+002, 1.519947e+001
4.156639e+002, 1.522551e+001
4.161460e+002, 1.511997e+001
4.166281e+002, 1.495470e+001
4.171102e+002, 1.490905e+001
4.175923e+002, 1.513765e+001
4.180745e+002, 1.553159e+001
4.185566e+002, 1.570086e+001
4.190387e+002, 1.553645e+001
4.195208e+002, 1.538563e+001
4.200029e+002, 1.533546e+001
4.204850e+002, 1.535660e+001
4.209672e+002, 1.544210e+001
4.214493e+002, 1.559195e+001
4.219314e+002, 1.575435e+001
4.224135e+002, 1.585499e+001
4.228956e+002, 1.589999e+001
4.233777e+002, 1.602892e+001
4.238599e+002, 1.631672e+001
4.243420e+002, 1.661838e+001
4.248241e+002, 1.682773e+001
4.253062e+002, 1.695987e+001
4.257883e+002, 1.706834e+001
4.262704e+002, 1.715083e+001
4.267526e+002, 1.723395e+001
4.272347e+002, 1.740687e+001
4.277168e+002, 1.768384e+001
4.281989e+002, 1.781013e+001
4.286810e+002, 1.755056e+001
4.291631e+002, 1.709940e+001
4.296453e+002, 1.689302e+001
4.301274e+002, 1.699971e+001
4.306095e+002, 1.719866e+001
4.310916e+002, 1.747926e+001
4.315737e+002, 1.776021e+001
4.320558e+002, 1.782260e+001
4.325380e+002, 1.758337e+001
4.330201e+002, 1.732448e+001
4.335022e+002, 1.738999e+001
4.339843e+002, 1.783167e+001
4.344664e+002, 1.823219e+001
4.349485e+002, 1.855423e+001
4.354307e+002, 1.885145e+001
4.359128e+002, 1.914153e+001
4.363949e+002, 1.943357e+001
4.368770e+002, 1.974867e+001
4.373591e+002, 2.010051e+001
4.378412e+002, 2.048105e+001
4.383234e+002, 2.085401e+001
4.388055e+002, 2.111292e+001
4.392876e+002, 2.150493e+001
4.397697e+002, 2.211395e+001
4.402518e+002, 2.282387e+001
4.407339e+002, 2.354339e+001
4.412160e+002, 2.424185e+001
4.416982e+002, 2.491902e+001
4.421803e+002, 2.556665e+001
4.426624e+002, 2.618219e+001
4.431445e+002, 2.679865e+001
4.436266e+002, 2.754257e+001
4.441087e+002, 2.815263e+001
4.445909e+002, 2.841081e+001
4.450730e+002, 2.850236e+001
4.455551e+002, 2.875316e+001
4.460372e+002, 2.934245e+001
4.465193e+002, 3.010285e+001
4.470014e+002, 3.065466e+001
4.474836e+002, 3.092723e+001
4.479657e+002, 3.120012e+001
4.484478e+002, 3.144891e+001
4.489299e+002, 3.177241e+001
4.494120e+002, 3.223693e+001
4.498941e+002, 3.284598e+001
4.503763e+002, 3.356482e+001
4.508584e+002, 3.448237e+001
4.513405e+002, 3.551087e+001
4.518226e+002, 3.621602e+001
4.523047e+002, 3.648558e+001
4.527868e+002, 3.668537e+001
4.532690e+002, 3.708044e+001
4.537511e+002, 3.752885e+001
4.542332e+002, 3.781702e+001
4.547153e+002, 3.786896e+001
4.551974e+002, 3.781025e+001
4.556795e+002, 3.769898e+001
4.561617e+002, 3.755339e+001
4.566438e+002, 3.747115e+001
4.571259e+002, 3.751531e+001
4.576080e+002, 3.755669e+001
4.580901e+002, 3.744870e+001
4.585722e+002, 3.720689e+001
4.590544e+002, 3.677268e+001
4.595365e+002, 3.603756e+001
4.600186e+002, 3.517703e+001
4.605007e+002, 3.436687e+001
4.609828e+002, 3.358956e+001
4.614649e+002, 3.268267e+001
4.619471e+002, 3.151542e+001
4.624292e+002, 3.016623e+001
4.629113e+002, 2.893258e+001
4.633934e+002, 2.770081e+001
4.638755e+002, 2.672102e+001
4.643576e+002, 2.606236e+001
4.648398e+002, 2.563827e+001
4.653219e+002, 2.543487e+001
4.658040e+002, 2.541162e+001
4.662861e+002, 2.539685e+001
4.667682e+002, 2.516919e+001
4.672503e+002, 2.467261e+001
4.677325e+002, 2.449356e+001
4.682146e+002, 2.483969e+001
4.686967e+002, 2.529008e+001
4.691788e+002, 2.580952e+001
4.696609e+002, 2.634374e+001
4.701430e+002, 2.681517e+001
4.706252e+002, 2.718757e+001
4.711073e+002, 2.752393e+001
4.715894e+002, 2.795199e+001
4.720715e+002, 2.850743e+001
4.725536e+002, 2.899390e+001
4.730357e+002, 2.929252e+001
4.735179e+002, 2.959030e+001
4.740000e+002, 3.008329e+001
4.744821e+002, 3.069611e+001
4.749642e+002, 3.113088e+001
4.754463e+002, 3.122830e+001
4.759284e+002, 3.101952e+001
4.764106e+002, 3.054925e+001
4.768927e+002, 2.980515e+001
4.773748e+002, 2.887844e+001
4.778569e+002, 2.768405e+001
4.783390e+002, 2.639404e+001
4.788211e+002, 2.531786e+001
4.793033e+002, 2.454824e+001
4.797854e+002, 2.370185e+001
4.802675e+002, 2.239365e+001
4.807496e+002, 2.092807e+001
4.812317e+002, 1.989694e+001
4.817138e+002, 1.941464e+001
4.821959e+002, 1.911707e+001
4.826780e+002, 1.869397e+001
4.831602e+002, 1.814874e+001
4.836423e+002, 1.767178e+001
4.841244e+002, 1.726946e+001
4.846065e+002, 1.692428e+001
4.850886e+002, 1.666647e+001
4.855707e+002, 1.645143e+001
4.860529e+002, 1.620954e+001
4.865350e+002, 1.591387e+001
4.870171e+002, 1.557350e+001
4.874992e+002, 1.519619e+001
4.879813e+002, 1.472835e+001
4.884634e+002, 1.436813e+001
4.889456e+002, 1.410693e+001
4.894277e+002, 1.394179e+001
4.899098e+002, 1.393147e+001
4.903919e+002, 1.401497e+001
4.908740e+002, 1.407660e+001
4.913561e+002, 1.405209e+001
4.918383e+002, 1.394471e+001
4.923204e+002, 1.372724e+001
4.928025e+002, 1.330225e+001
4.932846e+002, 1.303871e+001
4.937667e+002, 1.319538e+001
4.942488e+002, 1.341063e+001
4.947310e+002, 1.344241e+001
4.952131e+002, 1.328266e+001
4.956952e+002, 1.308214e+001
4.961773e+002, 1.292229e+001
4.966594e+002, 1.280313e+001
4.971415e+002, 1.273018e+001
4.976237e+002, 1.270781e+001
4.981058e+002, 1.271142e+001
4.985879e+002, 1.273233e+001
4.990700e+002, 1.277054e+001
4.995521e+002, 1.284345e+001
5.000342e+002, 1.301123e+001
5.005164e+002, 1.306880e+001
5.009985e+002, 1.279782e+001
5.014806e+002, 1.237903e+001
5.019627e+002, 1.214704e+001
5.024448e+002, 1.217206e+001
5.029269e+002, 1.227922e+001
5.034091e+002, 1.230845e+001
5.038912e+002, 1.225636e+001
5.043733e+002, 1.222311e+001
5.048554e+002, 1.218947e+001
5.053375e+002, 1.219335e+001
5.058196e+002, 1.230837e+001
5.063018e+002, 1.245168e+001
5.067839e+002, 1.248824e+001
5.072660e+002, 1.237229e+001
5.077481e+002, 1.218158e+001
5.082302e+002, 1.202670e+001
5.087123e+002, 1.189820e+001
5.091945e+002, 1.183959e+001
5.096766e+002, 1.189636e+001
5.101587e+002, 1.197801e+001
5.106408e+002, 1.207826e+001
5.111229e+002, 1.217480e+001
5.116050e+002, 1.223114e+001
5.120872e+002, 1.222570e+001
5.125693e+002, 1.218281e+001
5.130514e+002, 1.215826e+001
5.135335e+002, 1.216298e+001
5.140156e+002, 1.208809e+001
5.144977e+002, 1.177574e+001
5.149799e+002, 1.151619e+001
5.154620e+002, 1.162995e+001
5.159441e+002, 1.205149e+001
5.164262e+002, 1.233737e+001
5.169083e+002, 1.216030e+001
5.173904e+002, 1.182848e+001
5.178726e+002, 1.176156e+001
5.183547e+002, 1.194573e+001
5.188368e+002, 1.210753e+001
5.193189e+002, 1.211495e+001
5.198010e+002, 1.202676e+001
5.202831e+002, 1.197069e+001
5.207653e+002, 1.195120e+001
5.212474e+002, 1.194121e+001
5.217295e+002, 1.194433e+001
5.222116e+002, 1.194958e+001
5.226937e+002, 1.191754e+001
5.231758e+002, 1.186771e+001
5.236580e+002, 1.190729e+001
5.241401e+002, 1.213672e+001
5.246222e+002, 1.248729e+001
5.251043e+002, 1.259517e+001
5.255864e+002, 1.218063e+001
5.260685e+002, 1.191873e+001
5.265507e+002, 1.198117e+001
5.270328e+002, 1.213151e+001
5.275149e+002, 1.219134e+001
5.279970e+002, 1.213382e+001
5.284791e+002, 1.201905e+001
5.289612e+002, 1.186183e+001
5.294434e+002, 1.168712e+001
5.299255e+002, 1.166815e+001
5.304076e+002, 1.187716e+001
5.308897e+002, 1.207440e+001
5.313718e+002, 1.216635e+001
5.318539e+002, 1.218877e+001
5.323361e+002, 1.216088e+001
5.328182e+002, 1.207791e+001
5.333003e+002, 1.199697e+001
5.337824e+002, 1.196479e+001
5.342645e+002, 1.195926e+001
5.347466e+002, 1.192929e+001
5.352288e+002, 1.186680e+001
5.357109e+002, 1.180209e+001
5.361930e+002, 1.175907e+001
5.366751e+002, 1.173369e+001
5.371572e+002, 1.170007e+001
5.376393e+002, 1.160544e+001
5.381215e+002, 1.156703e+001
5.386036e+002, 1.166852e+001
5.390857e+002, 1.182117e+001
5.395678e+002, 1.190496e+001
5.400499e+002, 1.190010e+001
5.405320e+002, 1.188500e+001
5.410142e+002, 1.194700e+001
5.414963e+002, 1.208972e+001
5.419784e+002, 1.218461e+001
5.424604e+002, 1.220714e+001
5.429426e+002, 1.220648e+001
5.434247e+002, 1.217597e+001
5.439068e+002, 1.213521e+001
5.443889e+002, 1.208735e+001
5.448710e+002, 1.203729e+001
5.453531e+002, 1.203712e+001
5.458353e+002, 1.220096e+001
5.463174e+002, 1.250458e+001
5.467995e+002, 1.263180e+001
5.472816e+002, 1.249292e+001
5.477637e+002, 1.233266e+001
5.482458e+002, 1.229506e+001
5.487280e+002, 1.233872e+001
5.492101e+002, 1.241149e+001
5.496922e+002, 1.252480e+001
5.501743e+002, 1.262326e+001
5.506564e+002, 1.268038e+001
5.511385e+002, 1.269654e+001
5.516207e+002, 1.266998e+001
5.521028e+002, 1.260011e+001
5.525849e+002, 1.249144e+001
5.530670e+002, 1.232623e+001
5.535491e+002, 1.210412e+001
5.540313e+002, 1.202471e+001
5.545134e+002, 1.217387e+001
5.549955e+002, 1.233972e+001
5.554776e+002, 1.247682e+001
5.559597e+002, 1.259350e+001
5.564418e+002, 1.269853e+001
5.569240e+002, 1.279616e+001
5.574061e+002, 1.289089e+001
5.578882e+002, 1.299526e+001
5.583703e+002, 1.311075e+001
5.588524e+002, 1.316733e+001
5.593345e+002, 1.303588e+001
5.598167e+002, 1.303752e+001
5.602988e+002, 1.341522e+001
5.607809e+002, 1.390845e+001
5.612630e+002, 1.419881e+001
5.617451e+002, 1.419755e+001
5.622272e+002, 1.407763e+001
5.627094e+002, 1.389217e+001
5.631915e+002, 1.370329e+001
5.636736e+002, 1.374345e+001
5.641557e+002, 1.406642e+001
5.646378e+002, 1.448773e+001
5.651199e+002, 1.492187e+001
5.656021e+002, 1.534528e+001
5.660842e+002, 1.567250e+001
5.665663e+002, 1.581961e+001
5.670484e+002, 1.599092e+001
5.675305e+002, 1.632415e+001
5.680126e+002, 1.668749e+001
5.684948e+002, 1.684554e+001
5.689769e+002, 1.679448e+001
5.694590e+002, 1.683045e+001
5.699411e+002, 1.724459e+001
5.704232e+002, 1.801623e+001
5.709053e+002, 1.871578e+001
5.713875e+002, 1.925613e+001
5.718696e+002, 1.984463e+001
5.723517e+002, 2.042481e+001
5.728338e+002, 2.112155e+001
5.733159e+002, 2.205137e+001
5.737980e+002, 2.323291e+001
5.742802e+002, 2.459150e+001
5.747623e+002, 2.615482e+001
5.752444e+002, 2.785421e+001
5.757265e+002, 2.939026e+001
5.762086e+002, 3.073044e+001
5.766907e+002, 3.203405e+001
5.771729e+002, 3.332030e+001
5.776550e+002, 3.463384e+001
5.781371e+002, 3.606018e+001
5.786192e+002, 3.764341e+001
5.791013e+002, 3.914591e+001
5.795834e+002, 4.030936e+001
5.800656e+002, 4.144413e+001
5.805477e+002, 4.291925e+001
5.810298e+002, 4.473948e+001
5.815119e+002, 4.673947e+001
5.819940e+002, 4.883031e+001
5.824761e+002, 5.099714e+001
5.829583e+002, 5.319334e+001
5.834404e+002, 5.530464e+001
5.839225e+002, 5.764655e+001
5.844046e+002, 6.032759e+001
5.848867e+002, 6.314807e+001
5.853688e+002, 6.585418e+001
5.858510e+002, 6.856863e+001
5.863331e+002, 7.169535e+001
5.868152e+002, 7.552895e+001
5.872973e+002, 7.984541e+001
5.877794e+002, 8.413522e+001
5.882615e+002, 8.840807e+001
5.887437e+002, 9.263920e+001
5.892258e+002, 9.690589e+001
5.897079e+002, 1.010544e+002
5.901900e+002, 1.051096e+002
5.906721e+002, 1.090000e+002
5.911542e+002, 1.121611e+002
5.916364e+002, 1.148298e+002
5.921185e+002, 1.163483e+002
5.926006e+002, 1.161458e+002
5.930827e+002, 1.143124e+002
5.935648e+002, 1.109900e+002
5.940469e+002, 1.061967e+002
5.945291e+002, 1.003298e+002
5.950112e+002, 9.381047e+001
5.954933e+002, 8.640942e+001
5.959754e+002, 7.934621e+001
5.964575e+002, 7.242758e+001
5.969396e+002, 6.600611e+001
5.974218e+002, 6.012065e+001
5.979039e+002, 5.481446e+001
5.983860e+002, 5.016416e+001
5.988681e+002, 4.617944e+001
5.993502e+002, 4.269001e+001
5.998323e+002, 3.947643e+001
6.003145e+002, 3.653036e+001
6.007966e+002, 3.397833e+001
6.012787e+002, 3.189348e+001
6.017608e+002, 3.007735e+001
6.022429e+002, 2.844517e+001
6.027250e+002, 2.701303e+001
6.032072e+002, 2.588083e+001
6.036893e+002, 2.511213e+001
6.041714e+002, 2.447158e+001
6.046535e+002, 2.389086e+001
6.051356e+002, 2.333785e+001
6.056177e+002, 2.273298e+001
6.060999e+002, 2.208395e+001
6.065820e+002, 2.152714e+001
6.070641e+002, 2.116545e+001
6.075462e+002, 2.097479e+001
6.080283e+002, 2.084371e+001
6.085104e+002, 2.074897e+001
6.089926e+002, 2.075736e+001
6.094747e+002, 2.093798e+001
6.099568e+002, 2.116448e+001
6.104389e+002, 2.132509e+001
6.109210e+002, 2.144485e+001
6.114031e+002, 2.164007e+001
6.118853e+002, 2.199705e+001
6.123674e+002, 2.245347e+001
6.128495e+002, 2.285626e+001
6.133316e+002, 2.319229e+001
6.138137e+002, 2.368284e+001
6.142958e+002, 2.449920e+001
6.147780e+002, 2.533609e+001
6.152601e+002, 2.584100e+001
6.157422e+002, 2.607458e+001
6.162243e+002, 2.638870e+001
6.167064e+002, 2.682428e+001
6.171885e+002, 2.739003e+001
6.176707e+002, 2.809555e+001
6.181528e+002, 2.893500e+001
6.186349e+002, 2.991895e+001
6.191170e+002, 3.104685e+001
6.195991e+002, 3.225341e+001
6.200812e+002, 3.346399e+001
6.205634e+002, 3.468277e+001
6.210455e+002, 3.590992e+001
6.215276e+002, 3.709219e+001
6.220097e+002, 3.835502e+001
6.224918e+002, 3.980058e+001
6.229739e+002, 4.128929e+001
6.234561e+002, 4.259441e+001
6.239382e+002, 4.369738e+001
6.244203e+002, 4.494800e+001
6.249023e+002, 4.677145e+001
6.253845e+002, 4.893244e+001
6.258666e+002, 5.085493e+001
6.263487e+002, 5.254101e+001
6.268308e+002, 5.383979e+001
6.273129e+002, 5.466742e+001
6.277950e+002, 5.509126e+001
6.282772e+002, 5.525610e+001
6.287593e+002, 5.525471e+001
6.292414e+002, 5.470935e+001
6.297235e+002, 5.335499e+001
6.302056e+002, 5.162630e+001
6.306877e+002, 4.967059e+001
6.311699e+002, 4.759441e+001
6.316520e+002, 4.554742e+001
6.321341e+002, 4.360727e+001
6.326162e+002, 4.173676e+001
6.330983e+002, 3.988676e+001
6.335804e+002, 3.805074e+001
6.340626e+002, 3.622746e+001
6.345447e+002, 3.442131e+001
6.350268e+002, 3.263606e+001
6.355089e+002, 3.082270e+001
6.359910e+002, 2.904757e+001
6.364731e+002, 2.739777e+001
6.369553e+002, 2.589192e+001
6.374374e+002, 2.455259e+001
6.379195e+002, 2.347039e+001
6.384016e+002, 2.255435e+001
6.388837e+002, 2.162445e+001
6.393658e+002, 2.066439e+001
6.398480e+002, 1.971278e+001
6.403301e+002, 1.878299e+001
6.408122e+002, 1.789446e+001
6.412943e+002, 1.710349e+001
6.417764e+002, 1.636659e+001
6.422585e+002, 1.581200e+001
6.427407e+002, 1.554941e+001
6.432228e+002, 1.537125e+001
6.437049e+002, 1.516968e+001
6.441870e+002, 1.493883e+001
6.446691e+002, 1.469559e+001
6.451512e+002, 1.444375e+001
6.456334e+002, 1.421342e+001
6.461155e+002, 1.408325e+001
6.465976e+002, 1.405184e+001
6.470797e+002, 1.392836e+001
6.475618e+002, 1.363944e+001
6.480439e+002, 1.335153e+001
6.485261e+002, 1.319772e+001
6.490082e+002, 1.314763e+001
6.494903e+002, 1.311322e+001
6.499724e+002, 1.310717e+001
6.504545e+002, 1.308647e+001
6.509366e+002, 1.302160e+001
6.514188e+002, 1.293999e+001
6.519009e+002, 1.288095e+001
6.523830e+002, 1.284390e+001
6.528651e+002, 1.278884e+001
6.533472e+002, 1.267995e+001
6.538293e+002, 1.254352e+001
6.543115e+002, 1.248545e+001
6.547936e+002, 1.255215e+001
6.552757e+002, 1.258467e+001
6.557578e+002, 1.254339e+001
6.562399e+002, 1.247671e+001
6.567220e+002, 1.239612e+001
6.572042e+002, 1.231036e+001
6.576863e+002, 1.224095e+001
6.581684e+002, 1.219965e+001
6.586505e+002, 1.217112e+001
6.591326e+002, 1.212969e+001
6.596147e+002, 1.208986e+001
6.600969e+002, 1.212019e+001
6.605790e+002, 1.223900e+001
6.610611e+002, 1.230123e+001
6.615432e+002, 1.215026e+001
6.620253e+002, 1.181921e+001
6.625074e+002, 1.166852e+001
6.629896e+002, 1.191267e+001
6.634717e+002, 1.205480e+001
6.639538e+002, 1.195508e+001
6.644359e+002, 1.181315e+001
6.649180e+002, 1.178904e+001
6.654001e+002, 1.187743e+001
6.658823e+002, 1.198201e+001
6.663644e+002, 1.205076e+001
6.668465e+002, 1.209009e+001
6.673286e+002, 1.209059e+001
6.678107e+002, 1.205504e+001
6.682928e+002, 1.209727e+001
6.687750e+002, 1.227746e+001
6.692571e+002, 1.245676e+001
6.697392e+002, 1.250006e+001
6.702213e+002, 1.241583e+001
6.707034e+002, 1.232763e+001
6.711855e+002, 1.220566e+001
6.716677e+002, 1.211886e+001
6.721498e+002, 1.212142e+001
6.726319e+002, 1.215175e+001
6.731140e+002, 1.212997e+001
6.735961e+002, 1.205774e+001
6.740782e+002, 1.200782e+001
6.745604e+002, 1.204027e+001
6.750425e+002, 1.212812e+001
6.755246e+002, 1.220363e+001
6.760067e+002, 1.229221e+001
6.764888e+002, 1.223911e+001
6.769709e+002, 1.183796e+001
6.774531e+002, 1.148712e+001
6.779352e+002, 1.156889e+001
6.784173e+002, 1.196773e+001
6.788994e+002, 1.227211e+001
6.793815e+002, 1.235212e+001
6.798636e+002, 1.236303e+001
6.803458e+002, 1.239457e+001
6.808279e+002, 1.241651e+001
6.813100e+002, 1.236889e+001
6.817921e+002, 1.224855e+001
6.822742e+002, 1.210650e+001
6.827563e+002, 1.197200e+001
6.832385e+002, 1.186578e+001
6.837206e+002, 1.192166e+001
6.842027e+002, 1.233303e+001
6.846848e+002, 1.248246e+001
6.851669e+002, 1.192806e+001
6.856490e+002, 1.140629e+001
6.861312e+002, 1.142795e+001
6.866133e+002, 1.184302e+001
6.870954e+002, 1.215711e+001
6.875775e+002, 1.218420e+001
6.880596e+002, 1.205335e+001
6.885417e+002, 1.176042e+001
6.890239e+002, 1.141549e+001
6.895060e+002, 1.130102e+001
6.899881e+002, 1.146427e+001
6.904702e+002, 1.173538e+001
6.909523e+002, 1.201582e+001
6.914344e+002, 1.226867e+001
6.919166e+002, 1.230345e+001
6.923987e+002, 1.191543e+001
6.928808e+002, 1.163336e+001
6.933629e+002, 1.146970e+001
6.938450e+002, 1.142335e+001
6.943271e+002, 1.158209e+001
6.948093e+002, 1.185247e+001
6.952914e+002, 1.202226e+001
6.957735e+002, 1.199918e+001
6.962556e+002, 1.184266e+001
6.967377e+002, 1.154805e+001
6.972198e+002, 1.117021e+001
6.977020e+002, 1.090000e+001
6.981841e+002, 1.076956e+001
6.986662e+002, 1.071842e+001
6.991483e+002, 1.071211e+001
6.996304e+002, 1.074813e+001
7.001125e+002, 1.081843e+001
7.005947e+002, 1.098275e+001
7.010768e+002, 1.108849e+001
7.015589e+002, 1.108263e+001
7.020410e+002, 1.106534e+001
7.025231e+002, 1.111780e+001
7.030052e+002, 1.120415e+001
7.034874e+002, 1.124788e+001
7.039695e+002, 1.121862e+001
7.044516e+002, 1.111534e+001
7.049337e+002, 1.087230e+001
7.054158e+002, 1.053975e+001
7.058979e+002, 1.039667e+001
7.063801e+002, 1.049838e+001
7.068622e+002, 1.057648e+001
7.073442e+002, 1.043997e+001
7.078264e+002, 1.020108e+001
7.083085e+002, 1.016103e+001
7.087906e+002, 1.042996e+001
7.092727e+002, 1.060453e+001
7.097548e+002, 1.060539e+001
7.102369e+002, 1.055711e+001
7.107191e+002, 1.050448e+001
7.112012e+002, 1.046348e+001
7.116833e+002, 1.044518e+001
7.121654e+002, 1.045406e+001
7.126475e+002, 1.049788e+001
7.131296e+002, 1.062711e+001
7.136118e+002, 1.080995e+001
7.140939e+002, 1.084574e+001
7.145760e+002, 1.070162e+001
7.150581e+002, 1.058570e+001
7.155402e+002, 1.060595e+001
7.160223e+002, 1.069298e+001
7.165045e+002, 1.072688e+001
7.169866e+002, 1.069505e+001
7.174687e+002, 1.069141e+001
7.179508e+002, 1.075394e+001
7.184329e+002, 1.081409e+001
7.189150e+002, 1.085746e+001
7.193972e+002, 1.086870e+001
7.198793e+002, 1.079103e+001
7.203614e+002, 1.062945e+001
7.208435e+002, 1.052781e+001
7.213256e+002, 1.068691e+001
7.218077e+002, 1.100685e+001
7.222899e+002, 1.104625e+001
7.227720e+002, 1.076076e+001
7.232541e+002, 1.056952e+001
7.237362e+002, 1.063372e+001
7.242183e+002, 1.080283e+001
7.247004e+002, 1.092359e+001
7.251826e+002, 1.099676e+001
7.256647e+002, 1.101840e+001
7.261468e+002, 1.090814e+001
7.266289e+002, 1.084270e+001
7.271110e+002, 1.094876e+001
7.275931e+002, 1.109605e+001
7.280753e+002, 1.111868e+001
7.285574e+002, 1.101399e+001
7.290395e+002, 1.091167e+001
7.295216e+002, 1.090906e+001
7.300037e+002, 1.096597e+001
7.304858e+002, 1.099004e+001
7.309680e+002, 1.097984e+001
7.314501e+002, 1.097607e+001
7.319322e+002, 1.098600e+001
7.324143e+002, 1.100586e+001
7.328964e+002, 1.104436e+001
7.333785e+002, 1.109148e+001
7.338607e+002, 1.109643e+001
7.343428e+002, 1.098178e+001
7.348249e+002, 1.094442e+001
7.353070e+002, 1.112813e+001
7.357891e+002, 1.132076e+001
7.362712e+002, 1.130665e+001
7.367534e+002, 1.114595e+001
7.372355e+002, 1.105103e+001
7.377176e+002, 1.112996e+001
7.381997e+002, 1.128530e+001
7.386818e+002, 1.137796e+001
7.391639e+002, 1.141416e+001
7.396461e+002, 1.147521e+001
7.401282e+002, 1.159248e+001
7.406103e+002, 1.160517e+001
7.410924e+002, 1.134925e+001
7.415745e+002, 1.098463e+001
7.420566e+002, 1.089793e+001
7.425388e+002, 1.120101e+001
7.430209e+002, 1.136983e+001
7.435030e+002, 1.125342e+001
7.439851e+002, 1.110643e+001
7.444672e+002, 1.106530e+001
7.449493e+002, 1.108137e+001
7.454315e+002, 1.106196e+001
7.459136e+002, 1.098372e+001
7.463957e+002, 1.090475e+001
7.468778e+002, 1.091449e+001
7.473599e+002, 1.096186e+001
7.478420e+002, 1.083724e+001
7.483242e+002, 1.053315e+001
7.488063e+002, 1.039476e+001
7.492884e+002, 1.059455e+001
7.497705e+002, 1.085784e+001
7.502526e+002, 1.082597e+001
7.507347e+002, 1.047170e+001
7.512169e+002, 1.036166e+001
7.516990e+002, 1.082158e+001
7.521811e+002, 1.108206e+001
7.526632e+002, 1.078708e+001
7.531453e+002, 1.035788e+001
7.536274e+002, 1.017279e+001
7.541096e+002, 1.023609e+001
7.545917e+002, 1.034548e+001
7.550738e+002, 1.040501e+001
7.555559e+002, 1.041873e+001
7.560380e+002, 1.036559e+001
7.565201e+002, 1.026678e+001
7.570023e+002, 1.022600e+001
7.574844e+002, 1.026350e+001
7.579665e+002, 1.030162e+001
7.584486e+002, 1.028485e+001
7.589307e+002, 1.022792e+001
7.594128e+002, 1.017981e+001
7.598950e+002, 1.013884e+001
7.603771e+002, 1.011004e+001
7.608592e+002, 1.007171e+001
7.613413e+002, 1.006732e+001
7.618234e+002, 1.018257e+001
7.623055e+002, 1.032203e+001
7.627877e+002, 1.032486e+001
7.632698e+002, 1.014291e+001
7.637519e+002, 9.918952e+000
7.642340e+002, 9.705184e+000
7.647161e+002, 9.544030e+000
7.651982e+002, 9.558744e+000
7.656804e+002, 9.709673e+000
7.661625e+002, 9.760129e+000
7.666446e+002, 9.614437e+000
7.671267e+002, 9.395535e+000
7.676088e+002, 9.256653e+000
7.680909e+002, 9.197460e+000
7.685731e+002, 9.207965e+000
7.690552e+002, 9.311593e+000
7.695373e+002, 9.448376e+000
7.700194e+002, 9.670527e+000
7.705015e+002, 9.868318e+000
7.709836e+002, 9.939624e+000
7.714658e+002, 9.899873e+000
7.719479e+002, 9.849341e+000
7.724300e+002, 9.799379e+000
7.729121e+002, 9.780360e+000
7.733942e+002, 9.882154e+000
7.738763e+002, 9.998796e+000
7.743585e+002, 9.898206e+000
7.748406e+002, 9.602049e+000
7.753227e+002, 9.416232e+000
7.758048e+002, 9.554242e+000
7.762869e+002, 9.871267e+000
7.767690e+002, 1.002192e+001
7.772512e+002, 9.982224e+000
7.777333e+002, 9.941974e+000
7.782154e+002, 9.928636e+000
7.786975e+002, 9.885211e+000
7.791796e+002, 9.735244e+000
7.796617e+002, 9.555543e+000
7.801439e+002, 9.484351e+000
7.806260e+002, 9.548202e+000
7.811081e+002, 9.603669e+000
7.815902e+002, 9.617113e+000
7.820723e+002, 9.610499e+000
7.825544e+002, 9.578347e+000
7.830366e+002, 9.542873e+000
7.835187e+002, 9.537023e+000
7.840008e+002, 9.569403e+000
7.844829e+002, 9.630059e+000
7.849650e+002, 9.726590e+000
7.854471e+002, 9.834065e+000
7.859293e+002, 9.863432e+000
7.864114e+002, 9.813185e+000
7.868935e+002, 9.791212e+000
7.873756e+002, 9.842908e+000
7.878577e+002, 9.869216e+000
7.883398e+002, 9.754790e+000
7.888220e+002, 9.525533e+000
7.893040e+002, 9.405725e+000
7.897861e+002, 9.415854e+000
7.902682e+002, 9.499994e+000
7.907504e+002, 9.782450e+000
7.912325e+002, 1.001918e+001
7.917146e+002, 1.003178e+001
7.921967e+002, 9.879469e+000
7.926788e+002, 9.686824e+000
7.931609e+002, 9.487229e+000
7.936431e+002, 9.356124e+000
7.941252e+002, 9.398779e+000
7.946073e+002, 9.538749e+000
7.950894e+002, 9.650742e+000
7.955715e+002, 9.724686e+000
7.960536e+002, 9.749261e+000
7.965358e+002, 9.717944e+000
7.970179e+002, 9.655414e+000
7.975000e+002, 9.587531e+000
7.979821e+002, 9.511306e+000
7.984642e+002, 9.503218e+000
7.989464e+002, 9.619017e+000
7.994285e+002, 9.701817e+000
7.999106e+002, 9.653062e+000
8.003927e+002, 9.604954e+000
8.008748e+002, 9.707056e+000
8.013569e+002, 9.913009e+000
8.018391e+002, 9.982452e+000
8.023212e+002, 9.725741e+000
8.028033e+002, 9.506169e+000
8.032854e+002, 9.548342e+000
8.037675e+002, 9.708843e+000
8.042496e+002, 9.845905e+000
8.047318e+002, 9.935817e+000
8.052139e+002, 9.989520e+000
8.056960e+002, 1.001228e+001
8.061781e+002, 9.999585e+000
8.066602e+002, 9.926883e+000
8.071423e+002, 9.800765e+000
8.076245e+002, 9.710601e+000
8.081066e+002, 9.657181e+000
8.085887e+002, 9.659617e+000
8.090708e+002, 9.752471e+000
8.095529e+002, 9.870344e+000
8.100350e+002, 9.914946e+000
8.105172e+002, 9.875380e+000
8.109993e+002, 9.826793e+000
8.114814e+002, 9.721700e+000
8.119635e+002, 9.668035e+000
8.124456e+002, 9.777333e+000
8.129277e+002, 9.892339e+000
8.134099e+002, 9.829915e+000
8.138920e+002, 9.619226e+000
8.143741e+002, 9.444979e+000
8.148562e+002, 9.379003e+000
8.153383e+002, 9.427210e+000
8.158204e+002, 9.721910e+000
8.163026e+002, 1.010434e+001
8.167847e+002, 1.015331e+001
8.172668e+002, 9.862146e+000
8.177489e+002, 9.639686e+000
8.182310e+002, 9.728778e+000
8.187131e+002, 9.962466e+000
8.191953e+002, 1.000780e+001
8.196774e+002, 9.824995e+000
8.201595e+002, 9.695573e+000
8.206416e+002, 9.585559e+000
8.211237e+002, 9.594904e+000
8.216058e+002, 9.887129e+000
8.220880e+002, 1.022899e+001
8.225701e+002, 1.035412e+001
8.230522e+002, 1.026618e+001
8.235343e+002, 1.015850e+001
8.240164e+002, 1.006148e+001
8.244985e+002, 9.961322e+000
8.249807e+002, 9.803074e+000
8.254628e+002, 9.669869e+000
8.259449e+002, 9.703826e+000
8.264270e+002, 9.863340e+000
8.269091e+002, 9.944320e+000
8.273912e+002, 9.818884e+000
8.278734e+002, 9.631555e+000
8.283555e+002, 9.600545e+000
8.288376e+002, 9.685926e+000
8.293197e+002, 9.713798e+000
8.298018e+002, 9.668522e+000
8.302839e+002, 9.627353e+000
8.307661e+002, 9.622436e+000
8.312482e+002, 9.662927e+000
8.317303e+002, 9.781620e+000
8.322124e+002, 1.000658e+001
8.326945e+002, 1.009697e+001
8.331766e+002, 9.900358e+000
8.336588e+002, 9.788741e+000
8.341409e+002, 9.955402e+000
8.346230e+002, 1.014653e+001
8.351051e+002, 1.013853e+001
8.355872e+002, 9.957123e+000
8.360693e+002, 9.782427e+000
8.365515e+002, 9.594858e+000
8.370336e+002, 9.541750e+000
8.375157e+002, 9.864308e+000
8.379978e+002, 1.025749e+001
8.384799e+002, 1.035605e+001
8.389620e+002, 1.018456e+001
8.394442e+002, 9.919190e+000
8.399263e+002, 9.641713e+000
8.404084e+002, 9.450721e+000
8.408905e+002, 9.560122e+000
8.413726e+002, 9.896768e+000
8.418547e+002, 1.001936e+001
8.423369e+002, 9.909679e+000
8.428190e+002, 9.756156e+000
8.433011e+002, 9.604692e+000
8.437832e+002, 9.496277e+000
8.442653e+002, 9.485637e+000
8.447474e+002, 9.570548e+000
8.452296e+002, 9.661649e+000
8.457117e+002, 9.833507e+000
8.461938e+002, 9.898396e+000
8.466759e+002, 9.732625e+000
8.471580e+002, 9.560213e+000
8.476401e+002, 9.514112e+000
8.481223e+002, 9.570877e+000
8.486044e+002, 9.667863e+000
8.490865e+002, 9.801086e+000
8.495686e+002, 9.920023e+000
8.500507e+002, 1.000387e+001
8.505328e+002, 1.005550e+001
8.510150e+002, 1.008066e+001
8.514971e+002, 1.007638e+001
8.519792e+002, 1.002047e+001
8.524613e+002, 9.913469e+000
8.529434e+002, 9.813733e+000
8.534255e+002, 9.786439e+000
8.539077e+002, 9.804842e+000
8.543898e+002, 9.761561e+000
8.548719e+002, 9.656540e+000
8.553540e+002, 9.689420e+000
8.558361e+002, 9.948092e+000
8.563182e+002, 1.012472e+001
8.568004e+002, 9.939098e+000
8.572825e+002, 9.533399e+000
8.577646e+002, 9.372901e+000
8.582467e+002, 9.617014e+000
8.587288e+002, 9.762036e+000
8.592109e+002, 9.707999e+000
8.596931e+002, 9.674443e+000
8.601752e+002, 9.818094e+000
8.606573e+002, 9.979078e+000
8.611394e+002, 9.915735e+000
8.616215e+002, 9.618365e+000
8.621036e+002, 9.411669e+000
8.625858e+002, 9.499144e+000
8.630679e+002, 9.639380e+000
8.635500e+002, 9.685532e+000
8.640321e+002, 9.672281e+000
8.645142e+002, 9.629377e+000
8.649963e+002, 9.575939e+000
8.654785e+002, 9.566128e+000
8.659606e+002, 9.640113e+000
8.664427e+002, 9.704393e+000
8.669248e+002, 9.572626e+000
8.674069e+002, 9.293818e+000
8.678890e+002, 9.122717e+000
8.683712e+002, 9.075124e+000
8.688533e+002, 9.134484e+000
8.693354e+002, 9.326670e+000
8.698175e+002, 9.507009e+000
8.702996e+002, 9.463235e+000
8.707817e+002, 9.192575e+000
8.712639e+002, 9.027719e+000
8.717459e+002, 9.016184e+000
8.722280e+002, 9.026873e+000
8.727101e+002, 9.059298e+000
8.731923e+002, 9.089377e+000
8.736744e+002, 9.087634e+000
8.741565e+002, 9.074276e+000
8.746386e+002, 9.114111e+000
8.751207e+002, 9.264133e+000
8.756028e+002, 9.322234e+000
8.760850e+002, 9.100181e+000
8.765671e+002, 8.874212e+000
8.770492e+002, 8.858021e+000
8.775313e+002, 8.979802e+000
8.780134e+002, 9.139675e+000
8.784955e+002, 9.290052e+000
8.789777e+002, 9.336298e+000
8.794598e+002, 9.151598e+000
8.799419e+002, 8.882751e+000
8.804240e+002, 8.775651e+000
8.809061e+002, 8.793299e+000
8.813882e+002, 8.807330e+000
8.818704e+002, 8.796144e+000
8.823525e+002, 8.771821e+000
8.828346e+002, 8.738063e+000
8.833167e+002, 8.713288e+000
8.837988e+002, 8.751399e+000
8.842809e+002, 8.872947e+000
8.847631e+002, 8.890258e+000
8.852452e+002, 8.743786e+000
8.857273e+002, 8.638511e+000
8.862094e+002, 8.637904e+000
8.866915e+002, 8.717390e+000
8.871736e+002, 8.923959e+000
8.876558e+002, 9.234864e+000
8.881379e+002, 9.308721e+000
8.886200e+002, 8.854845e+000
8.891021e+002, 8.560457e+000
8.895842e+002, 8.722449e+000
8.900663e+002, 8.911103e+000
8.905485e+002, 8.761505e+000
8.910306e+002, 8.432657e+000
8.915127e+002, 8.282800e+000
8.919948e+002, 8.414232e+000
8.924769e+002, 8.599504e+000
8.929590e+002, 8.743884e+000
8.934412e+002, 8.827664e+000
8.939233e+002, 8.794826e+000
8.944054e+002, 8.694319e+000
8.948875e+002, 8.639041e+000
8.953696e+002, 8.642983e+000
8.958517e+002, 8.613460e+000
8.963339e+002, 8.473258e+000
8.968160e+002, 8.288080e+000
8.972981e+002, 8.169107e+000
8.977802e+002, 8.120246e+000
8.982623e+002, 8.218874e+000
8.987444e+002, 8.490279e+000
8.992266e+002, 8.672626e+000
8.997087e+002, 8.629856e+000
9.001908e+002, 8.469445e+000
9.006729e+002, 8.337553e+000
9.011550e+002, 8.232286e+000
9.016371e+002, 8.201366e+000
9.021193e+002, 8.281013e+000
9.026014e+002, 8.367918e+000
9.030835e+002, 8.449044e+000
9.035656e+002, 8.526097e+000
9.040477e+002, 8.656798e+000
9.045298e+002, 8.778666e+000
9.050120e+002, 8.703460e+000
9.054941e+002, 8.307170e+000
9.059762e+002, 8.014106e+000
9.064583e+002, 7.973323e+000
9.069404e+002, 8.016288e+000
9.074225e+002, 8.069136e+000
9.079047e+002, 8.130479e+000
9.083868e+002, 8.230153e+000
9.088689e+002, 8.357518e+000
9.093510e+002, 8.429859e+000
9.098331e+002, 8.370347e+000
9.103152e+002, 8.279682e+000
9.107974e+002, 8.245907e+000
9.112795e+002, 8.260198e+000
9.117616e+002, 8.333905e+000
9.122437e+002, 8.445465e+000
9.127258e+002, 8.505134e+000
9.132079e+002, 8.470213e+000
9.136901e+002, 8.400145e+000
9.141722e+002, 8.377244e+000
9.146543e+002, 8.390001e+000
9.151364e+002, 8.364553e+000
9.156185e+002, 8.298965e+000
9.161006e+002, 8.252473e+000
9.165828e+002, 8.243976e+000
9.170649e+002, 8.235427e+000
9.175470e+002, 8.189300e+000
9.180291e+002, 8.123219e+000
9.185112e+002, 8.102739e+000
9.189933e+002, 8.145208e+000
9.194755e+002, 8.191645e+000
9.199576e+002, 8.277850e+000
9.204397e+002, 8.315858e+000
9.209218e+002, 8.175722e+000
9.214039e+002, 8.032157e+000
9.218860e+002, 8.133615e+000
9.223682e+002, 8.465887e+000
9.228503e+002, 8.640819e+000
9.233324e+002, 8.488194e+000
9.238145e+002, 8.330693e+000
9.242966e+002, 8.259207e+000
9.247787e+002, 8.215209e+000
9.252609e+002, 8.156839e+000
9.257430e+002, 8.087747e+000
9.262251e+002, 7.998459e+000
9.267072e+002, 7.882594e+000
9.271893e+002, 7.877944e+000
9.276714e+002, 8.233823e+000
9.281536e+002, 8.603809e+000
9.286357e+002, 8.563580e+000
9.291178e+002, 8.299592e+000
9.295999e+002, 8.196172e+000
9.300820e+002, 8.295551e+000
9.305641e+002, 8.381532e+000
9.310463e+002, 8.312735e+000
9.315284e+002, 8.182034e+000
9.320105e+002, 8.168411e+000
9.324926e+002, 8.221121e+000
9.329747e+002, 8.068958e+000
9.334568e+002, 7.718036e+000
9.339390e+002, 7.534043e+000
9.344211e+002, 7.664195e+000
9.349032e+002, 7.893655e+000
9.353853e+002, 7.994607e+000
9.358674e+002, 7.986485e+000
9.363495e+002, 7.975558e+000
9.368317e+002, 7.952784e+000
9.373138e+002, 7.977002e+000
9.377959e+002, 8.096319e+000
9.382780e+002, 8.171394e+000
9.387601e+002, 8.123351e+000
9.392422e+002, 7.984466e+000
9.397244e+002, 7.780697e+000
9.402065e+002, 7.468736e+000
9.406886e+002, 7.349578e+000
9.411707e+002, 7.628844e+000
9.416528e+002, 7.811977e+000
9.421349e+002, 7.706029e+000
9.426171e+002, 7.563052e+000
9.430992e+002, 7.541692e+000
9.435813e+002, 7.636559e+000
9.440634e+002, 7.846862e+000
9.445455e+002, 8.257907e+000
9.450276e+002, 8.454844e+000
9.455098e+002, 8.065833e+000
9.459919e+002, 7.654940e+000
9.464740e+002, 7.647754e+000
9.469561e+002, 7.822085e+000
9.474382e+002, 7.844129e+000
9.479203e+002, 7.693674e+000
9.484025e+002, 7.580710e+000
9.488846e+002, 7.611987e+000
9.493667e+002, 7.733256e+000
9.498488e+002, 7.990555e+000
9.503309e+002, 8.248202e+000
9.508130e+002, 8.241191e+000
9.512952e+002, 8.038461e+000
9.517773e+002, 7.914723e+000
9.522594e+002, 7.961246e+000
9.527415e+002, 8.068203e+000
9.532236e+002, 8.149953e+000
9.537057e+002, 8.192970e+000
9.541878e+002, 8.153055e+000
9.546699e+002, 8.040232e+000
9.551520e+002, 7.901408e+000
9.556342e+002, 7.743195e+000
9.561163e+002, 7.657241e+000
9.565984e+002, 7.702463e+000
9.570805e+002, 7.787067e+000
9.575626e+002, 7.747302e+000
9.580447e+002, 7.587468e+000
9.585269e+002, 7.588533e+000
9.590090e+002, 7.810585e+000
9.594911e+002, 7.927078e+000
9.599732e+002, 7.832016e+000
9.604553e+002, 7.695267e+000
9.609374e+002, 7.622008e+000
9.614196e+002, 7.614220e+000
9.619017e+002, 7.682053e+000
9.623838e+002, 7.848672e+000
9.628659e+002, 8.020506e+000
9.633480e+002, 8.273761e+000
9.638301e+002, 8.426354e+000
9.643123e+002, 8.408428e+000
9.647944e+002, 8.291183e+000
9.652765e+002, 8.089664e+000
9.657586e+002, 7.833966e+000
9.662407e+002, 7.644437e+000
9.667228e+002, 7.516074e+000
9.672050e+002, 7.493199e+000
9.676871e+002, 7.668562e+000
9.681692e+002, 7.862107e+000
9.686513e+002, 8.032165e+000
9.691334e+002, 8.122989e+000
9.696155e+002, 8.009847e+000
9.700977e+002, 7.720512e+000
9.705798e+002, 7.530357e+000
9.710619e+002, 7.601053e+000
9.715440e+002, 7.735608e+000
9.720261e+002, 7.866317e+000
9.725082e+002, 7.954181e+000
9.729904e+002, 7.925209e+000
9.734725e+002, 7.824889e+000
9.739546e+002, 7.750657e+000
9.744367e+002, 7.733977e+000
9.749188e+002, 7.758200e+000
9.754009e+002, 7.824400e+000
9.758831e+002, 7.908744e+000
9.763652e+002, 7.989157e+000
9.768473e+002, 8.059971e+000
9.773294e+002, 8.113095e+000
9.778115e+002, 8.145562e+000
9.782936e+002, 8.146444e+000
9.787758e+002, 8.110740e+000
9.792579e+002, 8.059460e+000
9.797400e+002, 8.005079e+000
9.802221e+002, 7.960844e+000
9.807042e+002, 7.990576e+000
9.811863e+002, 8.082287e+000
9.816685e+002, 8.128535e+000
9.821506e+002, 8.108207e+000
9.826327e+002, 8.105978e+000
9.831148e+002, 8.180529e+000
9.835969e+002, 8.288594e+000
9.840790e+002, 8.349201e+000
9.845612e+002, 8.362124e+000
9.850433e+002, 8.359134e+000
9.855254e+002, 8.336581e+000
9.860075e+002, 8.317107e+000
9.864896e+002, 8.301721e+000
9.869717e+002, 8.303145e+000
9.874539e+002, 8.322794e+000
9.879360e+002, 8.375937e+000
9.884181e+002, 8.529234e+000
9.889002e+002, 8.857409e+000
9.893823e+002, 9.009886e+000
9.898644e+002, 8.897950e+000
9.903466e+002, 8.777919e+000
9.908287e+002, 8.697437e+000
9.913108e+002, 8.675609e+000
9.917929e+002, 8.748551e+000
9.922750e+002, 8.900710e+000
9.927571e+002, 9.039191e+000
9.932393e+002, 9.150012e+000
9.937214e+002, 9.271901e+000
9.942035e+002, 9.376282e+000
9.946856e+002, 9.527852e+000
9.951677e+002, 9.803087e+000
9.956498e+002, 1.010156e+001
9.961320e+002, 1.032673e+001
9.966141e+002, 1.047487e+001
9.970962e+002, 1.055970e+001
9.975783e+002, 1.049962e+001
9.980604e+002, 1.051589e+001
9.985425e+002, 1.069674e+001
9.990247e+002, 1.093598e+001
9.995068e+002, 1.113826e+001
9.999889e+002, 1.137088e+001
1.000471e+003, 1.173943e+001
1.000953e+003, 1.225122e+001
1.001435e+003, 1.281995e+001
1.001917e+003, 1.344507e+001
1.002399e+003, 1.406297e+001
1.002882e+003, 1.461933e+001
1.003364e+003, 1.516770e+001
1.003846e+003, 1.564852e+001
1.004328e+003, 1.620317e+001
1.004810e+003, 1.704283e+001
1.005292e+003, 1.823646e+001
1.005774e+003, 1.983136e+001
1.006256e+003, 2.189228e+001
1.006739e+003, 2.433766e+001
1.007221e+003, 2.717162e+001
1.007703e+003, 3.028060e+001
1.008185e+003, 3.364476e+001
1.008667e+003, 3.711524e+001
1.009149e+003, 4.041012e+001
1.009631e+003, 4.340236e+001
1.010113e+003, 4.603005e+001
1.010595e+003, 4.801716e+001
1.011078e+003, 4.982314e+001
1.011560e+003, 5.196689e+001
1.012042e+003, 5.451940e+001
1.012524e+003, 5.760606e+001
1.013006e+003, 6.127053e+001
1.013488e+003, 6.557433e+001
1.013970e+003, 7.056474e+001
1.014452e+003, 7.627415e+001
1.014935e+003, 8.277341e+001
1.015417e+003, 9.000224e+001
1.015899e+003, 9.767281e+001
1.016381e+003, 1.059294e+002
1.016863e+003, 1.152135e+002
1.017345e+003, 1.255993e+002
1.017827e+003, 1.374892e+002
1.018309e+003, 1.511007e+002
1.018791e+003, 1.661162e+002
1.019274e+003, 1.831703e+002
1.019756e+003, 2.009236e+002
1.020238e+003, 2.144513e+002
1.020720e+003, 2.235237e+002
1.021202e+003, 2.223727e+002
1.021684e+003, 2.097669e+002
1.022166e+003, 1.899134e+002
1.022648e+003, 1.643923e+002
1.023130e+003, 1.369530e+002
1.023613e+003, 1.131818e+002
1.024095e+003, 9.301637e+001
1.024577e+003, 7.605946e+001
1.025059e+003, 6.243660e+001
1.025541e+003, 5.166381e+001
1.026023e+003, 4.388253e+001
1.026505e+003, 3.780705e+001
1.026987e+003, 3.272929e+001
1.027469e+003, 2.865391e+001
1.027952e+003, 2.571736e+001
1.028434e+003, 2.394537e+001
1.028916e+003, 2.218519e+001
1.029398e+003, 2.035390e+001
1.029880e+003, 1.881301e+001
1.030362e+003, 1.766000e+001
1.030844e+003, 1.673344e+001
1.031326e+003, 1.595975e+001
1.031809e+003, 1.530821e+001
1.032291e+003, 1.470265e+001
1.032773e+003, 1.412586e+001
1.033255e+003, 1.376431e+001
1.033737e+003, 1.376476e+001
1.034219e+003, 1.366089e+001
1.034701e+003, 1.337086e+001
1.035183e+003, 1.293894e+001
1.035666e+003, 1.226390e+001
1.036148e+003, 1.154777e+001
1.036630e+003, 1.124971e+001
1.037112e+003, 1.146277e+001
1.037594e+003, 1.157542e+001
1.038076e+003, 1.163237e+001
1.038558e+003, 1.150954e+001
1.039040e+003, 1.094440e+001
1.039522e+003, 1.045743e+001
1.040005e+003, 1.048176e+001
1.040487e+003, 1.078898e+001
1.040969e+003, 1.089159e+001
1.041451e+003, 1.074454e+001
1.041933e+003, 1.063431e+001
1.042415e+003, 1.065484e+001
1.042897e+003, 1.058786e+001
1.043379e+003, 1.028851e+001
1.043861e+003, 9.994358e+000
1.044344e+003, 9.887869e+000
1.044826e+003, 9.886097e+000
1.045308e+003, 9.809647e+000
1.045790e+003, 9.625175e+000
1.046272e+003, 9.529298e+000
1.046754e+003, 9.728709e+000
1.047236e+003, 9.762297e+000
1.047718e+003, 9.309220e+000
1.048201e+003, 8.858108e+000
1.048683e+003, 8.766477e+000
1.049165e+003, 8.909014e+000
1.049647e+003, 9.043821e+000
1.050129e+003, 9.147127e+000
1.050611e+003, 9.202113e+000
1.051093e+003, 9.161362e+000
1.051575e+003, 9.131338e+000
1.052057e+003, 9.182709e+000
1.052540e+003, 9.217614e+000
1.053022e+003, 9.145634e+000
1.053504e+003, 9.013317e+000
1.053986e+003, 8.907504e+000
1.054468e+003, 8.840405e+000
1.054950e+003, 8.787403e+000
1.055432e+003, 8.772829e+000
1.055914e+003, 8.729559e+000
1.056396e+003, 8.587194e+000
1.056879e+003, 8.453898e+000
1.057361e+003, 8.456810e+000
1.057843e+003, 8.507656e+000
1.058325e+003, 8.406590e+000
1.058807e+003, 8.130403e+000
1.059289e+003, 7.987883e+000
1.059771e+003, 8.214411e+000
1.060253e+003, 8.409358e+000
1.060736e+003, 8.437978e+000
1.061218e+003, 8.362168e+000
1.061700e+003, 8.135132e+000
1.062182e+003, 7.881295e+000
1.062664e+003, 7.814658e+000
1.063146e+003, 7.954939e+000
1.063628e+003, 8.083203e+000
1.064110e+003, 8.155481e+000
1.064593e+003, 8.151771e+000
1.065075e+003, 8.013896e+000
1.065557e+003, 7.846505e+000
1.066039e+003, 7.684516e+000
1.066521e+003, 7.569909e+000
1.067003e+003, 7.592099e+000
1.067485e+003, 7.740008e+000
1.067967e+003, 7.829928e+000
1.068449e+003, 7.773167e+000
1.068932e+003, 7.681954e+000
1.069414e+003, 7.566256e+000
1.069896e+003, 7.475646e+000
1.070378e+003, 7.432759e+000
1.070860e+003, 7.446586e+000
1.071342e+003, 7.579911e+000
1.071824e+003, 7.797275e+000
1.072306e+003, 7.875368e+000
1.072788e+003, 7.655460e+000
1.073271e+003, 7.462761e+000
1.073753e+003, 7.532124e+000
1.074235e+003, 7.595633e+000
1.074717e+003, 7.398886e+000
1.075199e+003, 7.115125e+000
1.075681e+003, 6.969987e+000
1.076163e+003, 6.980185e+000
1.076645e+003, 7.061685e+000
1.077127e+003, 7.221475e+000
1.077610e+003, 7.333873e+000
1.078092e+003, 7.318651e+000
1.078574e+003, 7.260651e+000
1.079056e+003, 7.172987e+000
1.079538e+003, 7.106458e+000
1.080020e+003, 7.121524e+000
1.080502e+003, 7.210264e+000
1.080984e+003, 7.334551e+000
1.081467e+003, 7.498344e+000
1.081949e+003, 7.616071e+000
1.082431e+003, 7.620593e+000
1.082913e+003, 7.601501e+000
1.083395e+003, 7.604066e+000
1.083877e+003, 7.618592e+000
1.084359e+003, 7.654536e+000
1.084841e+003, 7.687418e+000
1.085323e+003, 7.651304e+000
1.085806e+003, 7.521412e+000
1.086288e+003, 7.400466e+000
1.086770e+003, 7.316363e+000
1.087252e+003, 7.271378e+000
1.087734e+003, 7.321745e+000
1.088216e+003, 7.363302e+000
1.088698e+003, 7.281326e+000
1.089180e+003, 7.118979e+000
1.089662e+003, 6.976349e+000
1.090145e+003, 6.873193e+000
1.090627e+003, 6.791878e+000
1.091109e+003, 6.730146e+000
1.091591e+003, 6.682242e+000
1.092073e+003, 6.540497e+000
1.092555e+003, 6.512950e+000
1.093037e+003, 6.937155e+000
1.093519e+003, 7.511766e+000
1.094002e+003, 7.683936e+000
1.094484e+003, 7.404552e+000
1.094966e+003, 7.190673e+000
1.095448e+003, 7.336424e+000
1.095930e+003, 7.376052e+000
1.096412e+003, 6.991415e+000
1.096894e+003, 6.632151e+000
1.097376e+003, 6.603160e+000
1.097859e+003, 6.760509e+000
1.098341e+003, 6.930107e+000
1.098823e+003, 7.081003e+000
1.099305e+003, 7.188949e+000
1.099787e+003, 7.262545e+000
1.100269e+003, 7.262802e+000
1.100751e+003, 7.072935e+000
1.101233e+003, 6.934199e+000
1.101715e+003, 6.971394e+000
1.102198e+003, 7.114356e+000
1.102680e+003, 7.357329e+000
1.103162e+003, 7.637415e+000
1.103644e+003, 7.744894e+000
1.104126e+003, 7.590263e+000
1.104608e+003, 7.454912e+000
1.105090e+003, 7.307310e+000
1.105572e+003, 7.292386e+000
1.106054e+003, 7.613831e+000
1.106537e+003, 7.946590e+000
1.107019e+003, 8.024570e+000
1.107501e+003, 7.911315e+000
1.107983e+003, 7.771589e+000
1.108465e+003, 7.606094e+000
1.108947e+003, 7.480643e+000
1.109429e+003, 7.436874e+000
1.109911e+003, 7.382220e+000
1.110394e+003, 7.201378e+000
1.110876e+003, 7.107107e+000
1.111358e+003, 7.323514e+000
1.111840e+003, 7.663350e+000
1.112322e+003, 7.815953e+000
1.112804e+003, 7.769410e+000
1.113286e+003, 7.706061e+000
1.113768e+003, 7.577068e+000
1.114250e+003, 7.514029e+000
1.114733e+003, 7.577517e+000
1.115215e+003, 7.637250e+000
1.115697e+003, 7.619808e+000
1.116179e+003, 7.589229e+000
1.116661e+003, 7.635245e+000
1.117143e+003, 7.740079e+000
1.117625e+003, 7.766463e+000
1.118107e+003, 7.652518e+000
1.118589e+003, 7.609782e+000
1.119072e+003, 7.670778e+000
1.119554e+003, 7.739394e+000
1.120036e+003, 7.770554e+000
1.120518e+003, 7.824662e+000
1.121000e+003, 7.955343e+000
1.121482e+003, 8.147974e+000
1.121964e+003, 8.356826e+000
1.122446e+003, 8.576319e+000
1.122929e+003, 8.882489e+000
1.123411e+003, 9.389998e+000
1.123893e+003, 9.561766e+000
1.124375e+003, 9.184832e+000
1.124857e+003, 8.731928e+000
1.125339e+003, 8.454103e+000
1.125821e+003, 8.388337e+000
1.126303e+003, 8.636740e+000
1.126786e+003, 9.177450e+000
1.127268e+003, 9.605270e+000
1.127750e+003, 9.905662e+000
1.128232e+003, 1.021184e+001
1.128714e+003, 1.054556e+001
1.129196e+003, 1.081906e+001
1.129678e+003, 1.097692e+001
1.130160e+003, 1.114146e+001
1.130642e+003, 1.145265e+001
1.131125e+003, 1.188180e+001
1.131607e+003, 1.235857e+001
1.132089e+003, 1.287414e+001
1.132571e+003, 1.322933e+001
1.133053e+003, 1.342255e+001
1.133535e+003, 1.372953e+001
1.134017e+003, 1.423471e+001
1.134499e+003, 1.479054e+001
1.134981e+003, 1.528907e+001
1.135464e+003, 1.573614e+001
1.135946e+003, 1.607265e+001
1.136428e+003, 1.637454e+001
1.136910e+003, 1.698892e+001
1.137392e+003, 1.785290e+001
1.137874e+003, 1.863054e+001
1.138356e+003, 1.927812e+001
1.138838e+003, 2.000411e+001
1.139321e+003, 2.091999e+001
1.139803e+003, 2.177835e+001
1.140285e+003, 2.216569e+001
1.140767e+003, 2.245386e+001
1.141249e+003, 2.353595e+001
1.141731e+003, 2.496929e+001
1.142213e+003, 2.569839e+001
1.142695e+003, 2.582051e+001
1.143177e+003, 2.602694e+001
1.143660e+003, 2.654751e+001
1.144142e+003, 2.725083e+001
1.144624e+003, 2.810854e+001
1.145106e+003, 2.896322e+001
1.145588e+003, 2.960330e+001
1.146070e+003, 3.018524e+001
1.146552e+003, 3.092194e+001
1.147034e+003, 3.174518e+001
1.147516e+003, 3.251287e+001
1.147999e+003, 3.321032e+001
1.148481e+003, 3.395052e+001
1.148963e+003, 3.484188e+001
1.149445e+003, 3.541680e+001
1.149927e+003, 3.524405e+001
1.150409e+003, 3.480297e+001
1.150891e+003, 3.443837e+001
1.151373e+003, 3.399167e+001
1.151856e+003, 3.330423e+001
1.152338e+003, 3.237288e+001
1.152820e+003, 3.121220e+001
1.153302e+003, 2.982637e+001
1.153784e+003, 2.835175e+001
1.154266e+003, 2.677632e+001
1.154748e+003, 2.519137e+001
1.155230e+003, 2.347504e+001
1.155713e+003, 2.192671e+001
1.156195e+003, 2.083200e+001
1.156677e+003, 1.994343e+001
1.157159e+003, 1.892213e+001
1.157641e+003, 1.777375e+001
1.158123e+003, 1.671487e+001
1.158605e+003, 1.577615e+001
1.159087e+003, 1.488702e+001
1.159569e+003, 1.389206e+001
1.160052e+003, 1.315387e+001
1.160534e+003, 1.292663e+001
1.161016e+003, 1.280499e+001
1.161498e+003, 1.252981e+001
1.161980e+003, 1.212854e+001
1.162462e+003, 1.163398e+001
1.162944e+003, 1.102109e+001
1.163426e+003, 1.058664e+001
1.163908e+003, 1.041228e+001
1.164391e+003, 1.017345e+001
1.164873e+003, 9.800042e+000
1.165355e+003, 9.434199e+000
1.165837e+003, 9.115545e+000
1.166319e+003, 8.913905e+000
1.166801e+003, 8.950436e+000
1.167283e+003, 9.132071e+000
1.167765e+003, 9.057066e+000
1.168247e+003, 8.716525e+000
1.168730e+003, 8.362020e+000
1.169212e+003, 8.001268e+000
1.169694e+003, 7.795713e+000
1.170176e+003, 7.792972e+000
1.170658e+003, 7.826802e+000
1.171140e+003, 7.781436e+000
1.171622e+003, 7.720787e+000
1.172104e+003, 7.779940e+000
1.172587e+003, 7.895653e+000
1.173069e+003, 7.819684e+000
1.173551e+003, 7.612212e+000
1.174033e+003, 7.505240e+000
1.174515e+003, 7.512002e+000
1.174997e+003, 7.513532e+000
1.175479e+003, 7.469235e+000
1.175961e+003, 7.480932e+000
1.176443e+003, 7.685487e+000
1.176926e+003, 7.866951e+000
1.177408e+003, 7.682024e+000
1.177890e+003, 7.358052e+000
1.178372e+003, 7.202551e+000
1.178854e+003, 7.180871e+000
1.179336e+003, 7.213852e+000
1.179818e+003, 7.260345e+000
1.180300e+003, 7.246212e+000
1.180782e+003, 7.134669e+000
1.181265e+003, 7.013115e+000
1.181747e+003, 6.884621e+000
1.182229e+003, 6.824523e+000
1.182711e+003, 6.974009e+000
1.183193e+003, 7.133725e+000
1.183675e+003, 7.083689e+000
1.184157e+003, 6.912342e+000
1.184639e+003, 6.807493e+000
1.185122e+003, 6.793733e+000
1.185604e+003, 6.775812e+000
1.186086e+003, 6.724350e+000
1.186568e+003, 6.679646e+000
1.187050e+003, 6.615675e+000
1.187532e+003, 6.600434e+000
1.188014e+003, 6.694382e+000
1.188496e+003, 6.823175e+000
1.188979e+003, 6.947415e+000
1.189461e+003, 7.044269e+000
1.189943e+003, 7.034628e+000
1.190425e+003, 6.892489e+000
1.190907e+003, 6.800371e+000
1.191389e+003, 6.782802e+000
1.191871e+003, 6.739886e+000
1.192353e+003, 6.630896e+000
1.192835e+003, 6.576912e+000
1.193318e+003, 6.656008e+000
1.193800e+003, 6.766607e+000
1.194282e+003, 6.781215e+000
1.194764e+003, 6.727594e+000
1.195246e+003, 6.735878e+000
1.195728e+003, 6.799751e+000
1.196210e+003, 6.690803e+000
1.196692e+003, 6.415101e+000
1.197174e+003, 6.322745e+000
1.197657e+003, 6.492421e+000
1.198139e+003, 6.682868e+000
1.198621e+003, 6.744915e+000
1.199103e+003, 6.752091e+000
1.199585e+003, 6.829796e+000
1.200067e+003, 6.899429e+000
1.200549e+003, 6.723512e+000
1.201031e+003, 6.449145e+000
1.201514e+003, 6.431376e+000
1.201996e+003, 6.620317e+000
1.202478e+003, 6.774355e+000
1.202960e+003, 6.819628e+000
1.203442e+003, 6.782411e+000
1.203924e+003, 6.651525e+000
1.204406e+003, 6.524295e+000
1.204888e+003, 6.451013e+000
1.205370e+003, 6.437347e+000
1.205853e+003, 6.531947e+000
1.206335e+003, 6.656756e+000
1.206817e+003, 6.752912e+000
1.207299e+003, 6.791606e+000
1.207781e+003, 6.698471e+000
1.208263e+003, 6.446524e+000
1.208745e+003, 6.292540e+000
1.209227e+003, 6.390098e+000
1.209709e+003, 6.453683e+000
1.210192e+003, 6.366280e+000
1.210674e+003, 6.299841e+000
1.211156e+003, 6.316447e+000
1.211638e+003, 6.419495e+000
1.212120e+003, 6.685457e+000
1.212602e+003, 7.027711e+000
1.213084e+003, 7.092786e+000
1.213566e+003, 6.801157e+000
1.214049e+003, 6.639470e+000
1.214531e+003, 6.645627e+000
1.215013e+003, 6.629822e+000
1.215495e+003, 6.552190e+000
1.215977e+003, 6.476403e+000
1.216459e+003, 6.441733e+000
1.216941e+003, 6.380349e+000
1.217423e+003, 6.161660e+000
1.217906e+003, 5.930563e+000
1.218388e+003, 6.276854e+000
1.218870e+003, 7.028892e+000
1.219352e+003, 7.286096e+000
1.219834e+003, 7.083175e+000
1.220316e+003, 6.822700e+000
1.220798e+003, 6.625432e+000
1.221280e+003, 6.569984e+000
1.221762e+003, 6.703474e+000
1.222245e+003, 6.861931e+000
1.222727e+003, 6.915236e+000
1.223209e+003, 6.871264e+000
1.223691e+003, 6.652528e+000
1.224173e+003, 6.408279e+000
1.224655e+003, 6.332690e+000
1.225137e+003, 6.390821e+000
1.225619e+003, 6.521648e+000
1.226101e+003, 6.684116e+000
1.226584e+003, 6.755200e+000
1.227066e+003, 6.657861e+000
1.227548e+003, 6.567422e+000
1.228030e+003, 6.537955e+000
1.228512e+003, 6.535238e+000
1.228994e+003, 6.606617e+000
1.229476e+003, 6.638726e+000
1.229958e+003, 6.519439e+000
1.230441e+003, 6.311010e+000
1.230923e+003, 6.086241e+000
1.231405e+003, 5.851242e+000
1.231887e+003, 5.856179e+000
1.232369e+003, 6.208198e+000
1.232851e+003, 6.475937e+000
1.233333e+003, 6.639351e+000
1.233815e+003, 6.714778e+000
1.234297e+003, 6.686614e+000
1.234780e+003, 6.660639e+000
1.235262e+003, 6.710756e+000
1.235744e+003, 6.824112e+000
1.236226e+003, 7.027698e+000
1.236708e+003, 7.250552e+000
1.237190e+003, 7.115293e+000
1.237672e+003, 6.727815e+000
1.238154e+003, 6.592246e+000
1.238636e+003, 6.696494e+000
1.239119e+003, 6.690349e+000
1.239601e+003, 6.491778e+000
1.240083e+003, 6.327466e+000
1.240565e+003, 6.340375e+000
1.241047e+003, 6.438176e+000
1.241529e+003, 6.598325e+000
1.242011e+003, 6.730932e+000
1.242493e+003, 6.730687e+000
1.242975e+003, 6.665538e+000
1.243458e+003, 6.562853e+000
1.243940e+003, 6.488189e+000
1.244422e+003, 6.604179e+000
1.244904e+003, 6.911461e+000
1.245386e+003, 7.071156e+000
1.245868e+003, 6.900831e+000
1.246350e+003, 6.752697e+000
1.246832e+003, 6.647412e+000
1.247315e+003, 6.627635e+000
1.247797e+003, 6.802706e+000
1.248279e+003, 6.949244e+000
1.248761e+003, 6.877759e+000
1.249243e+003, 6.709044e+000
1.249725e+003, 6.665662e+000
1.250207e+003, 6.738677e+000
1.250689e+003, 6.757843e+000
1.251172e+003, 6.710472e+000
1.251654e+003, 6.774812e+000
1.252136e+003, 6.971420e+000
1.252618e+003, 7.051550e+000
1.253100e+003, 6.941427e+000
1.253582e+003, 6.859551e+000
1.254064e+003, 6.958908e+000
1.254546e+003, 7.132319e+000
1.255028e+003, 7.260874e+000
1.255510e+003, 7.337571e+000
1.255993e+003, 7.340970e+000
1.256475e+003, 7.286171e+000
1.256957e+003, 7.139267e+000
1.257439e+003, 6.977730e+000
1.257921e+003, 7.031451e+000
1.258403e+003, 7.288885e+000
1.258885e+003, 7.391406e+000
1.259367e+003, 7.126515e+000
1.259850e+003, 6.924394e+000
1.260332e+003, 7.066760e+000
1.260814e+003, 7.210916e+000
1.261296e+003, 7.189390e+000
1.261778e+003, 7.112799e+000
1.262260e+003, 7.053994e+000
1.262742e+003, 7.006535e+000
1.263224e+003, 6.955854e+000
1.263707e+003, 6.901405e+000
1.264189e+003, 6.838301e+000
1.264671e+003, 6.741877e+000
1.265153e+003, 6.739589e+000
1.265635e+003, 6.877704e+000
1.266117e+003, 6.877460e+000
1.266599e+003, 6.647161e+000
1.267081e+003, 6.497548e+000
1.267563e+003, 6.614606e+000
1.268046e+003, 6.766943e+000
1.268528e+003, 6.648567e+000
1.269010e+003, 6.423860e+000
1.269492e+003, 6.511645e+000
1.269974e+003, 6.780688e+000
1.270456e+003, 6.931953e+000
1.270938e+003, 6.961298e+000
1.271420e+003, 6.880319e+000
1.271902e+003, 6.728875e+000
1.272385e+003, 6.622009e+000
1.272867e+003, 6.603956e+000
1.273349e+003, 6.598368e+000
1.273831e+003, 6.539721e+000
1.274313e+003, 6.509511e+000
1.274795e+003, 6.629798e+000
1.275277e+003, 6.699749e+000
1.275759e+003, 6.475198e+000
1.276242e+003, 6.214824e+000
1.276724e+003, 6.280309e+000
1.277206e+003, 6.552639e+000
1.277688e+003, 6.593901e+000
1.278170e+003, 6.364933e+000
1.278652e+003, 6.261351e+000
1.279134e+003, 6.305387e+000
1.279616e+003, 6.416105e+000
1.280099e+003, 6.617448e+000
1.280581e+003, 6.691552e+000
1.281063e+003, 6.544000e+000
1.281545e+003, 6.389253e+000
1.282027e+003, 6.395121e+000
1.282509e+003, 6.500884e+000
1.282991e+003, 6.683509e+000
1.283473e+003, 6.845038e+000
1.283955e+003, 6.776146e+000
##END=



