##NAMES=Scheelite
##RRUFFID=R060417
##IDEAL CHEMISTRY=CaW^6+^O_4_
##LOCALITY=Karmang Valley, near Khapalu, Baltistan, Pakistan
##OWNER=RRUFF
##SOURCE=Herb Obodda
##DESCRIPTION=Orange-yellow fragment
##STATUS=The identification of this mineral has been confirmed by X-ray diffraction and chemical analysis
##URL=rruff.info/R060417
##MEASURED CHEMISTRY=Ca_1.00_W_1.00_O_4_
8.813672e+001, 4.818471e+004
8.861884e+001, 4.877806e+004
8.910095e+001, 4.941268e+004
8.958307e+001, 5.021307e+004
9.006519e+001, 5.103834e+004
9.054730e+001, 5.170609e+004
9.102942e+001, 5.226125e+004
9.151154e+001, 5.272176e+004
9.199365e+001, 5.311539e+004
9.247577e+001, 5.344538e+004
9.295789e+001, 5.369246e+004
9.344000e+001, 5.381401e+004
9.392212e+001, 5.382534e+004
9.440424e+001, 5.383679e+004
9.488635e+001, 5.390791e+004
9.536847e+001, 5.401322e+004
9.585059e+001, 5.409925e+004
9.633270e+001, 5.416349e+004
9.681482e+001, 5.422850e+004
9.729694e+001, 5.431313e+004
9.777905e+001, 5.441452e+004
9.826117e+001, 5.448106e+004
9.874329e+001, 5.448609e+004
9.922540e+001, 5.447436e+004
9.970752e+001, 5.457127e+004
1.001896e+002, 5.479550e+004
1.006718e+002, 5.503454e+004
1.011539e+002, 5.520180e+004
1.016360e+002, 5.527324e+004
1.021181e+002, 5.539015e+004
1.026002e+002, 5.556162e+004
1.030823e+002, 5.578990e+004
1.035645e+002, 5.610304e+004
1.040466e+002, 5.654490e+004
1.045287e+002, 5.701949e+004
1.050108e+002, 5.744663e+004
1.054929e+002, 5.776172e+004
1.059750e+002, 5.814785e+004
1.064572e+002, 5.864114e+004
1.069393e+002, 5.925086e+004
1.074214e+002, 5.990264e+004
1.079035e+002, 6.059140e+004
1.083856e+002, 6.133340e+004
1.088677e+002, 6.213304e+004
1.093499e+002, 6.294413e+004
1.098320e+002, 6.387531e+004
1.103141e+002, 6.493234e+004
1.107962e+002, 6.610655e+004
1.112783e+002, 6.748366e+004
1.117604e+002, 6.905497e+004
1.122426e+002, 7.084741e+004
1.127247e+002, 7.287643e+004
1.132068e+002, 7.518205e+004
1.136889e+002, 7.770146e+004
1.141710e+002, 8.046918e+004
1.146531e+002, 8.381430e+004
1.151353e+002, 8.678023e+004
1.156174e+002, 8.957466e+004
1.160995e+002, 9.188518e+004
1.165816e+002, 9.296792e+004
1.170637e+002, 9.206299e+004
1.175458e+002, 9.010287e+004
1.180280e+002, 8.762352e+004
1.185101e+002, 8.432110e+004
1.189922e+002, 8.108311e+004
1.194743e+002, 7.832826e+004
1.199564e+002, 7.602916e+004
1.204385e+002, 7.412680e+004
1.209207e+002, 7.270028e+004
1.214028e+002, 7.162234e+004
1.218849e+002, 7.075652e+004
1.223670e+002, 7.010307e+004
1.228491e+002, 6.959926e+004
1.233312e+002, 6.921491e+004
1.238134e+002, 6.894483e+004
1.242955e+002, 6.874337e+004
1.247776e+002, 6.860327e+004
1.252597e+002, 6.850428e+004
1.257418e+002, 6.840727e+004
1.262239e+002, 6.825830e+004
1.267061e+002, 6.810924e+004
1.271882e+002, 6.805991e+004
1.276703e+002, 6.811505e+004
1.281524e+002, 6.820896e+004
1.286345e+002, 6.827126e+004
1.291166e+002, 6.831084e+004
1.295988e+002, 6.836778e+004
1.300809e+002, 6.848014e+004
1.305630e+002, 6.862853e+004
1.310451e+002, 6.873887e+004
1.315272e+002, 6.879868e+004
1.320093e+002, 6.884966e+004
1.324915e+002, 6.896066e+004
1.329736e+002, 6.913132e+004
1.334557e+002, 6.930441e+004
1.339378e+002, 6.944402e+004
1.344199e+002, 6.955077e+004
1.349020e+002, 6.965402e+004
1.353842e+002, 6.975241e+004
1.358663e+002, 6.984430e+004
1.363484e+002, 6.993476e+004
1.368305e+002, 7.002241e+004
1.373126e+002, 7.009768e+004
1.377947e+002, 7.015743e+004
1.382769e+002, 7.020286e+004
1.387590e+002, 7.020695e+004
1.392411e+002, 7.015518e+004
1.397232e+002, 7.006097e+004
1.402053e+002, 6.998495e+004
1.406874e+002, 6.993843e+004
1.411696e+002, 6.988916e+004
1.416517e+002, 6.982905e+004
1.421338e+002, 6.978916e+004
1.426159e+002, 6.965905e+004
1.430980e+002, 6.939374e+004
1.435801e+002, 6.901364e+004
1.440623e+002, 6.870969e+004
1.445444e+002, 6.852139e+004
1.450265e+002, 6.837338e+004
1.455086e+002, 6.820859e+004
1.459907e+002, 6.800922e+004
1.464728e+002, 6.782384e+004
1.469550e+002, 6.766079e+004
1.474371e+002, 6.752252e+004
1.479192e+002, 6.738635e+004
1.484013e+002, 6.725405e+004
1.488834e+002, 6.712274e+004
1.493655e+002, 6.698763e+004
1.498477e+002, 6.683874e+004
1.503298e+002, 6.669554e+004
1.508119e+002, 6.656595e+004
1.512940e+002, 6.645468e+004
1.517761e+002, 6.632707e+004
1.522583e+002, 6.615408e+004
1.527404e+002, 6.597628e+004
1.532225e+002, 6.583547e+004
1.537046e+002, 6.578470e+004
1.541867e+002, 6.572830e+004
1.546688e+002, 6.563639e+004
1.551510e+002, 6.549455e+004
1.556331e+002, 6.537023e+004
1.561152e+002, 6.526988e+004
1.565973e+002, 6.519667e+004
1.570794e+002, 6.515561e+004
1.575615e+002, 6.516875e+004
1.580437e+002, 6.519859e+004
1.585258e+002, 6.522978e+004
1.590079e+002, 6.525721e+004
1.594900e+002, 6.529830e+004
1.599721e+002, 6.535540e+004
1.604542e+002, 6.542947e+004
1.609364e+002, 6.552195e+004
1.614185e+002, 6.565840e+004
1.619006e+002, 6.579459e+004
1.623827e+002, 6.590357e+004
1.628648e+002, 6.597199e+004
1.633469e+002, 6.603109e+004
1.638291e+002, 6.608519e+004
1.643112e+002, 6.613833e+004
1.647933e+002, 6.620212e+004
1.652754e+002, 6.624798e+004
1.657575e+002, 6.632541e+004
1.662396e+002, 6.647977e+004
1.667218e+002, 6.675025e+004
1.672039e+002, 6.704240e+004
1.676860e+002, 6.731593e+004
1.681681e+002, 6.756723e+004
1.686502e+002, 6.779307e+004
1.691323e+002, 6.795248e+004
1.696145e+002, 6.810013e+004
1.700966e+002, 6.829134e+004
1.705787e+002, 6.855039e+004
1.710608e+002, 6.883923e+004
1.715429e+002, 6.911872e+004
1.720250e+002, 6.939869e+004
1.725072e+002, 6.970921e+004
1.729893e+002, 7.008434e+004
1.734714e+002, 7.050184e+004
1.739535e+002, 7.093324e+004
1.744356e+002, 7.137810e+004
1.749177e+002, 7.182348e+004
1.753999e+002, 7.225395e+004
1.758820e+002, 7.267607e+004
1.763641e+002, 7.310845e+004
1.768462e+002, 7.358739e+004
1.773283e+002, 7.409292e+004
1.778104e+002, 7.458343e+004
1.782926e+002, 7.500697e+004
1.787747e+002, 7.544080e+004
1.792568e+002, 7.600988e+004
1.797389e+002, 7.670542e+004
1.802210e+002, 7.744576e+004
1.807031e+002, 7.815616e+004
1.811853e+002, 7.884755e+004
1.816674e+002, 7.953154e+004
1.821495e+002, 8.018988e+004
1.826316e+002, 8.085164e+004
1.831137e+002, 8.156755e+004
1.835958e+002, 8.234440e+004
1.840780e+002, 8.311999e+004
1.845601e+002, 8.383183e+004
1.850422e+002, 8.448709e+004
1.855243e+002, 8.518224e+004
1.860064e+002, 8.596331e+004
1.864885e+002, 8.679447e+004
1.869707e+002, 8.757470e+004
1.874528e+002, 8.831280e+004
1.879349e+002, 8.898215e+004
1.884170e+002, 8.950783e+004
1.888991e+002, 8.991321e+004
1.893812e+002, 9.038130e+004
1.898634e+002, 9.101337e+004
1.903455e+002, 9.175623e+004
1.908276e+002, 9.241414e+004
1.913097e+002, 9.298727e+004
1.917918e+002, 9.351024e+004
1.922739e+002, 9.400062e+004
1.927561e+002, 9.446533e+004
1.932382e+002, 9.496122e+004
1.937203e+002, 9.555028e+004
1.942024e+002, 9.619494e+004
1.946845e+002, 9.670841e+004
1.951666e+002, 9.708261e+004
1.956488e+002, 9.732945e+004
1.961309e+002, 9.745634e+004
1.966130e+002, 9.746123e+004
1.970951e+002, 9.736400e+004
1.975772e+002, 9.716156e+004
1.980593e+002, 9.685802e+004
1.985415e+002, 9.649092e+004
1.990236e+002, 9.605812e+004
1.995057e+002, 9.557863e+004
1.999878e+002, 9.508235e+004
2.004699e+002, 9.457326e+004
2.009520e+002, 9.403977e+004
2.014342e+002, 9.346775e+004
2.019163e+002, 9.285989e+004
2.023984e+002, 9.232925e+004
2.028805e+002, 9.189503e+004
2.033626e+002, 9.150611e+004
2.038447e+002, 9.108421e+004
2.043269e+002, 9.061402e+004
2.048090e+002, 9.018493e+004
2.052911e+002, 8.982538e+004
2.057732e+002, 8.953242e+004
2.062553e+002, 8.929180e+004
2.067374e+002, 8.908129e+004
2.072196e+002, 8.895186e+004
2.077017e+002, 8.898384e+004
2.081838e+002, 8.919824e+004
2.086659e+002, 8.949722e+004
2.091480e+002, 8.988771e+004
2.096301e+002, 9.038908e+004
2.101123e+002, 9.076152e+004
2.105944e+002, 9.106623e+004
2.110765e+002, 9.116276e+004
2.115586e+002, 9.083103e+004
2.120407e+002, 8.999660e+004
2.125228e+002, 8.892963e+004
2.130050e+002, 8.766370e+004
2.134871e+002, 8.617493e+004
2.139692e+002, 8.477545e+004
2.144513e+002, 8.346625e+004
2.149334e+002, 8.224613e+004
2.154155e+002, 8.107777e+004
2.158977e+002, 7.992120e+004
2.163798e+002, 7.891438e+004
2.168619e+002, 7.812870e+004
2.173440e+002, 7.759116e+004
2.178261e+002, 7.707086e+004
2.183082e+002, 7.654110e+004
2.187904e+002, 7.606350e+004
2.192725e+002, 7.573825e+004
2.197546e+002, 7.562033e+004
2.202367e+002, 7.554499e+004
2.207188e+002, 7.548003e+004
2.212009e+002, 7.543350e+004
2.216831e+002, 7.533326e+004
2.221652e+002, 7.512611e+004
2.226473e+002, 7.491624e+004
2.231294e+002, 7.485654e+004
2.236115e+002, 7.500315e+004
2.240936e+002, 7.518798e+004
2.245758e+002, 7.538066e+004
2.250579e+002, 7.558713e+004
2.255400e+002, 7.574355e+004
2.260221e+002, 7.580414e+004
2.265042e+002, 7.585480e+004
2.269863e+002, 7.601135e+004
2.274685e+002, 7.632478e+004
2.279506e+002, 7.664947e+004
2.284327e+002, 7.694048e+004
2.289148e+002, 7.718968e+004
2.293969e+002, 7.747819e+004
2.298790e+002, 7.780675e+004
2.303612e+002, 7.817112e+004
2.308433e+002, 7.856983e+004
2.313254e+002, 7.903009e+004
2.318075e+002, 7.947972e+004
2.322896e+002, 7.989730e+004
2.327717e+002, 8.027618e+004
2.332539e+002, 8.066711e+004
2.337360e+002, 8.106132e+004
2.342181e+002, 8.146591e+004
2.347002e+002, 8.189765e+004
2.351823e+002, 8.238161e+004
2.356644e+002, 8.284506e+004
2.361466e+002, 8.326371e+004
2.366287e+002, 8.363105e+004
2.371108e+002, 8.404125e+004
2.375929e+002, 8.451798e+004
2.380750e+002, 8.501183e+004
2.385571e+002, 8.546463e+004
2.390393e+002, 8.584213e+004
2.395214e+002, 8.624707e+004
2.400035e+002, 8.670480e+004
2.404856e+002, 8.722303e+004
2.409677e+002, 8.773513e+004
2.414498e+002, 8.825066e+004
2.419320e+002, 8.874945e+004
2.424141e+002, 8.921713e+004
2.428962e+002, 8.964419e+004
2.433783e+002, 9.005104e+004
2.438604e+002, 9.042910e+004
2.443425e+002, 9.077638e+004
2.448247e+002, 9.114767e+004
2.453068e+002, 9.154298e+004
2.457889e+002, 9.195705e+004
2.462710e+002, 9.239565e+004
2.467531e+002, 9.288478e+004
2.472352e+002, 9.334173e+004
2.477174e+002, 9.374188e+004
2.481995e+002, 9.408671e+004
2.486816e+002, 9.446378e+004
2.491637e+002, 9.487277e+004
2.496458e+002, 9.532136e+004
2.501279e+002, 9.581521e+004
2.506101e+002, 9.637789e+004
2.510922e+002, 9.695313e+004
2.515743e+002, 9.752652e+004
2.520564e+002, 9.810580e+004
2.525385e+002, 9.871731e+004
2.530206e+002, 9.935213e+004
2.535028e+002, 1.000403e+005
2.539849e+002, 1.007828e+005
2.544670e+002, 1.015776e+005
2.549491e+002, 1.024551e+005
2.554312e+002, 1.034644e+005
2.559133e+002, 1.045579e+005
2.563955e+002, 1.055333e+005
2.568776e+002, 1.063388e+005
2.573597e+002, 1.070999e+005
2.578418e+002, 1.078828e+005
2.583239e+002, 1.086801e+005
2.588061e+002, 1.095311e+005
2.592882e+002, 1.104651e+005
2.597703e+002, 1.114577e+005
2.602524e+002, 1.124018e+005
2.607345e+002, 1.133079e+005
2.612166e+002, 1.141645e+005
2.616988e+002, 1.149835e+005
2.621809e+002, 1.157585e+005
2.626630e+002, 1.164791e+005
2.631451e+002, 1.171340e+005
2.636272e+002, 1.177418e+005
2.641093e+002, 1.183216e+005
2.645915e+002, 1.188668e+005
2.650736e+002, 1.194194e+005
2.655557e+002, 1.200243e+005
2.660378e+002, 1.207012e+005
2.665199e+002, 1.213165e+005
2.670020e+002, 1.218594e+005
2.674842e+002, 1.223444e+005
2.679663e+002, 1.227813e+005
2.684484e+002, 1.231557e+005
2.689305e+002, 1.235183e+005
2.694126e+002, 1.238911e+005
2.698947e+002, 1.242865e+005
2.703769e+002, 1.246340e+005
2.708590e+002, 1.249295e+005
2.713411e+002, 1.251797e+005
2.718232e+002, 1.253900e+005
2.723053e+002, 1.255565e+005
2.727874e+002, 1.256832e+005
2.732696e+002, 1.257706e+005
2.737517e+002, 1.258157e+005
2.742338e+002, 1.258167e+005
2.747159e+002, 1.257645e+005
2.751980e+002, 1.256817e+005
2.756801e+002, 1.255988e+005
2.761623e+002, 1.255172e+005
2.766444e+002, 1.254325e+005
2.771265e+002, 1.253479e+005
2.776086e+002, 1.252631e+005
2.780907e+002, 1.251583e+005
2.785728e+002, 1.250257e+005
2.790550e+002, 1.249034e+005
2.795371e+002, 1.248321e+005
2.800192e+002, 1.248146e+005
2.805013e+002, 1.248357e+005
2.809834e+002, 1.248914e+005
2.814655e+002, 1.249843e+005
2.819477e+002, 1.251253e+005
2.824298e+002, 1.253139e+005
2.829119e+002, 1.255468e+005
2.833940e+002, 1.258245e+005
2.838761e+002, 1.261459e+005
2.843582e+002, 1.264916e+005
2.848404e+002, 1.268563e+005
2.853225e+002, 1.272399e+005
2.858046e+002, 1.276393e+005
2.862867e+002, 1.280475e+005
2.867688e+002, 1.284928e+005
2.872509e+002, 1.290352e+005
2.877331e+002, 1.296564e+005
2.882152e+002, 1.301806e+005
2.886973e+002, 1.305390e+005
2.891794e+002, 1.308373e+005
2.896615e+002, 1.313193e+005
2.901436e+002, 1.319875e+005
2.906258e+002, 1.326569e+005
2.911079e+002, 1.331901e+005
2.915900e+002, 1.336207e+005
2.920721e+002, 1.340972e+005
2.925542e+002, 1.346385e+005
2.930363e+002, 1.352166e+005
2.935185e+002, 1.357576e+005
2.940006e+002, 1.362786e+005
2.944827e+002, 1.368767e+005
2.949648e+002, 1.376689e+005
2.954469e+002, 1.385910e+005
2.959290e+002, 1.394359e+005
2.964112e+002, 1.401755e+005
2.968933e+002, 1.409311e+005
2.973754e+002, 1.418443e+005
2.978575e+002, 1.428892e+005
2.983396e+002, 1.439958e+005
2.988217e+002, 1.451295e+005
2.993039e+002, 1.462959e+005
2.997860e+002, 1.474654e+005
3.002681e+002, 1.486385e+005
3.007502e+002, 1.498693e+005
3.012323e+002, 1.512062e+005
3.017144e+002, 1.526448e+005
3.021966e+002, 1.541097e+005
3.026787e+002, 1.556183e+005
3.031608e+002, 1.571385e+005
3.036429e+002, 1.586653e+005
3.041250e+002, 1.601854e+005
3.046071e+002, 1.617003e+005
3.050893e+002, 1.631941e+005
3.055714e+002, 1.646813e+005
3.060535e+002, 1.661349e+005
3.065356e+002, 1.675486e+005
3.070177e+002, 1.689438e+005
3.074998e+002, 1.703099e+005
3.079820e+002, 1.716612e+005
3.084641e+002, 1.730069e+005
3.089462e+002, 1.743297e+005
3.094283e+002, 1.756658e+005
3.099104e+002, 1.770478e+005
3.103925e+002, 1.784875e+005
3.108747e+002, 1.799358e+005
3.113568e+002, 1.812890e+005
3.118389e+002, 1.826002e+005
3.123210e+002, 1.840110e+005
3.128031e+002, 1.856569e+005
3.132852e+002, 1.874082e+005
3.137674e+002, 1.891778e+005
3.142495e+002, 1.909194e+005
3.147316e+002, 1.927090e+005
3.152137e+002, 1.945438e+005
3.156958e+002, 1.964404e+005
3.161779e+002, 1.984265e+005
3.166601e+002, 2.005594e+005
3.171422e+002, 2.027498e+005
3.176243e+002, 2.049239e+005
3.181064e+002, 2.070398e+005
3.185885e+002, 2.092504e+005
3.190706e+002, 2.116879e+005
3.195528e+002, 2.142196e+005
3.200349e+002, 2.166943e+005
3.205170e+002, 2.189799e+005
3.209991e+002, 2.212923e+005
3.214812e+002, 2.236936e+005
3.219633e+002, 2.261969e+005
3.224455e+002, 2.287547e+005
3.229276e+002, 2.312805e+005
3.234097e+002, 2.339170e+005
3.238918e+002, 2.367706e+005
3.243739e+002, 2.399920e+005
3.248560e+002, 2.432788e+005
3.253382e+002, 2.465016e+005
3.258203e+002, 2.497207e+005
3.263024e+002, 2.532262e+005
3.267845e+002, 2.570007e+005
3.272666e+002, 2.611150e+005
3.277487e+002, 2.656236e+005
3.282309e+002, 2.705750e+005
3.287130e+002, 2.757859e+005
3.291951e+002, 2.813441e+005
3.296772e+002, 2.871580e+005
3.301593e+002, 2.930469e+005
3.306414e+002, 2.992972e+005
3.311236e+002, 3.052262e+005
3.316057e+002, 3.107834e+005
3.320878e+002, 3.163472e+005
3.325699e+002, 3.204292e+005
3.330520e+002, 3.229980e+005
3.335341e+002, 3.240850e+005
3.340163e+002, 3.236018e+005
3.344984e+002, 3.211095e+005
3.349805e+002, 3.178887e+005
3.354626e+002, 3.140258e+005
3.359447e+002, 3.094605e+005
3.364268e+002, 3.054270e+005
3.369090e+002, 3.019130e+005
3.373911e+002, 2.988896e+005
3.378732e+002, 2.963218e+005
3.383553e+002, 2.941584e+005
3.388374e+002, 2.926583e+005
3.393195e+002, 2.918699e+005
3.398017e+002, 2.917657e+005
3.402838e+002, 2.922525e+005
3.407659e+002, 2.933811e+005
3.412480e+002, 2.949112e+005
3.417301e+002, 2.966684e+005
3.422122e+002, 2.986346e+005
3.426944e+002, 3.010490e+005
3.431765e+002, 3.039458e+005
3.436586e+002, 3.072719e+005
3.441407e+002, 3.108633e+005
3.446228e+002, 3.147019e+005
3.451049e+002, 3.188700e+005
3.455871e+002, 3.233016e+005
3.460692e+002, 3.280946e+005
3.465513e+002, 3.334003e+005
3.470334e+002, 3.392383e+005
3.475155e+002, 3.455832e+005
3.479977e+002, 3.522903e+005
3.484798e+002, 3.594286e+005
3.489619e+002, 3.670112e+005
3.494440e+002, 3.749824e+005
3.499261e+002, 3.834352e+005
3.504082e+002, 3.924948e+005
3.508904e+002, 4.021583e+005
3.513725e+002, 4.125231e+005
3.518546e+002, 4.237927e+005
3.523367e+002, 4.358895e+005
3.528188e+002, 4.487577e+005
3.533009e+002, 4.624288e+005
3.537831e+002, 4.767824e+005
3.542652e+002, 4.915471e+005
3.547473e+002, 5.068120e+005
3.552294e+002, 5.230128e+005
3.557115e+002, 5.404052e+005
3.561936e+002, 5.588829e+005
3.566758e+002, 5.782596e+005
3.571579e+002, 5.986928e+005
3.576400e+002, 6.200979e+005
3.581221e+002, 6.425386e+005
3.586042e+002, 6.658786e+005
3.590863e+002, 6.902963e+005
3.595685e+002, 7.158300e+005
3.600506e+002, 7.424854e+005
3.605327e+002, 7.703109e+005
3.610148e+002, 7.993383e+005
3.614969e+002, 8.293761e+005
3.619790e+002, 8.604126e+005
3.624612e+002, 8.923236e+005
3.629433e+002, 9.253726e+005
3.634254e+002, 9.600427e+005
3.639075e+002, 9.953953e+005
3.643896e+002, 1.031267e+006
3.648717e+002, 1.067609e+006
3.653539e+002, 1.104142e+006
3.658360e+002, 1.141423e+006
3.663181e+002, 1.178306e+006
3.668002e+002, 1.214788e+006
3.672823e+002, 1.251288e+006
3.677644e+002, 1.286751e+006
3.682466e+002, 1.321685e+006
3.687287e+002, 1.355655e+006
3.692108e+002, 1.387018e+006
3.696929e+002, 1.416106e+006
3.701750e+002, 1.442606e+006
3.706571e+002, 1.466351e+006
3.711393e+002, 1.487941e+006
3.716214e+002, 1.505512e+006
3.721035e+002, 1.519276e+006
3.725856e+002, 1.529117e+006
3.730677e+002, 1.534780e+006
3.735498e+002, 1.536301e+006
3.740320e+002, 1.533808e+006
3.745141e+002, 1.527399e+006
3.749962e+002, 1.517137e+006
3.754783e+002, 1.502472e+006
3.759604e+002, 1.483199e+006
3.764425e+002, 1.460418e+006
3.769247e+002, 1.434421e+006
3.774068e+002, 1.405123e+006
3.778889e+002, 1.374848e+006
3.783710e+002, 1.343752e+006
3.788531e+002, 1.312385e+006
3.793352e+002, 1.281066e+006
3.798174e+002, 1.249924e+006
3.802995e+002, 1.220215e+006
3.807816e+002, 1.192670e+006
3.812637e+002, 1.167147e+006
3.817458e+002, 1.144538e+006
3.822279e+002, 1.124581e+006
3.827101e+002, 1.107542e+006
3.831922e+002, 1.093524e+006
3.836743e+002, 1.082316e+006
3.841564e+002, 1.073630e+006
3.846385e+002, 1.067526e+006
3.851206e+002, 1.063674e+006
3.856028e+002, 1.061669e+006
3.860849e+002, 1.061483e+006
3.865670e+002, 1.062527e+006
3.870491e+002, 1.065030e+006
3.875312e+002, 1.068331e+006
3.880133e+002, 1.071448e+006
3.884955e+002, 1.074366e+006
3.889776e+002, 1.076668e+006
3.894597e+002, 1.078338e+006
3.899418e+002, 1.079141e+006
3.904239e+002, 1.078382e+006
3.909060e+002, 1.075579e+006
3.913882e+002, 1.071158e+006
3.918703e+002, 1.065459e+006
3.923524e+002, 1.058487e+006
3.928345e+002, 1.050140e+006
3.933166e+002, 1.040092e+006
3.937987e+002, 1.028659e+006
3.942809e+002, 1.016393e+006
3.947630e+002, 1.003176e+006
3.952451e+002, 9.893480e+005
3.957272e+002, 9.748451e+005
3.962093e+002, 9.597262e+005
3.966914e+002, 9.440709e+005
3.971736e+002, 9.282939e+005
3.976557e+002, 9.117132e+005
3.981378e+002, 8.938386e+005
3.986199e+002, 8.746932e+005
3.991020e+002, 8.544223e+005
3.995841e+002, 8.330129e+005
4.000663e+002, 8.104851e+005
4.005484e+002, 7.868060e+005
4.010305e+002, 7.613896e+005
4.015126e+002, 7.355476e+005
4.019947e+002, 7.094408e+005
4.024768e+002, 6.831378e+005
4.029590e+002, 6.574275e+005
4.034411e+002, 6.321159e+005
4.039232e+002, 6.076286e+005
4.044053e+002, 5.843661e+005
4.048874e+002, 5.621627e+005
4.053695e+002, 5.415659e+005
4.058517e+002, 5.224734e+005
4.063338e+002, 5.050363e+005
4.068159e+002, 4.891509e+005
4.072980e+002, 4.748262e+005
4.077801e+002, 4.619676e+005
4.082622e+002, 4.506417e+005
4.087444e+002, 4.407952e+005
4.092265e+002, 4.325225e+005
4.097086e+002, 4.258638e+005
4.101907e+002, 4.206354e+005
4.106728e+002, 4.165684e+005
4.111549e+002, 4.136352e+005
4.116371e+002, 4.118268e+005
4.121192e+002, 4.111573e+005
4.126013e+002, 4.116068e+005
4.130834e+002, 4.132270e+005
4.135655e+002, 4.160115e+005
4.140476e+002, 4.197380e+005
4.145298e+002, 4.243571e+005
4.150119e+002, 4.297737e+005
4.154940e+002, 4.359391e+005
4.159761e+002, 4.427615e+005
4.164582e+002, 4.503531e+005
4.169403e+002, 4.587872e+005
4.174225e+002, 4.680152e+005
4.179046e+002, 4.778870e+005
4.183867e+002, 4.884589e+005
4.188688e+002, 4.993762e+005
4.193509e+002, 5.102057e+005
4.198330e+002, 5.209647e+005
4.203152e+002, 5.318553e+005
4.207973e+002, 5.432648e+005
4.212794e+002, 5.548598e+005
4.217615e+002, 5.663080e+005
4.222436e+002, 5.776263e+005
4.227257e+002, 5.886576e+005
4.232079e+002, 5.993296e+005
4.236900e+002, 6.096423e+005
4.241721e+002, 6.201058e+005
4.246542e+002, 6.306214e+005
4.251363e+002, 6.414727e+005
4.256184e+002, 6.529474e+005
4.261006e+002, 6.647811e+005
4.265827e+002, 6.773148e+005
4.270648e+002, 6.902413e+005
4.275469e+002, 7.040322e+005
4.280290e+002, 7.192236e+005
4.285111e+002, 7.356341e+005
4.289933e+002, 7.537368e+005
4.294754e+002, 7.735643e+005
4.299575e+002, 7.952047e+005
4.304396e+002, 8.184857e+005
4.309217e+002, 8.435938e+005
4.314038e+002, 8.699349e+005
4.318860e+002, 8.971162e+005
4.323681e+002, 9.251556e+005
4.328502e+002, 9.525708e+005
4.333323e+002, 9.793393e+005
4.338144e+002, 1.005076e+006
4.342965e+002, 1.029696e+006
4.347787e+002, 1.053047e+006
4.352608e+002, 1.073184e+006
4.357429e+002, 1.089675e+006
4.362250e+002, 1.102086e+006
4.367071e+002, 1.109466e+006
4.371892e+002, 1.111775e+006
4.376714e+002, 1.109167e+006
4.381535e+002, 1.101336e+006
4.386356e+002, 1.088805e+006
4.391177e+002, 1.072376e+006
4.395998e+002, 1.051382e+006
4.400819e+002, 1.027688e+006
4.405641e+002, 1.001571e+006
4.410462e+002, 9.736990e+005
4.415283e+002, 9.463611e+005
4.420104e+002, 9.198216e+005
4.424925e+002, 8.950534e+005
4.429746e+002, 8.729098e+005
4.434568e+002, 8.532107e+005
4.439389e+002, 8.366244e+005
4.444210e+002, 8.234163e+005
4.449031e+002, 8.133988e+005
4.453852e+002, 8.063189e+005
4.458673e+002, 8.023290e+005
4.463495e+002, 8.011377e+005
4.468316e+002, 8.029267e+005
4.473137e+002, 8.076400e+005
4.477958e+002, 8.142583e+005
4.482779e+002, 8.233094e+005
4.487600e+002, 8.336138e+005
4.492422e+002, 8.447346e+005
4.497243e+002, 8.573899e+005
4.502064e+002, 8.694572e+005
4.506885e+002, 8.816141e+005
4.511706e+002, 8.928511e+005
4.516527e+002, 9.015784e+005
4.521349e+002, 9.080037e+005
4.526170e+002, 9.114823e+005
4.530991e+002, 9.119015e+005
4.535812e+002, 9.092190e+005
4.540633e+002, 9.031041e+005
4.545454e+002, 8.934783e+005
4.550276e+002, 8.809870e+005
4.555097e+002, 8.655163e+005
4.559918e+002, 8.473931e+005
4.564739e+002, 8.288274e+005
4.569560e+002, 8.097503e+005
4.574381e+002, 7.907489e+005
4.579203e+002, 7.722193e+005
4.584024e+002, 7.543363e+005
4.588845e+002, 7.373198e+005
4.593666e+002, 7.220563e+005
4.598488e+002, 7.074149e+005
4.603309e+002, 6.926044e+005
4.608130e+002, 6.776333e+005
4.612951e+002, 6.619092e+005
4.617772e+002, 6.456739e+005
4.622593e+002, 6.285091e+005
4.627415e+002, 6.102083e+005
4.632236e+002, 5.904461e+005
4.637057e+002, 5.701063e+005
4.641878e+002, 5.492818e+005
4.646699e+002, 5.283826e+005
4.651520e+002, 5.077702e+005
4.656342e+002, 4.874592e+005
4.661163e+002, 4.681066e+005
4.665984e+002, 4.497096e+005
4.670805e+002, 4.323650e+005
4.675626e+002, 4.161866e+005
4.680447e+002, 4.011729e+005
4.685269e+002, 3.873575e+005
4.690090e+002, 3.746245e+005
4.694911e+002, 3.630436e+005
4.699732e+002, 3.525408e+005
4.704553e+002, 3.431369e+005
4.709374e+002, 3.347367e+005
4.714196e+002, 3.269982e+005
4.719017e+002, 3.199524e+005
4.723838e+002, 3.136191e+005
4.728659e+002, 3.080244e+005
4.733480e+002, 3.031413e+005
4.738301e+002, 2.989359e+005
4.743123e+002, 2.954009e+005
4.747944e+002, 2.924448e+005
4.752765e+002, 2.900789e+005
4.757586e+002, 2.882469e+005
4.762407e+002, 2.866743e+005
4.767228e+002, 2.852593e+005
4.772050e+002, 2.841968e+005
4.776871e+002, 2.837816e+005
4.781692e+002, 2.839487e+005
4.786513e+002, 2.845095e+005
4.791334e+002, 2.854180e+005
4.796155e+002, 2.866363e+005
4.800977e+002, 2.881954e+005
4.805798e+002, 2.900870e+005
4.810619e+002, 2.920799e+005
4.815440e+002, 2.940074e+005
4.820261e+002, 2.959659e+005
4.825082e+002, 2.980841e+005
4.829904e+002, 3.006793e+005
4.834725e+002, 3.030015e+005
4.839546e+002, 3.048673e+005
4.844367e+002, 3.063233e+005
4.849188e+002, 3.074401e+005
4.854009e+002, 3.084560e+005
4.858831e+002, 3.089155e+005
4.863652e+002, 3.086931e+005
4.868473e+002, 3.077778e+005
4.873294e+002, 3.064456e+005
4.878115e+002, 3.047074e+005
4.882936e+002, 3.025372e+005
4.887758e+002, 2.998603e+005
4.892579e+002, 2.965749e+005
4.897400e+002, 2.930678e+005
4.902221e+002, 2.893490e+005
4.907042e+002, 2.854403e+005
4.911863e+002, 2.814260e+005
4.916685e+002, 2.772770e+005
4.921506e+002, 2.731695e+005
4.926327e+002, 2.692018e+005
4.931148e+002, 2.653193e+005
4.935969e+002, 2.615445e+005
4.940790e+002, 2.578292e+005
4.945612e+002, 2.542966e+005
4.950433e+002, 2.510240e+005
4.955254e+002, 2.479797e+005
4.960075e+002, 2.450161e+005
4.964896e+002, 2.421168e+005
4.969717e+002, 2.393457e+005
4.974539e+002, 2.368502e+005
4.979360e+002, 2.345552e+005
4.984181e+002, 2.324027e+005
4.989002e+002, 2.303967e+005
4.993823e+002, 2.284654e+005
4.998644e+002, 2.265560e+005
5.003466e+002, 2.246610e+005
5.008287e+002, 2.228794e+005
5.013108e+002, 2.212451e+005
5.017929e+002, 2.197306e+005
5.022750e+002, 2.183343e+005
5.027571e+002, 2.170956e+005
5.032393e+002, 2.158732e+005
5.037214e+002, 2.146285e+005
5.042035e+002, 2.134224e+005
5.046856e+002, 2.123244e+005
5.051677e+002, 2.113802e+005
5.056498e+002, 2.104623e+005
5.061320e+002, 2.095254e+005
5.066141e+002, 2.085848e+005
5.070962e+002, 2.077988e+005
5.075783e+002, 2.072050e+005
5.080604e+002, 2.065994e+005
5.085425e+002, 2.058043e+005
5.090247e+002, 2.048495e+005
5.095068e+002, 2.040789e+005
5.099889e+002, 2.035295e+005
5.104710e+002, 2.030265e+005
5.109531e+002, 2.023192e+005
5.114352e+002, 2.014910e+005
5.119174e+002, 2.008006e+005
5.123995e+002, 2.003993e+005
5.128816e+002, 2.000743e+005
5.133637e+002, 1.995817e+005
5.138458e+002, 1.989676e+005
5.143279e+002, 1.983758e+005
5.148101e+002, 1.978385e+005
5.152922e+002, 1.973878e+005
5.157743e+002, 1.970770e+005
5.162564e+002, 1.969245e+005
5.167385e+002, 1.967611e+005
5.172206e+002, 1.964865e+005
5.177028e+002, 1.962023e+005
5.181849e+002, 1.959905e+005
5.186670e+002, 1.958904e+005
5.191491e+002, 1.958255e+005
5.196312e+002, 1.957448e+005
5.201133e+002, 1.957004e+005
5.205955e+002, 1.958237e+005
5.210776e+002, 1.962202e+005
5.215597e+002, 1.965777e+005
5.220418e+002, 1.967863e+005
5.225239e+002, 1.968521e+005
5.230060e+002, 1.969500e+005
5.234882e+002, 1.970806e+005
5.239703e+002, 1.972298e+005
5.244524e+002, 1.974046e+005
5.249345e+002, 1.975965e+005
5.254166e+002, 1.977295e+005
5.258987e+002, 1.977865e+005
5.263809e+002, 1.978172e+005
5.268630e+002, 1.978604e+005
5.273451e+002, 1.979282e+005
5.278272e+002, 1.980574e+005
5.283093e+002, 1.982916e+005
5.287914e+002, 1.985744e+005
5.292736e+002, 1.988529e+005
5.297557e+002, 1.991351e+005
5.302378e+002, 1.994355e+005
5.307199e+002, 1.997752e+005
5.312020e+002, 2.001380e+005
5.316841e+002, 2.004911e+005
5.321663e+002, 2.008141e+005
5.326484e+002, 2.012425e+005
5.331305e+002, 2.018950e+005
5.336126e+002, 2.026329e+005
5.340947e+002, 2.033347e+005
5.345768e+002, 2.039249e+005
5.350590e+002, 2.045522e+005
5.355411e+002, 2.051878e+005
5.360232e+002, 2.058685e+005
5.365053e+002, 2.066898e+005
5.369874e+002, 2.076628e+005
5.374695e+002, 2.087115e+005
5.379517e+002, 2.098323e+005
5.384338e+002, 2.110174e+005
5.389159e+002, 2.120378e+005
5.393980e+002, 2.128673e+005
5.398801e+002, 2.136588e+005
5.403622e+002, 2.145343e+005
5.408444e+002, 2.154710e+005
5.413265e+002, 2.164068e+005
5.418086e+002, 2.173454e+005
5.422907e+002, 2.182793e+005
5.427728e+002, 2.192108e+005
5.432549e+002, 2.201404e+005
5.437371e+002, 2.210466e+005
5.442192e+002, 2.219181e+005
5.447013e+002, 2.227720e+005
5.451834e+002, 2.236293e+005
5.456655e+002, 2.244949e+005
5.461476e+002, 2.253483e+005
5.466298e+002, 2.261599e+005
5.471119e+002, 2.269785e+005
5.475940e+002, 2.278359e+005
5.480761e+002, 2.287519e+005
5.485582e+002, 2.296470e+005
5.490403e+002, 2.305178e+005
5.495225e+002, 2.313696e+005
5.500046e+002, 2.321873e+005
5.504867e+002, 2.329183e+005
5.509688e+002, 2.337266e+005
5.514509e+002, 2.346500e+005
5.519330e+002, 2.356376e+005
5.524152e+002, 2.365491e+005
5.528973e+002, 2.373699e+005
5.533794e+002, 2.382408e+005
5.538615e+002, 2.392193e+005
5.543436e+002, 2.402847e+005
5.548257e+002, 2.414071e+005
5.553079e+002, 2.425748e+005
5.557900e+002, 2.436926e+005
5.562721e+002, 2.446232e+005
5.567542e+002, 2.454646e+005
5.572363e+002, 2.463735e+005
5.577184e+002, 2.473771e+005
5.582006e+002, 2.484051e+005
5.586827e+002, 2.495059e+005
5.591648e+002, 2.505667e+005
5.596469e+002, 2.514633e+005
5.601290e+002, 2.519311e+005
5.606111e+002, 2.524640e+005
5.610933e+002, 2.533098e+005
5.615754e+002, 2.543415e+005
5.620575e+002, 2.552045e+005
5.625396e+002, 2.557531e+005
5.630217e+002, 2.562199e+005
5.635038e+002, 2.566204e+005
5.639860e+002, 2.569475e+005
5.644681e+002, 2.574732e+005
5.649502e+002, 2.582875e+005
5.654323e+002, 2.591307e+005
5.659144e+002, 2.597616e+005
5.663965e+002, 2.601569e+005
5.668787e+002, 2.607730e+005
5.673608e+002, 2.616749e+005
5.678429e+002, 2.626773e+005
5.683250e+002, 2.634935e+005
5.688071e+002, 2.641672e+005
5.692892e+002, 2.648513e+005
5.697714e+002, 2.655683e+005
5.702535e+002, 2.663443e+005
5.707356e+002, 2.671882e+005
5.712177e+002, 2.681134e+005
5.716998e+002, 2.691156e+005
5.721819e+002, 2.701829e+005
5.726641e+002, 2.713553e+005
5.731462e+002, 2.726635e+005
5.736283e+002, 2.741197e+005
5.741104e+002, 2.756606e+005
5.745925e+002, 2.773102e+005
5.750746e+002, 2.790194e+005
5.755568e+002, 2.807730e+005
5.760389e+002, 2.824104e+005
5.765210e+002, 2.843393e+005
5.770031e+002, 2.867130e+005
5.774852e+002, 2.892919e+005
5.779673e+002, 2.917591e+005
5.784495e+002, 2.941003e+005
5.789316e+002, 2.964687e+005
5.794137e+002, 2.988793e+005
5.798958e+002, 3.013476e+005
5.803779e+002, 3.040983e+005
5.808600e+002, 3.071187e+005
5.813422e+002, 3.100709e+005
5.818243e+002, 3.127011e+005
5.823064e+002, 3.151587e+005
5.827885e+002, 3.177230e+005
5.832706e+002, 3.203993e+005
5.837527e+002, 3.230060e+005
5.842349e+002, 3.255893e+005
5.847170e+002, 3.279675e+005
5.851991e+002, 3.298897e+005
5.856812e+002, 3.312129e+005
5.861633e+002, 3.324461e+005
5.866454e+002, 3.338451e+005
5.871276e+002, 3.352650e+005
5.876097e+002, 3.365143e+005
5.880918e+002, 3.373464e+005
5.885739e+002, 3.382832e+005
5.890560e+002, 3.394604e+005
5.895381e+002, 3.407904e+005
5.900203e+002, 3.420038e+005
5.905024e+002, 3.430660e+005
5.909845e+002, 3.441148e+005
5.914666e+002, 3.451755e+005
5.919487e+002, 3.462619e+005
5.924308e+002, 3.474126e+005
5.929130e+002, 3.486225e+005
5.933951e+002, 3.499685e+005
5.938772e+002, 3.515491e+005
5.943593e+002, 3.533035e+005
5.948414e+002, 3.550193e+005
5.953235e+002, 3.566432e+005
5.958057e+002, 3.583397e+005
5.962878e+002, 3.602826e+005
5.967699e+002, 3.623868e+005
5.972520e+002, 3.644883e+005
5.977341e+002, 3.664418e+005
5.982162e+002, 3.685426e+005
5.986984e+002, 3.710349e+005
5.991805e+002, 3.737495e+005
5.996626e+002, 3.764328e+005
6.001447e+002, 3.788517e+005
6.006268e+002, 3.814366e+005
6.011089e+002, 3.843125e+005
6.015911e+002, 3.874665e+005
6.020732e+002, 3.906556e+005
6.025553e+002, 3.938118e+005
6.030374e+002, 3.970903e+005
6.035195e+002, 4.005244e+005
6.040016e+002, 4.040984e+005
6.044838e+002, 4.079568e+005
6.049659e+002, 4.120913e+005
6.054480e+002, 4.163954e+005
6.059301e+002, 4.207321e+005
6.064122e+002, 4.251305e+005
6.068943e+002, 4.297544e+005
6.073765e+002, 4.346209e+005
6.078586e+002, 4.397099e+005
6.083407e+002, 4.448581e+005
6.088228e+002, 4.501932e+005
6.093049e+002, 4.558290e+005
6.097870e+002, 4.620626e+005
6.102692e+002, 4.684470e+005
6.107513e+002, 4.747302e+005
6.112334e+002, 4.809868e+005
6.117155e+002, 4.874677e+005
6.121976e+002, 4.943162e+005
6.126797e+002, 5.013866e+005
6.131619e+002, 5.085956e+005
6.136440e+002, 5.159990e+005
6.141261e+002, 5.235627e+005
6.146082e+002, 5.313998e+005
6.150903e+002, 5.393533e+005
6.155724e+002, 5.474313e+005
6.160546e+002, 5.555997e+005
6.165367e+002, 5.638253e+005
6.170188e+002, 5.720524e+005
6.175009e+002, 5.803716e+005
6.179830e+002, 5.889297e+005
6.184651e+002, 5.976702e+005
6.189473e+002, 6.064174e+005
6.194294e+002, 6.150954e+005
6.199115e+002, 6.238131e+005
6.203936e+002, 6.327054e+005
6.208757e+002, 6.417849e+005
6.213578e+002, 6.511409e+005
6.218400e+002, 6.608381e+005
6.223221e+002, 6.708389e+005
6.228042e+002, 6.811253e+005
6.232863e+002, 6.916904e+005
6.237684e+002, 7.022221e+005
6.242505e+002, 7.125111e+005
6.247327e+002, 7.229644e+005
6.252148e+002, 7.336731e+005
6.256969e+002, 7.446534e+005
6.261790e+002, 7.556401e+005
6.266611e+002, 7.664727e+005
6.271432e+002, 7.774250e+005
6.276254e+002, 7.888294e+005
6.281075e+002, 8.006160e+005
6.285896e+002, 8.120023e+005
6.290717e+002, 8.227783e+005
6.295538e+002, 8.333804e+005
6.300359e+002, 8.444181e+005
6.305181e+002, 8.555704e+005
6.310002e+002, 8.663814e+005
6.314823e+002, 8.766574e+005
6.319644e+002, 8.866755e+005
6.324465e+002, 8.966053e+005
6.329286e+002, 9.064736e+005
6.334108e+002, 9.161604e+005
6.338929e+002, 9.258478e+005
6.343750e+002, 9.352321e+005
6.348571e+002, 9.442812e+005
6.353392e+002, 9.530178e+005
6.358214e+002, 9.613530e+005
6.363035e+002, 9.692630e+005
6.367856e+002, 9.768138e+005
6.372677e+002, 9.840144e+005
6.377498e+002, 9.908103e+005
6.382319e+002, 9.972662e+005
6.387141e+002, 1.003378e+006
6.391962e+002, 1.009345e+006
6.396783e+002, 1.015495e+006
6.401604e+002, 1.021739e+006
6.406425e+002, 1.027585e+006
6.411246e+002, 1.033019e+006
6.416068e+002, 1.038386e+006
6.420889e+002, 1.044016e+006
6.425710e+002, 1.049861e+006
6.430531e+002, 1.055705e+006
6.435352e+002, 1.061381e+006
6.440173e+002, 1.067401e+006
6.444995e+002, 1.074032e+006
6.449816e+002, 1.081170e+006
6.454637e+002, 1.088801e+006
6.459458e+002, 1.097018e+006
6.464279e+002, 1.105397e+006
6.469100e+002, 1.113592e+006
6.473922e+002, 1.121851e+006
6.478743e+002, 1.130947e+006
6.483564e+002, 1.141077e+006
6.488385e+002, 1.151510e+006
6.493206e+002, 1.161879e+006
6.498027e+002, 1.172362e+006
6.502849e+002, 1.183165e+006
6.507670e+002, 1.194283e+006
6.512491e+002, 1.205648e+006
6.517312e+002, 1.217328e+006
6.522133e+002, 1.229026e+006
6.526954e+002, 1.240458e+006
6.531776e+002, 1.251589e+006
6.536597e+002, 1.262523e+006
6.541418e+002, 1.273401e+006
6.546239e+002, 1.284340e+006
6.551060e+002, 1.295508e+006
6.555881e+002, 1.307123e+006
6.560703e+002, 1.318577e+006
6.565524e+002, 1.329776e+006
6.570345e+002, 1.340718e+006
6.575166e+002, 1.351267e+006
6.579987e+002, 1.361486e+006
6.584808e+002, 1.371147e+006
6.589630e+002, 1.380256e+006
6.594451e+002, 1.388819e+006
6.599272e+002, 1.396942e+006
6.604093e+002, 1.404627e+006
6.608914e+002, 1.411921e+006
6.613735e+002, 1.418937e+006
6.618557e+002, 1.425543e+006
6.623378e+002, 1.431513e+006
6.628199e+002, 1.436979e+006
6.633020e+002, 1.442408e+006
6.637841e+002, 1.448046e+006
6.642662e+002, 1.453824e+006
6.647484e+002, 1.459751e+006
6.652305e+002, 1.465795e+006
6.657126e+002, 1.471921e+006
6.661947e+002, 1.477834e+006
6.666768e+002, 1.484059e+006
6.671589e+002, 1.490919e+006
6.676411e+002, 1.498594e+006
6.681232e+002, 1.505904e+006
6.686053e+002, 1.512594e+006
6.690874e+002, 1.519216e+006
6.695695e+002, 1.526160e+006
6.700516e+002, 1.533406e+006
6.705338e+002, 1.541199e+006
6.710159e+002, 1.549631e+006
6.714980e+002, 1.558202e+006
6.719801e+002, 1.566218e+006
6.724622e+002, 1.573860e+006
6.729443e+002, 1.581336e+006
6.734265e+002, 1.588727e+006
6.739086e+002, 1.596162e+006
6.743907e+002, 1.603961e+006
6.748728e+002, 1.612017e+006
6.753549e+002, 1.619962e+006
6.758370e+002, 1.627366e+006
6.763192e+002, 1.635350e+006
6.768013e+002, 1.644324e+006
6.772834e+002, 1.654146e+006
6.777655e+002, 1.663999e+006
6.782476e+002, 1.673699e+006
6.787297e+002, 1.683796e+006
6.792119e+002, 1.694506e+006
6.796940e+002, 1.705721e+006
6.801761e+002, 1.716551e+006
6.806582e+002, 1.726907e+006
6.811403e+002, 1.737292e+006
6.816224e+002, 1.747846e+006
6.821046e+002, 1.758673e+006
6.825867e+002, 1.769701e+006
6.830688e+002, 1.780974e+006
6.835509e+002, 1.792502e+006
6.840330e+002, 1.804122e+006
6.845151e+002, 1.816205e+006
6.849973e+002, 1.829277e+006
6.854794e+002, 1.843861e+006
6.859615e+002, 1.858412e+006
6.864436e+002, 1.872431e+006
6.869257e+002, 1.886692e+006
6.874078e+002, 1.901706e+006
6.878900e+002, 1.917435e+006
6.883721e+002, 1.934665e+006
6.888542e+002, 1.953310e+006
6.893363e+002, 1.973430e+006
6.898184e+002, 1.994868e+006
6.903005e+002, 2.017490e+006
6.907827e+002, 2.040927e+006
6.912648e+002, 2.064897e+006
6.917469e+002, 2.089733e+006
6.922290e+002, 2.115463e+006
6.927111e+002, 2.142264e+006
6.931932e+002, 2.169758e+006
6.936754e+002, 2.198145e+006
6.941575e+002, 2.226828e+006
6.946396e+002, 2.256467e+006
6.951217e+002, 2.286216e+006
6.956038e+002, 2.313770e+006
6.960859e+002, 2.337569e+006
6.965681e+002, 2.359914e+006
6.970502e+002, 2.381954e+006
6.975323e+002, 2.403321e+006
6.980144e+002, 2.420224e+006
6.984965e+002, 2.432437e+006
6.989786e+002, 2.441364e+006
6.994608e+002, 2.448027e+006
6.999429e+002, 2.452159e+006
7.004250e+002, 2.452661e+006
7.009071e+002, 2.449577e+006
7.013892e+002, 2.442691e+006
7.018713e+002, 2.431335e+006
7.023535e+002, 2.416381e+006
7.028356e+002, 2.398703e+006
7.033177e+002, 2.378317e+006
7.037998e+002, 2.355261e+006
7.042819e+002, 2.328896e+006
7.047640e+002, 2.300034e+006
7.052462e+002, 2.269033e+006
7.057283e+002, 2.235869e+006
7.062104e+002, 2.201279e+006
7.066925e+002, 2.165080e+006
7.071746e+002, 2.127545e+006
7.076567e+002, 2.088542e+006
7.081389e+002, 2.048149e+006
7.086210e+002, 2.007824e+006
7.091031e+002, 1.967543e+006
7.095852e+002, 1.927331e+006
7.100673e+002, 1.886880e+006
7.105494e+002, 1.846716e+006
7.110316e+002, 1.806999e+006
7.115137e+002, 1.768164e+006
7.119958e+002, 1.730047e+006
7.124779e+002, 1.692051e+006
7.129600e+002, 1.654407e+006
7.134421e+002, 1.618101e+006
7.139243e+002, 1.583492e+006
7.144064e+002, 1.549685e+006
7.148885e+002, 1.516662e+006
7.153706e+002, 1.484308e+006
7.158527e+002, 1.453130e+006
7.163348e+002, 1.423211e+006
7.168170e+002, 1.394489e+006
7.172991e+002, 1.367457e+006
7.177812e+002, 1.341551e+006
7.182633e+002, 1.315710e+006
7.187454e+002, 1.289706e+006
7.192275e+002, 1.264959e+006
7.197097e+002, 1.241973e+006
7.201918e+002, 1.220267e+006
7.206739e+002, 1.199125e+006
7.211560e+002, 1.178650e+006
7.216381e+002, 1.158354e+006
7.221202e+002, 1.137785e+006
7.226024e+002, 1.117776e+006
7.230845e+002, 1.098878e+006
7.235666e+002, 1.081211e+006
7.240487e+002, 1.063967e+006
7.245308e+002, 1.046951e+006
7.250129e+002, 1.030421e+006
7.254951e+002, 1.014647e+006
7.259772e+002, 9.995324e+005
7.264593e+002, 9.844183e+005
7.269414e+002, 9.692576e+005
7.274235e+002, 9.544541e+005
7.279056e+002, 9.402724e+005
7.283878e+002, 9.267389e+005
7.288699e+002, 9.140214e+005
7.293520e+002, 9.020771e+005
7.298341e+002, 8.905594e+005
7.303162e+002, 8.790918e+005
7.307983e+002, 8.680024e+005
7.312805e+002, 8.574804e+005
7.317626e+002, 8.477718e+005
7.322447e+002, 8.383068e+005
7.327268e+002, 8.290334e+005
7.332089e+002, 8.200243e+005
7.336910e+002, 8.113033e+005
7.341732e+002, 8.028002e+005
7.346553e+002, 7.949135e+005
7.351374e+002, 7.878299e+005
7.356195e+002, 7.812133e+005
7.361016e+002, 7.745349e+005
7.365837e+002, 7.679168e+005
7.370659e+002, 7.618675e+005
7.375480e+002, 7.568075e+005
7.380301e+002, 7.518148e+005
7.385122e+002, 7.458915e+005
7.389943e+002, 7.395673e+005
7.394764e+002, 7.337943e+005
7.399586e+002, 7.293913e+005
7.404407e+002, 7.249924e+005
7.409228e+002, 7.201206e+005
7.414049e+002, 7.150685e+005
7.418870e+002, 7.104811e+005
7.423691e+002, 7.066304e+005
7.428513e+002, 7.027546e+005
7.433334e+002, 6.987141e+005
7.438155e+002, 6.945094e+005
7.442976e+002, 6.900781e+005
7.447797e+002, 6.854288e+005
7.452618e+002, 6.807804e+005
7.457440e+002, 6.763272e+005
7.462261e+002, 6.718198e+005
7.467082e+002, 6.668456e+005
7.471903e+002, 6.615268e+005
7.476724e+002, 6.561599e+005
7.481545e+002, 6.508129e+005
7.486367e+002, 6.454874e+005
7.491188e+002, 6.403024e+005
7.496009e+002, 6.351418e+005
7.500830e+002, 6.293471e+005
7.505651e+002, 6.225643e+005
7.510472e+002, 6.157087e+005
7.515294e+002, 6.092815e+005
7.520115e+002, 6.031466e+005
7.524936e+002, 5.967826e+005
7.529757e+002, 5.901678e+005
7.534578e+002, 5.833698e+005
7.539399e+002, 5.764602e+005
7.544221e+002, 5.695109e+005
7.549042e+002, 5.628627e+005
7.553863e+002, 5.564498e+005
7.558684e+002, 5.499296e+005
7.563505e+002, 5.427874e+005
7.568326e+002, 5.356548e+005
7.573148e+002, 5.289282e+005
7.577969e+002, 5.226988e+005
7.582790e+002, 5.164563e+005
7.587611e+002, 5.100994e+005
7.592432e+002, 5.037674e+005
7.597253e+002, 4.975536e+005
7.602075e+002, 4.914060e+005
7.606896e+002, 4.853410e+005
7.611717e+002, 4.792874e+005
7.616538e+002, 4.733066e+005
7.621359e+002, 4.673650e+005
7.626180e+002, 4.614572e+005
7.631002e+002, 4.556938e+005
7.635823e+002, 4.501016e+005
7.640644e+002, 4.445713e+005
7.645465e+002, 4.388429e+005
7.650286e+002, 4.332068e+005
7.655107e+002, 4.279672e+005
7.659929e+002, 4.232725e+005
7.664750e+002, 4.186089e+005
7.669571e+002, 4.138720e+005
7.674392e+002, 4.092361e+005
7.679213e+002, 4.048544e+005
7.684034e+002, 4.007271e+005
7.688856e+002, 3.966877e+005
7.693677e+002, 3.927641e+005
7.698498e+002, 3.888898e+005
7.703319e+002, 3.848682e+005
7.708140e+002, 3.808519e+005
7.712961e+002, 3.771107e+005
7.717783e+002, 3.737569e+005
7.722604e+002, 3.704751e+005
7.727425e+002, 3.670585e+005
7.732246e+002, 3.636578e+005
7.737067e+002, 3.603914e+005
7.741888e+002, 3.573387e+005
7.746710e+002, 3.543145e+005
7.751531e+002, 3.513069e+005
7.756352e+002, 3.483487e+005
7.761173e+002, 3.454598e+005
7.765994e+002, 3.426549e+005
7.770815e+002, 3.400002e+005
7.775637e+002, 3.375291e+005
7.780458e+002, 3.350708e+005
7.785279e+002, 3.322799e+005
7.790100e+002, 3.293839e+005
7.794921e+002, 3.268024e+005
7.799742e+002, 3.247908e+005
7.804564e+002, 3.228798e+005
7.809385e+002, 3.208730e+005
7.814206e+002, 3.188195e+005
7.819027e+002, 3.167725e+005
7.823848e+002, 3.146685e+005
7.828669e+002, 3.127309e+005
7.833491e+002, 3.110561e+005
7.838312e+002, 3.094446e+005
7.843133e+002, 3.075338e+005
7.847954e+002, 3.053521e+005
7.852775e+002, 3.033375e+005
7.857596e+002, 3.016421e+005
7.862418e+002, 3.000648e+005
7.867239e+002, 2.983295e+005
7.872060e+002, 2.965575e+005
7.876881e+002, 2.949252e+005
7.881702e+002, 2.935782e+005
7.886523e+002, 2.923321e+005
7.891345e+002, 2.911710e+005
7.896166e+002, 2.900749e+005
7.900987e+002, 2.889512e+005
7.905808e+002, 2.876430e+005
7.910629e+002, 2.866969e+005
7.915450e+002, 2.862550e+005
7.920272e+002, 2.861396e+005
7.925093e+002, 2.860182e+005
7.929914e+002, 2.859141e+005
7.934735e+002, 2.860223e+005
7.939556e+002, 2.864209e+005
7.944377e+002, 2.870059e+005
7.949199e+002, 2.878433e+005
7.954020e+002, 2.887519e+005
7.958841e+002, 2.893811e+005
7.963662e+002, 2.901291e+005
7.968483e+002, 2.899693e+005
7.973304e+002, 2.885814e+005
7.978126e+002, 2.860906e+005
7.982947e+002, 2.826210e+005
7.987768e+002, 2.779123e+005
7.992589e+002, 2.729752e+005
7.997410e+002, 2.678922e+005
8.002231e+002, 2.628344e+005
8.007053e+002, 2.580269e+005
8.011874e+002, 2.535249e+005
8.016695e+002, 2.494467e+005
8.021516e+002, 2.459357e+005
8.026337e+002, 2.427869e+005
8.031158e+002, 2.398951e+005
8.035980e+002, 2.372585e+005
8.040801e+002, 2.347741e+005
8.045622e+002, 2.324359e+005
8.050443e+002, 2.302808e+005
8.055264e+002, 2.283699e+005
8.060085e+002, 2.266025e+005
8.064907e+002, 2.247702e+005
8.069728e+002, 2.228294e+005
8.074549e+002, 2.210450e+005
8.079370e+002, 2.194877e+005
8.084191e+002, 2.180398e+005
8.089012e+002, 2.164813e+005
8.093834e+002, 2.148707e+005
8.098655e+002, 2.133842e+005
8.103476e+002, 2.121995e+005
8.108297e+002, 2.109784e+005
8.113118e+002, 2.094768e+005
8.117939e+002, 2.078266e+005
8.122761e+002, 2.062634e+005
8.127582e+002, 2.048582e+005
8.132403e+002, 2.034894e+005
8.137224e+002, 2.021696e+005
8.142045e+002, 2.008649e+005
8.146866e+002, 1.994900e+005
8.151688e+002, 1.980709e+005
8.156509e+002, 1.966839e+005
8.161330e+002, 1.953610e+005
8.166151e+002, 1.940578e+005
8.170972e+002, 1.926811e+005
8.175793e+002, 1.912942e+005
8.180615e+002, 1.899865e+005
8.185436e+002, 1.888915e+005
8.190257e+002, 1.877586e+005
8.195078e+002, 1.864905e+005
8.199899e+002, 1.851461e+005
8.204720e+002, 1.838193e+005
8.209542e+002, 1.825165e+005
8.214363e+002, 1.812442e+005
8.219184e+002, 1.800052e+005
8.224005e+002, 1.787825e+005
8.228826e+002, 1.775130e+005
8.233647e+002, 1.762165e+005
8.238469e+002, 1.750548e+005
8.243290e+002, 1.741065e+005
8.248111e+002, 1.731691e+005
8.252932e+002, 1.720025e+005
8.257753e+002, 1.707448e+005
8.262574e+002, 1.696150e+005
8.267396e+002, 1.687108e+005
8.272217e+002, 1.678562e+005
8.277038e+002, 1.670504e+005
8.281859e+002, 1.662672e+005
8.286681e+002, 1.654289e+005
8.291502e+002, 1.645166e+005
8.296323e+002, 1.637999e+005
8.301144e+002, 1.633547e+005
8.305966e+002, 1.629642e+005
8.310787e+002, 1.622840e+005
8.315608e+002, 1.614655e+005
8.320429e+002, 1.608034e+005
8.325250e+002, 1.604052e+005
8.330071e+002, 1.600471e+005
8.334893e+002, 1.596341e+005
8.339714e+002, 1.591864e+005
8.344535e+002, 1.587146e+005
8.349356e+002, 1.581873e+005
8.354177e+002, 1.577128e+005
8.358998e+002, 1.573040e+005
8.363820e+002, 1.569432e+005
8.368641e+002, 1.566690e+005
8.373462e+002, 1.564515e+005
8.378283e+002, 1.560431e+005
8.383104e+002, 1.554128e+005
8.387925e+002, 1.546968e+005
8.392747e+002, 1.539981e+005
8.397568e+002, 1.532806e+005
8.402389e+002, 1.524951e+005
8.407210e+002, 1.516173e+005
8.412031e+002, 1.507144e+005
8.416852e+002, 1.497149e+005
8.421674e+002, 1.487725e+005
8.426495e+002, 1.480271e+005
8.431316e+002, 1.475326e+005
8.436137e+002, 1.468046e+005
8.440958e+002, 1.458002e+005
8.445779e+002, 1.447625e+005
8.450601e+002, 1.439239e+005
8.455422e+002, 1.432007e+005
8.460243e+002, 1.424150e+005
8.465064e+002, 1.415510e+005
8.469885e+002, 1.407233e+005
8.474706e+002, 1.400452e+005
8.479528e+002, 1.393806e+005
8.484349e+002, 1.386278e+005
8.489170e+002, 1.377652e+005
8.493991e+002, 1.369805e+005
8.498812e+002, 1.362876e+005
8.503633e+002, 1.356348e+005
8.508455e+002, 1.350353e+005
8.513276e+002, 1.344538e+005
8.518097e+002, 1.336682e+005
8.522918e+002, 1.326886e+005
8.527739e+002, 1.317700e+005
8.532560e+002, 1.311244e+005
8.537382e+002, 1.305620e+005
8.542203e+002, 1.299417e+005
8.547024e+002, 1.292528e+005
8.551845e+002, 1.284990e+005
8.556666e+002, 1.275717e+005
8.561487e+002, 1.267240e+005
8.566309e+002, 1.260730e+005
8.571130e+002, 1.255776e+005
8.575951e+002, 1.249356e+005
8.580772e+002, 1.241430e+005
8.585593e+002, 1.233191e+005
8.590414e+002, 1.224850e+005
8.595236e+002, 1.216747e+005
8.600057e+002, 1.209687e+005
8.604878e+002, 1.203395e+005
8.609699e+002, 1.196986e+005
8.614520e+002, 1.190054e+005
8.619341e+002, 1.182936e+005
8.624163e+002, 1.175362e+005
8.628984e+002, 1.167637e+005
8.633805e+002, 1.160806e+005
8.638626e+002, 1.155016e+005
8.643447e+002, 1.149142e+005
8.648268e+002, 1.142776e+005
8.653090e+002, 1.136224e+005
8.657911e+002, 1.130238e+005
8.662732e+002, 1.124618e+005
8.667553e+002, 1.118999e+005
8.672374e+002, 1.113137e+005
8.677195e+002, 1.107242e+005
8.682017e+002, 1.101754e+005
8.686838e+002, 1.096239e+005
8.691659e+002, 1.090058e+005
8.696480e+002, 1.082535e+005
8.701301e+002, 1.075769e+005
8.706122e+002, 1.070322e+005
8.710944e+002, 1.065178e+005
8.715765e+002, 1.058560e+005
8.720586e+002, 1.050836e+005
8.725407e+002, 1.044200e+005
8.730228e+002, 1.039217e+005
8.735049e+002, 1.034643e+005
8.739871e+002, 1.029349e+005
8.744692e+002, 1.023836e+005
8.749513e+002, 1.018629e+005
8.754334e+002, 1.013843e+005
8.759155e+002, 1.009347e+005
8.763976e+002, 1.005330e+005
8.768798e+002, 1.001300e+005
8.773619e+002, 9.968479e+004
8.778440e+002, 9.919809e+004
8.783261e+002, 9.867582e+004
8.788082e+002, 9.811172e+004
8.792903e+002, 9.756113e+004
8.797725e+002, 9.705006e+004
8.802546e+002, 9.658380e+004
8.807367e+002, 9.618781e+004
8.812188e+002, 9.586494e+004
8.817009e+002, 9.552088e+004
8.821830e+002, 9.508978e+004
8.826652e+002, 9.466119e+004
8.831473e+002, 9.428910e+004
8.836294e+002, 9.396917e+004
8.841115e+002, 9.360161e+004
8.845936e+002, 9.317307e+004
8.850757e+002, 9.278011e+004
8.855579e+002, 9.249486e+004
8.860400e+002, 9.226831e+004
8.865221e+002, 9.201731e+004
8.870042e+002, 9.174632e+004
8.874863e+002, 9.146707e+004
8.879684e+002, 9.115880e+004
8.884506e+002, 9.086976e+004
8.889327e+002, 9.060817e+004
8.894148e+002, 9.037997e+004
8.898969e+002, 9.021059e+004
8.903790e+002, 9.011445e+004
8.908611e+002, 9.002562e+004
8.913433e+002, 8.991076e+004
8.918254e+002, 8.981818e+004
8.923075e+002, 8.984544e+004
8.927896e+002, 8.997173e+004
8.932717e+002, 9.013011e+004
8.937538e+002, 9.028070e+004
8.942360e+002, 9.048898e+004
8.947181e+002, 9.077641e+004
8.952002e+002, 9.114670e+004
8.956823e+002, 9.160738e+004
8.961644e+002, 9.214625e+004
8.966465e+002, 9.277373e+004
8.971287e+002, 9.346387e+004
8.976108e+002, 9.428871e+004
8.980929e+002, 9.534863e+004
8.985750e+002, 9.661354e+004
8.990571e+002, 9.795687e+004
8.995392e+002, 9.936549e+004
9.000214e+002, 1.008978e+005
9.005035e+002, 1.025249e+005
9.009856e+002, 1.043567e+005
9.014677e+002, 1.065354e+005
9.019498e+002, 1.091077e+005
9.024319e+002, 1.118272e+005
9.029141e+002, 1.146238e+005
9.033962e+002, 1.177150e+005
9.038783e+002, 1.212078e+005
9.043604e+002, 1.251188e+005
9.048425e+002, 1.296579e+005
9.053246e+002, 1.348765e+005
9.058068e+002, 1.406346e+005
9.062889e+002, 1.469824e+005
9.067710e+002, 1.537680e+005
9.072531e+002, 1.610213e+005
9.077352e+002, 1.686827e+005
9.082173e+002, 1.765542e+005
9.086995e+002, 1.848346e+005
9.091816e+002, 1.930561e+005
9.096637e+002, 2.012777e+005
9.101458e+002, 2.091009e+005
9.106279e+002, 2.157177e+005
9.111100e+002, 2.209579e+005
9.115922e+002, 2.232706e+005
9.120743e+002, 2.220991e+005
9.125564e+002, 2.177271e+005
9.130385e+002, 2.095165e+005
9.135206e+002, 1.985392e+005
9.140027e+002, 1.865036e+005
9.144849e+002, 1.723682e+005
9.149670e+002, 1.591788e+005
9.154491e+002, 1.469906e+005
9.159312e+002, 1.359996e+005
9.164133e+002, 1.265228e+005
9.168954e+002, 1.185049e+005
9.173776e+002, 1.116181e+005
9.178597e+002, 1.058169e+005
9.183418e+002, 1.008245e+005
9.188239e+002, 9.653353e+004
9.193060e+002, 9.282502e+004
9.197881e+002, 8.960376e+004
9.202703e+002, 8.688044e+004
9.207524e+002, 8.448111e+004
9.212345e+002, 8.242934e+004
9.217166e+002, 8.060660e+004
9.221987e+002, 7.897277e+004
9.226808e+002, 7.752566e+004
9.231630e+002, 7.622215e+004
9.236451e+002, 7.505848e+004
9.241272e+002, 7.400663e+004
9.246093e+002, 7.304328e+004
9.250914e+002, 7.218529e+004
9.255735e+002, 7.149720e+004
9.260557e+002, 7.095034e+004
9.265378e+002, 7.038426e+004
9.270199e+002, 6.966608e+004
9.275020e+002, 6.904375e+004
9.279841e+002, 6.859166e+004
9.284662e+002, 6.824989e+004
9.289484e+002, 6.784373e+004
9.294305e+002, 6.737859e+004
9.299126e+002, 6.699966e+004
9.303947e+002, 6.677478e+004
9.308768e+002, 6.660297e+004
9.313589e+002, 6.641403e+004
9.318411e+002, 6.619813e+004
9.323232e+002, 6.594305e+004
9.328053e+002, 6.561706e+004
9.332874e+002, 6.529866e+004
9.337695e+002, 6.499148e+004
9.342516e+002, 6.470205e+004
9.347338e+002, 6.444023e+004
9.352159e+002, 6.420475e+004
9.356980e+002, 6.400820e+004
9.361801e+002, 6.385408e+004
9.366622e+002, 6.369382e+004
9.371443e+002, 6.348811e+004
9.376265e+002, 6.325455e+004
9.381086e+002, 6.300251e+004
9.385907e+002, 6.273021e+004
9.390728e+002, 6.248361e+004
9.395549e+002, 6.228924e+004
9.400370e+002, 6.209243e+004
9.405192e+002, 6.186648e+004
9.410013e+002, 6.162355e+004
9.414834e+002, 6.143125e+004
9.419655e+002, 6.128318e+004
9.424476e+002, 6.113036e+004
9.429297e+002, 6.094276e+004
9.434119e+002, 6.074770e+004
9.438940e+002, 6.057194e+004
9.443761e+002, 6.040707e+004
9.448582e+002, 6.023461e+004
9.453403e+002, 6.002742e+004
9.458224e+002, 5.985401e+004
9.463046e+002, 5.973670e+004
9.467867e+002, 5.963666e+004
9.472688e+002, 5.949353e+004
9.477509e+002, 5.931586e+004
9.482330e+002, 5.915419e+004
9.487151e+002, 5.901445e+004
9.491973e+002, 5.890166e+004
9.496794e+002, 5.884842e+004
9.501615e+002, 5.880386e+004
9.506436e+002, 5.871530e+004
9.511257e+002, 5.856170e+004
9.516078e+002, 5.843957e+004
9.520900e+002, 5.837148e+004
9.525721e+002, 5.828948e+004
9.530542e+002, 5.813239e+004
9.535363e+002, 5.793250e+004
9.540184e+002, 5.784890e+004
9.545005e+002, 5.786285e+004
9.549827e+002, 5.785046e+004
9.554648e+002, 5.771191e+004
9.559469e+002, 5.755640e+004
9.564290e+002, 5.744331e+004
9.569111e+002, 5.736646e+004
9.573932e+002, 5.730191e+004
9.578754e+002, 5.725190e+004
9.583575e+002, 5.720416e+004
9.588396e+002, 5.716009e+004
9.593217e+002, 5.710904e+004
9.598038e+002, 5.701895e+004
9.602859e+002, 5.690934e+004
9.607681e+002, 5.684027e+004
9.612502e+002, 5.683560e+004
9.617323e+002, 5.682679e+004
9.622144e+002, 5.678110e+004
9.626965e+002, 5.671076e+004
9.631786e+002, 5.661966e+004
9.636608e+002, 5.650109e+004
9.641429e+002, 5.641054e+004
9.646250e+002, 5.634770e+004
9.651071e+002, 5.632081e+004
9.655892e+002, 5.637565e+004
9.660714e+002, 5.645485e+004
9.665535e+002, 5.642773e+004
9.670356e+002, 5.631506e+004
9.675177e+002, 5.622868e+004
9.679998e+002, 5.625912e+004
9.684819e+002, 5.628082e+004
9.689641e+002, 5.622839e+004
9.694462e+002, 5.613878e+004
9.699283e+002, 5.610457e+004
9.704104e+002, 5.613077e+004
9.708925e+002, 5.616057e+004
9.713746e+002, 5.618888e+004
9.718568e+002, 5.619315e+004
9.723389e+002, 5.611122e+004
9.728210e+002, 5.599950e+004
9.733031e+002, 5.594533e+004
9.737852e+002, 5.598415e+004
9.742673e+002, 5.603873e+004
9.747495e+002, 5.611370e+004
9.752316e+002, 5.617887e+004
9.757137e+002, 5.620980e+004
9.761958e+002, 5.620644e+004
9.766779e+002, 5.620952e+004
9.771600e+002, 5.621866e+004
9.776422e+002, 5.623389e+004
9.781243e+002, 5.627261e+004
9.786064e+002, 5.630296e+004
9.790885e+002, 5.627657e+004
9.795706e+002, 5.621093e+004
9.800527e+002, 5.619303e+004
9.805349e+002, 5.627939e+004
9.810170e+002, 5.633938e+004
9.814991e+002, 5.634154e+004
9.819812e+002, 5.631363e+004
9.824633e+002, 5.630138e+004
9.829454e+002, 5.630614e+004
9.834276e+002, 5.633501e+004
9.839097e+002, 5.639620e+004
9.843918e+002, 5.646228e+004
9.848739e+002, 5.652359e+004
9.853560e+002, 5.657608e+004
9.858381e+002, 5.661378e+004
9.863203e+002, 5.663366e+004
9.868024e+002, 5.665130e+004
9.872845e+002, 5.666325e+004
9.877666e+002, 5.668472e+004
9.882487e+002, 5.671354e+004
9.887308e+002, 5.676380e+004
9.892130e+002, 5.689754e+004
9.896951e+002, 5.709274e+004
9.901772e+002, 5.724484e+004
9.906593e+002, 5.728390e+004
9.911414e+002, 5.729156e+004
9.916235e+002, 5.726782e+004
9.921057e+002, 5.724403e+004
9.925878e+002, 5.729677e+004
9.930699e+002, 5.743456e+004
9.935520e+002, 5.755350e+004
9.940341e+002, 5.763025e+004
9.945162e+002, 5.769302e+004
9.949984e+002, 5.775969e+004
9.954805e+002, 5.783925e+004
9.959626e+002, 5.795500e+004
9.964447e+002, 5.813314e+004
9.969268e+002, 5.825405e+004
9.974089e+002, 5.826334e+004
9.978911e+002, 5.826455e+004
9.983732e+002, 5.832249e+004
9.988553e+002, 5.842576e+004
9.993374e+002, 5.848336e+004
9.998195e+002, 5.849970e+004
1.000302e+003, 5.851830e+004
1.000784e+003, 5.853739e+004
1.001266e+003, 5.859476e+004
1.001748e+003, 5.875593e+004
1.002230e+003, 5.897386e+004
1.002712e+003, 5.912130e+004
1.003194e+003, 5.917170e+004
1.003676e+003, 5.919703e+004
1.004159e+003, 5.918884e+004
1.004641e+003, 5.920005e+004
1.005123e+003, 5.932834e+004
1.005605e+003, 5.952569e+004
1.006087e+003, 5.967989e+004
1.006569e+003, 5.977207e+004
1.007051e+003, 5.984695e+004
1.007533e+003, 5.991314e+004
1.008016e+003, 5.998223e+004
1.008498e+003, 6.006485e+004
1.008980e+003, 6.015895e+004
1.009462e+003, 6.022730e+004
1.009944e+003, 6.026670e+004
1.010426e+003, 6.034159e+004
1.010908e+003, 6.049362e+004
1.011390e+003, 6.068382e+004
1.011872e+003, 6.089561e+004
1.012355e+003, 6.110759e+004
1.012837e+003, 6.127736e+004
1.013319e+003, 6.134428e+004
1.013801e+003, 6.144396e+004
1.014283e+003, 6.160172e+004
1.014765e+003, 6.177451e+004
1.015247e+003, 6.189866e+004
1.015729e+003, 6.199308e+004
1.016211e+003, 6.217392e+004
1.016694e+003, 6.244982e+004
1.017176e+003, 6.271747e+004
1.017658e+003, 6.288001e+004
1.018140e+003, 6.303131e+004
1.018622e+003, 6.324921e+004
1.019104e+003, 6.352493e+004
1.019586e+003, 6.375100e+004
1.020068e+003, 6.391032e+004
1.020551e+003, 6.409297e+004
1.021033e+003, 6.433839e+004
1.021515e+003, 6.460171e+004
1.021997e+003, 6.478990e+004
1.022479e+003, 6.494322e+004
1.022961e+003, 6.514264e+004
1.023443e+003, 6.544771e+004
1.023925e+003, 6.571869e+004
1.024407e+003, 6.589016e+004
1.024890e+003, 6.604713e+004
1.025372e+003, 6.626710e+004
1.025854e+003, 6.654788e+004
1.026336e+003, 6.672534e+004
1.026818e+003, 6.680164e+004
1.027300e+003, 6.686830e+004
1.027782e+003, 6.698660e+004
1.028264e+003, 6.712268e+004
1.028746e+003, 6.726348e+004
1.029229e+003, 6.740069e+004
1.029711e+003, 6.750838e+004
1.030193e+003, 6.758246e+004
1.030675e+003, 6.763573e+004
1.031157e+003, 6.766109e+004
1.031639e+003, 6.768791e+004
1.032121e+003, 6.776741e+004
1.032603e+003, 6.788037e+004
1.033086e+003, 6.798768e+004
1.033568e+003, 6.808777e+004
1.034050e+003, 6.815013e+004
1.034532e+003, 6.814455e+004
1.035014e+003, 6.810889e+004
1.035496e+003, 6.804779e+004
1.035978e+003, 6.796934e+004
1.036460e+003, 6.798287e+004
1.036943e+003, 6.808602e+004
1.037425e+003, 6.815377e+004
1.037907e+003, 6.810859e+004
1.038389e+003, 6.802381e+004
1.038871e+003, 6.796224e+004
1.039353e+003, 6.791310e+004
1.039835e+003, 6.785907e+004
1.040317e+003, 6.780638e+004
1.040799e+003, 6.773263e+004
1.041281e+003, 6.763597e+004
1.041764e+003, 6.751972e+004
1.042246e+003, 6.737298e+004
1.042728e+003, 6.721088e+004
1.043210e+003, 6.709126e+004
1.043692e+003, 6.700995e+004
1.044174e+003, 6.689731e+004
1.044656e+003, 6.668313e+004
1.045138e+003, 6.646611e+004
1.045621e+003, 6.628797e+004
1.046103e+003, 6.613953e+004
1.046585e+003, 6.600606e+004
1.047067e+003, 6.588952e+004
1.047549e+003, 6.571707e+004
1.048031e+003, 6.545688e+004
1.048513e+003, 6.519697e+004
1.048995e+003, 6.506855e+004
1.049478e+003, 6.497232e+004
1.049960e+003, 6.478256e+004
1.050442e+003, 6.443537e+004
1.050924e+003, 6.418292e+004
1.051406e+003, 6.406616e+004
1.051888e+003, 6.394638e+004
1.052370e+003, 6.373715e+004
1.052852e+003, 6.346996e+004
1.053334e+003, 6.321206e+004
1.053817e+003, 6.296627e+004
1.054299e+003, 6.274423e+004
1.054781e+003, 6.259184e+004
1.055263e+003, 6.241059e+004
1.055745e+003, 6.217255e+004
1.056227e+003, 6.188537e+004
1.056709e+003, 6.153425e+004
1.057191e+003, 6.111734e+004
1.057673e+003, 6.075916e+004
1.058156e+003, 6.046834e+004
1.058638e+003, 6.022930e+004
1.059120e+003, 6.009074e+004
1.059602e+003, 5.994566e+004
1.060084e+003, 5.969393e+004
1.060566e+003, 5.933934e+004
1.061048e+003, 5.899654e+004
1.061530e+003, 5.867728e+004
1.062013e+003, 5.834562e+004
1.062495e+003, 5.798400e+004
1.062977e+003, 5.762329e+004
1.063459e+003, 5.731398e+004
1.063941e+003, 5.703752e+004
1.064423e+003, 5.674781e+004
1.064905e+003, 5.642516e+004
1.065387e+003, 5.612411e+004
1.065870e+003, 5.586541e+004
1.066352e+003, 5.563311e+004
1.066834e+003, 5.543163e+004
1.067316e+003, 5.525202e+004
1.067798e+003, 5.500223e+004
1.068280e+003, 5.468900e+004
1.068762e+003, 5.438773e+004
1.069244e+003, 5.414644e+004
1.069726e+003, 5.391358e+004
1.070208e+003, 5.366098e+004
1.070691e+003, 5.339697e+004
1.071173e+003, 5.313838e+004
1.071655e+003, 5.287646e+004
1.072137e+003, 5.265017e+004
1.072619e+003, 5.246271e+004
1.073101e+003, 5.229546e+004
1.073583e+003, 5.214786e+004
1.074065e+003, 5.200013e+004
1.074548e+003, 5.181910e+004
1.075030e+003, 5.160901e+004
1.075512e+003, 5.140190e+004
1.075994e+003, 5.121184e+004
1.076476e+003, 5.101588e+004
1.076958e+003, 5.080032e+004
1.077440e+003, 5.059104e+004
1.077922e+003, 5.045802e+004
1.078405e+003, 5.037211e+004
1.078887e+003, 5.022556e+004
1.079369e+003, 4.998038e+004
1.079851e+003, 4.977154e+004
1.080333e+003, 4.970679e+004
1.080815e+003, 4.966966e+004
1.081297e+003, 4.958896e+004
1.081779e+003, 4.946839e+004
1.082261e+003, 4.934541e+004
1.082744e+003, 4.921907e+004
1.083226e+003, 4.911229e+004
1.083708e+003, 4.904742e+004
1.084190e+003, 4.898592e+004
1.084672e+003, 4.888286e+004
1.085154e+003, 4.876303e+004
1.085636e+003, 4.866522e+004
1.086118e+003, 4.861021e+004
1.086601e+003, 4.852993e+004
1.087083e+003, 4.841358e+004
1.087565e+003, 4.831135e+004
1.088047e+003, 4.826842e+004
1.088529e+003, 4.826458e+004
1.089011e+003, 4.829687e+004
1.089493e+003, 4.834257e+004
1.089975e+003, 4.831216e+004
1.090458e+003, 4.805519e+004
1.090940e+003, 4.788307e+004
1.091422e+003, 4.787846e+004
1.091904e+003, 4.794889e+004
1.092386e+003, 4.796333e+004
1.092868e+003, 4.793347e+004
1.093350e+003, 4.790845e+004
1.093832e+003, 4.789432e+004
1.094314e+003, 4.788056e+004
1.094797e+003, 4.783494e+004
1.095279e+003, 4.781285e+004
1.095761e+003, 4.787301e+004
1.096243e+003, 4.798287e+004
1.096725e+003, 4.799486e+004
1.097207e+003, 4.790580e+004
1.097689e+003, 4.785957e+004
1.098171e+003, 4.791507e+004
1.098653e+003, 4.798054e+004
1.099136e+003, 4.796093e+004
1.099618e+003, 4.790208e+004
1.100100e+003, 4.785546e+004
1.100582e+003, 4.783204e+004
1.101064e+003, 4.779427e+004
1.101546e+003, 4.773284e+004
1.102028e+003, 4.768998e+004
1.102510e+003, 4.770648e+004
1.102993e+003, 4.773931e+004
1.103475e+003, 4.771295e+004
1.103957e+003, 4.764240e+004
1.104439e+003, 4.756127e+004
1.104921e+003, 4.747573e+004
1.105403e+003, 4.738856e+004
1.105885e+003, 4.729894e+004
1.106367e+003, 4.721233e+004
1.106849e+003, 4.714850e+004
1.107332e+003, 4.709387e+004
1.107814e+003, 4.696460e+004
1.108296e+003, 4.677326e+004
1.108778e+003, 4.664289e+004
1.109260e+003, 4.675579e+004
1.109742e+003, 4.680597e+004
1.110224e+003, 4.659834e+004
1.110706e+003, 4.629448e+004
1.111188e+003, 4.617520e+004
1.111671e+003, 4.623302e+004
1.112153e+003, 4.625834e+004
1.112635e+003, 4.622322e+004
1.113117e+003, 4.615294e+004
1.113599e+003, 4.602872e+004
1.114081e+003, 4.591011e+004
1.114563e+003, 4.586882e+004
1.115045e+003, 4.589021e+004
1.115528e+003, 4.583371e+004
1.116010e+003, 4.567968e+004
1.116492e+003, 4.556204e+004
1.116974e+003, 4.552520e+004
1.117456e+003, 4.552193e+004
1.117938e+003, 4.550791e+004
1.118420e+003, 4.548244e+004
1.118902e+003, 4.543954e+004
1.119385e+003, 4.536632e+004
1.119867e+003, 4.532821e+004
1.120349e+003, 4.535014e+004
1.120831e+003, 4.534186e+004
1.121313e+003, 4.524629e+004
1.121795e+003, 4.509914e+004
1.122277e+003, 4.495379e+004
1.122759e+003, 4.482047e+004
1.123241e+003, 4.472518e+004
1.123724e+003, 4.472514e+004
1.124206e+003, 4.468542e+004
1.124688e+003, 4.457268e+004
1.125170e+003, 4.444264e+004
1.125652e+003, 4.434067e+004
1.126134e+003, 4.426295e+004
1.126616e+003, 4.419260e+004
1.127098e+003, 4.412806e+004
1.127580e+003, 4.405652e+004
1.128063e+003, 4.397388e+004
1.128545e+003, 4.387916e+004
1.129027e+003, 4.375195e+004
1.129509e+003, 4.362738e+004
1.129991e+003, 4.356204e+004
1.130473e+003, 4.355321e+004
1.130955e+003, 4.351395e+004
1.131437e+003, 4.343479e+004
1.131920e+003, 4.337128e+004
1.132402e+003, 4.339658e+004
1.132884e+003, 4.342052e+004
1.133366e+003, 4.337666e+004
1.133848e+003, 4.327703e+004
1.134330e+003, 4.315864e+004
1.134812e+003, 4.301118e+004
1.135294e+003, 4.294077e+004
1.135776e+003, 4.298280e+004
1.136259e+003, 4.304281e+004
1.136741e+003, 4.301529e+004
1.137223e+003, 4.296052e+004
1.137705e+003, 4.294395e+004
1.138187e+003, 4.297546e+004
1.138669e+003, 4.298736e+004
1.139151e+003, 4.297394e+004
1.139633e+003, 4.295768e+004
1.140115e+003, 4.294135e+004
1.140598e+003, 4.293570e+004
1.141080e+003, 4.298604e+004
1.141562e+003, 4.304649e+004
1.142044e+003, 4.303325e+004
1.142526e+003, 4.288833e+004
1.143008e+003, 4.281916e+004
1.143490e+003, 4.286783e+004
1.143972e+003, 4.293173e+004
1.144455e+003, 4.296309e+004
1.144937e+003, 4.296675e+004
1.145419e+003, 4.294154e+004
1.145901e+003, 4.289876e+004
1.146383e+003, 4.286764e+004
1.146865e+003, 4.288641e+004
1.147347e+003, 4.286886e+004
1.147829e+003, 4.277960e+004
1.148312e+003, 4.268590e+004
1.148794e+003, 4.265321e+004
1.149276e+003, 4.266302e+004
1.149758e+003, 4.262443e+004
1.150240e+003, 4.254304e+004
1.150722e+003, 4.245190e+004
1.151204e+003, 4.236900e+004
1.151686e+003, 4.227702e+004
1.152168e+003, 4.216650e+004
1.152651e+003, 4.204755e+004
1.153133e+003, 4.192815e+004
1.153615e+003, 4.180966e+004
1.154097e+003, 4.170073e+004
1.154579e+003, 4.160316e+004
1.155061e+003, 4.151470e+004
1.155543e+003, 4.146156e+004
1.156025e+003, 4.138826e+004
1.156507e+003, 4.123607e+004
1.156990e+003, 4.105198e+004
1.157472e+003, 4.093811e+004
1.157954e+003, 4.089457e+004
1.158436e+003, 4.078523e+004
1.158918e+003, 4.058531e+004
1.159400e+003, 4.038629e+004
1.159882e+003, 4.030500e+004
1.160364e+003, 4.021689e+004
1.160847e+003, 3.998764e+004
1.161329e+003, 3.965800e+004
1.161811e+003, 3.945459e+004
1.162293e+003, 3.939100e+004
1.162775e+003, 3.932257e+004
1.163257e+003, 3.921821e+004
1.163739e+003, 3.908301e+004
1.164221e+003, 3.890519e+004
1.164703e+003, 3.870939e+004
1.165186e+003, 3.852072e+004
1.165668e+003, 3.834358e+004
1.166150e+003, 3.815472e+004
1.166632e+003, 3.795576e+004
1.167114e+003, 3.774206e+004
1.167596e+003, 3.749394e+004
1.168078e+003, 3.726894e+004
1.168560e+003, 3.719118e+004
1.169042e+003, 3.716070e+004
1.169525e+003, 3.703288e+004
1.170007e+003, 3.674404e+004
1.170489e+003, 3.652382e+004
1.170971e+003, 3.638263e+004
1.171453e+003, 3.626966e+004
1.171935e+003, 3.615807e+004
1.172417e+003, 3.605631e+004
1.172899e+003, 3.599660e+004
1.173382e+003, 3.594968e+004
1.173864e+003, 3.586288e+004
1.174346e+003, 3.569170e+004
1.174828e+003, 3.553754e+004
1.175310e+003, 3.540298e+004
1.175792e+003, 3.527687e+004
1.176274e+003, 3.515042e+004
1.176756e+003, 3.502613e+004
1.177239e+003, 3.490075e+004
1.177721e+003, 3.477840e+004
1.178203e+003, 3.466632e+004
1.178685e+003, 3.459950e+004
1.179167e+003, 3.449173e+004
1.179649e+003, 3.432118e+004
1.180131e+003, 3.414739e+004
1.180613e+003, 3.403238e+004
1.181095e+003, 3.395218e+004
1.181578e+003, 3.384864e+004
1.182060e+003, 3.372743e+004
1.182542e+003, 3.362236e+004
1.183024e+003, 3.357459e+004
1.183506e+003, 3.350056e+004
1.183988e+003, 3.337902e+004
1.184470e+003, 3.324580e+004
1.184952e+003, 3.313477e+004
1.185434e+003, 3.304690e+004
1.185917e+003, 3.300023e+004
1.186399e+003, 3.298750e+004
1.186881e+003, 3.294163e+004
1.187363e+003, 3.277654e+004
1.187845e+003, 3.265492e+004
1.188327e+003, 3.262693e+004
1.188809e+003, 3.263337e+004
1.189291e+003, 3.258094e+004
1.189774e+003, 3.248849e+004
1.190256e+003, 3.241203e+004
1.190738e+003, 3.235756e+004
1.191220e+003, 3.231141e+004
1.191702e+003, 3.227663e+004
1.192184e+003, 3.223719e+004
1.192666e+003, 3.218790e+004
1.193148e+003, 3.213248e+004
1.193630e+003, 3.206584e+004
1.194113e+003, 3.199982e+004
1.194595e+003, 3.198430e+004
1.195077e+003, 3.203356e+004
1.195559e+003, 3.206578e+004
1.196041e+003, 3.203020e+004
1.196523e+003, 3.198253e+004
1.197005e+003, 3.193123e+004
1.197487e+003, 3.189295e+004
1.197969e+003, 3.192795e+004
1.198452e+003, 3.201613e+004
1.198934e+003, 3.208399e+004
1.199416e+003, 3.210964e+004
1.199898e+003, 3.213215e+004
1.200380e+003, 3.214833e+004
1.200862e+003, 3.218990e+004
1.201344e+003, 3.227921e+004
1.201826e+003, 3.240025e+004
1.202309e+003, 3.249859e+004
1.202791e+003, 3.257625e+004
1.203273e+003, 3.263754e+004
1.203755e+003, 3.268433e+004
1.204237e+003, 3.271668e+004
1.204719e+003, 3.272940e+004
1.205201e+003, 3.273255e+004
1.205683e+003, 3.272841e+004
1.206166e+003, 3.272063e+004
1.206648e+003, 3.273125e+004
1.207130e+003, 3.275362e+004
1.207612e+003, 3.275672e+004
1.208094e+003, 3.271787e+004
1.208576e+003, 3.268335e+004
1.209058e+003, 3.269936e+004
1.209540e+003, 3.269891e+004
1.210022e+003, 3.263599e+004
1.210505e+003, 3.251840e+004
1.210987e+003, 3.239379e+004
1.211469e+003, 3.226232e+004
1.211951e+003, 3.213135e+004
1.212433e+003, 3.200870e+004
1.212915e+003, 3.187544e+004
1.213397e+003, 3.171399e+004
1.213879e+003, 3.155022e+004
1.214361e+003, 3.140427e+004
1.214844e+003, 3.127481e+004
1.215326e+003, 3.115136e+004
1.215808e+003, 3.103287e+004
1.216290e+003, 3.091213e+004
1.216772e+003, 3.080053e+004
1.217254e+003, 3.066495e+004
1.217736e+003, 3.047151e+004
1.218218e+003, 3.027603e+004
1.218701e+003, 3.013165e+004
1.219183e+003, 3.002867e+004
1.219665e+003, 2.988962e+004
1.220147e+003, 2.972351e+004
1.220629e+003, 2.957781e+004
1.221111e+003, 2.951419e+004
1.221593e+003, 2.941969e+004
1.222075e+003, 2.923401e+004
1.222557e+003, 2.904089e+004
1.223040e+003, 2.893724e+004
1.223522e+003, 2.890113e+004
1.224004e+003, 2.882349e+004
1.224486e+003, 2.870773e+004
1.224968e+003, 2.859556e+004
1.225450e+003, 2.852120e+004
1.225932e+003, 2.843176e+004
1.226414e+003, 2.829883e+004
1.226896e+003, 2.816778e+004
1.227379e+003, 2.810146e+004
1.227861e+003, 2.808039e+004
1.228343e+003, 2.803461e+004
1.228825e+003, 2.796252e+004
1.229307e+003, 2.788096e+004
1.229789e+003, 2.779861e+004
1.230271e+003, 2.770249e+004
1.230753e+003, 2.757802e+004
1.231236e+003, 2.745735e+004
1.231718e+003, 2.739173e+004
1.232200e+003, 2.736295e+004
1.232682e+003, 2.733268e+004
1.233164e+003, 2.729515e+004
1.233646e+003, 2.722824e+004
1.234128e+003, 2.707772e+004
1.234610e+003, 2.696714e+004
1.235093e+003, 2.694264e+004
1.235575e+003, 2.692680e+004
1.236057e+003, 2.679619e+004
1.236539e+003, 2.660236e+004
1.237021e+003, 2.645198e+004
1.237503e+003, 2.635498e+004
1.237985e+003, 2.629934e+004
1.238467e+003, 2.635604e+004
1.238949e+003, 2.633525e+004
1.239432e+003, 2.618959e+004
1.239914e+003, 2.598770e+004
1.240396e+003, 2.580615e+004
1.240878e+003, 2.564446e+004
1.241360e+003, 2.551130e+004
1.241842e+003, 2.540354e+004
1.242324e+003, 2.529620e+004
1.242806e+003, 2.518430e+004
1.243288e+003, 2.506913e+004
1.243771e+003, 2.495277e+004
1.244253e+003, 2.482499e+004
1.244735e+003, 2.465310e+004
1.245217e+003, 2.446877e+004
1.245699e+003, 2.432327e+004
1.246181e+003, 2.421902e+004
1.246663e+003, 2.410634e+004
1.247145e+003, 2.397296e+004
1.247628e+003, 2.385283e+004
1.248110e+003, 2.375970e+004
1.248592e+003, 2.366023e+004
1.249074e+003, 2.348970e+004
1.249556e+003, 2.330645e+004
1.250038e+003, 2.318786e+004
1.250520e+003, 2.313652e+004
1.251002e+003, 2.304674e+004
1.251484e+003, 2.290572e+004
1.251967e+003, 2.276659e+004
1.252449e+003, 2.263704e+004
1.252931e+003, 2.253275e+004
1.253413e+003, 2.249329e+004
1.253895e+003, 2.246913e+004
1.254377e+003, 2.240401e+004
1.254859e+003, 2.229939e+004
1.255341e+003, 2.222291e+004
1.255823e+003, 2.217751e+004
1.256306e+003, 2.213376e+004
1.256788e+003, 2.208573e+004
1.257270e+003, 2.203463e+004
1.257752e+003, 2.197503e+004
1.258234e+003, 2.191819e+004
1.258716e+003, 2.188363e+004
1.259198e+003, 2.186201e+004
1.259680e+003, 2.180548e+004
1.260163e+003, 2.171320e+004
1.260645e+003, 2.161993e+004
1.261127e+003, 2.153388e+004
1.261609e+003, 2.144007e+004
1.262091e+003, 2.129898e+004
1.262573e+003, 2.117488e+004
1.263055e+003, 2.112680e+004
1.263537e+003, 2.112596e+004
1.264020e+003, 2.106614e+004
1.264502e+003, 2.095542e+004
1.264984e+003, 2.085287e+004
1.265466e+003, 2.077154e+004
1.265948e+003, 2.070762e+004
1.266430e+003, 2.068939e+004
1.266912e+003, 2.065292e+004
1.267394e+003, 2.056024e+004
1.267876e+003, 2.043339e+004
1.268359e+003, 2.032948e+004
1.268841e+003, 2.024098e+004
1.269323e+003, 2.013173e+004
1.269805e+003, 1.998849e+004
1.270287e+003, 1.988055e+004
1.270769e+003, 1.987848e+004
1.271251e+003, 1.986688e+004
1.271733e+003, 1.980679e+004
1.272215e+003, 1.971380e+004
1.272698e+003, 1.961270e+004
1.273180e+003, 1.950841e+004
1.273662e+003, 1.941051e+004
1.274144e+003, 1.931769e+004
1.274626e+003, 1.925794e+004
1.275108e+003, 1.926814e+004
1.275590e+003, 1.923889e+004
1.276072e+003, 1.912706e+004
1.276555e+003, 1.897495e+004
1.277037e+003, 1.883210e+004
1.277519e+003, 1.870788e+004
1.278001e+003, 1.862181e+004
1.278483e+003, 1.858179e+004
1.278965e+003, 1.852733e+004
1.279447e+003, 1.844991e+004
1.279929e+003, 1.838132e+004
1.280411e+003, 1.833911e+004
1.280894e+003, 1.828679e+004
1.281376e+003, 1.815148e+004
1.281858e+003, 1.799840e+004
1.282340e+003, 1.791374e+004
1.282822e+003, 1.789879e+004
1.283304e+003, 1.782542e+004
1.283786e+003, 1.768766e+004
1.284268e+003, 1.755576e+004
1.284750e+003, 1.744640e+004
1.285233e+003, 1.735401e+004
1.285715e+003, 1.728917e+004
1.286197e+003, 1.722726e+004
1.286679e+003, 1.714967e+004
1.287161e+003, 1.705736e+004
1.287643e+003, 1.694131e+004
1.288125e+003, 1.680547e+004
1.288607e+003, 1.670284e+004
1.289090e+003, 1.665111e+004
1.289572e+003, 1.660609e+004
1.290054e+003, 1.656564e+004
1.290536e+003, 1.649247e+004
1.291018e+003, 1.635820e+004
1.291500e+003, 1.618924e+004
1.291982e+003, 1.604279e+004
1.292464e+003, 1.592623e+004
1.292947e+003, 1.588282e+004
1.293429e+003, 1.593248e+004
1.293911e+003, 1.592795e+004
1.294393e+003, 1.575703e+004
1.294875e+003, 1.558452e+004
1.295357e+003, 1.545123e+004
1.295839e+003, 1.535080e+004
1.296321e+003, 1.528194e+004
1.296803e+003, 1.523462e+004
1.297286e+003, 1.520297e+004
1.297768e+003, 1.518815e+004
1.298250e+003, 1.510887e+004
1.298732e+003, 1.493107e+004
1.299214e+003, 1.476107e+004
1.299696e+003, 1.462138e+004
1.300178e+003, 1.451384e+004
1.300660e+003, 1.444334e+004
##END=



