##NAMES=Scheelite
##RRUFFID=R060417
##IDEAL CHEMISTRY=CaW^6+^O_4_
##LOCALITY=Karmang Valley, near Khapalu, Baltistan, Pakistan
##OWNER=RRUFF
##SOURCE=Herb Obodda
##DESCRIPTION=Orange-yellow fragment
##STATUS=The identification of this mineral has been confirmed by X-ray diffraction and chemical analysis
##URL=rruff.info/R060417
##MEASURED CHEMISTRY=Ca_1.00_W_1.00_O_4_
8.758203e+001, 2.528672e+005
8.806415e+001, 2.417160e+005
8.854626e+001, 2.397425e+005
8.902838e+001, 2.503449e+005
8.951050e+001, 2.643806e+005
8.999261e+001, 2.791052e+005
9.047473e+001, 2.941488e+005
9.095685e+001, 3.092726e+005
9.143896e+001, 3.243323e+005
9.192108e+001, 3.393435e+005
9.240320e+001, 3.540101e+005
9.288531e+001, 3.637358e+005
9.336743e+001, 3.662112e+005
9.384955e+001, 3.634868e+005
9.433167e+001, 3.611418e+005
9.481378e+001, 3.576369e+005
9.529590e+001, 3.543885e+005
9.577802e+001, 3.515660e+005
9.626013e+001, 3.492351e+005
9.674225e+001, 3.473637e+005
9.722437e+001, 3.458621e+005
9.770648e+001, 3.446532e+005
9.818860e+001, 3.437034e+005
9.867072e+001, 3.429941e+005
9.915283e+001, 3.425123e+005
9.963495e+001, 3.422254e+005
1.001171e+002, 3.420718e+005
1.005992e+002, 3.419391e+005
1.010813e+002, 3.416314e+005
1.015634e+002, 3.417443e+005
1.020455e+002, 3.422184e+005
1.025277e+002, 3.428966e+005
1.030098e+002, 3.436649e+005
1.034919e+002, 3.444704e+005
1.039740e+002, 3.453157e+005
1.044561e+002, 3.462405e+005
1.049382e+002, 3.470679e+005
1.054204e+002, 3.481160e+005
1.059025e+002, 3.494965e+005
1.063846e+002, 3.510922e+005
1.068667e+002, 3.526880e+005
1.073488e+002, 3.541313e+005
1.078309e+002, 3.554585e+005
1.083131e+002, 3.570154e+005
1.087952e+002, 3.588064e+005
1.092773e+002, 3.607635e+005
1.097594e+002, 3.628247e+005
1.102415e+002, 3.649895e+005
1.107236e+002, 3.672908e+005
1.112058e+002, 3.697615e+005
1.116879e+002, 3.723996e+005
1.121700e+002, 3.752048e+005
1.126521e+002, 3.785614e+005
1.131342e+002, 3.819875e+005
1.136163e+002, 3.847102e+005
1.140985e+002, 3.866794e+005
1.145806e+002, 3.878803e+005
1.150627e+002, 3.882292e+005
1.155448e+002, 3.879113e+005
1.160269e+002, 3.873211e+005
1.165090e+002, 3.865616e+005
1.169912e+002, 3.856418e+005
1.174733e+002, 3.849863e+005
1.179554e+002, 3.845622e+005
1.184375e+002, 3.844850e+005
1.189196e+002, 3.848497e+005
1.194017e+002, 3.856298e+005
1.198839e+002, 3.867023e+005
1.203660e+002, 3.879697e+005
1.208481e+002, 3.895199e+005
1.213302e+002, 3.910198e+005
1.218123e+002, 3.923065e+005
1.222944e+002, 3.936379e+005
1.227766e+002, 3.952246e+005
1.232587e+002, 3.971050e+005
1.237408e+002, 3.991416e+005
1.242229e+002, 4.010646e+005
1.247050e+002, 4.027354e+005
1.251871e+002, 4.044663e+005
1.256693e+002, 4.062748e+005
1.261514e+002, 4.081431e+005
1.266335e+002, 4.100326e+005
1.271156e+002, 4.119346e+005
1.275977e+002, 4.138651e+005
1.280798e+002, 4.158932e+005
1.285620e+002, 4.181074e+005
1.290441e+002, 4.202979e+005
1.295262e+002, 4.222828e+005
1.300083e+002, 4.241480e+005
1.304904e+002, 4.262236e+005
1.309725e+002, 4.287713e+005
1.314547e+002, 4.316210e+005
1.319368e+002, 4.343369e+005
1.324189e+002, 4.368464e+005
1.329010e+002, 4.392886e+005
1.333831e+002, 4.417657e+005
1.338652e+002, 4.442596e+005
1.343474e+002, 4.468775e+005
1.348295e+002, 4.497251e+005
1.353116e+002, 4.527004e+005
1.357937e+002, 4.557212e+005
1.362758e+002, 4.587309e+005
1.367579e+002, 4.617804e+005
1.372401e+002, 4.650282e+005
1.377222e+002, 4.686389e+005
1.382043e+002, 4.721995e+005
1.386864e+002, 4.754415e+005
1.391685e+002, 4.785715e+005
1.396507e+002, 4.819102e+005
1.401328e+002, 4.856791e+005
1.406149e+002, 4.898773e+005
1.410970e+002, 4.940340e+005
1.415791e+002, 4.981065e+005
1.420612e+002, 5.021708e+005
1.425434e+002, 5.061887e+005
1.430255e+002, 5.102028e+005
1.435076e+002, 5.143184e+005
1.439897e+002, 5.186343e+005
1.444718e+002, 5.231735e+005
1.449539e+002, 5.278014e+005
1.454361e+002, 5.324542e+005
1.459182e+002, 5.372394e+005
1.464003e+002, 5.422472e+005
1.468824e+002, 5.474757e+005
1.473645e+002, 5.528290e+005
1.478466e+002, 5.581729e+005
1.483288e+002, 5.635020e+005
1.488109e+002, 5.690533e+005
1.492930e+002, 5.749019e+005
1.497751e+002, 5.809656e+005
1.502572e+002, 5.871391e+005
1.507393e+002, 5.934200e+005
1.512215e+002, 5.997859e+005
1.517036e+002, 6.061762e+005
1.521857e+002, 6.125416e+005
1.526678e+002, 6.191743e+005
1.531499e+002, 6.261730e+005
1.536320e+002, 6.334908e+005
1.541142e+002, 6.410028e+005
1.545963e+002, 6.486797e+005
1.550784e+002, 6.565122e+005
1.555605e+002, 6.644873e+005
1.560426e+002, 6.725669e+005
1.565247e+002, 6.808460e+005
1.570069e+002, 6.892993e+005
1.574890e+002, 6.979318e+005
1.579711e+002, 7.069369e+005
1.584532e+002, 7.164898e+005
1.589353e+002, 7.263888e+005
1.594174e+002, 7.364613e+005
1.598996e+002, 7.467098e+005
1.603817e+002, 7.571427e+005
1.608638e+002, 7.678109e+005
1.613459e+002, 7.786545e+005
1.618280e+002, 7.899269e+005
1.623102e+002, 8.016899e+005
1.627923e+002, 8.137659e+005
1.632744e+002, 8.259295e+005
1.637565e+002, 8.381866e+005
1.642386e+002, 8.506224e+005
1.647207e+002, 8.636666e+005
1.652029e+002, 8.775715e+005
1.656850e+002, 8.915814e+005
1.661671e+002, 9.053972e+005
1.666492e+002, 9.192799e+005
1.671313e+002, 9.336079e+005
1.676134e+002, 9.484429e+005
1.680956e+002, 9.637429e+005
1.685777e+002, 9.793920e+005
1.690598e+002, 9.956788e+005
1.695419e+002, 1.012004e+006
1.700240e+002, 1.028277e+006
1.705061e+002, 1.044624e+006
1.709883e+002, 1.061265e+006
1.714704e+002, 1.078307e+006
1.719525e+002, 1.095727e+006
1.724346e+002, 1.113431e+006
1.729167e+002, 1.131638e+006
1.733988e+002, 1.149981e+006
1.738810e+002, 1.168275e+006
1.743631e+002, 1.186591e+006
1.748452e+002, 1.205038e+006
1.753273e+002, 1.223530e+006
1.758094e+002, 1.242248e+006
1.762915e+002, 1.261154e+006
1.767737e+002, 1.280303e+006
1.772558e+002, 1.299622e+006
1.777379e+002, 1.319311e+006
1.782200e+002, 1.339261e+006
1.787021e+002, 1.359128e+006
1.791842e+002, 1.378771e+006
1.796664e+002, 1.398159e+006
1.801485e+002, 1.417328e+006
1.806306e+002, 1.436242e+006
1.811127e+002, 1.454958e+006
1.815948e+002, 1.473292e+006
1.820769e+002, 1.491225e+006
1.825591e+002, 1.508831e+006
1.830412e+002, 1.526053e+006
1.835233e+002, 1.542951e+006
1.840054e+002, 1.559708e+006
1.844875e+002, 1.576309e+006
1.849696e+002, 1.592630e+006
1.854518e+002, 1.608424e+006
1.859339e+002, 1.623757e+006
1.864160e+002, 1.638298e+006
1.868981e+002, 1.651935e+006
1.873802e+002, 1.664854e+006
1.878623e+002, 1.677222e+006
1.883445e+002, 1.689009e+006
1.888266e+002, 1.700355e+006
1.893087e+002, 1.711563e+006
1.897908e+002, 1.723216e+006
1.902729e+002, 1.733983e+006
1.907550e+002, 1.743111e+006
1.912372e+002, 1.751398e+006
1.917193e+002, 1.759868e+006
1.922014e+002, 1.769175e+006
1.926835e+002, 1.779146e+006
1.931656e+002, 1.788433e+006
1.936477e+002, 1.796281e+006
1.941299e+002, 1.804127e+006
1.946120e+002, 1.812181e+006
1.950941e+002, 1.820415e+006
1.955762e+002, 1.828647e+006
1.960583e+002, 1.836744e+006
1.965404e+002, 1.844732e+006
1.970226e+002, 1.853117e+006
1.975047e+002, 1.861666e+006
1.979868e+002, 1.870749e+006
1.984689e+002, 1.880700e+006
1.989510e+002, 1.891280e+006
1.994331e+002, 1.901882e+006
1.999153e+002, 1.912105e+006
2.003974e+002, 1.921958e+006
2.008795e+002, 1.932126e+006
2.013616e+002, 1.942354e+006
2.018437e+002, 1.953022e+006
2.023258e+002, 1.964708e+006
2.028080e+002, 1.977122e+006
2.032901e+002, 1.989291e+006
2.037722e+002, 2.000658e+006
2.042543e+002, 2.011159e+006
2.047364e+002, 2.021470e+006
2.052185e+002, 2.031447e+006
2.057007e+002, 2.041378e+006
2.061828e+002, 2.051438e+006
2.066649e+002, 2.061603e+006
2.071470e+002, 2.071606e+006
2.076291e+002, 2.081410e+006
2.081112e+002, 2.090840e+006
2.085934e+002, 2.099494e+006
2.090755e+002, 2.107066e+006
2.095576e+002, 2.114049e+006
2.100397e+002, 2.120890e+006
2.105218e+002, 2.127630e+006
2.110039e+002, 2.133821e+006
2.114861e+002, 2.138855e+006
2.119682e+002, 2.143157e+006
2.124503e+002, 2.147674e+006
2.129324e+002, 2.152782e+006
2.134145e+002, 2.157998e+006
2.138967e+002, 2.162542e+006
2.143788e+002, 2.166210e+006
2.148609e+002, 2.170149e+006
2.153430e+002, 2.175323e+006
2.158251e+002, 2.181108e+006
2.163072e+002, 2.186789e+006
2.167894e+002, 2.192125e+006
2.172715e+002, 2.197303e+006
2.177536e+002, 2.202628e+006
2.182357e+002, 2.208026e+006
2.187178e+002, 2.213762e+006
2.191999e+002, 2.220028e+006
2.196821e+002, 2.226675e+006
2.201642e+002, 2.233562e+006
2.206463e+002, 2.240679e+006
2.211284e+002, 2.247976e+006
2.216105e+002, 2.255430e+006
2.220926e+002, 2.263115e+006
2.225748e+002, 2.270865e+006
2.230569e+002, 2.278789e+006
2.235390e+002, 2.286693e+006
2.240211e+002, 2.294373e+006
2.245032e+002, 2.301718e+006
2.249853e+002, 2.308864e+006
2.254675e+002, 2.316406e+006
2.259496e+002, 2.324821e+006
2.264317e+002, 2.332793e+006
2.269138e+002, 2.340214e+006
2.273959e+002, 2.347030e+006
2.278780e+002, 2.353075e+006
2.283602e+002, 2.358239e+006
2.288423e+002, 2.362735e+006
2.293244e+002, 2.367332e+006
2.298065e+002, 2.372491e+006
2.302886e+002, 2.376973e+006
2.307707e+002, 2.380815e+006
2.312529e+002, 2.383871e+006
2.317350e+002, 2.385901e+006
2.322171e+002, 2.386769e+006
2.326992e+002, 2.386726e+006
2.331813e+002, 2.386610e+006
2.336634e+002, 2.386599e+006
2.341456e+002, 2.386214e+006
2.346277e+002, 2.385673e+006
2.351098e+002, 2.384656e+006
2.355919e+002, 2.382829e+006
2.360740e+002, 2.380047e+006
2.365561e+002, 2.376370e+006
2.370383e+002, 2.371941e+006
2.375204e+002, 2.365686e+006
2.380025e+002, 2.359995e+006
2.384846e+002, 2.355491e+006
2.389667e+002, 2.351496e+006
2.394488e+002, 2.347320e+006
2.399310e+002, 2.342669e+006
2.404131e+002, 2.337541e+006
2.408952e+002, 2.331863e+006
2.413773e+002, 2.325107e+006
2.418594e+002, 2.318515e+006
2.423415e+002, 2.312611e+006
2.428237e+002, 2.306823e+006
2.433058e+002, 2.300431e+006
2.437879e+002, 2.293128e+006
2.442700e+002, 2.285152e+006
2.447521e+002, 2.276887e+006
2.452342e+002, 2.268387e+006
2.457164e+002, 2.259475e+006
2.461985e+002, 2.250083e+006
2.466806e+002, 2.240215e+006
2.471627e+002, 2.229935e+006
2.476448e+002, 2.219201e+006
2.481269e+002, 2.207952e+006
2.486091e+002, 2.195879e+006
2.490912e+002, 2.182950e+006
2.495733e+002, 2.169481e+006
2.500554e+002, 2.155392e+006
2.505375e+002, 2.140732e+006
2.510196e+002, 2.125596e+006
2.515018e+002, 2.110037e+006
2.519839e+002, 2.094066e+006
2.524660e+002, 2.077689e+006
2.529481e+002, 2.060929e+006
2.534302e+002, 2.043835e+006
2.539123e+002, 2.026392e+006
2.543945e+002, 2.008683e+006
2.548766e+002, 1.990672e+006
2.553587e+002, 1.972269e+006
2.558408e+002, 1.953792e+006
2.563229e+002, 1.935702e+006
2.568051e+002, 1.917924e+006
2.572872e+002, 1.899883e+006
2.577693e+002, 1.881011e+006
2.582514e+002, 1.861800e+006
2.587335e+002, 1.842895e+006
2.592156e+002, 1.824418e+006
2.596978e+002, 1.806356e+006
2.601799e+002, 1.788944e+006
2.606620e+002, 1.771910e+006
2.611441e+002, 1.754904e+006
2.616262e+002, 1.737423e+006
2.621083e+002, 1.719950e+006
2.625905e+002, 1.703143e+006
2.630726e+002, 1.687227e+006
2.635547e+002, 1.671618e+006
2.640368e+002, 1.655913e+006
2.645189e+002, 1.640269e+006
2.650010e+002, 1.625271e+006
2.654832e+002, 1.611526e+006
2.659653e+002, 1.598393e+006
2.664474e+002, 1.584787e+006
2.669295e+002, 1.570565e+006
2.674116e+002, 1.556613e+006
2.678937e+002, 1.543326e+006
2.683759e+002, 1.530725e+006
2.688580e+002, 1.518923e+006
2.693401e+002, 1.508208e+006
2.698222e+002, 1.498166e+006
2.703043e+002, 1.488136e+006
2.707864e+002, 1.478013e+006
2.712686e+002, 1.468398e+006
2.717507e+002, 1.459629e+006
2.722328e+002, 1.451460e+006
2.727149e+002, 1.443785e+006
2.731970e+002, 1.436608e+006
2.736791e+002, 1.429744e+006
2.741613e+002, 1.422975e+006
2.746434e+002, 1.416195e+006
2.751255e+002, 1.409744e+006
2.756076e+002, 1.403917e+006
2.760897e+002, 1.398376e+006
2.765718e+002, 1.392797e+006
2.770540e+002, 1.387063e+006
2.775361e+002, 1.381529e+006
2.780182e+002, 1.376744e+006
2.785003e+002, 1.372880e+006
2.789824e+002, 1.368674e+006
2.794645e+002, 1.363451e+006
2.799467e+002, 1.358001e+006
2.804288e+002, 1.352826e+006
2.809109e+002, 1.348007e+006
2.813930e+002, 1.343420e+006
2.818751e+002, 1.338966e+006
2.823572e+002, 1.334659e+006
2.828394e+002, 1.330432e+006
2.833215e+002, 1.326133e+006
2.838036e+002, 1.322070e+006
2.842857e+002, 1.318463e+006
2.847678e+002, 1.315310e+006
2.852499e+002, 1.312353e+006
2.857321e+002, 1.309352e+006
2.862142e+002, 1.306307e+006
2.866963e+002, 1.303503e+006
2.871784e+002, 1.301072e+006
2.876605e+002, 1.298780e+006
2.881426e+002, 1.296419e+006
2.886248e+002, 1.294058e+006
2.891069e+002, 1.291951e+006
2.895890e+002, 1.290317e+006
2.900711e+002, 1.289117e+006
2.905532e+002, 1.288045e+006
2.910353e+002, 1.287300e+006
2.915175e+002, 1.286404e+006
2.919996e+002, 1.285078e+006
2.924817e+002, 1.283486e+006
2.929638e+002, 1.281948e+006
2.934459e+002, 1.280665e+006
2.939280e+002, 1.279592e+006
2.944102e+002, 1.278593e+006
2.948923e+002, 1.277962e+006
2.953744e+002, 1.276939e+006
2.958565e+002, 1.275262e+006
2.963386e+002, 1.273159e+006
2.968207e+002, 1.270903e+006
2.973029e+002, 1.268625e+006
2.977850e+002, 1.266334e+006
2.982671e+002, 1.264064e+006
2.987492e+002, 1.261886e+006
2.992313e+002, 1.259615e+006
2.997134e+002, 1.257287e+006
3.001956e+002, 1.254841e+006
3.006777e+002, 1.252255e+006
3.011598e+002, 1.249513e+006
3.016419e+002, 1.246559e+006
3.021240e+002, 1.243238e+006
3.026061e+002, 1.239332e+006
3.030883e+002, 1.235651e+006
3.035704e+002, 1.232500e+006
3.040525e+002, 1.229422e+006
3.045346e+002, 1.226060e+006
3.050167e+002, 1.222362e+006
3.054988e+002, 1.218627e+006
3.059810e+002, 1.215247e+006
3.064631e+002, 1.212302e+006
3.069452e+002, 1.209305e+006
3.074273e+002, 1.206186e+006
3.079094e+002, 1.203025e+006
3.083915e+002, 1.199750e+006
3.088737e+002, 1.196421e+006
3.093558e+002, 1.193209e+006
3.098379e+002, 1.190292e+006
3.103200e+002, 1.187661e+006
3.108021e+002, 1.185261e+006
3.112842e+002, 1.183301e+006
3.117664e+002, 1.181366e+006
3.122485e+002, 1.179395e+006
3.127306e+002, 1.177345e+006
3.132127e+002, 1.175082e+006
3.136948e+002, 1.172422e+006
3.141769e+002, 1.169505e+006
3.146591e+002, 1.167167e+006
3.151412e+002, 1.165627e+006
3.156233e+002, 1.164439e+006
3.161054e+002, 1.163601e+006
3.165875e+002, 1.162965e+006
3.170696e+002, 1.162363e+006
3.175518e+002, 1.161725e+006
3.180339e+002, 1.161057e+006
3.185160e+002, 1.160305e+006
3.189981e+002, 1.159212e+006
3.194802e+002, 1.158636e+006
3.199623e+002, 1.158938e+006
3.204445e+002, 1.159672e+006
3.209266e+002, 1.160441e+006
3.214087e+002, 1.161127e+006
3.218908e+002, 1.161924e+006
3.223729e+002, 1.163053e+006
3.228550e+002, 1.164444e+006
3.233372e+002, 1.166441e+006
3.238193e+002, 1.169478e+006
3.243014e+002, 1.172833e+006
3.247835e+002, 1.176114e+006
3.252656e+002, 1.179267e+006
3.257477e+002, 1.182523e+006
3.262299e+002, 1.186067e+006
3.267120e+002, 1.189877e+006
3.271941e+002, 1.194025e+006
3.276762e+002, 1.198655e+006
3.281583e+002, 1.203504e+006
3.286404e+002, 1.208778e+006
3.291226e+002, 1.214216e+006
3.296047e+002, 1.219231e+006
3.300868e+002, 1.223481e+006
3.305689e+002, 1.226958e+006
3.310510e+002, 1.229624e+006
3.315331e+002, 1.231333e+006
3.320153e+002, 1.232354e+006
3.324974e+002, 1.232872e+006
3.329795e+002, 1.232887e+006
3.334616e+002, 1.232326e+006
3.339437e+002, 1.231057e+006
3.344258e+002, 1.229409e+006
3.349080e+002, 1.228040e+006
3.353901e+002, 1.226869e+006
3.358722e+002, 1.226276e+006
3.363543e+002, 1.226442e+006
3.368365e+002, 1.227186e+006
3.373186e+002, 1.228343e+006
3.378007e+002, 1.229862e+006
3.382828e+002, 1.231971e+006
3.387649e+002, 1.235083e+006
3.392470e+002, 1.239283e+006
3.397292e+002, 1.243727e+006
3.402113e+002, 1.248069e+006
3.406934e+002, 1.252756e+006
3.411755e+002, 1.258100e+006
3.416576e+002, 1.264071e+006
3.421397e+002, 1.270406e+006
3.426219e+002, 1.276814e+006
3.431040e+002, 1.283310e+006
3.435861e+002, 1.290252e+006
3.440682e+002, 1.297815e+006
3.445503e+002, 1.305598e+006
3.450324e+002, 1.313308e+006
3.455146e+002, 1.320995e+006
3.459967e+002, 1.328819e+006
3.464788e+002, 1.336762e+006
3.469609e+002, 1.344889e+006
3.474430e+002, 1.353344e+006
3.479251e+002, 1.362196e+006
3.484073e+002, 1.371229e+006
3.488894e+002, 1.380489e+006
3.493715e+002, 1.389864e+006
3.498536e+002, 1.399262e+006
3.503357e+002, 1.408603e+006
3.508178e+002, 1.418136e+006
3.513000e+002, 1.428205e+006
3.517821e+002, 1.438836e+006
3.522642e+002, 1.449751e+006
3.527463e+002, 1.461341e+006
3.532284e+002, 1.472897e+006
3.537105e+002, 1.483598e+006
3.541927e+002, 1.493326e+006
3.546748e+002, 1.502995e+006
3.551569e+002, 1.513318e+006
3.556390e+002, 1.524157e+006
3.561211e+002, 1.535014e+006
3.566032e+002, 1.545947e+006
3.570854e+002, 1.556634e+006
3.575675e+002, 1.566896e+006
3.580496e+002, 1.576810e+006
3.585317e+002, 1.586265e+006
3.590138e+002, 1.595407e+006
3.594959e+002, 1.604033e+006
3.599781e+002, 1.611919e+006
3.604602e+002, 1.619004e+006
3.609423e+002, 1.625379e+006
3.614244e+002, 1.630943e+006
3.619065e+002, 1.635738e+006
3.623886e+002, 1.639932e+006
3.628708e+002, 1.643636e+006
3.633529e+002, 1.646611e+006
3.638350e+002, 1.648453e+006
3.643171e+002, 1.649262e+006
3.647992e+002, 1.649825e+006
3.652813e+002, 1.650700e+006
3.657635e+002, 1.651242e+006
3.662456e+002, 1.650254e+006
3.667277e+002, 1.647550e+006
3.672098e+002, 1.644128e+006
3.676919e+002, 1.640096e+006
3.681740e+002, 1.635665e+006
3.686562e+002, 1.631221e+006
3.691383e+002, 1.626856e+006
3.696204e+002, 1.622498e+006
3.701025e+002, 1.618006e+006
3.705846e+002, 1.613372e+006
3.710667e+002, 1.608960e+006
3.715489e+002, 1.604725e+006
3.720310e+002, 1.600792e+006
3.725131e+002, 1.597528e+006
3.729952e+002, 1.594856e+006
3.734773e+002, 1.591976e+006
3.739594e+002, 1.588164e+006
3.744416e+002, 1.583562e+006
3.749237e+002, 1.579929e+006
3.754058e+002, 1.577748e+006
3.758879e+002, 1.575905e+006
3.763700e+002, 1.574080e+006
3.768521e+002, 1.572261e+006
3.773343e+002, 1.570473e+006
3.778164e+002, 1.568728e+006
3.782985e+002, 1.567001e+006
3.787806e+002, 1.565234e+006
3.792627e+002, 1.563291e+006
3.797448e+002, 1.561520e+006
3.802270e+002, 1.559987e+006
3.807091e+002, 1.558608e+006
3.811912e+002, 1.557351e+006
3.816733e+002, 1.556183e+006
3.821554e+002, 1.554989e+006
3.826375e+002, 1.553619e+006
3.831197e+002, 1.552030e+006
3.836018e+002, 1.550458e+006
3.840839e+002, 1.548937e+006
3.845660e+002, 1.547399e+006
3.850481e+002, 1.545887e+006
3.855302e+002, 1.544333e+006
3.860124e+002, 1.542605e+006
3.864945e+002, 1.540613e+006
3.869766e+002, 1.538387e+006
3.874587e+002, 1.536045e+006
3.879408e+002, 1.533485e+006
3.884229e+002, 1.530928e+006
3.889051e+002, 1.528416e+006
3.893872e+002, 1.525919e+006
3.898693e+002, 1.523478e+006
3.903514e+002, 1.521093e+006
3.908335e+002, 1.518537e+006
3.913156e+002, 1.515431e+006
3.917978e+002, 1.511591e+006
3.922799e+002, 1.507692e+006
3.927620e+002, 1.503701e+006
3.932441e+002, 1.499675e+006
3.937262e+002, 1.495751e+006
3.942083e+002, 1.491822e+006
3.946905e+002, 1.487588e+006
3.951726e+002, 1.482738e+006
3.956547e+002, 1.477330e+006
3.961368e+002, 1.471920e+006
3.966189e+002, 1.466522e+006
3.971010e+002, 1.461139e+006
3.975832e+002, 1.455756e+006
3.980653e+002, 1.450368e+006
3.985474e+002, 1.445019e+006
3.990295e+002, 1.439707e+006
3.995116e+002, 1.434384e+006
3.999937e+002, 1.428931e+006
4.004759e+002, 1.423317e+006
4.009580e+002, 1.417779e+006
4.014401e+002, 1.412591e+006
4.019222e+002, 1.407359e+006
4.024043e+002, 1.401710e+006
4.028864e+002, 1.395657e+006
4.033686e+002, 1.389706e+006
4.038507e+002, 1.384300e+006
4.043328e+002, 1.379324e+006
4.048149e+002, 1.374191e+006
4.052970e+002, 1.368690e+006
4.057791e+002, 1.363461e+006
4.062613e+002, 1.359135e+006
4.067434e+002, 1.355369e+006
4.072255e+002, 1.351420e+006
4.077076e+002, 1.347005e+006
4.081897e+002, 1.342387e+006
4.086718e+002, 1.337752e+006
4.091540e+002, 1.333101e+006
4.096361e+002, 1.328858e+006
4.101182e+002, 1.325338e+006
4.106003e+002, 1.322252e+006
4.110824e+002, 1.319065e+006
4.115645e+002, 1.315728e+006
4.120467e+002, 1.312433e+006
4.125288e+002, 1.309248e+006
4.130109e+002, 1.306159e+006
4.134930e+002, 1.303095e+006
4.139751e+002, 1.300034e+006
4.144572e+002, 1.297127e+006
4.149394e+002, 1.294499e+006
4.154215e+002, 1.292174e+006
4.159036e+002, 1.290323e+006
4.163857e+002, 1.289414e+006
4.168678e+002, 1.288599e+006
4.173499e+002, 1.287312e+006
4.178321e+002, 1.285645e+006
4.183142e+002, 1.284004e+006
4.187963e+002, 1.282647e+006
4.192784e+002, 1.281445e+006
4.197605e+002, 1.279946e+006
4.202426e+002, 1.277681e+006
4.207248e+002, 1.275783e+006
4.212069e+002, 1.274512e+006
4.216890e+002, 1.273603e+006
4.221711e+002, 1.272835e+006
4.226532e+002, 1.272144e+006
4.231353e+002, 1.271510e+006
4.236175e+002, 1.270909e+006
4.240996e+002, 1.270334e+006
4.245817e+002, 1.269859e+006
4.250638e+002, 1.269208e+006
4.255459e+002, 1.268920e+006
4.260280e+002, 1.269458e+006
4.265102e+002, 1.270503e+006
4.269923e+002, 1.271458e+006
4.274744e+002, 1.271983e+006
4.279565e+002, 1.272127e+006
4.284386e+002, 1.272005e+006
4.289207e+002, 1.271277e+006
4.294029e+002, 1.270901e+006
4.298850e+002, 1.271075e+006
4.303671e+002, 1.271533e+006
4.308492e+002, 1.272103e+006
4.313313e+002, 1.272739e+006
4.318134e+002, 1.273436e+006
4.322956e+002, 1.274176e+006
4.327777e+002, 1.274954e+006
4.332598e+002, 1.275862e+006
4.337419e+002, 1.276970e+006
4.342241e+002, 1.278109e+006
4.347062e+002, 1.279196e+006
4.351883e+002, 1.280255e+006
4.356704e+002, 1.281330e+006
4.361525e+002, 1.282444e+006
4.366346e+002, 1.283585e+006
4.371168e+002, 1.284578e+006
4.375989e+002, 1.285350e+006
4.380810e+002, 1.286783e+006
4.385631e+002, 1.289796e+006
4.390452e+002, 1.293144e+006
4.395273e+002, 1.295374e+006
4.400095e+002, 1.296362e+006
4.404916e+002, 1.297170e+006
4.409737e+002, 1.298176e+006
4.414558e+002, 1.299434e+006
4.419379e+002, 1.301119e+006
4.424200e+002, 1.303303e+006
4.429022e+002, 1.305626e+006
4.433843e+002, 1.307864e+006
4.438664e+002, 1.310013e+006
4.443485e+002, 1.312136e+006
4.448306e+002, 1.314165e+006
4.453127e+002, 1.316242e+006
4.457949e+002, 1.318426e+006
4.462770e+002, 1.320731e+006
4.467591e+002, 1.323247e+006
4.472412e+002, 1.326059e+006
4.477233e+002, 1.328960e+006
4.482054e+002, 1.331530e+006
4.486876e+002, 1.333501e+006
4.491697e+002, 1.335827e+006
4.496518e+002, 1.338867e+006
4.501339e+002, 1.342042e+006
4.506160e+002, 1.344797e+006
4.510981e+002, 1.347192e+006
4.515803e+002, 1.349766e+006
4.520624e+002, 1.352944e+006
4.525445e+002, 1.356689e+006
4.530266e+002, 1.360429e+006
4.535087e+002, 1.364251e+006
4.539908e+002, 1.367942e+006
4.544730e+002, 1.371198e+006
4.549551e+002, 1.374401e+006
4.554372e+002, 1.378026e+006
4.559193e+002, 1.382184e+006
4.564014e+002, 1.386497e+006
4.568835e+002, 1.390384e+006
4.573657e+002, 1.393694e+006
4.578478e+002, 1.397175e+006
4.583299e+002, 1.401099e+006
4.588120e+002, 1.404929e+006
4.592941e+002, 1.408252e+006
4.597762e+002, 1.411291e+006
4.602584e+002, 1.414642e+006
4.607405e+002, 1.418787e+006
4.612226e+002, 1.423262e+006
4.617047e+002, 1.427028e+006
4.621868e+002, 1.429923e+006
4.626689e+002, 1.432975e+006
4.631511e+002, 1.436632e+006
4.636332e+002, 1.440571e+006
4.641153e+002, 1.444579e+006
4.645974e+002, 1.448686e+006
4.650795e+002, 1.452577e+006
4.655616e+002, 1.455965e+006
4.660438e+002, 1.459037e+006
4.665259e+002, 1.462246e+006
4.670080e+002, 1.465640e+006
4.674901e+002, 1.469135e+006
4.679722e+002, 1.472702e+006
4.684543e+002, 1.476326e+006
4.689365e+002, 1.479922e+006
4.694186e+002, 1.483495e+006
4.699007e+002, 1.487033e+006
4.703828e+002, 1.490484e+006
4.708649e+002, 1.493871e+006
4.713470e+002, 1.497237e+006
4.718292e+002, 1.500595e+006
4.723113e+002, 1.503928e+006
4.727934e+002, 1.507225e+006
4.732755e+002, 1.510401e+006
4.737576e+002, 1.513700e+006
4.742397e+002, 1.517212e+006
4.747219e+002, 1.520740e+006
4.752040e+002, 1.524057e+006
4.756861e+002, 1.527268e+006
4.761682e+002, 1.530720e+006
4.766503e+002, 1.534638e+006
4.771324e+002, 1.538888e+006
4.776146e+002, 1.542891e+006
4.780967e+002, 1.546716e+006
4.785788e+002, 1.550205e+006
4.790609e+002, 1.553170e+006
4.795430e+002, 1.555981e+006
4.800251e+002, 1.558944e+006
4.805073e+002, 1.562091e+006
4.809894e+002, 1.565303e+006
4.814715e+002, 1.568455e+006
4.819536e+002, 1.571562e+006
4.824357e+002, 1.574693e+006
4.829178e+002, 1.577836e+006
4.834000e+002, 1.581077e+006
4.838821e+002, 1.584533e+006
4.843642e+002, 1.588075e+006
4.848463e+002, 1.591552e+006
4.853284e+002, 1.594969e+006
4.858105e+002, 1.598207e+006
4.862927e+002, 1.601030e+006
4.867748e+002, 1.603530e+006
4.872569e+002, 1.606284e+006
4.877390e+002, 1.609465e+006
4.882211e+002, 1.612826e+006
4.887032e+002, 1.616058e+006
4.891854e+002, 1.619205e+006
4.896675e+002, 1.622482e+006
4.901496e+002, 1.626143e+006
4.906317e+002, 1.629789e+006
4.911138e+002, 1.633050e+006
4.915959e+002, 1.635984e+006
4.920781e+002, 1.638853e+006
4.925602e+002, 1.641770e+006
4.930423e+002, 1.644698e+006
4.935244e+002, 1.647553e+006
4.940065e+002, 1.650191e+006
4.944886e+002, 1.653042e+006
4.949708e+002, 1.656386e+006
4.954529e+002, 1.659725e+006
4.959350e+002, 1.662629e+006
4.964171e+002, 1.665132e+006
4.968992e+002, 1.667598e+006
4.973813e+002, 1.670309e+006
4.978635e+002, 1.673189e+006
4.983456e+002, 1.675891e+006
4.988277e+002, 1.678241e+006
4.993098e+002, 1.680640e+006
4.997919e+002, 1.683311e+006
5.002740e+002, 1.685942e+006
5.007562e+002, 1.688349e+006
5.012383e+002, 1.690470e+006
5.017204e+002, 1.692227e+006
5.022025e+002, 1.693372e+006
5.026846e+002, 1.693985e+006
5.031667e+002, 1.694975e+006
5.036489e+002, 1.696654e+006
5.041310e+002, 1.698196e+006
5.046131e+002, 1.699134e+006
5.050952e+002, 1.699704e+006
5.055773e+002, 1.700195e+006
5.060594e+002, 1.700652e+006
5.065416e+002, 1.701117e+006
5.070237e+002, 1.701673e+006
5.075058e+002, 1.702269e+006
5.079879e+002, 1.702767e+006
5.084700e+002, 1.703165e+006
5.089521e+002, 1.703306e+006
5.094343e+002, 1.702841e+006
5.099164e+002, 1.701772e+006
5.103985e+002, 1.701224e+006
5.108806e+002, 1.701961e+006
5.113627e+002, 1.702557e+006
5.118448e+002, 1.702196e+006
5.123270e+002, 1.701079e+006
5.128091e+002, 1.699650e+006
5.132912e+002, 1.698096e+006
5.137733e+002, 1.696514e+006
5.142554e+002, 1.695075e+006
5.147375e+002, 1.693818e+006
5.152197e+002, 1.692646e+006
5.157018e+002, 1.691633e+006
5.161839e+002, 1.690633e+006
5.166660e+002, 1.689732e+006
5.171481e+002, 1.688762e+006
5.176302e+002, 1.687333e+006
5.181124e+002, 1.685148e+006
5.185945e+002, 1.682496e+006
5.190766e+002, 1.680235e+006
5.195587e+002, 1.678565e+006
5.200408e+002, 1.676497e+006
5.205229e+002, 1.673446e+006
5.210051e+002, 1.670135e+006
5.214872e+002, 1.666900e+006
5.219693e+002, 1.663793e+006
5.224514e+002, 1.660931e+006
5.229335e+002, 1.658973e+006
5.234156e+002, 1.657129e+006
5.238978e+002, 1.653701e+006
5.243799e+002, 1.648600e+006
5.248620e+002, 1.643585e+006
5.253441e+002, 1.639662e+006
5.258262e+002, 1.636310e+006
5.263083e+002, 1.632434e+006
5.267905e+002, 1.627962e+006
5.272726e+002, 1.623445e+006
5.277547e+002, 1.619019e+006
5.282368e+002, 1.614701e+006
5.287189e+002, 1.610487e+006
5.292010e+002, 1.606405e+006
5.296832e+002, 1.602594e+006
5.301653e+002, 1.599151e+006
5.306474e+002, 1.596039e+006
5.311295e+002, 1.592904e+006
5.316116e+002, 1.589962e+006
5.320938e+002, 1.586646e+006
5.325759e+002, 1.582178e+006
5.330580e+002, 1.577706e+006
5.335401e+002, 1.574412e+006
5.340222e+002, 1.572334e+006
5.345043e+002, 1.570384e+006
5.349865e+002, 1.567502e+006
5.354686e+002, 1.563764e+006
5.359507e+002, 1.560287e+006
5.364328e+002, 1.557268e+006
5.369149e+002, 1.554113e+006
5.373970e+002, 1.550628e+006
5.378792e+002, 1.546911e+006
5.383613e+002, 1.543060e+006
5.388434e+002, 1.539098e+006
5.393255e+002, 1.535148e+006
5.398076e+002, 1.531188e+006
5.402897e+002, 1.527352e+006
5.407719e+002, 1.524028e+006
5.412540e+002, 1.521354e+006
5.417361e+002, 1.518755e+006
5.422182e+002, 1.515819e+006
5.427003e+002, 1.512624e+006
5.431824e+002, 1.509508e+006
5.436646e+002, 1.506381e+006
5.441467e+002, 1.503455e+006
5.446288e+002, 1.500976e+006
5.451109e+002, 1.498636e+006
5.455930e+002, 1.495925e+006
5.460751e+002, 1.492761e+006
5.465573e+002, 1.489645e+006
5.470394e+002, 1.487110e+006
5.475215e+002, 1.485175e+006
5.480036e+002, 1.482892e+006
5.484857e+002, 1.480043e+006
5.489678e+002, 1.477006e+006
5.494500e+002, 1.473860e+006
5.499321e+002, 1.470539e+006
5.504142e+002, 1.466956e+006
5.508963e+002, 1.463080e+006
5.513784e+002, 1.458934e+006
5.518605e+002, 1.454491e+006
5.523427e+002, 1.449764e+006
5.528248e+002, 1.444994e+006
5.533069e+002, 1.440301e+006
5.537890e+002, 1.435337e+006
5.542711e+002, 1.429845e+006
5.547532e+002, 1.424013e+006
5.552354e+002, 1.418158e+006
5.557175e+002, 1.412526e+006
5.561996e+002, 1.406370e+006
5.566817e+002, 1.398880e+006
5.571638e+002, 1.390613e+006
5.576459e+002, 1.382691e+006
5.581281e+002, 1.375366e+006
5.586102e+002, 1.367951e+006
5.590923e+002, 1.359906e+006
5.595744e+002, 1.351227e+006
5.600565e+002, 1.342126e+006
5.605386e+002, 1.332360e+006
5.610208e+002, 1.322598e+006
5.615029e+002, 1.312998e+006
5.619850e+002, 1.303404e+006
5.624671e+002, 1.293525e+006
5.629492e+002, 1.283340e+006
5.634313e+002, 1.273166e+006
5.639135e+002, 1.263461e+006
5.643956e+002, 1.254167e+006
5.648777e+002, 1.244124e+006
5.653598e+002, 1.232830e+006
5.658419e+002, 1.221558e+006
5.663240e+002, 1.210638e+006
5.668062e+002, 1.199911e+006
5.672883e+002, 1.189274e+006
5.677704e+002, 1.178750e+006
5.682525e+002, 1.168277e+006
5.687346e+002, 1.157739e+006
5.692167e+002, 1.147218e+006
5.696989e+002, 1.137031e+006
5.701810e+002, 1.127177e+006
5.706631e+002, 1.117572e+006
5.711452e+002, 1.108258e+006
5.716273e+002, 1.099101e+006
5.721094e+002, 1.089865e+006
5.725916e+002, 1.080412e+006
5.730737e+002, 1.071145e+006
5.735558e+002, 1.062166e+006
5.740379e+002, 1.053412e+006
5.745200e+002, 1.045047e+006
5.750021e+002, 1.037002e+006
5.754843e+002, 1.028862e+006
5.759664e+002, 1.020269e+006
5.764485e+002, 1.011380e+006
5.769306e+002, 1.003194e+006
5.774127e+002, 9.963423e+005
5.778948e+002, 9.891983e+005
5.783770e+002, 9.813429e+005
5.788591e+002, 9.733346e+005
5.793412e+002, 9.654379e+005
5.798233e+002, 9.577800e+005
5.803054e+002, 9.504182e+005
5.807875e+002, 9.435112e+005
5.812697e+002, 9.369166e+005
5.817518e+002, 9.305398e+005
5.822339e+002, 9.244510e+005
5.827161e+002, 9.177456e+005
5.831982e+002, 9.097153e+005
5.836803e+002, 9.012413e+005
5.841624e+002, 8.937183e+005
5.846445e+002, 8.871782e+005
5.851266e+002, 8.806266e+005
5.856088e+002, 8.737857e+005
5.860909e+002, 8.668491e+005
5.865730e+002, 8.599112e+005
5.870551e+002, 8.530415e+005
5.875372e+002, 8.463546e+005
5.880193e+002, 8.399838e+005
5.885015e+002, 8.337804e+005
5.889836e+002, 8.274288e+005
5.894657e+002, 8.208199e+005
5.899478e+002, 8.143178e+005
5.904299e+002, 8.078009e+005
5.909120e+002, 8.014748e+005
5.913942e+002, 7.955460e+005
5.918763e+002, 7.898854e+005
5.923584e+002, 7.842491e+005
5.928405e+002, 7.785044e+005
5.933226e+002, 7.727351e+005
5.938047e+002, 7.671317e+005
5.942869e+002, 7.616596e+005
5.947690e+002, 7.558974e+005
5.952511e+002, 7.495932e+005
5.957332e+002, 7.432191e+005
5.962153e+002, 7.371871e+005
5.966974e+002, 7.314093e+005
5.971796e+002, 7.256571e+005
5.976617e+002, 7.198033e+005
5.981438e+002, 7.140259e+005
5.986259e+002, 7.084844e+005
5.991080e+002, 7.030633e+005
5.995901e+002, 6.975516e+005
6.000723e+002, 6.919033e+005
6.005544e+002, 6.862381e+005
6.010365e+002, 6.806881e+005
6.015186e+002, 6.752525e+005
6.020007e+002, 6.698113e+005
6.024828e+002, 6.642834e+005
6.029650e+002, 6.588511e+005
6.034471e+002, 6.535557e+005
6.039292e+002, 6.483828e+005
6.044113e+002, 6.432721e+005
6.048934e+002, 6.382401e+005
6.053755e+002, 6.333161e+005
6.058577e+002, 6.285544e+005
6.063398e+002, 6.239293e+005
6.068219e+002, 6.193063e+005
6.073040e+002, 6.146733e+005
6.077861e+002, 6.101059e+005
6.082682e+002, 6.056468e+005
6.087504e+002, 6.012346e+005
6.092325e+002, 5.967134e+005
6.097146e+002, 5.920359e+005
6.101967e+002, 5.874949e+005
6.106788e+002, 5.831764e+005
6.111609e+002, 5.789813e+005
6.116431e+002, 5.748841e+005
6.121252e+002, 5.708419e+005
6.126073e+002, 5.667903e+005
6.130894e+002, 5.627003e+005
6.135715e+002, 5.585495e+005
6.140536e+002, 5.542383e+005
6.145358e+002, 5.495792e+005
6.150179e+002, 5.452878e+005
6.155000e+002, 5.415958e+005
6.159821e+002, 5.380498e+005
6.164642e+002, 5.345746e+005
6.169464e+002, 5.310787e+005
6.174285e+002, 5.273522e+005
6.179106e+002, 5.232182e+005
6.183927e+002, 5.191516e+005
6.188748e+002, 5.157661e+005
6.193569e+002, 5.129386e+005
6.198391e+002, 5.099988e+005
6.203212e+002, 5.068568e+005
6.208033e+002, 5.035206e+005
6.212854e+002, 4.999331e+005
6.217675e+002, 4.961613e+005
6.222496e+002, 4.926358e+005
6.227318e+002, 4.895414e+005
6.232139e+002, 4.864329e+005
6.236960e+002, 4.831458e+005
6.241781e+002, 4.798262e+005
6.246602e+002, 4.766897e+005
6.251423e+002, 4.737234e+005
6.256245e+002, 4.707442e+005
6.261066e+002, 4.676005e+005
6.265887e+002, 4.643282e+005
6.270708e+002, 4.610040e+005
6.275529e+002, 4.575501e+005
6.280350e+002, 4.542692e+005
6.285172e+002, 4.512904e+005
6.289993e+002, 4.484264e+005
6.294814e+002, 4.455835e+005
6.299635e+002, 4.427519e+005
6.304456e+002, 4.399292e+005
6.309277e+002, 4.371591e+005
6.314099e+002, 4.343486e+005
6.318920e+002, 4.313244e+005
6.323741e+002, 4.281529e+005
6.328562e+002, 4.251085e+005
6.333383e+002, 4.222870e+005
6.338204e+002, 4.195584e+005
6.343026e+002, 4.167636e+005
6.347847e+002, 4.138825e+005
6.352668e+002, 4.110954e+005
6.357489e+002, 4.084812e+005
6.362310e+002, 4.058339e+005
6.367131e+002, 4.030589e+005
6.371953e+002, 4.002484e+005
6.376774e+002, 3.975388e+005
6.381595e+002, 3.949540e+005
6.386416e+002, 3.923942e+005
6.391237e+002, 3.897886e+005
6.396058e+002, 3.871350e+005
6.400880e+002, 3.843152e+005
6.405701e+002, 3.812506e+005
6.410522e+002, 3.783742e+005
6.415343e+002, 3.759777e+005
6.420164e+002, 3.737495e+005
6.424985e+002, 3.712451e+005
6.429807e+002, 3.684488e+005
6.434628e+002, 3.656785e+005
6.439449e+002, 3.630560e+005
6.444270e+002, 3.604573e+005
6.449091e+002, 3.576868e+005
6.453912e+002, 3.548452e+005
6.458734e+002, 3.522423e+005
6.463555e+002, 3.500199e+005
6.468376e+002, 3.479014e+005
6.473197e+002, 3.454795e+005
6.478018e+002, 3.426649e+005
6.482839e+002, 3.399983e+005
6.487661e+002, 3.375894e+005
6.492482e+002, 3.351849e+005
6.497303e+002, 3.326920e+005
6.502124e+002, 3.301658e+005
6.506945e+002, 3.276658e+005
6.511766e+002, 3.252133e+005
6.516588e+002, 3.227825e+005
6.521409e+002, 3.203736e+005
6.526230e+002, 3.179915e+005
6.531051e+002, 3.156715e+005
6.535872e+002, 3.134163e+005
6.540693e+002, 3.111077e+005
6.545515e+002, 3.086781e+005
6.550336e+002, 3.061878e+005
6.555157e+002, 3.037361e+005
6.559978e+002, 3.013301e+005
6.564799e+002, 2.989578e+005
6.569620e+002, 2.967118e+005
6.574442e+002, 2.944309e+005
6.579263e+002, 2.919791e+005
6.584084e+002, 2.894510e+005
6.588905e+002, 2.869727e+005
6.593726e+002, 2.846154e+005
6.598547e+002, 2.823323e+005
6.603369e+002, 2.801033e+005
6.608190e+002, 2.779260e+005
6.613011e+002, 2.757006e+005
6.617832e+002, 2.733968e+005
6.622653e+002, 2.711037e+005
6.627474e+002, 2.688697e+005
6.632296e+002, 2.666748e+005
6.637117e+002, 2.645069e+005
6.641938e+002, 2.623640e+005
6.646759e+002, 2.602237e+005
6.651580e+002, 2.580987e+005
6.656401e+002, 2.559536e+005
6.661223e+002, 2.537604e+005
6.666044e+002, 2.515200e+005
6.670865e+002, 2.492751e+005
6.675686e+002, 2.470403e+005
6.680507e+002, 2.448363e+005
6.685328e+002, 2.426867e+005
6.690150e+002, 2.406025e+005
6.694971e+002, 2.385235e+005
6.699792e+002, 2.364066e+005
6.704613e+002, 2.343515e+005
6.709434e+002, 2.324395e+005
6.714255e+002, 2.305938e+005
6.719077e+002, 2.286744e+005
6.723898e+002, 2.266348e+005
6.728719e+002, 2.246044e+005
6.733540e+002, 2.226680e+005
6.738361e+002, 2.207902e+005
6.743182e+002, 2.189073e+005
6.748004e+002, 2.170188e+005
6.752825e+002, 2.151937e+005
6.757646e+002, 2.134797e+005
6.762467e+002, 2.118407e+005
6.767288e+002, 2.101814e+005
6.772109e+002, 2.084987e+005
6.776931e+002, 2.067832e+005
6.781752e+002, 2.049716e+005
6.786573e+002, 2.031889e+005
6.791394e+002, 2.014939e+005
6.796215e+002, 1.998638e+005
6.801036e+002, 1.982858e+005
6.805858e+002, 1.967641e+005
6.810679e+002, 1.952354e+005
6.815500e+002, 1.935936e+005
6.820321e+002, 1.919121e+005
6.825142e+002, 1.904081e+005
6.829963e+002, 1.891129e+005
6.834785e+002, 1.878247e+005
6.839606e+002, 1.864371e+005
6.844427e+002, 1.849709e+005
6.849248e+002, 1.834480e+005
6.854069e+002, 1.818215e+005
6.858890e+002, 1.802602e+005
6.863712e+002, 1.787965e+005
6.868533e+002, 1.773766e+005
6.873354e+002, 1.759930e+005
6.878175e+002, 1.746243e+005
6.882996e+002, 1.732269e+005
6.887817e+002, 1.717864e+005
6.892639e+002, 1.703470e+005
6.897460e+002, 1.689647e+005
6.902281e+002, 1.676326e+005
6.907102e+002, 1.663634e+005
6.911923e+002, 1.651806e+005
6.916744e+002, 1.639771e+005
6.921566e+002, 1.626785e+005
6.926387e+002, 1.613480e+005
6.931208e+002, 1.601418e+005
6.936029e+002, 1.590808e+005
6.940850e+002, 1.580071e+005
6.945671e+002, 1.568456e+005
6.950493e+002, 1.557098e+005
6.955314e+002, 1.546738e+005
6.960135e+002, 1.537184e+005
6.964956e+002, 1.528194e+005
6.969777e+002, 1.519625e+005
6.974598e+002, 1.510727e+005
6.979420e+002, 1.500326e+005
6.984241e+002, 1.488503e+005
6.989062e+002, 1.477511e+005
6.993883e+002, 1.467564e+005
6.998704e+002, 1.457836e+005
7.003525e+002, 1.447862e+005
7.008347e+002, 1.438138e+005
7.013168e+002, 1.429401e+005
7.017989e+002, 1.421780e+005
7.022810e+002, 1.414220e+005
7.027631e+002, 1.406619e+005
7.032452e+002, 1.398902e+005
7.037274e+002, 1.390837e+005
7.042095e+002, 1.382691e+005
7.046916e+002, 1.375033e+005
7.051737e+002, 1.368056e+005
7.056558e+002, 1.361365e+005
7.061379e+002, 1.354645e+005
7.066201e+002, 1.347860e+005
7.071022e+002, 1.340369e+005
7.075843e+002, 1.331616e+005
7.080664e+002, 1.323386e+005
7.085485e+002, 1.316486e+005
7.090306e+002, 1.310189e+005
7.095128e+002, 1.303827e+005
7.099949e+002, 1.297385e+005
7.104770e+002, 1.291452e+005
7.109591e+002, 1.286585e+005
7.114412e+002, 1.281931e+005
7.119233e+002, 1.277008e+005
7.124055e+002, 1.271842e+005
7.128876e+002, 1.266422e+005
7.133697e+002, 1.260825e+005
7.138518e+002, 1.255424e+005
7.143339e+002, 1.250608e+005
7.148160e+002, 1.246354e+005
7.152982e+002, 1.242578e+005
7.157803e+002, 1.239581e+005
7.162624e+002, 1.236355e+005
7.167445e+002, 1.232424e+005
7.172266e+002, 1.228432e+005
7.177087e+002, 1.224527e+005
7.181909e+002, 1.220864e+005
7.186730e+002, 1.218086e+005
7.191551e+002, 1.217113e+005
7.196372e+002, 1.216085e+005
7.201193e+002, 1.213308e+005
7.206014e+002, 1.209751e+005
7.210836e+002, 1.206985e+005
7.215657e+002, 1.205275e+005
7.220478e+002, 1.204226e+005
7.225299e+002, 1.203637e+005
7.230120e+002, 1.203280e+005
7.234941e+002, 1.202300e+005
7.239763e+002, 1.200344e+005
7.244584e+002, 1.198738e+005
7.249405e+002, 1.197541e+005
7.254226e+002, 1.196831e+005
7.259047e+002, 1.196638e+005
7.263868e+002, 1.196961e+005
7.268690e+002, 1.197862e+005
7.273511e+002, 1.199540e+005
7.278332e+002, 1.201271e+005
7.283153e+002, 1.202696e+005
7.287974e+002, 1.203880e+005
7.292795e+002, 1.204771e+005
7.297617e+002, 1.205469e+005
7.302438e+002, 1.206266e+005
7.307259e+002, 1.207273e+005
7.312080e+002, 1.208851e+005
7.316901e+002, 1.211926e+005
7.321722e+002, 1.216984e+005
7.326544e+002, 1.221418e+005
7.331365e+002, 1.224958e+005
7.336186e+002, 1.228251e+005
7.341007e+002, 1.231019e+005
7.345828e+002, 1.233960e+005
7.350649e+002, 1.238238e+005
7.355471e+002, 1.244138e+005
7.360292e+002, 1.249632e+005
7.365113e+002, 1.253050e+005
7.369934e+002, 1.256173e+005
7.374755e+002, 1.260755e+005
7.379576e+002, 1.266587e+005
7.384398e+002, 1.272948e+005
7.389219e+002, 1.279589e+005
7.394040e+002, 1.286149e+005
7.398861e+002, 1.292158e+005
7.403682e+002, 1.297641e+005
7.408503e+002, 1.303218e+005
7.413325e+002, 1.308947e+005
7.418146e+002, 1.314628e+005
7.422967e+002, 1.320573e+005
7.427788e+002, 1.326133e+005
7.432609e+002, 1.330574e+005
7.437430e+002, 1.333998e+005
7.442252e+002, 1.337337e+005
7.447073e+002, 1.341468e+005
7.451894e+002, 1.344996e+005
7.456715e+002, 1.346730e+005
7.461536e+002, 1.347368e+005
7.466357e+002, 1.348033e+005
7.471179e+002, 1.348887e+005
7.476000e+002, 1.349330e+005
7.480821e+002, 1.348876e+005
7.485642e+002, 1.347743e+005
7.490463e+002, 1.346748e+005
7.495284e+002, 1.346183e+005
7.500106e+002, 1.344455e+005
7.504927e+002, 1.340859e+005
7.509748e+002, 1.336747e+005
7.514569e+002, 1.333065e+005
7.519390e+002, 1.329533e+005
7.524211e+002, 1.325456e+005
7.529033e+002, 1.320306e+005
7.533854e+002, 1.315609e+005
7.538675e+002, 1.312422e+005
7.543496e+002, 1.309513e+005
7.548317e+002, 1.305889e+005
7.553138e+002, 1.301494e+005
7.557960e+002, 1.296314e+005
7.562781e+002, 1.290327e+005
7.567602e+002, 1.284413e+005
7.572423e+002, 1.279840e+005
7.577244e+002, 1.276595e+005
7.582065e+002, 1.273917e+005
7.586887e+002, 1.272252e+005
7.591708e+002, 1.269585e+005
7.596529e+002, 1.264480e+005
7.601350e+002, 1.258445e+005
7.606171e+002, 1.253834e+005
7.610992e+002, 1.250756e+005
7.615814e+002, 1.247240e+005
7.620635e+002, 1.243071e+005
7.625456e+002, 1.238414e+005
7.630277e+002, 1.233042e+005
7.635098e+002, 1.227372e+005
7.639919e+002, 1.222115e+005
7.644741e+002, 1.217242e+005
7.649562e+002, 1.211844e+005
7.654383e+002, 1.205223e+005
7.659204e+002, 1.197652e+005
7.664025e+002, 1.189609e+005
7.668846e+002, 1.181146e+005
7.673668e+002, 1.173103e+005
7.678489e+002, 1.165858e+005
7.683310e+002, 1.158356e+005
7.688131e+002, 1.149757e+005
7.692952e+002, 1.140147e+005
7.697773e+002, 1.129986e+005
7.702595e+002, 1.119109e+005
7.707416e+002, 1.107848e+005
7.712237e+002, 1.095655e+005
7.717058e+002, 1.083638e+005
7.721879e+002, 1.072735e+005
7.726700e+002, 1.062578e+005
7.731522e+002, 1.052278e+005
7.736343e+002, 1.041540e+005
7.741164e+002, 1.030624e+005
7.745985e+002, 1.019624e+005
7.750806e+002, 1.008677e+005
7.755627e+002, 9.981625e+004
7.760449e+002, 9.880705e+004
7.765270e+002, 9.780748e+004
7.770091e+002, 9.680991e+004
7.774912e+002, 9.578241e+004
7.779733e+002, 9.466659e+004
7.784554e+002, 9.342560e+004
7.789376e+002, 9.234269e+004
7.794197e+002, 9.153105e+004
7.799019e+002, 9.072196e+004
7.803840e+002, 8.981630e+004
7.808661e+002, 8.891610e+004
7.813482e+002, 8.811806e+004
7.818303e+002, 8.741690e+004
7.823124e+002, 8.675177e+004
7.827946e+002, 8.609563e+004
7.832767e+002, 8.546116e+004
7.837588e+002, 8.484282e+004
7.842409e+002, 8.425691e+004
7.847230e+002, 8.374030e+004
7.852051e+002, 8.329388e+004
7.856873e+002, 8.287667e+004
7.861694e+002, 8.246077e+004
7.866515e+002, 8.206312e+004
7.871336e+002, 8.172529e+004
7.876157e+002, 8.145084e+004
7.880978e+002, 8.122896e+004
7.885800e+002, 8.105783e+004
7.890621e+002, 8.094531e+004
7.895442e+002, 8.088648e+004
7.900263e+002, 8.089606e+004
7.905084e+002, 8.099403e+004
7.909905e+002, 8.118098e+004
7.914727e+002, 8.146182e+004
7.919548e+002, 8.186276e+004
7.924369e+002, 8.233133e+004
7.929190e+002, 8.288705e+004
7.934011e+002, 8.347134e+004
7.938832e+002, 8.405322e+004
7.943654e+002, 8.459504e+004
7.948475e+002, 8.494960e+004
7.953296e+002, 8.498097e+004
7.958117e+002, 8.473174e+004
7.962938e+002, 8.430424e+004
7.967759e+002, 8.369737e+004
7.972581e+002, 8.289337e+004
7.977402e+002, 8.184434e+004
7.982223e+002, 8.077608e+004
7.987044e+002, 7.987463e+004
7.991865e+002, 7.912634e+004
7.996686e+002, 7.846165e+004
8.001508e+002, 7.786312e+004
8.006329e+002, 7.737578e+004
8.011150e+002, 7.700610e+004
8.015971e+002, 7.674367e+004
8.020792e+002, 7.661638e+004
8.025613e+002, 7.658195e+004
8.030435e+002, 7.656945e+004
8.035256e+002, 7.655888e+004
8.040077e+002, 7.657329e+004
8.044898e+002, 7.664023e+004
8.049719e+002, 7.673786e+004
8.054540e+002, 7.681616e+004
8.059362e+002, 7.689345e+004
8.064183e+002, 7.704695e+004
8.069004e+002, 7.730426e+004
8.073825e+002, 7.763336e+004
8.078646e+002, 7.800573e+004
8.083467e+002, 7.841709e+004
8.088289e+002, 7.879926e+004
8.093110e+002, 7.911466e+004
8.097931e+002, 7.950600e+004
8.102752e+002, 8.003639e+004
8.107573e+002, 8.061451e+004
8.112394e+002, 8.115713e+004
8.117216e+002, 8.168305e+004
8.122037e+002, 8.224938e+004
8.126858e+002, 8.288420e+004
8.131679e+002, 8.352493e+004
8.136500e+002, 8.410961e+004
8.141321e+002, 8.472213e+004
8.146143e+002, 8.546097e+004
8.150964e+002, 8.628098e+004
8.155785e+002, 8.706337e+004
8.160606e+002, 8.775812e+004
8.165427e+002, 8.844903e+004
8.170248e+002, 8.926295e+004
8.175070e+002, 9.014974e+004
8.179891e+002, 9.091513e+004
8.184712e+002, 9.155885e+004
8.189533e+002, 9.221977e+004
8.194354e+002, 9.294291e+004
8.199175e+002, 9.370574e+004
8.203997e+002, 9.449705e+004
8.208818e+002, 9.531471e+004
8.213639e+002, 9.603185e+004
8.218460e+002, 9.659341e+004
8.223281e+002, 9.713449e+004
8.228102e+002, 9.765974e+004
8.232924e+002, 9.818291e+004
8.237745e+002, 9.874816e+004
8.242566e+002, 9.931556e+004
8.247387e+002, 9.978048e+004
8.252208e+002, 1.001093e+005
8.257029e+002, 1.003565e+005
8.261851e+002, 1.005359e+005
8.266672e+002, 1.006663e+005
8.271493e+002, 1.007913e+005
8.276314e+002, 1.008887e+005
8.281135e+002, 1.008847e+005
8.285956e+002, 1.007518e+005
8.290778e+002, 1.005285e+005
8.295599e+002, 1.002642e+005
8.300420e+002, 9.995207e+004
8.305241e+002, 9.953778e+004
8.310062e+002, 9.901858e+004
8.314883e+002, 9.842290e+004
8.319705e+002, 9.775372e+004
8.324526e+002, 9.702526e+004
8.329347e+002, 9.626405e+004
8.334168e+002, 9.545997e+004
8.338989e+002, 9.453270e+004
8.343810e+002, 9.339377e+004
8.348632e+002, 9.226725e+004
8.353453e+002, 9.121126e+004
8.358274e+002, 9.013203e+004
8.363095e+002, 8.897579e+004
8.367916e+002, 8.774554e+004
8.372737e+002, 8.644068e+004
8.377559e+002, 8.505186e+004
8.382380e+002, 8.366127e+004
8.387201e+002, 8.232948e+004
8.392022e+002, 8.102852e+004
8.396843e+002, 7.971247e+004
8.401664e+002, 7.839819e+004
8.406486e+002, 7.711087e+004
8.411307e+002, 7.586323e+004
8.416128e+002, 7.465095e+004
8.420949e+002, 7.347245e+004
8.425770e+002, 7.233276e+004
8.430591e+002, 7.126882e+004
8.435413e+002, 7.028544e+004
8.440234e+002, 6.934429e+004
8.445055e+002, 6.842998e+004
8.449876e+002, 6.756849e+004
8.454697e+002, 6.679594e+004
8.459518e+002, 6.608110e+004
8.464340e+002, 6.532437e+004
8.469161e+002, 6.446496e+004
8.473982e+002, 6.373059e+004
8.478803e+002, 6.324745e+004
8.483624e+002, 6.278039e+004
8.488445e+002, 6.218278e+004
8.493267e+002, 6.154325e+004
8.498088e+002, 6.098781e+004
8.502909e+002, 6.053570e+004
8.507730e+002, 6.012739e+004
8.512551e+002, 5.974118e+004
8.517372e+002, 5.936134e+004
8.522194e+002, 5.896475e+004
8.527015e+002, 5.855778e+004
8.531836e+002, 5.814657e+004
8.536657e+002, 5.773568e+004
8.541478e+002, 5.735808e+004
8.546299e+002, 5.703566e+004
8.551121e+002, 5.675090e+004
8.555942e+002, 5.645814e+004
8.560763e+002, 5.615541e+004
8.565584e+002, 5.587359e+004
8.570405e+002, 5.563046e+004
8.575226e+002, 5.536169e+004
8.580048e+002, 5.501514e+004
8.584869e+002, 5.464576e+004
8.589690e+002, 5.433175e+004
8.594511e+002, 5.407522e+004
8.599332e+002, 5.382790e+004
8.604153e+002, 5.365035e+004
8.608975e+002, 5.339905e+004
8.613796e+002, 5.295941e+004
8.618617e+002, 5.248871e+004
8.623438e+002, 5.214252e+004
8.628259e+002, 5.188940e+004
8.633080e+002, 5.159278e+004
8.637902e+002, 5.119209e+004
8.642723e+002, 5.075440e+004
8.647544e+002, 5.029664e+004
8.652365e+002, 4.985601e+004
8.657186e+002, 4.951287e+004
8.662007e+002, 4.924545e+004
8.666829e+002, 4.896396e+004
8.671650e+002, 4.863516e+004
8.676471e+002, 4.828130e+004
8.681292e+002, 4.792664e+004
8.686113e+002, 4.757485e+004
8.690934e+002, 4.724862e+004
8.695756e+002, 4.694964e+004
8.700577e+002, 4.666934e+004
8.705398e+002, 4.641332e+004
8.710219e+002, 4.616136e+004
8.715040e+002, 4.590323e+004
8.719861e+002, 4.563613e+004
8.724683e+002, 4.533997e+004
8.729504e+002, 4.496718e+004
8.734325e+002, 4.465649e+004
8.739146e+002, 4.445036e+004
8.743967e+002, 4.426108e+004
8.748788e+002, 4.405227e+004
8.753610e+002, 4.383858e+004
8.758431e+002, 4.364483e+004
8.763252e+002, 4.347234e+004
8.768073e+002, 4.329874e+004
8.772894e+002, 4.307793e+004
8.777715e+002, 4.288743e+004
8.782537e+002, 4.281861e+004
8.787358e+002, 4.280384e+004
8.792179e+002, 4.274475e+004
8.797000e+002, 4.263204e+004
8.801821e+002, 4.249874e+004
8.806642e+002, 4.236116e+004
8.811464e+002, 4.223482e+004
8.816285e+002, 4.214188e+004
8.821106e+002, 4.208103e+004
8.825927e+002, 4.204854e+004
8.830748e+002, 4.204491e+004
8.835569e+002, 4.205764e+004
8.840391e+002, 4.209013e+004
8.845212e+002, 4.210311e+004
8.850033e+002, 4.203773e+004
8.854854e+002, 4.190175e+004
8.859675e+002, 4.184560e+004
8.864496e+002, 4.190421e+004
8.869318e+002, 4.197404e+004
8.874139e+002, 4.203804e+004
8.878960e+002, 4.211577e+004
8.883781e+002, 4.219721e+004
8.888602e+002, 4.230599e+004
8.893423e+002, 4.249983e+004
8.898245e+002, 4.280902e+004
8.903066e+002, 4.309957e+004
8.907887e+002, 4.330834e+004
8.912708e+002, 4.351748e+004
8.917529e+002, 4.373355e+004
8.922350e+002, 4.400319e+004
8.927172e+002, 4.438905e+004
8.931993e+002, 4.489195e+004
8.936814e+002, 4.545948e+004
8.941635e+002, 4.605253e+004
8.946456e+002, 4.671063e+004
8.951277e+002, 4.749200e+004
8.956099e+002, 4.836532e+004
8.960920e+002, 4.923066e+004
8.965741e+002, 5.009773e+004
8.970562e+002, 5.107838e+004
8.975383e+002, 5.223093e+004
8.980204e+002, 5.347728e+004
8.985026e+002, 5.469775e+004
8.989847e+002, 5.589868e+004
8.994668e+002, 5.713438e+004
8.999489e+002, 5.837816e+004
9.004310e+002, 5.986456e+004
9.009131e+002, 6.167398e+004
9.013953e+002, 6.369207e+004
9.018774e+002, 6.579338e+004
9.023595e+002, 6.803380e+004
9.028416e+002, 7.060017e+004
9.033237e+002, 7.356241e+004
9.038058e+002, 7.674553e+004
9.042880e+002, 8.014530e+004
9.047701e+002, 8.376101e+004
9.052522e+002, 8.760037e+004
9.057343e+002, 9.166020e+004
9.062164e+002, 9.597077e+004
9.066985e+002, 1.005248e+005
9.071807e+002, 1.050780e+005
9.076628e+002, 1.098507e+005
9.081449e+002, 1.142476e+005
9.086270e+002, 1.183238e+005
9.091091e+002, 1.215876e+005
9.095912e+002, 1.237416e+005
9.100734e+002, 1.245403e+005
9.105555e+002, 1.235090e+005
9.110376e+002, 1.204284e+005
9.115197e+002, 1.158148e+005
9.120018e+002, 1.097687e+005
9.124839e+002, 1.027866e+005
9.129661e+002, 9.561938e+004
9.134482e+002, 8.842027e+004
9.139303e+002, 8.178583e+004
9.144124e+002, 7.584170e+004
9.148945e+002, 7.056988e+004
9.153766e+002, 6.594770e+004
9.158588e+002, 6.196295e+004
9.163409e+002, 5.855090e+004
9.168230e+002, 5.573269e+004
9.173051e+002, 5.330711e+004
9.177872e+002, 5.131259e+004
9.182693e+002, 4.956239e+004
9.187515e+002, 4.798595e+004
9.192336e+002, 4.659438e+004
9.197157e+002, 4.542822e+004
9.201978e+002, 4.449459e+004
9.206799e+002, 4.367474e+004
9.211620e+002, 4.299957e+004
9.216442e+002, 4.239863e+004
9.221263e+002, 4.188935e+004
9.226084e+002, 4.142979e+004
9.230905e+002, 4.099442e+004
9.235726e+002, 4.058746e+004
9.240547e+002, 4.021794e+004
9.245369e+002, 3.989005e+004
9.250190e+002, 3.960152e+004
9.255011e+002, 3.936016e+004
9.259832e+002, 3.915020e+004
9.264653e+002, 3.895029e+004
9.269474e+002, 3.877841e+004
9.274296e+002, 3.867554e+004
9.279117e+002, 3.863446e+004
9.283938e+002, 3.859150e+004
9.288759e+002, 3.850882e+004
9.293580e+002, 3.841124e+004
9.298401e+002, 3.831834e+004
9.303223e+002, 3.823356e+004
9.308044e+002, 3.816905e+004
9.312865e+002, 3.812020e+004
9.317686e+002, 3.805952e+004
9.322507e+002, 3.797692e+004
9.327328e+002, 3.790401e+004
9.332150e+002, 3.788073e+004
9.336971e+002, 3.789426e+004
9.341792e+002, 3.789646e+004
9.346613e+002, 3.788724e+004
9.351434e+002, 3.788185e+004
9.356255e+002, 3.788646e+004
9.361077e+002, 3.786782e+004
9.365898e+002, 3.779446e+004
9.370719e+002, 3.770104e+004
9.375540e+002, 3.766673e+004
9.380361e+002, 3.770409e+004
9.385182e+002, 3.773326e+004
9.390004e+002, 3.775447e+004
9.394825e+002, 3.776711e+004
9.399646e+002, 3.777245e+004
9.404467e+002, 3.776764e+004
9.409288e+002, 3.773226e+004
9.414109e+002, 3.768080e+004
9.418931e+002, 3.768236e+004
9.423752e+002, 3.778147e+004
9.428573e+002, 3.785563e+004
9.433394e+002, 3.786705e+004
9.438215e+002, 3.787628e+004
9.443036e+002, 3.791761e+004
9.447858e+002, 3.797307e+004
9.452679e+002, 3.801969e+004
9.457500e+002, 3.805403e+004
9.462321e+002, 3.808022e+004
9.467142e+002, 3.808885e+004
9.471964e+002, 3.810477e+004
9.476785e+002, 3.813880e+004
9.481606e+002, 3.819138e+004
9.486427e+002, 3.828959e+004
9.491248e+002, 3.840316e+004
9.496069e+002, 3.844372e+004
9.500891e+002, 3.838243e+004
9.505712e+002, 3.832971e+004
9.510533e+002, 3.839176e+004
9.515354e+002, 3.852355e+004
9.520175e+002, 3.867613e+004
9.524996e+002, 3.883333e+004
9.529818e+002, 3.893968e+004
9.534639e+002, 3.899236e+004
9.539460e+002, 3.904360e+004
9.544281e+002, 3.912462e+004
9.549102e+002, 3.923628e+004
9.553923e+002, 3.938927e+004
9.558745e+002, 3.957877e+004
9.563566e+002, 3.975596e+004
9.568387e+002, 3.992119e+004
9.573208e+002, 4.005015e+004
9.578029e+002, 4.012948e+004
9.582850e+002, 4.020503e+004
9.587672e+002, 4.031792e+004
9.592493e+002, 4.046272e+004
9.597314e+002, 4.062125e+004
9.602135e+002, 4.080155e+004
9.606956e+002, 4.096554e+004
9.611777e+002, 4.110124e+004
9.616599e+002, 4.124240e+004
9.621420e+002, 4.142189e+004
9.626241e+002, 4.159295e+004
9.631062e+002, 4.168583e+004
9.635883e+002, 4.170052e+004
9.640704e+002, 4.175229e+004
9.645526e+002, 4.187726e+004
9.650347e+002, 4.198354e+004
9.655168e+002, 4.204345e+004
9.659989e+002, 4.210366e+004
9.664810e+002, 4.217294e+004
9.669631e+002, 4.226637e+004
9.674453e+002, 4.242245e+004
9.679274e+002, 4.264939e+004
9.684095e+002, 4.283388e+004
9.688916e+002, 4.292793e+004
9.693737e+002, 4.299482e+004
9.698558e+002, 4.304323e+004
9.703380e+002, 4.309419e+004
9.708201e+002, 4.315984e+004
9.713022e+002, 4.324600e+004
9.717843e+002, 4.337293e+004
9.722664e+002, 4.355110e+004
9.727485e+002, 4.370198e+004
9.732307e+002, 4.375197e+004
9.737128e+002, 4.376875e+004
9.741949e+002, 4.380599e+004
9.746770e+002, 4.386332e+004
9.751591e+002, 4.392617e+004
9.756412e+002, 4.400179e+004
9.761234e+002, 4.413674e+004
9.766055e+002, 4.436416e+004
9.770876e+002, 4.459947e+004
9.775698e+002, 4.471995e+004
9.780519e+002, 4.478139e+004
9.785340e+002, 4.491448e+004
9.790161e+002, 4.510390e+004
9.794982e+002, 4.526229e+004
9.799803e+002, 4.536905e+004
9.804625e+002, 4.547811e+004
9.809446e+002, 4.563786e+004
9.814267e+002, 4.580886e+004
9.819088e+002, 4.589205e+004
9.823909e+002, 4.589893e+004
9.828730e+002, 4.594953e+004
9.833552e+002, 4.605215e+004
9.838373e+002, 4.614657e+004
9.843194e+002, 4.620858e+004
9.848015e+002, 4.627264e+004
9.852836e+002, 4.637990e+004
9.857657e+002, 4.651744e+004
9.862479e+002, 4.661753e+004
9.867300e+002, 4.667328e+004
9.872121e+002, 4.673181e+004
9.876942e+002, 4.680065e+004
9.881763e+002, 4.686267e+004
9.886584e+002, 4.690488e+004
9.891406e+002, 4.694405e+004
9.896227e+002, 4.700109e+004
9.901048e+002, 4.707641e+004
9.905869e+002, 4.716636e+004
9.910690e+002, 4.730382e+004
9.915511e+002, 4.739107e+004
9.920333e+002, 4.740452e+004
9.925154e+002, 4.738343e+004
9.929975e+002, 4.730973e+004
9.934796e+002, 4.723246e+004
9.939617e+002, 4.723867e+004
9.944438e+002, 4.733797e+004
9.949260e+002, 4.741613e+004
9.954081e+002, 4.746889e+004
9.958902e+002, 4.749546e+004
9.963723e+002, 4.745086e+004
9.968544e+002, 4.742314e+004
9.973365e+002, 4.751234e+004
9.978187e+002, 4.764862e+004
9.983008e+002, 4.767968e+004
9.987829e+002, 4.757048e+004
9.992650e+002, 4.749582e+004
9.997471e+002, 4.755521e+004
1.000229e+003, 4.760238e+004
1.000711e+003, 4.755484e+004
1.001193e+003, 4.747519e+004
1.001676e+003, 4.740245e+004
1.002158e+003, 4.735496e+004
1.002640e+003, 4.737479e+004
1.003122e+003, 4.748414e+004
1.003604e+003, 4.755257e+004
1.004086e+003, 4.746055e+004
1.004568e+003, 4.734628e+004
1.005050e+003, 4.731657e+004
1.005533e+003, 4.733694e+004
1.006015e+003, 4.737752e+004
1.006497e+003, 4.741657e+004
1.006979e+003, 4.740461e+004
1.007461e+003, 4.731409e+004
1.007943e+003, 4.722823e+004
1.008425e+003, 4.724270e+004
1.008907e+003, 4.728649e+004
1.009389e+003, 4.726965e+004
1.009872e+003, 4.720920e+004
1.010354e+003, 4.713883e+004
1.010836e+003, 4.706973e+004
1.011318e+003, 4.701110e+004
1.011800e+003, 4.696783e+004
1.012282e+003, 4.694239e+004
1.012764e+003, 4.695198e+004
1.013246e+003, 4.697539e+004
1.013729e+003, 4.696121e+004
1.014211e+003, 4.691807e+004
1.014693e+003, 4.689228e+004
1.015175e+003, 4.688955e+004
1.015657e+003, 4.685535e+004
1.016139e+003, 4.674719e+004
1.016621e+003, 4.661438e+004
1.017103e+003, 4.654385e+004
1.017585e+003, 4.652295e+004
1.018068e+003, 4.649682e+004
1.018550e+003, 4.646447e+004
1.019032e+003, 4.643312e+004
1.019514e+003, 4.640513e+004
1.019996e+003, 4.638057e+004
1.020478e+003, 4.636027e+004
1.020960e+003, 4.634161e+004
1.021442e+003, 4.631713e+004
1.021924e+003, 4.628731e+004
1.022407e+003, 4.626420e+004
1.022889e+003, 4.624865e+004
1.023371e+003, 4.622936e+004
1.023853e+003, 4.620133e+004
1.024335e+003, 4.617569e+004
1.024817e+003, 4.615977e+004
1.025299e+003, 4.615810e+004
1.025781e+003, 4.619578e+004
1.026264e+003, 4.628407e+004
1.026746e+003, 4.631045e+004
1.027228e+003, 4.625748e+004
1.027710e+003, 4.620947e+004
1.028192e+003, 4.619825e+004
1.028674e+003, 4.618982e+004
1.029156e+003, 4.614610e+004
1.029638e+003, 4.608237e+004
1.030120e+003, 4.606128e+004
1.030603e+003, 4.609289e+004
1.031085e+003, 4.613134e+004
1.031567e+003, 4.617781e+004
1.032049e+003, 4.622540e+004
1.032531e+003, 4.626749e+004
1.033013e+003, 4.631884e+004
1.033495e+003, 4.640745e+004
1.033977e+003, 4.651636e+004
1.034459e+003, 4.655537e+004
1.034942e+003, 4.647262e+004
1.035424e+003, 4.644152e+004
1.035906e+003, 4.646229e+004
1.036388e+003, 4.653786e+004
1.036870e+003, 4.672454e+004
1.037352e+003, 4.690789e+004
1.037834e+003, 4.695322e+004
1.038316e+003, 4.689053e+004
1.038799e+003, 4.690013e+004
1.039281e+003, 4.702613e+004
1.039763e+003, 4.713864e+004
1.040245e+003, 4.723998e+004
1.040727e+003, 4.732588e+004
1.041209e+003, 4.737882e+004
1.041691e+003, 4.742893e+004
1.042173e+003, 4.750418e+004
1.042656e+003, 4.760205e+004
1.043138e+003, 4.770608e+004
1.043620e+003, 4.781217e+004
1.044102e+003, 4.793105e+004
1.044584e+003, 4.805950e+004
1.045066e+003, 4.820524e+004
1.045548e+003, 4.839904e+004
1.046030e+003, 4.858919e+004
1.046512e+003, 4.871193e+004
1.046995e+003, 4.878372e+004
1.047477e+003, 4.888840e+004
1.047959e+003, 4.906064e+004
1.048441e+003, 4.920810e+004
1.048923e+003, 4.928484e+004
1.049405e+003, 4.937416e+004
1.049887e+003, 4.952340e+004
1.050369e+003, 4.969229e+004
1.050851e+003, 4.983764e+004
1.051334e+003, 4.996477e+004
1.051816e+003, 5.010363e+004
1.052298e+003, 5.026424e+004
1.052780e+003, 5.042382e+004
1.053262e+003, 5.057420e+004
1.053744e+003, 5.072652e+004
1.054226e+003, 5.088627e+004
1.054708e+003, 5.104971e+004
1.055191e+003, 5.120480e+004
1.055673e+003, 5.135877e+004
1.056155e+003, 5.154067e+004
1.056637e+003, 5.176759e+004
1.057119e+003, 5.198275e+004
1.057601e+003, 5.213790e+004
1.058083e+003, 5.231405e+004
1.058565e+003, 5.263092e+004
1.059047e+003, 5.292598e+004
1.059530e+003, 5.297938e+004
1.060012e+003, 5.287008e+004
1.060494e+003, 5.288566e+004
1.060976e+003, 5.312315e+004
1.061458e+003, 5.335046e+004
1.061940e+003, 5.345936e+004
1.062422e+003, 5.357149e+004
1.062904e+003, 5.378661e+004
1.063386e+003, 5.400784e+004
1.063869e+003, 5.413091e+004
1.064351e+003, 5.417634e+004
1.064833e+003, 5.421375e+004
1.065315e+003, 5.425394e+004
1.065797e+003, 5.434086e+004
1.066279e+003, 5.452282e+004
1.066761e+003, 5.471917e+004
1.067243e+003, 5.490530e+004
1.067726e+003, 5.507011e+004
1.068208e+003, 5.518343e+004
1.068690e+003, 5.527260e+004
1.069172e+003, 5.541236e+004
1.069654e+003, 5.562461e+004
1.070136e+003, 5.580787e+004
1.070618e+003, 5.588645e+004
1.071100e+003, 5.596330e+004
1.071583e+003, 5.607861e+004
1.072065e+003, 5.622876e+004
1.072547e+003, 5.643267e+004
1.073029e+003, 5.665993e+004
1.073511e+003, 5.684546e+004
1.073993e+003, 5.697447e+004
1.074475e+003, 5.712645e+004
1.074957e+003, 5.737698e+004
1.075439e+003, 5.760532e+004
1.075922e+003, 5.772194e+004
1.076404e+003, 5.781587e+004
1.076886e+003, 5.797892e+004
1.077368e+003, 5.817488e+004
1.077850e+003, 5.831686e+004
1.078332e+003, 5.839414e+004
1.078814e+003, 5.848777e+004
1.079296e+003, 5.863270e+004
1.079779e+003, 5.880166e+004
1.080261e+003, 5.900168e+004
1.080743e+003, 5.920102e+004
1.081225e+003, 5.937093e+004
1.081707e+003, 5.952146e+004
1.082189e+003, 5.967573e+004
1.082671e+003, 5.983394e+004
1.083153e+003, 5.997118e+004
1.083635e+003, 6.006339e+004
1.084118e+003, 6.015962e+004
1.084600e+003, 6.028908e+004
1.085082e+003, 6.042364e+004
1.085564e+003, 6.053407e+004
1.086046e+003, 6.064154e+004
1.086528e+003, 6.078488e+004
1.087010e+003, 6.095883e+004
1.087492e+003, 6.111193e+004
1.087974e+003, 6.121845e+004
1.088457e+003, 6.132948e+004
1.088939e+003, 6.146454e+004
1.089421e+003, 6.161417e+004
1.089903e+003, 6.179675e+004
1.090385e+003, 6.197406e+004
1.090867e+003, 6.208438e+004
1.091349e+003, 6.214788e+004
1.091831e+003, 6.225733e+004
1.092314e+003, 6.245172e+004
1.092796e+003, 6.262870e+004
1.093278e+003, 6.272379e+004
1.093760e+003, 6.282292e+004
1.094242e+003, 6.298729e+004
1.094724e+003, 6.316106e+004
1.095206e+003, 6.327582e+004
1.095688e+003, 6.335561e+004
1.096171e+003, 6.347863e+004
1.096653e+003, 6.366718e+004
1.097135e+003, 6.383992e+004
1.097617e+003, 6.393929e+004
1.098099e+003, 6.406330e+004
1.098581e+003, 6.430027e+004
1.099063e+003, 6.453135e+004
1.099545e+003, 6.463741e+004
1.100027e+003, 6.467713e+004
1.100510e+003, 6.477197e+004
1.100992e+003, 6.494075e+004
1.101474e+003, 6.509277e+004
1.101956e+003, 6.519702e+004
1.102438e+003, 6.529829e+004
1.102920e+003, 6.539204e+004
1.103402e+003, 6.550514e+004
1.103884e+003, 6.565689e+004
1.104366e+003, 6.583699e+004
1.104849e+003, 6.604277e+004
1.105331e+003, 6.626924e+004
1.105813e+003, 6.646798e+004
1.106295e+003, 6.661244e+004
1.106777e+003, 6.675861e+004
1.107259e+003, 6.691289e+004
1.107741e+003, 6.707037e+004
1.108223e+003, 6.722790e+004
1.108706e+003, 6.738708e+004
1.109188e+003, 6.755034e+004
1.109670e+003, 6.771779e+004
1.110152e+003, 6.788631e+004
1.110634e+003, 6.805636e+004
1.111116e+003, 6.822681e+004
1.111598e+003, 6.839506e+004
1.112080e+003, 6.856688e+004
1.112563e+003, 6.875190e+004
1.113045e+003, 6.893305e+004
1.113527e+003, 6.909125e+004
1.114009e+003, 6.923759e+004
1.114491e+003, 6.939318e+004
1.114973e+003, 6.954621e+004
1.115455e+003, 6.976555e+004
1.115937e+003, 7.011079e+004
1.116419e+003, 7.041823e+004
1.116901e+003, 7.063533e+004
1.117384e+003, 7.083965e+004
1.117866e+003, 7.106905e+004
1.118348e+003, 7.132204e+004
1.118830e+003, 7.160409e+004
1.119312e+003, 7.191613e+004
1.119794e+003, 7.218151e+004
1.120276e+003, 7.234560e+004
1.120758e+003, 7.261391e+004
1.121241e+003, 7.309741e+004
1.121723e+003, 7.347688e+004
1.122205e+003, 7.356074e+004
1.122687e+003, 7.355641e+004
1.123169e+003, 7.370128e+004
1.123651e+003, 7.397794e+004
1.124133e+003, 7.428674e+004
1.124615e+003, 7.463506e+004
1.125098e+003, 7.499174e+004
1.125580e+003, 7.536641e+004
1.126062e+003, 7.570658e+004
1.126544e+003, 7.598873e+004
1.127026e+003, 7.625840e+004
1.127508e+003, 7.655480e+004
1.127990e+003, 7.686934e+004
1.128472e+003, 7.717130e+004
1.128954e+003, 7.745986e+004
1.129437e+003, 7.782610e+004
1.129919e+003, 7.827882e+004
1.130401e+003, 7.867878e+004
1.130883e+003, 7.899400e+004
1.131365e+003, 7.932147e+004
1.131847e+003, 7.971719e+004
1.132329e+003, 8.016588e+004
1.132811e+003, 8.065477e+004
1.133293e+003, 8.116786e+004
1.133776e+003, 8.162340e+004
1.134258e+003, 8.202503e+004
1.134740e+003, 8.240577e+004
1.135222e+003, 8.277183e+004
1.135704e+003, 8.315763e+004
1.136186e+003, 8.357597e+004
1.136668e+003, 8.401999e+004
1.137150e+003, 8.448832e+004
1.137633e+003, 8.495823e+004
1.138115e+003, 8.538247e+004
1.138597e+003, 8.577103e+004
1.139079e+003, 8.615837e+004
1.139561e+003, 8.654609e+004
1.140043e+003, 8.694168e+004
1.140525e+003, 8.734238e+004
1.141007e+003, 8.771198e+004
1.141490e+003, 8.802068e+004
1.141972e+003, 8.833379e+004
1.142454e+003, 8.872953e+004
1.142936e+003, 8.918388e+004
1.143418e+003, 8.968903e+004
1.143900e+003, 9.020683e+004
1.144382e+003, 9.064730e+004
1.144864e+003, 9.102392e+004
1.145346e+003, 9.142755e+004
1.145828e+003, 9.189164e+004
1.146311e+003, 9.235269e+004
1.146793e+003, 9.271699e+004
1.147275e+003, 9.310793e+004
1.147757e+003, 9.366740e+004
1.148239e+003, 9.428923e+004
1.148721e+003, 9.487217e+004
1.149203e+003, 9.540360e+004
1.149685e+003, 9.587262e+004
1.150168e+003, 9.629002e+004
1.150650e+003, 9.675113e+004
1.151132e+003, 9.733857e+004
1.151614e+003, 9.788370e+004
1.152096e+003, 9.826188e+004
1.152578e+003, 9.861102e+004
1.153060e+003, 9.901239e+004
1.153542e+003, 9.944903e+004
1.154025e+003, 9.991555e+004
1.154507e+003, 1.003939e+005
1.154989e+003, 1.008350e+005
1.155471e+003, 1.012167e+005
1.155953e+003, 1.016266e+005
1.156435e+003, 1.021086e+005
1.156917e+003, 1.025964e+005
1.157399e+003, 1.031073e+005
1.157881e+003, 1.035795e+005
1.158364e+003, 1.039300e+005
1.158846e+003, 1.042367e+005
1.159328e+003, 1.046376e+005
1.159810e+003, 1.051389e+005
1.160292e+003, 1.056205e+005
1.160774e+003, 1.060742e+005
1.161256e+003, 1.065191e+005
1.161738e+003, 1.069529e+005
1.162220e+003, 1.073863e+005
1.162703e+003, 1.078276e+005
1.163185e+003, 1.082642e+005
1.163667e+003, 1.086776e+005
1.164149e+003, 1.090837e+005
1.164631e+003, 1.095403e+005
1.165113e+003, 1.100563e+005
1.165595e+003, 1.105710e+005
1.166077e+003, 1.110932e+005
1.166560e+003, 1.115803e+005
1.167042e+003, 1.120171e+005
1.167524e+003, 1.124453e+005
1.168006e+003, 1.128791e+005
1.168488e+003, 1.133494e+005
1.168970e+003, 1.139120e+005
1.169452e+003, 1.145363e+005
1.169934e+003, 1.150530e+005
1.170417e+003, 1.154684e+005
1.170899e+003, 1.158559e+005
1.171381e+003, 1.162265e+005
1.171863e+003, 1.166484e+005
1.172345e+003, 1.171438e+005
1.172827e+003, 1.177048e+005
1.173309e+003, 1.183412e+005
1.173791e+003, 1.189679e+005
1.174273e+003, 1.194253e+005
1.174755e+003, 1.197754e+005
1.175238e+003, 1.201378e+005
1.175720e+003, 1.205326e+005
1.176202e+003, 1.210080e+005
1.176684e+003, 1.215576e+005
1.177166e+003, 1.221288e+005
1.177648e+003, 1.227025e+005
1.178130e+003, 1.232189e+005
1.178612e+003, 1.235932e+005
1.179095e+003, 1.239323e+005
1.179577e+003, 1.243361e+005
1.180059e+003, 1.247752e+005
1.180541e+003, 1.252077e+005
1.181023e+003, 1.256492e+005
1.181505e+003, 1.261618e+005
1.181987e+003, 1.267331e+005
1.182469e+003, 1.272290e+005
1.182952e+003, 1.275310e+005
1.183434e+003, 1.279289e+005
1.183916e+003, 1.286626e+005
1.184398e+003, 1.293889e+005
1.184880e+003, 1.298767e+005
1.185362e+003, 1.303025e+005
1.185844e+003, 1.308521e+005
1.186326e+003, 1.314803e+005
1.186808e+003, 1.320568e+005
1.187291e+003, 1.325683e+005
1.187773e+003, 1.330544e+005
1.188255e+003, 1.334663e+005
1.188737e+003, 1.339403e+005
1.189219e+003, 1.345325e+005
1.189701e+003, 1.351355e+005
1.190183e+003, 1.357063e+005
1.190665e+003, 1.362641e+005
1.191147e+003, 1.368272e+005
1.191630e+003, 1.373930e+005
1.192112e+003, 1.379250e+005
1.192594e+003, 1.383910e+005
1.193076e+003, 1.390232e+005
1.193558e+003, 1.398846e+005
1.194040e+003, 1.405605e+005
1.194522e+003, 1.409249e+005
1.195004e+003, 1.412709e+005
1.195487e+003, 1.417678e+005
1.195969e+003, 1.423744e+005
1.196451e+003, 1.430606e+005
1.196933e+003, 1.437933e+005
1.197415e+003, 1.444203e+005
1.197897e+003, 1.449729e+005
1.198379e+003, 1.456337e+005
1.198861e+003, 1.464001e+005
1.199344e+003, 1.471184e+005
1.199826e+003, 1.477513e+005
1.200308e+003, 1.483629e+005
1.200790e+003, 1.489918e+005
1.201272e+003, 1.496793e+005
1.201754e+003, 1.505281e+005
1.202236e+003, 1.514240e+005
1.202718e+003, 1.521904e+005
1.203200e+003, 1.528945e+005
1.203682e+003, 1.536086e+005
1.204165e+003, 1.543753e+005
1.204647e+003, 1.553010e+005
1.205129e+003, 1.563960e+005
1.205611e+003, 1.574109e+005
1.206093e+003, 1.581206e+005
1.206575e+003, 1.588589e+005
1.207057e+003, 1.598103e+005
1.207539e+003, 1.608319e+005
1.208022e+003, 1.618463e+005
1.208504e+003, 1.628714e+005
1.208986e+003, 1.639620e+005
1.209468e+003, 1.650931e+005
1.209950e+003, 1.661431e+005
1.210432e+003, 1.670634e+005
1.210914e+003, 1.680673e+005
1.211396e+003, 1.692384e+005
1.211879e+003, 1.703963e+005
1.212361e+003, 1.715177e+005
1.212843e+003, 1.726159e+005
1.213325e+003, 1.736682e+005
1.213807e+003, 1.747318e+005
1.214289e+003, 1.758760e+005
1.214771e+003, 1.770977e+005
1.215253e+003, 1.784082e+005
1.215735e+003, 1.798093e+005
1.216218e+003, 1.812203e+005
1.216700e+003, 1.826434e+005
1.217182e+003, 1.840513e+005
1.217664e+003, 1.854492e+005
1.218146e+003, 1.867931e+005
1.218628e+003, 1.880563e+005
1.219110e+003, 1.893671e+005
1.219592e+003, 1.909096e+005
1.220074e+003, 1.926047e+005
1.220557e+003, 1.942811e+005
1.221039e+003, 1.959460e+005
1.221521e+003, 1.976315e+005
1.222003e+003, 1.993312e+005
1.222485e+003, 2.009823e+005
1.222967e+003, 2.025851e+005
1.223449e+003, 2.042326e+005
1.223931e+003, 2.059706e+005
1.224414e+003, 2.077252e+005
1.224896e+003, 2.094147e+005
1.225378e+003, 2.111116e+005
1.225860e+003, 2.128933e+005
1.226342e+003, 2.146876e+005
1.226824e+003, 2.163495e+005
1.227306e+003, 2.179926e+005
1.227788e+003, 2.198435e+005
1.228271e+003, 2.219324e+005
1.228753e+003, 2.240675e+005
1.229235e+003, 2.262464e+005
1.229717e+003, 2.284278e+005
1.230199e+003, 2.306131e+005
1.230681e+003, 2.327841e+005
1.231163e+003, 2.348440e+005
1.231645e+003, 2.370277e+005
1.232127e+003, 2.395858e+005
1.232609e+003, 2.423102e+005
1.233092e+003, 2.447708e+005
1.233574e+003, 2.469871e+005
1.234056e+003, 2.494057e+005
1.234538e+003, 2.520561e+005
1.235020e+003, 2.546752e+005
1.235502e+003, 2.572251e+005
1.235984e+003, 2.596784e+005
1.236466e+003, 2.620027e+005
1.236949e+003, 2.642674e+005
1.237431e+003, 2.664937e+005
1.237913e+003, 2.687989e+005
1.238395e+003, 2.714442e+005
1.238877e+003, 2.742679e+005
1.239359e+003, 2.768972e+005
1.239841e+003, 2.794141e+005
1.240323e+003, 2.820659e+005
1.240806e+003, 2.848280e+005
1.241288e+003, 2.875018e+005
1.241770e+003, 2.900575e+005
1.242252e+003, 2.927353e+005
1.242734e+003, 2.957342e+005
1.243216e+003, 2.987584e+005
1.243698e+003, 3.016327e+005
1.244180e+003, 3.044314e+005
1.244662e+003, 3.070972e+005
1.245145e+003, 3.098003e+005
1.245627e+003, 3.127062e+005
1.246109e+003, 3.157811e+005
1.246591e+003, 3.190123e+005
1.247073e+003, 3.223983e+005
1.247555e+003, 3.255540e+005
1.248037e+003, 3.281844e+005
1.248519e+003, 3.310686e+005
1.249001e+003, 3.343665e+005
1.249484e+003, 3.376660e+005
1.249966e+003, 3.407940e+005
1.250448e+003, 3.440246e+005
1.250930e+003, 3.475898e+005
1.251412e+003, 3.513723e+005
1.251894e+003, 3.551384e+005
1.252376e+003, 3.589165e+005
1.252858e+003, 3.628895e+005
1.253341e+003, 3.669994e+005
1.253823e+003, 3.707572e+005
1.254305e+003, 3.741941e+005
1.254787e+003, 3.778885e+005
1.255269e+003, 3.820188e+005
1.255751e+003, 3.863517e+005
1.256233e+003, 3.907592e+005
1.256715e+003, 3.952562e+005
1.257198e+003, 3.998904e+005
1.257680e+003, 4.046043e+005
1.258162e+003, 4.093013e+005
1.258644e+003, 4.140629e+005
1.259126e+003, 4.190210e+005
1.259608e+003, 4.241744e+005
1.260090e+003, 4.295040e+005
1.260572e+003, 4.350156e+005
1.261054e+003, 4.407770e+005
1.261536e+003, 4.469713e+005
1.262019e+003, 4.531056e+005
1.262501e+003, 4.589335e+005
1.262983e+003, 4.649187e+005
1.263465e+003, 4.711386e+005
1.263947e+003, 4.776113e+005
1.264429e+003, 4.844350e+005
1.264911e+003, 4.914054e+005
1.265393e+003, 4.982758e+005
1.265876e+003, 5.050293e+005
1.266358e+003, 5.117804e+005
1.266840e+003, 5.184749e+005
1.267322e+003, 5.258358e+005
1.267804e+003, 5.339145e+005
1.268286e+003, 5.419723e+005
1.268768e+003, 5.498738e+005
1.269250e+003, 5.578685e+005
1.269733e+003, 5.661076e+005
1.270215e+003, 5.743471e+005
1.270697e+003, 5.823124e+005
1.271179e+003, 5.902318e+005
1.271661e+003, 5.982444e+005
1.272143e+003, 6.065813e+005
1.272625e+003, 6.156308e+005
1.273107e+003, 6.252288e+005
1.273589e+003, 6.351721e+005
1.274072e+003, 6.453008e+005
1.274554e+003, 6.554240e+005
1.275036e+003, 6.654779e+005
1.275518e+003, 6.755004e+005
1.276000e+003, 6.851666e+005
1.276482e+003, 6.951835e+005
1.276964e+003, 7.057334e+005
1.277446e+003, 7.167853e+005
1.277929e+003, 7.281373e+005
1.278411e+003, 7.397735e+005
1.278893e+003, 7.517209e+005
1.279375e+003, 7.639145e+005
1.279857e+003, 7.761484e+005
1.280339e+003, 7.884006e+005
1.280821e+003, 8.017992e+005
1.281303e+003, 8.164709e+005
1.281786e+003, 8.313316e+005
1.282268e+003, 8.462930e+005
##END=



