##NAMES=Schieffelinite
##RRUFFID=R140572
##IDEAL CHEMISTRY=Pb^2+^_10_Te^6+^_6_O_20_(OH)_14_(S^6+^O_4_)&#183;5H_2_O
##LOCALITY=Joe mine, Tombstone District, Tombstone Hills, Cochise County, Arizona, USA
##OWNER=RRUFF
##SOURCE=Rock Currier
##DESCRIPTION=Colorless thin platy or scaly crystals, associated with clusters of acicular ottoite crystals.
##STATUS=The identification of this mineral has been confirmed by single-crystal X-ray diffraction.
##URL=rruff.info/R140572
8.758203e+001, 8.667296e+003
8.806415e+001, 8.383674e+003
8.854626e+001, 8.333619e+003
8.902838e+001, 8.603528e+003
8.951050e+001, 8.960886e+003
8.999261e+001, 9.339003e+003
9.047473e+001, 9.727078e+003
9.095685e+001, 1.011178e+004
9.143896e+001, 1.048236e+004
9.192108e+001, 1.083832e+004
9.240320e+001, 1.118077e+004
9.288531e+001, 1.137533e+004
9.336743e+001, 1.134336e+004
9.384955e+001, 1.113750e+004
9.433167e+001, 1.092790e+004
9.481378e+001, 1.068534e+004
9.529590e+001, 1.046720e+004
9.577802e+001, 1.027335e+004
9.626013e+001, 1.009202e+004
9.674225e+001, 9.912427e+003
9.722437e+001, 9.732500e+003
9.770648e+001, 9.564707e+003
9.818860e+001, 9.407387e+003
9.867072e+001, 9.259881e+003
9.915283e+001, 9.119712e+003
9.963495e+001, 8.985758e+003
1.001171e+002, 8.861061e+003
1.005992e+002, 8.752380e+003
1.010813e+002, 8.663900e+003
1.015634e+002, 8.575677e+003
1.020455e+002, 8.474381e+003
1.025277e+002, 8.373458e+003
1.030098e+002, 8.282704e+003
1.034919e+002, 8.205490e+003
1.039740e+002, 8.139195e+003
1.044561e+002, 8.077970e+003
1.049382e+002, 8.026677e+003
1.054204e+002, 7.973110e+003
1.059025e+002, 7.915901e+003
1.063846e+002, 7.854909e+003
1.068667e+002, 7.789976e+003
1.073488e+002, 7.719942e+003
1.078309e+002, 7.645732e+003
1.083131e+002, 7.576462e+003
1.087952e+002, 7.512132e+003
1.092773e+002, 7.451128e+003
1.097594e+002, 7.393948e+003
1.102415e+002, 7.340192e+003
1.107236e+002, 7.287381e+003
1.112058e+002, 7.231744e+003
1.116879e+002, 7.175373e+003
1.121700e+002, 7.125370e+003
1.126521e+002, 7.085868e+003
1.131342e+002, 7.053003e+003
1.136163e+002, 7.020625e+003
1.140985e+002, 6.988238e+003
1.145806e+002, 6.957445e+003
1.150627e+002, 6.928811e+003
1.155448e+002, 6.902308e+003
1.160269e+002, 6.877731e+003
1.165090e+002, 6.854561e+003
1.169912e+002, 6.832864e+003
1.174733e+002, 6.814790e+003
1.179554e+002, 6.800303e+003
1.184375e+002, 6.790078e+003
1.189196e+002, 6.783872e+003
1.194017e+002, 6.781945e+003
1.198839e+002, 6.785103e+003
1.203660e+002, 6.794568e+003
1.208481e+002, 6.811478e+003
1.213302e+002, 6.832241e+003
1.218123e+002, 6.853592e+003
1.222944e+002, 6.879485e+003
1.227766e+002, 6.913212e+003
1.232587e+002, 6.955356e+003
1.237408e+002, 7.003786e+003
1.242229e+002, 7.054186e+003
1.247050e+002, 7.104489e+003
1.251871e+002, 7.160384e+003
1.256693e+002, 7.217835e+003
1.261514e+002, 7.282055e+003
1.266335e+002, 7.359815e+003
1.271156e+002, 7.454979e+003
1.275977e+002, 7.564417e+003
1.280798e+002, 7.679927e+003
1.285620e+002, 7.800511e+003
1.290441e+002, 7.927923e+003
1.295262e+002, 8.059815e+003
1.300083e+002, 8.198451e+003
1.304904e+002, 8.350533e+003
1.309725e+002, 8.518792e+003
1.314547e+002, 8.706208e+003
1.319368e+002, 8.909837e+003
1.324189e+002, 9.130807e+003
1.329010e+002, 9.366760e+003
1.333831e+002, 9.614551e+003
1.338652e+002, 9.872821e+003
1.343474e+002, 1.014847e+004
1.348295e+002, 1.044932e+004
1.353116e+002, 1.076681e+004
1.357937e+002, 1.109815e+004
1.362758e+002, 1.144732e+004
1.367579e+002, 1.180582e+004
1.372401e+002, 1.215364e+004
1.377222e+002, 1.249943e+004
1.382043e+002, 1.281712e+004
1.386864e+002, 1.311423e+004
1.391685e+002, 1.338177e+004
1.396507e+002, 1.360884e+004
1.401328e+002, 1.378941e+004
1.406149e+002, 1.392367e+004
1.410970e+002, 1.399472e+004
1.415791e+002, 1.399113e+004
1.420612e+002, 1.392967e+004
1.425434e+002, 1.379504e+004
1.430255e+002, 1.360093e+004
1.435076e+002, 1.337536e+004
1.439897e+002, 1.314216e+004
1.444718e+002, 1.290073e+004
1.449539e+002, 1.265425e+004
1.454361e+002, 1.239141e+004
1.459182e+002, 1.213249e+004
1.464003e+002, 1.188608e+004
1.468824e+002, 1.165403e+004
1.473645e+002, 1.143618e+004
1.478466e+002, 1.123400e+004
1.483288e+002, 1.105075e+004
1.488109e+002, 1.087163e+004
1.492930e+002, 1.069929e+004
1.497751e+002, 1.052873e+004
1.502572e+002, 1.035476e+004
1.507393e+002, 1.017514e+004
1.512215e+002, 9.995246e+003
1.517036e+002, 9.823576e+003
1.521857e+002, 9.660018e+003
1.526678e+002, 9.496951e+003
1.531499e+002, 9.329356e+003
1.536320e+002, 9.160803e+003
1.541142e+002, 9.001021e+003
1.545963e+002, 8.854368e+003
1.550784e+002, 8.716490e+003
1.555605e+002, 8.578804e+003
1.560426e+002, 8.441769e+003
1.565247e+002, 8.311861e+003
1.570069e+002, 8.193909e+003
1.574890e+002, 8.087882e+003
1.579711e+002, 7.991619e+003
1.584532e+002, 7.907045e+003
1.589353e+002, 7.831761e+003
1.594174e+002, 7.765517e+003
1.598996e+002, 7.708092e+003
1.603817e+002, 7.657754e+003
1.608638e+002, 7.611708e+003
1.613459e+002, 7.568985e+003
1.618280e+002, 7.534534e+003
1.623102e+002, 7.511680e+003
1.627923e+002, 7.494901e+003
1.632744e+002, 7.481076e+003
1.637565e+002, 7.469185e+003
1.642386e+002, 7.460419e+003
1.647207e+002, 7.456844e+003
1.652029e+002, 7.459075e+003
1.656850e+002, 7.466687e+003
1.661671e+002, 7.481176e+003
1.666492e+002, 7.499409e+003
1.671313e+002, 7.518155e+003
1.676134e+002, 7.535944e+003
1.680956e+002, 7.554721e+003
1.685777e+002, 7.580255e+003
1.690598e+002, 7.618065e+003
1.695419e+002, 7.656842e+003
1.700240e+002, 7.696886e+003
1.705061e+002, 7.737360e+003
1.709883e+002, 7.776376e+003
1.714704e+002, 7.812508e+003
1.719525e+002, 7.847776e+003
1.724346e+002, 7.891338e+003
1.729167e+002, 7.947814e+003
1.733988e+002, 8.005788e+003
1.738810e+002, 8.059880e+003
1.743631e+002, 8.112503e+003
1.748452e+002, 8.170131e+003
1.753273e+002, 8.236653e+003
1.758094e+002, 8.310726e+003
1.762915e+002, 8.383755e+003
1.767737e+002, 8.455339e+003
1.772558e+002, 8.526702e+003
1.777379e+002, 8.599747e+003
1.782200e+002, 8.673946e+003
1.787021e+002, 8.746862e+003
1.791842e+002, 8.818187e+003
1.796664e+002, 8.886537e+003
1.801485e+002, 8.950294e+003
1.806306e+002, 9.009594e+003
1.811127e+002, 9.063754e+003
1.815948e+002, 9.111597e+003
1.820769e+002, 9.153203e+003
1.825591e+002, 9.187618e+003
1.830412e+002, 9.211688e+003
1.835233e+002, 9.228753e+003
1.840054e+002, 9.241624e+003
1.844875e+002, 9.251766e+003
1.849696e+002, 9.257211e+003
1.854518e+002, 9.256160e+003
1.859339e+002, 9.253018e+003
1.864160e+002, 9.231432e+003
1.868981e+002, 9.183197e+003
1.873802e+002, 9.116991e+003
1.878623e+002, 9.042557e+003
1.883445e+002, 8.966328e+003
1.888266e+002, 8.883507e+003
1.893087e+002, 8.779295e+003
1.897908e+002, 8.646790e+003
1.902729e+002, 8.497389e+003
1.907550e+002, 8.331908e+003
1.912372e+002, 8.153837e+003
1.917193e+002, 7.967282e+003
1.922014e+002, 7.773964e+003
1.926835e+002, 7.575017e+003
1.931656e+002, 7.380147e+003
1.936477e+002, 7.189020e+003
1.941299e+002, 7.004131e+003
1.946120e+002, 6.824983e+003
1.950941e+002, 6.652315e+003
1.955762e+002, 6.488470e+003
1.960583e+002, 6.334707e+003
1.965404e+002, 6.190982e+003
1.970226e+002, 6.057609e+003
1.975047e+002, 5.935107e+003
1.979868e+002, 5.821795e+003
1.984689e+002, 5.718082e+003
1.989510e+002, 5.623578e+003
1.994331e+002, 5.538756e+003
1.999153e+002, 5.464025e+003
2.003974e+002, 5.399318e+003
2.008795e+002, 5.337949e+003
2.013616e+002, 5.275637e+003
2.018437e+002, 5.219724e+003
2.023258e+002, 5.175802e+003
2.028080e+002, 5.141772e+003
2.032901e+002, 5.109339e+003
2.037722e+002, 5.071733e+003
2.042543e+002, 5.029993e+003
2.047364e+002, 4.994515e+003
2.052185e+002, 4.966092e+003
2.057007e+002, 4.942605e+003
2.061828e+002, 4.923456e+003
2.066649e+002, 4.908546e+003
2.071470e+002, 4.897526e+003
2.076291e+002, 4.890970e+003
2.081112e+002, 4.888611e+003
2.085934e+002, 4.887102e+003
2.090755e+002, 4.885674e+003
2.095576e+002, 4.885550e+003
2.100397e+002, 4.887717e+003
2.105218e+002, 4.892204e+003
2.110039e+002, 4.898729e+003
2.114861e+002, 4.907298e+003
2.119682e+002, 4.917944e+003
2.124503e+002, 4.931013e+003
2.129324e+002, 4.948263e+003
2.134145e+002, 4.966722e+003
2.138967e+002, 4.982681e+003
2.143788e+002, 4.995801e+003
2.148609e+002, 5.007979e+003
2.153430e+002, 5.017775e+003
2.158251e+002, 5.027865e+003
2.163072e+002, 5.042309e+003
2.167894e+002, 5.064140e+003
2.172715e+002, 5.089464e+003
2.177536e+002, 5.112141e+003
2.182357e+002, 5.132135e+003
2.187178e+002, 5.149242e+003
2.191999e+002, 5.161308e+003
2.196821e+002, 5.171432e+003
2.201642e+002, 5.183476e+003
2.206463e+002, 5.199997e+003
2.211284e+002, 5.218035e+003
2.216105e+002, 5.230232e+003
2.220926e+002, 5.232454e+003
2.225748e+002, 5.237279e+003
2.230569e+002, 5.252527e+003
2.235390e+002, 5.270716e+003
2.240211e+002, 5.283542e+003
2.245032e+002, 5.286936e+003
2.249853e+002, 5.283407e+003
2.254675e+002, 5.279591e+003
2.259496e+002, 5.274787e+003
2.264317e+002, 5.271043e+003
2.269138e+002, 5.269472e+003
2.273959e+002, 5.268788e+003
2.278780e+002, 5.267720e+003
2.283602e+002, 5.265656e+003
2.288423e+002, 5.262635e+003
2.293244e+002, 5.258785e+003
2.298065e+002, 5.253508e+003
2.302886e+002, 5.247983e+003
2.307707e+002, 5.243565e+003
2.312529e+002, 5.238468e+003
2.317350e+002, 5.230483e+003
2.322171e+002, 5.218507e+003
2.326992e+002, 5.203435e+003
2.331813e+002, 5.188255e+003
2.336634e+002, 5.173259e+003
2.341456e+002, 5.157515e+003
2.346277e+002, 5.141081e+003
2.351098e+002, 5.123792e+003
2.355919e+002, 5.105194e+003
2.360740e+002, 5.085077e+003
2.365561e+002, 5.064114e+003
2.370383e+002, 5.044249e+003
2.375204e+002, 5.026555e+003
2.380025e+002, 5.009031e+003
2.384846e+002, 4.991229e+003
2.389667e+002, 4.973712e+003
2.394488e+002, 4.957977e+003
2.399310e+002, 4.944667e+003
2.404131e+002, 4.931964e+003
2.408952e+002, 4.915019e+003
2.413773e+002, 4.889177e+003
2.418594e+002, 4.865422e+003
2.423415e+002, 4.845230e+003
2.428237e+002, 4.827586e+003
2.433058e+002, 4.811745e+003
2.437879e+002, 4.797464e+003
2.442700e+002, 4.783778e+003
2.447521e+002, 4.768441e+003
2.452342e+002, 4.751257e+003
2.457164e+002, 4.732882e+003
2.461985e+002, 4.713446e+003
2.466806e+002, 4.692737e+003
2.471627e+002, 4.669481e+003
2.476448e+002, 4.642632e+003
2.481269e+002, 4.615720e+003
2.486091e+002, 4.595170e+003
2.490912e+002, 4.581833e+003
2.495733e+002, 4.570063e+003
2.500554e+002, 4.560537e+003
2.505375e+002, 4.551361e+003
2.510196e+002, 4.539339e+003
2.515018e+002, 4.523354e+003
2.519839e+002, 4.505881e+003
2.524660e+002, 4.489858e+003
2.529481e+002, 4.474877e+003
2.534302e+002, 4.463045e+003
2.539123e+002, 4.456204e+003
2.543945e+002, 4.452539e+003
2.548766e+002, 4.449796e+003
2.553587e+002, 4.447911e+003
2.558408e+002, 4.445526e+003
2.563229e+002, 4.439966e+003
2.568051e+002, 4.431704e+003
2.572872e+002, 4.424970e+003
2.577693e+002, 4.420667e+003
2.582514e+002, 4.418632e+003
2.587335e+002, 4.418771e+003
2.592156e+002, 4.421217e+003
2.596978e+002, 4.425133e+003
2.601799e+002, 4.430548e+003
2.606620e+002, 4.436964e+003
2.611441e+002, 4.442717e+003
2.616262e+002, 4.446257e+003
2.621083e+002, 4.449081e+003
2.625905e+002, 4.454298e+003
2.630726e+002, 4.462890e+003
2.635547e+002, 4.470755e+003
2.640368e+002, 4.473114e+003
2.645189e+002, 4.472315e+003
2.650010e+002, 4.472924e+003
2.654832e+002, 4.476445e+003
2.659653e+002, 4.482229e+003
2.664474e+002, 4.490271e+003
2.669295e+002, 4.501688e+003
2.674116e+002, 4.511308e+003
2.678937e+002, 4.514729e+003
2.683759e+002, 4.514596e+003
2.688580e+002, 4.513906e+003
2.693401e+002, 4.512376e+003
2.698222e+002, 4.511842e+003
2.703043e+002, 4.515925e+003
2.707864e+002, 4.525862e+003
2.712686e+002, 4.535077e+003
2.717507e+002, 4.538743e+003
2.722328e+002, 4.540532e+003
2.727149e+002, 4.544325e+003
2.731970e+002, 4.551561e+003
2.736791e+002, 4.560292e+003
2.741613e+002, 4.568263e+003
2.746434e+002, 4.575636e+003
2.751255e+002, 4.581637e+003
2.756076e+002, 4.582003e+003
2.760897e+002, 4.582854e+003
2.765718e+002, 4.590559e+003
2.770540e+002, 4.607382e+003
2.775361e+002, 4.625947e+003
2.780182e+002, 4.637356e+003
2.785003e+002, 4.640618e+003
2.789824e+002, 4.643456e+003
2.794645e+002, 4.645234e+003
2.799467e+002, 4.649109e+003
2.804288e+002, 4.658269e+003
2.809109e+002, 4.673105e+003
2.813930e+002, 4.689466e+003
2.818751e+002, 4.703777e+003
2.823572e+002, 4.716050e+003
2.828394e+002, 4.725842e+003
2.833215e+002, 4.727697e+003
2.838036e+002, 4.731437e+003
2.842857e+002, 4.744346e+003
2.847678e+002, 4.765674e+003
2.852499e+002, 4.787917e+003
2.857321e+002, 4.802871e+003
2.862142e+002, 4.810163e+003
2.866963e+002, 4.822758e+003
2.871784e+002, 4.846655e+003
2.876605e+002, 4.870599e+003
2.881426e+002, 4.887409e+003
2.886248e+002, 4.899149e+003
2.891069e+002, 4.912926e+003
2.895890e+002, 4.935057e+003
2.900711e+002, 4.964832e+003
2.905532e+002, 4.992524e+003
2.910353e+002, 5.019336e+003
2.915175e+002, 5.042121e+003
2.919996e+002, 5.057755e+003
2.924817e+002, 5.069010e+003
2.929638e+002, 5.080725e+003
2.934459e+002, 5.095659e+003
2.939280e+002, 5.113528e+003
2.944102e+002, 5.132544e+003
2.948923e+002, 5.152970e+003
2.953744e+002, 5.174532e+003
2.958565e+002, 5.198035e+003
2.963386e+002, 5.222290e+003
2.968207e+002, 5.245992e+003
2.973029e+002, 5.268712e+003
2.977850e+002, 5.289893e+003
2.982671e+002, 5.307450e+003
2.987492e+002, 5.319048e+003
2.992313e+002, 5.331872e+003
2.997134e+002, 5.350965e+003
3.001956e+002, 5.370246e+003
3.006777e+002, 5.383259e+003
3.011598e+002, 5.387800e+003
3.016419e+002, 5.388230e+003
3.021240e+002, 5.392701e+003
3.026061e+002, 5.404499e+003
3.030883e+002, 5.410741e+003
3.035704e+002, 5.407471e+003
3.040525e+002, 5.399766e+003
3.045346e+002, 5.390253e+003
3.050167e+002, 5.379586e+003
3.054988e+002, 5.367588e+003
3.059810e+002, 5.354810e+003
3.064631e+002, 5.342229e+003
3.069452e+002, 5.324125e+003
3.074273e+002, 5.293467e+003
3.079094e+002, 5.262384e+003
3.083915e+002, 5.237097e+003
3.088737e+002, 5.217103e+003
3.093558e+002, 5.197219e+003
3.098379e+002, 5.171360e+003
3.103200e+002, 5.138765e+003
3.108021e+002, 5.113772e+003
3.112842e+002, 5.102458e+003
3.117664e+002, 5.093167e+003
3.122485e+002, 5.083861e+003
3.127306e+002, 5.073404e+003
3.132127e+002, 5.059634e+003
3.136948e+002, 5.039775e+003
3.141769e+002, 5.015612e+003
3.146591e+002, 4.997999e+003
3.151412e+002, 4.990149e+003
3.156233e+002, 4.985113e+003
3.161054e+002, 4.981631e+003
3.165875e+002, 4.979224e+003
3.170696e+002, 4.977502e+003
3.175518e+002, 4.976398e+003
3.180339e+002, 4.975600e+003
3.185160e+002, 4.973761e+003
3.189981e+002, 4.968561e+003
3.194802e+002, 4.967494e+003
3.199623e+002, 4.973377e+003
3.204445e+002, 4.982827e+003
3.209266e+002, 4.992503e+003
3.214087e+002, 5.001441e+003
3.218908e+002, 5.012019e+003
3.223729e+002, 5.028632e+003
3.228550e+002, 5.053558e+003
3.233372e+002, 5.076616e+003
3.238193e+002, 5.090995e+003
3.243014e+002, 5.107147e+003
3.247835e+002, 5.132563e+003
3.252656e+002, 5.167241e+003
3.257477e+002, 5.204697e+003
3.262299e+002, 5.237774e+003
3.267120e+002, 5.265599e+003
3.271941e+002, 5.296683e+003
3.276762e+002, 5.328663e+003
3.281583e+002, 5.367088e+003
3.286404e+002, 5.415351e+003
3.291226e+002, 5.472165e+003
3.296047e+002, 5.533953e+003
3.300868e+002, 5.598354e+003
3.305689e+002, 5.665531e+003
3.310510e+002, 5.736815e+003
3.315331e+002, 5.812756e+003
3.320153e+002, 5.892526e+003
3.324974e+002, 5.976329e+003
3.329795e+002, 6.063006e+003
3.334616e+002, 6.151228e+003
3.339437e+002, 6.240845e+003
3.344258e+002, 6.331152e+003
3.349080e+002, 6.420932e+003
3.353901e+002, 6.513329e+003
3.358722e+002, 6.597949e+003
3.363543e+002, 6.669319e+003
3.368365e+002, 6.734027e+003
3.373186e+002, 6.799031e+003
3.378007e+002, 6.866444e+003
3.382828e+002, 6.928419e+003
3.387649e+002, 6.973013e+003
3.392470e+002, 6.997571e+003
3.397292e+002, 7.023568e+003
3.402113e+002, 7.060923e+003
3.406934e+002, 7.095816e+003
3.411755e+002, 7.118548e+003
3.416576e+002, 7.129074e+003
3.421397e+002, 7.135040e+003
3.426219e+002, 7.141630e+003
3.431040e+002, 7.148650e+003
3.435861e+002, 7.154789e+003
3.440682e+002, 7.159131e+003
3.445503e+002, 7.163400e+003
3.450324e+002, 7.167413e+003
3.455146e+002, 7.171942e+003
3.459967e+002, 7.179101e+003
3.464788e+002, 7.191286e+003
3.469609e+002, 7.206383e+003
3.474430e+002, 7.219224e+003
3.479251e+002, 7.229337e+003
3.484073e+002, 7.238576e+003
3.488894e+002, 7.248436e+003
3.493715e+002, 7.257938e+003
3.498536e+002, 7.266917e+003
3.503357e+002, 7.277608e+003
3.508178e+002, 7.283232e+003
3.513000e+002, 7.273308e+003
3.517821e+002, 7.247142e+003
3.522642e+002, 7.221326e+003
3.527463e+002, 7.205624e+003
3.532284e+002, 7.189138e+003
3.537105e+002, 7.161126e+003
3.541927e+002, 7.120557e+003
3.546748e+002, 7.072874e+003
3.551569e+002, 7.017629e+003
3.556390e+002, 6.957157e+003
3.561211e+002, 6.901846e+003
3.566032e+002, 6.855134e+003
3.570854e+002, 6.811264e+003
3.575675e+002, 6.764012e+003
3.580496e+002, 6.714004e+003
3.585317e+002, 6.666211e+003
3.590138e+002, 6.622457e+003
3.594959e+002, 6.581906e+003
3.599781e+002, 6.541902e+003
3.604602e+002, 6.501910e+003
3.609423e+002, 6.466225e+003
3.614244e+002, 6.436592e+003
3.619065e+002, 6.414420e+003
3.623886e+002, 6.403223e+003
3.628708e+002, 6.408564e+003
3.633529e+002, 6.419946e+003
3.638350e+002, 6.428808e+003
3.643171e+002, 6.435861e+003
3.647992e+002, 6.446748e+003
3.652813e+002, 6.465493e+003
3.657635e+002, 6.487878e+003
3.662456e+002, 6.506220e+003
3.667277e+002, 6.520778e+003
3.672098e+002, 6.530882e+003
3.676919e+002, 6.535158e+003
3.681740e+002, 6.534932e+003
3.686562e+002, 6.533096e+003
3.691383e+002, 6.530636e+003
3.696204e+002, 6.525252e+003
3.701025e+002, 6.514210e+003
3.705846e+002, 6.497634e+003
3.710667e+002, 6.475178e+003
3.715489e+002, 6.446022e+003
3.720310e+002, 6.411396e+003
3.725131e+002, 6.371644e+003
3.729952e+002, 6.326996e+003
3.734773e+002, 6.279344e+003
3.739594e+002, 6.229019e+003
3.744416e+002, 6.176494e+003
3.749237e+002, 6.129606e+003
3.754058e+002, 6.092144e+003
3.758879e+002, 6.055644e+003
3.763700e+002, 6.015784e+003
3.768521e+002, 5.974397e+003
3.773343e+002, 5.935707e+003
3.778164e+002, 5.901553e+003
3.782985e+002, 5.871116e+003
3.787806e+002, 5.842624e+003
3.792627e+002, 5.815749e+003
3.797448e+002, 5.791413e+003
3.802270e+002, 5.771061e+003
3.807091e+002, 5.752593e+003
3.811912e+002, 5.733528e+003
3.816733e+002, 5.713524e+003
3.821554e+002, 5.694695e+003
3.826375e+002, 5.679444e+003
3.831197e+002, 5.668762e+003
3.836018e+002, 5.656761e+003
3.840839e+002, 5.645335e+003
3.845660e+002, 5.631107e+003
3.850481e+002, 5.611438e+003
3.855302e+002, 5.587603e+003
3.860124e+002, 5.562901e+003
3.864945e+002, 5.539469e+003
3.869766e+002, 5.516949e+003
3.874587e+002, 5.493089e+003
3.879408e+002, 5.465722e+003
3.884229e+002, 5.439581e+003
3.889051e+002, 5.417873e+003
3.893872e+002, 5.396403e+003
3.898693e+002, 5.370341e+003
3.903514e+002, 5.338303e+003
3.908335e+002, 5.302952e+003
3.913156e+002, 5.269159e+003
3.917978e+002, 5.239121e+003
3.922799e+002, 5.204358e+003
3.927620e+002, 5.159717e+003
3.932441e+002, 5.114825e+003
3.937262e+002, 5.074922e+003
3.942083e+002, 5.039264e+003
3.946905e+002, 5.003446e+003
3.951726e+002, 4.962323e+003
3.956547e+002, 4.917167e+003
3.961368e+002, 4.881814e+003
3.966189e+002, 4.863587e+003
3.971010e+002, 4.845278e+003
3.975832e+002, 4.821512e+003
3.980653e+002, 4.794408e+003
3.985474e+002, 4.766272e+003
3.990295e+002, 4.737474e+003
3.995116e+002, 4.709841e+003
3.999937e+002, 4.686540e+003
4.004759e+002, 4.668205e+003
4.009580e+002, 4.651066e+003
4.014401e+002, 4.633425e+003
4.019222e+002, 4.617563e+003
4.024043e+002, 4.606451e+003
4.028864e+002, 4.599835e+003
4.033686e+002, 4.592468e+003
4.038507e+002, 4.577733e+003
4.043328e+002, 4.558366e+003
4.048149e+002, 4.547366e+003
4.052970e+002, 4.548757e+003
4.057791e+002, 4.552051e+003
4.062613e+002, 4.548900e+003
4.067434e+002, 4.542412e+003
4.072255e+002, 4.539128e+003
4.077076e+002, 4.543620e+003
4.081897e+002, 4.549671e+003
4.086718e+002, 4.548493e+003
4.091540e+002, 4.540457e+003
4.096361e+002, 4.536671e+003
4.101182e+002, 4.544002e+003
4.106003e+002, 4.556513e+003
4.110824e+002, 4.563179e+003
4.115645e+002, 4.562337e+003
4.120467e+002, 4.562575e+003
4.125288e+002, 4.569128e+003
4.130109e+002, 4.578860e+003
4.134930e+002, 4.584937e+003
4.139751e+002, 4.585443e+003
4.144572e+002, 4.587594e+003
4.149394e+002, 4.600263e+003
4.154215e+002, 4.624023e+003
4.159036e+002, 4.642706e+003
4.163857e+002, 4.649055e+003
4.168678e+002, 4.655800e+003
4.173499e+002, 4.672282e+003
4.178321e+002, 4.696595e+003
4.183142e+002, 4.721718e+003
4.187963e+002, 4.744130e+003
4.192784e+002, 4.763697e+003
4.197605e+002, 4.779490e+003
4.202426e+002, 4.787659e+003
4.207248e+002, 4.797615e+003
4.212069e+002, 4.810754e+003
4.216890e+002, 4.825977e+003
4.221711e+002, 4.843012e+003
4.226532e+002, 4.861430e+003
4.231353e+002, 4.879343e+003
4.236175e+002, 4.894201e+003
4.240996e+002, 4.904942e+003
4.245817e+002, 4.918098e+003
4.250638e+002, 4.934561e+003
4.255459e+002, 4.952159e+003
4.260280e+002, 4.971036e+003
4.265102e+002, 4.990315e+003
4.269923e+002, 5.008627e+003
4.274744e+002, 5.025149e+003
4.279565e+002, 5.040128e+003
4.284386e+002, 5.054147e+003
4.289207e+002, 5.068089e+003
4.294029e+002, 5.079280e+003
4.298850e+002, 5.085023e+003
4.303671e+002, 5.089848e+003
4.308492e+002, 5.097929e+003
4.313313e+002, 5.109668e+003
4.318134e+002, 5.121317e+003
4.322956e+002, 5.129432e+003
4.327777e+002, 5.134018e+003
4.332598e+002, 5.135239e+003
4.337419e+002, 5.131108e+003
4.342241e+002, 5.125963e+003
4.347062e+002, 5.121785e+003
4.351883e+002, 5.118173e+003
4.356704e+002, 5.114665e+003
4.361525e+002, 5.112032e+003
4.366346e+002, 5.108056e+003
4.371168e+002, 5.098789e+003
4.375989e+002, 5.083907e+003
4.380810e+002, 5.067563e+003
4.385631e+002, 5.051903e+003
4.390452e+002, 5.034726e+003
4.395273e+002, 5.012786e+003
4.400095e+002, 4.985527e+003
4.404916e+002, 4.959109e+003
4.409737e+002, 4.936993e+003
4.414558e+002, 4.917941e+003
4.419379e+002, 4.899878e+003
4.424200e+002, 4.882592e+003
4.429022e+002, 4.865532e+003
4.433843e+002, 4.848681e+003
4.438664e+002, 4.831623e+003
4.443485e+002, 4.812122e+003
4.448306e+002, 4.788450e+003
4.453127e+002, 4.763786e+003
4.457949e+002, 4.737305e+003
4.462770e+002, 4.711072e+003
4.467591e+002, 4.690897e+003
4.472412e+002, 4.679542e+003
4.477233e+002, 4.673405e+003
4.482054e+002, 4.665638e+003
4.486876e+002, 4.654292e+003
4.491697e+002, 4.645886e+003
4.496518e+002, 4.644694e+003
4.501339e+002, 4.643682e+003
4.506160e+002, 4.635994e+003
4.510981e+002, 4.622526e+003
4.515803e+002, 4.609811e+003
4.520624e+002, 4.603200e+003
4.525445e+002, 4.602339e+003
4.530266e+002, 4.602767e+003
4.535087e+002, 4.608058e+003
4.539908e+002, 4.610424e+003
4.544730e+002, 4.608441e+003
4.549551e+002, 4.603046e+003
4.554372e+002, 4.595116e+003
4.559193e+002, 4.585001e+003
4.564014e+002, 4.572895e+003
4.568835e+002, 4.559363e+003
4.573657e+002, 4.544890e+003
4.578478e+002, 4.526659e+003
4.583299e+002, 4.500241e+003
4.588120e+002, 4.474038e+003
4.592941e+002, 4.451555e+003
4.597762e+002, 4.432052e+003
4.602584e+002, 4.413637e+003
4.607405e+002, 4.396638e+003
4.612226e+002, 4.378515e+003
4.617047e+002, 4.352573e+003
4.621868e+002, 4.316952e+003
4.626689e+002, 4.282038e+003
4.631511e+002, 4.252491e+003
4.636332e+002, 4.224622e+003
4.641153e+002, 4.194396e+003
4.645974e+002, 4.161202e+003
4.650795e+002, 4.128667e+003
4.655616e+002, 4.098509e+003
4.660438e+002, 4.070556e+003
4.665259e+002, 4.044184e+003
4.670080e+002, 4.019521e+003
4.674901e+002, 3.996042e+003
4.679722e+002, 3.973357e+003
4.684543e+002, 3.951653e+003
4.689365e+002, 3.931235e+003
4.694186e+002, 3.912873e+003
4.699007e+002, 3.895031e+003
4.703828e+002, 3.877216e+003
4.708649e+002, 3.859445e+003
4.713470e+002, 3.841700e+003
4.718292e+002, 3.823945e+003
4.723113e+002, 3.806382e+003
4.727934e+002, 3.789124e+003
4.732755e+002, 3.772112e+003
4.737576e+002, 3.756042e+003
4.742397e+002, 3.739607e+003
4.747219e+002, 3.725175e+003
4.752040e+002, 3.715305e+003
4.756861e+002, 3.708769e+003
4.761682e+002, 3.702234e+003
4.766503e+002, 3.693669e+003
4.771324e+002, 3.683323e+003
4.776146e+002, 3.672154e+003
4.780967e+002, 3.657988e+003
4.785788e+002, 3.646508e+003
4.790609e+002, 3.639776e+003
4.795430e+002, 3.634568e+003
4.800251e+002, 3.628405e+003
4.805073e+002, 3.620993e+003
4.809894e+002, 3.613463e+003
4.814715e+002, 3.606845e+003
4.819536e+002, 3.601125e+003
4.824357e+002, 3.596000e+003
4.829178e+002, 3.591975e+003
4.834000e+002, 3.587659e+003
4.838821e+002, 3.582914e+003
4.843642e+002, 3.577376e+003
4.848463e+002, 3.570264e+003
4.853284e+002, 3.560936e+003
4.858105e+002, 3.551287e+003
4.862927e+002, 3.541168e+003
4.867748e+002, 3.531484e+003
4.872569e+002, 3.529318e+003
4.877390e+002, 3.539208e+003
4.882211e+002, 3.550670e+003
4.887032e+002, 3.551318e+003
4.891854e+002, 3.543055e+003
4.896675e+002, 3.535377e+003
4.901496e+002, 3.528611e+003
4.906317e+002, 3.524310e+003
4.911138e+002, 3.526390e+003
4.915959e+002, 3.532722e+003
4.920781e+002, 3.534839e+003
4.925602e+002, 3.528098e+003
4.930423e+002, 3.516682e+003
4.935244e+002, 3.509657e+003
4.940065e+002, 3.509016e+003
4.944886e+002, 3.509288e+003
4.949708e+002, 3.511842e+003
4.954529e+002, 3.514051e+003
4.959350e+002, 3.513165e+003
4.964171e+002, 3.509735e+003
4.968992e+002, 3.506873e+003
4.973813e+002, 3.507092e+003
4.978635e+002, 3.509712e+003
4.983456e+002, 3.510553e+003
4.988277e+002, 3.507640e+003
4.993098e+002, 3.505781e+003
4.997919e+002, 3.505334e+003
5.002740e+002, 3.506309e+003
5.007562e+002, 3.509960e+003
5.012383e+002, 3.515945e+003
5.017204e+002, 3.520540e+003
5.022025e+002, 3.519407e+003
5.026846e+002, 3.513064e+003
5.031667e+002, 3.507139e+003
5.036489e+002, 3.501925e+003
5.041310e+002, 3.496929e+003
5.046131e+002, 3.490727e+003
5.050952e+002, 3.484975e+003
5.055773e+002, 3.482569e+003
5.060594e+002, 3.485161e+003
5.065416e+002, 3.488757e+003
5.070237e+002, 3.490653e+003
5.075058e+002, 3.490940e+003
5.079879e+002, 3.489918e+003
5.084700e+002, 3.487650e+003
5.089521e+002, 3.484013e+003
5.094343e+002, 3.477877e+003
5.099164e+002, 3.469311e+003
5.103985e+002, 3.463799e+003
5.108806e+002, 3.464309e+003
5.113627e+002, 3.465404e+003
5.118448e+002, 3.463658e+003
5.123270e+002, 3.460168e+003
5.128091e+002, 3.458000e+003
5.132912e+002, 3.458559e+003
5.137733e+002, 3.459814e+003
5.142554e+002, 3.457773e+003
5.147375e+002, 3.449825e+003
5.152197e+002, 3.444814e+003
5.157018e+002, 3.443557e+003
5.161839e+002, 3.444042e+003
5.166660e+002, 3.446206e+003
5.171481e+002, 3.449210e+003
5.176302e+002, 3.451272e+003
5.181124e+002, 3.451062e+003
5.185945e+002, 3.449952e+003
5.190766e+002, 3.451996e+003
5.195587e+002, 3.458540e+003
5.200408e+002, 3.463578e+003
5.205229e+002, 3.465224e+003
5.210051e+002, 3.465164e+003
5.214872e+002, 3.463020e+003
5.219693e+002, 3.459477e+003
5.224514e+002, 3.458156e+003
5.229335e+002, 3.462994e+003
5.234156e+002, 3.470846e+003
5.238978e+002, 3.476016e+003
5.243799e+002, 3.478427e+003
5.248620e+002, 3.479420e+003
5.253441e+002, 3.479708e+003
5.258262e+002, 3.478960e+003
5.263083e+002, 3.476374e+003
5.267905e+002, 3.471493e+003
5.272726e+002, 3.466824e+003
5.277547e+002, 3.460870e+003
5.282368e+002, 3.456892e+003
5.287189e+002, 3.460129e+003
5.292010e+002, 3.470125e+003
5.296832e+002, 3.480358e+003
5.301653e+002, 3.486016e+003
5.306474e+002, 3.487651e+003
5.311295e+002, 3.489343e+003
5.316116e+002, 3.489388e+003
5.320938e+002, 3.491583e+003
5.325759e+002, 3.497607e+003
5.330580e+002, 3.504942e+003
5.335401e+002, 3.511520e+003
5.340222e+002, 3.516900e+003
5.345043e+002, 3.521811e+003
5.349865e+002, 3.527206e+003
5.354686e+002, 3.532866e+003
5.359507e+002, 3.535960e+003
5.364328e+002, 3.534107e+003
5.369149e+002, 3.534245e+003
5.373970e+002, 3.539363e+003
5.378792e+002, 3.547470e+003
5.383613e+002, 3.558218e+003
5.388434e+002, 3.572136e+003
5.393255e+002, 3.582198e+003
5.398076e+002, 3.579659e+003
5.402897e+002, 3.569513e+003
5.407719e+002, 3.564414e+003
5.412540e+002, 3.565808e+003
5.417361e+002, 3.573111e+003
5.422182e+002, 3.588434e+003
5.427003e+002, 3.609536e+003
5.431824e+002, 3.625358e+003
5.436646e+002, 3.634378e+003
5.441467e+002, 3.640178e+003
5.446288e+002, 3.640773e+003
5.451109e+002, 3.640216e+003
5.455930e+002, 3.644984e+003
5.460751e+002, 3.655995e+003
5.465573e+002, 3.667294e+003
5.470394e+002, 3.672150e+003
5.475215e+002, 3.670202e+003
5.480036e+002, 3.674688e+003
5.484857e+002, 3.692913e+003
5.489678e+002, 3.709513e+003
5.494500e+002, 3.720221e+003
5.499321e+002, 3.728644e+003
5.504142e+002, 3.739041e+003
5.508963e+002, 3.752460e+003
5.513784e+002, 3.766475e+003
5.518605e+002, 3.779323e+003
5.523427e+002, 3.790850e+003
5.528248e+002, 3.798110e+003
5.533069e+002, 3.798480e+003
5.537890e+002, 3.799773e+003
5.542711e+002, 3.806037e+003
5.547532e+002, 3.816109e+003
5.552354e+002, 3.829538e+003
5.557175e+002, 3.848071e+003
5.561996e+002, 3.865010e+003
5.566817e+002, 3.875376e+003
5.571638e+002, 3.881252e+003
5.576459e+002, 3.886617e+003
5.581281e+002, 3.892164e+003
5.586102e+002, 3.897855e+003
5.590923e+002, 3.903667e+003
5.595744e+002, 3.909614e+003
5.600565e+002, 3.915612e+003
5.605386e+002, 3.919578e+003
5.610208e+002, 3.926120e+003
5.615029e+002, 3.938275e+003
5.619850e+002, 3.952639e+003
5.624671e+002, 3.966445e+003
5.629492e+002, 3.978556e+003
5.634313e+002, 3.987297e+003
5.639135e+002, 3.989409e+003
5.643956e+002, 3.985166e+003
5.648777e+002, 3.989369e+003
5.653598e+002, 4.008946e+003
5.658419e+002, 4.026064e+003
5.663240e+002, 4.034645e+003
5.668062e+002, 4.038709e+003
5.672883e+002, 4.040933e+003
5.677704e+002, 4.041785e+003
5.682525e+002, 4.045637e+003
5.687346e+002, 4.056956e+003
5.692167e+002, 4.073877e+003
5.696989e+002, 4.092160e+003
5.701810e+002, 4.112000e+003
5.706631e+002, 4.129327e+003
5.711452e+002, 4.140621e+003
5.716273e+002, 4.147716e+003
5.721094e+002, 4.156572e+003
5.725916e+002, 4.166167e+003
5.730737e+002, 4.179151e+003
5.735558e+002, 4.199991e+003
5.740379e+002, 4.222401e+003
5.745200e+002, 4.238132e+003
5.750021e+002, 4.247229e+003
5.754843e+002, 4.256854e+003
5.759664e+002, 4.272852e+003
5.764485e+002, 4.294049e+003
5.769306e+002, 4.313289e+003
5.774127e+002, 4.328082e+003
5.778948e+002, 4.344800e+003
5.783770e+002, 4.368769e+003
5.788591e+002, 4.391281e+003
5.793412e+002, 4.403220e+003
5.798233e+002, 4.405615e+003
5.803054e+002, 4.409759e+003
5.807875e+002, 4.424839e+003
5.812697e+002, 4.447029e+003
5.817518e+002, 4.466949e+003
5.822339e+002, 4.484514e+003
5.827161e+002, 4.500888e+003
5.831982e+002, 4.516096e+003
5.836803e+002, 4.530653e+003
5.841624e+002, 4.544802e+003
5.846445e+002, 4.558354e+003
5.851266e+002, 4.574139e+003
5.856088e+002, 4.596114e+003
5.860909e+002, 4.618260e+003
5.865730e+002, 4.635263e+003
5.870551e+002, 4.647639e+003
5.875372e+002, 4.657728e+003
5.880193e+002, 4.666320e+003
5.885015e+002, 4.675500e+003
5.889836e+002, 4.690123e+003
5.894657e+002, 4.713485e+003
5.899478e+002, 4.735285e+003
5.904299e+002, 4.754819e+003
5.909120e+002, 4.773749e+003
5.913942e+002, 4.792370e+003
5.918763e+002, 4.810986e+003
5.923584e+002, 4.829868e+003
5.928405e+002, 4.849082e+003
5.933226e+002, 4.868900e+003
5.938047e+002, 4.891050e+003
5.942869e+002, 4.915460e+003
5.947690e+002, 4.934686e+003
5.952511e+002, 4.944661e+003
5.957332e+002, 4.954109e+003
5.962153e+002, 4.972220e+003
5.966974e+002, 4.996366e+003
5.971796e+002, 5.017737e+003
5.976617e+002, 5.031043e+003
5.981438e+002, 5.045652e+003
5.986259e+002, 5.067579e+003
5.991080e+002, 5.093995e+003
5.995901e+002, 5.120313e+003
6.000723e+002, 5.145339e+003
6.005544e+002, 5.170003e+003
6.010365e+002, 5.195503e+003
6.015186e+002, 5.221988e+003
6.020007e+002, 5.246307e+003
6.024828e+002, 5.266547e+003
6.029650e+002, 5.287122e+003
6.034471e+002, 5.308085e+003
6.039292e+002, 5.330187e+003
6.044113e+002, 5.354693e+003
6.048934e+002, 5.381548e+003
6.053755e+002, 5.409100e+003
6.058577e+002, 5.436293e+003
6.063398e+002, 5.463011e+003
6.068219e+002, 5.488842e+003
6.073040e+002, 5.513633e+003
6.077861e+002, 5.538207e+003
6.082682e+002, 5.562606e+003
6.087504e+002, 5.587306e+003
6.092325e+002, 5.614126e+003
6.097146e+002, 5.644217e+003
6.101967e+002, 5.669957e+003
6.106788e+002, 5.684108e+003
6.111609e+002, 5.697142e+003
6.116431e+002, 5.719222e+003
6.121252e+002, 5.748797e+003
6.126073e+002, 5.779039e+003
6.130894e+002, 5.806587e+003
6.135715e+002, 5.830975e+003
6.140536e+002, 5.850398e+003
6.145358e+002, 5.860862e+003
6.150179e+002, 5.876164e+003
6.155000e+002, 5.900082e+003
6.159821e+002, 5.925253e+003
6.164642e+002, 5.950822e+003
6.169464e+002, 5.975167e+003
6.174285e+002, 5.994548e+003
6.179106e+002, 6.006060e+003
6.183927e+002, 6.018460e+003
6.188748e+002, 6.045170e+003
6.193569e+002, 6.082754e+003
6.198391e+002, 6.112765e+003
6.203212e+002, 6.131485e+003
6.208033e+002, 6.145581e+003
6.212854e+002, 6.160192e+003
6.217675e+002, 6.174386e+003
6.222496e+002, 6.183569e+003
6.227318e+002, 6.180606e+003
6.232139e+002, 6.181949e+003
6.236960e+002, 6.196630e+003
6.241781e+002, 6.215028e+003
6.246602e+002, 6.225017e+003
6.251423e+002, 6.226663e+003
6.256245e+002, 6.230407e+003
6.261066e+002, 6.245383e+003
6.265887e+002, 6.268267e+003
6.270708e+002, 6.284286e+003
6.275529e+002, 6.291638e+003
6.280350e+002, 6.296347e+003
6.285172e+002, 6.296964e+003
6.289993e+002, 6.297387e+003
6.294814e+002, 6.300618e+003
6.299635e+002, 6.306225e+003
6.304456e+002, 6.311301e+003
6.309277e+002, 6.316638e+003
6.314099e+002, 6.319155e+003
6.318920e+002, 6.314529e+003
6.323741e+002, 6.303949e+003
6.328562e+002, 6.291940e+003
6.333383e+002, 6.279849e+003
6.338204e+002, 6.267264e+003
6.343026e+002, 6.253921e+003
6.347847e+002, 6.239993e+003
6.352668e+002, 6.223230e+003
6.357489e+002, 6.205687e+003
6.362310e+002, 6.183180e+003
6.367131e+002, 6.151884e+003
6.371953e+002, 6.116329e+003
6.376774e+002, 6.081771e+003
6.381595e+002, 6.049381e+003
6.386416e+002, 6.016953e+003
6.391237e+002, 5.982960e+003
6.396058e+002, 5.947243e+003
6.400880e+002, 5.907811e+003
6.405701e+002, 5.863892e+003
6.410522e+002, 5.819633e+003
6.415343e+002, 5.775894e+003
6.420164e+002, 5.733021e+003
6.424985e+002, 5.691704e+003
6.429807e+002, 5.652190e+003
6.434628e+002, 5.611526e+003
6.439449e+002, 5.567286e+003
6.444270e+002, 5.522812e+003
6.449091e+002, 5.480243e+003
6.453912e+002, 5.439528e+003
6.458734e+002, 5.400819e+003
6.463555e+002, 5.364424e+003
6.468376e+002, 5.327276e+003
6.473197e+002, 5.284270e+003
6.478018e+002, 5.232917e+003
6.482839e+002, 5.188870e+003
6.487661e+002, 5.155202e+003
6.492482e+002, 5.125276e+003
6.497303e+002, 5.097799e+003
6.502124e+002, 5.072425e+003
6.506945e+002, 5.049039e+003
6.511766e+002, 5.027699e+003
6.516588e+002, 5.007071e+003
6.521409e+002, 4.986497e+003
6.526230e+002, 4.966040e+003
6.531051e+002, 4.945089e+003
6.535872e+002, 4.923749e+003
6.540693e+002, 4.905368e+003
6.545515e+002, 4.892423e+003
6.550336e+002, 4.882445e+003
6.555157e+002, 4.869938e+003
6.559978e+002, 4.852544e+003
6.564799e+002, 4.838339e+003
6.569620e+002, 4.828057e+003
6.574442e+002, 4.820388e+003
6.579263e+002, 4.815650e+003
6.584084e+002, 4.812782e+003
6.588905e+002, 4.809883e+003
6.593726e+002, 4.806217e+003
6.598547e+002, 4.803097e+003
6.603369e+002, 4.802583e+003
6.608190e+002, 4.804489e+003
6.613011e+002, 4.805756e+003
6.617832e+002, 4.805124e+003
6.622653e+002, 4.806975e+003
6.627474e+002, 4.813956e+003
6.632296e+002, 4.825079e+003
6.637117e+002, 4.837833e+003
6.641938e+002, 4.852002e+003
6.646759e+002, 4.868563e+003
6.651580e+002, 4.890248e+003
6.656401e+002, 4.912672e+003
6.661223e+002, 4.930827e+003
6.666044e+002, 4.945932e+003
6.670865e+002, 4.961971e+003
6.675686e+002, 4.980968e+003
6.680507e+002, 5.003095e+003
6.685328e+002, 5.029446e+003
6.690150e+002, 5.061198e+003
6.694971e+002, 5.091939e+003
6.699792e+002, 5.118685e+003
6.704613e+002, 5.148239e+003
6.709434e+002, 5.184413e+003
6.714255e+002, 5.224720e+003
6.719077e+002, 5.265452e+003
6.723898e+002, 5.305571e+003
6.728719e+002, 5.347992e+003
6.733540e+002, 5.394712e+003
6.738361e+002, 5.444925e+003
6.743182e+002, 5.497898e+003
6.748004e+002, 5.553409e+003
6.752825e+002, 5.609635e+003
6.757646e+002, 5.665156e+003
6.762467e+002, 5.721634e+003
6.767288e+002, 5.783912e+003
6.772109e+002, 5.857268e+003
6.776931e+002, 5.924642e+003
6.781752e+002, 5.981328e+003
6.786573e+002, 6.037663e+003
6.791394e+002, 6.094704e+003
6.796215e+002, 6.155191e+003
6.801036e+002, 6.224015e+003
6.805858e+002, 6.303040e+003
6.810679e+002, 6.382976e+003
6.815500e+002, 6.453620e+003
6.820321e+002, 6.517544e+003
6.825142e+002, 6.584327e+003
6.829963e+002, 6.654657e+003
6.834785e+002, 6.721038e+003
6.839606e+002, 6.778176e+003
6.844427e+002, 6.830376e+003
6.849248e+002, 6.888307e+003
6.854069e+002, 6.953356e+003
6.858890e+002, 7.021029e+003
6.863712e+002, 7.090366e+003
6.868533e+002, 7.163116e+003
6.873354e+002, 7.240373e+003
6.878175e+002, 7.322056e+003
6.882996e+002, 7.406720e+003
6.887817e+002, 7.493961e+003
6.892639e+002, 7.589317e+003
6.897460e+002, 7.699570e+003
6.902281e+002, 7.824189e+003
6.907102e+002, 7.954104e+003
6.911923e+002, 8.086927e+003
6.916744e+002, 8.232150e+003
6.921566e+002, 8.391432e+003
6.926387e+002, 8.567823e+003
6.931208e+002, 8.764662e+003
6.936029e+002, 8.983075e+003
6.940850e+002, 9.215146e+003
6.945671e+002, 9.461053e+003
6.950493e+002, 9.718367e+003
6.955314e+002, 9.985303e+003
6.960135e+002, 1.026236e+004
6.964956e+002, 1.055426e+004
6.969777e+002, 1.086145e+004
6.974598e+002, 1.117489e+004
6.979420e+002, 1.148208e+004
6.984241e+002, 1.178312e+004
6.989062e+002, 1.208216e+004
6.993883e+002, 1.238102e+004
6.998704e+002, 1.267258e+004
7.003525e+002, 1.295653e+004
7.008347e+002, 1.322607e+004
7.013168e+002, 1.347475e+004
7.017989e+002, 1.370128e+004
7.022810e+002, 1.390606e+004
7.027631e+002, 1.409908e+004
7.032452e+002, 1.425896e+004
7.037274e+002, 1.437134e+004
7.042095e+002, 1.443801e+004
7.046916e+002, 1.446226e+004
7.051737e+002, 1.444544e+004
7.056558e+002, 1.438983e+004
7.061379e+002, 1.429843e+004
7.066201e+002, 1.417099e+004
7.071022e+002, 1.400347e+004
7.075843e+002, 1.379376e+004
7.080664e+002, 1.354724e+004
7.085485e+002, 1.325461e+004
7.090306e+002, 1.293255e+004
7.095128e+002, 1.259656e+004
7.099949e+002, 1.224560e+004
7.104770e+002, 1.188208e+004
7.109591e+002, 1.149652e+004
7.114412e+002, 1.110782e+004
7.119233e+002, 1.073265e+004
7.124055e+002, 1.036470e+004
7.128876e+002, 9.992750e+003
7.133697e+002, 9.616519e+003
7.138518e+002, 9.246253e+003
7.143339e+002, 8.893042e+003
7.148160e+002, 8.556998e+003
7.152982e+002, 8.245447e+003
7.157803e+002, 7.965311e+003
7.162624e+002, 7.692297e+003
7.167445e+002, 7.419612e+003
7.172266e+002, 7.154829e+003
7.177087e+002, 6.897888e+003
7.181909e+002, 6.651324e+003
7.186730e+002, 6.427114e+003
7.191551e+002, 6.236210e+003
7.196372e+002, 6.058916e+003
7.201193e+002, 5.881215e+003
7.206014e+002, 5.707450e+003
7.210836e+002, 5.543784e+003
7.215657e+002, 5.391919e+003
7.220478e+002, 5.250201e+003
7.225299e+002, 5.118154e+003
7.230120e+002, 4.994345e+003
7.234941e+002, 4.876818e+003
7.239763e+002, 4.765007e+003
7.244584e+002, 4.659997e+003
7.249405e+002, 4.562522e+003
7.254226e+002, 4.471258e+003
7.259047e+002, 4.384158e+003
7.263868e+002, 4.302989e+003
7.268690e+002, 4.231542e+003
7.273511e+002, 4.173913e+003
7.278332e+002, 4.117817e+003
7.283153e+002, 4.053842e+003
7.287974e+002, 3.988716e+003
7.292795e+002, 3.931614e+003
7.297617e+002, 3.882536e+003
7.302438e+002, 3.835730e+003
7.307259e+002, 3.787759e+003
7.312080e+002, 3.740782e+003
7.316901e+002, 3.698988e+003
7.321722e+002, 3.663145e+003
7.326544e+002, 3.630246e+003
7.331365e+002, 3.603786e+003
7.336186e+002, 3.575106e+003
7.341007e+002, 3.537145e+003
7.345828e+002, 3.496913e+003
7.350649e+002, 3.463496e+003
7.355471e+002, 3.438409e+003
7.360292e+002, 3.416047e+003
7.365113e+002, 3.394531e+003
7.369934e+002, 3.374138e+003
7.374755e+002, 3.355344e+003
7.379576e+002, 3.337813e+003
7.384398e+002, 3.320924e+003
7.389219e+002, 3.304348e+003
7.394040e+002, 3.287591e+003
7.398861e+002, 3.269371e+003
7.403682e+002, 3.249723e+003
7.408503e+002, 3.236311e+003
7.413325e+002, 3.233513e+003
7.418146e+002, 3.227670e+003
7.422967e+002, 3.212913e+003
7.427788e+002, 3.194971e+003
7.432609e+002, 3.176999e+003
7.437430e+002, 3.159586e+003
7.442252e+002, 3.146021e+003
7.447073e+002, 3.139728e+003
7.451894e+002, 3.134908e+003
7.456715e+002, 3.129211e+003
7.461536e+002, 3.122086e+003
7.466357e+002, 3.112235e+003
7.471179e+002, 3.099756e+003
7.476000e+002, 3.086775e+003
7.480821e+002, 3.074823e+003
7.485642e+002, 3.063562e+003
7.490463e+002, 3.051155e+003
7.495284e+002, 3.036583e+003
7.500106e+002, 3.025904e+003
7.504927e+002, 3.023382e+003
7.509748e+002, 3.020100e+003
7.514569e+002, 3.007877e+003
7.519390e+002, 2.990767e+003
7.524211e+002, 2.977401e+003
7.529033e+002, 2.969292e+003
7.533854e+002, 2.963354e+003
7.538675e+002, 2.960631e+003
7.543496e+002, 2.957844e+003
7.548317e+002, 2.950883e+003
7.553138e+002, 2.941103e+003
7.557960e+002, 2.933349e+003
7.562781e+002, 2.929816e+003
7.567602e+002, 2.927037e+003
7.572423e+002, 2.918965e+003
7.577244e+002, 2.905884e+003
7.582065e+002, 2.896409e+003
7.586887e+002, 2.891087e+003
7.591708e+002, 2.888358e+003
7.596529e+002, 2.889746e+003
7.601350e+002, 2.891599e+003
7.606171e+002, 2.887907e+003
7.610992e+002, 2.878411e+003
7.615814e+002, 2.869160e+003
7.620635e+002, 2.861024e+003
7.625456e+002, 2.853187e+003
7.630277e+002, 2.844316e+003
7.635098e+002, 2.836003e+003
7.639919e+002, 2.831093e+003
7.644741e+002, 2.829443e+003
7.649562e+002, 2.827343e+003
7.654383e+002, 2.821747e+003
7.659204e+002, 2.814019e+003
7.664025e+002, 2.806658e+003
7.668846e+002, 2.799745e+003
7.673668e+002, 2.795062e+003
7.678489e+002, 2.793226e+003
7.683310e+002, 2.792998e+003
7.688131e+002, 2.794369e+003
7.692952e+002, 2.796489e+003
7.697773e+002, 2.794531e+003
7.702595e+002, 2.784760e+003
7.707416e+002, 2.776491e+003
7.712237e+002, 2.770193e+003
7.717058e+002, 2.765600e+003
7.721879e+002, 2.763686e+003
7.726700e+002, 2.763134e+003
7.731522e+002, 2.761288e+003
7.736343e+002, 2.757072e+003
7.741164e+002, 2.752695e+003
7.745985e+002, 2.750556e+003
7.750806e+002, 2.749734e+003
7.755627e+002, 2.747865e+003
7.760449e+002, 2.744989e+003
7.765270e+002, 2.743616e+003
7.770091e+002, 2.745366e+003
7.774912e+002, 2.746612e+003
7.779733e+002, 2.741248e+003
7.784554e+002, 2.727883e+003
7.789376e+002, 2.719330e+003
7.794197e+002, 2.718635e+003
7.799019e+002, 2.718717e+003
7.803840e+002, 2.718868e+003
7.808661e+002, 2.718552e+003
7.813482e+002, 2.716039e+003
7.818303e+002, 2.712126e+003
7.823124e+002, 2.711595e+003
7.827946e+002, 2.720589e+003
7.832767e+002, 2.728533e+003
7.837588e+002, 2.723739e+003
7.842409e+002, 2.712978e+003
7.847230e+002, 2.709238e+003
7.852051e+002, 2.713645e+003
7.856873e+002, 2.718084e+003
7.861694e+002, 2.716910e+003
7.866515e+002, 2.712055e+003
7.871336e+002, 2.708305e+003
7.876157e+002, 2.705832e+003
7.880978e+002, 2.703882e+003
7.885800e+002, 2.703249e+003
7.890621e+002, 2.701768e+003
7.895442e+002, 2.696386e+003
7.900263e+002, 2.690285e+003
7.905084e+002, 2.688592e+003
7.909905e+002, 2.692096e+003
7.914727e+002, 2.697174e+003
7.919548e+002, 2.707885e+003
7.924369e+002, 2.714918e+003
7.929190e+002, 2.706853e+003
7.934011e+002, 2.693129e+003
7.938832e+002, 2.691113e+003
7.943654e+002, 2.703798e+003
7.948475e+002, 2.717301e+003
7.953296e+002, 2.718751e+003
7.958117e+002, 2.712378e+003
7.962938e+002, 2.708813e+003
7.967759e+002, 2.708000e+003
7.972581e+002, 2.709305e+003
7.977402e+002, 2.712995e+003
7.982223e+002, 2.716983e+003
7.987044e+002, 2.719453e+003
7.991865e+002, 2.720633e+003
7.996686e+002, 2.721951e+003
8.001508e+002, 2.725503e+003
8.006329e+002, 2.726099e+003
8.011150e+002, 2.720618e+003
8.015971e+002, 2.715213e+003
8.020792e+002, 2.713393e+003
8.025613e+002, 2.714202e+003
8.030435e+002, 2.715630e+003
8.035256e+002, 2.717159e+003
8.040077e+002, 2.718720e+003
8.044898e+002, 2.720383e+003
8.049719e+002, 2.722030e+003
8.054540e+002, 2.723949e+003
8.059362e+002, 2.725789e+003
8.064183e+002, 2.726060e+003
8.069004e+002, 2.724248e+003
8.073825e+002, 2.721207e+003
8.078646e+002, 2.717585e+003
8.083467e+002, 2.713588e+003
8.088289e+002, 2.711615e+003
8.093110e+002, 2.711390e+003
8.097931e+002, 2.714259e+003
8.102752e+002, 2.724869e+003
8.107573e+002, 2.733856e+003
8.112394e+002, 2.731099e+003
8.117216e+002, 2.720494e+003
8.122037e+002, 2.714948e+003
8.126858e+002, 2.717657e+003
8.131679e+002, 2.722610e+003
8.136500e+002, 2.730651e+003
8.141321e+002, 2.737738e+003
8.146143e+002, 2.739840e+003
8.150964e+002, 2.738010e+003
8.155785e+002, 2.734569e+003
8.160606e+002, 2.730516e+003
8.165427e+002, 2.728275e+003
8.170248e+002, 2.732762e+003
8.175070e+002, 2.741231e+003
8.179891e+002, 2.742295e+003
8.184712e+002, 2.735825e+003
8.189533e+002, 2.734209e+003
8.194354e+002, 2.742945e+003
8.199175e+002, 2.753691e+003
8.203997e+002, 2.756763e+003
8.208818e+002, 2.752283e+003
8.213639e+002, 2.747697e+003
8.218460e+002, 2.742834e+003
8.223281e+002, 2.738145e+003
8.228102e+002, 2.731832e+003
8.232924e+002, 2.727391e+003
8.237745e+002, 2.729583e+003
8.242566e+002, 2.735298e+003
8.247387e+002, 2.736165e+003
8.252208e+002, 2.728339e+003
8.257029e+002, 2.720393e+003
8.261851e+002, 2.718920e+003
8.266672e+002, 2.719195e+003
8.271493e+002, 2.715218e+003
8.276314e+002, 2.707903e+003
8.281135e+002, 2.701327e+003
8.285956e+002, 2.697082e+003
8.290778e+002, 2.694249e+003
8.295599e+002, 2.691777e+003
8.300420e+002, 2.689715e+003
8.305241e+002, 2.688326e+003
8.310062e+002, 2.687568e+003
8.314883e+002, 2.688121e+003
8.319705e+002, 2.691364e+003
8.324526e+002, 2.693500e+003
8.329347e+002, 2.690230e+003
8.334168e+002, 2.682213e+003
8.338989e+002, 2.676001e+003
8.343810e+002, 2.670797e+003
8.348632e+002, 2.668326e+003
8.353453e+002, 2.671871e+003
8.358274e+002, 2.675158e+003
8.363095e+002, 2.672777e+003
8.367916e+002, 2.667631e+003
8.372737e+002, 2.666414e+003
8.377559e+002, 2.671367e+003
8.382380e+002, 2.675222e+003
8.387201e+002, 2.671261e+003
8.392022e+002, 2.664046e+003
8.396843e+002, 2.659907e+003
8.401664e+002, 2.658020e+003
8.406486e+002, 2.654292e+003
8.411307e+002, 2.647667e+003
8.416128e+002, 2.642104e+003
8.420949e+002, 2.642204e+003
8.425770e+002, 2.646011e+003
8.430591e+002, 2.643508e+003
8.435413e+002, 2.632660e+003
8.440234e+002, 2.626218e+003
8.445055e+002, 2.628208e+003
8.449876e+002, 2.631114e+003
8.454697e+002, 2.630332e+003
8.459518e+002, 2.626491e+003
8.464340e+002, 2.621176e+003
8.469161e+002, 2.613009e+003
8.473982e+002, 2.607158e+003
8.478803e+002, 2.604229e+003
8.483624e+002, 2.603678e+003
8.488445e+002, 2.606850e+003
8.493267e+002, 2.611431e+003
8.498088e+002, 2.615602e+003
8.502909e+002, 2.618470e+003
8.507730e+002, 2.617174e+003
8.512551e+002, 2.606515e+003
8.517372e+002, 2.594180e+003
8.522194e+002, 2.588931e+003
8.527015e+002, 2.589364e+003
8.531836e+002, 2.593662e+003
8.536657e+002, 2.600771e+003
8.541478e+002, 2.605541e+003
8.546299e+002, 2.604308e+003
8.551121e+002, 2.599499e+003
8.555942e+002, 2.596596e+003
8.560763e+002, 2.595927e+003
8.565584e+002, 2.594386e+003
8.570405e+002, 2.591633e+003
8.575226e+002, 2.588448e+003
8.580048e+002, 2.583615e+003
8.584869e+002, 2.579840e+003
8.589690e+002, 2.582413e+003
8.594511e+002, 2.591933e+003
8.599332e+002, 2.597049e+003
8.604153e+002, 2.593303e+003
8.608975e+002, 2.590333e+003
8.613796e+002, 2.590585e+003
8.618617e+002, 2.592863e+003
8.623438e+002, 2.598042e+003
8.628259e+002, 2.604219e+003
8.633080e+002, 2.605938e+003
8.637902e+002, 2.599765e+003
8.642723e+002, 2.593604e+003
8.647544e+002, 2.595652e+003
8.652365e+002, 2.601014e+003
8.657186e+002, 2.601419e+003
8.662007e+002, 2.597828e+003
8.666829e+002, 2.595871e+003
8.671650e+002, 2.597694e+003
8.676471e+002, 2.602129e+003
8.681292e+002, 2.608286e+003
8.686113e+002, 2.615703e+003
8.690934e+002, 2.621748e+003
8.695756e+002, 2.626414e+003
8.700577e+002, 2.629117e+003
8.705398e+002, 2.628061e+003
8.710219e+002, 2.629063e+003
8.715040e+002, 2.637758e+003
8.719861e+002, 2.651852e+003
8.724683e+002, 2.662966e+003
8.729504e+002, 2.668515e+003
8.734325e+002, 2.675882e+003
8.739146e+002, 2.685867e+003
8.743967e+002, 2.696766e+003
8.748788e+002, 2.705634e+003
8.753610e+002, 2.716234e+003
8.758431e+002, 2.734644e+003
8.763252e+002, 2.761138e+003
8.768073e+002, 2.787051e+003
8.772894e+002, 2.804485e+003
8.777715e+002, 2.823920e+003
8.782537e+002, 2.853779e+003
8.787358e+002, 2.890617e+003
8.792179e+002, 2.930443e+003
8.797000e+002, 2.972068e+003
8.801821e+002, 3.013904e+003
8.806642e+002, 3.055067e+003
8.811464e+002, 3.096208e+003
8.816285e+002, 3.138775e+003
8.821106e+002, 3.182234e+003
8.825927e+002, 3.225131e+003
8.830748e+002, 3.267275e+003
8.835569e+002, 3.305390e+003
8.840391e+002, 3.339171e+003
8.845212e+002, 3.364723e+003
8.850033e+002, 3.377145e+003
8.854854e+002, 3.376806e+003
8.859675e+002, 3.372767e+003
8.864496e+002, 3.368143e+003
8.869318e+002, 3.353683e+003
8.874139e+002, 3.324156e+003
8.878960e+002, 3.288616e+003
8.883781e+002, 3.251258e+003
8.888602e+002, 3.211756e+003
8.893423e+002, 3.168806e+003
8.898245e+002, 3.121233e+003
8.903066e+002, 3.074219e+003
8.907887e+002, 3.027731e+003
8.912708e+002, 2.983778e+003
8.917529e+002, 2.943616e+003
8.922350e+002, 2.906664e+003
8.927172e+002, 2.873031e+003
8.931993e+002, 2.842268e+003
8.936814e+002, 2.811962e+003
8.941635e+002, 2.780085e+003
8.946456e+002, 2.749274e+003
8.951277e+002, 2.722793e+003
8.956099e+002, 2.700054e+003
8.960920e+002, 2.680785e+003
8.965741e+002, 2.664403e+003
8.970562e+002, 2.648546e+003
8.975383e+002, 2.631980e+003
8.980204e+002, 2.616036e+003
8.985026e+002, 2.603162e+003
8.989847e+002, 2.592983e+003
8.994668e+002, 2.580324e+003
8.999489e+002, 2.564181e+003
9.004310e+002, 2.550748e+003
9.009131e+002, 2.542164e+003
9.013953e+002, 2.535380e+003
9.018774e+002, 2.527729e+003
9.023595e+002, 2.519733e+003
9.028416e+002, 2.514025e+003
9.033237e+002, 2.513786e+003
9.038058e+002, 2.510094e+003
9.042880e+002, 2.499383e+003
9.047701e+002, 2.489566e+003
9.052522e+002, 2.484187e+003
9.057343e+002, 2.481261e+003
9.062164e+002, 2.478878e+003
9.066985e+002, 2.476663e+003
9.071807e+002, 2.473201e+003
9.076628e+002, 2.465447e+003
9.081449e+002, 2.459289e+003
9.086270e+002, 2.460200e+003
9.091091e+002, 2.462841e+003
9.095912e+002, 2.460818e+003
9.100734e+002, 2.454784e+003
9.105555e+002, 2.448695e+003
9.110376e+002, 2.444224e+003
9.115197e+002, 2.441730e+003
9.120018e+002, 2.443179e+003
9.124839e+002, 2.446233e+003
9.129661e+002, 2.444711e+003
9.134482e+002, 2.439907e+003
9.139303e+002, 2.439210e+003
9.144124e+002, 2.444551e+003
9.148945e+002, 2.450845e+003
9.153766e+002, 2.453506e+003
9.158588e+002, 2.453957e+003
9.163409e+002, 2.456861e+003
9.168230e+002, 2.462518e+003
9.173051e+002, 2.467763e+003
9.177872e+002, 2.472046e+003
9.182693e+002, 2.476756e+003
9.187515e+002, 2.482275e+003
9.192336e+002, 2.488958e+003
9.197157e+002, 2.497732e+003
9.201978e+002, 2.509032e+003
9.206799e+002, 2.518304e+003
9.211620e+002, 2.525304e+003
9.216442e+002, 2.530512e+003
9.221263e+002, 2.533545e+003
9.226084e+002, 2.535175e+003
9.230905e+002, 2.535616e+003
9.235726e+002, 2.535113e+003
9.240547e+002, 2.534616e+003
9.245369e+002, 2.535164e+003
9.250190e+002, 2.532111e+003
9.255011e+002, 2.521399e+003
9.259832e+002, 2.509117e+003
9.264653e+002, 2.499214e+003
9.269474e+002, 2.490272e+003
9.274296e+002, 2.479369e+003
9.279117e+002, 2.466690e+003
9.283938e+002, 2.455745e+003
9.288759e+002, 2.449373e+003
9.293580e+002, 2.443638e+003
9.298401e+002, 2.432692e+003
9.303223e+002, 2.419959e+003
9.308044e+002, 2.412220e+003
9.312865e+002, 2.409234e+003
9.317686e+002, 2.407074e+003
9.322507e+002, 2.404180e+003
9.327328e+002, 2.402202e+003
9.332150e+002, 2.403634e+003
9.336971e+002, 2.407142e+003
9.341792e+002, 2.407316e+003
9.346613e+002, 2.404153e+003
9.351434e+002, 2.400722e+003
9.356255e+002, 2.397374e+003
9.361077e+002, 2.395516e+003
9.365898e+002, 2.396605e+003
9.370719e+002, 2.398765e+003
9.375540e+002, 2.397441e+003
9.380361e+002, 2.391467e+003
9.385182e+002, 2.388612e+003
9.390004e+002, 2.390593e+003
9.394825e+002, 2.392365e+003
9.399646e+002, 2.392444e+003
9.404467e+002, 2.391863e+003
9.409288e+002, 2.391725e+003
9.414109e+002, 2.391775e+003
9.418931e+002, 2.390669e+003
9.423752e+002, 2.385663e+003
9.428573e+002, 2.384494e+003
9.433394e+002, 2.392636e+003
9.438215e+002, 2.399783e+003
9.443036e+002, 2.398909e+003
9.447858e+002, 2.394906e+003
9.452679e+002, 2.394485e+003
9.457500e+002, 2.398316e+003
9.462321e+002, 2.402450e+003
9.467142e+002, 2.405674e+003
9.471964e+002, 2.408180e+003
9.476785e+002, 2.407506e+003
9.481606e+002, 2.408089e+003
9.486427e+002, 2.417123e+003
9.491248e+002, 2.431565e+003
9.496069e+002, 2.441697e+003
9.500891e+002, 2.444144e+003
9.505712e+002, 2.447392e+003
9.510533e+002, 2.460529e+003
9.515354e+002, 2.478562e+003
9.520175e+002, 2.492391e+003
9.524996e+002, 2.504321e+003
9.529818e+002, 2.521830e+003
9.534639e+002, 2.545689e+003
9.539460e+002, 2.569744e+003
9.544281e+002, 2.590023e+003
9.549102e+002, 2.609616e+003
9.553923e+002, 2.633420e+003
9.558745e+002, 2.661375e+003
9.563566e+002, 2.692571e+003
9.568387e+002, 2.727240e+003
9.573208e+002, 2.760751e+003
9.578029e+002, 2.791783e+003
9.582850e+002, 2.821508e+003
9.587672e+002, 2.851102e+003
9.592493e+002, 2.880205e+003
9.597314e+002, 2.907837e+003
9.602135e+002, 2.934793e+003
9.606956e+002, 2.957494e+003
9.611777e+002, 2.974928e+003
9.616599e+002, 2.989768e+003
9.621420e+002, 3.003930e+003
9.626241e+002, 3.015107e+003
9.631062e+002, 3.021017e+003
9.635883e+002, 3.021619e+003
9.640704e+002, 3.015257e+003
9.645526e+002, 2.998036e+003
9.650347e+002, 2.979906e+003
9.655168e+002, 2.960080e+003
9.659989e+002, 2.941268e+003
9.664810e+002, 2.927345e+003
9.669631e+002, 2.914326e+003
9.674453e+002, 2.896820e+003
9.679274e+002, 2.874143e+003
9.684095e+002, 2.844970e+003
9.688916e+002, 2.802952e+003
9.693737e+002, 2.761767e+003
9.698558e+002, 2.727326e+003
9.703380e+002, 2.696372e+003
9.708201e+002, 2.666594e+003
9.713022e+002, 2.637547e+003
9.717843e+002, 2.608588e+003
9.722664e+002, 2.579530e+003
9.727485e+002, 2.552578e+003
9.732307e+002, 2.530254e+003
9.737128e+002, 2.509974e+003
9.741949e+002, 2.487477e+003
9.746770e+002, 2.466004e+003
9.751591e+002, 2.452614e+003
9.756412e+002, 2.446559e+003
9.761234e+002, 2.439404e+003
9.766055e+002, 2.426225e+003
9.770876e+002, 2.412123e+003
9.775698e+002, 2.404481e+003
9.780519e+002, 2.399895e+003
9.785340e+002, 2.388609e+003
9.790161e+002, 2.373107e+003
9.794982e+002, 2.366428e+003
9.799803e+002, 2.371239e+003
9.804625e+002, 2.376410e+003
9.809446e+002, 2.372971e+003
9.814267e+002, 2.364372e+003
9.819088e+002, 2.357258e+003
9.823909e+002, 2.351723e+003
9.828730e+002, 2.349747e+003
9.833552e+002, 2.351602e+003
9.838373e+002, 2.349733e+003
9.843194e+002, 2.340650e+003
9.848015e+002, 2.332053e+003
9.852836e+002, 2.332765e+003
9.857657e+002, 2.340340e+003
9.862479e+002, 2.341929e+003
9.867300e+002, 2.336008e+003
9.872121e+002, 2.332657e+003
9.876942e+002, 2.333840e+003
9.881763e+002, 2.334131e+003
9.886584e+002, 2.330725e+003
9.891406e+002, 2.325593e+003
9.896227e+002, 2.320866e+003
9.901048e+002, 2.316542e+003
9.905869e+002, 2.315785e+003
9.910690e+002, 2.322235e+003
9.915511e+002, 2.325057e+003
9.920333e+002, 2.320449e+003
9.925154e+002, 2.315386e+003
9.929975e+002, 2.312903e+003
9.934796e+002, 2.312535e+003
9.939617e+002, 2.314474e+003
9.944438e+002, 2.319204e+003
9.949260e+002, 2.320660e+003
9.954081e+002, 2.313921e+003
9.958902e+002, 2.310181e+003
9.963723e+002, 2.315653e+003
9.968544e+002, 2.321062e+003
9.973365e+002, 2.318243e+003
9.978187e+002, 2.311371e+003
9.983008e+002, 2.309094e+003
9.987829e+002, 2.313016e+003
9.992650e+002, 2.318079e+003
9.997471e+002, 2.326192e+003
1.000229e+003, 2.330885e+003
1.000711e+003, 2.326892e+003
1.001193e+003, 2.319930e+003
1.001676e+003, 2.314706e+003
1.002158e+003, 2.311454e+003
1.002640e+003, 2.308986e+003
1.003122e+003, 2.306888e+003
1.003604e+003, 2.306160e+003
1.004086e+003, 2.309592e+003
1.004568e+003, 2.312308e+003
1.005050e+003, 2.308957e+003
1.005533e+003, 2.303287e+003
1.006015e+003, 2.299960e+003
1.006497e+003, 2.299594e+003
1.006979e+003, 2.301772e+003
1.007461e+003, 2.306630e+003
1.007943e+003, 2.310630e+003
1.008425e+003, 2.309493e+003
1.008907e+003, 2.306627e+003
1.009389e+003, 2.306493e+003
1.009872e+003, 2.308094e+003
1.010354e+003, 2.309280e+003
1.010836e+003, 2.309569e+003
1.011318e+003, 2.308986e+003
1.011800e+003, 2.307432e+003
1.012282e+003, 2.305986e+003
1.012764e+003, 2.306353e+003
1.013246e+003, 2.307649e+003
1.013729e+003, 2.307963e+003
1.014211e+003, 2.307438e+003
1.014693e+003, 2.306980e+003
1.015175e+003, 2.306722e+003
1.015657e+003, 2.305506e+003
1.016139e+003, 2.302241e+003
1.016621e+003, 2.299274e+003
1.017103e+003, 2.302220e+003
1.017585e+003, 2.309067e+003
1.018068e+003, 2.309509e+003
1.018550e+003, 2.304082e+003
1.019032e+003, 2.302010e+003
1.019514e+003, 2.305896e+003
1.019996e+003, 2.309622e+003
1.020478e+003, 2.307909e+003
1.020960e+003, 2.303875e+003
1.021442e+003, 2.306330e+003
1.021924e+003, 2.314774e+003
1.022407e+003, 2.315012e+003
1.022889e+003, 2.306065e+003
1.023371e+003, 2.297790e+003
1.023853e+003, 2.293045e+003
1.024335e+003, 2.291078e+003
1.024817e+003, 2.291440e+003
1.025299e+003, 2.293625e+003
1.025781e+003, 2.296686e+003
1.026264e+003, 2.301168e+003
1.026746e+003, 2.301513e+003
1.027228e+003, 2.296647e+003
1.027710e+003, 2.291615e+003
1.028192e+003, 2.287567e+003
1.028674e+003, 2.285601e+003
1.029156e+003, 2.287458e+003
1.029638e+003, 2.291788e+003
1.030120e+003, 2.292947e+003
1.030603e+003, 2.289958e+003
1.031085e+003, 2.287168e+003
1.031567e+003, 2.283600e+003
1.032049e+003, 2.283100e+003
1.032531e+003, 2.288231e+003
1.033013e+003, 2.295112e+003
1.033495e+003, 2.301072e+003
1.033977e+003, 2.305317e+003
1.034459e+003, 2.303268e+003
1.034942e+003, 2.289489e+003
1.035424e+003, 2.282521e+003
1.035906e+003, 2.286227e+003
1.036388e+003, 2.290281e+003
1.036870e+003, 2.291179e+003
1.037352e+003, 2.290937e+003
1.037834e+003, 2.291373e+003
1.038316e+003, 2.292407e+003
1.038799e+003, 2.293563e+003
1.039281e+003, 2.295005e+003
1.039763e+003, 2.296264e+003
1.040245e+003, 2.297897e+003
1.040727e+003, 2.298639e+003
1.041209e+003, 2.298028e+003
1.041691e+003, 2.296401e+003
1.042173e+003, 2.293199e+003
1.042656e+003, 2.289032e+003
1.043138e+003, 2.287246e+003
1.043620e+003, 2.289377e+003
1.044102e+003, 2.291021e+003
1.044584e+003, 2.290408e+003
1.045066e+003, 2.291127e+003
1.045548e+003, 2.296175e+003
1.046030e+003, 2.301846e+003
1.046512e+003, 2.305103e+003
1.046995e+003, 2.305812e+003
1.047477e+003, 2.303769e+003
1.047959e+003, 2.296278e+003
1.048441e+003, 2.292294e+003
1.048923e+003, 2.293869e+003
1.049405e+003, 2.298367e+003
1.049887e+003, 2.307292e+003
1.050369e+003, 2.316697e+003
1.050851e+003, 2.319058e+003
1.051334e+003, 2.318056e+003
1.051816e+003, 2.327872e+003
1.052298e+003, 2.349753e+003
1.052780e+003, 2.385687e+003
1.053262e+003, 2.455227e+003
1.053744e+003, 2.516083e+003
1.054226e+003, 2.557525e+003
1.054708e+003, 2.574104e+003
1.055191e+003, 2.552727e+003
1.055673e+003, 2.502092e+003
1.056155e+003, 2.449261e+003
1.056637e+003, 2.395255e+003
1.057119e+003, 2.355610e+003
1.057601e+003, 2.341627e+003
1.058083e+003, 2.335125e+003
1.058565e+003, 2.330712e+003
1.059047e+003, 2.326509e+003
1.059530e+003, 2.320805e+003
1.060012e+003, 2.314040e+003
1.060494e+003, 2.307543e+003
1.060976e+003, 2.301290e+003
1.061458e+003, 2.297104e+003
1.061940e+003, 2.294848e+003
1.062422e+003, 2.295709e+003
1.062904e+003, 2.304300e+003
1.063386e+003, 2.313098e+003
1.063869e+003, 2.314875e+003
1.064351e+003, 2.310376e+003
1.064833e+003, 2.302546e+003
1.065315e+003, 2.291248e+003
1.065797e+003, 2.283582e+003
1.066279e+003, 2.284186e+003
1.066761e+003, 2.287082e+003
1.067243e+003, 2.290259e+003
1.067726e+003, 2.293292e+003
1.068208e+003, 2.296316e+003
1.068690e+003, 2.298854e+003
1.069172e+003, 2.299958e+003
1.069654e+003, 2.299376e+003
1.070136e+003, 2.297670e+003
1.070618e+003, 2.293472e+003
1.071100e+003, 2.290207e+003
1.071583e+003, 2.289338e+003
1.072065e+003, 2.290520e+003
1.072547e+003, 2.295766e+003
1.073029e+003, 2.301972e+003
1.073511e+003, 2.301916e+003
1.073993e+003, 2.294062e+003
1.074475e+003, 2.288792e+003
1.074957e+003, 2.294125e+003
1.075439e+003, 2.298669e+003
1.075922e+003, 2.294008e+003
1.076404e+003, 2.288414e+003
1.076886e+003, 2.290529e+003
1.077368e+003, 2.296792e+003
1.077850e+003, 2.299722e+003
1.078332e+003, 2.298024e+003
1.078814e+003, 2.295450e+003
1.079296e+003, 2.292308e+003
1.079779e+003, 2.290509e+003
1.080261e+003, 2.291388e+003
1.080743e+003, 2.293607e+003
1.081225e+003, 2.297483e+003
1.081707e+003, 2.301244e+003
1.082189e+003, 2.302055e+003
1.082671e+003, 2.299799e+003
1.083153e+003, 2.297155e+003
1.083635e+003, 2.293929e+003
1.084118e+003, 2.292808e+003
1.084600e+003, 2.297280e+003
1.085082e+003, 2.301950e+003
1.085564e+003, 2.303048e+003
1.086046e+003, 2.301776e+003
1.086528e+003, 2.299561e+003
1.087010e+003, 2.296917e+003
1.087492e+003, 2.294732e+003
1.087974e+003, 2.293276e+003
1.088457e+003, 2.292360e+003
1.088939e+003, 2.290885e+003
1.089421e+003, 2.291079e+003
1.089903e+003, 2.298176e+003
1.090385e+003, 2.304988e+003
1.090867e+003, 2.300376e+003
1.091349e+003, 2.287595e+003
1.091831e+003, 2.281634e+003
1.092314e+003, 2.288566e+003
1.092796e+003, 2.293691e+003
1.093278e+003, 2.288401e+003
1.093760e+003, 2.283849e+003
1.094242e+003, 2.287672e+003
1.094724e+003, 2.293323e+003
1.095206e+003, 2.294190e+003
1.095688e+003, 2.291378e+003
1.096171e+003, 2.288971e+003
1.096653e+003, 2.287704e+003
1.097135e+003, 2.287428e+003
1.097617e+003, 2.289958e+003
1.098099e+003, 2.291019e+003
1.098581e+003, 2.286785e+003
1.099063e+003, 2.282470e+003
1.099545e+003, 2.282757e+003
1.100027e+003, 2.285866e+003
1.100510e+003, 2.288212e+003
1.100992e+003, 2.289311e+003
1.101474e+003, 2.289904e+003
1.101956e+003, 2.291005e+003
1.102438e+003, 2.290472e+003
1.102920e+003, 2.286501e+003
1.103402e+003, 2.282100e+003
1.103884e+003, 2.278505e+003
1.104366e+003, 2.276011e+003
1.104849e+003, 2.274711e+003
1.105331e+003, 2.274669e+003
1.105813e+003, 2.276434e+003
1.106295e+003, 2.282571e+003
1.106777e+003, 2.286558e+003
1.107259e+003, 2.286757e+003
1.107741e+003, 2.285502e+003
1.108223e+003, 2.281717e+003
1.108706e+003, 2.278542e+003
1.109188e+003, 2.280849e+003
1.109670e+003, 2.287106e+003
1.110152e+003, 2.288719e+003
1.110634e+003, 2.282132e+003
1.111116e+003, 2.277787e+003
1.111598e+003, 2.277614e+003
1.112080e+003, 2.277848e+003
1.112563e+003, 2.277612e+003
1.113045e+003, 2.277267e+003
1.113527e+003, 2.277166e+003
1.114009e+003, 2.277197e+003
1.114491e+003, 2.277068e+003
1.114973e+003, 2.276854e+003
1.115455e+003, 2.276194e+003
1.115937e+003, 2.273352e+003
1.116419e+003, 2.273237e+003
1.116901e+003, 2.278641e+003
1.117384e+003, 2.284239e+003
1.117866e+003, 2.286724e+003
1.118348e+003, 2.287574e+003
1.118830e+003, 2.289705e+003
1.119312e+003, 2.293218e+003
1.119794e+003, 2.292451e+003
1.120276e+003, 2.283921e+003
1.120758e+003, 2.280564e+003
1.121241e+003, 2.286855e+003
1.121723e+003, 2.290832e+003
1.122205e+003, 2.285462e+003
1.122687e+003, 2.278324e+003
1.123169e+003, 2.279191e+003
1.123651e+003, 2.286066e+003
1.124133e+003, 2.286789e+003
1.124615e+003, 2.279506e+003
1.125098e+003, 2.275332e+003
1.125580e+003, 2.275244e+003
1.126062e+003, 2.276309e+003
1.126544e+003, 2.278064e+003
1.127026e+003, 2.279195e+003
1.127508e+003, 2.278551e+003
1.127990e+003, 2.276616e+003
1.128472e+003, 2.273978e+003
1.128954e+003, 2.270546e+003
1.129437e+003, 2.271667e+003
1.129919e+003, 2.277903e+003
1.130401e+003, 2.278450e+003
1.130883e+003, 2.270354e+003
1.131365e+003, 2.265404e+003
1.131847e+003, 2.271014e+003
1.132329e+003, 2.280910e+003
1.132811e+003, 2.286002e+003
1.133293e+003, 2.287057e+003
1.133776e+003, 2.287350e+003
1.134258e+003, 2.286928e+003
1.134740e+003, 2.286208e+003
1.135222e+003, 2.285322e+003
1.135704e+003, 2.285401e+003
1.136186e+003, 2.286894e+003
1.136668e+003, 2.289070e+003
1.137150e+003, 2.291571e+003
1.137633e+003, 2.293411e+003
1.138115e+003, 2.291590e+003
1.138597e+003, 2.287675e+003
1.139079e+003, 2.287087e+003
1.139561e+003, 2.289094e+003
1.140043e+003, 2.288525e+003
1.140525e+003, 2.284779e+003
1.141007e+003, 2.283610e+003
1.141490e+003, 2.289003e+003
1.141972e+003, 2.296070e+003
1.142454e+003, 2.299514e+003
1.142936e+003, 2.300427e+003
1.143418e+003, 2.299951e+003
1.143900e+003, 2.298588e+003
1.144382e+003, 2.296943e+003
1.144864e+003, 2.295333e+003
1.145346e+003, 2.294126e+003
1.145828e+003, 2.293497e+003
1.146311e+003, 2.294109e+003
1.146793e+003, 2.297633e+003
1.147275e+003, 2.301317e+003
1.147757e+003, 2.302254e+003
1.148239e+003, 2.302185e+003
1.148721e+003, 2.302896e+003
1.149203e+003, 2.304338e+003
1.149685e+003, 2.306292e+003
1.150168e+003, 2.308507e+003
1.150650e+003, 2.310018e+003
1.151132e+003, 2.310306e+003
1.151614e+003, 2.309985e+003
1.152096e+003, 2.307418e+003
1.152578e+003, 2.306479e+003
1.153060e+003, 2.312654e+003
1.153542e+003, 2.319841e+003
1.154025e+003, 2.319558e+003
1.154507e+003, 2.313792e+003
1.154989e+003, 2.311677e+003
1.155471e+003, 2.316039e+003
1.155953e+003, 2.318965e+003
1.156435e+003, 2.317550e+003
1.156917e+003, 2.315918e+003
1.157399e+003, 2.315650e+003
1.157881e+003, 2.315362e+003
1.158364e+003, 2.313560e+003
1.158846e+003, 2.311362e+003
1.159328e+003, 2.310525e+003
1.159810e+003, 2.311141e+003
1.160292e+003, 2.312942e+003
1.160774e+003, 2.316956e+003
1.161256e+003, 2.320265e+003
1.161738e+003, 2.322167e+003
1.162220e+003, 2.324496e+003
1.162703e+003, 2.329324e+003
1.163185e+003, 2.332831e+003
1.163667e+003, 2.330772e+003
1.164149e+003, 2.324842e+003
1.164631e+003, 2.319963e+003
1.165113e+003, 2.315038e+003
1.165595e+003, 2.319436e+003
1.166077e+003, 2.336635e+003
1.166560e+003, 2.347527e+003
1.167042e+003, 2.347278e+003
1.167524e+003, 2.343883e+003
1.168006e+003, 2.341422e+003
1.168488e+003, 2.340968e+003
1.168970e+003, 2.344965e+003
1.169452e+003, 2.351851e+003
1.169934e+003, 2.352212e+003
1.170417e+003, 2.346795e+003
1.170899e+003, 2.347679e+003
1.171381e+003, 2.355526e+003
1.171863e+003, 2.362074e+003
1.172345e+003, 2.364540e+003
1.172827e+003, 2.366334e+003
1.173309e+003, 2.370586e+003
1.173791e+003, 2.374118e+003
1.174273e+003, 2.369485e+003
1.174755e+003, 2.361092e+003
1.175238e+003, 2.359777e+003
1.175720e+003, 2.363737e+003
1.176202e+003, 2.368227e+003
1.176684e+003, 2.371670e+003
1.177166e+003, 2.371480e+003
1.177648e+003, 2.366629e+003
1.178130e+003, 2.362398e+003
1.178612e+003, 2.364024e+003
1.179095e+003, 2.367488e+003
1.179577e+003, 2.369223e+003
1.180059e+003, 2.370091e+003
1.180541e+003, 2.370080e+003
1.181023e+003, 2.370479e+003
1.181505e+003, 2.374324e+003
1.181987e+003, 2.381304e+003
1.182469e+003, 2.386523e+003
1.182952e+003, 2.387137e+003
1.183434e+003, 2.388193e+003
1.183916e+003, 2.391570e+003
1.184398e+003, 2.396371e+003
1.184880e+003, 2.403572e+003
1.185362e+003, 2.410677e+003
1.185844e+003, 2.415332e+003
1.186326e+003, 2.417985e+003
1.186808e+003, 2.420250e+003
1.187291e+003, 2.422411e+003
1.187773e+003, 2.423107e+003
1.188255e+003, 2.419007e+003
1.188737e+003, 2.418554e+003
1.189219e+003, 2.426790e+003
1.189701e+003, 2.432916e+003
1.190183e+003, 2.430923e+003
1.190665e+003, 2.426367e+003
1.191147e+003, 2.424866e+003
1.191630e+003, 2.425999e+003
1.192112e+003, 2.428009e+003
1.192594e+003, 2.430968e+003
1.193076e+003, 2.434492e+003
1.193558e+003, 2.438515e+003
1.194040e+003, 2.444105e+003
1.194522e+003, 2.452257e+003
1.195004e+003, 2.456613e+003
1.195487e+003, 2.452538e+003
1.195969e+003, 2.447170e+003
1.196451e+003, 2.451338e+003
1.196933e+003, 2.461820e+003
1.197415e+003, 2.465741e+003
1.197897e+003, 2.464474e+003
1.198379e+003, 2.466150e+003
1.198861e+003, 2.470788e+003
1.199344e+003, 2.473517e+003
1.199826e+003, 2.473088e+003
1.200308e+003, 2.471978e+003
1.200790e+003, 2.471619e+003
1.201272e+003, 2.472958e+003
1.201754e+003, 2.477659e+003
1.202236e+003, 2.484325e+003
1.202718e+003, 2.492931e+003
1.203200e+003, 2.500944e+003
1.203682e+003, 2.502561e+003
1.204165e+003, 2.499896e+003
1.204647e+003, 2.499951e+003
1.205129e+003, 2.504690e+003
1.205611e+003, 2.511510e+003
1.206093e+003, 2.521424e+003
1.206575e+003, 2.529065e+003
1.207057e+003, 2.528715e+003
1.207539e+003, 2.528416e+003
1.208022e+003, 2.535242e+003
1.208504e+003, 2.544131e+003
1.208986e+003, 2.548179e+003
1.209468e+003, 2.548625e+003
1.209950e+003, 2.551563e+003
1.210432e+003, 2.558232e+003
1.210914e+003, 2.565068e+003
1.211396e+003, 2.574720e+003
1.211879e+003, 2.579755e+003
1.212361e+003, 2.574713e+003
1.212843e+003, 2.571899e+003
1.213325e+003, 2.578660e+003
1.213807e+003, 2.589043e+003
1.214289e+003, 2.595888e+003
1.214771e+003, 2.600103e+003
1.215253e+003, 2.606301e+003
1.215735e+003, 2.614725e+003
1.216218e+003, 2.623340e+003
1.216700e+003, 2.632463e+003
1.217182e+003, 2.635697e+003
1.217664e+003, 2.631287e+003
1.218146e+003, 2.628820e+003
1.218628e+003, 2.634154e+003
1.219110e+003, 2.641705e+003
1.219592e+003, 2.643605e+003
1.220074e+003, 2.643067e+003
1.220557e+003, 2.647727e+003
1.221039e+003, 2.656168e+003
1.221521e+003, 2.666044e+003
1.222003e+003, 2.676020e+003
1.222485e+003, 2.682232e+003
1.222967e+003, 2.684601e+003
1.223449e+003, 2.689021e+003
1.223931e+003, 2.699682e+003
1.224414e+003, 2.706396e+003
1.224896e+003, 2.695043e+003
1.225378e+003, 2.683437e+003
1.225860e+003, 2.687873e+003
1.226342e+003, 2.698101e+003
1.226824e+003, 2.703595e+003
1.227306e+003, 2.705844e+003
1.227788e+003, 2.710369e+003
1.228271e+003, 2.717654e+003
1.228753e+003, 2.722159e+003
1.229235e+003, 2.720672e+003
1.229717e+003, 2.720238e+003
1.230199e+003, 2.723465e+003
1.230681e+003, 2.725592e+003
1.231163e+003, 2.723144e+003
1.231645e+003, 2.721717e+003
1.232127e+003, 2.726266e+003
1.232609e+003, 2.733785e+003
1.233092e+003, 2.738690e+003
1.233574e+003, 2.740975e+003
1.234056e+003, 2.740340e+003
1.234538e+003, 2.735994e+003
1.235020e+003, 2.735268e+003
1.235502e+003, 2.739003e+003
1.235984e+003, 2.742969e+003
1.236466e+003, 2.745669e+003
1.236949e+003, 2.748620e+003
1.237431e+003, 2.753152e+003
1.237913e+003, 2.757464e+003
1.238395e+003, 2.757727e+003
1.238877e+003, 2.756053e+003
1.239359e+003, 2.758014e+003
1.239841e+003, 2.762021e+003
1.240323e+003, 2.765415e+003
1.240806e+003, 2.766970e+003
1.241288e+003, 2.763042e+003
1.241770e+003, 2.753727e+003
1.242252e+003, 2.747694e+003
1.242734e+003, 2.750688e+003
1.243216e+003, 2.755668e+003
1.243698e+003, 2.760873e+003
1.244180e+003, 2.763205e+003
1.244662e+003, 2.758536e+003
1.245145e+003, 2.751571e+003
1.245627e+003, 2.746352e+003
1.246109e+003, 2.742980e+003
1.246591e+003, 2.740762e+003
1.247073e+003, 2.739653e+003
1.247555e+003, 2.739284e+003
1.248037e+003, 2.740238e+003
1.248519e+003, 2.740842e+003
1.249001e+003, 2.741732e+003
1.249484e+003, 2.740523e+003
1.249966e+003, 2.735265e+003
1.250448e+003, 2.730695e+003
1.250930e+003, 2.731234e+003
1.251412e+003, 2.733195e+003
1.251894e+003, 2.728513e+003
1.252376e+003, 2.718703e+003
1.252858e+003, 2.716061e+003
1.253341e+003, 2.719693e+003
1.253823e+003, 2.722367e+003
1.254305e+003, 2.723063e+003
1.254787e+003, 2.720265e+003
1.255269e+003, 2.713898e+003
1.255751e+003, 2.707292e+003
1.256233e+003, 2.702315e+003
1.256715e+003, 2.700125e+003
1.257198e+003, 2.704744e+003
1.257680e+003, 2.710082e+003
1.258162e+003, 2.708764e+003
1.258644e+003, 2.704394e+003
1.259126e+003, 2.700848e+003
1.259608e+003, 2.698536e+003
1.260090e+003, 2.697145e+003
1.260572e+003, 2.696566e+003
1.261054e+003, 2.696711e+003
1.261536e+003, 2.699231e+003
1.262019e+003, 2.698628e+003
1.262501e+003, 2.688589e+003
1.262983e+003, 2.682586e+003
1.263465e+003, 2.688261e+003
1.263947e+003, 2.694359e+003
1.264429e+003, 2.692892e+003
1.264911e+003, 2.689072e+003
1.265393e+003, 2.691677e+003
1.265876e+003, 2.698950e+003
1.266358e+003, 2.697722e+003
1.266840e+003, 2.687296e+003
1.267322e+003, 2.682045e+003
1.267804e+003, 2.682553e+003
1.268286e+003, 2.682559e+003
1.268768e+003, 2.680648e+003
1.269250e+003, 2.679519e+003
1.269733e+003, 2.680719e+003
1.270215e+003, 2.681029e+003
1.270697e+003, 2.675735e+003
1.271179e+003, 2.669350e+003
1.271661e+003, 2.668173e+003
1.272143e+003, 2.670102e+003
1.272625e+003, 2.673549e+003
1.273107e+003, 2.677052e+003
1.273589e+003, 2.678801e+003
1.274072e+003, 2.678475e+003
1.274554e+003, 2.675149e+003
1.275036e+003, 2.667504e+003
1.275518e+003, 2.665690e+003
1.276000e+003, 2.680639e+003
1.276482e+003, 2.690085e+003
1.276964e+003, 2.682687e+003
1.277446e+003, 2.675833e+003
1.277929e+003, 2.678953e+003
1.278411e+003, 2.683533e+003
1.278893e+003, 2.680770e+003
1.279375e+003, 2.674047e+003
1.279857e+003, 2.673080e+003
1.280339e+003, 2.678071e+003
1.280821e+003, 2.677090e+003
1.281303e+003, 2.670334e+003
1.281786e+003, 2.667294e+003
1.282268e+003, 2.669129e+003
##END=



