##NAMES=Schmitterite
##RRUFFID=R060524
##IDEAL CHEMISTRY=(U^6+^O_2_)Te^4+^O_3_
##LOCALITY=Moctezuma mine, Moctezuma, Sonora, Mexico
##OWNER=RRUFF
##SOURCE=Michael Scott
##DESCRIPTION=Pale yellow rosette associated with green emmonsite, R060802
##STATUS=The identification of this mineral has been made only by X-ray diffraction.
##URL=rruff.info/R060524
8.813672e+001, 1.425875e+004
8.861884e+001, 1.441989e+004
8.910095e+001, 1.459181e+004
8.958307e+001, 1.484471e+004
9.006519e+001, 1.514976e+004
9.054730e+001, 1.542703e+004
9.102942e+001, 1.568327e+004
9.151154e+001, 1.591656e+004
9.199365e+001, 1.612136e+004
9.247577e+001, 1.630574e+004
9.295789e+001, 1.648646e+004
9.344000e+001, 1.667713e+004
9.392212e+001, 1.685946e+004
9.440424e+001, 1.702565e+004
9.488635e+001, 1.719312e+004
9.536847e+001, 1.737120e+004
9.585059e+001, 1.756915e+004
9.633270e+001, 1.778651e+004
9.681482e+001, 1.801409e+004
9.729694e+001, 1.823809e+004
9.777905e+001, 1.845938e+004
9.826117e+001, 1.869564e+004
9.874329e+001, 1.895321e+004
9.922540e+001, 1.922726e+004
9.970752e+001, 1.949661e+004
1.001896e+002, 1.975623e+004
1.006718e+002, 2.001137e+004
1.011539e+002, 2.026170e+004
1.016360e+002, 2.050273e+004
1.021181e+002, 2.076154e+004
1.026002e+002, 2.104897e+004
1.030823e+002, 2.137051e+004
1.035645e+002, 2.168405e+004
1.040466e+002, 2.198646e+004
1.045287e+002, 2.228642e+004
1.050108e+002, 2.260762e+004
1.054929e+002, 2.295313e+004
1.059750e+002, 2.331475e+004
1.064572e+002, 2.369023e+004
1.069393e+002, 2.409887e+004
1.074214e+002, 2.449075e+004
1.079035e+002, 2.485443e+004
1.083856e+002, 2.520436e+004
1.088677e+002, 2.557349e+004
1.093499e+002, 2.598649e+004
1.098320e+002, 2.640730e+004
1.103141e+002, 2.682001e+004
1.107962e+002, 2.723630e+004
1.112783e+002, 2.764050e+004
1.117604e+002, 2.804094e+004
1.122426e+002, 2.843829e+004
1.127247e+002, 2.880600e+004
1.132068e+002, 2.914510e+004
1.136889e+002, 2.945231e+004
1.141710e+002, 2.972151e+004
1.146531e+002, 2.996999e+004
1.151353e+002, 3.016148e+004
1.156174e+002, 3.028154e+004
1.160995e+002, 3.032862e+004
1.165816e+002, 3.033622e+004
1.170637e+002, 3.031062e+004
1.175458e+002, 3.025212e+004
1.180280e+002, 3.016040e+004
1.185101e+002, 3.000019e+004
1.189922e+002, 2.982897e+004
1.194743e+002, 2.967641e+004
1.199564e+002, 2.954246e+004
1.204385e+002, 2.943176e+004
1.209207e+002, 2.934418e+004
1.214028e+002, 2.928153e+004
1.218849e+002, 2.924741e+004
1.223670e+002, 2.926668e+004
1.228491e+002, 2.930459e+004
1.233312e+002, 2.932044e+004
1.238134e+002, 2.930317e+004
1.242955e+002, 2.928816e+004
1.247776e+002, 2.930642e+004
1.252597e+002, 2.935443e+004
1.257418e+002, 2.941997e+004
1.262239e+002, 2.950220e+004
1.267061e+002, 2.959721e+004
1.271882e+002, 2.969291e+004
1.276703e+002, 2.978531e+004
1.281524e+002, 2.988482e+004
1.286345e+002, 3.000938e+004
1.291166e+002, 3.015746e+004
1.295988e+002, 3.031281e+004
1.300809e+002, 3.046496e+004
1.305630e+002, 3.061434e+004
1.310451e+002, 3.076405e+004
1.315272e+002, 3.091189e+004
1.320093e+002, 3.105943e+004
1.324915e+002, 3.121119e+004
1.329736e+002, 3.136619e+004
1.334557e+002, 3.152901e+004
1.339378e+002, 3.170662e+004
1.344199e+002, 3.189855e+004
1.349020e+002, 3.208066e+004
1.353842e+002, 3.224544e+004
1.358663e+002, 3.239229e+004
1.363484e+002, 3.253726e+004
1.368305e+002, 3.267870e+004
1.373126e+002, 3.281929e+004
1.377947e+002, 3.296463e+004
1.382769e+002, 3.311925e+004
1.387590e+002, 3.325535e+004
1.392411e+002, 3.336381e+004
1.397232e+002, 3.344548e+004
1.402053e+002, 3.350739e+004
1.406874e+002, 3.354841e+004
1.411696e+002, 3.357408e+004
1.416517e+002, 3.359051e+004
1.421338e+002, 3.359704e+004
1.426159e+002, 3.360038e+004
1.430980e+002, 3.360684e+004
1.435801e+002, 3.362288e+004
1.440623e+002, 3.361556e+004
1.445444e+002, 3.357486e+004
1.450265e+002, 3.351901e+004
1.455086e+002, 3.347930e+004
1.459907e+002, 3.346512e+004
1.464728e+002, 3.345668e+004
1.469550e+002, 3.344885e+004
1.474371e+002, 3.344471e+004
1.479192e+002, 3.343541e+004
1.484013e+002, 3.341658e+004
1.488834e+002, 3.339316e+004
1.493655e+002, 3.337565e+004
1.498477e+002, 3.336368e+004
1.503298e+002, 3.335775e+004
1.508119e+002, 3.335846e+004
1.512940e+002, 3.337215e+004
1.517761e+002, 3.338238e+004
1.522583e+002, 3.338424e+004
1.527404e+002, 3.338138e+004
1.532225e+002, 3.338440e+004
1.537046e+002, 3.340118e+004
1.541867e+002, 3.341890e+004
1.546688e+002, 3.343159e+004
1.551510e+002, 3.343350e+004
1.556331e+002, 3.343696e+004
1.561152e+002, 3.344277e+004
1.565973e+002, 3.345142e+004
1.570794e+002, 3.346467e+004
1.575615e+002, 3.348123e+004
1.580437e+002, 3.350400e+004
1.585258e+002, 3.353487e+004
1.590079e+002, 3.357777e+004
1.594900e+002, 3.362529e+004
1.599721e+002, 3.368044e+004
1.604542e+002, 3.374098e+004
1.609364e+002, 3.379363e+004
1.614185e+002, 3.382277e+004
1.619006e+002, 3.384729e+004
1.623827e+002, 3.388234e+004
1.628648e+002, 3.393984e+004
1.633469e+002, 3.400202e+004
1.638291e+002, 3.406023e+004
1.643112e+002, 3.411473e+004
1.647933e+002, 3.417378e+004
1.652754e+002, 3.424696e+004
1.657575e+002, 3.432468e+004
1.662396e+002, 3.439682e+004
1.667218e+002, 3.444862e+004
1.672039e+002, 3.450203e+004
1.676860e+002, 3.457150e+004
1.681681e+002, 3.465648e+004
1.686502e+002, 3.474961e+004
1.691323e+002, 3.484812e+004
1.696145e+002, 3.495079e+004
1.700966e+002, 3.505538e+004
1.705787e+002, 3.516029e+004
1.710608e+002, 3.526736e+004
1.715429e+002, 3.537800e+004
1.720250e+002, 3.549336e+004
1.725072e+002, 3.561183e+004
1.729893e+002, 3.573730e+004
1.734714e+002, 3.586708e+004
1.739535e+002, 3.599611e+004
1.744356e+002, 3.611832e+004
1.749177e+002, 3.624004e+004
1.753999e+002, 3.637091e+004
1.758820e+002, 3.651274e+004
1.763641e+002, 3.665846e+004
1.768462e+002, 3.680551e+004
1.773283e+002, 3.695386e+004
1.778104e+002, 3.710457e+004
1.782926e+002, 3.725188e+004
1.787747e+002, 3.740143e+004
1.792568e+002, 3.756273e+004
1.797389e+002, 3.773481e+004
1.802210e+002, 3.791617e+004
1.807031e+002, 3.810677e+004
1.811853e+002, 3.830371e+004
1.816674e+002, 3.849168e+004
1.821495e+002, 3.865882e+004
1.826316e+002, 3.881128e+004
1.831137e+002, 3.896357e+004
1.835958e+002, 3.912223e+004
1.840780e+002, 3.926513e+004
1.845601e+002, 3.936161e+004
1.850422e+002, 3.941501e+004
1.855243e+002, 3.945586e+004
1.860064e+002, 3.950905e+004
1.864885e+002, 3.956488e+004
1.869707e+002, 3.958261e+004
1.874528e+002, 3.955656e+004
1.879349e+002, 3.950365e+004
1.884170e+002, 3.944610e+004
1.888991e+002, 3.938380e+004
1.893812e+002, 3.931524e+004
1.898634e+002, 3.924048e+004
1.903455e+002, 3.915859e+004
1.908276e+002, 3.906154e+004
1.913097e+002, 3.894395e+004
1.917918e+002, 3.881755e+004
1.922739e+002, 3.869921e+004
1.927561e+002, 3.858691e+004
1.932382e+002, 3.848554e+004
1.937203e+002, 3.839575e+004
1.942024e+002, 3.831764e+004
1.946845e+002, 3.825509e+004
1.951666e+002, 3.821477e+004
1.956488e+002, 3.818058e+004
1.961309e+002, 3.812048e+004
1.966130e+002, 3.803180e+004
1.970951e+002, 3.793315e+004
1.975772e+002, 3.783512e+004
1.980593e+002, 3.773800e+004
1.985415e+002, 3.763049e+004
1.990236e+002, 3.751364e+004
1.995057e+002, 3.738438e+004
1.999878e+002, 3.723548e+004
2.004699e+002, 3.706420e+004
2.009520e+002, 3.688645e+004
2.014342e+002, 3.670856e+004
2.019163e+002, 3.652827e+004
2.023984e+002, 3.636702e+004
2.028805e+002, 3.623231e+004
2.033626e+002, 3.611190e+004
2.038447e+002, 3.597231e+004
2.043269e+002, 3.580750e+004
2.048090e+002, 3.564404e+004
2.052911e+002, 3.549771e+004
2.057732e+002, 3.536857e+004
2.062553e+002, 3.525020e+004
2.067374e+002, 3.514148e+004
2.072196e+002, 3.504389e+004
2.077017e+002, 3.496432e+004
2.081838e+002, 3.490813e+004
2.086659e+002, 3.485527e+004
2.091480e+002, 3.479279e+004
2.096301e+002, 3.471523e+004
2.101123e+002, 3.465195e+004
2.105944e+002, 3.460751e+004
2.110765e+002, 3.457654e+004
2.115586e+002, 3.454366e+004
2.120407e+002, 3.450769e+004
2.125228e+002, 3.447254e+004
2.130050e+002, 3.443865e+004
2.134871e+002, 3.440282e+004
2.139692e+002, 3.438185e+004
2.144513e+002, 3.438359e+004
2.149334e+002, 3.439783e+004
2.154155e+002, 3.439233e+004
2.158977e+002, 3.435782e+004
2.163798e+002, 3.432052e+004
2.168619e+002, 3.429505e+004
2.173440e+002, 3.428551e+004
2.178261e+002, 3.427299e+004
2.183082e+002, 3.425320e+004
2.187904e+002, 3.423049e+004
2.192725e+002, 3.421989e+004
2.197546e+002, 3.422663e+004
2.202367e+002, 3.423610e+004
2.207188e+002, 3.424152e+004
2.212009e+002, 3.424329e+004
2.216831e+002, 3.424098e+004
2.221652e+002, 3.423436e+004
2.226473e+002, 3.422451e+004
2.231294e+002, 3.421307e+004
2.236115e+002, 3.419651e+004
2.240936e+002, 3.418570e+004
2.245758e+002, 3.418721e+004
2.250579e+002, 3.420751e+004
2.255400e+002, 3.422521e+004
2.260221e+002, 3.423629e+004
2.265042e+002, 3.424606e+004
2.269863e+002, 3.427057e+004
2.274685e+002, 3.432259e+004
2.279506e+002, 3.436996e+004
2.284327e+002, 3.439498e+004
2.289148e+002, 3.437947e+004
2.293969e+002, 3.438375e+004
2.298790e+002, 3.441220e+004
2.303612e+002, 3.445886e+004
2.308433e+002, 3.450985e+004
2.313254e+002, 3.456868e+004
2.318075e+002, 3.462630e+004
2.322896e+002, 3.467945e+004
2.327717e+002, 3.472926e+004
2.332539e+002, 3.477020e+004
2.337360e+002, 3.480045e+004
2.342181e+002, 3.482115e+004
2.347002e+002, 3.483456e+004
2.351823e+002, 3.483720e+004
2.356644e+002, 3.483662e+004
2.361466e+002, 3.483592e+004
2.366287e+002, 3.483672e+004
2.371108e+002, 3.483139e+004
2.375929e+002, 3.481479e+004
2.380750e+002, 3.479424e+004
2.385571e+002, 3.478709e+004
2.390393e+002, 3.480748e+004
2.395214e+002, 3.481940e+004
2.400035e+002, 3.480734e+004
2.404856e+002, 3.475994e+004
2.409677e+002, 3.472460e+004
2.414498e+002, 3.470479e+004
2.419320e+002, 3.469636e+004
2.424141e+002, 3.469184e+004
2.428962e+002, 3.469309e+004
2.433783e+002, 3.469674e+004
2.438604e+002, 3.470139e+004
2.443425e+002, 3.470588e+004
2.448247e+002, 3.471851e+004
2.453068e+002, 3.474517e+004
2.457889e+002, 3.477668e+004
2.462710e+002, 3.479714e+004
2.467531e+002, 3.479591e+004
2.472352e+002, 3.480144e+004
2.477174e+002, 3.482413e+004
2.481995e+002, 3.486771e+004
2.486816e+002, 3.490634e+004
2.491637e+002, 3.493789e+004
2.496458e+002, 3.496543e+004
2.501279e+002, 3.499313e+004
2.506101e+002, 3.502183e+004
2.510922e+002, 3.504872e+004
2.515743e+002, 3.507309e+004
2.520564e+002, 3.509520e+004
2.525385e+002, 3.511223e+004
2.530206e+002, 3.512179e+004
2.535028e+002, 3.512847e+004
2.539849e+002, 3.513729e+004
2.544670e+002, 3.514800e+004
2.549491e+002, 3.516205e+004
2.554312e+002, 3.518119e+004
2.559133e+002, 3.520583e+004
2.563955e+002, 3.522849e+004
2.568776e+002, 3.525296e+004
2.573597e+002, 3.527123e+004
2.578418e+002, 3.527271e+004
2.583239e+002, 3.524857e+004
2.588061e+002, 3.522784e+004
2.592882e+002, 3.521600e+004
2.597703e+002, 3.521287e+004
2.602524e+002, 3.521343e+004
2.607345e+002, 3.521969e+004
2.612166e+002, 3.522684e+004
2.616988e+002, 3.522957e+004
2.621809e+002, 3.522442e+004
2.626630e+002, 3.522558e+004
2.631451e+002, 3.523861e+004
2.636272e+002, 3.526164e+004
2.641093e+002, 3.527459e+004
2.645915e+002, 3.527368e+004
2.650736e+002, 3.527036e+004
2.655557e+002, 3.527584e+004
2.660378e+002, 3.529543e+004
2.665199e+002, 3.530504e+004
2.670020e+002, 3.529814e+004
2.674842e+002, 3.527877e+004
2.679663e+002, 3.526746e+004
2.684484e+002, 3.526527e+004
2.689305e+002, 3.526821e+004
2.694126e+002, 3.527304e+004
2.698947e+002, 3.527868e+004
2.703769e+002, 3.529118e+004
2.708590e+002, 3.531370e+004
2.713411e+002, 3.534205e+004
2.718232e+002, 3.536292e+004
2.723053e+002, 3.537609e+004
2.727874e+002, 3.538196e+004
2.732696e+002, 3.537643e+004
2.737517e+002, 3.535566e+004
2.742338e+002, 3.534984e+004
2.747159e+002, 3.536490e+004
2.751980e+002, 3.539186e+004
2.756801e+002, 3.540886e+004
2.761623e+002, 3.541411e+004
2.766444e+002, 3.541877e+004
2.771265e+002, 3.542954e+004
2.776086e+002, 3.544745e+004
2.780907e+002, 3.546383e+004
2.785728e+002, 3.548080e+004
2.790550e+002, 3.549309e+004
2.795371e+002, 3.548577e+004
2.800192e+002, 3.545545e+004
2.805013e+002, 3.543295e+004
2.809834e+002, 3.543385e+004
2.814655e+002, 3.545745e+004
2.819477e+002, 3.548313e+004
2.824298e+002, 3.551125e+004
2.829119e+002, 3.553846e+004
2.833940e+002, 3.555785e+004
2.838761e+002, 3.556869e+004
2.843582e+002, 3.558211e+004
2.848404e+002, 3.560363e+004
2.853225e+002, 3.563110e+004
2.858046e+002, 3.565461e+004
2.862867e+002, 3.567408e+004
2.867688e+002, 3.568761e+004
2.872509e+002, 3.569064e+004
2.877331e+002, 3.568399e+004
2.882152e+002, 3.567750e+004
2.886973e+002, 3.567351e+004
2.891794e+002, 3.567275e+004
2.896615e+002, 3.568150e+004
2.901436e+002, 3.570164e+004
2.906258e+002, 3.571596e+004
2.911079e+002, 3.570420e+004
2.915900e+002, 3.567137e+004
2.920721e+002, 3.564156e+004
2.925542e+002, 3.561939e+004
2.930363e+002, 3.560632e+004
2.935185e+002, 3.560744e+004
2.940006e+002, 3.562290e+004
2.944827e+002, 3.564444e+004
2.949648e+002, 3.567191e+004
2.954469e+002, 3.570130e+004
2.959290e+002, 3.571762e+004
2.964112e+002, 3.571304e+004
2.968933e+002, 3.570246e+004
2.973754e+002, 3.570895e+004
2.978575e+002, 3.573036e+004
2.983396e+002, 3.575556e+004
2.988217e+002, 3.577753e+004
2.993039e+002, 3.579762e+004
2.997860e+002, 3.581759e+004
3.002681e+002, 3.583687e+004
3.007502e+002, 3.585812e+004
3.012323e+002, 3.588915e+004
3.017144e+002, 3.592609e+004
3.021966e+002, 3.595429e+004
3.026787e+002, 3.596186e+004
3.031608e+002, 3.595809e+004
3.036429e+002, 3.595367e+004
3.041250e+002, 3.594883e+004
3.046071e+002, 3.594840e+004
3.050893e+002, 3.596161e+004
3.055714e+002, 3.598266e+004
3.060535e+002, 3.599894e+004
3.065356e+002, 3.600725e+004
3.070177e+002, 3.600702e+004
3.074998e+002, 3.599116e+004
3.079820e+002, 3.595949e+004
3.084641e+002, 3.593613e+004
3.089462e+002, 3.595110e+004
3.094283e+002, 3.598214e+004
3.099104e+002, 3.599869e+004
3.103925e+002, 3.596851e+004
3.108747e+002, 3.593715e+004
3.113568e+002, 3.594085e+004
3.118389e+002, 3.597555e+004
3.123210e+002, 3.600924e+004
3.128031e+002, 3.602618e+004
3.132852e+002, 3.603346e+004
3.137674e+002, 3.603732e+004
3.142495e+002, 3.603403e+004
3.147316e+002, 3.603467e+004
3.152137e+002, 3.604868e+004
3.156958e+002, 3.607186e+004
3.161779e+002, 3.609042e+004
3.166601e+002, 3.609693e+004
3.171422e+002, 3.609735e+004
3.176243e+002, 3.609300e+004
3.181064e+002, 3.607609e+004
3.185885e+002, 3.607062e+004
3.190706e+002, 3.609131e+004
3.195528e+002, 3.612818e+004
3.200349e+002, 3.616208e+004
3.205170e+002, 3.619091e+004
3.209991e+002, 3.621261e+004
3.214812e+002, 3.622267e+004
3.219633e+002, 3.621489e+004
3.224455e+002, 3.621770e+004
3.229276e+002, 3.624478e+004
3.234097e+002, 3.628300e+004
3.238918e+002, 3.631629e+004
3.243739e+002, 3.634552e+004
3.248560e+002, 3.636680e+004
3.253382e+002, 3.637626e+004
3.258203e+002, 3.637244e+004
3.263024e+002, 3.637383e+004
3.267845e+002, 3.638755e+004
3.272666e+002, 3.640439e+004
3.277487e+002, 3.641714e+004
3.282309e+002, 3.642271e+004
3.287130e+002, 3.642776e+004
3.291951e+002, 3.643188e+004
3.296772e+002, 3.643541e+004
3.301593e+002, 3.644175e+004
3.306414e+002, 3.644916e+004
3.311236e+002, 3.646054e+004
3.316057e+002, 3.647768e+004
3.320878e+002, 3.650365e+004
3.325699e+002, 3.652902e+004
3.330520e+002, 3.655438e+004
3.335341e+002, 3.657796e+004
3.340163e+002, 3.659375e+004
3.344984e+002, 3.659402e+004
3.349805e+002, 3.659866e+004
3.354626e+002, 3.661813e+004
3.359447e+002, 3.665900e+004
3.364268e+002, 3.668957e+004
3.369090e+002, 3.670730e+004
3.373911e+002, 3.671832e+004
3.378732e+002, 3.673438e+004
3.383553e+002, 3.676045e+004
3.388374e+002, 3.677503e+004
3.393195e+002, 3.676580e+004
3.398017e+002, 3.673452e+004
3.402838e+002, 3.672651e+004
3.407659e+002, 3.674885e+004
3.412480e+002, 3.677744e+004
3.417301e+002, 3.678168e+004
3.422122e+002, 3.675882e+004
3.426944e+002, 3.675373e+004
3.431765e+002, 3.678094e+004
3.436586e+002, 3.683059e+004
3.441407e+002, 3.687137e+004
3.446228e+002, 3.690294e+004
3.451049e+002, 3.692620e+004
3.455871e+002, 3.693402e+004
3.460692e+002, 3.693021e+004
3.465513e+002, 3.694257e+004
3.470334e+002, 3.697824e+004
3.475155e+002, 3.702382e+004
3.479977e+002, 3.705596e+004
3.484798e+002, 3.707630e+004
3.489619e+002, 3.709654e+004
3.494440e+002, 3.712931e+004
3.499261e+002, 3.716631e+004
3.504082e+002, 3.718482e+004
3.508904e+002, 3.718100e+004
3.513725e+002, 3.717557e+004
3.518546e+002, 3.719063e+004
3.523367e+002, 3.722141e+004
3.528188e+002, 3.725520e+004
3.533009e+002, 3.729585e+004
3.537831e+002, 3.733159e+004
3.542652e+002, 3.734113e+004
3.547473e+002, 3.732588e+004
3.552294e+002, 3.731611e+004
3.557115e+002, 3.734198e+004
3.561936e+002, 3.738417e+004
3.566758e+002, 3.741667e+004
3.571579e+002, 3.742516e+004
3.576400e+002, 3.743108e+004
3.581221e+002, 3.745057e+004
3.586042e+002, 3.748075e+004
3.590863e+002, 3.751153e+004
3.595685e+002, 3.754069e+004
3.600506e+002, 3.756714e+004
3.605327e+002, 3.758854e+004
3.610148e+002, 3.760090e+004
3.614969e+002, 3.761863e+004
3.619790e+002, 3.764977e+004
3.624612e+002, 3.768984e+004
3.629433e+002, 3.773168e+004
3.634254e+002, 3.777090e+004
3.639075e+002, 3.781301e+004
3.643896e+002, 3.786152e+004
3.648717e+002, 3.791748e+004
3.653539e+002, 3.797068e+004
3.658360e+002, 3.802483e+004
3.663181e+002, 3.807176e+004
3.668002e+002, 3.810533e+004
3.672823e+002, 3.809703e+004
3.677644e+002, 3.810524e+004
3.682466e+002, 3.814442e+004
3.687287e+002, 3.821214e+004
3.692108e+002, 3.827627e+004
3.696929e+002, 3.833864e+004
3.701750e+002, 3.839666e+004
3.706571e+002, 3.844852e+004
3.711393e+002, 3.849378e+004
3.716214e+002, 3.853454e+004
3.721035e+002, 3.856635e+004
3.725856e+002, 3.859598e+004
3.730677e+002, 3.863812e+004
3.735498e+002, 3.869636e+004
3.740320e+002, 3.876165e+004
3.745141e+002, 3.883221e+004
3.749962e+002, 3.890888e+004
3.754783e+002, 3.898129e+004
3.759604e+002, 3.904701e+004
3.764425e+002, 3.911129e+004
3.769247e+002, 3.918180e+004
3.774068e+002, 3.925963e+004
3.778889e+002, 3.933245e+004
3.783710e+002, 3.939420e+004
3.788531e+002, 3.944825e+004
3.793352e+002, 3.951127e+004
3.798174e+002, 3.958346e+004
3.802995e+002, 3.965932e+004
3.807816e+002, 3.972966e+004
3.812637e+002, 3.979723e+004
3.817458e+002, 3.988237e+004
3.822279e+002, 3.999450e+004
3.827101e+002, 4.011407e+004
3.831922e+002, 4.020846e+004
3.836743e+002, 4.028186e+004
3.841564e+002, 4.035646e+004
3.846385e+002, 4.044504e+004
3.851206e+002, 4.054398e+004
3.856028e+002, 4.064940e+004
3.860849e+002, 4.076195e+004
3.865670e+002, 4.087173e+004
3.870491e+002, 4.097010e+004
3.875312e+002, 4.105968e+004
3.880133e+002, 4.114639e+004
3.884955e+002, 4.122758e+004
3.889776e+002, 4.131063e+004
3.894597e+002, 4.140799e+004
3.899418e+002, 4.151577e+004
3.904239e+002, 4.161126e+004
3.909060e+002, 4.167274e+004
3.913882e+002, 4.171988e+004
3.918703e+002, 4.177188e+004
3.923524e+002, 4.184001e+004
3.928345e+002, 4.189901e+004
3.933166e+002, 4.192991e+004
3.937987e+002, 4.194355e+004
3.942809e+002, 4.196132e+004
3.947630e+002, 4.200261e+004
3.952451e+002, 4.203890e+004
3.957272e+002, 4.205883e+004
3.962093e+002, 4.206049e+004
3.966914e+002, 4.204939e+004
3.971736e+002, 4.201845e+004
3.976557e+002, 4.197861e+004
3.981378e+002, 4.193971e+004
3.986199e+002, 4.190450e+004
3.991020e+002, 4.186811e+004
3.995841e+002, 4.182814e+004
4.000663e+002, 4.178538e+004
4.005484e+002, 4.174663e+004
4.010305e+002, 4.172183e+004
4.015126e+002, 4.169050e+004
4.019947e+002, 4.164114e+004
4.024768e+002, 4.156407e+004
4.029590e+002, 4.149444e+004
4.034411e+002, 4.143299e+004
4.039232e+002, 4.137964e+004
4.044053e+002, 4.133543e+004
4.048874e+002, 4.130353e+004
4.053695e+002, 4.127321e+004
4.058517e+002, 4.124104e+004
4.063338e+002, 4.120780e+004
4.068159e+002, 4.117393e+004
4.072980e+002, 4.113689e+004
4.077801e+002, 4.110879e+004
4.082622e+002, 4.110647e+004
4.087444e+002, 4.112845e+004
4.092265e+002, 4.114379e+004
4.097086e+002, 4.114264e+004
4.101907e+002, 4.113593e+004
4.106728e+002, 4.114997e+004
4.111549e+002, 4.118237e+004
4.116371e+002, 4.121101e+004
4.121192e+002, 4.121627e+004
4.126013e+002, 4.120808e+004
4.130834e+002, 4.120888e+004
4.135655e+002, 4.122068e+004
4.140476e+002, 4.123593e+004
4.145298e+002, 4.125288e+004
4.150119e+002, 4.126748e+004
4.154940e+002, 4.127195e+004
4.159761e+002, 4.125270e+004
4.164582e+002, 4.122996e+004
4.169403e+002, 4.122211e+004
4.174225e+002, 4.122755e+004
4.179046e+002, 4.123599e+004
4.183867e+002, 4.124830e+004
4.188688e+002, 4.125788e+004
4.193509e+002, 4.125812e+004
4.198330e+002, 4.124395e+004
4.203152e+002, 4.122986e+004
4.207973e+002, 4.122396e+004
4.212794e+002, 4.122200e+004
4.217615e+002, 4.121599e+004
4.222436e+002, 4.120149e+004
4.227257e+002, 4.118569e+004
4.232079e+002, 4.117056e+004
4.236900e+002, 4.115641e+004
4.241721e+002, 4.114383e+004
4.246542e+002, 4.113075e+004
4.251363e+002, 4.112039e+004
4.256184e+002, 4.111459e+004
4.261006e+002, 4.110888e+004
4.265827e+002, 4.111469e+004
4.270648e+002, 4.114231e+004
4.275469e+002, 4.118084e+004
4.280290e+002, 4.119079e+004
4.285111e+002, 4.116023e+004
4.289933e+002, 4.112233e+004
4.294754e+002, 4.108875e+004
4.299575e+002, 4.105780e+004
4.304396e+002, 4.104217e+004
4.309217e+002, 4.104829e+004
4.314038e+002, 4.105482e+004
4.318860e+002, 4.103216e+004
4.323681e+002, 4.097940e+004
4.328502e+002, 4.092504e+004
4.333323e+002, 4.087598e+004
4.338144e+002, 4.083174e+004
4.342965e+002, 4.078963e+004
4.347787e+002, 4.075031e+004
4.352608e+002, 4.071806e+004
4.357429e+002, 4.070473e+004
4.362250e+002, 4.070123e+004
4.367071e+002, 4.068333e+004
4.371892e+002, 4.064722e+004
4.376714e+002, 4.060293e+004
4.381535e+002, 4.055034e+004
4.386356e+002, 4.049799e+004
4.391177e+002, 4.046504e+004
4.395998e+002, 4.048325e+004
4.400819e+002, 4.050757e+004
4.405641e+002, 4.049415e+004
4.410462e+002, 4.044577e+004
4.415283e+002, 4.040017e+004
4.420104e+002, 4.037560e+004
4.424925e+002, 4.036334e+004
4.429746e+002, 4.035806e+004
4.434568e+002, 4.036607e+004
4.439389e+002, 4.036579e+004
4.444210e+002, 4.033891e+004
4.449031e+002, 4.030006e+004
4.453852e+002, 4.027720e+004
4.458673e+002, 4.029627e+004
4.463495e+002, 4.031320e+004
4.468316e+002, 4.031246e+004
4.473137e+002, 4.029049e+004
4.477958e+002, 4.027768e+004
4.482779e+002, 4.028500e+004
4.487600e+002, 4.029351e+004
4.492422e+002, 4.028858e+004
4.497243e+002, 4.026221e+004
4.502064e+002, 4.023946e+004
4.506885e+002, 4.022040e+004
4.511706e+002, 4.020666e+004
4.516527e+002, 4.020523e+004
4.521349e+002, 4.022000e+004
4.526170e+002, 4.023204e+004
4.530991e+002, 4.022864e+004
4.535812e+002, 4.021061e+004
4.540633e+002, 4.021014e+004
4.545454e+002, 4.022949e+004
4.550276e+002, 4.025305e+004
4.555097e+002, 4.026188e+004
4.559918e+002, 4.025873e+004
4.564739e+002, 4.026173e+004
4.569560e+002, 4.027998e+004
4.574381e+002, 4.029900e+004
4.579203e+002, 4.028962e+004
4.584024e+002, 4.025802e+004
4.588845e+002, 4.023256e+004
4.593666e+002, 4.024002e+004
4.598488e+002, 4.025920e+004
4.603309e+002, 4.026108e+004
4.608130e+002, 4.024182e+004
4.612951e+002, 4.022600e+004
4.617772e+002, 4.024086e+004
4.622593e+002, 4.026576e+004
4.627415e+002, 4.027613e+004
4.632236e+002, 4.025010e+004
4.637057e+002, 4.022266e+004
4.641878e+002, 4.020754e+004
4.646699e+002, 4.020245e+004
4.651520e+002, 4.019880e+004
4.656342e+002, 4.019309e+004
4.661163e+002, 4.019000e+004
4.665984e+002, 4.019099e+004
4.670805e+002, 4.019504e+004
4.675626e+002, 4.020782e+004
4.680447e+002, 4.024055e+004
4.685269e+002, 4.027529e+004
4.690090e+002, 4.029206e+004
4.694911e+002, 4.027352e+004
4.699732e+002, 4.027008e+004
4.704553e+002, 4.029261e+004
4.709374e+002, 4.033514e+004
4.714196e+002, 4.037650e+004
4.719017e+002, 4.041956e+004
4.723838e+002, 4.044997e+004
4.728659e+002, 4.045045e+004
4.733480e+002, 4.042061e+004
4.738301e+002, 4.042005e+004
4.743123e+002, 4.045488e+004
4.747944e+002, 4.049700e+004
4.752765e+002, 4.050817e+004
4.757586e+002, 4.049449e+004
4.762407e+002, 4.048931e+004
4.767228e+002, 4.050660e+004
4.772050e+002, 4.053349e+004
4.776871e+002, 4.055127e+004
4.781692e+002, 4.056138e+004
4.786513e+002, 4.056938e+004
4.791334e+002, 4.057586e+004
4.796155e+002, 4.058438e+004
4.800977e+002, 4.060245e+004
4.805798e+002, 4.063363e+004
4.810619e+002, 4.065763e+004
4.815440e+002, 4.065173e+004
4.820261e+002, 4.063605e+004
4.825082e+002, 4.063387e+004
4.829904e+002, 4.066447e+004
4.834725e+002, 4.069677e+004
4.839546e+002, 4.071982e+004
4.844367e+002, 4.073616e+004
4.849188e+002, 4.075698e+004
4.854009e+002, 4.077779e+004
4.858831e+002, 4.080823e+004
4.863652e+002, 4.085630e+004
4.868473e+002, 4.093193e+004
4.873294e+002, 4.098331e+004
4.878115e+002, 4.099698e+004
4.882936e+002, 4.099751e+004
4.887758e+002, 4.101160e+004
4.892579e+002, 4.104486e+004
4.897400e+002, 4.107195e+004
4.902221e+002, 4.108855e+004
4.907042e+002, 4.109603e+004
4.911863e+002, 4.109671e+004
4.916685e+002, 4.109018e+004
4.921506e+002, 4.108299e+004
4.926327e+002, 4.107959e+004
4.931148e+002, 4.107940e+004
4.935969e+002, 4.107888e+004
4.940790e+002, 4.107852e+004
4.945612e+002, 4.107862e+004
4.950433e+002, 4.108170e+004
4.955254e+002, 4.108602e+004
4.960075e+002, 4.108616e+004
4.964896e+002, 4.107705e+004
4.969717e+002, 4.106998e+004
4.974539e+002, 4.107642e+004
4.979360e+002, 4.109359e+004
4.984181e+002, 4.111395e+004
4.989002e+002, 4.114231e+004
4.993823e+002, 4.116579e+004
4.998644e+002, 4.117094e+004
5.003466e+002, 4.115455e+004
5.008287e+002, 4.114751e+004
5.013108e+002, 4.116484e+004
5.017929e+002, 4.119058e+004
5.022750e+002, 4.121244e+004
5.027571e+002, 4.123573e+004
5.032393e+002, 4.124472e+004
5.037214e+002, 4.122592e+004
5.042035e+002, 4.119488e+004
5.046856e+002, 4.118641e+004
5.051677e+002, 4.121555e+004
5.056498e+002, 4.123992e+004
5.061320e+002, 4.124621e+004
5.066141e+002, 4.123548e+004
5.070962e+002, 4.122633e+004
5.075783e+002, 4.121969e+004
5.080604e+002, 4.121388e+004
5.085425e+002, 4.121038e+004
5.090247e+002, 4.120889e+004
5.095068e+002, 4.119695e+004
5.099889e+002, 4.117045e+004
5.104710e+002, 4.114305e+004
5.109531e+002, 4.113242e+004
5.114352e+002, 4.113704e+004
5.119174e+002, 4.115101e+004
5.123995e+002, 4.117994e+004
5.128816e+002, 4.121124e+004
5.133637e+002, 4.122835e+004
5.138458e+002, 4.123314e+004
5.143279e+002, 4.123864e+004
5.148101e+002, 4.125487e+004
5.152922e+002, 4.127241e+004
5.157743e+002, 4.128257e+004
5.162564e+002, 4.128119e+004
5.167385e+002, 4.128012e+004
5.172206e+002, 4.128611e+004
5.177028e+002, 4.129298e+004
5.181849e+002, 4.129393e+004
5.186670e+002, 4.127673e+004
5.191491e+002, 4.126677e+004
5.196312e+002, 4.127337e+004
5.201133e+002, 4.129173e+004
5.205955e+002, 4.130089e+004
5.210776e+002, 4.130007e+004
5.215597e+002, 4.129302e+004
5.220418e+002, 4.127671e+004
5.225239e+002, 4.124873e+004
5.230060e+002, 4.125020e+004
5.234882e+002, 4.128886e+004
5.239703e+002, 4.133750e+004
5.244524e+002, 4.137107e+004
5.249345e+002, 4.138969e+004
5.254166e+002, 4.139365e+004
5.258987e+002, 4.137759e+004
5.263809e+002, 4.135700e+004
5.268630e+002, 4.135338e+004
5.273451e+002, 4.136525e+004
5.278272e+002, 4.138757e+004
5.283093e+002, 4.142182e+004
5.287914e+002, 4.146170e+004
5.292736e+002, 4.150254e+004
5.297557e+002, 4.154352e+004
5.302378e+002, 4.157870e+004
5.307199e+002, 4.160120e+004
5.312020e+002, 4.161834e+004
5.316841e+002, 4.163630e+004
5.321663e+002, 4.165860e+004
5.326484e+002, 4.167663e+004
5.331305e+002, 4.169029e+004
5.336126e+002, 4.169843e+004
5.340947e+002, 4.169945e+004
5.345768e+002, 4.168200e+004
5.350590e+002, 4.167284e+004
5.355411e+002, 4.168164e+004
5.360232e+002, 4.170461e+004
5.365053e+002, 4.171564e+004
5.369874e+002, 4.171131e+004
5.374695e+002, 4.170458e+004
5.379517e+002, 4.170154e+004
5.384338e+002, 4.170246e+004
5.389159e+002, 4.170648e+004
5.393980e+002, 4.171401e+004
5.398801e+002, 4.172284e+004
5.403622e+002, 4.172718e+004
5.408444e+002, 4.172929e+004
5.413265e+002, 4.174309e+004
5.418086e+002, 4.177745e+004
5.422907e+002, 4.181222e+004
5.427728e+002, 4.181158e+004
5.432549e+002, 4.178824e+004
5.437371e+002, 4.177925e+004
5.442192e+002, 4.182080e+004
5.447013e+002, 4.187062e+004
5.451834e+002, 4.189651e+004
5.456655e+002, 4.189897e+004
5.461476e+002, 4.189780e+004
5.466298e+002, 4.189346e+004
5.471119e+002, 4.189439e+004
5.475940e+002, 4.190866e+004
5.480761e+002, 4.195260e+004
5.485582e+002, 4.197935e+004
5.490403e+002, 4.196992e+004
5.495225e+002, 4.194984e+004
5.500046e+002, 4.195008e+004
5.504867e+002, 4.198045e+004
5.509688e+002, 4.201146e+004
5.514509e+002, 4.203946e+004
5.519330e+002, 4.206380e+004
5.524152e+002, 4.207913e+004
5.528973e+002, 4.208252e+004
5.533794e+002, 4.209157e+004
5.538615e+002, 4.212071e+004
5.543436e+002, 4.216426e+004
5.548257e+002, 4.219148e+004
5.553079e+002, 4.220123e+004
5.557900e+002, 4.220611e+004
5.562721e+002, 4.221647e+004
5.567542e+002, 4.223019e+004
5.572363e+002, 4.224465e+004
5.577184e+002, 4.226155e+004
5.582006e+002, 4.227355e+004
5.586827e+002, 4.226948e+004
5.591648e+002, 4.225791e+004
5.596469e+002, 4.225302e+004
5.601290e+002, 4.226716e+004
5.606111e+002, 4.228265e+004
5.610933e+002, 4.229321e+004
5.615754e+002, 4.229935e+004
5.620575e+002, 4.230425e+004
5.625396e+002, 4.230325e+004
5.630217e+002, 4.230596e+004
5.635038e+002, 4.231741e+004
5.639860e+002, 4.234052e+004
5.644681e+002, 4.235752e+004
5.649502e+002, 4.236549e+004
5.654323e+002, 4.237152e+004
5.659144e+002, 4.238241e+004
5.663965e+002, 4.239857e+004
5.668787e+002, 4.241509e+004
5.673608e+002, 4.243033e+004
5.678429e+002, 4.244781e+004
5.683250e+002, 4.247907e+004
5.688071e+002, 4.252046e+004
5.692892e+002, 4.254973e+004
5.697714e+002, 4.254430e+004
5.702535e+002, 4.252948e+004
5.707356e+002, 4.254108e+004
5.712177e+002, 4.257583e+004
5.716998e+002, 4.261363e+004
5.721819e+002, 4.264567e+004
5.726641e+002, 4.267430e+004
5.731462e+002, 4.270104e+004
5.736283e+002, 4.272596e+004
5.741104e+002, 4.274860e+004
5.745925e+002, 4.277101e+004
5.750746e+002, 4.278940e+004
5.755568e+002, 4.280049e+004
5.760389e+002, 4.279157e+004
5.765210e+002, 4.279211e+004
5.770031e+002, 4.280625e+004
5.774852e+002, 4.282949e+004
5.779673e+002, 4.285643e+004
5.784495e+002, 4.289498e+004
5.789316e+002, 4.291247e+004
5.794137e+002, 4.288873e+004
5.798958e+002, 4.283871e+004
5.803779e+002, 4.283067e+004
5.808600e+002, 4.286667e+004
5.813422e+002, 4.290429e+004
5.818243e+002, 4.290398e+004
5.823064e+002, 4.288577e+004
5.827885e+002, 4.289851e+004
5.832706e+002, 4.294723e+004
5.837527e+002, 4.300337e+004
5.842349e+002, 4.305868e+004
5.847170e+002, 4.310200e+004
5.851991e+002, 4.311625e+004
5.856812e+002, 4.307607e+004
5.861633e+002, 4.304151e+004
5.866454e+002, 4.304160e+004
5.871276e+002, 4.306330e+004
5.876097e+002, 4.308313e+004
5.880918e+002, 4.309762e+004
5.885739e+002, 4.310832e+004
5.890560e+002, 4.311339e+004
5.895381e+002, 4.311414e+004
5.900203e+002, 4.312045e+004
5.905024e+002, 4.313587e+004
5.909845e+002, 4.315088e+004
5.914666e+002, 4.316258e+004
5.919487e+002, 4.317159e+004
5.924308e+002, 4.317153e+004
5.929130e+002, 4.316171e+004
5.933951e+002, 4.314981e+004
5.938772e+002, 4.314299e+004
5.943593e+002, 4.314066e+004
5.948414e+002, 4.313791e+004
5.953235e+002, 4.313088e+004
5.958057e+002, 4.313438e+004
5.962878e+002, 4.317383e+004
5.967699e+002, 4.323339e+004
5.972520e+002, 4.328289e+004
5.977341e+002, 4.330656e+004
5.982162e+002, 4.332070e+004
5.986984e+002, 4.332771e+004
5.991805e+002, 4.332985e+004
5.996626e+002, 4.333659e+004
6.001447e+002, 4.334971e+004
6.006268e+002, 4.336720e+004
6.011089e+002, 4.339000e+004
6.015911e+002, 4.341900e+004
6.020732e+002, 4.344083e+004
6.025553e+002, 4.345339e+004
6.030374e+002, 4.346207e+004
6.035195e+002, 4.346817e+004
6.040016e+002, 4.347080e+004
6.044838e+002, 4.348761e+004
6.049659e+002, 4.352409e+004
6.054480e+002, 4.356018e+004
6.059301e+002, 4.356152e+004
6.064122e+002, 4.353812e+004
6.068943e+002, 4.353226e+004
6.073765e+002, 4.356375e+004
6.078586e+002, 4.360311e+004
6.083407e+002, 4.361325e+004
6.088228e+002, 4.360504e+004
6.093049e+002, 4.360501e+004
6.097870e+002, 4.363658e+004
6.102692e+002, 4.366926e+004
6.107513e+002, 4.368493e+004
6.112334e+002, 4.368448e+004
6.117155e+002, 4.368560e+004
6.121976e+002, 4.369284e+004
6.126797e+002, 4.370177e+004
6.131619e+002, 4.370991e+004
6.136440e+002, 4.371636e+004
6.141261e+002, 4.372866e+004
6.146082e+002, 4.375100e+004
6.150903e+002, 4.377344e+004
6.155724e+002, 4.378489e+004
6.160546e+002, 4.378477e+004
6.165367e+002, 4.379336e+004
6.170188e+002, 4.381564e+004
6.175009e+002, 4.384018e+004
6.179830e+002, 4.384491e+004
6.184651e+002, 4.383661e+004
6.189473e+002, 4.383939e+004
6.194294e+002, 4.386985e+004
6.199115e+002, 4.390524e+004
6.203936e+002, 4.392453e+004
6.208757e+002, 4.393069e+004
6.213578e+002, 4.393326e+004
6.218400e+002, 4.391988e+004
6.223221e+002, 4.391874e+004
6.228042e+002, 4.395729e+004
6.232863e+002, 4.403726e+004
6.237684e+002, 4.408340e+004
6.242505e+002, 4.405851e+004
6.247327e+002, 4.402773e+004
6.252148e+002, 4.402404e+004
6.256969e+002, 4.405591e+004
6.261790e+002, 4.408008e+004
6.266611e+002, 4.409276e+004
6.271432e+002, 4.410563e+004
6.276254e+002, 4.413420e+004
6.281075e+002, 4.417712e+004
6.285896e+002, 4.421140e+004
6.290717e+002, 4.423093e+004
6.295538e+002, 4.424559e+004
6.300359e+002, 4.426889e+004
6.305181e+002, 4.429736e+004
6.310002e+002, 4.432312e+004
6.314823e+002, 4.434046e+004
6.319644e+002, 4.435591e+004
6.324465e+002, 4.437285e+004
6.329286e+002, 4.439132e+004
6.334108e+002, 4.441143e+004
6.338929e+002, 4.444276e+004
6.343750e+002, 4.446680e+004
6.348571e+002, 4.447384e+004
6.353392e+002, 4.446296e+004
6.358214e+002, 4.445366e+004
6.363035e+002, 4.444280e+004
6.367856e+002, 4.443884e+004
6.372677e+002, 4.444993e+004
6.377498e+002, 4.447971e+004
6.382319e+002, 4.449987e+004
6.387141e+002, 4.450977e+004
6.391962e+002, 4.451523e+004
6.396783e+002, 4.451790e+004
6.401604e+002, 4.452084e+004
6.406425e+002, 4.453586e+004
6.411246e+002, 4.456716e+004
6.416068e+002, 4.460525e+004
6.420889e+002, 4.464486e+004
6.425710e+002, 4.468380e+004
6.430531e+002, 4.471750e+004
6.435352e+002, 4.473778e+004
6.440173e+002, 4.475902e+004
6.444995e+002, 4.478808e+004
6.449816e+002, 4.482230e+004
6.454637e+002, 4.485555e+004
6.459458e+002, 4.488745e+004
6.464279e+002, 4.491598e+004
6.469100e+002, 4.493809e+004
6.473922e+002, 4.495473e+004
6.478743e+002, 4.497696e+004
6.483564e+002, 4.500429e+004
6.488385e+002, 4.503870e+004
6.493206e+002, 4.508725e+004
6.498027e+002, 4.514719e+004
6.502849e+002, 4.518668e+004
6.507670e+002, 4.520463e+004
6.512491e+002, 4.521801e+004
6.517312e+002, 4.524187e+004
6.522133e+002, 4.527100e+004
6.526954e+002, 4.529799e+004
6.531776e+002, 4.532180e+004
6.536597e+002, 4.534180e+004
6.541418e+002, 4.535074e+004
6.546239e+002, 4.535895e+004
6.551060e+002, 4.537850e+004
6.555881e+002, 4.542398e+004
6.560703e+002, 4.546685e+004
6.565524e+002, 4.550661e+004
6.570345e+002, 4.554029e+004
6.575166e+002, 4.556023e+004
6.579987e+002, 4.555946e+004
6.584808e+002, 4.556250e+004
6.589630e+002, 4.557518e+004
6.594451e+002, 4.559564e+004
6.599272e+002, 4.561864e+004
6.604093e+002, 4.564423e+004
6.608914e+002, 4.567080e+004
6.613735e+002, 4.570218e+004
6.618557e+002, 4.573253e+004
6.623378e+002, 4.574677e+004
6.628199e+002, 4.574737e+004
6.633020e+002, 4.575430e+004
6.637841e+002, 4.578450e+004
6.642662e+002, 4.582403e+004
6.647484e+002, 4.585954e+004
6.652305e+002, 4.588665e+004
6.657126e+002, 4.592820e+004
6.661947e+002, 4.600132e+004
6.666768e+002, 4.608298e+004
6.671589e+002, 4.615856e+004
6.676411e+002, 4.623770e+004
6.681232e+002, 4.628493e+004
6.686053e+002, 4.628573e+004
6.690874e+002, 4.627327e+004
6.695695e+002, 4.628846e+004
6.700516e+002, 4.633072e+004
6.705338e+002, 4.638666e+004
6.710159e+002, 4.645863e+004
6.714980e+002, 4.653099e+004
6.719801e+002, 4.657459e+004
6.724622e+002, 4.659880e+004
6.729443e+002, 4.662814e+004
6.734265e+002, 4.667982e+004
6.739086e+002, 4.673451e+004
6.743907e+002, 4.677958e+004
6.748728e+002, 4.681805e+004
6.753549e+002, 4.685750e+004
6.758370e+002, 4.690433e+004
6.763192e+002, 4.694988e+004
6.768013e+002, 4.698540e+004
6.772834e+002, 4.701343e+004
6.777655e+002, 4.706291e+004
6.782476e+002, 4.714301e+004
6.787297e+002, 4.722527e+004
6.792119e+002, 4.729407e+004
6.796940e+002, 4.735030e+004
6.801761e+002, 4.740581e+004
6.806582e+002, 4.745976e+004
6.811403e+002, 4.751717e+004
6.816224e+002, 4.758718e+004
6.821046e+002, 4.766217e+004
6.825867e+002, 4.772163e+004
6.830688e+002, 4.776051e+004
6.835509e+002, 4.780849e+004
6.840330e+002, 4.789357e+004
6.845151e+002, 4.799471e+004
6.849973e+002, 4.809192e+004
6.854794e+002, 4.818387e+004
6.859615e+002, 4.826806e+004
6.864436e+002, 4.833301e+004
6.869257e+002, 4.839632e+004
6.874078e+002, 4.848180e+004
6.878900e+002, 4.860546e+004
6.883721e+002, 4.870959e+004
6.888542e+002, 4.877689e+004
6.893363e+002, 4.883096e+004
6.898184e+002, 4.892276e+004
6.903005e+002, 4.904880e+004
6.907827e+002, 4.916871e+004
6.912648e+002, 4.925964e+004
6.917469e+002, 4.934284e+004
6.922290e+002, 4.944459e+004
6.927111e+002, 4.956348e+004
6.931932e+002, 4.969121e+004
6.936754e+002, 4.982170e+004
6.941575e+002, 4.996106e+004
6.946396e+002, 5.011522e+004
6.951217e+002, 5.028224e+004
6.956038e+002, 5.045100e+004
6.960859e+002, 5.062093e+004
6.965681e+002, 5.078665e+004
6.970502e+002, 5.094445e+004
6.975323e+002, 5.109386e+004
6.980144e+002, 5.124602e+004
6.984965e+002, 5.139986e+004
6.989786e+002, 5.156155e+004
6.994608e+002, 5.174175e+004
6.999429e+002, 5.193618e+004
7.004250e+002, 5.211338e+004
7.009071e+002, 5.227111e+004
7.013892e+002, 5.244164e+004
7.018713e+002, 5.266056e+004
7.023535e+002, 5.290586e+004
7.028356e+002, 5.314758e+004
7.033177e+002, 5.337371e+004
7.037998e+002, 5.361833e+004
7.042819e+002, 5.391242e+004
7.047640e+002, 5.422501e+004
7.052462e+002, 5.452343e+004
7.057283e+002, 5.478841e+004
7.062104e+002, 5.506229e+004
7.066925e+002, 5.534337e+004
7.071746e+002, 5.563661e+004
7.076567e+002, 5.595415e+004
7.081389e+002, 5.629580e+004
7.086210e+002, 5.664182e+004
7.091031e+002, 5.699314e+004
7.095852e+002, 5.734108e+004
7.100673e+002, 5.766455e+004
7.105494e+002, 5.797036e+004
7.110316e+002, 5.828945e+004
7.115137e+002, 5.864839e+004
7.119958e+002, 5.900923e+004
7.124779e+002, 5.934632e+004
7.129600e+002, 5.966824e+004
7.134421e+002, 5.999430e+004
7.139243e+002, 6.035718e+004
7.144064e+002, 6.069971e+004
7.148885e+002, 6.099640e+004
7.153706e+002, 6.125529e+004
7.158527e+002, 6.152446e+004
7.163348e+002, 6.181354e+004
7.168170e+002, 6.208145e+004
7.172991e+002, 6.230530e+004
7.177812e+002, 6.248999e+004
7.182633e+002, 6.265052e+004
7.187454e+002, 6.278834e+004
7.192275e+002, 6.289770e+004
7.197097e+002, 6.297924e+004
7.201918e+002, 6.303077e+004
7.206739e+002, 6.305208e+004
7.211560e+002, 6.304305e+004
7.216381e+002, 6.300010e+004
7.221202e+002, 6.292421e+004
7.226024e+002, 6.281228e+004
7.230845e+002, 6.265890e+004
7.235666e+002, 6.245412e+004
7.240487e+002, 6.223929e+004
7.245308e+002, 6.201677e+004
7.250129e+002, 6.177838e+004
7.254951e+002, 6.151863e+004
7.259772e+002, 6.123539e+004
7.264593e+002, 6.092611e+004
7.269414e+002, 6.058782e+004
7.274235e+002, 6.023482e+004
7.279056e+002, 5.988046e+004
7.283878e+002, 5.952368e+004
7.288699e+002, 5.916066e+004
7.293520e+002, 5.878024e+004
7.298341e+002, 5.841174e+004
7.303162e+002, 5.807734e+004
7.307983e+002, 5.776551e+004
7.312805e+002, 5.745700e+004
7.317626e+002, 5.715190e+004
7.322447e+002, 5.684548e+004
7.327268e+002, 5.653582e+004
7.332089e+002, 5.622777e+004
7.336910e+002, 5.592727e+004
7.341732e+002, 5.563302e+004
7.346553e+002, 5.535364e+004
7.351374e+002, 5.509450e+004
7.356195e+002, 5.485118e+004
7.361016e+002, 5.461853e+004
7.365837e+002, 5.439616e+004
7.370659e+002, 5.418305e+004
7.375480e+002, 5.398625e+004
7.380301e+002, 5.378907e+004
7.385122e+002, 5.356675e+004
7.389943e+002, 5.333259e+004
7.394764e+002, 5.312392e+004
7.399586e+002, 5.297601e+004
7.404407e+002, 5.283134e+004
7.409228e+002, 5.266168e+004
7.414049e+002, 5.247703e+004
7.418870e+002, 5.232575e+004
7.423691e+002, 5.222406e+004
7.428513e+002, 5.212068e+004
7.433334e+002, 5.199691e+004
7.438155e+002, 5.185711e+004
7.442976e+002, 5.171304e+004
7.447797e+002, 5.156538e+004
7.452618e+002, 5.143072e+004
7.457440e+002, 5.132189e+004
7.462261e+002, 5.122899e+004
7.467082e+002, 5.114299e+004
7.471903e+002, 5.106295e+004
7.476724e+002, 5.097832e+004
7.481545e+002, 5.086204e+004
7.486367e+002, 5.075910e+004
7.491188e+002, 5.070329e+004
7.496009e+002, 5.070233e+004
7.500830e+002, 5.066811e+004
7.505651e+002, 5.058950e+004
7.510472e+002, 5.049614e+004
7.515294e+002, 5.039728e+004
7.520115e+002, 5.029299e+004
7.524936e+002, 5.022777e+004
7.529757e+002, 5.020340e+004
7.534578e+002, 5.018205e+004
7.539399e+002, 5.012827e+004
7.544221e+002, 5.005914e+004
7.549042e+002, 5.000235e+004
7.553863e+002, 4.996176e+004
7.558684e+002, 4.992034e+004
7.563505e+002, 4.986934e+004
7.568326e+002, 4.981398e+004
7.573148e+002, 4.975680e+004
7.577969e+002, 4.969352e+004
7.582790e+002, 4.964129e+004
7.587611e+002, 4.959671e+004
7.592432e+002, 4.956711e+004
7.597253e+002, 4.956569e+004
7.602075e+002, 4.959315e+004
7.606896e+002, 4.960262e+004
7.611717e+002, 4.958885e+004
7.616538e+002, 4.956305e+004
7.621359e+002, 4.952906e+004
7.626180e+002, 4.949308e+004
7.631002e+002, 4.946865e+004
7.635823e+002, 4.946169e+004
7.640644e+002, 4.945533e+004
7.645465e+002, 4.944470e+004
7.650286e+002, 4.942819e+004
7.655107e+002, 4.940426e+004
7.659929e+002, 4.936515e+004
7.664750e+002, 4.933093e+004
7.669571e+002, 4.930139e+004
7.674392e+002, 4.927775e+004
7.679213e+002, 4.925946e+004
7.684034e+002, 4.924634e+004
7.688856e+002, 4.925121e+004
7.693677e+002, 4.928057e+004
7.698498e+002, 4.931335e+004
7.703319e+002, 4.931911e+004
7.708140e+002, 4.930786e+004
7.712961e+002, 4.930168e+004
7.717783e+002, 4.931175e+004
7.722604e+002, 4.931854e+004
7.727425e+002, 4.930559e+004
7.732246e+002, 4.928430e+004
7.737067e+002, 4.927212e+004
7.741888e+002, 4.927792e+004
7.746710e+002, 4.928312e+004
7.751531e+002, 4.928549e+004
7.756352e+002, 4.928783e+004
7.761173e+002, 4.929779e+004
7.765994e+002, 4.931592e+004
7.770815e+002, 4.932457e+004
7.775637e+002, 4.931671e+004
7.780458e+002, 4.930368e+004
7.785279e+002, 4.930293e+004
7.790100e+002, 4.930950e+004
7.794921e+002, 4.931220e+004
7.799742e+002, 4.930295e+004
7.804564e+002, 4.929243e+004
7.809385e+002, 4.928388e+004
7.814206e+002, 4.927706e+004
7.819027e+002, 4.927173e+004
7.823848e+002, 4.926518e+004
7.828669e+002, 4.926567e+004
7.833491e+002, 4.928200e+004
7.838312e+002, 4.930112e+004
7.843133e+002, 4.928475e+004
7.847954e+002, 4.923434e+004
7.852775e+002, 4.919143e+004
7.857596e+002, 4.916948e+004
7.862418e+002, 4.916451e+004
7.867239e+002, 4.917884e+004
7.872060e+002, 4.920598e+004
7.876881e+002, 4.923018e+004
7.881702e+002, 4.924016e+004
7.886523e+002, 4.924988e+004
7.891345e+002, 4.926430e+004
7.896166e+002, 4.928245e+004
7.900987e+002, 4.930170e+004
7.905808e+002, 4.932174e+004
7.910629e+002, 4.934221e+004
7.915450e+002, 4.936307e+004
7.920272e+002, 4.938367e+004
7.925093e+002, 4.940274e+004
7.929914e+002, 4.942006e+004
7.934735e+002, 4.943142e+004
7.939556e+002, 4.942985e+004
7.944377e+002, 4.942712e+004
7.949199e+002, 4.943613e+004
7.954020e+002, 4.945546e+004
7.958841e+002, 4.948093e+004
7.963662e+002, 4.951382e+004
7.968483e+002, 4.954948e+004
7.973304e+002, 4.959054e+004
7.978126e+002, 4.963330e+004
7.982947e+002, 4.966495e+004
7.987768e+002, 4.968352e+004
7.992589e+002, 4.969602e+004
7.997410e+002, 4.970030e+004
8.002231e+002, 4.970399e+004
8.007053e+002, 4.973062e+004
8.011874e+002, 4.977650e+004
8.016695e+002, 4.982072e+004
8.021516e+002, 4.984415e+004
8.026337e+002, 4.986929e+004
8.031158e+002, 4.992316e+004
8.035980e+002, 4.999475e+004
8.040801e+002, 5.005608e+004
8.045622e+002, 5.008093e+004
8.050443e+002, 5.011366e+004
8.055264e+002, 5.016675e+004
8.060085e+002, 5.023514e+004
8.064907e+002, 5.030873e+004
8.069728e+002, 5.039300e+004
8.074549e+002, 5.044903e+004
8.079370e+002, 5.044958e+004
8.084191e+002, 5.043007e+004
8.089012e+002, 5.046681e+004
8.093834e+002, 5.054846e+004
8.098655e+002, 5.063441e+004
8.103476e+002, 5.069954e+004
8.108297e+002, 5.076820e+004
8.113118e+002, 5.086258e+004
8.117939e+002, 5.097288e+004
8.122761e+002, 5.106787e+004
8.127582e+002, 5.112695e+004
8.132403e+002, 5.119418e+004
8.137224e+002, 5.128104e+004
8.142045e+002, 5.138070e+004
8.146866e+002, 5.147165e+004
8.151688e+002, 5.155227e+004
8.156509e+002, 5.163946e+004
8.161330e+002, 5.173740e+004
8.166151e+002, 5.184695e+004
8.170972e+002, 5.196998e+004
8.175793e+002, 5.210485e+004
8.180615e+002, 5.225118e+004
8.185436e+002, 5.242170e+004
8.190257e+002, 5.258735e+004
8.195078e+002, 5.272702e+004
8.199899e+002, 5.285225e+004
8.204720e+002, 5.299532e+004
8.209542e+002, 5.316382e+004
8.214363e+002, 5.332633e+004
8.219184e+002, 5.347246e+004
8.224005e+002, 5.361315e+004
8.228826e+002, 5.377108e+004
8.233647e+002, 5.394738e+004
8.238469e+002, 5.414015e+004
8.243290e+002, 5.435862e+004
8.248111e+002, 5.458286e+004
8.252932e+002, 5.479735e+004
8.257753e+002, 5.500841e+004
8.262574e+002, 5.522139e+004
8.267396e+002, 5.544360e+004
8.272217e+002, 5.566704e+004
8.277038e+002, 5.589577e+004
8.281859e+002, 5.612388e+004
8.286681e+002, 5.634551e+004
8.291502e+002, 5.655850e+004
8.296323e+002, 5.676903e+004
8.301144e+002, 5.698051e+004
8.305966e+002, 5.718145e+004
8.310787e+002, 5.736142e+004
8.315608e+002, 5.752043e+004
8.320429e+002, 5.766614e+004
8.325250e+002, 5.781986e+004
8.330071e+002, 5.792702e+004
8.334893e+002, 5.795058e+004
8.339714e+002, 5.791352e+004
8.344535e+002, 5.785235e+004
8.349356e+002, 5.778630e+004
8.354177e+002, 5.766836e+004
8.358998e+002, 5.748936e+004
8.363820e+002, 5.726602e+004
8.368641e+002, 5.701710e+004
8.373462e+002, 5.674335e+004
8.378283e+002, 5.643934e+004
8.383104e+002, 5.610107e+004
8.387925e+002, 5.575458e+004
8.392747e+002, 5.542280e+004
8.397568e+002, 5.509718e+004
8.402389e+002, 5.476298e+004
8.407210e+002, 5.440376e+004
8.412031e+002, 5.405752e+004
8.416852e+002, 5.373279e+004
8.421674e+002, 5.342744e+004
8.426495e+002, 5.314201e+004
8.431316e+002, 5.287738e+004
8.436137e+002, 5.263299e+004
8.440958e+002, 5.240776e+004
8.445779e+002, 5.220064e+004
8.450601e+002, 5.200953e+004
8.455422e+002, 5.183544e+004
8.460243e+002, 5.167733e+004
8.465064e+002, 5.153554e+004
8.469885e+002, 5.140408e+004
8.474706e+002, 5.127480e+004
8.479528e+002, 5.115508e+004
8.484349e+002, 5.105101e+004
8.489170e+002, 5.096072e+004
8.493991e+002, 5.089076e+004
8.498812e+002, 5.084892e+004
8.503633e+002, 5.080882e+004
8.508455e+002, 5.074205e+004
8.513276e+002, 5.065421e+004
8.518097e+002, 5.058982e+004
8.522918e+002, 5.055104e+004
8.527739e+002, 5.051937e+004
8.532560e+002, 5.048505e+004
8.537382e+002, 5.044795e+004
8.542203e+002, 5.040361e+004
8.547024e+002, 5.035048e+004
8.551845e+002, 5.031338e+004
8.556666e+002, 5.031251e+004
8.561487e+002, 5.031398e+004
8.566309e+002, 5.029645e+004
8.571130e+002, 5.026101e+004
8.575951e+002, 5.026695e+004
8.580772e+002, 5.031730e+004
8.585593e+002, 5.037208e+004
8.590414e+002, 5.040190e+004
8.595236e+002, 5.042029e+004
8.600057e+002, 5.044636e+004
8.604878e+002, 5.048002e+004
8.609699e+002, 5.051789e+004
8.614520e+002, 5.055640e+004
8.619341e+002, 5.060045e+004
8.624163e+002, 5.065377e+004
8.628984e+002, 5.071561e+004
8.633805e+002, 5.078334e+004
8.638626e+002, 5.086383e+004
8.643447e+002, 5.092861e+004
8.648268e+002, 5.095816e+004
8.653090e+002, 5.097179e+004
8.657911e+002, 5.101852e+004
8.662732e+002, 5.109221e+004
8.667553e+002, 5.116629e+004
8.672374e+002, 5.122385e+004
8.677195e+002, 5.128108e+004
8.682017e+002, 5.135467e+004
8.686838e+002, 5.143509e+004
8.691659e+002, 5.149179e+004
8.696480e+002, 5.151271e+004
8.701301e+002, 5.153041e+004
8.706122e+002, 5.155791e+004
8.710944e+002, 5.157796e+004
8.715765e+002, 5.154752e+004
8.720586e+002, 5.147246e+004
8.725407e+002, 5.139452e+004
8.730228e+002, 5.132954e+004
8.735049e+002, 5.126179e+004
8.739871e+002, 5.117263e+004
8.744692e+002, 5.107254e+004
8.749513e+002, 5.097630e+004
8.754334e+002, 5.088608e+004
8.759155e+002, 5.080470e+004
8.763976e+002, 5.073168e+004
8.768798e+002, 5.066730e+004
8.773619e+002, 5.060816e+004
8.778440e+002, 5.055335e+004
8.783261e+002, 5.052523e+004
8.788082e+002, 5.053019e+004
8.792903e+002, 5.053781e+004
8.797725e+002, 5.050587e+004
8.802546e+002, 5.045821e+004
8.807367e+002, 5.042934e+004
8.812188e+002, 5.042629e+004
8.817009e+002, 5.043375e+004
8.821830e+002, 5.046630e+004
8.826652e+002, 5.048996e+004
8.831473e+002, 5.047601e+004
8.836294e+002, 5.041344e+004
8.841115e+002, 5.039039e+004
8.845936e+002, 5.041498e+004
8.850757e+002, 5.044154e+004
8.855579e+002, 5.042698e+004
8.860400e+002, 5.039275e+004
8.865221e+002, 5.038632e+004
8.870042e+002, 5.040776e+004
8.874863e+002, 5.042299e+004
8.879684e+002, 5.040789e+004
8.884506e+002, 5.038785e+004
8.889327e+002, 5.037673e+004
8.894148e+002, 5.037460e+004
8.898969e+002, 5.037275e+004
8.903790e+002, 5.036874e+004
8.908611e+002, 5.037151e+004
8.913433e+002, 5.038428e+004
8.918254e+002, 5.040563e+004
8.923075e+002, 5.043796e+004
8.927896e+002, 5.047742e+004
8.932717e+002, 5.050853e+004
8.937538e+002, 5.051053e+004
8.942360e+002, 5.051391e+004
8.947181e+002, 5.053941e+004
8.952002e+002, 5.057897e+004
8.956823e+002, 5.061237e+004
8.961644e+002, 5.064040e+004
8.966465e+002, 5.065475e+004
8.971287e+002, 5.064573e+004
8.976108e+002, 5.063434e+004
8.980929e+002, 5.067541e+004
8.985750e+002, 5.075318e+004
8.990571e+002, 5.078737e+004
8.995392e+002, 5.074530e+004
9.000214e+002, 5.069288e+004
9.005035e+002, 5.067724e+004
9.009856e+002, 5.068404e+004
9.014677e+002, 5.069652e+004
9.019498e+002, 5.071427e+004
9.024319e+002, 5.073468e+004
9.029141e+002, 5.076360e+004
9.033962e+002, 5.078686e+004
9.038783e+002, 5.078648e+004
9.043604e+002, 5.076554e+004
9.048425e+002, 5.075464e+004
9.053246e+002, 5.075546e+004
9.058068e+002, 5.076860e+004
9.062889e+002, 5.080988e+004
9.067710e+002, 5.085271e+004
9.072531e+002, 5.086898e+004
9.077352e+002, 5.085377e+004
9.082173e+002, 5.084482e+004
9.086995e+002, 5.085095e+004
9.091816e+002, 5.085939e+004
9.096637e+002, 5.086548e+004
9.101458e+002, 5.086941e+004
9.106279e+002, 5.087190e+004
9.111100e+002, 5.087310e+004
9.115922e+002, 5.087242e+004
9.120743e+002, 5.086495e+004
9.125564e+002, 5.085946e+004
9.130385e+002, 5.086680e+004
9.135206e+002, 5.088402e+004
9.140027e+002, 5.090165e+004
9.144849e+002, 5.091801e+004
9.149670e+002, 5.093389e+004
9.154491e+002, 5.094981e+004
9.159312e+002, 5.096521e+004
9.164133e+002, 5.097786e+004
9.168954e+002, 5.098781e+004
9.173776e+002, 5.100072e+004
9.178597e+002, 5.101821e+004
9.183418e+002, 5.103781e+004
9.188239e+002, 5.105969e+004
9.193060e+002, 5.108065e+004
9.197881e+002, 5.109504e+004
9.202703e+002, 5.109225e+004
9.207524e+002, 5.110219e+004
9.212345e+002, 5.113868e+004
9.217166e+002, 5.117832e+004
9.221987e+002, 5.120035e+004
9.226808e+002, 5.120385e+004
9.231630e+002, 5.121338e+004
9.236451e+002, 5.123024e+004
9.241272e+002, 5.124732e+004
9.246093e+002, 5.125283e+004
9.250914e+002, 5.125855e+004
9.255735e+002, 5.128280e+004
9.260557e+002, 5.132596e+004
9.265378e+002, 5.135863e+004
9.270199e+002, 5.136079e+004
9.275020e+002, 5.136393e+004
9.279841e+002, 5.138293e+004
9.284662e+002, 5.141262e+004
9.289484e+002, 5.141843e+004
9.294305e+002, 5.140082e+004
9.299126e+002, 5.138544e+004
9.303947e+002, 5.138171e+004
9.308768e+002, 5.138975e+004
9.313589e+002, 5.142594e+004
9.318411e+002, 5.147314e+004
9.323232e+002, 5.149254e+004
9.328053e+002, 5.143995e+004
9.332874e+002, 5.140198e+004
9.337695e+002, 5.139498e+004
9.342516e+002, 5.140674e+004
9.347338e+002, 5.142240e+004
9.352159e+002, 5.144214e+004
9.356980e+002, 5.145290e+004
9.361801e+002, 5.145043e+004
9.366622e+002, 5.145018e+004
9.371443e+002, 5.147114e+004
9.376265e+002, 5.150137e+004
9.381086e+002, 5.152564e+004
9.385907e+002, 5.153914e+004
9.390728e+002, 5.155423e+004
9.395549e+002, 5.157054e+004
9.400370e+002, 5.159054e+004
9.405192e+002, 5.161979e+004
9.410013e+002, 5.165657e+004
9.414834e+002, 5.166236e+004
9.419655e+002, 5.163788e+004
9.424476e+002, 5.162879e+004
9.429297e+002, 5.168985e+004
9.434119e+002, 5.176209e+004
9.438940e+002, 5.178340e+004
9.443761e+002, 5.176324e+004
9.448582e+002, 5.175118e+004
9.453403e+002, 5.177045e+004
9.458224e+002, 5.178295e+004
9.463046e+002, 5.178154e+004
9.467867e+002, 5.176921e+004
9.472688e+002, 5.174674e+004
9.477509e+002, 5.171698e+004
9.482330e+002, 5.170438e+004
9.487151e+002, 5.172087e+004
9.491973e+002, 5.174390e+004
9.496794e+002, 5.175243e+004
9.501615e+002, 5.175657e+004
9.506436e+002, 5.176981e+004
9.511257e+002, 5.180923e+004
9.516078e+002, 5.182805e+004
9.520900e+002, 5.181777e+004
9.525721e+002, 5.180101e+004
9.530542e+002, 5.179026e+004
9.535363e+002, 5.178802e+004
9.540184e+002, 5.181767e+004
9.545005e+002, 5.187827e+004
9.549827e+002, 5.193378e+004
9.554648e+002, 5.195567e+004
9.559469e+002, 5.196454e+004
9.564290e+002, 5.196555e+004
9.569111e+002, 5.196179e+004
9.573932e+002, 5.198725e+004
9.578754e+002, 5.205991e+004
9.583575e+002, 5.211920e+004
9.588396e+002, 5.214259e+004
9.593217e+002, 5.214297e+004
9.598038e+002, 5.214388e+004
9.602859e+002, 5.214746e+004
9.607681e+002, 5.216370e+004
9.612502e+002, 5.220746e+004
9.617323e+002, 5.224605e+004
9.622144e+002, 5.226048e+004
9.626965e+002, 5.225968e+004
9.631786e+002, 5.225548e+004
9.636608e+002, 5.225164e+004
9.641429e+002, 5.223513e+004
9.646250e+002, 5.220020e+004
9.651071e+002, 5.217386e+004
9.655892e+002, 5.220033e+004
9.660714e+002, 5.225179e+004
9.665535e+002, 5.226386e+004
9.670356e+002, 5.223256e+004
9.675177e+002, 5.219852e+004
9.679998e+002, 5.216802e+004
9.684819e+002, 5.215498e+004
9.689641e+002, 5.217330e+004
9.694462e+002, 5.221736e+004
9.699283e+002, 5.224955e+004
9.704104e+002, 5.226760e+004
9.708925e+002, 5.228733e+004
9.713746e+002, 5.231671e+004
9.718568e+002, 5.234738e+004
9.723389e+002, 5.236125e+004
9.728210e+002, 5.236718e+004
9.733031e+002, 5.238485e+004
9.737852e+002, 5.242854e+004
9.742673e+002, 5.247353e+004
9.747495e+002, 5.252098e+004
9.752316e+002, 5.256275e+004
9.757137e+002, 5.258532e+004
9.761958e+002, 5.258769e+004
9.766779e+002, 5.261701e+004
9.771600e+002, 5.268120e+004
9.776422e+002, 5.272841e+004
9.781243e+002, 5.269213e+004
9.786064e+002, 5.263024e+004
9.790885e+002, 5.260579e+004
9.795706e+002, 5.262530e+004
9.800527e+002, 5.264330e+004
9.805349e+002, 5.265086e+004
9.810170e+002, 5.265852e+004
9.814991e+002, 5.267064e+004
9.819812e+002, 5.268499e+004
9.824633e+002, 5.268779e+004
9.829454e+002, 5.268289e+004
9.834276e+002, 5.269715e+004
9.839097e+002, 5.276316e+004
9.843918e+002, 5.282047e+004
9.848739e+002, 5.281116e+004
9.853560e+002, 5.277070e+004
9.858381e+002, 5.275576e+004
9.863203e+002, 5.278816e+004
9.868024e+002, 5.280575e+004
9.872845e+002, 5.280219e+004
9.877666e+002, 5.279561e+004
9.882487e+002, 5.280321e+004
9.887308e+002, 5.282320e+004
9.892130e+002, 5.285484e+004
9.896951e+002, 5.289727e+004
9.901772e+002, 5.293346e+004
9.906593e+002, 5.295018e+004
9.911414e+002, 5.296118e+004
9.916235e+002, 5.297537e+004
9.921057e+002, 5.299027e+004
9.925878e+002, 5.298564e+004
9.930699e+002, 5.295529e+004
9.935520e+002, 5.294907e+004
9.940341e+002, 5.299542e+004
9.945162e+002, 5.305550e+004
9.949984e+002, 5.307541e+004
9.954805e+002, 5.306750e+004
9.959626e+002, 5.305497e+004
9.964447e+002, 5.303463e+004
9.969268e+002, 5.302958e+004
9.974089e+002, 5.305576e+004
9.978911e+002, 5.308652e+004
9.983732e+002, 5.309717e+004
9.988553e+002, 5.308904e+004
9.993374e+002, 5.308177e+004
9.998195e+002, 5.307664e+004
1.000302e+003, 5.307845e+004
1.000784e+003, 5.309108e+004
1.001266e+003, 5.311177e+004
1.001748e+003, 5.314355e+004
1.002230e+003, 5.318357e+004
1.002712e+003, 5.320726e+004
1.003194e+003, 5.319873e+004
1.003676e+003, 5.320407e+004
1.004159e+003, 5.323862e+004
1.004641e+003, 5.328758e+004
1.005123e+003, 5.332752e+004
1.005605e+003, 5.335750e+004
1.006087e+003, 5.337313e+004
1.006569e+003, 5.336479e+004
1.007051e+003, 5.336596e+004
1.007533e+003, 5.341259e+004
1.008016e+003, 5.346386e+004
1.008498e+003, 5.348081e+004
1.008980e+003, 5.345434e+004
1.009462e+003, 5.345132e+004
1.009944e+003, 5.347493e+004
1.010426e+003, 5.350220e+004
1.010908e+003, 5.350908e+004
1.011390e+003, 5.351339e+004
1.011872e+003, 5.354195e+004
1.012355e+003, 5.359007e+004
1.012837e+003, 5.363579e+004
1.013319e+003, 5.367595e+004
1.013801e+003, 5.370571e+004
1.014283e+003, 5.372158e+004
1.014765e+003, 5.372776e+004
1.015247e+003, 5.373120e+004
1.015729e+003, 5.373207e+004
1.016211e+003, 5.373300e+004
1.016694e+003, 5.373442e+004
1.017176e+003, 5.373765e+004
1.017658e+003, 5.374100e+004
1.018140e+003, 5.374979e+004
1.018622e+003, 5.377677e+004
1.019104e+003, 5.383156e+004
1.019586e+003, 5.384071e+004
1.020068e+003, 5.378963e+004
1.020551e+003, 5.374438e+004
1.021033e+003, 5.374738e+004
1.021515e+003, 5.377641e+004
1.021997e+003, 5.377776e+004
1.022479e+003, 5.376236e+004
1.022961e+003, 5.376247e+004
1.023443e+003, 5.380176e+004
1.023925e+003, 5.384567e+004
1.024407e+003, 5.388484e+004
1.024890e+003, 5.392245e+004
1.025372e+003, 5.396667e+004
1.025854e+003, 5.401753e+004
1.026336e+003, 5.404268e+004
1.026818e+003, 5.403661e+004
1.027300e+003, 5.402867e+004
1.027782e+003, 5.404595e+004
1.028264e+003, 5.407312e+004
1.028746e+003, 5.409784e+004
1.029229e+003, 5.411858e+004
1.029711e+003, 5.413294e+004
1.030193e+003, 5.414065e+004
1.030675e+003, 5.414137e+004
1.031157e+003, 5.412795e+004
1.031639e+003, 5.411544e+004
1.032121e+003, 5.415114e+004
1.032603e+003, 5.421801e+004
1.033086e+003, 5.426035e+004
1.033568e+003, 5.425271e+004
1.034050e+003, 5.423771e+004
1.034532e+003, 5.422879e+004
1.035014e+003, 5.422623e+004
1.035496e+003, 5.423300e+004
1.035978e+003, 5.425298e+004
1.036460e+003, 5.425048e+004
1.036943e+003, 5.422348e+004
1.037425e+003, 5.420935e+004
1.037907e+003, 5.424887e+004
1.038389e+003, 5.430527e+004
1.038871e+003, 5.433837e+004
1.039353e+003, 5.435236e+004
1.039835e+003, 5.436768e+004
1.040317e+003, 5.438317e+004
1.040799e+003, 5.440743e+004
1.041281e+003, 5.444204e+004
1.041764e+003, 5.448448e+004
1.042246e+003, 5.453766e+004
1.042728e+003, 5.459561e+004
1.043210e+003, 5.463970e+004
1.043692e+003, 5.466765e+004
1.044174e+003, 5.467711e+004
1.044656e+003, 5.464045e+004
1.045138e+003, 5.460919e+004
1.045621e+003, 5.462155e+004
1.046103e+003, 5.467356e+004
1.046585e+003, 5.471304e+004
1.047067e+003, 5.473964e+004
1.047549e+003, 5.475454e+004
1.048031e+003, 5.475164e+004
1.048513e+003, 5.474620e+004
1.048995e+003, 5.475577e+004
1.049478e+003, 5.477559e+004
1.049960e+003, 5.479749e+004
1.050442e+003, 5.482068e+004
1.050924e+003, 5.484555e+004
1.051406e+003, 5.487715e+004
1.051888e+003, 5.490223e+004
1.052370e+003, 5.490406e+004
1.052852e+003, 5.489038e+004
1.053334e+003, 5.488517e+004
1.053817e+003, 5.488971e+004
1.054299e+003, 5.490263e+004
1.054781e+003, 5.493839e+004
1.055263e+003, 5.496626e+004
1.055745e+003, 5.496418e+004
1.056227e+003, 5.494650e+004
1.056709e+003, 5.494624e+004
1.057191e+003, 5.496390e+004
1.057673e+003, 5.498614e+004
1.058156e+003, 5.501086e+004
1.058638e+003, 5.503535e+004
1.059120e+003, 5.505409e+004
1.059602e+003, 5.507268e+004
1.060084e+003, 5.509854e+004
1.060566e+003, 5.513462e+004
1.061048e+003, 5.516626e+004
1.061530e+003, 5.519633e+004
1.062013e+003, 5.521388e+004
1.062495e+003, 5.520885e+004
1.062977e+003, 5.519173e+004
1.063459e+003, 5.518552e+004
1.063941e+003, 5.518908e+004
1.064423e+003, 5.519921e+004
1.064905e+003, 5.522902e+004
1.065387e+003, 5.524502e+004
1.065870e+003, 5.521424e+004
1.066352e+003, 5.518309e+004
1.066834e+003, 5.519891e+004
1.067316e+003, 5.526205e+004
1.067798e+003, 5.531113e+004
1.068280e+003, 5.534427e+004
1.068762e+003, 5.536630e+004
1.069244e+003, 5.538298e+004
1.069726e+003, 5.538866e+004
1.070208e+003, 5.536941e+004
1.070691e+003, 5.533353e+004
1.071173e+003, 5.531626e+004
1.071655e+003, 5.531757e+004
1.072137e+003, 5.534271e+004
1.072619e+003, 5.539935e+004
1.073101e+003, 5.546026e+004
1.073583e+003, 5.548029e+004
1.074065e+003, 5.548295e+004
1.074548e+003, 5.551530e+004
1.075030e+003, 5.559140e+004
1.075512e+003, 5.563308e+004
1.075994e+003, 5.558870e+004
1.076476e+003, 5.554610e+004
1.076958e+003, 5.554281e+004
1.077440e+003, 5.556733e+004
1.077922e+003, 5.557784e+004
1.078405e+003, 5.557704e+004
1.078887e+003, 5.557713e+004
1.079369e+003, 5.558144e+004
1.079851e+003, 5.559130e+004
1.080333e+003, 5.561300e+004
1.080815e+003, 5.563782e+004
1.081297e+003, 5.565459e+004
1.081779e+003, 5.566046e+004
1.082261e+003, 5.567645e+004
1.082744e+003, 5.570322e+004
1.083226e+003, 5.573264e+004
1.083708e+003, 5.576280e+004
1.084190e+003, 5.578907e+004
1.084672e+003, 5.580180e+004
1.085154e+003, 5.580598e+004
1.085636e+003, 5.581926e+004
1.086118e+003, 5.584621e+004
1.086601e+003, 5.588014e+004
1.087083e+003, 5.592654e+004
1.087565e+003, 5.596464e+004
1.088047e+003, 5.595005e+004
1.088529e+003, 5.591264e+004
1.089011e+003, 5.592418e+004
1.089493e+003, 5.599207e+004
1.089975e+003, 5.604523e+004
1.090458e+003, 5.603423e+004
1.090940e+003, 5.602596e+004
1.091422e+003, 5.604977e+004
1.091904e+003, 5.609079e+004
1.092386e+003, 5.610282e+004
1.092868e+003, 5.608900e+004
1.093350e+003, 5.606675e+004
1.093832e+003, 5.603546e+004
1.094314e+003, 5.601508e+004
1.094797e+003, 5.602580e+004
1.095279e+003, 5.605007e+004
1.095761e+003, 5.607332e+004
1.096243e+003, 5.609512e+004
1.096725e+003, 5.611560e+004
1.097207e+003, 5.613487e+004
1.097689e+003, 5.615762e+004
1.098171e+003, 5.619185e+004
1.098653e+003, 5.622589e+004
1.099136e+003, 5.624908e+004
1.099618e+003, 5.626175e+004
1.100100e+003, 5.626415e+004
1.100582e+003, 5.624497e+004
1.101064e+003, 5.623407e+004
1.101546e+003, 5.622954e+004
1.102028e+003, 5.623830e+004
1.102510e+003, 5.627644e+004
1.102993e+003, 5.632869e+004
1.103475e+003, 5.636732e+004
1.103957e+003, 5.639043e+004
1.104439e+003, 5.639486e+004
1.104921e+003, 5.634864e+004
1.105403e+003, 5.632483e+004
1.105885e+003, 5.635032e+004
1.106367e+003, 5.639829e+004
1.106849e+003, 5.642390e+004
1.107332e+003, 5.643017e+004
1.107814e+003, 5.642416e+004
1.108296e+003, 5.640505e+004
1.108778e+003, 5.640607e+004
1.109260e+003, 5.648054e+004
1.109742e+003, 5.655217e+004
1.110224e+003, 5.656248e+004
1.110706e+003, 5.652588e+004
1.111188e+003, 5.652147e+004
1.111671e+003, 5.654923e+004
1.112153e+003, 5.658257e+004
1.112635e+003, 5.661421e+004
1.113117e+003, 5.664412e+004
1.113599e+003, 5.667481e+004
1.114081e+003, 5.670217e+004
1.114563e+003, 5.671945e+004
1.115045e+003, 5.672386e+004
1.115528e+003, 5.672913e+004
1.116010e+003, 5.673457e+004
1.116492e+003, 5.674495e+004
1.116974e+003, 5.676843e+004
1.117456e+003, 5.679450e+004
1.117938e+003, 5.680720e+004
1.118420e+003, 5.680970e+004
1.118902e+003, 5.680814e+004
1.119385e+003, 5.679612e+004
1.119867e+003, 5.679615e+004
1.120349e+003, 5.681653e+004
1.120831e+003, 5.683574e+004
1.121313e+003, 5.682765e+004
1.121795e+003, 5.680381e+004
1.122277e+003, 5.679343e+004
1.122759e+003, 5.679796e+004
1.123241e+003, 5.681982e+004
1.123724e+003, 5.687864e+004
1.124206e+003, 5.693055e+004
1.124688e+003, 5.696080e+004
1.125170e+003, 5.697911e+004
1.125652e+003, 5.699882e+004
1.126134e+003, 5.701955e+004
1.126616e+003, 5.704304e+004
1.127098e+003, 5.706970e+004
1.127580e+003, 5.708711e+004
1.128063e+003, 5.708237e+004
1.128545e+003, 5.707027e+004
1.129027e+003, 5.705334e+004
1.129509e+003, 5.703789e+004
1.129991e+003, 5.704944e+004
1.130473e+003, 5.708912e+004
1.130955e+003, 5.712844e+004
1.131437e+003, 5.716165e+004
1.131920e+003, 5.718911e+004
1.132402e+003, 5.720561e+004
1.132884e+003, 5.722091e+004
1.133366e+003, 5.725000e+004
1.133848e+003, 5.729545e+004
1.134330e+003, 5.730786e+004
1.134812e+003, 5.727596e+004
1.135294e+003, 5.727366e+004
1.135776e+003, 5.734848e+004
1.136259e+003, 5.744224e+004
1.136741e+003, 5.747285e+004
1.137223e+003, 5.747050e+004
1.137705e+003, 5.748369e+004
1.138187e+003, 5.753311e+004
1.138669e+003, 5.757224e+004
1.139151e+003, 5.759683e+004
1.139633e+003, 5.762004e+004
1.140115e+003, 5.765495e+004
1.140598e+003, 5.769237e+004
1.141080e+003, 5.771464e+004
1.141562e+003, 5.772343e+004
1.142044e+003, 5.772396e+004
1.142526e+003, 5.769373e+004
1.143008e+003, 5.769626e+004
1.143490e+003, 5.775904e+004
1.143972e+003, 5.782281e+004
1.144455e+003, 5.781287e+004
1.144937e+003, 5.775723e+004
1.145419e+003, 5.775341e+004
1.145901e+003, 5.779913e+004
1.146383e+003, 5.784422e+004
1.146865e+003, 5.786807e+004
1.147347e+003, 5.788126e+004
1.147829e+003, 5.788578e+004
1.148312e+003, 5.788480e+004
1.148794e+003, 5.787469e+004
1.149276e+003, 5.786049e+004
1.149758e+003, 5.788580e+004
1.150240e+003, 5.795609e+004
1.150722e+003, 5.801773e+004
1.151204e+003, 5.802570e+004
1.151686e+003, 5.802529e+004
1.152168e+003, 5.803945e+004
1.152651e+003, 5.806493e+004
1.153133e+003, 5.809549e+004
1.153615e+003, 5.813038e+004
1.154097e+003, 5.815689e+004
1.154579e+003, 5.816994e+004
1.155061e+003, 5.818292e+004
1.155543e+003, 5.821499e+004
1.156025e+003, 5.824482e+004
1.156507e+003, 5.824426e+004
1.156990e+003, 5.821893e+004
1.157472e+003, 5.823359e+004
1.157954e+003, 5.829166e+004
1.158436e+003, 5.834194e+004
1.158918e+003, 5.836504e+004
1.159400e+003, 5.837989e+004
1.159882e+003, 5.840093e+004
1.160364e+003, 5.842733e+004
1.160847e+003, 5.845996e+004
1.161329e+003, 5.850071e+004
1.161811e+003, 5.853438e+004
1.162293e+003, 5.856056e+004
1.162775e+003, 5.857846e+004
1.163257e+003, 5.857730e+004
1.163739e+003, 5.857949e+004
1.164221e+003, 5.862681e+004
1.164703e+003, 5.869238e+004
1.165186e+003, 5.873052e+004
1.165668e+003, 5.872076e+004
1.166150e+003, 5.870595e+004
1.166632e+003, 5.868237e+004
1.167114e+003, 5.866658e+004
1.167596e+003, 5.867167e+004
1.168078e+003, 5.869192e+004
1.168560e+003, 5.872377e+004
1.169042e+003, 5.876315e+004
1.169525e+003, 5.879857e+004
1.170007e+003, 5.883487e+004
1.170489e+003, 5.885198e+004
1.170971e+003, 5.884176e+004
1.171453e+003, 5.883184e+004
1.171935e+003, 5.885909e+004
1.172417e+003, 5.890133e+004
1.172899e+003, 5.890473e+004
1.173382e+003, 5.887873e+004
1.173864e+003, 5.887779e+004
1.174346e+003, 5.896969e+004
1.174828e+003, 5.901104e+004
1.175310e+003, 5.896335e+004
1.175792e+003, 5.889402e+004
1.176274e+003, 5.889017e+004
1.176756e+003, 5.893119e+004
1.177239e+003, 5.897391e+004
1.177721e+003, 5.901301e+004
1.178203e+003, 5.904420e+004
1.178685e+003, 5.904999e+004
1.179167e+003, 5.906814e+004
1.179649e+003, 5.911336e+004
1.180131e+003, 5.916751e+004
1.180613e+003, 5.919488e+004
1.181095e+003, 5.920498e+004
1.181578e+003, 5.923015e+004
1.182060e+003, 5.927668e+004
1.182542e+003, 5.930968e+004
1.183024e+003, 5.929783e+004
1.183506e+003, 5.928927e+004
1.183988e+003, 5.930046e+004
1.184470e+003, 5.932756e+004
1.184952e+003, 5.936670e+004
1.185434e+003, 5.941325e+004
1.185917e+003, 5.945249e+004
1.186399e+003, 5.948235e+004
1.186881e+003, 5.949672e+004
1.187363e+003, 5.946536e+004
1.187845e+003, 5.944768e+004
1.188327e+003, 5.947421e+004
1.188809e+003, 5.953467e+004
1.189291e+003, 5.960342e+004
1.189774e+003, 5.967414e+004
1.190256e+003, 5.971669e+004
1.190738e+003, 5.970988e+004
1.191220e+003, 5.970555e+004
1.191702e+003, 5.973551e+004
1.192184e+003, 5.976950e+004
1.192666e+003, 5.978645e+004
1.193148e+003, 5.979034e+004
1.193630e+003, 5.980919e+004
1.194113e+003, 5.984084e+004
1.194595e+003, 5.987277e+004
1.195077e+003, 5.990229e+004
1.195559e+003, 5.992661e+004
1.196041e+003, 5.994702e+004
1.196523e+003, 5.995904e+004
1.197005e+003, 5.995571e+004
1.197487e+003, 5.993883e+004
1.197969e+003, 5.993658e+004
1.198452e+003, 5.994757e+004
1.198934e+003, 5.995969e+004
1.199416e+003, 5.996561e+004
1.199898e+003, 5.997268e+004
1.200380e+003, 5.998455e+004
1.200862e+003, 5.999948e+004
1.201344e+003, 6.001433e+004
1.201826e+003, 6.002922e+004
1.202309e+003, 6.005852e+004
1.202791e+003, 6.010053e+004
1.203273e+003, 6.013327e+004
1.203755e+003, 6.013920e+004
1.204237e+003, 6.013822e+004
1.204719e+003, 6.013371e+004
1.205201e+003, 6.013152e+004
1.205683e+003, 6.013902e+004
1.206166e+003, 6.015573e+004
1.206648e+003, 6.017377e+004
1.207130e+003, 6.019290e+004
1.207612e+003, 6.022072e+004
1.208094e+003, 6.027100e+004
1.208576e+003, 6.032083e+004
1.209058e+003, 6.035768e+004
1.209540e+003, 6.038601e+004
1.210022e+003, 6.041002e+004
1.210505e+003, 6.043025e+004
1.210987e+003, 6.045606e+004
1.211469e+003, 6.048806e+004
1.211951e+003, 6.050780e+004
1.212433e+003, 6.048904e+004
1.212915e+003, 6.047056e+004
1.213397e+003, 6.047841e+004
1.213879e+003, 6.049947e+004
1.214361e+003, 6.051349e+004
1.214844e+003, 6.052088e+004
1.215326e+003, 6.052013e+004
1.215808e+003, 6.051092e+004
1.216290e+003, 6.051405e+004
1.216772e+003, 6.055161e+004
1.217254e+003, 6.059703e+004
1.217736e+003, 6.064121e+004
1.218218e+003, 6.067970e+004
1.218701e+003, 6.069990e+004
1.219183e+003, 6.070339e+004
1.219665e+003, 6.071357e+004
1.220147e+003, 6.073347e+004
1.220629e+003, 6.075910e+004
1.221111e+003, 6.079127e+004
1.221593e+003, 6.082479e+004
1.222075e+003, 6.086144e+004
1.222557e+003, 6.089498e+004
1.223040e+003, 6.090734e+004
1.223522e+003, 6.090081e+004
1.224004e+003, 6.088939e+004
1.224486e+003, 6.087477e+004
1.224968e+003, 6.086890e+004
1.225450e+003, 6.089620e+004
1.225932e+003, 6.091577e+004
1.226414e+003, 6.090026e+004
1.226896e+003, 6.086680e+004
1.227379e+003, 6.086990e+004
1.227861e+003, 6.090316e+004
1.228343e+003, 6.092948e+004
1.228825e+003, 6.093911e+004
1.229307e+003, 6.095226e+004
1.229789e+003, 6.099293e+004
1.230271e+003, 6.102402e+004
1.230753e+003, 6.102166e+004
1.231236e+003, 6.099865e+004
1.231718e+003, 6.099957e+004
1.232200e+003, 6.101855e+004
1.232682e+003, 6.103240e+004
1.233164e+003, 6.103327e+004
1.233646e+003, 6.103802e+004
1.234128e+003, 6.105531e+004
1.234610e+003, 6.107981e+004
1.235093e+003, 6.111777e+004
1.235575e+003, 6.115594e+004
1.236057e+003, 6.113412e+004
1.236539e+003, 6.107441e+004
1.237021e+003, 6.105230e+004
1.237503e+003, 6.109861e+004
1.237985e+003, 6.114795e+004
1.238467e+003, 6.117632e+004
1.238949e+003, 6.120251e+004
1.239432e+003, 6.123736e+004
1.239914e+003, 6.127370e+004
1.240396e+003, 6.128330e+004
1.240878e+003, 6.127636e+004
1.241360e+003, 6.128329e+004
1.241842e+003, 6.132004e+004
1.242324e+003, 6.134592e+004
1.242806e+003, 6.134261e+004
1.243288e+003, 6.134222e+004
1.243771e+003, 6.135989e+004
1.244253e+003, 6.139244e+004
1.244735e+003, 6.143967e+004
1.245217e+003, 6.149459e+004
1.245699e+003, 6.154130e+004
1.246181e+003, 6.157602e+004
1.246663e+003, 6.159911e+004
1.247145e+003, 6.160575e+004
1.247628e+003, 6.161405e+004
1.248110e+003, 6.163152e+004
1.248592e+003, 6.165910e+004
1.249074e+003, 6.171420e+004
1.249556e+003, 6.177625e+004
1.250038e+003, 6.180357e+004
1.250520e+003, 6.176139e+004
1.251002e+003, 6.174466e+004
1.251484e+003, 6.175988e+004
1.251967e+003, 6.179212e+004
1.252449e+003, 6.184551e+004
1.252931e+003, 6.189628e+004
1.253413e+003, 6.189795e+004
1.253895e+003, 6.187248e+004
1.254377e+003, 6.185581e+004
1.254859e+003, 6.184472e+004
1.255341e+003, 6.188422e+004
1.255823e+003, 6.198950e+004
1.256306e+003, 6.207106e+004
1.256788e+003, 6.205756e+004
1.257270e+003, 6.201394e+004
1.257752e+003, 6.201439e+004
1.258234e+003, 6.204076e+004
1.258716e+003, 6.206423e+004
1.259198e+003, 6.207948e+004
1.259680e+003, 6.211538e+004
1.260163e+003, 6.217823e+004
1.260645e+003, 6.220851e+004
1.261127e+003, 6.214317e+004
1.261609e+003, 6.206887e+004
1.262091e+003, 6.207339e+004
1.262573e+003, 6.211320e+004
1.263055e+003, 6.212588e+004
1.263537e+003, 6.210386e+004
1.264020e+003, 6.209400e+004
1.264502e+003, 6.209584e+004
1.264984e+003, 6.211732e+004
1.265466e+003, 6.217453e+004
1.265948e+003, 6.223645e+004
1.266430e+003, 6.228924e+004
1.266912e+003, 6.232933e+004
1.267394e+003, 6.235202e+004
1.267876e+003, 6.235633e+004
1.268359e+003, 6.236527e+004
1.268841e+003, 6.237846e+004
1.269323e+003, 6.239255e+004
1.269805e+003, 6.240746e+004
1.270287e+003, 6.242114e+004
1.270769e+003, 6.243535e+004
1.271251e+003, 6.244648e+004
1.271733e+003, 6.244974e+004
1.272215e+003, 6.244729e+004
1.272698e+003, 6.245488e+004
1.273180e+003, 6.247092e+004
1.273662e+003, 6.248570e+004
1.274144e+003, 6.250024e+004
1.274626e+003, 6.250496e+004
1.275108e+003, 6.248913e+004
1.275590e+003, 6.247724e+004
1.276072e+003, 6.249082e+004
1.276555e+003, 6.252319e+004
1.277037e+003, 6.255693e+004
1.277519e+003, 6.258937e+004
1.278001e+003, 6.261358e+004
1.278483e+003, 6.261753e+004
1.278965e+003, 6.262623e+004
1.279447e+003, 6.264373e+004
1.279929e+003, 6.265798e+004
1.280411e+003, 6.264699e+004
1.280894e+003, 6.263364e+004
1.281376e+003, 6.267058e+004
1.281858e+003, 6.273762e+004
1.282340e+003, 6.278918e+004
1.282822e+003, 6.280746e+004
1.283304e+003, 6.282836e+004
1.283786e+003, 6.285256e+004
1.284268e+003, 6.287828e+004
1.284750e+003, 6.290488e+004
1.285233e+003, 6.293276e+004
1.285715e+003, 6.296679e+004
1.286197e+003, 6.300052e+004
1.286679e+003, 6.301955e+004
1.287161e+003, 6.301343e+004
1.287643e+003, 6.304144e+004
1.288125e+003, 6.310486e+004
1.288607e+003, 6.315482e+004
1.289090e+003, 6.314471e+004
1.289572e+003, 6.312626e+004
1.290054e+003, 6.313288e+004
1.290536e+003, 6.315332e+004
1.291018e+003, 6.317239e+004
1.291500e+003, 6.318973e+004
1.291982e+003, 6.321771e+004
1.292464e+003, 6.325372e+004
1.292947e+003, 6.327551e+004
1.293429e+003, 6.327207e+004
1.293911e+003, 6.325275e+004
1.294393e+003, 6.319785e+004
1.294875e+003, 6.315462e+004
1.295357e+003, 6.316875e+004
1.295839e+003, 6.322573e+004
1.296321e+003, 6.325096e+004
1.296803e+003, 6.325289e+004
1.297286e+003, 6.325583e+004
1.297768e+003, 6.327470e+004
1.298250e+003, 6.328637e+004
1.298732e+003, 6.327979e+004
1.299214e+003, 6.328444e+004
1.299696e+003, 6.332225e+004
1.300178e+003, 6.337788e+004
1.300660e+003, 6.344744e+004
##END=



