##NAMES=Schmitterite
##RRUFFID=R060524
##IDEAL CHEMISTRY=(U^6+^O_2_)Te^4+^O_3_
##LOCALITY=Moctezuma mine, Moctezuma, Sonora, Mexico
##OWNER=RRUFF
##SOURCE=Michael Scott
##DESCRIPTION=Pale yellow rosette associated with green emmonsite, R060802
##STATUS=The identification of this mineral has been made only by X-ray diffraction.
##URL=rruff.info/R060524
8.806445e+001, 4.397106e+005
8.854657e+001, 4.227866e+005
8.902869e+001, 4.169263e+005
8.951080e+001, 4.274516e+005
8.999292e+001, 4.466218e+005
9.047504e+001, 4.674277e+005
9.095715e+001, 4.885122e+005
9.143927e+001, 5.094392e+005
9.192139e+001, 5.298465e+005
9.240350e+001, 5.497432e+005
9.288562e+001, 5.690318e+005
9.336774e+001, 5.836561e+005
9.384985e+001, 5.898111e+005
9.433197e+001, 5.878865e+005
9.481409e+001, 5.860556e+005
9.529620e+001, 5.823733e+005
9.577832e+001, 5.788246e+005
9.626044e+001, 5.757835e+005
9.674255e+001, 5.732411e+005
9.722467e+001, 5.710466e+005
9.770679e+001, 5.690521e+005
9.818890e+001, 5.674158e+005
9.867102e+001, 5.659935e+005
9.915314e+001, 5.648545e+005
9.963525e+001, 5.640571e+005
1.001174e+002, 5.636089e+005
1.005995e+002, 5.634182e+005
1.010816e+002, 5.632424e+005
1.015637e+002, 5.627957e+005
1.020458e+002, 5.625872e+005
1.025280e+002, 5.625166e+005
1.030101e+002, 5.625714e+005
1.034922e+002, 5.627733e+005
1.039743e+002, 5.631344e+005
1.044564e+002, 5.636344e+005
1.049385e+002, 5.642496e+005
1.054207e+002, 5.649201e+005
1.059028e+002, 5.656549e+005
1.063849e+002, 5.664413e+005
1.068670e+002, 5.672654e+005
1.073491e+002, 5.681341e+005
1.078312e+002, 5.690571e+005
1.083134e+002, 5.700229e+005
1.087955e+002, 5.709879e+005
1.092776e+002, 5.719238e+005
1.097597e+002, 5.728582e+005
1.102418e+002, 5.738566e+005
1.107239e+002, 5.749704e+005
1.112061e+002, 5.760363e+005
1.116882e+002, 5.768643e+005
1.121703e+002, 5.775093e+005
1.126524e+002, 5.781594e+005
1.131345e+002, 5.790894e+005
1.136166e+002, 5.802593e+005
1.140988e+002, 5.809526e+005
1.145809e+002, 5.807849e+005
1.150630e+002, 5.803073e+005
1.155451e+002, 5.798235e+005
1.160272e+002, 5.793409e+005
1.165093e+002, 5.786873e+005
1.169915e+002, 5.776289e+005
1.174736e+002, 5.760496e+005
1.179557e+002, 5.743163e+005
1.184378e+002, 5.723533e+005
1.189199e+002, 5.703283e+005
1.194020e+002, 5.683131e+005
1.198842e+002, 5.663391e+005
1.203663e+002, 5.644417e+005
1.208484e+002, 5.626933e+005
1.213305e+002, 5.611966e+005
1.218126e+002, 5.597497e+005
1.222947e+002, 5.582991e+005
1.227769e+002, 5.569065e+005
1.232590e+002, 5.556588e+005
1.237411e+002, 5.545941e+005
1.242232e+002, 5.537029e+005
1.247053e+002, 5.529215e+005
1.251874e+002, 5.522990e+005
1.256696e+002, 5.517093e+005
1.261517e+002, 5.510926e+005
1.266338e+002, 5.504664e+005
1.271159e+002, 5.498804e+005
1.275980e+002, 5.493706e+005
1.280801e+002, 5.489384e+005
1.285623e+002, 5.485448e+005
1.290444e+002, 5.481849e+005
1.295265e+002, 5.478686e+005
1.300086e+002, 5.475951e+005
1.304907e+002, 5.473605e+005
1.309728e+002, 5.471983e+005
1.314550e+002, 5.472389e+005
1.319371e+002, 5.473507e+005
1.324192e+002, 5.473418e+005
1.329013e+002, 5.470593e+005
1.333834e+002, 5.466127e+005
1.338655e+002, 5.463400e+005
1.343477e+002, 5.463548e+005
1.348298e+002, 5.463884e+005
1.353119e+002, 5.463346e+005
1.357940e+002, 5.462169e+005
1.362761e+002, 5.460801e+005
1.367582e+002, 5.459468e+005
1.372404e+002, 5.458181e+005
1.377225e+002, 5.457399e+005
1.382046e+002, 5.458012e+005
1.386867e+002, 5.458431e+005
1.391688e+002, 5.457894e+005
1.396509e+002, 5.456629e+005
1.401331e+002, 5.455507e+005
1.406152e+002, 5.455556e+005
1.410973e+002, 5.457502e+005
1.415794e+002, 5.457985e+005
1.420615e+002, 5.455931e+005
1.425436e+002, 5.453564e+005
1.430258e+002, 5.452244e+005
1.435079e+002, 5.452204e+005
1.439900e+002, 5.452760e+005
1.444721e+002, 5.453045e+005
1.449542e+002, 5.452984e+005
1.454363e+002, 5.452640e+005
1.459185e+002, 5.451604e+005
1.464006e+002, 5.450371e+005
1.468827e+002, 5.449451e+005
1.473648e+002, 5.448952e+005
1.478469e+002, 5.448811e+005
1.483290e+002, 5.449176e+005
1.488112e+002, 5.450134e+005
1.492933e+002, 5.450599e+005
1.497754e+002, 5.449598e+005
1.502575e+002, 5.447686e+005
1.507396e+002, 5.446726e+005
1.512217e+002, 5.448063e+005
1.517039e+002, 5.449594e+005
1.521860e+002, 5.448498e+005
1.526681e+002, 5.444454e+005
1.531502e+002, 5.440416e+005
1.536323e+002, 5.438817e+005
1.541144e+002, 5.439762e+005
1.545966e+002, 5.440884e+005
1.550787e+002, 5.442058e+005
1.555608e+002, 5.442867e+005
1.560429e+002, 5.442884e+005
1.565250e+002, 5.442011e+005
1.570071e+002, 5.440736e+005
1.574893e+002, 5.439572e+005
1.579714e+002, 5.438259e+005
1.584535e+002, 5.437829e+005
1.589356e+002, 5.438666e+005
1.594177e+002, 5.440164e+005
1.598998e+002, 5.442136e+005
1.603820e+002, 5.444478e+005
1.608641e+002, 5.446756e+005
1.613462e+002, 5.447826e+005
1.618283e+002, 5.446001e+005
1.623104e+002, 5.445306e+005
1.627925e+002, 5.446807e+005
1.632747e+002, 5.449296e+005
1.637568e+002, 5.451434e+005
1.642389e+002, 5.452545e+005
1.647210e+002, 5.452993e+005
1.652031e+002, 5.454256e+005
1.656852e+002, 5.457606e+005
1.661674e+002, 5.460423e+005
1.666495e+002, 5.461758e+005
1.671316e+002, 5.462351e+005
1.676137e+002, 5.463484e+005
1.680958e+002, 5.465932e+005
1.685779e+002, 5.469529e+005
1.690601e+002, 5.473137e+005
1.695422e+002, 5.476719e+005
1.700243e+002, 5.480343e+005
1.705064e+002, 5.483909e+005
1.709885e+002, 5.487488e+005
1.714706e+002, 5.491369e+005
1.719528e+002, 5.495697e+005
1.724349e+002, 5.500521e+005
1.729170e+002, 5.505741e+005
1.733991e+002, 5.511803e+005
1.738812e+002, 5.517889e+005
1.743633e+002, 5.523329e+005
1.748455e+002, 5.528109e+005
1.753276e+002, 5.532814e+005
1.758097e+002, 5.537549e+005
1.762918e+002, 5.542549e+005
1.767739e+002, 5.548276e+005
1.772560e+002, 5.555118e+005
1.777382e+002, 5.562540e+005
1.782203e+002, 5.569777e+005
1.787024e+002, 5.576770e+005
1.791845e+002, 5.583779e+005
1.796666e+002, 5.590784e+005
1.801487e+002, 5.597881e+005
1.806309e+002, 5.605201e+005
1.811130e+002, 5.612891e+005
1.815951e+002, 5.620820e+005
1.820772e+002, 5.628754e+005
1.825593e+002, 5.636769e+005
1.830414e+002, 5.644581e+005
1.835236e+002, 5.652498e+005
1.840057e+002, 5.660104e+005
1.844878e+002, 5.666808e+005
1.849699e+002, 5.672221e+005
1.854520e+002, 5.676436e+005
1.859341e+002, 5.680173e+005
1.864163e+002, 5.684271e+005
1.868984e+002, 5.686698e+005
1.873805e+002, 5.686729e+005
1.878626e+002, 5.684841e+005
1.883447e+002, 5.681799e+005
1.888268e+002, 5.678041e+005
1.893090e+002, 5.673611e+005
1.897911e+002, 5.669102e+005
1.902732e+002, 5.665964e+005
1.907553e+002, 5.661342e+005
1.912374e+002, 5.653267e+005
1.917195e+002, 5.642973e+005
1.922017e+002, 5.633143e+005
1.926838e+002, 5.625901e+005
1.931659e+002, 5.621315e+005
1.936480e+002, 5.616620e+005
1.941301e+002, 5.611634e+005
1.946122e+002, 5.606749e+005
1.950944e+002, 5.602446e+005
1.955765e+002, 5.598494e+005
1.960586e+002, 5.593970e+005
1.965407e+002, 5.587944e+005
1.970228e+002, 5.580321e+005
1.975049e+002, 5.573942e+005
1.979871e+002, 5.569673e+005
1.984692e+002, 5.565706e+005
1.989513e+002, 5.561421e+005
1.994334e+002, 5.556643e+005
1.999155e+002, 5.550644e+005
2.003976e+002, 5.542664e+005
2.008798e+002, 5.532633e+005
2.013619e+002, 5.522196e+005
2.018440e+002, 5.510321e+005
2.023261e+002, 5.498773e+005
2.028082e+002, 5.489816e+005
2.032903e+002, 5.483724e+005
2.037725e+002, 5.477397e+005
2.042546e+002, 5.467846e+005
2.047367e+002, 5.456194e+005
2.052188e+002, 5.445661e+005
2.057009e+002, 5.437186e+005
2.061830e+002, 5.429986e+005
2.066652e+002, 5.423035e+005
2.071473e+002, 5.416226e+005
2.076294e+002, 5.410111e+005
2.081115e+002, 5.405494e+005
2.085936e+002, 5.401773e+005
2.090757e+002, 5.398039e+005
2.095579e+002, 5.393599e+005
2.100400e+002, 5.389092e+005
2.105221e+002, 5.386019e+005
2.110042e+002, 5.385084e+005
2.114863e+002, 5.383942e+005
2.119685e+002, 5.381064e+005
2.124506e+002, 5.377286e+005
2.129327e+002, 5.373831e+005
2.134148e+002, 5.371369e+005
2.138969e+002, 5.369555e+005
2.143790e+002, 5.367329e+005
2.148612e+002, 5.364356e+005
2.153433e+002, 5.361503e+005
2.158254e+002, 5.358901e+005
2.163075e+002, 5.356638e+005
2.167896e+002, 5.354895e+005
2.172717e+002, 5.353912e+005
2.177539e+002, 5.353446e+005
2.182360e+002, 5.352389e+005
2.187181e+002, 5.350249e+005
2.192002e+002, 5.348156e+005
2.196823e+002, 5.346259e+005
2.201644e+002, 5.344615e+005
2.206466e+002, 5.343406e+005
2.211287e+002, 5.342826e+005
2.216108e+002, 5.342658e+005
2.220929e+002, 5.341654e+005
2.225750e+002, 5.338604e+005
2.230571e+002, 5.336004e+005
2.235393e+002, 5.334444e+005
2.240214e+002, 5.333568e+005
2.245035e+002, 5.332830e+005
2.249856e+002, 5.331909e+005
2.254677e+002, 5.330875e+005
2.259498e+002, 5.330155e+005
2.264320e+002, 5.330288e+005
2.269141e+002, 5.330168e+005
2.273962e+002, 5.329461e+005
2.278783e+002, 5.328414e+005
2.283604e+002, 5.327389e+005
2.288425e+002, 5.326582e+005
2.293247e+002, 5.325980e+005
2.298068e+002, 5.325485e+005
2.302889e+002, 5.324878e+005
2.307710e+002, 5.324598e+005
2.312531e+002, 5.324953e+005
2.317352e+002, 5.325664e+005
2.322174e+002, 5.326248e+005
2.326995e+002, 5.326430e+005
2.331816e+002, 5.326289e+005
2.336637e+002, 5.326176e+005
2.341458e+002, 5.326281e+005
2.346279e+002, 5.326156e+005
2.351101e+002, 5.325629e+005
2.355922e+002, 5.324781e+005
2.360743e+002, 5.323913e+005
2.365564e+002, 5.323319e+005
2.370385e+002, 5.322556e+005
2.375206e+002, 5.320043e+005
2.380028e+002, 5.314479e+005
2.384849e+002, 5.309601e+005
2.389670e+002, 5.307070e+005
2.394491e+002, 5.306191e+005
2.399312e+002, 5.305388e+005
2.404133e+002, 5.304066e+005
2.408955e+002, 5.302414e+005
2.413776e+002, 5.300729e+005
2.418597e+002, 5.298718e+005
2.423418e+002, 5.297355e+005
2.428239e+002, 5.297437e+005
2.433060e+002, 5.298536e+005
2.437882e+002, 5.299529e+005
2.442703e+002, 5.300134e+005
2.447524e+002, 5.300279e+005
2.452345e+002, 5.299814e+005
2.457166e+002, 5.298641e+005
2.461987e+002, 5.297419e+005
2.466809e+002, 5.296369e+005
2.471630e+002, 5.295494e+005
2.476451e+002, 5.294834e+005
2.481272e+002, 5.294423e+005
2.486093e+002, 5.294206e+005
2.490914e+002, 5.294252e+005
2.495736e+002, 5.294591e+005
2.500557e+002, 5.294548e+005
2.505378e+002, 5.293406e+005
2.510199e+002, 5.291478e+005
2.515020e+002, 5.290032e+005
2.519841e+002, 5.289358e+005
2.524663e+002, 5.289186e+005
2.529484e+002, 5.289396e+005
2.534305e+002, 5.289923e+005
2.539126e+002, 5.290221e+005
2.543947e+002, 5.289741e+005
2.548768e+002, 5.288689e+005
2.553590e+002, 5.288099e+005
2.558411e+002, 5.288414e+005
2.563232e+002, 5.288759e+005
2.568053e+002, 5.288661e+005
2.572874e+002, 5.288143e+005
2.577695e+002, 5.287247e+005
2.582516e+002, 5.286031e+005
2.587338e+002, 5.284474e+005
2.592159e+002, 5.282394e+005
2.596980e+002, 5.279172e+005
2.601801e+002, 5.276361e+005
2.606622e+002, 5.275172e+005
2.611443e+002, 5.274973e+005
2.616265e+002, 5.274322e+005
2.621086e+002, 5.272043e+005
2.625907e+002, 5.268574e+005
2.630728e+002, 5.266009e+005
2.635549e+002, 5.264641e+005
2.640370e+002, 5.263780e+005
2.645192e+002, 5.263061e+005
2.650013e+002, 5.262559e+005
2.654834e+002, 5.262475e+005
2.659655e+002, 5.263090e+005
2.664476e+002, 5.264089e+005
2.669297e+002, 5.264388e+005
2.674119e+002, 5.264037e+005
2.678940e+002, 5.262804e+005
2.683761e+002, 5.260269e+005
2.688582e+002, 5.257129e+005
2.693403e+002, 5.254193e+005
2.698224e+002, 5.251871e+005
2.703046e+002, 5.250021e+005
2.707867e+002, 5.248239e+005
2.712688e+002, 5.246489e+005
2.717509e+002, 5.244950e+005
2.722330e+002, 5.243630e+005
2.727151e+002, 5.242516e+005
2.731973e+002, 5.241599e+005
2.736794e+002, 5.240878e+005
2.741615e+002, 5.240298e+005
2.746436e+002, 5.239753e+005
2.751257e+002, 5.239229e+005
2.756078e+002, 5.238708e+005
2.760900e+002, 5.238386e+005
2.765721e+002, 5.237908e+005
2.770542e+002, 5.236743e+005
2.775363e+002, 5.234791e+005
2.780184e+002, 5.232740e+005
2.785005e+002, 5.231979e+005
2.789827e+002, 5.233756e+005
2.794648e+002, 5.233966e+005
2.799469e+002, 5.231698e+005
2.804290e+002, 5.228608e+005
2.809111e+002, 5.225558e+005
2.813932e+002, 5.222822e+005
2.818754e+002, 5.220427e+005
2.823575e+002, 5.218478e+005
2.828396e+002, 5.217218e+005
2.833217e+002, 5.215758e+005
2.838038e+002, 5.213633e+005
2.842859e+002, 5.211735e+005
2.847681e+002, 5.210832e+005
2.852502e+002, 5.210771e+005
2.857323e+002, 5.210663e+005
2.862144e+002, 5.209537e+005
2.866965e+002, 5.207159e+005
2.871786e+002, 5.205087e+005
2.876608e+002, 5.203733e+005
2.881429e+002, 5.202262e+005
2.886250e+002, 5.200268e+005
2.891071e+002, 5.197853e+005
2.895892e+002, 5.195333e+005
2.900714e+002, 5.192897e+005
2.905535e+002, 5.190558e+005
2.910356e+002, 5.188819e+005
2.915177e+002, 5.188230e+005
2.919998e+002, 5.187711e+005
2.924819e+002, 5.186955e+005
2.929641e+002, 5.186064e+005
2.934462e+002, 5.185249e+005
2.939283e+002, 5.184623e+005
2.944104e+002, 5.184203e+005
2.948925e+002, 5.184073e+005
2.953746e+002, 5.185036e+005
2.958568e+002, 5.185362e+005
2.963389e+002, 5.184413e+005
2.968210e+002, 5.182756e+005
2.973031e+002, 5.181098e+005
2.977852e+002, 5.179756e+005
2.982673e+002, 5.178703e+005
2.987495e+002, 5.177899e+005
2.992316e+002, 5.177294e+005
2.997137e+002, 5.176980e+005
3.001958e+002, 5.177387e+005
3.006779e+002, 5.177844e+005
3.011600e+002, 5.177681e+005
3.016422e+002, 5.176674e+005
3.021243e+002, 5.175054e+005
3.026064e+002, 5.173194e+005
3.030885e+002, 5.170579e+005
3.035706e+002, 5.168673e+005
3.040527e+002, 5.167928e+005
3.045349e+002, 5.167527e+005
3.050170e+002, 5.166963e+005
3.054991e+002, 5.166109e+005
3.059812e+002, 5.165052e+005
3.064633e+002, 5.163938e+005
3.069454e+002, 5.162967e+005
3.074276e+002, 5.161217e+005
3.079097e+002, 5.158007e+005
3.083918e+002, 5.154799e+005
3.088739e+002, 5.152326e+005
3.093560e+002, 5.150633e+005
3.098381e+002, 5.149502e+005
3.103203e+002, 5.148818e+005
3.108024e+002, 5.148662e+005
3.112845e+002, 5.147933e+005
3.117666e+002, 5.146248e+005
3.122487e+002, 5.144488e+005
3.127308e+002, 5.142981e+005
3.132130e+002, 5.141625e+005
3.136951e+002, 5.140114e+005
3.141772e+002, 5.138219e+005
3.146593e+002, 5.136019e+005
3.151414e+002, 5.134202e+005
3.156235e+002, 5.132817e+005
3.161057e+002, 5.131678e+005
3.165878e+002, 5.130735e+005
3.170699e+002, 5.129991e+005
3.175520e+002, 5.129527e+005
3.180341e+002, 5.129377e+005
3.185162e+002, 5.129371e+005
3.189984e+002, 5.129109e+005
3.194805e+002, 5.129048e+005
3.199626e+002, 5.128039e+005
3.204447e+002, 5.125413e+005
3.209268e+002, 5.122242e+005
3.214089e+002, 5.119394e+005
3.218911e+002, 5.117148e+005
3.223732e+002, 5.115398e+005
3.228553e+002, 5.113938e+005
3.233374e+002, 5.112636e+005
3.238195e+002, 5.112156e+005
3.243016e+002, 5.113470e+005
3.247838e+002, 5.114752e+005
3.252659e+002, 5.114667e+005
3.257480e+002, 5.113266e+005
3.262301e+002, 5.111635e+005
3.267122e+002, 5.110889e+005
3.271943e+002, 5.111229e+005
3.276765e+002, 5.110649e+005
3.281586e+002, 5.108385e+005
3.286407e+002, 5.106019e+005
3.291228e+002, 5.103753e+005
3.296049e+002, 5.101812e+005
3.300870e+002, 5.100644e+005
3.305692e+002, 5.100658e+005
3.310513e+002, 5.101602e+005
3.315334e+002, 5.101565e+005
3.320155e+002, 5.099339e+005
3.324976e+002, 5.097463e+005
3.329797e+002, 5.096779e+005
3.334619e+002, 5.096539e+005
3.339440e+002, 5.095751e+005
3.344261e+002, 5.093984e+005
3.349082e+002, 5.091601e+005
3.353904e+002, 5.089401e+005
3.358725e+002, 5.087628e+005
3.363546e+002, 5.085803e+005
3.368367e+002, 5.083874e+005
3.373188e+002, 5.081972e+005
3.378009e+002, 5.080203e+005
3.382831e+002, 5.078604e+005
3.387652e+002, 5.077153e+005
3.392473e+002, 5.075844e+005
3.397294e+002, 5.074741e+005
3.402115e+002, 5.073567e+005
3.406936e+002, 5.071994e+005
3.411758e+002, 5.070595e+005
3.416579e+002, 5.069661e+005
3.421400e+002, 5.069137e+005
3.426221e+002, 5.068774e+005
3.431042e+002, 5.068322e+005
3.435863e+002, 5.067763e+005
3.440685e+002, 5.067633e+005
3.445506e+002, 5.068639e+005
3.450327e+002, 5.069321e+005
3.455148e+002, 5.069456e+005
3.459969e+002, 5.069012e+005
3.464790e+002, 5.067873e+005
3.469612e+002, 5.065913e+005
3.474433e+002, 5.063479e+005
3.479254e+002, 5.061641e+005
3.484075e+002, 5.060717e+005
3.488896e+002, 5.059937e+005
3.493717e+002, 5.059405e+005
3.498539e+002, 5.058839e+005
3.503360e+002, 5.057878e+005
3.508181e+002, 5.056448e+005
3.513002e+002, 5.054949e+005
3.517823e+002, 5.053907e+005
3.522644e+002, 5.053287e+005
3.527466e+002, 5.053302e+005
3.532287e+002, 5.055557e+005
3.537108e+002, 5.057158e+005
3.541929e+002, 5.056152e+005
3.546750e+002, 5.052838e+005
3.551571e+002, 5.049134e+005
3.556393e+002, 5.046584e+005
3.561214e+002, 5.045187e+005
3.566035e+002, 5.044541e+005
3.570856e+002, 5.045906e+005
3.575677e+002, 5.046524e+005
3.580498e+002, 5.044741e+005
3.585320e+002, 5.041691e+005
3.590141e+002, 5.039405e+005
3.594962e+002, 5.039152e+005
3.599783e+002, 5.040099e+005
3.604604e+002, 5.039932e+005
3.609425e+002, 5.037973e+005
3.614247e+002, 5.036442e+005
3.619068e+002, 5.036081e+005
3.623889e+002, 5.036315e+005
3.628710e+002, 5.036752e+005
3.633531e+002, 5.037288e+005
3.638352e+002, 5.037778e+005
3.643174e+002, 5.037761e+005
3.647995e+002, 5.037083e+005
3.652816e+002, 5.037517e+005
3.657637e+002, 5.040968e+005
3.662458e+002, 5.044173e+005
3.667279e+002, 5.044853e+005
3.672101e+002, 5.043186e+005
3.676922e+002, 5.040944e+005
3.681743e+002, 5.039267e+005
3.686564e+002, 5.038025e+005
3.691385e+002, 5.036564e+005
3.696206e+002, 5.034593e+005
3.701028e+002, 5.032931e+005
3.705849e+002, 5.032331e+005
3.710670e+002, 5.032328e+005
3.715491e+002, 5.032092e+005
3.720312e+002, 5.031176e+005
3.725133e+002, 5.030044e+005
3.729955e+002, 5.029447e+005
3.734776e+002, 5.029459e+005
3.739597e+002, 5.029257e+005
3.744418e+002, 5.028234e+005
3.749239e+002, 5.026943e+005
3.754060e+002, 5.025986e+005
3.758882e+002, 5.025341e+005
3.763703e+002, 5.025272e+005
3.768524e+002, 5.026412e+005
3.773345e+002, 5.028387e+005
3.778166e+002, 5.029588e+005
3.782987e+002, 5.029398e+005
3.787809e+002, 5.028812e+005
3.792630e+002, 5.028999e+005
3.797451e+002, 5.029853e+005
3.802272e+002, 5.030561e+005
3.807093e+002, 5.030434e+005
3.811914e+002, 5.030213e+005
3.816736e+002, 5.031126e+005
3.821557e+002, 5.033307e+005
3.826378e+002, 5.035382e+005
3.831199e+002, 5.036243e+005
3.836020e+002, 5.036152e+005
3.840841e+002, 5.036450e+005
3.845663e+002, 5.037234e+005
3.850484e+002, 5.038341e+005
3.855305e+002, 5.039897e+005
3.860126e+002, 5.041724e+005
3.864947e+002, 5.043168e+005
3.869768e+002, 5.043793e+005
3.874590e+002, 5.044200e+005
3.879411e+002, 5.045853e+005
3.884232e+002, 5.049258e+005
3.889053e+002, 5.052121e+005
3.893874e+002, 5.053250e+005
3.898695e+002, 5.053954e+005
3.903517e+002, 5.056108e+005
3.908338e+002, 5.059992e+005
3.913159e+002, 5.063734e+005
3.917980e+002, 5.065299e+005
3.922801e+002, 5.064316e+005
3.927622e+002, 5.064319e+005
3.932444e+002, 5.065890e+005
3.937265e+002, 5.067808e+005
3.942086e+002, 5.069922e+005
3.946907e+002, 5.071902e+005
3.951728e+002, 5.073147e+005
3.956549e+002, 5.073318e+005
3.961371e+002, 5.072453e+005
3.966192e+002, 5.070637e+005
3.971013e+002, 5.066531e+005
3.975834e+002, 5.063123e+005
3.980655e+002, 5.060943e+005
3.985476e+002, 5.059400e+005
3.990298e+002, 5.058104e+005
3.995119e+002, 5.056877e+005
3.999940e+002, 5.055417e+005
4.004761e+002, 5.053268e+005
4.009582e+002, 5.050201e+005
4.014403e+002, 5.047265e+005
4.019225e+002, 5.044420e+005
4.024046e+002, 5.041731e+005
4.028867e+002, 5.039418e+005
4.033688e+002, 5.037298e+005
4.038509e+002, 5.034892e+005
4.043330e+002, 5.031778e+005
4.048152e+002, 5.028149e+005
4.052973e+002, 5.025118e+005
4.057794e+002, 5.022735e+005
4.062615e+002, 5.020925e+005
4.067436e+002, 5.020314e+005
4.072257e+002, 5.019872e+005
4.077079e+002, 5.018453e+005
4.081900e+002, 5.015720e+005
4.086721e+002, 5.012504e+005
4.091542e+002, 5.009907e+005
4.096363e+002, 5.007978e+005
4.101184e+002, 5.006262e+005
4.106006e+002, 5.004863e+005
4.110827e+002, 5.003571e+005
4.115648e+002, 5.002588e+005
4.120469e+002, 5.001700e+005
4.125290e+002, 5.000237e+005
4.130111e+002, 4.997317e+005
4.134933e+002, 4.993593e+005
4.139754e+002, 4.991297e+005
4.144575e+002, 4.990992e+005
4.149396e+002, 4.990702e+005
4.154217e+002, 4.988692e+005
4.159038e+002, 4.986492e+005
4.163860e+002, 4.986088e+005
4.168681e+002, 4.988263e+005
4.173502e+002, 4.991158e+005
4.178323e+002, 4.993346e+005
4.183144e+002, 4.994807e+005
4.187965e+002, 4.995241e+005
4.192787e+002, 4.994223e+005
4.197608e+002, 4.992607e+005
4.202429e+002, 4.991253e+005
4.207250e+002, 4.990128e+005
4.212071e+002, 4.989110e+005
4.216892e+002, 4.988147e+005
4.221714e+002, 4.987236e+005
4.226535e+002, 4.986608e+005
4.231356e+002, 4.986273e+005
4.236177e+002, 4.985292e+005
4.240998e+002, 4.982678e+005
4.245819e+002, 4.978950e+005
4.250641e+002, 4.976408e+005
4.255462e+002, 4.975442e+005
4.260283e+002, 4.975163e+005
4.265104e+002, 4.976181e+005
4.269925e+002, 4.977518e+005
4.274746e+002, 4.977123e+005
4.279568e+002, 4.974236e+005
4.284389e+002, 4.970021e+005
4.289210e+002, 4.966098e+005
4.294031e+002, 4.962514e+005
4.298852e+002, 4.959263e+005
4.303673e+002, 4.956465e+005
4.308495e+002, 4.953905e+005
4.313316e+002, 4.951601e+005
4.318137e+002, 4.949429e+005
4.322958e+002, 4.946948e+005
4.327779e+002, 4.943728e+005
4.332600e+002, 4.939949e+005
4.337422e+002, 4.937134e+005
4.342243e+002, 4.936519e+005
4.347064e+002, 4.935379e+005
4.351885e+002, 4.933003e+005
4.356706e+002, 4.930083e+005
4.361527e+002, 4.927331e+005
4.366349e+002, 4.924966e+005
4.371170e+002, 4.922824e+005
4.375991e+002, 4.920487e+005
4.380812e+002, 4.917478e+005
4.385633e+002, 4.916010e+005
4.390454e+002, 4.918554e+005
4.395276e+002, 4.920330e+005
4.400097e+002, 4.919393e+005
4.404918e+002, 4.916162e+005
4.409739e+002, 4.911727e+005
4.414560e+002, 4.906396e+005
4.419381e+002, 4.900809e+005
4.424203e+002, 4.896919e+005
4.429024e+002, 4.895422e+005
4.433845e+002, 4.893897e+005
4.438666e+002, 4.891914e+005
4.443487e+002, 4.889458e+005
4.448308e+002, 4.886088e+005
4.453130e+002, 4.881758e+005
4.457951e+002, 4.877956e+005
4.462772e+002, 4.876467e+005
4.467593e+002, 4.876764e+005
4.472414e+002, 4.876038e+005
4.477235e+002, 4.873704e+005
4.482057e+002, 4.870907e+005
4.486878e+002, 4.868284e+005
4.491699e+002, 4.865843e+005
4.496520e+002, 4.863727e+005
4.501341e+002, 4.861918e+005
4.506162e+002, 4.860459e+005
4.510984e+002, 4.859521e+005
4.515805e+002, 4.859018e+005
4.520626e+002, 4.858437e+005
4.525447e+002, 4.857506e+005
4.530268e+002, 4.856438e+005
4.535089e+002, 4.855694e+005
4.539911e+002, 4.855321e+005
4.544732e+002, 4.854851e+005
4.549553e+002, 4.854066e+005
4.554374e+002, 4.853173e+005
4.559195e+002, 4.852456e+005
4.564016e+002, 4.851903e+005
4.568838e+002, 4.851218e+005
4.573659e+002, 4.850132e+005
4.578480e+002, 4.848667e+005
4.583301e+002, 4.847260e+005
4.588122e+002, 4.846397e+005
4.592943e+002, 4.845003e+005
4.597765e+002, 4.842323e+005
4.602586e+002, 4.839148e+005
4.607407e+002, 4.836673e+005
4.612228e+002, 4.835268e+005
4.617049e+002, 4.834073e+005
4.621870e+002, 4.831622e+005
4.626692e+002, 4.827147e+005
4.631513e+002, 4.824037e+005
4.636334e+002, 4.823199e+005
4.641155e+002, 4.822828e+005
4.645976e+002, 4.822442e+005
4.650797e+002, 4.821943e+005
4.655619e+002, 4.821284e+005
4.660440e+002, 4.820446e+005
4.665261e+002, 4.819450e+005
4.670082e+002, 4.818326e+005
4.674903e+002, 4.816998e+005
4.679724e+002, 4.815738e+005
4.684546e+002, 4.814723e+005
4.689367e+002, 4.813714e+005
4.694188e+002, 4.812343e+005
4.699009e+002, 4.810609e+005
4.703830e+002, 4.809232e+005
4.708651e+002, 4.808986e+005
4.713473e+002, 4.809526e+005
4.718294e+002, 4.809657e+005
4.723115e+002, 4.809232e+005
4.727936e+002, 4.808512e+005
4.732757e+002, 4.807648e+005
4.737578e+002, 4.806565e+005
4.742400e+002, 4.805109e+005
4.747221e+002, 4.803129e+005
4.752042e+002, 4.800953e+005
4.756863e+002, 4.798292e+005
4.761684e+002, 4.795578e+005
4.766505e+002, 4.794416e+005
4.771327e+002, 4.795572e+005
4.776148e+002, 4.797159e+005
4.780969e+002, 4.796668e+005
4.785790e+002, 4.793750e+005
4.790611e+002, 4.791400e+005
4.795432e+002, 4.790182e+005
4.800254e+002, 4.789268e+005
4.805075e+002, 4.788448e+005
4.809896e+002, 4.787532e+005
4.814717e+002, 4.785956e+005
4.819538e+002, 4.783341e+005
4.824359e+002, 4.780216e+005
4.829181e+002, 4.778101e+005
4.834002e+002, 4.777973e+005
4.838823e+002, 4.777457e+005
4.843644e+002, 4.775734e+005
4.848465e+002, 4.774208e+005
4.853286e+002, 4.774480e+005
4.858108e+002, 4.776183e+005
4.862929e+002, 4.777136e+005
4.867750e+002, 4.775061e+005
4.872571e+002, 4.770513e+005
4.877392e+002, 4.768703e+005
4.882213e+002, 4.771651e+005
4.887035e+002, 4.773999e+005
4.891856e+002, 4.774017e+005
4.896677e+002, 4.772919e+005
4.901498e+002, 4.771831e+005
4.906319e+002, 4.771019e+005
4.911140e+002, 4.770348e+005
4.915962e+002, 4.769803e+005
4.920783e+002, 4.769336e+005
4.925604e+002, 4.768588e+005
4.930425e+002, 4.767536e+005
4.935246e+002, 4.766193e+005
4.940067e+002, 4.764691e+005
4.944889e+002, 4.762929e+005
4.949710e+002, 4.760554e+005
4.954531e+002, 4.756932e+005
4.959352e+002, 4.753338e+005
4.964173e+002, 4.750986e+005
4.968994e+002, 4.749569e+005
4.973816e+002, 4.747863e+005
4.978637e+002, 4.745409e+005
4.983458e+002, 4.742736e+005
4.988279e+002, 4.740693e+005
4.993100e+002, 4.739528e+005
4.997921e+002, 4.737734e+005
5.002743e+002, 4.734741e+005
5.007564e+002, 4.731519e+005
5.012385e+002, 4.728667e+005
5.017206e+002, 4.726136e+005
5.022027e+002, 4.723649e+005
5.026848e+002, 4.721014e+005
5.031670e+002, 4.718443e+005
5.036491e+002, 4.716648e+005
5.041312e+002, 4.716256e+005
5.046133e+002, 4.715628e+005
5.050954e+002, 4.715033e+005
5.055775e+002, 4.713970e+005
5.060597e+002, 4.711677e+005
5.065418e+002, 4.708458e+005
5.070239e+002, 4.705642e+005
5.075060e+002, 4.704462e+005
5.079881e+002, 4.704454e+005
5.084702e+002, 4.703374e+005
5.089524e+002, 4.700968e+005
5.094345e+002, 4.698053e+005
5.099166e+002, 4.693441e+005
5.103987e+002, 4.689317e+005
5.108808e+002, 4.688528e+005
5.113629e+002, 4.691542e+005
5.118451e+002, 4.693964e+005
5.123271e+002, 4.691618e+005
5.128093e+002, 4.686198e+005
5.132914e+002, 4.682756e+005
5.137735e+002, 4.682076e+005
5.142556e+002, 4.681613e+005
5.147377e+002, 4.679307e+005
5.152198e+002, 4.675861e+005
5.157020e+002, 4.673799e+005
5.161841e+002, 4.674327e+005
5.166662e+002, 4.674567e+005
5.171483e+002, 4.673018e+005
5.176304e+002, 4.670407e+005
5.181125e+002, 4.667800e+005
5.185947e+002, 4.665466e+005
5.190768e+002, 4.663405e+005
5.195589e+002, 4.661671e+005
5.200410e+002, 4.660313e+005
5.205231e+002, 4.658639e+005
5.210052e+002, 4.656015e+005
5.214874e+002, 4.653825e+005
5.219695e+002, 4.652509e+005
5.224516e+002, 4.651891e+005
5.229337e+002, 4.652078e+005
5.234158e+002, 4.653038e+005
5.238979e+002, 4.653732e+005
5.243801e+002, 4.652303e+005
5.248622e+002, 4.648198e+005
5.253443e+002, 4.645005e+005
5.258264e+002, 4.643244e+005
5.263085e+002, 4.642029e+005
5.267906e+002, 4.641342e+005
5.272728e+002, 4.640848e+005
5.277549e+002, 4.639934e+005
5.282370e+002, 4.638287e+005
5.287191e+002, 4.636239e+005
5.292012e+002, 4.634060e+005
5.296833e+002, 4.631761e+005
5.301655e+002, 4.629735e+005
5.306476e+002, 4.628078e+005
5.311297e+002, 4.626687e+005
5.316118e+002, 4.625747e+005
5.320939e+002, 4.625153e+005
5.325760e+002, 4.623849e+005
5.330582e+002, 4.620888e+005
5.335403e+002, 4.617788e+005
5.340224e+002, 4.615654e+005
5.345045e+002, 4.614376e+005
5.349866e+002, 4.613546e+005
5.354688e+002, 4.613028e+005
5.359509e+002, 4.612734e+005
5.364330e+002, 4.612502e+005
5.369151e+002, 4.612463e+005
5.373972e+002, 4.612232e+005
5.378793e+002, 4.612463e+005
5.383615e+002, 4.611949e+005
5.388436e+002, 4.609284e+005
5.393257e+002, 4.605359e+005
5.398078e+002, 4.602197e+005
5.402899e+002, 4.600933e+005
5.407720e+002, 4.600981e+005
5.412542e+002, 4.601121e+005
5.417363e+002, 4.601423e+005
5.422184e+002, 4.601459e+005
5.427005e+002, 4.601342e+005
5.431826e+002, 4.600692e+005
5.436647e+002, 4.598856e+005
5.441469e+002, 4.596171e+005
5.446290e+002, 4.593894e+005
5.451111e+002, 4.592780e+005
5.455932e+002, 4.592338e+005
5.460753e+002, 4.592041e+005
5.465574e+002, 4.591876e+005
5.470396e+002, 4.591299e+005
5.475217e+002, 4.589972e+005
5.480038e+002, 4.588357e+005
5.484859e+002, 4.587307e+005
5.489680e+002, 4.586969e+005
5.494501e+002, 4.585986e+005
5.499323e+002, 4.584039e+005
5.504144e+002, 4.581453e+005
5.508965e+002, 4.578087e+005
5.513786e+002, 4.574266e+005
5.518607e+002, 4.570843e+005
5.523428e+002, 4.568274e+005
5.528250e+002, 4.566422e+005
5.533071e+002, 4.564979e+005
5.537892e+002, 4.564396e+005
5.542713e+002, 4.563426e+005
5.547534e+002, 4.562093e+005
5.552355e+002, 4.560443e+005
5.557177e+002, 4.558298e+005
5.561998e+002, 4.555869e+005
5.566819e+002, 4.553656e+005
5.571640e+002, 4.552033e+005
5.576461e+002, 4.550676e+005
5.581282e+002, 4.548749e+005
5.586104e+002, 4.546082e+005
5.590925e+002, 4.543953e+005
5.595746e+002, 4.542886e+005
5.600567e+002, 4.542271e+005
5.605388e+002, 4.541541e+005
5.610209e+002, 4.540730e+005
5.615031e+002, 4.540078e+005
5.619852e+002, 4.539613e+005
5.624673e+002, 4.539388e+005
5.629494e+002, 4.539609e+005
5.634315e+002, 4.540161e+005
5.639136e+002, 4.540451e+005
5.643958e+002, 4.540151e+005
5.648779e+002, 4.539719e+005
5.653600e+002, 4.540031e+005
5.658421e+002, 4.541656e+005
5.663242e+002, 4.542296e+005
5.668063e+002, 4.541206e+005
5.672885e+002, 4.539841e+005
5.677706e+002, 4.539264e+005
5.682527e+002, 4.539012e+005
5.687348e+002, 4.537853e+005
5.692169e+002, 4.535154e+005
5.696990e+002, 4.531851e+005
5.701812e+002, 4.529668e+005
5.706633e+002, 4.528644e+005
5.711454e+002, 4.528669e+005
5.716275e+002, 4.531120e+005
5.721096e+002, 4.533203e+005
5.725917e+002, 4.533235e+005
5.730739e+002, 4.531862e+005
5.735560e+002, 4.530648e+005
5.740381e+002, 4.530309e+005
5.745202e+002, 4.530162e+005
5.750023e+002, 4.529351e+005
5.754844e+002, 4.528018e+005
5.759666e+002, 4.526919e+005
5.764487e+002, 4.526246e+005
5.769308e+002, 4.525831e+005
5.774129e+002, 4.525598e+005
5.778950e+002, 4.525531e+005
5.783771e+002, 4.525203e+005
5.788593e+002, 4.524759e+005
5.793414e+002, 4.523861e+005
5.798235e+002, 4.521597e+005
5.803056e+002, 4.518988e+005
5.807877e+002, 4.517698e+005
5.812698e+002, 4.518203e+005
5.817520e+002, 4.519803e+005
5.822341e+002, 4.521970e+005
5.827162e+002, 4.525036e+005
5.831984e+002, 4.525449e+005
5.836805e+002, 4.520479e+005
5.841626e+002, 4.516191e+005
5.846447e+002, 4.514571e+005
5.851268e+002, 4.514382e+005
5.856089e+002, 4.514194e+005
5.860911e+002, 4.513636e+005
5.865732e+002, 4.512914e+005
5.870553e+002, 4.512333e+005
5.875374e+002, 4.511768e+005
5.880195e+002, 4.510757e+005
5.885016e+002, 4.509261e+005
5.889838e+002, 4.507354e+005
5.894659e+002, 4.505016e+005
5.899480e+002, 4.502322e+005
5.904301e+002, 4.499443e+005
5.909122e+002, 4.495803e+005
5.913943e+002, 4.493140e+005
5.918765e+002, 4.492766e+005
5.923586e+002, 4.493162e+005
5.928407e+002, 4.492345e+005
5.933228e+002, 4.490393e+005
5.938049e+002, 4.489293e+005
5.942870e+002, 4.490741e+005
5.947692e+002, 4.493873e+005
5.952513e+002, 4.494538e+005
5.957334e+002, 4.491039e+005
5.962155e+002, 4.488033e+005
5.966976e+002, 4.486000e+005
5.971797e+002, 4.484556e+005
5.976619e+002, 4.483526e+005
5.981440e+002, 4.482843e+005
5.986261e+002, 4.482418e+005
5.991082e+002, 4.482309e+005
5.995903e+002, 4.482294e+005
6.000724e+002, 4.481934e+005
6.005546e+002, 4.481202e+005
6.010367e+002, 4.480426e+005
6.015188e+002, 4.479574e+005
6.020009e+002, 4.478853e+005
6.024830e+002, 4.478817e+005
6.029651e+002, 4.479443e+005
6.034473e+002, 4.479136e+005
6.039294e+002, 4.476906e+005
6.044115e+002, 4.474408e+005
6.048936e+002, 4.472773e+005
6.053757e+002, 4.471636e+005
6.058578e+002, 4.470112e+005
6.063400e+002, 4.467909e+005
6.068221e+002, 4.465601e+005
6.073042e+002, 4.464091e+005
6.077863e+002, 4.463626e+005
6.082684e+002, 4.462608e+005
6.087505e+002, 4.461154e+005
6.092327e+002, 4.459058e+005
6.097148e+002, 4.455553e+005
6.101969e+002, 4.451761e+005
6.106790e+002, 4.449175e+005
6.111611e+002, 4.448237e+005
6.116432e+002, 4.447710e+005
6.121254e+002, 4.446548e+005
6.126075e+002, 4.444904e+005
6.130896e+002, 4.443264e+005
6.135717e+002, 4.441643e+005
6.140538e+002, 4.439958e+005
6.145359e+002, 4.438051e+005
6.150181e+002, 4.436058e+005
6.155002e+002, 4.434358e+005
6.159823e+002, 4.432562e+005
6.164644e+002, 4.431724e+005
6.169465e+002, 4.433262e+005
6.174286e+002, 4.434910e+005
6.179108e+002, 4.434218e+005
6.183929e+002, 4.431688e+005
6.188750e+002, 4.429790e+005
6.193571e+002, 4.430143e+005
6.198392e+002, 4.431790e+005
6.203214e+002, 4.432150e+005
6.208035e+002, 4.430799e+005
6.212856e+002, 4.429520e+005
6.217677e+002, 4.428665e+005
6.222498e+002, 4.427800e+005
6.227319e+002, 4.426727e+005
6.232141e+002, 4.425488e+005
6.236962e+002, 4.424193e+005
6.241783e+002, 4.422882e+005
6.246604e+002, 4.421566e+005
6.251425e+002, 4.420121e+005
6.256246e+002, 4.418669e+005
6.261068e+002, 4.417904e+005
6.265889e+002, 4.418111e+005
6.270710e+002, 4.417653e+005
6.275531e+002, 4.414453e+005
6.280352e+002, 4.408754e+005
6.285173e+002, 4.406199e+005
6.289995e+002, 4.409156e+005
6.294816e+002, 4.411754e+005
6.299637e+002, 4.412721e+005
6.304458e+002, 4.412791e+005
6.309279e+002, 4.412612e+005
6.314100e+002, 4.412309e+005
6.318922e+002, 4.411726e+005
6.323743e+002, 4.410631e+005
6.328564e+002, 4.409197e+005
6.333385e+002, 4.408061e+005
6.338206e+002, 4.407149e+005
6.343027e+002, 4.406787e+005
6.347849e+002, 4.407835e+005
6.352670e+002, 4.408701e+005
6.357491e+002, 4.407583e+005
6.362312e+002, 4.404682e+005
6.367133e+002, 4.402206e+005
6.371954e+002, 4.401406e+005
6.376776e+002, 4.400779e+005
6.381597e+002, 4.399201e+005
6.386418e+002, 4.396857e+005
6.391239e+002, 4.394160e+005
6.396060e+002, 4.391278e+005
6.400881e+002, 4.388372e+005
6.405703e+002, 4.385621e+005
6.410524e+002, 4.383031e+005
6.415345e+002, 4.380933e+005
6.420166e+002, 4.380134e+005
6.424987e+002, 4.378963e+005
6.429808e+002, 4.376714e+005
6.434630e+002, 4.374191e+005
6.439451e+002, 4.372237e+005
6.444272e+002, 4.370998e+005
6.449093e+002, 4.369923e+005
6.453914e+002, 4.368676e+005
6.458735e+002, 4.367247e+005
6.463557e+002, 4.365449e+005
6.468378e+002, 4.363229e+005
6.473199e+002, 4.361555e+005
6.478020e+002, 4.360948e+005
6.482841e+002, 4.360878e+005
6.487662e+002, 4.360562e+005
6.492484e+002, 4.359977e+005
6.497305e+002, 4.359152e+005
6.502126e+002, 4.357923e+005
6.506947e+002, 4.356588e+005
6.511768e+002, 4.355163e+005
6.516589e+002, 4.353764e+005
6.521411e+002, 4.352383e+005
6.526232e+002, 4.351071e+005
6.531053e+002, 4.350472e+005
6.535874e+002, 4.351943e+005
6.540695e+002, 4.355522e+005
6.545516e+002, 4.356922e+005
6.550338e+002, 4.354882e+005
6.555159e+002, 4.353152e+005
6.559980e+002, 4.354733e+005
6.564801e+002, 4.356770e+005
6.569622e+002, 4.355583e+005
6.574443e+002, 4.350473e+005
6.579265e+002, 4.346096e+005
6.584086e+002, 4.345259e+005
6.588907e+002, 4.345698e+005
6.593728e+002, 4.344734e+005
6.598549e+002, 4.342669e+005
6.603370e+002, 4.341587e+005
6.608192e+002, 4.342511e+005
6.613013e+002, 4.344143e+005
6.617834e+002, 4.344114e+005
6.622655e+002, 4.341747e+005
6.627476e+002, 4.340253e+005
6.632297e+002, 4.339676e+005
6.637119e+002, 4.339969e+005
6.641940e+002, 4.342523e+005
6.646761e+002, 4.345377e+005
6.651582e+002, 4.345694e+005
6.656403e+002, 4.342732e+005
6.661224e+002, 4.339026e+005
6.666046e+002, 4.336353e+005
6.670867e+002, 4.334576e+005
6.675688e+002, 4.333499e+005
6.680509e+002, 4.333131e+005
6.685330e+002, 4.332926e+005
6.690151e+002, 4.332766e+005
6.694973e+002, 4.332388e+005
6.699794e+002, 4.331151e+005
6.704615e+002, 4.328342e+005
6.709436e+002, 4.326673e+005
6.714257e+002, 4.326866e+005
6.719078e+002, 4.327503e+005
6.723900e+002, 4.328379e+005
6.728721e+002, 4.329008e+005
6.733542e+002, 4.328482e+005
6.738363e+002, 4.326513e+005
6.743184e+002, 4.324299e+005
6.748005e+002, 4.323036e+005
6.752827e+002, 4.322721e+005
6.757648e+002, 4.323872e+005
6.762469e+002, 4.327164e+005
6.767290e+002, 4.329468e+005
6.772111e+002, 4.329023e+005
6.776932e+002, 4.326821e+005
6.781754e+002, 4.324382e+005
6.786575e+002, 4.321434e+005
6.791396e+002, 4.319782e+005
6.796217e+002, 4.321268e+005
6.801038e+002, 4.322967e+005
6.805859e+002, 4.322266e+005
6.810681e+002, 4.320064e+005
6.815502e+002, 4.318727e+005
6.820323e+002, 4.319187e+005
6.825144e+002, 4.320396e+005
6.829965e+002, 4.320775e+005
6.834786e+002, 4.320235e+005
6.839608e+002, 4.320549e+005
6.844429e+002, 4.322441e+005
6.849250e+002, 4.323847e+005
6.854071e+002, 4.323292e+005
6.858892e+002, 4.322132e+005
6.863713e+002, 4.321649e+005
6.868535e+002, 4.321943e+005
6.873356e+002, 4.323033e+005
6.878177e+002, 4.325569e+005
6.882998e+002, 4.328393e+005
6.887819e+002, 4.330223e+005
6.892640e+002, 4.331286e+005
6.897462e+002, 4.332599e+005
6.902283e+002, 4.334588e+005
6.907104e+002, 4.336476e+005
6.911925e+002, 4.337025e+005
6.916746e+002, 4.336001e+005
6.921567e+002, 4.335907e+005
6.926389e+002, 4.337753e+005
6.931210e+002, 4.339204e+005
6.936031e+002, 4.339124e+005
6.940852e+002, 4.338743e+005
6.945673e+002, 4.339411e+005
6.950494e+002, 4.341256e+005
6.955316e+002, 4.343218e+005
6.960137e+002, 4.344416e+005
6.964958e+002, 4.345546e+005
6.969779e+002, 4.347763e+005
6.974600e+002, 4.350808e+005
6.979421e+002, 4.353418e+005
6.984243e+002, 4.355123e+005
6.989064e+002, 4.356454e+005
6.993885e+002, 4.357934e+005
6.998706e+002, 4.359487e+005
7.003527e+002, 4.362280e+005
7.008348e+002, 4.367821e+005
7.013170e+002, 4.372802e+005
7.017991e+002, 4.375537e+005
7.022812e+002, 4.378197e+005
7.027633e+002, 4.383051e+005
7.032454e+002, 4.390105e+005
7.037275e+002, 4.397336e+005
7.042097e+002, 4.403091e+005
7.046918e+002, 4.408652e+005
7.051739e+002, 4.416848e+005
7.056560e+002, 4.427082e+005
7.061381e+002, 4.434621e+005
7.066202e+002, 4.437723e+005
7.071024e+002, 4.440263e+005
7.075845e+002, 4.446244e+005
7.080666e+002, 4.455625e+005
7.085487e+002, 4.464511e+005
7.090308e+002, 4.472391e+005
7.095129e+002, 4.480431e+005
7.099951e+002, 4.488282e+005
7.104772e+002, 4.496752e+005
7.109593e+002, 4.506906e+005
7.114414e+002, 4.518381e+005
7.119235e+002, 4.529631e+005
7.124056e+002, 4.540127e+005
7.128878e+002, 4.549473e+005
7.133699e+002, 4.555953e+005
7.138520e+002, 4.560246e+005
7.143341e+002, 4.567438e+005
7.148162e+002, 4.578992e+005
7.152983e+002, 4.591144e+005
7.157805e+002, 4.601107e+005
7.162626e+002, 4.609112e+005
7.167447e+002, 4.616471e+005
7.172268e+002, 4.622723e+005
7.177089e+002, 4.629093e+005
7.181910e+002, 4.636657e+005
7.186732e+002, 4.643578e+005
7.191553e+002, 4.648181e+005
7.196374e+002, 4.651068e+005
7.201195e+002, 4.654250e+005
7.206016e+002, 4.658882e+005
7.210837e+002, 4.662792e+005
7.215659e+002, 4.662495e+005
7.220480e+002, 4.658714e+005
7.225301e+002, 4.655800e+005
7.230122e+002, 4.654501e+005
7.234943e+002, 4.651809e+005
7.239764e+002, 4.645721e+005
7.244586e+002, 4.637150e+005
7.249407e+002, 4.628328e+005
7.254228e+002, 4.619443e+005
7.259049e+002, 4.609743e+005
7.263870e+002, 4.598676e+005
7.268691e+002, 4.587311e+005
7.273513e+002, 4.576677e+005
7.278334e+002, 4.566052e+005
7.283155e+002, 4.554143e+005
7.287976e+002, 4.540583e+005
7.292797e+002, 4.526413e+005
7.297618e+002, 4.512517e+005
7.302440e+002, 4.499007e+005
7.307261e+002, 4.486393e+005
7.312082e+002, 4.474812e+005
7.316903e+002, 4.462558e+005
7.321724e+002, 4.448409e+005
7.326545e+002, 4.434363e+005
7.331367e+002, 4.423843e+005
7.336188e+002, 4.418033e+005
7.341009e+002, 4.408959e+005
7.345830e+002, 4.392575e+005
7.350651e+002, 4.377765e+005
7.355472e+002, 4.368844e+005
7.360294e+002, 4.362354e+005
7.365115e+002, 4.354138e+005
7.369936e+002, 4.343743e+005
7.374757e+002, 4.333684e+005
7.379578e+002, 4.326023e+005
7.384399e+002, 4.319750e+005
7.389221e+002, 4.312529e+005
7.394042e+002, 4.304493e+005
7.398863e+002, 4.297645e+005
7.403684e+002, 4.292703e+005
7.408505e+002, 4.288241e+005
7.413326e+002, 4.283162e+005
7.418148e+002, 4.277439e+005
7.422969e+002, 4.270766e+005
7.427790e+002, 4.261962e+005
7.432611e+002, 4.253926e+005
7.437432e+002, 4.246313e+005
7.442253e+002, 4.240186e+005
7.447075e+002, 4.237351e+005
7.451896e+002, 4.236634e+005
7.456717e+002, 4.234953e+005
7.461538e+002, 4.230814e+005
7.466359e+002, 4.225377e+005
7.471180e+002, 4.219468e+005
7.476002e+002, 4.213397e+005
7.480823e+002, 4.208249e+005
7.485644e+002, 4.204162e+005
7.490465e+002, 4.200586e+005
7.495286e+002, 4.197291e+005
7.500107e+002, 4.194118e+005
7.504929e+002, 4.190682e+005
7.509750e+002, 4.186818e+005
7.514571e+002, 4.183055e+005
7.519392e+002, 4.179012e+005
7.524213e+002, 4.175492e+005
7.529034e+002, 4.173386e+005
7.533856e+002, 4.171711e+005
7.538677e+002, 4.168846e+005
7.543498e+002, 4.164503e+005
7.548319e+002, 4.160583e+005
7.553140e+002, 4.159053e+005
7.557961e+002, 4.158548e+005
7.562783e+002, 4.156494e+005
7.567604e+002, 4.153225e+005
7.572425e+002, 4.150992e+005
7.577246e+002, 4.150628e+005
7.582067e+002, 4.150701e+005
7.586888e+002, 4.149524e+005
7.591710e+002, 4.147095e+005
7.596531e+002, 4.144970e+005
7.601352e+002, 4.143138e+005
7.606173e+002, 4.141614e+005
7.610994e+002, 4.141163e+005
7.615815e+002, 4.140336e+005
7.620637e+002, 4.137537e+005
7.625458e+002, 4.133338e+005
7.630279e+002, 4.129992e+005
7.635100e+002, 4.128942e+005
7.639921e+002, 4.127961e+005
7.644742e+002, 4.124849e+005
7.649564e+002, 4.120665e+005
7.654385e+002, 4.117486e+005
7.659206e+002, 4.115448e+005
7.664027e+002, 4.113245e+005
7.668848e+002, 4.109983e+005
7.673669e+002, 4.106415e+005
7.678491e+002, 4.104466e+005
7.683312e+002, 4.104729e+005
7.688133e+002, 4.104477e+005
7.692954e+002, 4.103696e+005
7.697775e+002, 4.102352e+005
7.702596e+002, 4.100225e+005
7.707418e+002, 4.097626e+005
7.712239e+002, 4.094751e+005
7.717060e+002, 4.091520e+005
7.721881e+002, 4.088966e+005
7.726702e+002, 4.087920e+005
7.731523e+002, 4.087289e+005
7.736345e+002, 4.086454e+005
7.741166e+002, 4.085293e+005
7.745987e+002, 4.083507e+005
7.750808e+002, 4.081088e+005
7.755629e+002, 4.078713e+005
7.760450e+002, 4.077128e+005
7.765272e+002, 4.076129e+005
7.770093e+002, 4.074574e+005
7.774914e+002, 4.072257e+005
7.779735e+002, 4.070727e+005
7.784556e+002, 4.071094e+005
7.789377e+002, 4.071184e+005
7.794199e+002, 4.068386e+005
7.799020e+002, 4.063492e+005
7.803841e+002, 4.060380e+005
7.808662e+002, 4.060197e+005
7.813483e+002, 4.060288e+005
7.818304e+002, 4.060279e+005
7.823126e+002, 4.060057e+005
7.827947e+002, 4.059505e+005
7.832768e+002, 4.058633e+005
7.837589e+002, 4.057401e+005
7.842410e+002, 4.055761e+005
7.847231e+002, 4.054183e+005
7.852053e+002, 4.053573e+005
7.856874e+002, 4.053533e+005
7.861695e+002, 4.052119e+005
7.866516e+002, 4.049154e+005
7.871337e+002, 4.047027e+005
7.876158e+002, 4.046996e+005
7.880980e+002, 4.047919e+005
7.885801e+002, 4.048217e+005
7.890622e+002, 4.047969e+005
7.895443e+002, 4.046648e+005
7.900264e+002, 4.042281e+005
7.905085e+002, 4.039455e+005
7.909907e+002, 4.040539e+005
7.914728e+002, 4.042622e+005
7.919549e+002, 4.042956e+005
7.924370e+002, 4.041588e+005
7.929191e+002, 4.040403e+005
7.934012e+002, 4.040893e+005
7.938834e+002, 4.040999e+005
7.943655e+002, 4.037461e+005
7.948476e+002, 4.032318e+005
7.953297e+002, 4.030548e+005
7.958118e+002, 4.032468e+005
7.962939e+002, 4.033976e+005
7.967761e+002, 4.032282e+005
7.972582e+002, 4.028920e+005
7.977403e+002, 4.027921e+005
7.982224e+002, 4.030304e+005
7.987045e+002, 4.030537e+005
7.991866e+002, 4.027117e+005
7.996688e+002, 4.023756e+005
8.001509e+002, 4.022121e+005
8.006330e+002, 4.021537e+005
8.011151e+002, 4.021017e+005
8.015972e+002, 4.020429e+005
8.020793e+002, 4.021518e+005
8.025615e+002, 4.026939e+005
8.030436e+002, 4.031974e+005
8.035257e+002, 4.033266e+005
8.040078e+002, 4.032504e+005
8.044899e+002, 4.032189e+005
8.049720e+002, 4.032804e+005
8.054542e+002, 4.033463e+005
8.059363e+002, 4.033514e+005
8.064184e+002, 4.033045e+005
8.069005e+002, 4.032053e+005
8.073826e+002, 4.030556e+005
8.078647e+002, 4.029472e+005
8.083469e+002, 4.028932e+005
8.088290e+002, 4.028789e+005
8.093111e+002, 4.029081e+005
8.097932e+002, 4.029572e+005
8.102753e+002, 4.029531e+005
8.107574e+002, 4.028283e+005
8.112396e+002, 4.027878e+005
8.117217e+002, 4.028484e+005
8.122038e+002, 4.029743e+005
8.126859e+002, 4.032725e+005
8.131680e+002, 4.035717e+005
8.136501e+002, 4.035920e+005
8.141323e+002, 4.032999e+005
8.146144e+002, 4.030552e+005
8.150965e+002, 4.031440e+005
8.155786e+002, 4.033466e+005
8.160607e+002, 4.033963e+005
8.165428e+002, 4.033524e+005
8.170250e+002, 4.033875e+005
8.175071e+002, 4.035354e+005
8.179892e+002, 4.036859e+005
8.184713e+002, 4.037355e+005
8.189534e+002, 4.037324e+005
8.194355e+002, 4.038610e+005
8.199177e+002, 4.041436e+005
8.203998e+002, 4.044467e+005
8.208819e+002, 4.047667e+005
8.213640e+002, 4.050874e+005
8.218461e+002, 4.054541e+005
8.223282e+002, 4.057957e+005
8.228104e+002, 4.059338e+005
8.232925e+002, 4.057600e+005
8.237746e+002, 4.058002e+005
8.242567e+002, 4.063431e+005
8.247388e+002, 4.069378e+005
8.252209e+002, 4.073790e+005
8.257031e+002, 4.076880e+005
8.261852e+002, 4.078475e+005
8.266673e+002, 4.078972e+005
8.271494e+002, 4.080553e+005
8.276315e+002, 4.085377e+005
8.281136e+002, 4.091706e+005
8.285958e+002, 4.096639e+005
8.290779e+002, 4.100442e+005
8.295600e+002, 4.104486e+005
8.300421e+002, 4.109026e+005
8.305242e+002, 4.113545e+005
8.310063e+002, 4.117536e+005
8.314885e+002, 4.121401e+005
8.319706e+002, 4.126627e+005
8.324527e+002, 4.134493e+005
8.329348e+002, 4.140225e+005
8.334169e+002, 4.142152e+005
8.338990e+002, 4.143954e+005
8.343812e+002, 4.148259e+005
8.348633e+002, 4.152629e+005
8.353454e+002, 4.154046e+005
8.358275e+002, 4.152188e+005
8.363096e+002, 4.148832e+005
8.367917e+002, 4.144701e+005
8.372739e+002, 4.139121e+005
8.377560e+002, 4.131129e+005
8.382381e+002, 4.121679e+005
8.387202e+002, 4.112077e+005
8.392023e+002, 4.102470e+005
8.396844e+002, 4.092064e+005
8.401666e+002, 4.080211e+005
8.406487e+002, 4.067922e+005
8.411308e+002, 4.057086e+005
8.416129e+002, 4.047539e+005
8.420950e+002, 4.038320e+005
8.425771e+002, 4.029302e+005
8.430593e+002, 4.020709e+005
8.435414e+002, 4.012681e+005
8.440235e+002, 4.005118e+005
8.445056e+002, 3.997787e+005
8.449877e+002, 3.990779e+005
8.454698e+002, 3.983743e+005
8.459520e+002, 3.976070e+005
8.464341e+002, 3.969222e+005
8.469162e+002, 3.963511e+005
8.473983e+002, 3.958790e+005
8.478804e+002, 3.955151e+005
8.483625e+002, 3.952439e+005
8.488447e+002, 3.949933e+005
8.493268e+002, 3.947818e+005
8.498089e+002, 3.945207e+005
8.502910e+002, 3.941252e+005
8.507731e+002, 3.936735e+005
8.512552e+002, 3.932101e+005
8.517374e+002, 3.927756e+005
8.522195e+002, 3.924677e+005
8.527016e+002, 3.923310e+005
8.531837e+002, 3.922379e+005
8.536658e+002, 3.920105e+005
8.541479e+002, 3.916809e+005
8.546301e+002, 3.913981e+005
8.551122e+002, 3.911647e+005
8.555943e+002, 3.909828e+005
8.560764e+002, 3.908758e+005
8.565585e+002, 3.907378e+005
8.570406e+002, 3.904295e+005
8.575228e+002, 3.899780e+005
8.580049e+002, 3.896900e+005
8.584870e+002, 3.896925e+005
8.589691e+002, 3.896519e+005
8.594512e+002, 3.895021e+005
8.599333e+002, 3.893492e+005
8.604155e+002, 3.893032e+005
8.608976e+002, 3.892807e+005
8.613797e+002, 3.890963e+005
8.618618e+002, 3.886841e+005
8.623439e+002, 3.883230e+005
8.628260e+002, 3.881378e+005
8.633082e+002, 3.880402e+005
8.637903e+002, 3.880043e+005
8.642724e+002, 3.879885e+005
8.647545e+002, 3.878972e+005
8.652366e+002, 3.877326e+005
8.657188e+002, 3.876462e+005
8.662009e+002, 3.877797e+005
8.666830e+002, 3.880156e+005
8.671651e+002, 3.881196e+005
8.676472e+002, 3.881121e+005
8.681293e+002, 3.881459e+005
8.686115e+002, 3.882444e+005
8.690936e+002, 3.882903e+005
8.695757e+002, 3.881977e+005
8.700578e+002, 3.880481e+005
8.705399e+002, 3.880277e+005
8.710220e+002, 3.881945e+005
8.715042e+002, 3.881885e+005
8.719863e+002, 3.878925e+005
8.724684e+002, 3.876156e+005
8.729505e+002, 3.875158e+005
8.734326e+002, 3.874309e+005
8.739147e+002, 3.872161e+005
8.743969e+002, 3.868861e+005
8.748790e+002, 3.865493e+005
8.753611e+002, 3.862263e+005
8.758432e+002, 3.859076e+005
8.763253e+002, 3.855703e+005
8.768074e+002, 3.852555e+005
8.772896e+002, 3.850063e+005
8.777717e+002, 3.848068e+005
8.782538e+002, 3.845903e+005
8.787359e+002, 3.843334e+005
8.792180e+002, 3.841675e+005
8.797001e+002, 3.843377e+005
8.801823e+002, 3.846155e+005
8.806644e+002, 3.845150e+005
8.811465e+002, 3.841217e+005
8.816286e+002, 3.838445e+005
8.821107e+002, 3.837880e+005
8.825928e+002, 3.837941e+005
8.830750e+002, 3.837384e+005
8.835571e+002, 3.836118e+005
8.840392e+002, 3.833712e+005
8.845213e+002, 3.829921e+005
8.850034e+002, 3.826314e+005
8.854855e+002, 3.822756e+005
8.859677e+002, 3.820092e+005
8.864498e+002, 3.819146e+005
8.869319e+002, 3.819109e+005
8.874140e+002, 3.818711e+005
8.878961e+002, 3.817985e+005
8.883782e+002, 3.816867e+005
8.888604e+002, 3.815068e+005
8.893425e+002, 3.813327e+005
8.898246e+002, 3.811880e+005
8.903067e+002, 3.810596e+005
8.907888e+002, 3.809803e+005
8.912709e+002, 3.809091e+005
8.917531e+002, 3.807199e+005
8.922352e+002, 3.803427e+005
8.927173e+002, 3.799247e+005
8.931994e+002, 3.794701e+005
8.936815e+002, 3.791007e+005
8.941636e+002, 3.790355e+005
8.946458e+002, 3.791710e+005
8.951279e+002, 3.792177e+005
8.956100e+002, 3.790870e+005
8.960921e+002, 3.789250e+005
8.965742e+002, 3.788788e+005
8.970563e+002, 3.788958e+005
8.975385e+002, 3.788048e+005
8.980206e+002, 3.786202e+005
8.985027e+002, 3.785887e+005
8.989848e+002, 3.787700e+005
8.994669e+002, 3.788973e+005
8.999490e+002, 3.787832e+005
9.004312e+002, 3.785271e+005
9.009133e+002, 3.783548e+005
9.013954e+002, 3.782756e+005
9.018775e+002, 3.782428e+005
9.023596e+002, 3.783137e+005
9.028417e+002, 3.783343e+005
9.033239e+002, 3.782363e+005
9.038060e+002, 3.780857e+005
9.042881e+002, 3.779303e+005
9.047702e+002, 3.777751e+005
9.052523e+002, 3.776418e+005
9.057344e+002, 3.775393e+005
9.062166e+002, 3.774527e+005
9.066987e+002, 3.774020e+005
9.071808e+002, 3.773454e+005
9.076629e+002, 3.772491e+005
9.081450e+002, 3.771266e+005
9.086271e+002, 3.770101e+005
9.091093e+002, 3.769071e+005
9.095914e+002, 3.767831e+005
9.100735e+002, 3.765874e+005
9.105556e+002, 3.763815e+005
9.110377e+002, 3.762592e+005
9.115198e+002, 3.761691e+005
9.120020e+002, 3.759756e+005
9.124841e+002, 3.756816e+005
9.129662e+002, 3.754477e+005
9.134483e+002, 3.753801e+005
9.139304e+002, 3.753909e+005
9.144125e+002, 3.753279e+005
9.148947e+002, 3.752031e+005
9.153768e+002, 3.751254e+005
9.158589e+002, 3.751052e+005
9.163410e+002, 3.750117e+005
9.168231e+002, 3.747751e+005
9.173052e+002, 3.745536e+005
9.177874e+002, 3.745663e+005
9.182695e+002, 3.747628e+005
9.187516e+002, 3.746079e+005
9.192337e+002, 3.738176e+005
9.197158e+002, 3.733733e+005
9.201979e+002, 3.736425e+005
9.206801e+002, 3.739171e+005
9.211622e+002, 3.737223e+005
9.216443e+002, 3.733193e+005
9.221264e+002, 3.731375e+005
9.226085e+002, 3.732257e+005
9.230906e+002, 3.732553e+005
9.235728e+002, 3.730413e+005
9.240549e+002, 3.729315e+005
9.245370e+002, 3.731998e+005
9.250191e+002, 3.735160e+005
9.255012e+002, 3.735167e+005
9.259833e+002, 3.732744e+005
9.264655e+002, 3.731258e+005
9.269476e+002, 3.732155e+005
9.274297e+002, 3.733279e+005
9.279118e+002, 3.733273e+005
9.283939e+002, 3.732590e+005
9.288760e+002, 3.731524e+005
9.293582e+002, 3.730246e+005
9.298403e+002, 3.729187e+005
9.303224e+002, 3.728382e+005
9.308045e+002, 3.727219e+005
9.312866e+002, 3.725215e+005
9.317687e+002, 3.722607e+005
9.322509e+002, 3.719416e+005
9.327330e+002, 3.715992e+005
9.332151e+002, 3.714115e+005
9.336972e+002, 3.713933e+005
9.341793e+002, 3.713725e+005
9.346614e+002, 3.712686e+005
9.351436e+002, 3.711070e+005
9.356257e+002, 3.709107e+005
9.361078e+002, 3.706858e+005
9.365899e+002, 3.705482e+005
9.370720e+002, 3.705216e+005
9.375541e+002, 3.704831e+005
9.380363e+002, 3.703991e+005
9.385184e+002, 3.703084e+005
9.390005e+002, 3.702390e+005
9.394826e+002, 3.701793e+005
9.399647e+002, 3.700949e+005
9.404468e+002, 3.699494e+005
9.409290e+002, 3.698707e+005
9.414111e+002, 3.699823e+005
9.418932e+002, 3.699971e+005
9.423753e+002, 3.696981e+005
9.428574e+002, 3.693695e+005
9.433395e+002, 3.693312e+005
9.438217e+002, 3.695231e+005
9.443038e+002, 3.695863e+005
9.447859e+002, 3.693776e+005
9.452680e+002, 3.691588e+005
9.457501e+002, 3.690543e+005
9.462322e+002, 3.689483e+005
9.467144e+002, 3.686894e+005
9.471965e+002, 3.683957e+005
9.476786e+002, 3.683039e+005
9.481607e+002, 3.684390e+005
9.486428e+002, 3.685369e+005
9.491249e+002, 3.684070e+005
9.496071e+002, 3.681952e+005
9.500892e+002, 3.680202e+005
9.505713e+002, 3.678803e+005
9.510534e+002, 3.677628e+005
9.515355e+002, 3.676773e+005
9.520176e+002, 3.676899e+005
9.524998e+002, 3.678274e+005
9.529819e+002, 3.679365e+005
9.534640e+002, 3.678130e+005
9.539461e+002, 3.675264e+005
9.544282e+002, 3.672631e+005
9.549103e+002, 3.670273e+005
9.553925e+002, 3.668482e+005
9.558746e+002, 3.667296e+005
9.563567e+002, 3.667404e+005
9.568388e+002, 3.669611e+005
9.573209e+002, 3.672238e+005
9.578030e+002, 3.671181e+005
9.582852e+002, 3.665951e+005
9.587673e+002, 3.662791e+005
9.592494e+002, 3.662267e+005
9.597315e+002, 3.661610e+005
9.602136e+002, 3.659978e+005
9.606957e+002, 3.657870e+005
9.611779e+002, 3.655384e+005
9.616600e+002, 3.652881e+005
9.621421e+002, 3.652383e+005
9.626242e+002, 3.655956e+005
9.631063e+002, 3.657478e+005
9.635884e+002, 3.655639e+005
9.640706e+002, 3.653343e+005
9.645527e+002, 3.651371e+005
9.650348e+002, 3.649684e+005
9.655169e+002, 3.647927e+005
9.659990e+002, 3.646197e+005
9.664811e+002, 3.645934e+005
9.669633e+002, 3.648913e+005
9.674454e+002, 3.651110e+005
9.679275e+002, 3.651377e+005
9.684096e+002, 3.650803e+005
9.688917e+002, 3.649873e+005
9.693738e+002, 3.648718e+005
9.698560e+002, 3.647320e+005
9.703381e+002, 3.645697e+005
9.708202e+002, 3.644379e+005
9.713023e+002, 3.644109e+005
9.717844e+002, 3.643672e+005
9.722665e+002, 3.641914e+005
9.727487e+002, 3.639797e+005
9.732308e+002, 3.638677e+005
9.737129e+002, 3.638266e+005
9.741950e+002, 3.637226e+005
9.746771e+002, 3.635052e+005
9.751592e+002, 3.633046e+005
9.756414e+002, 3.632587e+005
9.761235e+002, 3.632839e+005
9.766056e+002, 3.632662e+005
9.770877e+002, 3.632215e+005
9.775698e+002, 3.631991e+005
9.780519e+002, 3.632002e+005
9.785341e+002, 3.631743e+005
9.790162e+002, 3.630889e+005
9.794983e+002, 3.629925e+005
9.799804e+002, 3.629826e+005
9.804625e+002, 3.630207e+005
9.809446e+002, 3.629339e+005
9.814268e+002, 3.627357e+005
9.819089e+002, 3.626018e+005
9.823910e+002, 3.625801e+005
9.828731e+002, 3.625200e+005
9.833552e+002, 3.622843e+005
9.838373e+002, 3.619793e+005
9.843195e+002, 3.618899e+005
9.848016e+002, 3.620278e+005
9.852837e+002, 3.621260e+005
9.857658e+002, 3.621694e+005
9.862479e+002, 3.622277e+005
9.867300e+002, 3.623598e+005
9.872122e+002, 3.624022e+005
9.876943e+002, 3.621495e+005
9.881764e+002, 3.616772e+005
9.886585e+002, 3.614037e+005
9.891406e+002, 3.613912e+005
9.896227e+002, 3.613964e+005
9.901049e+002, 3.614201e+005
9.905870e+002, 3.614422e+005
9.910691e+002, 3.614635e+005
9.915512e+002, 3.614706e+005
9.920333e+002, 3.614401e+005
9.925154e+002, 3.613745e+005
9.929976e+002, 3.613265e+005
9.934797e+002, 3.613637e+005
9.939618e+002, 3.613185e+005
9.944439e+002, 3.610692e+005
9.949260e+002, 3.608623e+005
9.954081e+002, 3.608891e+005
9.958903e+002, 3.609873e+005
9.963724e+002, 3.609101e+005
9.968545e+002, 3.606457e+005
9.973366e+002, 3.604521e+005
9.978187e+002, 3.604778e+005
9.983008e+002, 3.604398e+005
9.987830e+002, 3.601486e+005
9.992651e+002, 3.598698e+005
9.997472e+002, 3.598677e+005
1.000229e+003, 3.599862e+005
1.000711e+003, 3.599055e+005
1.001194e+003, 3.595701e+005
1.001676e+003, 3.593056e+005
1.002158e+003, 3.593102e+005
1.002640e+003, 3.593578e+005
1.003122e+003, 3.593557e+005
1.003604e+003, 3.593037e+005
1.004086e+003, 3.591704e+005
1.004568e+003, 3.589965e+005
1.005050e+003, 3.588735e+005
1.005533e+003, 3.588302e+005
1.006015e+003, 3.588004e+005
1.006497e+003, 3.587677e+005
1.006979e+003, 3.587007e+005
1.007461e+003, 3.585251e+005
1.007943e+003, 3.583176e+005
1.008425e+003, 3.582055e+005
1.008907e+003, 3.581805e+005
1.009390e+003, 3.581590e+005
1.009872e+003, 3.581047e+005
1.010354e+003, 3.580553e+005
1.010836e+003, 3.580594e+005
1.011318e+003, 3.580818e+005
1.011800e+003, 3.580621e+005
1.012282e+003, 3.580142e+005
1.012764e+003, 3.579686e+005
1.013246e+003, 3.579326e+005
1.013729e+003, 3.579261e+005
1.014211e+003, 3.579617e+005
1.014693e+003, 3.579637e+005
1.015175e+003, 3.577823e+005
1.015657e+003, 3.575032e+005
1.016139e+003, 3.574098e+005
1.016621e+003, 3.574607e+005
1.017103e+003, 3.574306e+005
1.017586e+003, 3.572820e+005
1.018068e+003, 3.571410e+005
1.018550e+003, 3.570914e+005
1.019032e+003, 3.570498e+005
1.019514e+003, 3.568507e+005
1.019996e+003, 3.565273e+005
1.020478e+003, 3.562990e+005
1.020960e+003, 3.561667e+005
1.021442e+003, 3.561877e+005
1.021925e+003, 3.563861e+005
1.022407e+003, 3.565588e+005
1.022889e+003, 3.565655e+005
1.023371e+003, 3.564549e+005
1.023853e+003, 3.563060e+005
1.024335e+003, 3.561167e+005
1.024817e+003, 3.559843e+005
1.025299e+003, 3.559082e+005
1.025781e+003, 3.558810e+005
1.026264e+003, 3.559074e+005
1.026746e+003, 3.559486e+005
1.027228e+003, 3.559853e+005
1.027710e+003, 3.559967e+005
1.028192e+003, 3.559203e+005
1.028674e+003, 3.557348e+005
1.029156e+003, 3.556357e+005
1.029638e+003, 3.556643e+005
1.030120e+003, 3.556338e+005
1.030603e+003, 3.554702e+005
1.031085e+003, 3.552938e+005
1.031567e+003, 3.551944e+005
1.032049e+003, 3.551576e+005
1.032531e+003, 3.551516e+005
1.033013e+003, 3.551974e+005
1.033495e+003, 3.551904e+005
1.033977e+003, 3.551398e+005
1.034460e+003, 3.550201e+005
1.034942e+003, 3.548038e+005
1.035424e+003, 3.545487e+005
1.035906e+003, 3.542824e+005
1.036388e+003, 3.540201e+005
1.036870e+003, 3.537956e+005
1.037352e+003, 3.535873e+005
1.037834e+003, 3.535016e+005
1.038317e+003, 3.536999e+005
1.038799e+003, 3.537713e+005
1.039281e+003, 3.534944e+005
1.039763e+003, 3.531875e+005
1.040245e+003, 3.531107e+005
1.040727e+003, 3.531890e+005
1.041209e+003, 3.532053e+005
1.041691e+003, 3.531293e+005
1.042173e+003, 3.530873e+005
1.042656e+003, 3.531818e+005
1.043138e+003, 3.531727e+005
1.043620e+003, 3.528661e+005
1.044102e+003, 3.525573e+005
1.044584e+003, 3.525069e+005
1.045066e+003, 3.526195e+005
1.045548e+003, 3.526309e+005
1.046030e+003, 3.524761e+005
1.046512e+003, 3.524096e+005
1.046995e+003, 3.525943e+005
1.047477e+003, 3.526904e+005
1.047959e+003, 3.525163e+005
1.048441e+003, 3.522903e+005
1.048923e+003, 3.521937e+005
1.049405e+003, 3.521806e+005
1.049887e+003, 3.521078e+005
1.050369e+003, 3.519297e+005
1.050852e+003, 3.518495e+005
1.051334e+003, 3.520603e+005
1.051816e+003, 3.521741e+005
1.052298e+003, 3.519443e+005
1.052780e+003, 3.516689e+005
1.053262e+003, 3.516372e+005
1.053744e+003, 3.517402e+005
1.054226e+003, 3.516803e+005
1.054708e+003, 3.513810e+005
1.055191e+003, 3.511566e+005
1.055673e+003, 3.511125e+005
1.056155e+003, 3.511272e+005
1.056637e+003, 3.511766e+005
1.057119e+003, 3.512431e+005
1.057601e+003, 3.513793e+005
1.058083e+003, 3.515008e+005
1.058565e+003, 3.514008e+005
1.059047e+003, 3.510248e+005
1.059530e+003, 3.507487e+005
1.060012e+003, 3.508124e+005
1.060494e+003, 3.508516e+005
1.060976e+003, 3.506503e+005
1.061458e+003, 3.504195e+005
1.061940e+003, 3.503648e+005
1.062422e+003, 3.504047e+005
1.062904e+003, 3.503503e+005
1.063387e+003, 3.501668e+005
1.063869e+003, 3.499908e+005
1.064351e+003, 3.499036e+005
1.064833e+003, 3.497967e+005
1.065315e+003, 3.495838e+005
1.065797e+003, 3.493689e+005
1.066279e+003, 3.492826e+005
1.066761e+003, 3.492425e+005
1.067244e+003, 3.490445e+005
1.067726e+003, 3.486735e+005
1.068208e+003, 3.484586e+005
1.068690e+003, 3.487344e+005
1.069172e+003, 3.489227e+005
1.069654e+003, 3.485954e+005
1.070136e+003, 3.482344e+005
1.070618e+003, 3.482979e+005
1.071100e+003, 3.485688e+005
1.071583e+003, 3.486262e+005
1.072065e+003, 3.484318e+005
1.072547e+003, 3.483371e+005
1.073029e+003, 3.486247e+005
1.073511e+003, 3.487902e+005
1.073993e+003, 3.484301e+005
1.074475e+003, 3.480189e+005
1.074957e+003, 3.479671e+005
1.075439e+003, 3.480820e+005
1.075922e+003, 3.480096e+005
1.076404e+003, 3.477514e+005
1.076886e+003, 3.476584e+005
1.077368e+003, 3.479821e+005
1.077850e+003, 3.482143e+005
1.078332e+003, 3.480437e+005
1.078814e+003, 3.477742e+005
1.079297e+003, 3.475942e+005
1.079779e+003, 3.474708e+005
1.080261e+003, 3.473342e+005
1.080743e+003, 3.471903e+005
1.081225e+003, 3.471253e+005
1.081707e+003, 3.472189e+005
1.082189e+003, 3.472177e+005
1.082671e+003, 3.468705e+005
1.083153e+003, 3.465431e+005
1.083635e+003, 3.465082e+005
1.084118e+003, 3.466003e+005
1.084600e+003, 3.466565e+005
1.085082e+003, 3.466498e+005
1.085564e+003, 3.465779e+005
1.086046e+003, 3.464340e+005
1.086528e+003, 3.462671e+005
1.087010e+003, 3.460762e+005
1.087492e+003, 3.458967e+005
1.087975e+003, 3.457624e+005
1.088457e+003, 3.456391e+005
1.088939e+003, 3.454651e+005
1.089421e+003, 3.452779e+005
1.089903e+003, 3.451904e+005
1.090385e+003, 3.452396e+005
1.090867e+003, 3.452313e+005
1.091349e+003, 3.450096e+005
1.091832e+003, 3.448198e+005
1.092314e+003, 3.448489e+005
1.092796e+003, 3.448889e+005
1.093278e+003, 3.446892e+005
1.093760e+003, 3.443933e+005
1.094242e+003, 3.443301e+005
1.094724e+003, 3.445491e+005
1.095206e+003, 3.446626e+005
1.095688e+003, 3.444022e+005
1.096171e+003, 3.442150e+005
1.096653e+003, 3.444079e+005
1.097135e+003, 3.445684e+005
1.097617e+003, 3.442988e+005
1.098099e+003, 3.438706e+005
1.098581e+003, 3.437386e+005
1.099063e+003, 3.439165e+005
1.099545e+003, 3.439854e+005
1.100027e+003, 3.437446e+005
1.100510e+003, 3.435538e+005
1.100992e+003, 3.436050e+005
1.101474e+003, 3.436129e+005
1.101956e+003, 3.433191e+005
1.102438e+003, 3.429711e+005
1.102920e+003, 3.428792e+005
1.103402e+003, 3.430134e+005
1.103884e+003, 3.431166e+005
1.104367e+003, 3.431388e+005
1.104849e+003, 3.431515e+005
1.105331e+003, 3.432338e+005
1.105813e+003, 3.432229e+005
1.106295e+003, 3.429077e+005
1.106777e+003, 3.425993e+005
1.107259e+003, 3.426730e+005
1.107741e+003, 3.429736e+005
1.108224e+003, 3.430192e+005
1.108706e+003, 3.427061e+005
1.109188e+003, 3.424069e+005
1.109670e+003, 3.421347e+005
1.110152e+003, 3.419071e+005
1.110634e+003, 3.417126e+005
1.111116e+003, 3.415797e+005
1.111598e+003, 3.416092e+005
1.112080e+003, 3.416824e+005
1.112563e+003, 3.415363e+005
1.113045e+003, 3.411274e+005
1.113527e+003, 3.408852e+005
1.114009e+003, 3.409582e+005
1.114491e+003, 3.409560e+005
1.114973e+003, 3.407993e+005
1.115455e+003, 3.406206e+005
1.115937e+003, 3.404559e+005
1.116419e+003, 3.403299e+005
1.116902e+003, 3.402964e+005
1.117384e+003, 3.403443e+005
1.117866e+003, 3.403187e+005
1.118348e+003, 3.401506e+005
1.118830e+003, 3.400677e+005
1.119312e+003, 3.400753e+005
1.119794e+003, 3.401841e+005
1.120276e+003, 3.404819e+005
1.120759e+003, 3.407439e+005
1.121241e+003, 3.407417e+005
1.121723e+003, 3.405400e+005
1.122205e+003, 3.403644e+005
1.122687e+003, 3.402054e+005
1.123169e+003, 3.400978e+005
1.123651e+003, 3.400323e+005
1.124133e+003, 3.400535e+005
1.124615e+003, 3.402126e+005
1.125098e+003, 3.403360e+005
1.125580e+003, 3.402962e+005
1.126062e+003, 3.401617e+005
1.126544e+003, 3.400562e+005
1.127026e+003, 3.399815e+005
1.127508e+003, 3.399838e+005
1.127990e+003, 3.400771e+005
1.128472e+003, 3.401341e+005
1.128954e+003, 3.401307e+005
1.129437e+003, 3.401309e+005
1.129919e+003, 3.401668e+005
1.130401e+003, 3.402188e+005
1.130883e+003, 3.402677e+005
1.131365e+003, 3.403062e+005
1.131847e+003, 3.403164e+005
1.132329e+003, 3.402958e+005
1.132811e+003, 3.402104e+005
1.133294e+003, 3.400571e+005
1.133776e+003, 3.398196e+005
1.134258e+003, 3.394916e+005
1.134740e+003, 3.392806e+005
1.135222e+003, 3.393847e+005
1.135704e+003, 3.396122e+005
1.136186e+003, 3.395412e+005
1.136668e+003, 3.392746e+005
1.137151e+003, 3.392698e+005
1.137633e+003, 3.394681e+005
1.138115e+003, 3.395004e+005
1.138597e+003, 3.393115e+005
1.139079e+003, 3.391183e+005
1.139561e+003, 3.390424e+005
1.140043e+003, 3.389941e+005
1.140525e+003, 3.388163e+005
1.141007e+003, 3.386268e+005
1.141490e+003, 3.387333e+005
1.141972e+003, 3.389721e+005
1.142454e+003, 3.389013e+005
1.142936e+003, 3.385914e+005
1.143418e+003, 3.385108e+005
1.143900e+003, 3.387906e+005
1.144382e+003, 3.390366e+005
1.144864e+003, 3.389134e+005
1.145346e+003, 3.386966e+005
1.145829e+003, 3.387113e+005
1.146311e+003, 3.387820e+005
1.146793e+003, 3.386578e+005
1.147275e+003, 3.384244e+005
1.147757e+003, 3.382751e+005
1.148239e+003, 3.382328e+005
1.148721e+003, 3.382003e+005
1.149203e+003, 3.381312e+005
1.149686e+003, 3.380917e+005
1.150168e+003, 3.382062e+005
1.150650e+003, 3.382807e+005
1.151132e+003, 3.380993e+005
1.151614e+003, 3.378592e+005
1.152096e+003, 3.378059e+005
1.152578e+003, 3.378864e+005
1.153060e+003, 3.379045e+005
1.153542e+003, 3.378128e+005
1.154025e+003, 3.377634e+005
1.154507e+003, 3.378496e+005
1.154989e+003, 3.379253e+005
1.155471e+003, 3.378780e+005
1.155953e+003, 3.378640e+005
1.156435e+003, 3.380918e+005
1.156917e+003, 3.383458e+005
1.157399e+003, 3.382588e+005
1.157881e+003, 3.378622e+005
1.158364e+003, 3.376531e+005
1.158846e+003, 3.377933e+005
1.159328e+003, 3.379023e+005
1.159810e+003, 3.379579e+005
1.160292e+003, 3.379804e+005
1.160774e+003, 3.380157e+005
1.161256e+003, 3.379763e+005
1.161738e+003, 3.377144e+005
1.162221e+003, 3.373695e+005
1.162703e+003, 3.373064e+005
1.163185e+003, 3.375854e+005
1.163667e+003, 3.376473e+005
1.164149e+003, 3.373953e+005
1.164631e+003, 3.372120e+005
1.165113e+003, 3.371601e+005
1.165595e+003, 3.371693e+005
1.166078e+003, 3.372186e+005
1.166560e+003, 3.372804e+005
1.167042e+003, 3.373340e+005
1.167524e+003, 3.373586e+005
1.168006e+003, 3.372129e+005
1.168488e+003, 3.368823e+005
1.168970e+003, 3.367850e+005
1.169452e+003, 3.369488e+005
1.169934e+003, 3.370851e+005
1.170417e+003, 3.371107e+005
1.170899e+003, 3.370946e+005
1.171381e+003, 3.370886e+005
1.171863e+003, 3.370588e+005
1.172345e+003, 3.369271e+005
1.172827e+003, 3.367281e+005
1.173309e+003, 3.365905e+005
1.173791e+003, 3.364960e+005
1.174273e+003, 3.363354e+005
1.174756e+003, 3.361305e+005
1.175238e+003, 3.360901e+005
1.175720e+003, 3.362839e+005
1.176202e+003, 3.364796e+005
1.176684e+003, 3.364636e+005
1.177166e+003, 3.363744e+005
1.177648e+003, 3.364145e+005
1.178130e+003, 3.364719e+005
1.178613e+003, 3.363427e+005
1.179095e+003, 3.361147e+005
1.179577e+003, 3.359990e+005
1.180059e+003, 3.360018e+005
1.180541e+003, 3.359577e+005
1.181023e+003, 3.357882e+005
1.181505e+003, 3.356156e+005
1.181987e+003, 3.355392e+005
1.182469e+003, 3.354546e+005
1.182952e+003, 3.352304e+005
1.183434e+003, 3.350185e+005
1.183916e+003, 3.350298e+005
1.184398e+003, 3.351460e+005
1.184880e+003, 3.350748e+005
1.185362e+003, 3.347854e+005
1.185844e+003, 3.346578e+005
1.186326e+003, 3.349499e+005
1.186808e+003, 3.351448e+005
1.187291e+003, 3.351144e+005
1.187773e+003, 3.350177e+005
1.188255e+003, 3.349001e+005
1.188737e+003, 3.347668e+005
1.189219e+003, 3.345995e+005
1.189701e+003, 3.344229e+005
1.190183e+003, 3.343148e+005
1.190665e+003, 3.342947e+005
1.191148e+003, 3.342394e+005
1.191630e+003, 3.341128e+005
1.192112e+003, 3.340649e+005
1.192594e+003, 3.341600e+005
1.193076e+003, 3.342231e+005
1.193558e+003, 3.341635e+005
1.194040e+003, 3.340244e+005
1.194522e+003, 3.338435e+005
1.195005e+003, 3.336491e+005
1.195487e+003, 3.335771e+005
1.195969e+003, 3.336216e+005
1.196451e+003, 3.335932e+005
1.196933e+003, 3.334882e+005
1.197415e+003, 3.334695e+005
1.197897e+003, 3.335749e+005
1.198379e+003, 3.337102e+005
1.198861e+003, 3.338213e+005
1.199344e+003, 3.338605e+005
1.199826e+003, 3.337414e+005
1.200308e+003, 3.335195e+005
1.200790e+003, 3.332540e+005
1.201272e+003, 3.329984e+005
1.201754e+003, 3.328809e+005
1.202236e+003, 3.328861e+005
1.202718e+003, 3.329635e+005
1.203200e+003, 3.330751e+005
1.203683e+003, 3.330775e+005
1.204165e+003, 3.328360e+005
1.204647e+003, 3.326004e+005
1.205129e+003, 3.326000e+005
1.205611e+003, 3.326425e+005
1.206093e+003, 3.325781e+005
1.206575e+003, 3.324508e+005
1.207057e+003, 3.322814e+005
1.207540e+003, 3.321147e+005
1.208022e+003, 3.320489e+005
1.208504e+003, 3.321118e+005
1.208986e+003, 3.321710e+005
1.209468e+003, 3.322372e+005
1.209950e+003, 3.322306e+005
1.210432e+003, 3.321073e+005
1.210914e+003, 3.319363e+005
1.211396e+003, 3.316756e+005
1.211879e+003, 3.314496e+005
1.212361e+003, 3.314208e+005
1.212843e+003, 3.315291e+005
1.213325e+003, 3.315310e+005
1.213807e+003, 3.314027e+005
1.214289e+003, 3.312899e+005
1.214771e+003, 3.312081e+005
1.215253e+003, 3.310672e+005
1.215735e+003, 3.308276e+005
1.216218e+003, 3.306527e+005
1.216700e+003, 3.306434e+005
1.217182e+003, 3.306785e+005
1.217664e+003, 3.305985e+005
1.218146e+003, 3.304543e+005
1.218628e+003, 3.304215e+005
1.219110e+003, 3.304709e+005
1.219592e+003, 3.304461e+005
1.220075e+003, 3.303524e+005
1.220557e+003, 3.302680e+005
1.221039e+003, 3.302092e+005
1.221521e+003, 3.301340e+005
1.222003e+003, 3.300174e+005
1.222485e+003, 3.299274e+005
1.222967e+003, 3.299717e+005
1.223449e+003, 3.300398e+005
1.223932e+003, 3.300206e+005
1.224414e+003, 3.299364e+005
1.224896e+003, 3.297684e+005
1.225378e+003, 3.295803e+005
1.225860e+003, 3.295123e+005
1.226342e+003, 3.295608e+005
1.226824e+003, 3.295453e+005
1.227306e+003, 3.293747e+005
1.227788e+003, 3.292188e+005
1.228271e+003, 3.290892e+005
1.228753e+003, 3.290442e+005
1.229235e+003, 3.292082e+005
1.229717e+003, 3.293681e+005
1.230199e+003, 3.293128e+005
1.230681e+003, 3.291553e+005
1.231163e+003, 3.291034e+005
1.231645e+003, 3.291543e+005
1.232127e+003, 3.292367e+005
1.232610e+003, 3.294104e+005
1.233092e+003, 3.294170e+005
1.233574e+003, 3.292019e+005
1.234056e+003, 3.289594e+005
1.234538e+003, 3.287342e+005
1.235020e+003, 3.285703e+005
1.235502e+003, 3.285164e+005
1.235984e+003, 3.284802e+005
1.236467e+003, 3.282688e+005
1.236949e+003, 3.279557e+005
1.237431e+003, 3.278838e+005
1.237913e+003, 3.279956e+005
1.238395e+003, 3.280294e+005
1.238877e+003, 3.279780e+005
1.239359e+003, 3.279704e+005
1.239841e+003, 3.280324e+005
1.240323e+003, 3.280343e+005
1.240806e+003, 3.278728e+005
1.241288e+003, 3.277240e+005
1.241770e+003, 3.277735e+005
1.242252e+003, 3.278963e+005
1.242734e+003, 3.280161e+005
1.243216e+003, 3.280973e+005
1.243698e+003, 3.281141e+005
1.244180e+003, 3.280577e+005
1.244662e+003, 3.278916e+005
1.245145e+003, 3.276227e+005
1.245627e+003, 3.274033e+005
1.246109e+003, 3.273228e+005
1.246591e+003, 3.272078e+005
1.247073e+003, 3.269283e+005
1.247555e+003, 3.267566e+005
1.248037e+003, 3.269068e+005
1.248519e+003, 3.270496e+005
1.249002e+003, 3.269356e+005
1.249484e+003, 3.266826e+005
1.249966e+003, 3.264887e+005
1.250448e+003, 3.263560e+005
1.250930e+003, 3.263177e+005
1.251412e+003, 3.263826e+005
1.251894e+003, 3.264504e+005
1.252376e+003, 3.265143e+005
1.252859e+003, 3.265372e+005
1.253341e+003, 3.265074e+005
1.253823e+003, 3.264597e+005
1.254305e+003, 3.264163e+005
1.254787e+003, 3.263721e+005
1.255269e+003, 3.262755e+005
1.255751e+003, 3.262077e+005
1.256233e+003, 3.264074e+005
1.256715e+003, 3.266994e+005
1.257198e+003, 3.267304e+005
1.257680e+003, 3.265725e+005
1.258162e+003, 3.264914e+005
1.258644e+003, 3.265259e+005
1.259126e+003, 3.265024e+005
1.259608e+003, 3.263121e+005
1.260090e+003, 3.262027e+005
1.260572e+003, 3.263969e+005
1.261054e+003, 3.265605e+005
1.261537e+003, 3.265304e+005
1.262019e+003, 3.264155e+005
1.262501e+003, 3.262497e+005
1.262983e+003, 3.260881e+005
1.263465e+003, 3.260050e+005
1.263947e+003, 3.259973e+005
1.264429e+003, 3.260420e+005
1.264911e+003, 3.261775e+005
1.265394e+003, 3.262218e+005
1.265876e+003, 3.261491e+005
1.266358e+003, 3.260866e+005
1.266840e+003, 3.260574e+005
1.267322e+003, 3.260729e+005
1.267804e+003, 3.261428e+005
1.268286e+003, 3.262183e+005
1.268768e+003, 3.262367e+005
1.269250e+003, 3.262257e+005
1.269733e+003, 3.262748e+005
1.270215e+003, 3.263349e+005
1.270697e+003, 3.262668e+005
1.271179e+003, 3.261071e+005
1.271661e+003, 3.259372e+005
1.272143e+003, 3.257935e+005
1.272625e+003, 3.257298e+005
1.273107e+003, 3.257666e+005
1.273589e+003, 3.258628e+005
1.274072e+003, 3.261138e+005
1.274554e+003, 3.262509e+005
1.275036e+003, 3.260732e+005
1.275518e+003, 3.258111e+005
1.276000e+003, 3.255698e+005
1.276482e+003, 3.253567e+005
1.276964e+003, 3.251595e+005
1.277446e+003, 3.250387e+005
1.277929e+003, 3.250852e+005
1.278411e+003, 3.253408e+005
1.278893e+003, 3.253252e+005
1.279375e+003, 3.249319e+005
1.279857e+003, 3.246993e+005
1.280339e+003, 3.247099e+005
1.280821e+003, 3.247502e+005
1.281303e+003, 3.247632e+005
1.281786e+003, 3.248933e+005
1.282268e+003, 3.252104e+005
##END=



