##NAMES=Scholzite
##RRUFFID=R050238
##IDEAL CHEMISTRY=CaZn^2+^_2_(PO_4_)_2_&#183;2H_2_O
##LOCALITY=near Blinman, South Australia, Australia
##OWNER=RRUFF
##SOURCE=Marcus Origlieri
##DESCRIPTION=Colorless bladed crystals
##STATUS=The identification of this mineral has been confirmed by X-ray diffraction and chemical analysis
##URL=rruff.info/R050238
##MEASURED CHEMISTRY=Ca_1.00_Zn_2.00_(P_1.00_O_4_)_2_Â·2H_2_O
92.29974, 0.0000000E+00
92.78186, 0.0000000E+00
93.26398, 0.0000000E+00
93.74609, 12.39321
94.22821, 12.14047
94.71033, 12.18695
95.19244, 12.51871
95.67456, 13.07972
96.15668, 13.89903
96.63879, 14.93822
97.12091, 16.02779
97.60303, 17.13151
98.08514, 18.40405
98.56726, 20.18876
99.04938, 22.51693
99.53149, 24.80790
100.0136, 26.60092
100.4957, 27.86885
100.9778, 29.48285
101.4600, 31.44383
101.9421, 33.81816
102.4242, 36.79511
102.9063, 40.51997
103.3884, 44.53274
103.8705, 48.52074
104.3527, 52.56130
104.8348, 56.48081
105.3169, 60.30504
105.7990, 64.00859
106.2811, 67.73341
106.7632, 71.61278
107.2454, 75.35136
107.7275, 78.64846
108.2096, 81.50782
108.6917, 83.96211
109.1738, 85.83189
109.6559, 86.96402
110.1381, 88.62241
110.6202, 90.82234
111.1023, 93.56233
111.5844, 96.83794
112.0665, 101.1836
112.5486, 105.6095
113.0308, 109.8203
113.5129, 113.6591
113.9950, 117.8942
114.4771, 123.0320
114.9592, 128.5451
115.4413, 133.7074
115.9235, 138.0941
116.4056, 142.2504
116.8877, 146.3739
117.3698, 150.6340
117.8519, 154.7337
118.3340, 158.6172
118.8162, 162.2727
119.2983, 165.6576
119.7804, 168.6408
120.2625, 171.4531
120.7446, 174.2279
121.2267, 176.9123
121.7089, 179.7233
122.1910, 182.9309
122.6731, 186.4399
123.1552, 189.8238
123.6373, 192.9809
124.1194, 195.8094
124.6016, 198.1919
125.0837, 199.5865
125.5658, 200.8739
126.0479, 203.0095
126.5300, 205.9590
127.0121, 209.1481
127.4943, 211.8896
127.9764, 214.4861
128.4585, 217.7226
128.9406, 222.3499
129.4227, 227.6351
129.9048, 232.0574
130.3869, 235.5276
130.8691, 239.0176
131.3512, 243.9525
131.8333, 250.0601
132.3154, 255.7420
132.7975, 259.7620
133.2796, 262.6233
133.7618, 266.4893
134.2439, 270.9936
134.7260, 274.6485
135.2081, 276.9757
135.6902, 278.6223
136.1723, 280.2567
136.6545, 282.3579
137.1366, 284.9136
137.6187, 286.9642
138.1008, 288.4681
138.5829, 289.5233
139.0650, 290.2375
139.5472, 290.5059
140.0293, 290.8644
140.5114, 291.7059
140.9935, 293.2010
141.4756, 294.2552
141.9577, 294.4756
142.4399, 294.3135
142.9220, 295.5284
143.4041, 298.6610
143.8862, 302.1693
144.3683, 305.0432
144.8504, 306.6733
145.3326, 309.0985
145.8147, 312.7485
146.2968, 317.4736
146.7789, 321.5978
147.2610, 324.8224
147.7431, 327.7871
148.2253, 330.9938
148.7074, 334.5952
149.1895, 338.1806
149.6716, 341.5650
150.1537, 344.7354
150.6358, 348.2143
151.1180, 352.0767
151.6001, 356.1868
152.0822, 360.3833
152.5643, 364.7092
153.0464, 369.0808
153.5285, 373.8976
154.0107, 379.3696
154.4928, 383.2281
154.9749, 384.7031
155.4570, 384.8258
155.9391, 384.6349
156.4212, 384.4095
156.9034, 383.7492
157.3855, 382.3393
157.8676, 379.9707
158.3497, 377.9805
158.8318, 376.7137
159.3139, 375.9170
159.7961, 375.2599
160.2782, 374.0760
160.7603, 373.4784
161.2424, 374.2474
161.7245, 376.9594
162.2066, 379.0561
162.6888, 379.9074
163.1709, 379.5630
163.6530, 378.1016
164.1351, 374.8681
164.6172, 371.0030
165.0993, 367.2893
165.5815, 364.1079
166.0636, 360.2376
166.5457, 354.7392
167.0278, 348.0929
167.5099, 341.2944
167.9920, 334.1199
168.4742, 327.3633
168.9563, 321.7977
169.4384, 317.9256
169.9205, 314.3491
170.4026, 310.4463
170.8847, 306.1428
171.3669, 301.2614
171.8490, 294.4820
172.3311, 287.5762
172.8132, 282.6271
173.2953, 280.7878
173.7774, 279.6201
174.2596, 276.8192
174.7417, 272.7591
175.2238, 268.8798
175.7059, 266.0346
176.1880, 263.9797
176.6701, 262.4895
177.1523, 261.7949
177.6344, 261.2144
178.1165, 259.6877
178.5986, 257.3881
179.0807, 255.4649
179.5628, 254.9848
180.0450, 255.4265
180.5271, 255.7857
181.0092, 255.9194
181.4913, 255.7551
181.9734, 255.1723
182.4555, 254.1802
182.9377, 252.8723
183.4198, 250.6854
183.9019, 248.1375
184.3840, 246.8962
184.8661, 247.9205
185.3482, 250.0316
185.8304, 251.0194
186.3125, 250.8743
186.7946, 250.3445
187.2767, 250.1707
187.7588, 250.2092
188.2409, 249.7533
188.7231, 248.3186
189.2052, 246.4087
189.6873, 245.3574
190.1694, 245.1945
190.6515, 245.3651
191.1336, 245.2685
191.6158, 244.9645
192.0979, 245.0406
192.5800, 245.8623
193.0621, 247.1421
193.5442, 247.7949
194.0263, 247.7527
194.5085, 247.5346
194.9906, 247.7530
195.4727, 248.3886
195.9548, 248.7986
196.4369, 248.5906
196.9190, 247.9966
197.4012, 248.2951
197.8833, 249.6251
198.3654, 251.2813
198.8475, 252.5050
199.3296, 253.2924
199.8117, 253.9086
200.2939, 254.4165
200.7760, 254.8138
201.2581, 254.9916
201.7402, 254.8254
202.2223, 254.7735
202.7044, 255.4306
203.1866, 256.8680
203.6687, 258.4175
204.1508, 259.9550
204.6329, 261.4706
205.1150, 262.7224
205.5971, 263.5748
206.0793, 264.4572
206.5614, 265.9849
207.0435, 268.3033
207.5256, 270.4470
208.0077, 272.0556
208.4898, 273.1440
208.9720, 274.5734
209.4541, 276.4048
209.9362, 278.4644
210.4183, 280.5678
210.9004, 282.6967
211.3825, 284.8748
211.8647, 287.0902
212.3468, 289.3401
212.8289, 291.7819
213.3110, 294.3623
213.7931, 297.2269
214.2752, 300.5442
214.7574, 304.4416
215.2395, 308.5059
215.7216, 312.6624
216.2037, 316.8715
216.6858, 321.3655
217.1679, 326.2184
217.6500, 331.2885
218.1322, 336.2841
218.6143, 341.0479
219.0964, 346.2830
219.5785, 352.2886
220.0606, 359.1934
220.5427, 365.1963
221.0249, 369.8832
221.5070, 374.0755
221.9891, 378.6890
222.4712, 384.0937
222.9533, 389.1613
223.4354, 393.3992
223.9176, 396.7963
224.3997, 400.5798
224.8818, 404.9859
225.3639, 409.5593
225.8460, 413.8864
226.3281, 417.8570
226.8103, 421.7514
227.2924, 425.4633
227.7745, 429.0154
228.2566, 432.9940
228.7387, 437.5478
229.2208, 442.3706
229.7030, 447.0318
230.1851, 451.3784
230.6672, 455.9584
231.1493, 460.8611
231.6314, 466.0841
232.1135, 471.7006
232.5957, 477.9492
233.0778, 484.3360
233.5599, 490.3474
234.0420, 496.0598
234.5241, 501.2460
235.0062, 505.9738
235.4884, 510.2097
235.9705, 513.2805
236.4526, 515.1673
236.9347, 515.9431
237.4168, 515.6573
237.8989, 514.1936
238.3811, 511.8928
238.8632, 508.7355
239.3453, 504.7051
239.8274, 500.3022
240.3095, 495.8872
240.7916, 490.6629
241.2738, 483.7860
241.7559, 474.2903
242.2380, 465.1119
242.7201, 456.7860
243.2022, 449.2392
243.6843, 441.7564
244.1665, 434.1517
244.6486, 426.7735
245.1307, 419.9016
245.6128, 413.6577
246.0949, 407.6640
246.5770, 401.7100
247.0592, 395.8847
247.5413, 391.1270
248.0234, 388.0675
248.5055, 385.3276
248.9876, 381.8828
249.4697, 377.0021
249.9519, 372.9998
250.4340, 370.3661
250.9161, 368.8600
251.3982, 367.0103
251.8803, 364.5632
252.3624, 362.1357
252.8446, 360.1642
253.3267, 358.8154
253.8088, 357.4714
254.2909, 356.0249
254.7730, 354.5424
255.2551, 353.2891
255.7373, 352.1408
256.2194, 351.4294
256.7015, 351.4129
257.1836, 352.3465
257.6657, 353.3180
258.1478, 354.3831
258.6299, 355.4359
259.1121, 356.1048
259.5942, 356.1095
260.0763, 356.2432
260.5584, 356.8916
261.0405, 358.1268
261.5226, 359.6419
262.0048, 361.4806
262.4869, 363.5665
262.9690, 365.7381
263.4511, 367.8759
263.9332, 370.3265
264.4153, 373.2924
264.8975, 376.9546
265.3796, 380.5244
265.8617, 384.0609
266.3438, 387.4794
266.8259, 390.6369
267.3080, 393.3490
267.7902, 396.2386
268.2723, 399.5623
268.7544, 403.4638
269.2365, 407.0601
269.7186, 410.2350
270.2007, 413.2531
270.6829, 416.5821
271.1650, 420.4282
271.6471, 423.8058
272.1292, 426.0598
272.6113, 427.1455
273.0934, 429.2505
273.5756, 432.7202
274.0577, 436.5574
274.5398, 439.4932
275.0219, 441.3216
275.5040, 443.1686
275.9861, 445.3360
276.4683, 447.8056
276.9504, 450.4834
277.4325, 453.5489
277.9146, 456.3522
278.3967, 457.9409
278.8788, 458.1362
279.3610, 458.7778
279.8431, 460.3909
280.3252, 462.8027
280.8073, 465.3332
281.2894, 468.0749
281.7715, 470.5586
282.2537, 472.2271
282.7358, 473.0624
283.2179, 474.0593
283.7000, 475.6410
284.1821, 477.3732
284.6642, 477.6173
285.1464, 476.2167
285.6285, 474.7365
286.1106, 474.8250
286.5927, 476.2906
287.0748, 476.3149
287.5569, 474.2216
288.0391, 470.8378
288.5212, 467.9852
289.0033, 465.6596
289.4854, 463.2104
289.9675, 460.2245
290.4496, 456.7356
290.9318, 452.9185
291.4139, 448.6134
291.8960, 444.3483
292.3781, 441.3763
292.8602, 439.5311
293.3423, 437.3072
293.8245, 433.4076
294.3066, 428.4315
294.7887, 424.3140
295.2708, 421.2587
295.7529, 418.7743
296.2350, 416.3615
296.7172, 414.0350
297.1993, 411.8277
297.6814, 409.7867
298.1635, 407.8453
298.6456, 405.7614
299.1277, 403.4856
299.6099, 401.5320
300.0920, 400.5836
300.5741, 400.4075
301.0562, 400.4487
301.5383, 400.6719
302.0204, 400.8986
302.5026, 400.7433
302.9847, 400.2260
303.4668, 399.8425
303.9489, 400.2106
304.4310, 400.9548
304.9131, 401.3916
305.3953, 401.0647
305.8774, 400.6174
306.3595, 400.8373
306.8416, 401.6056
307.3237, 402.3108
307.8058, 402.5981
308.2880, 402.5700
308.7701, 402.3099
309.2522, 401.7186
309.7343, 401.1356
310.2164, 401.1970
310.6985, 401.5552
311.1807, 401.2124
311.6628, 399.1819
312.1449, 396.4550
312.6270, 393.8618
313.1091, 391.4622
313.5912, 389.3630
314.0734, 387.9875
314.5555, 386.9054
315.0376, 385.3305
315.5197, 382.4275
316.0018, 379.2729
316.4839, 376.5670
316.9661, 374.3872
317.4482, 372.3416
317.9303, 370.1854
318.4124, 368.1015
318.8945, 366.2787
319.3766, 365.3292
319.8588, 364.1753
320.3409, 362.1913
320.8230, 359.3826
321.3051, 356.9309
321.7872, 355.6559
322.2693, 354.6328
322.7515, 353.1335
323.2336, 349.8867
323.7157, 347.3611
324.1978, 346.5114
324.6799, 347.0329
325.1620, 347.0781
325.6442, 346.3121
326.1263, 345.0352
326.6084, 343.3705
327.0905, 340.7305
327.5726, 338.5141
328.0547, 336.9025
328.5369, 335.7831
329.0190, 334.8159
329.5011, 334.0679
329.9832, 333.4121
330.4653, 332.8430
330.9474, 332.4742
331.4296, 331.9095
331.9117, 331.0670
332.3938, 330.0711
332.8759, 329.0915
333.3580, 328.1140
333.8401, 327.1713
334.3223, 326.3157
334.8044, 325.5646
335.2865, 324.6584
335.7686, 323.5799
336.2507, 322.3698
336.7328, 320.9809
337.2150, 319.1063
337.6971, 317.8824
338.1792, 317.7538
338.6613, 318.4728
339.1434, 318.4535
339.6255, 317.5266
340.1076, 316.2457
340.5898, 314.9168
341.0719, 313.5490
341.5540, 312.1970
342.0361, 310.8093
342.5182, 309.5145
343.0003, 308.8116
343.4825, 308.8248
343.9646, 308.5595
344.4467, 307.2255
344.9288, 304.9491
345.4109, 303.2419
345.8930, 302.2383
346.3752, 301.5866
346.8573, 300.9024
347.3394, 300.1760
347.8215, 299.3505
348.3036, 298.4179
348.7857, 297.3700
349.2679, 296.0954
349.7500, 294.5876
350.2321, 293.1400
350.7142, 292.1479
351.1963, 291.4743
351.6784, 290.7196
352.1606, 289.8363
352.6427, 288.7497
353.1248, 287.0736
353.6069, 284.9254
354.0890, 283.1468
354.5711, 282.4925
355.0533, 282.5110
355.5354, 282.5846
356.0175, 282.6192
356.4996, 282.6397
356.9817, 282.7461
357.4638, 282.8637
357.9460, 282.8116
358.4281, 282.3933
358.9102, 281.8364
359.3923, 281.2824
359.8744, 280.7310
360.3565, 280.3027
360.8387, 280.1284
361.3208, 280.0980
361.8029, 280.0769
362.2850, 280.1491
362.7671, 280.0938
363.2492, 279.6178
363.7314, 278.7799
364.2135, 278.3241
364.6956, 278.7355
365.1777, 279.4774
365.6598, 280.1931
366.1419, 281.3013
366.6241, 281.7856
367.1062, 280.8797
367.5883, 279.1382
368.0704, 278.1971
368.5525, 279.2382
369.0346, 280.2796
369.5168, 280.4980
369.9989, 279.3224
370.4810, 278.6223
370.9631, 278.7365
371.4452, 279.1810
371.9273, 279.2777
372.4095, 278.6259
372.8916, 278.2202
373.3737, 278.3564
373.8558, 279.0577
374.3379, 279.5745
374.8200, 279.8687
375.3022, 280.0372
375.7843, 280.1478
376.2664, 280.1909
376.7485, 280.2039
377.2306, 280.1647
377.7127, 280.1099
378.1949, 280.1581
378.6770, 280.3102
379.1591, 280.5564
379.6412, 280.9701
380.1233, 281.5562
380.6054, 281.8945
381.0876, 281.9601
381.5697, 281.7880
382.0518, 281.0517
382.5339, 279.8350
383.0160, 279.5149
383.4981, 281.3526
383.9803, 284.3964
384.4624, 285.4896
384.9445, 284.5743
385.4266, 283.5256
385.9087, 284.4331
386.3908, 286.5294
386.8730, 287.7420
387.3551, 287.1510
387.8372, 286.0883
388.3193, 286.2456
388.8014, 287.3967
389.2835, 288.6025
389.7657, 289.0123
390.2478, 289.3138
390.7299, 290.4177
391.2120, 292.6400
391.6941, 294.7181
392.1762, 295.4702
392.6584, 295.5329
393.1405, 295.9317
393.6226, 297.3796
394.1047, 299.0013
394.5868, 300.3152
395.0689, 301.3138
395.5511, 302.3507
396.0332, 303.4430
396.5153, 304.6832
396.9974, 306.1460
397.4795, 308.3145
397.9616, 310.1603
398.4438, 311.2715
398.9259, 311.8915
399.4080, 312.7792
399.8901, 314.0308
400.3722, 315.5571
400.8543, 317.2967
401.3365, 319.2094
401.8186, 321.4946
402.3007, 324.4938
402.7828, 327.6544
403.2649, 330.2313
403.7470, 331.7130
404.2292, 333.6186
404.7113, 336.4684
405.1934, 340.1376
405.6755, 342.9626
406.1576, 344.6532
406.6397, 346.0925
407.1219, 347.9144
407.6040, 350.1699
408.0861, 352.4769
408.5682, 354.9810
409.0503, 357.2847
409.5324, 358.6354
410.0146, 359.0221
410.4967, 359.0458
410.9788, 359.1120
411.4609, 359.0768
411.9430, 358.1864
412.4251, 356.3518
412.9073, 354.2656
413.3894, 352.8854
413.8715, 351.7993
414.3536, 349.7829
414.8357, 346.0603
415.3178, 341.6852
415.8000, 337.8067
416.2821, 334.3973
416.7642, 331.5119
417.2463, 329.7942
417.7284, 328.3036
418.2105, 325.9686
418.6927, 322.4139
419.1748, 318.8694
419.6569, 315.8712
420.1390, 313.3707
420.6211, 311.3652
421.1032, 310.3589
421.5854, 309.3362
422.0675, 307.7542
422.5496, 305.6179
423.0317, 303.6679
423.5138, 302.2155
423.9959, 300.9251
424.4781, 299.5404
424.9602, 297.4893
425.4423, 296.0870
425.9244, 295.8365
426.4065, 296.2582
426.8886, 296.2859
427.3708, 295.6974
427.8529, 294.9848
428.3350, 294.2772
428.8171, 293.5730
429.2992, 292.8973
429.7813, 292.2879
430.2635, 291.6622
430.7456, 290.8346
431.2277, 289.6558
431.7098, 288.9600
432.1919, 289.0188
432.6740, 289.5779
433.1562, 289.9482
433.6383, 290.1541
434.1204, 289.9316
434.6025, 288.6884
435.0846, 286.7064
435.5667, 285.8961
436.0489, 286.5078
436.5310, 287.4610
437.0131, 287.2741
437.4952, 286.2810
437.9773, 285.6475
438.4594, 286.1968
438.9415, 287.0260
439.4236, 286.7395
439.9058, 285.4952
440.3879, 284.3848
440.8700, 284.2523
441.3521, 284.5628
441.8342, 284.7675
442.3163, 284.7607
442.7985, 284.6655
443.2806, 284.5010
443.7627, 284.3032
444.2448, 284.1260
444.7269, 284.0835
445.2090, 283.9743
445.6912, 283.7245
446.1733, 283.3277
446.6554, 282.8111
447.1375, 281.7543
447.6196, 280.8596
448.1017, 280.5723
448.5839, 281.3176
449.0660, 282.1651
449.5481, 283.3672
450.0302, 284.6083
450.5123, 285.1764
450.9944, 284.8274
451.4766, 284.2301
451.9587, 283.5170
452.4408, 282.6703
452.9229, 281.9232
453.4050, 281.0739
453.8871, 280.7629
454.3693, 282.1118
454.8514, 285.2654
455.3335, 286.8531
455.8156, 285.9682
456.2977, 283.8286
456.7798, 282.7441
457.2620, 282.6678
457.7441, 283.1054
458.2262, 284.2291
458.7083, 285.5938
459.1904, 286.1136
459.6725, 285.7211
460.1547, 285.2208
460.6368, 285.5038
461.1189, 286.1117
461.6010, 286.2456
462.0831, 285.2524
462.5652, 284.3102
463.0474, 284.5887
463.5295, 285.6588
464.0116, 286.3073
464.4937, 285.4131
464.9758, 284.3799
465.4579, 284.1144
465.9401, 284.8766
466.4222, 285.3983
466.9043, 284.8272
467.3864, 284.1255
467.8685, 284.1991
468.3506, 286.6246
468.8328, 288.0469
469.3149, 287.6671
469.7970, 285.9902
470.2791, 284.8949
470.7612, 284.5111
471.2433, 284.5360
471.7255, 284.9290
472.2076, 285.7750
472.6897, 286.5371
473.1718, 287.3698
473.6539, 287.8411
474.1360, 287.1305
474.6182, 285.1573
475.1003, 283.8597
475.5824, 283.7537
476.0645, 284.4907
476.5466, 285.4787
477.0287, 286.6858
477.5109, 287.6663
477.9930, 288.2081
478.4751, 288.3151
478.9572, 287.7972
479.4393, 286.5785
479.9214, 285.4937
480.4036, 285.3183
480.8857, 285.7502
481.3678, 286.3831
481.8499, 287.6219
482.3320, 288.4100
482.8141, 287.5878
483.2963, 285.7013
483.7784, 284.4535
484.2605, 285.1517
484.7426, 286.1311
485.2247, 286.5346
485.7068, 286.1164
486.1890, 285.8283
486.6711, 285.6951
487.1532, 285.8054
487.6353, 286.2831
488.1174, 287.8130
488.5995, 288.5670
489.0817, 287.9154
489.5638, 286.4148
490.0459, 286.0326
490.5280, 287.2624
491.0101, 288.3615
491.4922, 288.4182
491.9744, 287.4023
492.4565, 286.9838
492.9386, 287.2202
493.4207, 287.7568
493.9028, 288.1701
494.3849, 288.5172
494.8671, 289.2490
495.3492, 290.6952
495.8313, 292.1715
496.3134, 292.4692
496.7955, 291.8517
497.2776, 291.3074
497.7598, 291.4554
498.2419, 291.9241
498.7240, 292.5100
499.2061, 293.2055
499.6882, 293.4559
500.1703, 292.2888
500.6525, 290.8536
501.1346, 290.2410
501.6167, 291.0582
502.0988, 292.1768
502.5809, 293.8004
503.0630, 295.4771
503.5452, 296.2368
504.0273, 294.8968
504.5094, 293.6812
504.9915, 293.1542
505.4736, 293.3307
505.9557, 293.5727
506.4379, 293.8362
506.9200, 294.2125
507.4021, 294.8252
507.8842, 295.7866
508.3663, 296.5064
508.8484, 296.9467
509.3306, 297.1591
509.8127, 297.1326
510.2948, 296.8803
510.7769, 296.7708
511.2590, 297.0261
511.7411, 297.4865
512.2233, 297.7985
512.7054, 297.9691
513.1875, 298.0141
513.6696, 297.8619
514.1517, 297.6215
514.6339, 297.3859
515.1160, 297.1190
515.5981, 297.0923
516.0802, 297.6240
516.5623, 298.4605
517.0444, 299.2642
517.5266, 300.0254
518.0087, 300.6184
518.4908, 300.9626
518.9729, 301.0843
519.4550, 301.1159
519.9371, 300.8157
520.4193, 300.6649
520.9014, 300.8802
521.3835, 301.5627
521.8656, 302.1955
522.3477, 302.8752
522.8298, 303.3994
523.3120, 303.4131
523.7941, 302.6652
524.2762, 302.6432
524.7583, 303.7970
525.2404, 305.5302
525.7225, 306.5035
526.2047, 306.7293
526.6868, 306.5660
527.1689, 305.7459
527.6510, 304.7368
528.1331, 304.9327
528.6152, 306.3075
529.0974, 307.7961
529.5795, 308.3203
530.0616, 308.5375
530.5437, 309.4535
531.0258, 311.5230
531.5079, 313.5910
531.9901, 314.6412
532.4722, 315.3262
532.9543, 316.6385
533.4364, 319.5296
533.9185, 322.4616
534.4006, 324.8363
534.8828, 326.7114
535.3649, 328.9775
535.8470, 331.9434
536.3291, 335.0374
536.8112, 337.9915
537.2933, 340.7170
537.7755, 343.5309
538.2576, 346.1787
538.7397, 349.2331
539.2218, 353.5941
539.7039, 359.3867
540.1860, 364.5897
540.6682, 368.6733
541.1503, 372.0998
541.6324, 375.7395
542.1145, 379.5858
542.5966, 383.7015
543.0787, 388.0293
543.5609, 392.6836
544.0430, 397.8362
544.5251, 403.4661
545.0072, 409.6054
545.4893, 416.6564
545.9714, 423.9801
546.4536, 430.8120
546.9357, 436.6548
547.4178, 442.9183
547.8999, 450.5153
548.3820, 458.7805
548.8641, 466.7951
549.3463, 474.7560
549.8284, 482.0244
550.3105, 488.6294
550.7926, 494.5191
551.2747, 499.3018
551.7568, 503.4887
552.2390, 505.8786
552.7211, 505.9967
553.2032, 503.8311
553.6853, 499.5075
554.1674, 492.9773
554.6495, 484.4527
555.1317, 473.4724
555.6138, 460.4991
556.0959, 447.3668
556.5780, 434.2391
557.0601, 421.5223
557.5422, 409.4994
558.0244, 398.3076
558.5065, 388.3035
558.9886, 379.9521
559.4707, 372.7318
559.9528, 366.4315
560.4349, 360.9912
560.9171, 356.2792
561.3992, 352.5644
561.8813, 349.2960
562.3634, 346.0764
562.8455, 342.5699
563.3276, 339.9323
563.8098, 339.0604
564.2919, 338.6566
564.7740, 337.5471
565.2561, 335.2924
565.7382, 333.1669
566.2203, 331.2284
566.7025, 329.5021
567.1846, 328.1275
567.6667, 327.1100
568.1488, 326.3393
568.6309, 326.0091
569.1130, 325.8649
569.5952, 324.7222
570.0773, 322.5912
570.5594, 320.7674
571.0415, 320.4704
571.5236, 321.0050
572.0057, 321.2047
572.4879, 320.8707
572.9700, 320.5794
573.4521, 320.8996
573.9342, 321.4442
574.4163, 321.7381
574.8984, 321.1532
575.3806, 320.8468
575.8627, 321.2661
576.3448, 322.2042
576.8269, 323.0939
577.3090, 323.9920
577.7911, 324.7232
578.2733, 325.2950
578.7554, 325.6952
579.2375, 325.4904
579.7196, 324.1686
580.2017, 323.4598
580.6838, 324.9003
581.1660, 328.4415
581.6481, 331.6490
582.1302, 334.5505
582.6123, 336.3706
583.0944, 335.2408
583.5765, 332.2121
584.0587, 330.3299
584.5408, 330.7904
585.0229, 332.1518
585.5050, 333.4774
585.9871, 334.6041
586.4692, 335.1170
586.9513, 333.6394
587.4334, 332.5892
587.9155, 333.5583
588.3976, 336.4703
588.8798, 339.0471
589.3619, 340.8949
589.8440, 342.2460
590.3261, 343.1366
590.8082, 343.3164
591.2903, 343.8880
591.7725, 345.0690
592.2546, 346.3341
592.7367, 347.1067
593.2188, 347.3411
593.7009, 347.4789
594.1830, 347.5464
594.6652, 347.6188
595.1473, 347.8246
595.6294, 348.1556
596.1115, 348.5713
596.5936, 349.1787
597.0757, 349.7821
597.5579, 350.1742
598.0400, 350.3553
598.5221, 350.3474
599.0042, 350.1564
599.4863, 349.7906
599.9684, 349.1783
600.4506, 348.2590
600.9327, 347.5082
601.4148, 347.0698
601.8969, 346.8213
602.3790, 346.6770
602.8611, 346.8019
603.3433, 346.7372
603.8254, 346.5763
604.3075, 346.1209
604.7896, 344.8992
605.2717, 342.7662
605.7538, 340.8705
606.2360, 339.4915
606.7181, 338.5912
607.2002, 338.4023
607.6823, 338.8096
608.1644, 338.9627
608.6465, 338.2354
609.1287, 337.0386
609.6108, 335.8110
610.0929, 334.5815
610.5750, 333.5027
611.0571, 333.1690
611.5392, 332.6895
612.0214, 331.1331
612.5035, 327.5933
612.9856, 325.1565
613.4677, 325.0700
613.9498, 326.0287
614.4319, 326.7416
614.9141, 327.5304
615.3962, 327.3667
615.8783, 325.7553
616.3604, 323.4384
616.8425, 322.1155
617.3246, 321.8691
617.8068, 321.7509
618.2889, 321.3193
618.7710, 320.8419
619.2531, 321.2247
619.7352, 322.3514
620.2173, 323.2352
620.6995, 322.9616
621.1816, 322.2420
621.6637, 322.0222
622.1458, 322.3709
622.6279, 322.3892
623.1100, 320.9320
623.5922, 319.3704
624.0743, 318.8883
624.5564, 320.6049
625.0385, 321.5788
625.5206, 320.8848
626.0027, 319.7031
626.4849, 319.4305
626.9670, 320.5279
627.4491, 321.3312
627.9312, 321.5407
628.4133, 321.3694
628.8954, 321.2329
629.3776, 321.1337
629.8597, 321.2618
630.3418, 321.8640
630.8239, 322.6509
631.3060, 322.9875
631.7881, 322.9413
632.2703, 322.9470
632.7524, 323.5727
633.2345, 324.1797
633.7166, 324.0279
634.1987, 322.9782
634.6808, 322.2886
635.1630, 322.5565
635.6451, 323.2482
636.1272, 324.0275
636.6093, 325.2419
637.0914, 325.7762
637.5735, 325.2093
638.0557, 324.3360
638.5378, 324.2680
639.0199, 325.2112
639.5020, 325.6686
639.9841, 325.1453
640.4662, 324.3411
640.9484, 324.9210
641.4305, 326.6405
641.9126, 327.9132
642.3947, 327.5711
642.8768, 326.7545
643.3589, 326.9178
643.8411, 327.8674
644.3232, 328.7279
644.8053, 329.1363
645.2874, 329.2500
645.7695, 329.0294
646.2516, 328.4177
646.7338, 328.1395
647.2159, 328.4400
647.6980, 328.9931
648.1801, 329.6665
648.6622, 330.5700
649.1443, 331.2929
649.6265, 331.8784
650.1086, 332.2038
650.5907, 332.0280
651.0728, 331.3823
651.5549, 330.5888
652.0370, 329.4543
652.5192, 328.8795
653.0013, 330.9046
653.4834, 334.4494
653.9655, 337.0145
654.4476, 336.4565
654.9297, 335.6658
655.4119, 336.8252
655.8940, 339.2707
656.3761, 340.9865
656.8582, 340.3908
657.3403, 339.9513
657.8224, 340.7114
658.3046, 342.5847
658.7867, 343.8604
659.2688, 344.3233
659.7509, 344.5954
660.2330, 344.9964
660.7151, 345.5254
661.1973, 345.8711
661.6794, 345.9803
662.1615, 346.2946
662.6436, 347.6259
663.1257, 349.4183
663.6078, 350.3451
664.0900, 350.1047
664.5721, 349.5046
665.0542, 348.9124
665.5363, 348.4228
666.0184, 348.1733
666.5005, 348.8581
666.9827, 348.9154
667.4648, 347.4220
667.9469, 345.1646
668.4290, 343.7094
668.9111, 343.6683
669.3932, 343.2206
669.8754, 341.8817
670.3575, 339.9476
670.8396, 338.4366
671.3217, 337.3761
671.8038, 336.2462
672.2859, 334.5420
672.7681, 332.7194
673.2502, 331.8710
673.7323, 331.8814
674.2144, 331.8961
674.6965, 331.2667
675.1786, 330.4679
675.6608, 329.9901
676.1429, 329.9120
676.6250, 329.5647
677.1071, 328.3935
677.5892, 327.1364
678.0714, 326.2957
678.5535, 325.9901
679.0356, 325.7921
679.5177, 325.7955
679.9998, 325.7722
680.4819, 325.4016
680.9641, 324.6655
681.4462, 324.2327
681.9283, 324.2723
682.4104, 324.3719
682.8925, 323.7103
683.3746, 322.6377
683.8568, 322.1463
684.3389, 322.8276
684.8210, 323.7794
685.3031, 324.6612
685.7852, 325.3130
686.2673, 325.4039
686.7495, 324.4677
687.2316, 323.3568
687.7137, 322.0920
688.1958, 320.8119
688.6779, 320.1203
689.1600, 320.1582
689.6422, 318.7412
690.1243, 320.6927
690.6064, 321.8184
691.0885, 322.1626
691.5706, 319.3846
692.0527, 320.6382
692.5349, 320.2762
693.0170, 319.8479
693.4991, 321.6689
693.9812, 319.3451
694.4633, 321.1305
694.9454, 321.2755
695.4276, 322.1713
695.9097, 321.4415
696.3918, 321.2137
696.8739, 322.6121
697.3560, 323.1101
697.8381, 322.1931
698.3203, 323.1366
698.8024, 320.7560
699.2845, 321.2924
699.7666, 323.0872
700.2487, 322.2520
700.7308, 323.2252
701.2130, 323.5097
701.6951, 320.6639
702.1772, 323.2619
702.6593, 323.5056
703.1414, 321.3321
703.6235, 323.7436
704.1057, 321.9033
704.5878, 321.5806
705.0699, 322.4001
705.5520, 322.0289
706.0341, 323.5348
706.5162, 322.9841
706.9984, 323.1215
707.4805, 323.0905
707.9626, 322.6223
708.4447, 321.9705
708.9268, 322.8426
709.4089, 325.4871
709.8911, 327.5739
710.3732, 327.5396
710.8553, 326.1299
711.3374, 325.1261
711.8195, 324.5332
712.3016, 324.3978
712.7838, 325.2118
713.2659, 326.1808
713.7480, 326.6051
714.2301, 326.4006
714.7122, 326.1351
715.1943, 326.0204
715.6765, 325.8491
716.1586, 325.3980
716.6407, 324.3826
717.1228, 324.3768
717.6049, 325.8945
718.0870, 327.3747
718.5692, 326.9876
719.0513, 324.9824
719.5334, 323.9183
720.0155, 324.1029
720.4976, 324.8729
720.9797, 325.9288
721.4619, 326.9865
721.9440, 327.5724
722.4261, 327.3896
722.9082, 327.0922
723.3903, 326.9003
723.8724, 326.7939
724.3546, 326.7484
724.8367, 326.9253
725.3188, 326.8929
725.8009, 326.4073
726.2830, 325.8417
726.7651, 326.0485
727.2473, 327.1359
727.7294, 327.8083
728.2115, 327.5703
728.6936, 326.9694
729.1757, 327.2487
729.6578, 328.0816
730.1400, 328.3285
730.6221, 326.7333
731.1042, 325.0177
731.5863, 324.4542
732.0684, 324.7730
732.5505, 325.0666
733.0327, 325.3772
733.5148, 325.3080
733.9969, 324.5114
734.4790, 323.1711
734.9611, 322.5311
735.4432, 322.7267
735.9254, 323.1766
736.4075, 323.7358
736.8896, 324.3199
737.3717, 324.4713
737.8538, 324.2275
738.3359, 324.1067
738.8181, 324.9632
739.3002, 325.8069
739.7823, 325.2904
740.2644, 323.3738
740.7465, 321.9992
741.2286, 322.2255
741.7108, 322.9659
742.1929, 323.6886
742.6750, 324.4308
743.1571, 324.7818
743.6392, 324.6003
744.1213, 324.2948
744.6035, 324.2423
745.0856, 324.4039
745.5677, 324.1368
746.0498, 323.3769
746.5319, 322.5943
747.0140, 322.1752
747.4962, 322.0381
747.9783, 322.0992
748.4604, 322.3770
748.9425, 322.6991
749.4246, 322.9361
749.9067, 323.2118
750.3889, 323.6841
750.8710, 325.0683
751.3531, 325.2856
751.8352, 323.6200
752.3173, 321.6729
752.7994, 321.5742
753.2816, 323.3709
753.7637, 324.6877
754.2458, 325.2235
754.7279, 325.1220
755.2100, 324.0864
755.6921, 322.6241
756.1743, 321.7375
756.6564, 321.8403
757.1385, 322.3838
757.6206, 323.5168
758.1027, 324.7770
758.5848, 325.4612
759.0670, 324.7344
759.5491, 324.5167
760.0312, 325.2936
760.5133, 326.4286
760.9954, 326.5402
761.4775, 325.5391
761.9597, 325.0111
762.4418, 325.4935
762.9239, 326.4081
763.4060, 326.9933
763.8881, 327.2492
764.3702, 327.1788
764.8524, 326.3075
765.3345, 325.5879
765.8166, 325.6928
766.2987, 326.3344
766.7808, 326.7913
767.2629, 326.9017
767.7451, 326.8677
768.2272, 326.6901
768.7093, 326.4021
769.1914, 325.9788
769.6735, 325.3688
770.1556, 325.2500
770.6378, 326.1290
771.1199, 327.4301
771.6020, 328.2564
772.0841, 328.5941
772.5662, 328.3946
773.0483, 326.8958
773.5305, 325.5276
774.0126, 325.2674
774.4947, 325.9388
774.9768, 326.5205
775.4589, 326.8781
775.9410, 327.1160
776.4232, 327.2242
776.9053, 327.2326
777.3874, 327.3211
777.8695, 327.5001
778.3516, 327.6537
778.8337, 327.8551
779.3159, 327.9319
779.7980, 327.2292
780.2801, 325.9634
780.7622, 325.2233
781.2443, 326.3224
781.7264, 327.5332
782.2086, 327.7536
782.6907, 326.9830
783.1728, 326.3055
783.6548, 325.6726
784.1370, 325.3438
784.6191, 325.4335
785.1012, 325.9175
785.5833, 326.7786
786.0654, 328.0633
786.5475, 328.9439
787.0297, 328.5257
787.5118, 327.4940
787.9939, 327.0532
788.4760, 327.1595
788.9581, 327.3365
789.4402, 327.4702
789.9224, 327.4703
790.4045, 327.1767
790.8866, 326.5590
791.3687, 326.3119
791.8508, 326.7401
792.3329, 327.0558
792.8151, 326.7465
793.2972, 325.9078
793.7793, 325.7966
794.2614, 326.4284
794.7435, 327.1157
795.2256, 327.4317
795.7078, 327.4749
796.1899, 327.2508
796.6720, 326.7919
797.1541, 326.4868
797.6362, 326.7404
798.1183, 327.0033
798.6005, 326.8549
799.0826, 326.2349
799.5647, 326.0750
800.0468, 326.4837
800.5289, 327.1021
801.0110, 327.8889
801.4932, 328.7582
801.9753, 329.0118
802.4574, 328.6669
802.9395, 328.3068
803.4216, 328.1731
803.9037, 328.3581
804.3859, 329.2418
804.8680, 330.8091
805.3501, 331.7657
805.8322, 331.1284
806.3143, 330.2968
806.7964, 330.0117
807.2786, 330.3121
807.7607, 330.2794
808.2428, 329.8368
808.7249, 329.3590
809.2070, 329.0337
809.6891, 328.8695
810.1713, 328.9138
810.6534, 329.1603
811.1355, 329.5215
811.6176, 330.3182
812.0997, 330.9174
812.5818, 330.6951
813.0640, 329.5955
813.5461, 328.6126
814.0282, 327.5812
814.5103, 327.0681
814.9924, 327.4751
815.4745, 328.7618
815.9567, 329.5683
816.4388, 329.8516
816.9209, 330.1404
817.4030, 331.0398
817.8851, 332.0800
818.3672, 332.2841
818.8494, 331.7289
819.3315, 331.1784
819.8136, 331.0859
820.2957, 331.0796
820.7778, 330.9291
821.2599, 330.6225
821.7421, 330.4611
822.2242, 330.4622
822.7063, 330.5978
823.1884, 330.9214
823.6705, 331.3720
824.1526, 331.5939
824.6348, 331.5993
825.1169, 331.6330
825.5990, 332.3528
826.0811, 332.8126
826.5632, 331.4977
827.0453, 328.7715
827.5275, 327.0520
828.0096, 328.2451
828.4917, 329.4158
828.9738, 329.3512
829.4559, 328.2652
829.9380, 327.7857
830.4202, 328.0096
830.9023, 328.3650
831.3844, 328.6808
831.8665, 328.9118
832.3486, 328.9574
832.8307, 328.8295
833.3129, 328.5694
833.7950, 327.9048
834.2771, 327.3987
834.7592, 327.4849
835.2413, 328.0463
835.7234, 328.5087
836.2056, 328.8286
836.6877, 329.0500
837.1698, 329.2161
837.6519, 329.2649
838.1340, 328.7867
838.6161, 327.8312
839.0983, 327.4107
839.5804, 328.1830
840.0625, 329.4344
840.5446, 330.5932
841.0267, 331.5694
841.5089, 332.1028
841.9910, 331.7618
842.4731, 331.3605
842.9552, 330.9517
843.4373, 330.6876
843.9194, 331.0972
844.4016, 332.5208
844.8837, 332.9583
845.3658, 331.5962
845.8479, 329.6486
846.3300, 329.2112
846.8121, 329.9413
847.2943, 330.9169
847.7764, 332.1035
848.2585, 332.9954
848.7406, 333.0862
849.2227, 332.7523
849.7048, 332.5934
850.1870, 333.0598
850.6691, 332.9528
851.1512, 331.8578
851.6333, 330.5679
852.1154, 330.4186
852.5975, 331.2858
853.0797, 331.9049
853.5618, 331.9927
854.0439, 331.9473
854.5260, 332.1362
855.0081, 332.4499
855.4902, 332.7432
855.9724, 332.9445
856.4545, 333.2063
856.9366, 333.7759
857.4187, 334.2367
857.9008, 334.1544
858.3829, 333.4168
858.8651, 332.8686
859.3472, 332.5604
859.8293, 332.3875
860.3114, 332.1857
860.7935, 332.0556
861.2756, 332.3110
861.7578, 333.0557
862.2399, 333.5126
862.7220, 332.9134
863.2041, 332.1636
863.6862, 332.0213
864.1683, 332.6674
864.6505, 332.8676
865.1326, 332.4584
865.6147, 332.0518
866.0968, 332.2223
866.5789, 332.7726
867.0610, 332.8538
867.5432, 332.4712
868.0253, 332.0016
868.5074, 331.5840
868.9895, 331.2670
869.4716, 331.0411
869.9537, 330.9101
870.4359, 331.1085
870.9180, 331.7719
871.4001, 332.5689
871.8822, 333.5264
872.3643, 334.5049
872.8464, 334.6597
873.3286, 334.0262
873.8107, 333.3324
874.2928, 333.0526
874.7749, 332.8476
875.2570, 332.0957
875.7391, 331.0873
876.2213, 330.7311
876.7034, 331.9254
877.1855, 333.1123
877.6676, 334.0254
878.1497, 334.6401
878.6318, 334.8394
879.1140, 334.5876
879.5961, 334.2789
880.0782, 333.9959
880.5603, 333.7637
881.0424, 333.7067
881.5245, 333.7182
882.0067, 333.5483
882.4888, 332.7025
882.9709, 332.2900
883.4530, 333.0286
883.9351, 334.2431
884.4172, 335.1314
884.8994, 335.7212
885.3815, 335.7764
885.8636, 335.1254
886.3457, 334.3812
886.8278, 334.4108
887.3099, 334.9117
887.7921, 335.0594
888.2742, 334.6255
888.7563, 334.4647
889.2384, 335.2922
889.7205, 336.4755
890.2026, 337.5520
890.6848, 338.5231
891.1669, 339.2031
891.6490, 339.5698
892.1311, 339.6912
892.6132, 339.4201
893.0953, 338.9253
893.5775, 338.9155
894.0596, 339.3975
894.5417, 340.1664
895.0238, 341.5108
895.5059, 342.7529
895.9880, 343.3730
896.4702, 343.3675
896.9523, 343.1066
897.4344, 342.2676
897.9165, 341.8417
898.3986, 342.3262
898.8807, 343.4013
899.3629, 343.9445
899.8450, 344.0076
900.3271, 343.9245
900.8092, 343.4517
901.2913, 343.3354
901.7734, 344.5734
902.2556, 346.6007
902.7377, 348.2465
903.2198, 349.1284
903.7019, 349.6411
904.1840, 349.4249
904.6661, 349.2596
905.1483, 350.8327
905.6304, 354.0204
906.1125, 356.0482
906.5946, 356.0988
907.0767, 356.1447
907.5588, 358.7468
908.0410, 362.2618
908.5231, 364.5733
909.0052, 364.5324
909.4873, 365.1069
909.9694, 366.9349
910.4515, 369.2161
910.9337, 371.3322
911.4158, 373.2413
911.8979, 375.9620
912.3800, 379.5444
912.8621, 383.2395
913.3442, 386.1844
913.8264, 389.0274
914.3085, 392.4917
914.7906, 396.5948
915.2727, 400.8129
915.7548, 404.9846
916.2369, 409.2695
916.7191, 413.8373
917.2012, 418.5540
917.6833, 422.7544
918.1654, 426.4223
918.6475, 430.3318
919.1296, 434.9942
919.6118, 439.9046
920.0939, 444.6046
920.5760, 449.0425
921.0581, 453.0182
921.5402, 456.7003
922.0223, 459.6533
922.5045, 461.9231
922.9866, 463.4185
923.4687, 463.8795
923.9508, 463.2531
924.4329, 462.2686
924.9150, 461.0467
925.3972, 459.5047
925.8793, 457.5857
926.3614, 455.2628
926.8435, 452.5529
927.3256, 449.4760
927.8077, 445.8397
928.2899, 441.2466
928.7720, 436.3989
929.2541, 431.6238
929.7362, 426.9038
930.2183, 422.2917
930.7004, 417.7662
931.1826, 413.4340
931.6647, 408.9566
932.1468, 405.0294
932.6289, 403.1553
933.1110, 402.9097
933.5931, 401.8568
934.0753, 398.2731
934.5574, 394.7467
935.0395, 392.1163
935.5216, 390.1092
936.0037, 387.9324
936.4858, 385.5459
936.9680, 383.4274
937.4501, 381.7285
937.9322, 380.3369
938.4143, 379.3372
938.8964, 378.5023
939.3785, 377.4505
939.8607, 375.7350
940.3428, 374.3460
940.8249, 373.5775
941.3070, 373.0434
941.7891, 372.4117
942.2712, 371.6795
942.7534, 370.6753
943.2355, 369.3072
943.7176, 368.4513
944.1997, 369.5707
944.6818, 371.1784
945.1639, 371.5835
945.6461, 370.6144
946.1282, 369.5135
946.6103, 368.2007
947.0924, 367.2956
947.5745, 367.2249
948.0566, 367.7494
948.5388, 367.4984
949.0209, 366.5176
949.5030, 365.5382
949.9851, 364.7227
950.4672, 364.2715
950.9493, 364.7445
951.4315, 365.6767
951.9136, 366.1366
952.3957, 365.6040
952.8778, 364.9367
953.3599, 364.0820
953.8420, 363.2728
954.3242, 362.6372
954.8063, 362.2594
955.2884, 363.0724
955.7705, 365.3758
956.2526, 367.3665
956.7347, 366.9565
957.2169, 365.8752
957.6990, 365.8869
958.1811, 367.5465
958.6632, 368.2121
959.1453, 367.3413
959.6274, 366.3677
960.1096, 365.9348
960.5917, 366.0093
961.0738, 366.4863
961.5559, 367.3553
962.0380, 368.5340
962.5201, 370.4787
963.0023, 372.2275
963.4844, 372.9210
963.9665, 373.0186
964.4486, 373.7589
964.9307, 375.5109
965.4128, 377.0992
965.8950, 378.3564
966.3771, 379.3703
966.8592, 380.0211
967.3413, 380.5616
967.8234, 381.7208
968.3055, 383.7023
968.7877, 385.9236
969.2698, 388.6082
969.7519, 390.9604
970.2340, 392.1980
970.7161, 392.1670
971.1982, 392.6854
971.6804, 393.6785
972.1625, 395.6336
972.6446, 399.5858
973.1267, 404.3890
973.6088, 407.6894
974.0909, 409.9039
974.5731, 412.5805
975.0552, 416.4080
975.5373, 420.7947
976.0194, 425.8362
976.5015, 431.2032
976.9836, 436.1945
977.4658, 440.6803
977.9479, 446.0319
978.4300, 452.5523
978.9121, 459.6373
979.3942, 466.2859
979.8763, 473.3271
980.3585, 482.0062
980.8406, 492.7373
981.3226, 504.0000
981.8047, 515.7746
982.2869, 527.8777
982.7690, 540.0812
983.2511, 552.4937
983.7332, 565.8763
984.2153, 580.3388
984.6974, 596.3932
985.1796, 614.7291
985.6617, 634.6229
986.1438, 655.2346
986.6259, 676.7941
987.1080, 700.1736
987.5901, 726.1090
988.0723, 752.4453
988.5544, 778.7011
989.0365, 805.0554
989.5186, 831.3805
990.0007, 858.0057
990.4828, 885.3090
990.9650, 913.4251
991.4471, 942.8180
991.9292, 974.4174
992.4113, 1006.878
992.8934, 1039.718
993.3755, 1072.932
993.8577, 1105.804
994.3398, 1138.003
994.8219, 1170.200
995.3040, 1203.153
995.7861, 1235.955
996.2682, 1269.014
996.7504, 1301.048
997.2325, 1329.213
997.7146, 1351.393
998.1967, 1370.645
998.6788, 1388.468
999.1609, 1403.636
999.6431, 1415.230
1000.125, 1423.051
1000.607, 1422.887
1001.089, 1413.873
1001.572, 1399.455
1002.054, 1382.396
1002.536, 1361.851
1003.018, 1336.661
1003.500, 1307.008
1003.982, 1272.371
1004.464, 1232.269
1004.946, 1189.192
1005.428, 1143.895
1005.911, 1096.895
1006.393, 1050.940
1006.875, 1005.483
1007.357, 961.2304
1007.839, 917.4178
1008.321, 874.8997
1008.803, 833.1012
1009.285, 792.9316
1009.768, 755.1078
1010.250, 719.0833
1010.732, 686.2449
1011.214, 657.1244
1011.696, 630.7595
1012.178, 606.7325
1012.660, 585.2572
1013.142, 566.8500
1013.624, 551.5330
1014.107, 537.0242
1014.589, 521.7052
1015.071, 508.4104
1015.553, 498.3442
1016.035, 490.9510
1016.517, 484.9152
1016.999, 480.1032
1017.481, 474.5710
1017.964, 466.8585
1018.446, 460.1706
1018.928, 458.3030
1019.410, 458.4979
1019.892, 457.2134
1020.374, 452.6949
1020.856, 450.0859
1021.338, 449.8389
1021.820, 450.2988
1022.303, 450.1918
1022.785, 449.8184
1023.267, 450.4071
1023.749, 451.6508
1024.231, 451.7110
1024.713, 448.8266
1025.195, 445.5230
1025.677, 442.8295
1026.160, 440.3846
1026.642, 437.3467
1027.124, 433.6918
1027.606, 429.8121
1028.088, 425.7095
1028.570, 421.6793
1029.052, 418.2209
1029.534, 414.8490
1030.016, 410.7461
1030.499, 405.4765
1030.981, 401.3516
1031.463, 398.7631
1031.945, 396.7711
1032.427, 395.0953
1032.909, 393.5945
1033.391, 391.5116
1033.873, 389.0652
1034.355, 387.1499
1034.838, 386.6167
1035.320, 386.1763
1035.802, 384.9200
1036.284, 383.6092
1036.766, 383.3983
1037.248, 384.5590
1037.730, 385.1885
1038.212, 385.1245
1038.695, 384.8246
1039.177, 384.8394
1039.659, 384.7804
1040.141, 384.0433
1040.623, 382.6512
1041.105, 381.4272
1041.587, 380.4252
1042.069, 379.7716
1042.552, 379.5879
1043.034, 379.6728
1043.516, 379.6412
1043.998, 379.4773
1044.480, 379.0589
1044.962, 378.2021
1045.444, 377.5637
1045.926, 377.7910
1046.408, 378.2271
1046.891, 378.2425
1047.373, 377.7415
1047.855, 377.6441
1048.337, 377.9674
1048.819, 378.5749
1049.301, 379.7396
1049.783, 380.8794
1050.265, 380.9536
1050.747, 380.4037
1051.230, 380.4212
1051.712, 381.8990
1052.194, 383.1856
1052.676, 384.1176
1053.158, 384.8260
1053.640, 385.2832
1054.122, 385.6327
1054.604, 386.5739
1055.087, 388.1857
1055.569, 389.6583
1056.051, 390.4951
1056.533, 391.0695
1057.015, 391.4303
1057.497, 391.7004
1057.979, 392.5295
1058.461, 393.9789
1058.943, 395.2368
1059.426, 395.9689
1059.908, 396.6019
1060.390, 397.5718
1060.872, 398.8007
1061.354, 400.2640
1061.836, 402.2654
1062.318, 403.4509
1062.800, 403.1713
1063.282, 403.3488
1063.765, 405.7170
1064.247, 409.4482
1064.729, 411.7152
1065.211, 412.7886
1065.693, 413.7453
1066.175, 414.9682
1066.657, 416.3366
1067.139, 417.6725
1067.622, 419.2381
1068.104, 421.5593
1068.586, 424.6487
1069.068, 427.3936
1069.550, 429.6920
1070.032, 431.6288
1070.514, 432.7036
1070.996, 433.8974
1071.479, 436.5804
1071.961, 440.6280
1072.443, 442.8160
1072.925, 442.4142
1073.407, 442.0898
1073.889, 442.5686
1074.371, 443.5374
1074.853, 444.5979
1075.335, 445.7527
1075.818, 447.0009
1076.300, 448.2649
1076.782, 449.8789
1077.264, 452.3754
1077.746, 454.7179
1078.228, 456.0365
1078.710, 456.6264
1079.192, 458.7518
1079.674, 462.1656
1080.156, 465.1481
1080.639, 466.6714
1081.121, 467.6772
1081.603, 467.9325
1082.085, 468.3571
1082.567, 470.4163
1083.049, 474.5829
1083.531, 477.9812
1084.013, 480.4130
1084.496, 482.6718
1084.978, 485.4991
1085.460, 488.5234
1085.942, 491.7718
1086.424, 495.0324
1086.906, 496.7817
1087.388, 495.9549
1087.870, 495.3941
1088.353, 495.7675
1088.835, 496.4548
1089.317, 496.6650
1089.799, 496.3470
1090.281, 495.2176
1090.763, 493.1206
1091.245, 491.1048
1091.727, 489.9288
1092.209, 488.5939
1092.692, 486.7162
1093.174, 484.2875
1093.656, 481.1065
1094.138, 477.2607
1094.620, 473.6163
1095.102, 470.9000
1095.584, 467.7374
1096.066, 462.4424
1096.548, 456.5587
1097.031, 451.8954
1097.513, 448.8413
1097.995, 445.5011
1098.477, 441.8336
1098.959, 438.2254
1099.441, 434.6074
1099.923, 431.4624
1100.405, 429.8646
1100.888, 429.1417
1101.370, 427.3320
1101.852, 422.7956
1102.334, 419.4434
1102.816, 417.9082
1103.298, 416.9622
1103.780, 414.8816
1104.262, 412.3560
1104.745, 411.2137
1105.227, 411.5001
1105.709, 411.5926
1106.191, 410.5924
1106.673, 409.4826
1107.155, 408.3898
1107.637, 407.5677
1108.119, 407.8250
1108.601, 408.9903
1109.083, 409.9312
1109.566, 410.3467
1110.048, 410.8274
1110.530, 411.6471
1111.012, 412.8178
1111.494, 414.4267
1111.976, 416.4292
1112.458, 418.3579
1112.940, 420.2217
1113.423, 422.1518
1113.905, 424.4938
1114.387, 426.4770
1114.869, 427.5418
1115.351, 427.6129
1115.833, 426.4371
1116.315, 423.6211
1116.797, 420.6084
1117.280, 417.3070
1117.762, 414.0548
1118.244, 411.0138
1118.726, 408.2321
1119.208, 406.0191
1119.690, 404.0748
1120.172, 401.4874
1120.654, 396.9776
1121.136, 393.2865
1121.619, 390.9601
1122.101, 389.0345
1122.583, 386.2394
1123.065, 382.9762
1123.547, 380.4445
1124.029, 378.7128
1124.511, 377.5896
1124.993, 377.9727
1125.475, 377.7194
1125.958, 375.7594
1126.440, 372.9981
1126.922, 371.2888
1127.404, 370.5187
1127.886, 369.6841
1128.368, 368.5850
1128.850, 367.6781
1129.332, 367.6403
1129.815, 367.6115
1130.297, 366.7627
1130.779, 365.3134
1131.261, 364.7130
1131.743, 364.9949
1132.225, 365.2968
1132.707, 365.4355
1133.189, 365.2293
1133.672, 363.9927
1134.154, 362.6039
1134.636, 362.2040
1135.118, 363.1458
1135.600, 363.5202
1136.082, 363.2491
1136.564, 362.7755
1137.046, 362.2852
1137.528, 361.7704
1138.010, 361.1933
1138.493, 360.5887
1138.975, 360.0199
1139.457, 359.5321
1139.939, 359.0405
1140.421, 358.5136
1140.903, 358.0492
1141.385, 357.5807
1141.867, 357.2726
1142.350, 357.7486
1142.832, 358.7571
1143.314, 359.3449
1143.796, 358.5006
1144.278, 358.1228
1144.760, 358.7245
1145.242, 359.5700
1145.724, 359.6671
1146.207, 359.2602
1146.689, 359.1537
1147.171, 359.4140
1147.653, 360.0304
1148.135, 361.5767
1148.617, 362.7631
1149.099, 363.0728
1149.581, 362.8291
1150.063, 362.4194
1150.546, 361.9536
1151.028, 362.4311
1151.510, 364.0984
1151.992, 365.5520
1152.474, 365.7800
1152.956, 365.5466
1153.438, 365.0587
1153.920, 364.5248
1154.402, 364.9377
1154.885, 366.2657
1155.367, 367.3127
1155.849, 367.6449
1156.331, 367.9139
1156.813, 368.6674
1157.295, 369.6212
1157.777, 370.5243
1158.259, 371.3693
1158.742, 372.2101
1159.224, 373.0319
1159.706, 374.0179
1160.188, 375.3081
1160.670, 376.6807
1161.152, 377.8066
1161.634, 378.9142
1162.116, 380.4540
1162.599, 382.8708
1163.081, 383.6800
1163.563, 382.4334
1164.045, 382.0552
1164.527, 385.0879
1165.009, 389.2949
1165.491, 392.0907
1165.973, 393.7925
1166.455, 394.9622
1166.938, 395.3791
1167.420, 396.0053
1167.902, 396.9574
1168.384, 397.7797
1168.866, 397.7645
1169.348, 397.5748
1169.830, 398.4962
1170.312, 400.2258
1170.794, 401.7099
1171.277, 403.3098
1171.759, 403.4155
1172.241, 401.5460
1172.723, 398.9459
1173.205, 396.7940
1173.687, 394.9267
1174.169, 393.0131
1174.651, 391.0001
1175.134, 388.7755
1175.616, 386.2174
1176.098, 383.4608
1176.580, 380.3553
1177.062, 377.3006
1177.544, 374.9352
1178.026, 373.0568
1178.508, 371.2098
1178.990, 369.3461
1179.473, 367.3400
1179.955, 364.4194
1180.437, 362.3510
1180.919, 361.9660
1181.401, 362.2754
1181.883, 360.9121
1182.365, 358.5870
1182.847, 357.7581
1183.329, 359.0445
1183.812, 359.9897
1184.294, 358.9877
1184.776, 358.0034
1185.258, 357.9016
1185.740, 358.3182
1186.222, 358.2522
1186.704, 357.7500
1187.186, 356.8599
1187.669, 355.3718
1188.151, 354.3858
1188.633, 354.7495
1189.115, 355.4936
1189.597, 356.2149
1190.079, 356.8525
1190.561, 356.9297
1191.043, 356.6149
1191.526, 356.8420
1192.008, 358.3382
1192.490, 359.4325
1192.972, 358.9601
1193.454, 358.0796
1193.936, 357.6589
1194.418, 357.5937
1194.900, 356.6299
1195.382, 354.9696
1195.865, 353.8544
1196.347, 354.1408
1196.829, 354.6195
1197.311, 354.8056
1197.793, 354.8507
1198.275, 354.8856
1198.757, 354.9124
1199.239, 354.8288
1199.721, 354.6481
1200.204, 354.4674
1200.686, 354.1617
1201.168, 354.0765
1201.650, 354.4491
1202.132, 355.0936
1202.614, 356.0382
1203.096, 357.2715
1203.578, 356.9183
1204.061, 355.1074
1204.543, 353.9372
1205.025, 355.5019
1205.507, 357.1472
1205.989, 357.4290
1206.471, 356.9703
1206.953, 356.5497
1207.435, 356.1602
1207.917, 355.4702
1208.400, 354.4879
1208.882, 353.6776
1209.364, 353.2780
1209.846, 353.2225
1210.328, 353.8221
1210.810, 354.5721
1211.292, 354.5880
1211.774, 353.9040
1212.256, 353.7921
1212.739, 354.3531
1213.221, 354.9849
1213.703, 355.4519
1214.185, 355.6909
1214.667, 355.5128
1215.149, 355.1634
1215.631, 355.1261
1216.113, 355.3732
1216.596, 355.3933
1217.078, 355.1173
1217.560, 354.8056
1218.042, 354.7519
1218.524, 354.5750
1219.006, 353.8338
1219.488, 352.9214
1219.970, 352.8944
1220.453, 353.6493
1220.935, 353.8258
1221.417, 353.1645
1221.899, 352.6229
1222.381, 353.1929
1222.863, 353.6682
1223.345, 353.1700
1223.827, 352.1828
1224.309, 352.0752
1224.792, 352.7460
1225.274, 353.4222
1225.756, 353.9745
1226.238, 354.3448
1226.720, 354.3981
1227.202, 354.3504
1227.684, 354.3286
1228.166, 354.2956
1228.648, 354.0527
1229.131, 353.6687
1229.613, 353.6061
1230.095, 354.0425
1230.577, 354.3291
1231.059, 354.0287
1231.541, 353.5395
1232.023, 352.9852
1232.505, 352.4607
1232.988, 352.2359
1233.470, 352.3068
1233.952, 352.7645
1234.434, 353.7841
1234.916, 354.4855
1235.398, 354.2407
1235.880, 353.7616
1236.362, 353.2367
1236.844, 352.8198
1237.327, 353.2944
1237.809, 354.3241
1238.291, 354.7214
1238.773, 353.9803
1239.255, 353.2621
1239.737, 352.8941
1240.219, 352.8052
1240.701, 353.1316
1241.183, 353.6003
1241.666, 353.0783
1242.148, 352.0490
1242.630, 351.9391
1243.112, 353.4171
1243.594, 355.0010
1244.076, 356.6614
1244.558, 357.8602
1245.040, 358.3031
1245.523, 358.1354
1246.005, 357.4093
1246.487, 356.4321
1246.969, 355.9331
1247.451, 356.3075
1247.933, 356.6025
1248.415, 356.7408
1248.897, 356.6993
1249.380, 356.3532
1249.862, 355.9335
1250.344, 355.9701
1250.826, 356.2925
1251.308, 356.5822
1251.790, 356.7205
1252.272, 356.9658
1252.754, 357.4103
1253.236, 357.7031
1253.719, 357.5448
1254.201, 357.2390
1254.683, 357.4671
1255.165, 357.8246
1255.647, 357.5343
1256.129, 355.9212
1256.611, 355.3487
1257.093, 356.0204
1257.575, 356.7587
1258.058, 357.0613
1258.540, 356.8760
1259.022, 355.6250
1259.504, 354.0530
1259.986, 353.3908
1260.468, 353.8758
1260.950, 354.4920
1261.432, 355.2740
1261.915, 355.6790
1262.397, 355.2361
1262.879, 354.5081
1263.361, 353.6142
1263.843, 352.9791
1264.325, 353.3150
1264.807, 354.8306
1265.289, 355.2943
1265.771, 354.7348
1266.254, 354.1125
1266.736, 353.8912
1267.218, 353.8648
1267.700, 353.6893
1268.182, 353.8316
1268.664, 355.0117
1269.146, 357.1807
1269.628, 357.7128
1270.110, 356.7852
1270.593, 355.8715
1271.075, 355.3483
1271.557, 355.4834
1272.039, 357.4769
1272.521, 359.1830
1273.003, 358.6987
1273.485, 356.4510
1273.967, 354.9027
1274.450, 354.0600
1274.932, 353.9771
1275.414, 355.3363
1275.896, 356.4079
1276.378, 356.7881
1276.860, 356.8998
1277.342, 356.9160
1277.824, 356.9430
1278.306, 357.2709
1278.789, 357.8878
1279.271, 358.7853
1279.753, 360.5035
1280.235, 361.4355
1280.717, 361.3343
1281.199, 360.8536
1281.681, 360.0708
1282.163, 359.4726
1282.646, 360.3232
1283.128, 361.9331
1283.610, 362.8513
1284.092, 362.5163
1284.574, 362.1770
1285.056, 361.8796
1285.538, 361.3381
1286.020, 359.9941
1286.502, 358.7142
1286.984, 358.5321
1287.467, 359.0187
1287.949, 359.5583
1288.431, 360.1407
1288.913, 360.4738
1289.395, 360.5497
1289.877, 360.7311
1290.359, 361.3808
1290.841, 361.9788
1291.324, 362.2005
1291.806, 362.1201
1292.288, 361.6807
1292.770, 360.8941
1293.252, 361.3922
1293.734, 362.9447
1294.216, 363.8154
1294.698, 362.4951
1295.181, 361.4655
1295.663, 362.2285
1296.145, 363.2700
1296.627, 363.5009
1297.109, 363.1855
1297.591, 363.8274
1298.073, 365.0016
1298.555, 365.2933
1299.037, 363.5241
1299.520, 362.2530
1300.002, 361.9170
1300.484, 362.0058
1300.966, 362.4041
1301.448, 362.7604
1301.930, 362.0693
1302.412, 360.9200
1302.894, 360.5246
1303.376, 361.5585
1303.859, 362.3734
1304.341, 362.9358
1304.823, 363.1427
1305.305, 362.8330
1305.787, 362.0610
##END=



