##NAMES=Scorzalite
##RRUFFID=R140558
##IDEAL CHEMISTRY=Fe^2+^Al_2_(PO_4_)_2_(OH)_2_
##LOCALITY=Hålsjöberg, Torsby, Värmland, Sweden
##OWNER=RRUFF
##SOURCE=Dr. Jürgen Wachsmuth
##DESCRIPTION=Blue granular crystals
##STATUS=The identification of this mineral has been confirmed by single-crystal X-ray diffraction.
##URL=rruff.info/R140558
9.059570e+001, 4.168363e+003
9.107782e+001, 4.031636e+003
9.155994e+001, 3.983220e+003
9.204205e+001, 4.085148e+003
9.252417e+001, 4.233464e+003
9.300629e+001, 4.393814e+003
9.348840e+001, 4.531051e+003
9.397052e+001, 4.615692e+003
9.445264e+001, 4.636635e+003
9.493475e+001, 4.655638e+003
9.541687e+001, 4.668749e+003
9.589898e+001, 4.680976e+003
9.638110e+001, 4.691499e+003
9.686321e+001, 4.699186e+003
9.734533e+001, 4.700439e+003
9.782745e+001, 4.687574e+003
9.830956e+001, 4.677862e+003
9.879168e+001, 4.672139e+003
9.927380e+001, 4.669824e+003
9.975591e+001, 4.671358e+003
1.002380e+002, 4.675197e+003
1.007201e+002, 4.678341e+003
1.012023e+002, 4.678928e+003
1.016844e+002, 4.677093e+003
1.021665e+002, 4.674679e+003
1.026486e+002, 4.670160e+003
1.031307e+002, 4.665392e+003
1.036128e+002, 4.661634e+003
1.040950e+002, 4.658452e+003
1.045771e+002, 4.656930e+003
1.050592e+002, 4.656807e+003
1.055413e+002, 4.657426e+003
1.060234e+002, 4.658320e+003
1.065055e+002, 4.658513e+003
1.069877e+002, 4.658451e+003
1.074698e+002, 4.660790e+003
1.079519e+002, 4.668347e+003
1.084340e+002, 4.674251e+003
1.089161e+002, 4.675535e+003
1.093982e+002, 4.672831e+003
1.098804e+002, 4.667985e+003
1.103625e+002, 4.662288e+003
1.108446e+002, 4.655482e+003
1.113267e+002, 4.648909e+003
1.118088e+002, 4.640551e+003
1.122909e+002, 4.633864e+003
1.127731e+002, 4.631454e+003
1.132552e+002, 4.633171e+003
1.137373e+002, 4.636247e+003
1.142194e+002, 4.636608e+003
1.147015e+002, 4.631340e+003
1.151836e+002, 4.628532e+003
1.156658e+002, 4.631086e+003
1.161479e+002, 4.634653e+003
1.166300e+002, 4.634471e+003
1.171121e+002, 4.628696e+003
1.175942e+002, 4.619936e+003
1.180763e+002, 4.614451e+003
1.185584e+002, 4.613240e+003
1.190406e+002, 4.612211e+003
1.195227e+002, 4.610210e+003
1.200048e+002, 4.607479e+003
1.204869e+002, 4.604712e+003
1.209690e+002, 4.602330e+003
1.214511e+002, 4.599917e+003
1.219333e+002, 4.596509e+003
1.224154e+002, 4.591091e+003
1.228975e+002, 4.586304e+003
1.233796e+002, 4.585136e+003
1.238617e+002, 4.588029e+003
1.243438e+002, 4.590513e+003
1.248260e+002, 4.590053e+003
1.253081e+002, 4.588169e+003
1.257902e+002, 4.586016e+003
1.262723e+002, 4.583965e+003
1.267544e+002, 4.581883e+003
1.272365e+002, 4.579401e+003
1.277187e+002, 4.575947e+003
1.282008e+002, 4.573102e+003
1.286829e+002, 4.571695e+003
1.291650e+002, 4.571018e+003
1.296471e+002, 4.569974e+003
1.301292e+002, 4.567646e+003
1.306114e+002, 4.564271e+003
1.310935e+002, 4.563179e+003
1.315756e+002, 4.568119e+003
1.320577e+002, 4.571927e+003
1.325398e+002, 4.572298e+003
1.330219e+002, 4.569963e+003
1.335041e+002, 4.567026e+003
1.339862e+002, 4.565307e+003
1.344683e+002, 4.565047e+003
1.349504e+002, 4.564536e+003
1.354325e+002, 4.562744e+003
1.359146e+002, 4.561531e+003
1.363968e+002, 4.562175e+003
1.368789e+002, 4.564701e+003
1.373610e+002, 4.568075e+003
1.378431e+002, 4.571322e+003
1.383252e+002, 4.574549e+003
1.388073e+002, 4.576664e+003
1.392895e+002, 4.576518e+003
1.397716e+002, 4.575640e+003
1.402537e+002, 4.576233e+003
1.407358e+002, 4.579143e+003
1.412179e+002, 4.582063e+003
1.417000e+002, 4.581193e+003
1.421821e+002, 4.576876e+003
1.426643e+002, 4.573416e+003
1.431464e+002, 4.573894e+003
1.436285e+002, 4.576963e+003
1.441106e+002, 4.577533e+003
1.445927e+002, 4.573203e+003
1.450748e+002, 4.567392e+003
1.455570e+002, 4.563125e+003
1.460391e+002, 4.560457e+003
1.465212e+002, 4.558452e+003
1.470033e+002, 4.556348e+003
1.474854e+002, 4.554093e+003
1.479675e+002, 4.552164e+003
1.484497e+002, 4.552226e+003
1.489318e+002, 4.551583e+003
1.494139e+002, 4.548346e+003
1.498960e+002, 4.542211e+003
1.503781e+002, 4.534668e+003
1.508602e+002, 4.527727e+003
1.513424e+002, 4.520857e+003
1.518245e+002, 4.515845e+003
1.523066e+002, 4.513477e+003
1.527887e+002, 4.512250e+003
1.532708e+002, 4.511316e+003
1.537529e+002, 4.510314e+003
1.542351e+002, 4.508936e+003
1.547172e+002, 4.506375e+003
1.551993e+002, 4.501235e+003
1.556814e+002, 4.496503e+003
1.561635e+002, 4.491659e+003
1.566456e+002, 4.487471e+003
1.571278e+002, 4.485254e+003
1.576099e+002, 4.485779e+003
1.580920e+002, 4.488138e+003
1.585741e+002, 4.488429e+003
1.590562e+002, 4.484864e+003
1.595383e+002, 4.481529e+003
1.600205e+002, 4.479237e+003
1.605026e+002, 4.477877e+003
1.609847e+002, 4.477264e+003
1.614668e+002, 4.477470e+003
1.619489e+002, 4.478250e+003
1.624310e+002, 4.478498e+003
1.629131e+002, 4.478783e+003
1.633953e+002, 4.478104e+003
1.638774e+002, 4.475314e+003
1.643595e+002, 4.470625e+003
1.648416e+002, 4.466154e+003
1.653237e+002, 4.463477e+003
1.658058e+002, 4.461896e+003
1.662880e+002, 4.459624e+003
1.667701e+002, 4.455328e+003
1.672522e+002, 4.451170e+003
1.677343e+002, 4.450250e+003
1.682164e+002, 4.453347e+003
1.686985e+002, 4.455979e+003
1.691807e+002, 4.454991e+003
1.696628e+002, 4.452093e+003
1.701449e+002, 4.449115e+003
1.706270e+002, 4.446533e+003
1.711091e+002, 4.444409e+003
1.715912e+002, 4.443099e+003
1.720734e+002, 4.443379e+003
1.725555e+002, 4.443007e+003
1.730376e+002, 4.440572e+003
1.735197e+002, 4.437156e+003
1.740018e+002, 4.434199e+003
1.744839e+002, 4.432417e+003
1.749661e+002, 4.431822e+003
1.754482e+002, 4.432593e+003
1.759303e+002, 4.437169e+003
1.764124e+002, 4.440391e+003
1.768945e+002, 4.439710e+003
1.773766e+002, 4.436803e+003
1.778588e+002, 4.434718e+003
1.783409e+002, 4.435856e+003
1.788230e+002, 4.440258e+003
1.793051e+002, 4.443244e+003
1.797872e+002, 4.443794e+003
1.802693e+002, 4.443934e+003
1.807515e+002, 4.443983e+003
1.812336e+002, 4.444062e+003
1.817157e+002, 4.444305e+003
1.821978e+002, 4.444896e+003
1.826799e+002, 4.445926e+003
1.831620e+002, 4.446077e+003
1.836441e+002, 4.444736e+003
1.841263e+002, 4.443230e+003
1.846084e+002, 4.442138e+003
1.850905e+002, 4.441487e+003
1.855726e+002, 4.441008e+003
1.860547e+002, 4.440385e+003
1.865368e+002, 4.439567e+003
1.870190e+002, 4.439596e+003
1.875011e+002, 4.441009e+003
1.879832e+002, 4.442868e+003
1.884653e+002, 4.445290e+003
1.889474e+002, 4.448150e+003
1.894296e+002, 4.449432e+003
1.899117e+002, 4.446296e+003
1.903938e+002, 4.438893e+003
1.908759e+002, 4.433013e+003
1.913580e+002, 4.429848e+003
1.918401e+002, 4.428272e+003
1.923223e+002, 4.427727e+003
1.928044e+002, 4.428542e+003
1.932865e+002, 4.428295e+003
1.937686e+002, 4.423386e+003
1.942507e+002, 4.415171e+003
1.947328e+002, 4.407511e+003
1.952150e+002, 4.401727e+003
1.956971e+002, 4.397224e+003
1.961792e+002, 4.392693e+003
1.966613e+002, 4.387688e+003
1.971434e+002, 4.383428e+003
1.976255e+002, 4.381683e+003
1.981077e+002, 4.381436e+003
1.985898e+002, 4.380068e+003
1.990719e+002, 4.375147e+003
1.995540e+002, 4.367693e+003
2.000361e+002, 4.362245e+003
2.005182e+002, 4.359700e+003
2.010004e+002, 4.358222e+003
2.014825e+002, 4.356993e+003
2.019646e+002, 4.355941e+003
2.024467e+002, 4.354945e+003
2.029288e+002, 4.353975e+003
2.034109e+002, 4.353032e+003
2.038930e+002, 4.351947e+003
2.043752e+002, 4.350427e+003
2.048573e+002, 4.349137e+003
2.053394e+002, 4.349274e+003
2.058215e+002, 4.349985e+003
2.063036e+002, 4.349183e+003
2.067857e+002, 4.344476e+003
2.072679e+002, 4.335518e+003
2.077500e+002, 4.329545e+003
2.082321e+002, 4.329699e+003
2.087142e+002, 4.330141e+003
2.091963e+002, 4.328958e+003
2.096784e+002, 4.326443e+003
2.101606e+002, 4.323925e+003
2.106427e+002, 4.322613e+003
2.111248e+002, 4.322663e+003
2.116069e+002, 4.322503e+003
2.120890e+002, 4.322022e+003
2.125711e+002, 4.321446e+003
2.130533e+002, 4.320829e+003
2.135354e+002, 4.320187e+003
2.140175e+002, 4.319495e+003
2.144996e+002, 4.318675e+003
2.149817e+002, 4.317624e+003
2.154638e+002, 4.317285e+003
2.159460e+002, 4.317607e+003
2.164281e+002, 4.318509e+003
2.169102e+002, 4.320567e+003
2.173923e+002, 4.323413e+003
2.178744e+002, 4.325690e+003
2.183565e+002, 4.326049e+003
2.188387e+002, 4.324195e+003
2.193208e+002, 4.322780e+003
2.198029e+002, 4.322145e+003
2.202850e+002, 4.321603e+003
2.207671e+002, 4.320749e+003
2.212492e+002, 4.319564e+003
2.217314e+002, 4.318186e+003
2.222135e+002, 4.316571e+003
2.226956e+002, 4.314729e+003
2.231777e+002, 4.313830e+003
2.236598e+002, 4.314862e+003
2.241419e+002, 4.316094e+003
2.246240e+002, 4.316369e+003
2.251062e+002, 4.315613e+003
2.255883e+002, 4.314114e+003
2.260704e+002, 4.311923e+003
2.265525e+002, 4.309094e+003
2.270346e+002, 4.306221e+003
2.275167e+002, 4.303351e+003
2.279989e+002, 4.300461e+003
2.284810e+002, 4.297071e+003
2.289631e+002, 4.293113e+003
2.294452e+002, 4.290437e+003
2.299273e+002, 4.291436e+003
2.304094e+002, 4.294825e+003
2.308916e+002, 4.296984e+003
2.313737e+002, 4.296898e+003
2.318558e+002, 4.295555e+003
2.323379e+002, 4.293657e+003
2.328200e+002, 4.291042e+003
2.333021e+002, 4.289007e+003
2.337843e+002, 4.289206e+003
2.342664e+002, 4.290372e+003
2.347485e+002, 4.290479e+003
2.352306e+002, 4.288216e+003
2.357127e+002, 4.285347e+003
2.361948e+002, 4.284441e+003
2.366770e+002, 4.285912e+003
2.371591e+002, 4.287615e+003
2.376412e+002, 4.288721e+003
2.381233e+002, 4.289370e+003
2.386054e+002, 4.289708e+003
2.390875e+002, 4.289905e+003
2.395697e+002, 4.289626e+003
2.400518e+002, 4.287908e+003
2.405339e+002, 4.283974e+003
2.410160e+002, 4.281109e+003
2.414981e+002, 4.281432e+003
2.419802e+002, 4.283034e+003
2.424624e+002, 4.284113e+003
2.429445e+002, 4.283934e+003
2.434266e+002, 4.283351e+003
2.439087e+002, 4.283975e+003
2.443908e+002, 4.286340e+003
2.448729e+002, 4.288402e+003
2.453550e+002, 4.289573e+003
2.458372e+002, 4.290215e+003
2.463193e+002, 4.290738e+003
2.468014e+002, 4.291304e+003
2.472835e+002, 4.291396e+003
2.477656e+002, 4.289846e+003
2.482477e+002, 4.285621e+003
2.487299e+002, 4.282209e+003
2.492120e+002, 4.280601e+003
2.496941e+002, 4.279712e+003
2.501762e+002, 4.279066e+003
2.506583e+002, 4.278468e+003
2.511404e+002, 4.277386e+003
2.516226e+002, 4.274825e+003
2.521047e+002, 4.270251e+003
2.525868e+002, 4.265394e+003
2.530689e+002, 4.260291e+003
2.535510e+002, 4.255132e+003
2.540331e+002, 4.249749e+003
2.545153e+002, 4.244224e+003
2.549974e+002, 4.239176e+003
2.554795e+002, 4.235619e+003
2.559616e+002, 4.234325e+003
2.564437e+002, 4.233002e+003
2.569258e+002, 4.231513e+003
2.574080e+002, 4.230065e+003
2.578901e+002, 4.228923e+003
2.583722e+002, 4.228075e+003
2.588543e+002, 4.227146e+003
2.593364e+002, 4.225470e+003
2.598185e+002, 4.222159e+003
2.603007e+002, 4.220454e+003
2.607828e+002, 4.222067e+003
2.612649e+002, 4.223605e+003
2.617470e+002, 4.222661e+003
2.622291e+002, 4.219180e+003
2.627112e+002, 4.214983e+003
2.631934e+002, 4.212117e+003
2.636755e+002, 4.210894e+003
2.641576e+002, 4.209947e+003
2.646397e+002, 4.209366e+003
2.651218e+002, 4.208907e+003
2.656039e+002, 4.208554e+003
2.660861e+002, 4.208234e+003
2.665682e+002, 4.207733e+003
2.670503e+002, 4.206774e+003
2.675324e+002, 4.205182e+003
2.680145e+002, 4.204307e+003
2.684966e+002, 4.205074e+003
2.689788e+002, 4.205573e+003
2.694609e+002, 4.204741e+003
2.699430e+002, 4.202736e+003
2.704251e+002, 4.200300e+003
2.709072e+002, 4.197874e+003
2.713893e+002, 4.195426e+003
2.718715e+002, 4.194607e+003
2.723536e+002, 4.196755e+003
2.728357e+002, 4.198845e+003
2.733178e+002, 4.199305e+003
2.737999e+002, 4.198586e+003
2.742820e+002, 4.198155e+003
2.747642e+002, 4.199072e+003
2.752463e+002, 4.201178e+003
2.757284e+002, 4.202514e+003
2.762105e+002, 4.203014e+003
2.766926e+002, 4.203021e+003
2.771747e+002, 4.202019e+003
2.776568e+002, 4.200585e+003
2.781389e+002, 4.200278e+003
2.786211e+002, 4.202250e+003
2.791032e+002, 4.205544e+003
2.795853e+002, 4.205830e+003
2.800674e+002, 4.198789e+003
2.805495e+002, 4.194398e+003
2.810316e+002, 4.197169e+003
2.815138e+002, 4.204042e+003
2.819959e+002, 4.209751e+003
2.824780e+002, 4.212085e+003
2.829601e+002, 4.211896e+003
2.834422e+002, 4.210987e+003
2.839243e+002, 4.208418e+003
2.844065e+002, 4.207005e+003
2.848886e+002, 4.208198e+003
2.853707e+002, 4.210678e+003
2.858528e+002, 4.212498e+003
2.863349e+002, 4.213000e+003
2.868170e+002, 4.212822e+003
2.872992e+002, 4.212934e+003
2.877813e+002, 4.213236e+003
2.882634e+002, 4.214096e+003
2.887455e+002, 4.215528e+003
2.892276e+002, 4.217563e+003
2.897097e+002, 4.220583e+003
2.901919e+002, 4.224724e+003
2.906740e+002, 4.228784e+003
2.911561e+002, 4.231195e+003
2.916382e+002, 4.231721e+003
2.921203e+002, 4.232256e+003
2.926024e+002, 4.232524e+003
2.930846e+002, 4.233131e+003
2.935667e+002, 4.235108e+003
2.940488e+002, 4.238549e+003
2.945309e+002, 4.241640e+003
2.950130e+002, 4.242194e+003
2.954951e+002, 4.240236e+003
2.959773e+002, 4.240511e+003
2.964594e+002, 4.245313e+003
2.969415e+002, 4.250840e+003
2.974236e+002, 4.253994e+003
2.979057e+002, 4.254770e+003
2.983878e+002, 4.255110e+003
2.988700e+002, 4.256059e+003
2.993521e+002, 4.257755e+003
2.998342e+002, 4.260420e+003
3.003163e+002, 4.264952e+003
3.007984e+002, 4.269568e+003
3.012805e+002, 4.273398e+003
3.017627e+002, 4.276469e+003
3.022448e+002, 4.279035e+003
3.027269e+002, 4.281239e+003
3.032090e+002, 4.283003e+003
3.036911e+002, 4.284119e+003
3.041732e+002, 4.283837e+003
3.046554e+002, 4.284209e+003
3.051375e+002, 4.286129e+003
3.056196e+002, 4.289424e+003
3.061017e+002, 4.293845e+003
3.065838e+002, 4.299616e+003
3.070659e+002, 4.305938e+003
3.075481e+002, 4.311031e+003
3.080302e+002, 4.314526e+003
3.085123e+002, 4.318580e+003
3.089944e+002, 4.324269e+003
3.094765e+002, 4.330889e+003
3.099586e+002, 4.337368e+003
3.104408e+002, 4.343519e+003
3.109229e+002, 4.348982e+003
3.114050e+002, 4.352805e+003
3.118871e+002, 4.354935e+003
3.123692e+002, 4.357511e+003
3.128513e+002, 4.361205e+003
3.133335e+002, 4.365414e+003
3.138156e+002, 4.369570e+003
3.142977e+002, 4.373579e+003
3.147798e+002, 4.377303e+003
3.152619e+002, 4.380607e+003
3.157440e+002, 4.383471e+003
3.162262e+002, 4.386005e+003
3.167083e+002, 4.387798e+003
3.171904e+002, 4.389541e+003
3.176725e+002, 4.391922e+003
3.181546e+002, 4.394919e+003
3.186367e+002, 4.397794e+003
3.191188e+002, 4.399901e+003
3.196010e+002, 4.401518e+003
3.200831e+002, 4.403940e+003
3.205652e+002, 4.407271e+003
3.210473e+002, 4.411290e+003
3.215294e+002, 4.415940e+003
3.220115e+002, 4.421197e+003
3.224937e+002, 4.427274e+003
3.229758e+002, 4.434666e+003
3.234579e+002, 4.442432e+003
3.239400e+002, 4.447968e+003
3.244221e+002, 4.450799e+003
3.249042e+002, 4.453056e+003
3.253864e+002, 4.455267e+003
3.258685e+002, 4.457472e+003
3.263506e+002, 4.459620e+003
3.268327e+002, 4.461606e+003
3.273148e+002, 4.463944e+003
3.277969e+002, 4.467991e+003
3.282791e+002, 4.474360e+003
3.287612e+002, 4.478834e+003
3.292433e+002, 4.479182e+003
3.297254e+002, 4.477901e+003
3.302075e+002, 4.477977e+003
3.306896e+002, 4.479924e+003
3.311718e+002, 4.482247e+003
3.316539e+002, 4.483506e+003
3.321360e+002, 4.483594e+003
3.326181e+002, 4.483533e+003
3.331002e+002, 4.482693e+003
3.335823e+002, 4.482209e+003
3.340645e+002, 4.482853e+003
3.345466e+002, 4.484638e+003
3.350287e+002, 4.487392e+003
3.355108e+002, 4.491293e+003
3.359929e+002, 4.496048e+003
3.364750e+002, 4.499528e+003
3.369572e+002, 4.501883e+003
3.374393e+002, 4.502996e+003
3.379214e+002, 4.502457e+003
3.384035e+002, 4.500610e+003
3.388856e+002, 4.498084e+003
3.393677e+002, 4.495007e+003
3.398499e+002, 4.491787e+003
3.403320e+002, 4.489715e+003
3.408141e+002, 4.489790e+003
3.412962e+002, 4.489016e+003
3.417783e+002, 4.486163e+003
3.422604e+002, 4.482379e+003
3.427426e+002, 4.479178e+003
3.432247e+002, 4.477006e+003
3.437068e+002, 4.475286e+003
3.441889e+002, 4.473272e+003
3.446710e+002, 4.470958e+003
3.451531e+002, 4.468313e+003
3.456353e+002, 4.464714e+003
3.461174e+002, 4.461274e+003
3.465995e+002, 4.459250e+003
3.470816e+002, 4.458540e+003
3.475637e+002, 4.457570e+003
3.480458e+002, 4.454760e+003
3.485280e+002, 4.449957e+003
3.490101e+002, 4.446877e+003
3.494922e+002, 4.446821e+003
3.499743e+002, 4.446888e+003
3.504564e+002, 4.446179e+003
3.509385e+002, 4.444651e+003
3.514207e+002, 4.442289e+003
3.519028e+002, 4.439015e+003
3.523849e+002, 4.435089e+003
3.528670e+002, 4.431565e+003
3.533491e+002, 4.428040e+003
3.538312e+002, 4.425437e+003
3.543134e+002, 4.424494e+003
3.547955e+002, 4.424303e+003
3.552776e+002, 4.424365e+003
3.557597e+002, 4.424420e+003
3.562418e+002, 4.423307e+003
3.567239e+002, 4.418825e+003
3.572061e+002, 4.408223e+003
3.576882e+002, 4.399772e+003
3.581703e+002, 4.394258e+003
3.586524e+002, 4.390037e+003
3.591345e+002, 4.386546e+003
3.596166e+002, 4.383390e+003
3.600987e+002, 4.379853e+003
3.605808e+002, 4.375125e+003
3.610630e+002, 4.369007e+003
3.615451e+002, 4.363439e+003
3.620272e+002, 4.359442e+003
3.625093e+002, 4.354896e+003
3.629914e+002, 4.348625e+003
3.634735e+002, 4.341292e+003
3.639557e+002, 4.334268e+003
3.644378e+002, 4.328366e+003
3.649199e+002, 4.323428e+003
3.654020e+002, 4.318843e+003
3.658841e+002, 4.315597e+003
3.663662e+002, 4.311321e+003
3.668484e+002, 4.303914e+003
3.673305e+002, 4.296353e+003
3.678126e+002, 4.292301e+003
3.682947e+002, 4.292720e+003
3.687768e+002, 4.294406e+003
3.692589e+002, 4.292025e+003
3.697411e+002, 4.283553e+003
3.702232e+002, 4.276517e+003
3.707053e+002, 4.272585e+003
3.711874e+002, 4.268843e+003
3.716695e+002, 4.263407e+003
3.721516e+002, 4.256512e+003
3.726338e+002, 4.249681e+003
3.731159e+002, 4.244008e+003
3.735980e+002, 4.239512e+003
3.740801e+002, 4.236949e+003
3.745622e+002, 4.238364e+003
3.750443e+002, 4.239224e+003
3.755265e+002, 4.237627e+003
3.760086e+002, 4.234616e+003
3.764907e+002, 4.231880e+003
3.769728e+002, 4.230291e+003
3.774549e+002, 4.229274e+003
3.779370e+002, 4.227312e+003
3.784192e+002, 4.223702e+003
3.789013e+002, 4.221170e+003
3.793834e+002, 4.221334e+003
3.798655e+002, 4.222333e+003
3.803476e+002, 4.222808e+003
3.808297e+002, 4.222493e+003
3.813119e+002, 4.221950e+003
3.817940e+002, 4.221846e+003
3.822761e+002, 4.222173e+003
3.827582e+002, 4.222003e+003
3.832403e+002, 4.220527e+003
3.837224e+002, 4.219407e+003
3.842046e+002, 4.219885e+003
3.846867e+002, 4.221648e+003
3.851688e+002, 4.223548e+003
3.856509e+002, 4.225622e+003
3.861330e+002, 4.227273e+003
3.866151e+002, 4.226550e+003
3.870973e+002, 4.222552e+003
3.875794e+002, 4.219382e+003
3.880615e+002, 4.221045e+003
3.885436e+002, 4.224521e+003
3.890257e+002, 4.225435e+003
3.895078e+002, 4.222316e+003
3.899900e+002, 4.217603e+003
3.904721e+002, 4.213146e+003
3.909542e+002, 4.208878e+003
3.914363e+002, 4.204378e+003
3.919184e+002, 4.199023e+003
3.924005e+002, 4.194000e+003
3.928827e+002, 4.191543e+003
3.933648e+002, 4.191975e+003
3.938469e+002, 4.190892e+003
3.943290e+002, 4.184619e+003
3.948111e+002, 4.176428e+003
3.952932e+002, 4.172440e+003
3.957754e+002, 4.173909e+003
3.962575e+002, 4.175275e+003
3.967396e+002, 4.171391e+003
3.972217e+002, 4.162576e+003
3.977038e+002, 4.154346e+003
3.981859e+002, 4.147157e+003
3.986681e+002, 4.140357e+003
3.991501e+002, 4.132831e+003
3.996323e+002, 4.125145e+003
4.001144e+002, 4.119502e+003
4.005965e+002, 4.117265e+003
4.010786e+002, 4.117339e+003
4.015607e+002, 4.116712e+003
4.020428e+002, 4.115274e+003
4.025250e+002, 4.113416e+003
4.030071e+002, 4.111054e+003
4.034892e+002, 4.108338e+003
4.039713e+002, 4.105151e+003
4.044534e+002, 4.101551e+003
4.049355e+002, 4.098375e+003
4.054177e+002, 4.096803e+003
4.058998e+002, 4.097449e+003
4.063819e+002, 4.096583e+003
4.068640e+002, 4.093160e+003
4.073461e+002, 4.089450e+003
4.078282e+002, 4.086333e+003
4.083104e+002, 4.083851e+003
4.087925e+002, 4.081920e+003
4.092746e+002, 4.080539e+003
4.097567e+002, 4.079483e+003
4.102388e+002, 4.077668e+003
4.107209e+002, 4.074251e+003
4.112031e+002, 4.071148e+003
4.116852e+002, 4.068336e+003
4.121673e+002, 4.065995e+003
4.126494e+002, 4.064794e+003
4.131315e+002, 4.064691e+003
4.136136e+002, 4.064246e+003
4.140958e+002, 4.061450e+003
4.145779e+002, 4.055790e+003
4.150600e+002, 4.049760e+003
4.155421e+002, 4.042787e+003
4.160242e+002, 4.036011e+003
4.165063e+002, 4.029040e+003
4.169885e+002, 4.022599e+003
4.174706e+002, 4.018426e+003
4.179527e+002, 4.017998e+003
4.184348e+002, 4.020262e+003
4.189169e+002, 4.021537e+003
4.193990e+002, 4.021269e+003
4.198812e+002, 4.021238e+003
4.203633e+002, 4.022442e+003
4.208454e+002, 4.023874e+003
4.213275e+002, 4.024594e+003
4.218096e+002, 4.024366e+003
4.222917e+002, 4.023604e+003
4.227739e+002, 4.022483e+003
4.232560e+002, 4.021027e+003
4.237381e+002, 4.020004e+003
4.242202e+002, 4.019855e+003
4.247023e+002, 4.019656e+003
4.251844e+002, 4.018405e+003
4.256666e+002, 4.016426e+003
4.261487e+002, 4.014931e+003
4.266308e+002, 4.015222e+003
4.271129e+002, 4.015920e+003
4.275950e+002, 4.014362e+003
4.280771e+002, 4.010337e+003
4.285593e+002, 4.007539e+003
4.290414e+002, 4.008390e+003
4.295235e+002, 4.011626e+003
4.300056e+002, 4.014348e+003
4.304877e+002, 4.017092e+003
4.309698e+002, 4.018158e+003
4.314520e+002, 4.015465e+003
4.319341e+002, 4.010712e+003
4.324162e+002, 4.007412e+003
4.328983e+002, 4.006563e+003
4.333804e+002, 4.006450e+003
4.338625e+002, 4.004890e+003
4.343447e+002, 4.001552e+003
4.348268e+002, 3.999810e+003
4.353089e+002, 4.001508e+003
4.357910e+002, 4.003335e+003
4.362731e+002, 4.002874e+003
4.367552e+002, 4.000549e+003
4.372374e+002, 3.998236e+003
4.377195e+002, 3.997042e+003
4.382016e+002, 3.996628e+003
4.386837e+002, 3.995741e+003
4.391658e+002, 3.994220e+003
4.396479e+002, 3.992414e+003
4.401301e+002, 3.989380e+003
4.406122e+002, 3.986636e+003
4.410943e+002, 3.986414e+003
4.415764e+002, 3.988759e+003
4.420585e+002, 3.990997e+003
4.425406e+002, 3.990079e+003
4.430227e+002, 3.985731e+003
4.435049e+002, 3.980313e+003
4.439870e+002, 3.970034e+003
4.444691e+002, 3.962688e+003
4.449512e+002, 3.963126e+003
4.454333e+002, 3.967710e+003
4.459154e+002, 3.970310e+003
4.463976e+002, 3.967665e+003
4.468797e+002, 3.961951e+003
4.473618e+002, 3.957724e+003
4.478439e+002, 3.954961e+003
4.483260e+002, 3.953754e+003
4.488081e+002, 3.955497e+003
4.492903e+002, 3.957789e+003
4.497724e+002, 3.959796e+003
4.502545e+002, 3.961156e+003
4.507366e+002, 3.960812e+003
4.512187e+002, 3.956448e+003
4.517008e+002, 3.949394e+003
4.521830e+002, 3.945848e+003
4.526651e+002, 3.947067e+003
4.531472e+002, 3.948926e+003
4.536293e+002, 3.949039e+003
4.541114e+002, 3.948227e+003
4.545935e+002, 3.947640e+003
4.550757e+002, 3.947672e+003
4.555578e+002, 3.947642e+003
4.560399e+002, 3.946429e+003
4.565220e+002, 3.944504e+003
4.570041e+002, 3.944197e+003
4.574862e+002, 3.946679e+003
4.579684e+002, 3.949902e+003
4.584505e+002, 3.950966e+003
4.589326e+002, 3.949908e+003
4.594147e+002, 3.949324e+003
4.598968e+002, 3.950597e+003
4.603789e+002, 3.951895e+003
4.608611e+002, 3.950993e+003
4.613432e+002, 3.948322e+003
4.618253e+002, 3.946644e+003
4.623074e+002, 3.947790e+003
4.627895e+002, 3.951104e+003
4.632716e+002, 3.953868e+003
4.637538e+002, 3.956322e+003
4.642359e+002, 3.957987e+003
4.647180e+002, 3.958270e+003
4.652001e+002, 3.958034e+003
4.656822e+002, 3.957905e+003
4.661643e+002, 3.958118e+003
4.666465e+002, 3.959010e+003
4.671286e+002, 3.961127e+003
4.676107e+002, 3.964719e+003
4.680928e+002, 3.967088e+003
4.685749e+002, 3.967002e+003
4.690570e+002, 3.966936e+003
4.695392e+002, 3.967301e+003
4.700213e+002, 3.968146e+003
4.705034e+002, 3.969754e+003
4.709855e+002, 3.972311e+003
4.714676e+002, 3.974798e+003
4.719497e+002, 3.975173e+003
4.724319e+002, 3.972886e+003
4.729140e+002, 3.970984e+003
4.733961e+002, 3.970403e+003
4.738782e+002, 3.969934e+003
4.743603e+002, 3.968688e+003
4.748424e+002, 3.966896e+003
4.753246e+002, 3.965558e+003
4.758067e+002, 3.965621e+003
4.762888e+002, 3.966444e+003
4.767709e+002, 3.966865e+003
4.772530e+002, 3.967018e+003
4.777351e+002, 3.965880e+003
4.782173e+002, 3.961639e+003
4.786994e+002, 3.956551e+003
4.791815e+002, 3.954435e+003
4.796636e+002, 3.956305e+003
4.801457e+002, 3.957952e+003
4.806278e+002, 3.956838e+003
4.811100e+002, 3.954174e+003
4.815920e+002, 3.952007e+003
4.820742e+002, 3.950674e+003
4.825563e+002, 3.950046e+003
4.830384e+002, 3.950202e+003
4.835205e+002, 3.951105e+003
4.840026e+002, 3.951378e+003
4.844847e+002, 3.949462e+003
4.849669e+002, 3.948603e+003
4.854490e+002, 3.951136e+003
4.859311e+002, 3.955398e+003
4.864132e+002, 3.958251e+003
4.868953e+002, 3.958542e+003
4.873774e+002, 3.957930e+003
4.878596e+002, 3.959395e+003
4.883417e+002, 3.964888e+003
4.888238e+002, 3.967015e+003
4.893059e+002, 3.962474e+003
4.897880e+002, 3.958315e+003
4.902701e+002, 3.958186e+003
4.907523e+002, 3.961231e+003
4.912344e+002, 3.965003e+003
4.917165e+002, 3.968147e+003
4.921986e+002, 3.970724e+003
4.926807e+002, 3.972863e+003
4.931628e+002, 3.974493e+003
4.936450e+002, 3.975891e+003
4.941271e+002, 3.976722e+003
4.946092e+002, 3.977620e+003
4.950913e+002, 3.979056e+003
4.955734e+002, 3.981025e+003
4.960555e+002, 3.983141e+003
4.965377e+002, 3.985174e+003
4.970198e+002, 3.987132e+003
4.975019e+002, 3.989058e+003
4.979840e+002, 3.990978e+003
4.984661e+002, 3.992695e+003
4.989482e+002, 3.993693e+003
4.994304e+002, 3.994604e+003
4.999125e+002, 3.996720e+003
5.003946e+002, 4.000681e+003
5.008767e+002, 4.004452e+003
5.013588e+002, 4.006987e+003
5.018409e+002, 4.008692e+003
5.023231e+002, 4.010004e+003
5.028052e+002, 4.010994e+003
5.032873e+002, 4.012712e+003
5.037694e+002, 4.016557e+003
5.042515e+002, 4.022662e+003
5.047336e+002, 4.026315e+003
5.052158e+002, 4.024273e+003
5.056979e+002, 4.023687e+003
5.061800e+002, 4.028694e+003
5.066621e+002, 4.036311e+003
5.071442e+002, 4.041557e+003
5.076263e+002, 4.042724e+003
5.081085e+002, 4.042567e+003
5.085906e+002, 4.045490e+003
5.090727e+002, 4.052657e+003
5.095548e+002, 4.058637e+003
5.100369e+002, 4.063720e+003
5.105190e+002, 4.067263e+003
5.110012e+002, 4.068215e+003
5.114833e+002, 4.067532e+003
5.119654e+002, 4.066901e+003
5.124475e+002, 4.067119e+003
5.129296e+002, 4.067927e+003
5.134117e+002, 4.069289e+003
5.138939e+002, 4.071497e+003
5.143760e+002, 4.072040e+003
5.148581e+002, 4.069546e+003
5.153402e+002, 4.065982e+003
5.158223e+002, 4.063000e+003
5.163044e+002, 4.060529e+003
5.167866e+002, 4.057890e+003
5.172687e+002, 4.053885e+003
5.177508e+002, 4.050084e+003
5.182329e+002, 4.049416e+003
5.187150e+002, 4.051580e+003
5.191971e+002, 4.052249e+003
5.196793e+002, 4.049338e+003
5.201614e+002, 4.043758e+003
5.206435e+002, 4.037321e+003
5.211256e+002, 4.029762e+003
5.216077e+002, 4.022224e+003
5.220898e+002, 4.014438e+003
5.225720e+002, 4.007078e+003
5.230541e+002, 4.001150e+003
5.235362e+002, 3.996437e+003
5.240183e+002, 3.991415e+003
5.245004e+002, 3.984831e+003
5.249825e+002, 3.977321e+003
5.254647e+002, 3.972163e+003
5.259468e+002, 3.972688e+003
5.264289e+002, 3.970851e+003
5.269110e+002, 3.964062e+003
5.273931e+002, 3.956081e+003
5.278752e+002, 3.950292e+003
5.283574e+002, 3.946851e+003
5.288395e+002, 3.943240e+003
5.293216e+002, 3.936667e+003
5.298037e+002, 3.927919e+003
5.302858e+002, 3.922103e+003
5.307679e+002, 3.920699e+003
5.312501e+002, 3.918836e+003
5.317322e+002, 3.914007e+003
5.322143e+002, 3.907837e+003
5.326964e+002, 3.901565e+003
5.331785e+002, 3.895240e+003
5.336606e+002, 3.889777e+003
5.341428e+002, 3.886122e+003
5.346249e+002, 3.883660e+003
5.351070e+002, 3.881262e+003
5.355891e+002, 3.878829e+003
5.360712e+002, 3.875746e+003
5.365533e+002, 3.871314e+003
5.370355e+002, 3.865802e+003
5.375176e+002, 3.861052e+003
5.379997e+002, 3.856793e+003
5.384818e+002, 3.853526e+003
5.389639e+002, 3.852101e+003
5.394460e+002, 3.851406e+003
5.399282e+002, 3.850298e+003
5.404103e+002, 3.848442e+003
5.408924e+002, 3.845701e+003
5.413745e+002, 3.841877e+003
5.418566e+002, 3.836945e+003
5.423387e+002, 3.831734e+003
5.428209e+002, 3.824428e+003
5.433029e+002, 3.819142e+003
5.437850e+002, 3.817941e+003
5.442672e+002, 3.818589e+003
5.447493e+002, 3.818812e+003
5.452314e+002, 3.817953e+003
5.457135e+002, 3.816338e+003
5.461956e+002, 3.813882e+003
5.466777e+002, 3.810726e+003
5.471599e+002, 3.808913e+003
5.476420e+002, 3.809318e+003
5.481241e+002, 3.809451e+003
5.486062e+002, 3.807182e+003
5.490883e+002, 3.803747e+003
5.495704e+002, 3.801036e+003
5.500526e+002, 3.799368e+003
5.505347e+002, 3.798475e+003
5.510168e+002, 3.798758e+003
5.514989e+002, 3.799592e+003
5.519810e+002, 3.799763e+003
5.524631e+002, 3.799020e+003
5.529453e+002, 3.797350e+003
5.534274e+002, 3.794358e+003
5.539095e+002, 3.790026e+003
5.543916e+002, 3.787846e+003
5.548737e+002, 3.789895e+003
5.553558e+002, 3.791248e+003
5.558380e+002, 3.789847e+003
5.563201e+002, 3.787317e+003
5.568022e+002, 3.785913e+003
5.572843e+002, 3.786104e+003
5.577664e+002, 3.786380e+003
5.582485e+002, 3.784752e+003
5.587307e+002, 3.781116e+003
5.592128e+002, 3.778792e+003
5.596949e+002, 3.778631e+003
5.601770e+002, 3.778640e+003
5.606591e+002, 3.777853e+003
5.611412e+002, 3.776973e+003
5.616234e+002, 3.777224e+003
5.621055e+002, 3.779074e+003
5.625876e+002, 3.780315e+003
5.630697e+002, 3.778592e+003
5.635518e+002, 3.774680e+003
5.640339e+002, 3.771066e+003
5.645161e+002, 3.767988e+003
5.649982e+002, 3.765400e+003
5.654803e+002, 3.763446e+003
5.659624e+002, 3.761966e+003
5.664445e+002, 3.760204e+003
5.669266e+002, 3.758024e+003
5.674088e+002, 3.755754e+003
5.678909e+002, 3.753697e+003
5.683730e+002, 3.751523e+003
5.688551e+002, 3.748705e+003
5.693372e+002, 3.745220e+003
5.698193e+002, 3.741487e+003
5.703015e+002, 3.737915e+003
5.707836e+002, 3.734481e+003
5.712657e+002, 3.731052e+003
5.717478e+002, 3.726674e+003
5.722299e+002, 3.723632e+003
5.727120e+002, 3.723441e+003
5.731942e+002, 3.723933e+003
5.736763e+002, 3.723134e+003
5.741584e+002, 3.720730e+003
5.746405e+002, 3.717691e+003
5.751226e+002, 3.714747e+003
5.756047e+002, 3.711844e+003
5.760869e+002, 3.708859e+003
5.765690e+002, 3.705879e+003
5.770511e+002, 3.702356e+003
5.775332e+002, 3.697337e+003
5.780153e+002, 3.692065e+003
5.784974e+002, 3.688590e+003
5.789796e+002, 3.687274e+003
5.794617e+002, 3.686279e+003
5.799438e+002, 3.685325e+003
5.804259e+002, 3.684102e+003
5.809080e+002, 3.682321e+003
5.813901e+002, 3.679944e+003
5.818723e+002, 3.676838e+003
5.823544e+002, 3.672829e+003
5.828365e+002, 3.668217e+003
5.833186e+002, 3.663901e+003
5.838007e+002, 3.658169e+003
5.842828e+002, 3.655570e+003
5.847650e+002, 3.660159e+003
5.852471e+002, 3.664389e+003
5.857292e+002, 3.662022e+003
5.862113e+002, 3.654624e+003
5.866934e+002, 3.648464e+003
5.871755e+002, 3.647789e+003
5.876577e+002, 3.650175e+003
5.881398e+002, 3.649970e+003
5.886219e+002, 3.646737e+003
5.891040e+002, 3.643824e+003
5.895861e+002, 3.641822e+003
5.900682e+002, 3.640639e+003
5.905504e+002, 3.640270e+003
5.910325e+002, 3.640624e+003
5.915146e+002, 3.641192e+003
5.919967e+002, 3.641815e+003
5.924788e+002, 3.642580e+003
5.929609e+002, 3.643819e+003
5.934431e+002, 3.645267e+003
5.939252e+002, 3.645739e+003
5.944073e+002, 3.644667e+003
5.948894e+002, 3.643951e+003
5.953715e+002, 3.646473e+003
5.958536e+002, 3.653236e+003
5.963358e+002, 3.658762e+003
5.968179e+002, 3.664028e+003
5.973000e+002, 3.667197e+003
5.977821e+002, 3.666383e+003
5.982642e+002, 3.663523e+003
5.987463e+002, 3.661099e+003
5.992285e+002, 3.659988e+003
5.997106e+002, 3.659884e+003
6.001927e+002, 3.660661e+003
6.006748e+002, 3.662275e+003
6.011569e+002, 3.663610e+003
6.016390e+002, 3.664374e+003
6.021212e+002, 3.665348e+003
6.026033e+002, 3.667919e+003
6.030854e+002, 3.670677e+003
6.035675e+002, 3.671059e+003
6.040496e+002, 3.667863e+003
6.045317e+002, 3.664989e+003
6.050139e+002, 3.665030e+003
6.054960e+002, 3.666327e+003
6.059781e+002, 3.666378e+003
6.064602e+002, 3.664976e+003
6.069423e+002, 3.663409e+003
6.074244e+002, 3.662549e+003
6.079066e+002, 3.662357e+003
6.083887e+002, 3.662648e+003
6.088708e+002, 3.664418e+003
6.093529e+002, 3.665263e+003
6.098350e+002, 3.664420e+003
6.103171e+002, 3.663235e+003
6.107993e+002, 3.663345e+003
6.112814e+002, 3.664109e+003
6.117635e+002, 3.662855e+003
6.122456e+002, 3.656990e+003
6.127277e+002, 3.649577e+003
6.132098e+002, 3.647824e+003
6.136920e+002, 3.652319e+003
6.141741e+002, 3.655260e+003
6.146562e+002, 3.654173e+003
6.151383e+002, 3.651656e+003
6.156204e+002, 3.650319e+003
6.161025e+002, 3.649910e+003
6.165847e+002, 3.648966e+003
6.170668e+002, 3.646883e+003
6.175489e+002, 3.644470e+003
6.180310e+002, 3.641551e+003
6.185131e+002, 3.638801e+003
6.189952e+002, 3.638158e+003
6.194774e+002, 3.640086e+003
6.199595e+002, 3.641853e+003
6.204416e+002, 3.639943e+003
6.209237e+002, 3.633976e+003
6.214058e+002, 3.630101e+003
6.218879e+002, 3.629880e+003
6.223701e+002, 3.629965e+003
6.228522e+002, 3.630182e+003
6.233343e+002, 3.630099e+003
6.238164e+002, 3.629051e+003
6.242985e+002, 3.627015e+003
6.247806e+002, 3.625116e+003
6.252628e+002, 3.624565e+003
6.257448e+002, 3.624809e+003
6.262269e+002, 3.624188e+003
6.267090e+002, 3.622568e+003
6.271912e+002, 3.621407e+003
6.276733e+002, 3.621752e+003
6.281554e+002, 3.622574e+003
6.286375e+002, 3.621849e+003
6.291196e+002, 3.619459e+003
6.296017e+002, 3.616568e+003
6.300839e+002, 3.612243e+003
6.305660e+002, 3.608417e+003
6.310481e+002, 3.606825e+003
6.315302e+002, 3.606775e+003
6.320123e+002, 3.606473e+003
6.324944e+002, 3.605095e+003
6.329766e+002, 3.603243e+003
6.334587e+002, 3.601776e+003
6.339408e+002, 3.600556e+003
6.344229e+002, 3.600535e+003
6.349050e+002, 3.603409e+003
6.353871e+002, 3.605238e+003
6.358693e+002, 3.603143e+003
6.363514e+002, 3.599407e+003
6.368335e+002, 3.597701e+003
6.373156e+002, 3.599250e+003
6.377977e+002, 3.601251e+003
6.382798e+002, 3.602177e+003
6.387620e+002, 3.602055e+003
6.392441e+002, 3.600510e+003
6.397262e+002, 3.597587e+003
6.402083e+002, 3.594774e+003
6.406904e+002, 3.592882e+003
6.411725e+002, 3.591987e+003
6.416547e+002, 3.592369e+003
6.421368e+002, 3.596127e+003
6.426189e+002, 3.598001e+003
6.431010e+002, 3.596737e+003
6.435831e+002, 3.594694e+003
6.440652e+002, 3.593375e+003
6.445474e+002, 3.592539e+003
6.450295e+002, 3.591125e+003
6.455116e+002, 3.588521e+003
6.459937e+002, 3.585403e+003
6.464758e+002, 3.582796e+003
6.469579e+002, 3.580702e+003
6.474401e+002, 3.578936e+003
6.479222e+002, 3.577630e+003
6.484043e+002, 3.576365e+003
6.488864e+002, 3.574912e+003
6.493685e+002, 3.573264e+003
6.498506e+002, 3.571407e+003
6.503328e+002, 3.569168e+003
6.508149e+002, 3.567038e+003
6.512970e+002, 3.565536e+003
6.517791e+002, 3.564108e+003
6.522612e+002, 3.561598e+003
6.527433e+002, 3.558237e+003
6.532255e+002, 3.555914e+003
6.537076e+002, 3.556153e+003
6.541897e+002, 3.558228e+003
6.546718e+002, 3.559419e+003
6.551539e+002, 3.559253e+003
6.556360e+002, 3.559276e+003
6.561182e+002, 3.560275e+003
6.566003e+002, 3.560941e+003
6.570824e+002, 3.559925e+003
6.575645e+002, 3.557883e+003
6.580466e+002, 3.557088e+003
6.585287e+002, 3.559581e+003
6.590109e+002, 3.561666e+003
6.594930e+002, 3.558671e+003
6.599751e+002, 3.552495e+003
6.604572e+002, 3.548860e+003
6.609393e+002, 3.549070e+003
6.614214e+002, 3.549568e+003
6.619036e+002, 3.547109e+003
6.623857e+002, 3.542044e+003
6.628678e+002, 3.538160e+003
6.633499e+002, 3.537168e+003
6.638320e+002, 3.535162e+003
6.643141e+002, 3.531001e+003
6.647963e+002, 3.526362e+003
6.652784e+002, 3.522117e+003
6.657605e+002, 3.518626e+003
6.662426e+002, 3.516553e+003
6.667247e+002, 3.516879e+003
6.672068e+002, 3.517880e+003
6.676890e+002, 3.516240e+003
6.681711e+002, 3.512032e+003
6.686532e+002, 3.507374e+003
6.691353e+002, 3.502297e+003
6.696174e+002, 3.497962e+003
6.700995e+002, 3.495726e+003
6.705817e+002, 3.495427e+003
6.710638e+002, 3.495095e+003
6.715459e+002, 3.495874e+003
6.720280e+002, 3.495135e+003
6.725101e+002, 3.490277e+003
6.729922e+002, 3.484515e+003
6.734744e+002, 3.481743e+003
6.739565e+002, 3.482033e+003
6.744386e+002, 3.482424e+003
6.749207e+002, 3.480629e+003
6.754028e+002, 3.477300e+003
6.758849e+002, 3.474554e+003
6.763671e+002, 3.472527e+003
6.768492e+002, 3.470421e+003
6.773313e+002, 3.467603e+003
6.778134e+002, 3.465209e+003
6.782955e+002, 3.464905e+003
6.787776e+002, 3.465878e+003
6.792598e+002, 3.465132e+003
6.797419e+002, 3.460885e+003
6.802240e+002, 3.456190e+003
6.807061e+002, 3.452411e+003
6.811882e+002, 3.449527e+003
6.816703e+002, 3.447848e+003
6.821525e+002, 3.447247e+003
6.826346e+002, 3.446524e+003
6.831167e+002, 3.444689e+003
6.835988e+002, 3.441923e+003
6.840809e+002, 3.438863e+003
6.845630e+002, 3.434460e+003
6.850452e+002, 3.432089e+003
6.855273e+002, 3.434334e+003
6.860094e+002, 3.436868e+003
6.864915e+002, 3.437233e+003
6.869736e+002, 3.435788e+003
6.874557e+002, 3.433904e+003
6.879379e+002, 3.431649e+003
6.884200e+002, 3.429871e+003
6.889021e+002, 3.429781e+003
6.893842e+002, 3.430654e+003
6.898663e+002, 3.430643e+003
6.903484e+002, 3.429432e+003
6.908306e+002, 3.428380e+003
6.913127e+002, 3.428614e+003
6.917948e+002, 3.429848e+003
6.922769e+002, 3.430650e+003
6.927590e+002, 3.431128e+003
6.932411e+002, 3.431011e+003
6.937233e+002, 3.429979e+003
6.942054e+002, 3.428741e+003
6.946875e+002, 3.428070e+003
6.951696e+002, 3.427561e+003
6.956517e+002, 3.425913e+003
6.961339e+002, 3.422142e+003
6.966160e+002, 3.418409e+003
6.970981e+002, 3.417249e+003
6.975802e+002, 3.418136e+003
6.980623e+002, 3.419407e+003
6.985444e+002, 3.420852e+003
6.990266e+002, 3.421914e+003
6.995087e+002, 3.422133e+003
6.999908e+002, 3.421672e+003
7.004729e+002, 3.421185e+003
7.009550e+002, 3.420807e+003
7.014371e+002, 3.420117e+003
7.019193e+002, 3.418232e+003
7.024014e+002, 3.416818e+003
7.028835e+002, 3.417169e+003
7.033656e+002, 3.418758e+003
7.038477e+002, 3.420581e+003
7.043298e+002, 3.422308e+003
7.048120e+002, 3.423234e+003
7.052941e+002, 3.422018e+003
7.057762e+002, 3.419143e+003
7.062583e+002, 3.416782e+003
7.067404e+002, 3.415118e+003
7.072225e+002, 3.414318e+003
7.077046e+002, 3.414788e+003
7.081867e+002, 3.415967e+003
7.086688e+002, 3.416403e+003
7.091509e+002, 3.415870e+003
7.096331e+002, 3.415190e+003
7.101152e+002, 3.414269e+003
7.105973e+002, 3.413314e+003
7.110794e+002, 3.412441e+003
7.115615e+002, 3.411603e+003
7.120436e+002, 3.410627e+003
7.125258e+002, 3.409450e+003
7.130079e+002, 3.408423e+003
7.134900e+002, 3.408198e+003
7.139721e+002, 3.408539e+003
7.144542e+002, 3.408300e+003
7.149363e+002, 3.407541e+003
7.154185e+002, 3.405554e+003
7.159006e+002, 3.401553e+003
7.163827e+002, 3.396660e+003
7.168648e+002, 3.392648e+003
7.173469e+002, 3.389548e+003
7.178290e+002, 3.387097e+003
7.183112e+002, 3.386000e+003
7.187933e+002, 3.384799e+003
7.192754e+002, 3.382744e+003
7.197575e+002, 3.380139e+003
7.202396e+002, 3.377458e+003
7.207217e+002, 3.374827e+003
7.212039e+002, 3.371982e+003
7.216860e+002, 3.368233e+003
7.221681e+002, 3.364156e+003
7.226502e+002, 3.362552e+003
7.231323e+002, 3.363832e+003
7.236144e+002, 3.363959e+003
7.240966e+002, 3.361051e+003
7.245787e+002, 3.357434e+003
7.250608e+002, 3.356415e+003
7.255429e+002, 3.357902e+003
7.260250e+002, 3.356995e+003
7.265071e+002, 3.350839e+003
7.269893e+002, 3.345401e+003
7.274714e+002, 3.343535e+003
7.279535e+002, 3.343114e+003
7.284356e+002, 3.341384e+003
7.289177e+002, 3.338332e+003
7.293998e+002, 3.336489e+003
7.298820e+002, 3.338303e+003
7.303641e+002, 3.341422e+003
7.308462e+002, 3.339520e+003
7.313283e+002, 3.332338e+003
7.318104e+002, 3.327661e+003
7.322925e+002, 3.327759e+003
7.327747e+002, 3.328749e+003
7.332568e+002, 3.327175e+003
7.337389e+002, 3.323723e+003
7.342210e+002, 3.322150e+003
7.347031e+002, 3.323687e+003
7.351852e+002, 3.325135e+003
7.356674e+002, 3.326257e+003
7.361495e+002, 3.326685e+003
7.366316e+002, 3.326049e+003
7.371137e+002, 3.324454e+003
7.375958e+002, 3.322121e+003
7.380779e+002, 3.319080e+003
7.385601e+002, 3.315958e+003
7.390422e+002, 3.314013e+003
7.395243e+002, 3.313039e+003
7.400064e+002, 3.310646e+003
7.404885e+002, 3.306277e+003
7.409706e+002, 3.302277e+003
7.414528e+002, 3.299973e+003
7.419349e+002, 3.298890e+003
7.424170e+002, 3.298144e+003
7.428991e+002, 3.298013e+003
7.433812e+002, 3.297316e+003
7.438633e+002, 3.296112e+003
7.443455e+002, 3.294198e+003
7.448276e+002, 3.290900e+003
7.453097e+002, 3.287060e+003
7.457918e+002, 3.283624e+003
7.462739e+002, 3.280986e+003
7.467560e+002, 3.279645e+003
7.472382e+002, 3.281247e+003
7.477203e+002, 3.284350e+003
7.482024e+002, 3.283934e+003
7.486845e+002, 3.279904e+003
7.491666e+002, 3.276484e+003
7.496487e+002, 3.275125e+003
7.501309e+002, 3.274750e+003
7.506130e+002, 3.273901e+003
7.510951e+002, 3.272464e+003
7.515772e+002, 3.272930e+003
7.520593e+002, 3.277965e+003
7.525414e+002, 3.281201e+003
7.530236e+002, 3.279608e+003
7.535057e+002, 3.276745e+003
7.539878e+002, 3.276079e+003
7.544699e+002, 3.277394e+003
7.549520e+002, 3.278052e+003
7.554341e+002, 3.276325e+003
7.559163e+002, 3.273680e+003
7.563984e+002, 3.272284e+003
7.568805e+002, 3.271789e+003
7.573626e+002, 3.270790e+003
7.578447e+002, 3.269069e+003
7.583268e+002, 3.266724e+003
7.588090e+002, 3.263683e+003
7.592911e+002, 3.260249e+003
7.597732e+002, 3.257353e+003
7.602553e+002, 3.255184e+003
7.607374e+002, 3.253367e+003
7.612195e+002, 3.251867e+003
7.617017e+002, 3.250856e+003
7.621838e+002, 3.251233e+003
7.626659e+002, 3.251915e+003
7.631480e+002, 3.251022e+003
7.636301e+002, 3.247998e+003
7.641122e+002, 3.244754e+003
7.645944e+002, 3.242539e+003
7.650765e+002, 3.241080e+003
7.655586e+002, 3.240063e+003
7.660407e+002, 3.239402e+003
7.665228e+002, 3.238792e+003
7.670049e+002, 3.238082e+003
7.674871e+002, 3.237554e+003
7.679692e+002, 3.237645e+003
7.684513e+002, 3.238358e+003
7.689334e+002, 3.238708e+003
7.694155e+002, 3.238182e+003
7.698976e+002, 3.238045e+003
7.703798e+002, 3.239074e+003
7.708619e+002, 3.240144e+003
7.713440e+002, 3.240367e+003
7.718261e+002, 3.239795e+003
7.723082e+002, 3.238981e+003
7.727903e+002, 3.237995e+003
7.732725e+002, 3.237000e+003
7.737546e+002, 3.236049e+003
7.742367e+002, 3.235211e+003
7.747188e+002, 3.234645e+003
7.752009e+002, 3.234340e+003
7.756830e+002, 3.234233e+003
7.761652e+002, 3.234376e+003
7.766473e+002, 3.234263e+003
7.771294e+002, 3.232290e+003
7.776115e+002, 3.227953e+003
7.780936e+002, 3.225323e+003
7.785757e+002, 3.225528e+003
7.790579e+002, 3.225865e+003
7.795400e+002, 3.224641e+003
7.800221e+002, 3.222741e+003
7.805042e+002, 3.221703e+003
7.809863e+002, 3.221744e+003
7.814684e+002, 3.221718e+003
7.819506e+002, 3.222090e+003
7.824327e+002, 3.221563e+003
7.829148e+002, 3.217855e+003
7.833969e+002, 3.213177e+003
7.838790e+002, 3.211689e+003
7.843611e+002, 3.214141e+003
7.848433e+002, 3.217010e+003
7.853254e+002, 3.216895e+003
7.858075e+002, 3.214815e+003
7.862896e+002, 3.213883e+003
7.867717e+002, 3.214116e+003
7.872538e+002, 3.214216e+003
7.877360e+002, 3.213893e+003
7.882181e+002, 3.213248e+003
7.887002e+002, 3.212262e+003
7.891823e+002, 3.211008e+003
7.896644e+002, 3.210118e+003
7.901465e+002, 3.210345e+003
7.906286e+002, 3.209842e+003
7.911107e+002, 3.208000e+003
7.915928e+002, 3.205834e+003
7.920750e+002, 3.203520e+003
7.925571e+002, 3.201500e+003
7.930392e+002, 3.200651e+003
7.935213e+002, 3.201405e+003
7.940034e+002, 3.202397e+003
7.944855e+002, 3.202464e+003
7.949677e+002, 3.201936e+003
7.954498e+002, 3.201407e+003
7.959319e+002, 3.200885e+003
7.964140e+002, 3.200231e+003
7.968961e+002, 3.199398e+003
7.973782e+002, 3.198192e+003
7.978604e+002, 3.196202e+003
7.983425e+002, 3.193332e+003
7.988246e+002, 3.191464e+003
7.993067e+002, 3.191132e+003
7.997888e+002, 3.190779e+003
8.002709e+002, 3.190065e+003
8.007531e+002, 3.189140e+003
8.012352e+002, 3.188250e+003
8.017173e+002, 3.187282e+003
8.021994e+002, 3.185689e+003
8.026815e+002, 3.182863e+003
8.031636e+002, 3.180077e+003
8.036458e+002, 3.177164e+003
8.041279e+002, 3.175224e+003
8.046100e+002, 3.176506e+003
8.050921e+002, 3.180176e+003
8.055742e+002, 3.182932e+003
8.060563e+002, 3.182972e+003
8.065385e+002, 3.181450e+003
8.070206e+002, 3.180206e+003
8.075027e+002, 3.179170e+003
8.079848e+002, 3.177145e+003
8.084669e+002, 3.173946e+003
8.089490e+002, 3.170231e+003
8.094312e+002, 3.165470e+003
8.099133e+002, 3.161518e+003
8.103954e+002, 3.161956e+003
8.108775e+002, 3.168028e+003
8.113596e+002, 3.170113e+003
8.118417e+002, 3.165405e+003
8.123239e+002, 3.160372e+003
8.128060e+002, 3.156507e+003
8.132881e+002, 3.153294e+003
8.137702e+002, 3.149672e+003
8.142523e+002, 3.146093e+003
8.147344e+002, 3.144773e+003
8.152166e+002, 3.147779e+003
8.156987e+002, 3.151411e+003
8.161808e+002, 3.151737e+003
8.166629e+002, 3.149779e+003
8.171450e+002, 3.147421e+003
8.176271e+002, 3.145021e+003
8.181093e+002, 3.143168e+003
8.185914e+002, 3.142219e+003
8.190735e+002, 3.141773e+003
8.195556e+002, 3.141044e+003
8.200377e+002, 3.139911e+003
8.205198e+002, 3.139070e+003
8.210020e+002, 3.138537e+003
8.214841e+002, 3.138189e+003
8.219662e+002, 3.138343e+003
8.224483e+002, 3.138381e+003
8.229304e+002, 3.137558e+003
8.234125e+002, 3.135899e+003
8.238947e+002, 3.134207e+003
8.243768e+002, 3.132310e+003
8.248589e+002, 3.130862e+003
8.253410e+002, 3.130428e+003
8.258231e+002, 3.130446e+003
8.263052e+002, 3.130462e+003
8.267874e+002, 3.130340e+003
8.272695e+002, 3.130069e+003
8.277516e+002, 3.129745e+003
8.282337e+002, 3.128822e+003
8.287158e+002, 3.126013e+003
8.291979e+002, 3.121880e+003
8.296801e+002, 3.118804e+003
8.301622e+002, 3.117004e+003
8.306443e+002, 3.115687e+003
8.311264e+002, 3.114624e+003
8.316085e+002, 3.113317e+003
8.320906e+002, 3.110732e+003
8.325728e+002, 3.106469e+003
8.330549e+002, 3.103763e+003
8.335370e+002, 3.103082e+003
8.340191e+002, 3.103316e+003
8.345012e+002, 3.105521e+003
8.349833e+002, 3.107436e+003
8.354655e+002, 3.106935e+003
8.359476e+002, 3.104355e+003
8.364297e+002, 3.101781e+003
8.369118e+002, 3.099245e+003
8.373939e+002, 3.097821e+003
8.378760e+002, 3.099315e+003
8.383582e+002, 3.101448e+003
8.388403e+002, 3.101336e+003
8.393224e+002, 3.099324e+003
8.398045e+002, 3.097404e+003
8.402866e+002, 3.096520e+003
8.407687e+002, 3.096270e+003
8.412509e+002, 3.096338e+003
8.417330e+002, 3.096618e+003
8.422151e+002, 3.096421e+003
8.426972e+002, 3.095714e+003
8.431793e+002, 3.094834e+003
8.436614e+002, 3.093829e+003
8.441436e+002, 3.092900e+003
8.446257e+002, 3.092440e+003
8.451078e+002, 3.092395e+003
8.455899e+002, 3.091253e+003
8.460720e+002, 3.087724e+003
8.465541e+002, 3.084926e+003
8.470363e+002, 3.083185e+003
8.475184e+002, 3.082134e+003
8.480005e+002, 3.082166e+003
8.484826e+002, 3.082579e+003
8.489647e+002, 3.081745e+003
8.494468e+002, 3.078934e+003
8.499290e+002, 3.076319e+003
8.504111e+002, 3.075186e+003
8.508932e+002, 3.074745e+003
8.513753e+002, 3.074116e+003
8.518574e+002, 3.073536e+003
8.523395e+002, 3.074304e+003
8.528217e+002, 3.076522e+003
8.533038e+002, 3.077392e+003
8.537859e+002, 3.073432e+003
8.542680e+002, 3.066676e+003
8.547501e+002, 3.064121e+003
8.552322e+002, 3.065764e+003
8.557144e+002, 3.065616e+003
8.561965e+002, 3.062146e+003
8.566786e+002, 3.058247e+003
8.571607e+002, 3.056081e+003
8.576428e+002, 3.055114e+003
8.581249e+002, 3.053569e+003
8.586071e+002, 3.050695e+003
8.590892e+002, 3.048851e+003
8.595713e+002, 3.048381e+003
8.600534e+002, 3.048465e+003
8.605355e+002, 3.049268e+003
8.610176e+002, 3.050190e+003
8.614998e+002, 3.050553e+003
8.619819e+002, 3.050277e+003
8.624640e+002, 3.049674e+003
8.629461e+002, 3.048891e+003
8.634282e+002, 3.047789e+003
8.639103e+002, 3.046294e+003
8.643925e+002, 3.044421e+003
8.648746e+002, 3.042021e+003
8.653567e+002, 3.039235e+003
8.658388e+002, 3.036655e+003
8.663209e+002, 3.034630e+003
8.668030e+002, 3.032944e+003
8.672852e+002, 3.031366e+003
8.677673e+002, 3.029867e+003
8.682494e+002, 3.028233e+003
8.687315e+002, 3.026453e+003
8.692136e+002, 3.024656e+003
8.696957e+002, 3.022897e+003
8.701779e+002, 3.021084e+003
8.706600e+002, 3.019027e+003
8.711421e+002, 3.016711e+003
8.716242e+002, 3.015068e+003
8.721063e+002, 3.014178e+003
8.725884e+002, 3.013808e+003
8.730705e+002, 3.015065e+003
8.735526e+002, 3.015755e+003
8.740347e+002, 3.013845e+003
8.745168e+002, 3.010430e+003
8.749990e+002, 3.008271e+003
8.754811e+002, 3.008214e+003
8.759632e+002, 3.008196e+003
8.764453e+002, 3.007974e+003
8.769274e+002, 3.007091e+003
8.774095e+002, 3.004684e+003
8.778917e+002, 3.001577e+003
8.783738e+002, 2.999110e+003
8.788559e+002, 2.997596e+003
8.793380e+002, 2.996470e+003
8.798201e+002, 2.995336e+003
8.803022e+002, 2.994295e+003
8.807844e+002, 2.993282e+003
8.812665e+002, 2.992496e+003
8.817486e+002, 2.993262e+003
8.822307e+002, 2.995622e+003
8.827128e+002, 2.996422e+003
8.831949e+002, 2.993418e+003
8.836771e+002, 2.988714e+003
8.841592e+002, 2.987021e+003
8.846413e+002, 2.988972e+003
8.851234e+002, 2.988875e+003
8.856055e+002, 2.985671e+003
8.860876e+002, 2.982985e+003
8.865698e+002, 2.982246e+003
8.870519e+002, 2.982354e+003
8.875340e+002, 2.982304e+003
8.880161e+002, 2.982066e+003
8.884982e+002, 2.981302e+003
8.889803e+002, 2.980323e+003
8.894625e+002, 2.978366e+003
8.899446e+002, 2.973969e+003
8.904267e+002, 2.969820e+003
8.909088e+002, 2.968169e+003
8.913909e+002, 2.968090e+003
8.918730e+002, 2.967313e+003
8.923552e+002, 2.965151e+003
8.928373e+002, 2.963908e+003
8.933194e+002, 2.967412e+003
8.938015e+002, 2.970617e+003
8.942836e+002, 2.967039e+003
8.947657e+002, 2.959281e+003
8.952479e+002, 2.952206e+003
8.957300e+002, 2.947301e+003
8.962121e+002, 2.945355e+003
8.966942e+002, 2.947366e+003
8.971763e+002, 2.951319e+003
8.976584e+002, 2.953280e+003
8.981406e+002, 2.953378e+003
8.986227e+002, 2.952910e+003
8.991048e+002, 2.951914e+003
8.995869e+002, 2.951268e+003
9.000690e+002, 2.951605e+003
9.005511e+002, 2.951813e+003
9.010333e+002, 2.950149e+003
9.015154e+002, 2.946514e+003
9.019975e+002, 2.943052e+003
9.024796e+002, 2.939381e+003
9.029617e+002, 2.936579e+003
9.034438e+002, 2.934762e+003
9.039260e+002, 2.934005e+003
9.044081e+002, 2.935507e+003
9.048902e+002, 2.937980e+003
9.053723e+002, 2.937854e+003
9.058544e+002, 2.933621e+003
9.063365e+002, 2.930079e+003
9.068187e+002, 2.928798e+003
9.073008e+002, 2.928111e+003
9.077829e+002, 2.927331e+003
9.082650e+002, 2.926360e+003
9.087471e+002, 2.924921e+003
9.092292e+002, 2.923133e+003
9.097114e+002, 2.921840e+003
9.101935e+002, 2.921592e+003
9.106756e+002, 2.921944e+003
9.111577e+002, 2.923351e+003
9.116398e+002, 2.924648e+003
9.121219e+002, 2.923286e+003
9.126041e+002, 2.919500e+003
9.130862e+002, 2.915536e+003
9.135683e+002, 2.912468e+003
9.140504e+002, 2.909756e+003
9.145325e+002, 2.906417e+003
9.150146e+002, 2.902790e+003
9.154968e+002, 2.900888e+003
9.159789e+002, 2.900792e+003
9.164610e+002, 2.900626e+003
9.169431e+002, 2.899961e+003
9.174252e+002, 2.898928e+003
9.179073e+002, 2.897436e+003
9.183895e+002, 2.895822e+003
9.188716e+002, 2.895339e+003
9.193537e+002, 2.896369e+003
9.198358e+002, 2.897616e+003
9.203179e+002, 2.900774e+003
9.208000e+002, 2.901616e+003
9.212822e+002, 2.895875e+003
9.217643e+002, 2.888603e+003
9.222464e+002, 2.885834e+003
9.227285e+002, 2.887400e+003
9.232106e+002, 2.887517e+003
9.236927e+002, 2.883428e+003
9.241749e+002, 2.880424e+003
9.246570e+002, 2.881138e+003
9.251391e+002, 2.882466e+003
9.256212e+002, 2.881591e+003
9.261033e+002, 2.879508e+003
9.265854e+002, 2.878942e+003
9.270676e+002, 2.880757e+003
9.275497e+002, 2.882198e+003
9.280318e+002, 2.881579e+003
9.285139e+002, 2.879652e+003
9.289960e+002, 2.876397e+003
9.294781e+002, 2.872691e+003
9.299603e+002, 2.870163e+003
9.304424e+002, 2.868982e+003
9.309245e+002, 2.868225e+003
9.314066e+002, 2.867289e+003
9.318887e+002, 2.866546e+003
9.323708e+002, 2.867124e+003
9.328530e+002, 2.868424e+003
9.333351e+002, 2.867597e+003
9.338172e+002, 2.864623e+003
9.342993e+002, 2.861785e+003
9.347814e+002, 2.859865e+003
9.352635e+002, 2.859155e+003
9.357457e+002, 2.860286e+003
9.362278e+002, 2.862708e+003
9.367099e+002, 2.862962e+003
9.371920e+002, 2.860308e+003
9.376741e+002, 2.858775e+003
9.381563e+002, 2.859404e+003
9.386384e+002, 2.859854e+003
9.391205e+002, 2.858775e+003
9.396026e+002, 2.856772e+003
9.400847e+002, 2.854853e+003
9.405668e+002, 2.853025e+003
9.410490e+002, 2.851303e+003
9.415311e+002, 2.849756e+003
9.420132e+002, 2.848246e+003
9.424953e+002, 2.846921e+003
9.429774e+002, 2.845505e+003
9.434595e+002, 2.843688e+003
9.439417e+002, 2.841647e+003
9.444238e+002, 2.839764e+003
9.449059e+002, 2.837935e+003
9.453880e+002, 2.836972e+003
9.458701e+002, 2.837897e+003
9.463522e+002, 2.839002e+003
9.468344e+002, 2.839279e+003
9.473165e+002, 2.838969e+003
9.477986e+002, 2.838383e+003
9.482807e+002, 2.837629e+003
9.487628e+002, 2.836839e+003
9.492449e+002, 2.836147e+003
9.497271e+002, 2.835272e+003
9.502092e+002, 2.833762e+003
9.506913e+002, 2.831989e+003
9.511734e+002, 2.830398e+003
9.516555e+002, 2.829069e+003
9.521376e+002, 2.828027e+003
9.526198e+002, 2.827297e+003
9.531019e+002, 2.827067e+003
9.535840e+002, 2.827735e+003
9.540661e+002, 2.828758e+003
9.545482e+002, 2.828784e+003
9.550303e+002, 2.827922e+003
9.555124e+002, 2.826781e+003
9.559945e+002, 2.825443e+003
9.564766e+002, 2.824411e+003
9.569587e+002, 2.823987e+003
9.574409e+002, 2.823786e+003
9.579230e+002, 2.823152e+003
9.584051e+002, 2.822089e+003
9.588872e+002, 2.821625e+003
9.593693e+002, 2.822067e+003
9.598514e+002, 2.821728e+003
9.603336e+002, 2.820091e+003
9.608157e+002, 2.817929e+003
9.612978e+002, 2.815655e+003
9.617799e+002, 2.813400e+003
9.622620e+002, 2.811543e+003
9.627441e+002, 2.810149e+003
9.632263e+002, 2.808974e+003
9.637084e+002, 2.808159e+003
9.641905e+002, 2.807400e+003
9.646726e+002, 2.806835e+003
9.651547e+002, 2.806137e+003
9.656368e+002, 2.804875e+003
9.661190e+002, 2.803200e+003
9.666011e+002, 2.801811e+003
9.670832e+002, 2.800897e+003
9.675653e+002, 2.800049e+003
9.680474e+002, 2.798506e+003
9.685295e+002, 2.797727e+003
9.690117e+002, 2.799063e+003
9.694938e+002, 2.801382e+003
9.699759e+002, 2.803663e+003
9.704580e+002, 2.805502e+003
9.709401e+002, 2.805763e+003
9.714222e+002, 2.803036e+003
9.719044e+002, 2.800091e+003
9.723865e+002, 2.798723e+003
9.728686e+002, 2.797990e+003
9.733507e+002, 2.797077e+003
9.738328e+002, 2.795915e+003
9.743149e+002, 2.794552e+003
9.747971e+002, 2.793027e+003
9.752792e+002, 2.791427e+003
9.757613e+002, 2.789297e+003
9.762434e+002, 2.787730e+003
9.767255e+002, 2.789333e+003
9.772076e+002, 2.792233e+003
9.776898e+002, 2.791761e+003
9.781719e+002, 2.788137e+003
9.786540e+002, 2.785564e+003
9.791361e+002, 2.786020e+003
9.796182e+002, 2.787395e+003
9.801003e+002, 2.786901e+003
9.805825e+002, 2.785265e+003
9.810646e+002, 2.785067e+003
9.815467e+002, 2.786132e+003
9.820288e+002, 2.786923e+003
9.825109e+002, 2.787140e+003
9.829930e+002, 2.788084e+003
9.834752e+002, 2.790836e+003
9.839573e+002, 2.793707e+003
9.844394e+002, 2.793088e+003
9.849215e+002, 2.788955e+003
9.854036e+002, 2.786139e+003
9.858857e+002, 2.784735e+003
9.863679e+002, 2.784179e+003
9.868500e+002, 2.784401e+003
9.873321e+002, 2.785250e+003
9.878142e+002, 2.786899e+003
9.882963e+002, 2.788785e+003
9.887784e+002, 2.788927e+003
9.892606e+002, 2.786264e+003
9.897427e+002, 2.785722e+003
9.902248e+002, 2.788778e+003
9.907069e+002, 2.791062e+003
9.911890e+002, 2.790852e+003
9.916711e+002, 2.789719e+003
9.921533e+002, 2.788780e+003
9.926354e+002, 2.788156e+003
9.931175e+002, 2.788641e+003
9.935996e+002, 2.791398e+003
9.940817e+002, 2.793183e+003
9.945638e+002, 2.792887e+003
9.950460e+002, 2.792913e+003
9.955281e+002, 2.795037e+003
9.960102e+002, 2.797351e+003
9.964923e+002, 2.797198e+003
9.969744e+002, 2.794976e+003
9.974565e+002, 2.794375e+003
9.979387e+002, 2.797599e+003
9.984208e+002, 2.799958e+003
9.989029e+002, 2.799370e+003
9.993850e+002, 2.798495e+003
9.998671e+002, 2.799167e+003
1.000349e+003, 2.800510e+003
1.000831e+003, 2.800913e+003
1.001313e+003, 2.800326e+003
1.001796e+003, 2.800493e+003
1.002278e+003, 2.802765e+003
1.002760e+003, 2.804979e+003
1.003242e+003, 2.806441e+003
1.003724e+003, 2.806898e+003
1.004206e+003, 2.805354e+003
1.004688e+003, 2.802881e+003
1.005170e+003, 2.801567e+003
1.005653e+003, 2.801841e+003
1.006135e+003, 2.802283e+003
1.006617e+003, 2.802044e+003
1.007099e+003, 2.801529e+003
1.007581e+003, 2.800634e+003
1.008063e+003, 2.799999e+003
1.008545e+003, 2.801156e+003
1.009027e+003, 2.803370e+003
1.009509e+003, 2.804346e+003
1.009992e+003, 2.803313e+003
1.010474e+003, 2.801392e+003
1.010956e+003, 2.799044e+003
1.011438e+003, 2.796980e+003
1.011920e+003, 2.796238e+003
1.012402e+003, 2.796644e+003
1.012884e+003, 2.798438e+003
1.013366e+003, 2.801099e+003
1.013849e+003, 2.802169e+003
1.014331e+003, 2.800625e+003
1.014813e+003, 2.798872e+003
1.015295e+003, 2.800083e+003
1.015777e+003, 2.802704e+003
1.016259e+003, 2.802458e+003
1.016741e+003, 2.800009e+003
1.017223e+003, 2.798759e+003
1.017705e+003, 2.799044e+003
1.018188e+003, 2.798340e+003
1.018670e+003, 2.795294e+003
1.019152e+003, 2.791585e+003
1.019634e+003, 2.789420e+003
1.020116e+003, 2.788628e+003
1.020598e+003, 2.788578e+003
1.021080e+003, 2.789230e+003
1.021562e+003, 2.789757e+003
1.022044e+003, 2.790071e+003
1.022527e+003, 2.788898e+003
1.023009e+003, 2.785244e+003
1.023491e+003, 2.781035e+003
1.023973e+003, 2.779729e+003
1.024455e+003, 2.781022e+003
1.024937e+003, 2.779154e+003
1.025419e+003, 2.773444e+003
1.025901e+003, 2.770893e+003
1.026384e+003, 2.773498e+003
1.026866e+003, 2.776335e+003
1.027348e+003, 2.776615e+003
1.027830e+003, 2.774611e+003
1.028312e+003, 2.770382e+003
1.028794e+003, 2.763712e+003
1.029276e+003, 2.759930e+003
1.029758e+003, 2.759907e+003
1.030240e+003, 2.759711e+003
1.030723e+003, 2.758612e+003
1.031205e+003, 2.757117e+003
1.031687e+003, 2.755129e+003
1.032169e+003, 2.753429e+003
1.032651e+003, 2.753718e+003
1.033133e+003, 2.756245e+003
1.033615e+003, 2.758523e+003
1.034097e+003, 2.760234e+003
1.034579e+003, 2.762379e+003
1.035062e+003, 2.765601e+003
1.035544e+003, 2.768574e+003
1.036026e+003, 2.770583e+003
1.036508e+003, 2.771583e+003
1.036990e+003, 2.771090e+003
1.037472e+003, 2.768366e+003
1.037954e+003, 2.768243e+003
1.038436e+003, 2.772552e+003
1.038919e+003, 2.776502e+003
1.039401e+003, 2.778564e+003
1.039883e+003, 2.780818e+003
1.040365e+003, 2.785009e+003
1.040847e+003, 2.790230e+003
1.041329e+003, 2.794458e+003
1.041811e+003, 2.797480e+003
1.042293e+003, 2.800867e+003
1.042776e+003, 2.804407e+003
1.043258e+003, 2.808726e+003
1.043740e+003, 2.814942e+003
1.044222e+003, 2.821008e+003
1.044704e+003, 2.825574e+003
1.045186e+003, 2.829061e+003
1.045668e+003, 2.831937e+003
1.046150e+003, 2.833911e+003
1.046632e+003, 2.837538e+003
1.047115e+003, 2.844925e+003
1.047597e+003, 2.851429e+003
1.048079e+003, 2.854938e+003
1.048561e+003, 2.858113e+003
1.049043e+003, 2.863134e+003
1.049525e+003, 2.869018e+003
1.050007e+003, 2.873867e+003
1.050489e+003, 2.877380e+003
1.050971e+003, 2.880566e+003
1.051454e+003, 2.884311e+003
1.051936e+003, 2.886771e+003
1.052418e+003, 2.886490e+003
1.052900e+003, 2.885603e+003
1.053382e+003, 2.886101e+003
1.053864e+003, 2.886941e+003
1.054346e+003, 2.886077e+003
1.054828e+003, 2.883198e+003
1.055311e+003, 2.879527e+003
1.055793e+003, 2.875479e+003
1.056275e+003, 2.870573e+003
1.056757e+003, 2.864035e+003
1.057239e+003, 2.857187e+003
1.057721e+003, 2.850698e+003
1.058203e+003, 2.844786e+003
1.058685e+003, 2.839830e+003
1.059167e+003, 2.835856e+003
1.059650e+003, 2.831595e+003
1.060132e+003, 2.827029e+003
1.060614e+003, 2.821568e+003
1.061096e+003, 2.814329e+003
1.061578e+003, 2.806720e+003
1.062060e+003, 2.798858e+003
1.062542e+003, 2.791751e+003
1.063024e+003, 2.787335e+003
1.063506e+003, 2.785680e+003
1.063989e+003, 2.783794e+003
1.064471e+003, 2.780715e+003
1.064953e+003, 2.776987e+003
1.065435e+003, 2.771731e+003
1.065917e+003, 2.766982e+003
1.066399e+003, 2.765616e+003
1.066881e+003, 2.765143e+003
1.067363e+003, 2.761096e+003
1.067846e+003, 2.753325e+003
1.068328e+003, 2.746487e+003
1.068810e+003, 2.742441e+003
1.069292e+003, 2.739445e+003
1.069774e+003, 2.737265e+003
1.070256e+003, 2.735320e+003
1.070738e+003, 2.733775e+003
1.071220e+003, 2.731851e+003
1.071703e+003, 2.727781e+003
1.072185e+003, 2.721968e+003
1.072667e+003, 2.717812e+003
1.073149e+003, 2.717412e+003
1.073631e+003, 2.716876e+003
1.074113e+003, 2.713987e+003
1.074595e+003, 2.710720e+003
1.075077e+003, 2.708852e+003
1.075559e+003, 2.707259e+003
1.076042e+003, 2.703559e+003
1.076524e+003, 2.698373e+003
1.077006e+003, 2.695716e+003
1.077488e+003, 2.698000e+003
1.077970e+003, 2.699532e+003
1.078452e+003, 2.696899e+003
1.078934e+003, 2.693473e+003
1.079416e+003, 2.691501e+003
1.079898e+003, 2.690078e+003
1.080380e+003, 2.687737e+003
1.080863e+003, 2.684767e+003
1.081345e+003, 2.683013e+003
1.081827e+003, 2.683655e+003
1.082309e+003, 2.682433e+003
1.082791e+003, 2.674410e+003
1.083273e+003, 2.667421e+003
1.083755e+003, 2.667693e+003
1.084237e+003, 2.670370e+003
1.084720e+003, 2.669867e+003
1.085202e+003, 2.667056e+003
1.085684e+003, 2.666118e+003
1.086166e+003, 2.668397e+003
1.086648e+003, 2.669763e+003
1.087130e+003, 2.667820e+003
1.087612e+003, 2.665321e+003
1.088094e+003, 2.663111e+003
1.088577e+003, 2.661489e+003
1.089059e+003, 2.661218e+003
1.089541e+003, 2.661571e+003
1.090023e+003, 2.660785e+003
1.090505e+003, 2.658501e+003
1.090987e+003, 2.657200e+003
1.091469e+003, 2.659101e+003
1.091951e+003, 2.660507e+003
1.092433e+003, 2.659521e+003
1.092916e+003, 2.657790e+003
1.093398e+003, 2.657054e+003
1.093880e+003, 2.656319e+003
1.094362e+003, 2.652978e+003
1.094844e+003, 2.647050e+003
1.095326e+003, 2.643419e+003
1.095808e+003, 2.644745e+003
1.096290e+003, 2.646969e+003
1.096772e+003, 2.650640e+003
1.097255e+003, 2.652783e+003
1.097737e+003, 2.649571e+003
1.098219e+003, 2.644866e+003
1.098701e+003, 2.644537e+003
1.099183e+003, 2.648262e+003
1.099665e+003, 2.649915e+003
1.100147e+003, 2.646144e+003
1.100629e+003, 2.644258e+003
1.101112e+003, 2.648252e+003
1.101594e+003, 2.652009e+003
1.102076e+003, 2.652262e+003
1.102558e+003, 2.650946e+003
1.103040e+003, 2.650009e+003
1.103522e+003, 2.649449e+003
1.104004e+003, 2.648485e+003
1.104486e+003, 2.646499e+003
1.104969e+003, 2.645700e+003
1.105451e+003, 2.647291e+003
1.105933e+003, 2.649075e+003
1.106415e+003, 2.650731e+003
1.106897e+003, 2.651886e+003
1.107379e+003, 2.651865e+003
1.107861e+003, 2.651219e+003
1.108343e+003, 2.651434e+003
1.108825e+003, 2.652911e+003
1.109307e+003, 2.653532e+003
1.109790e+003, 2.652545e+003
1.110272e+003, 2.651495e+003
1.110754e+003, 2.650784e+003
1.111236e+003, 2.650007e+003
1.111718e+003, 2.648938e+003
1.112200e+003, 2.647646e+003
1.112682e+003, 2.646298e+003
1.113164e+003, 2.644926e+003
1.113647e+003, 2.643124e+003
1.114129e+003, 2.640003e+003
1.114611e+003, 2.638011e+003
1.115093e+003, 2.638703e+003
1.115575e+003, 2.638653e+003
1.116057e+003, 2.635507e+003
1.116539e+003, 2.631744e+003
1.117021e+003, 2.630252e+003
1.117504e+003, 2.630765e+003
1.117986e+003, 2.631369e+003
1.118468e+003, 2.632419e+003
1.118950e+003, 2.632586e+003
1.119432e+003, 2.630962e+003
1.119914e+003, 2.630261e+003
1.120396e+003, 2.631683e+003
1.120878e+003, 2.633780e+003
1.121360e+003, 2.635733e+003
1.121843e+003, 2.637115e+003
1.122325e+003, 2.636455e+003
1.122807e+003, 2.633255e+003
1.123289e+003, 2.631273e+003
1.123771e+003, 2.631185e+003
1.124253e+003, 2.629790e+003
1.124735e+003, 2.625762e+003
1.125217e+003, 2.622369e+003
1.125699e+003, 2.621878e+003
1.126182e+003, 2.622858e+003
1.126664e+003, 2.622857e+003
1.127146e+003, 2.621949e+003
1.127628e+003, 2.621418e+003
1.128110e+003, 2.621267e+003
1.128592e+003, 2.621358e+003
1.129074e+003, 2.621615e+003
1.129556e+003, 2.622743e+003
1.130039e+003, 2.625311e+003
1.130521e+003, 2.627238e+003
1.131003e+003, 2.625882e+003
1.131485e+003, 2.622372e+003
1.131967e+003, 2.621028e+003
1.132449e+003, 2.621654e+003
1.132931e+003, 2.620414e+003
1.133413e+003, 2.617158e+003
1.133896e+003, 2.615062e+003
1.134378e+003, 2.615095e+003
1.134860e+003, 2.616320e+003
1.135342e+003, 2.618217e+003
1.135824e+003, 2.619802e+003
1.136306e+003, 2.618581e+003
1.136788e+003, 2.615599e+003
1.137270e+003, 2.615317e+003
1.137752e+003, 2.617132e+003
1.138234e+003, 2.617712e+003
1.138717e+003, 2.616617e+003
1.139199e+003, 2.615676e+003
1.139681e+003, 2.615827e+003
1.140163e+003, 2.616182e+003
1.140645e+003, 2.616071e+003
1.141127e+003, 2.615188e+003
1.141609e+003, 2.612269e+003
1.142091e+003, 2.608433e+003
1.142574e+003, 2.606187e+003
1.143056e+003, 2.605456e+003
1.143538e+003, 2.605104e+003
1.144020e+003, 2.604692e+003
1.144502e+003, 2.603924e+003
1.144984e+003, 2.602169e+003
1.145466e+003, 2.600974e+003
1.145948e+003, 2.603268e+003
1.146431e+003, 2.605986e+003
1.146913e+003, 2.604404e+003
1.147395e+003, 2.600658e+003
1.147877e+003, 2.599320e+003
1.148359e+003, 2.600490e+003
1.148841e+003, 2.600732e+003
1.149323e+003, 2.598434e+003
1.149805e+003, 2.596045e+003
1.150287e+003, 2.595070e+003
1.150770e+003, 2.594590e+003
1.151252e+003, 2.594775e+003
1.151734e+003, 2.594427e+003
1.152216e+003, 2.591783e+003
1.152698e+003, 2.587702e+003
1.153180e+003, 2.584255e+003
1.153662e+003, 2.581886e+003
1.154144e+003, 2.579907e+003
1.154626e+003, 2.578416e+003
1.155109e+003, 2.576823e+003
1.155591e+003, 2.575086e+003
1.156073e+003, 2.573046e+003
1.156555e+003, 2.570121e+003
1.157037e+003, 2.567147e+003
1.157519e+003, 2.565437e+003
1.158001e+003, 2.564794e+003
1.158483e+003, 2.563359e+003
1.158966e+003, 2.560001e+003
1.159448e+003, 2.557862e+003
1.159930e+003, 2.558885e+003
1.160412e+003, 2.558691e+003
1.160894e+003, 2.554522e+003
1.161376e+003, 2.550580e+003
1.161858e+003, 2.550963e+003
1.162340e+003, 2.553173e+003
1.162822e+003, 2.551439e+003
1.163305e+003, 2.545206e+003
1.163787e+003, 2.541106e+003
1.164269e+003, 2.540167e+003
1.164751e+003, 2.538287e+003
1.165233e+003, 2.534525e+003
1.165715e+003, 2.531051e+003
1.166197e+003, 2.528961e+003
1.166679e+003, 2.527337e+003
1.167161e+003, 2.524962e+003
1.167644e+003, 2.522261e+003
1.168126e+003, 2.521352e+003
1.168608e+003, 2.522341e+003
1.169090e+003, 2.521329e+003
1.169572e+003, 2.518091e+003
1.170054e+003, 2.515073e+003
1.170536e+003, 2.512932e+003
1.171018e+003, 2.511866e+003
1.171500e+003, 2.512218e+003
1.171983e+003, 2.512221e+003
1.172465e+003, 2.508113e+003
1.172947e+003, 2.501698e+003
1.173429e+003, 2.499415e+003
1.173911e+003, 2.500188e+003
1.174393e+003, 2.500073e+003
1.174875e+003, 2.498655e+003
1.175357e+003, 2.496957e+003
1.175840e+003, 2.495363e+003
1.176322e+003, 2.493453e+003
1.176804e+003, 2.490442e+003
1.177286e+003, 2.487911e+003
1.177768e+003, 2.488308e+003
1.178250e+003, 2.490083e+003
1.178732e+003, 2.491734e+003
1.179214e+003, 2.492645e+003
1.179697e+003, 2.491368e+003
1.180179e+003, 2.488379e+003
1.180661e+003, 2.486458e+003
1.181143e+003, 2.486868e+003
1.181625e+003, 2.487418e+003
1.182107e+003, 2.486769e+003
1.182589e+003, 2.485821e+003
1.183071e+003, 2.484832e+003
1.183553e+003, 2.484117e+003
1.184036e+003, 2.484695e+003
1.184518e+003, 2.485446e+003
1.185000e+003, 2.483855e+003
1.185482e+003, 2.479762e+003
1.185964e+003, 2.476862e+003
1.186446e+003, 2.477224e+003
1.186928e+003, 2.476847e+003
1.187410e+003, 2.474361e+003
1.187892e+003, 2.471917e+003
1.188375e+003, 2.469867e+003
1.188857e+003, 2.468812e+003
1.189339e+003, 2.470003e+003
1.189821e+003, 2.472417e+003
1.190303e+003, 2.473052e+003
1.190785e+003, 2.471715e+003
1.191267e+003, 2.469535e+003
1.191749e+003, 2.465271e+003
1.192232e+003, 2.464111e+003
1.192714e+003, 2.468385e+003
1.193196e+003, 2.471157e+003
1.193678e+003, 2.468450e+003
1.194160e+003, 2.464037e+003
1.194642e+003, 2.462486e+003
1.195124e+003, 2.463124e+003
1.195606e+003, 2.463652e+003
1.196089e+003, 2.464025e+003
1.196571e+003, 2.462879e+003
1.197053e+003, 2.460256e+003
1.197535e+003, 2.458323e+003
1.198017e+003, 2.457613e+003
1.198499e+003, 2.457361e+003
1.198981e+003, 2.457120e+003
1.199463e+003, 2.456855e+003
1.199945e+003, 2.456639e+003
1.200427e+003, 2.456294e+003
1.200910e+003, 2.455403e+003
1.201392e+003, 2.454117e+003
1.201874e+003, 2.452560e+003
1.202356e+003, 2.450952e+003
1.202838e+003, 2.449882e+003
1.203320e+003, 2.449434e+003
1.203802e+003, 2.449027e+003
1.204284e+003, 2.448346e+003
1.204767e+003, 2.447528e+003
1.205249e+003, 2.447291e+003
1.205731e+003, 2.446310e+003
1.206213e+003, 2.442371e+003
1.206695e+003, 2.437891e+003
1.207177e+003, 2.436241e+003
1.207659e+003, 2.436507e+003
1.208141e+003, 2.435418e+003
1.208624e+003, 2.432242e+003
1.209106e+003, 2.429584e+003
1.209588e+003, 2.427991e+003
1.210070e+003, 2.427109e+003
1.210552e+003, 2.427928e+003
1.211034e+003, 2.428159e+003
1.211516e+003, 2.425909e+003
1.211998e+003, 2.423173e+003
1.212480e+003, 2.422433e+003
1.212963e+003, 2.422745e+003
1.213445e+003, 2.420297e+003
1.213927e+003, 2.414037e+003
1.214409e+003, 2.410566e+003
1.214891e+003, 2.411116e+003
1.215373e+003, 2.409146e+003
1.215855e+003, 2.402860e+003
1.216337e+003, 2.396821e+003
1.216819e+003, 2.393533e+003
1.217302e+003, 2.391279e+003
1.217784e+003, 2.387961e+003
1.218266e+003, 2.384051e+003
1.218748e+003, 2.381358e+003
1.219230e+003, 2.379443e+003
1.219712e+003, 2.375217e+003
1.220194e+003, 2.369301e+003
1.220676e+003, 2.365858e+003
1.221159e+003, 2.365513e+003
1.221641e+003, 2.365370e+003
1.222123e+003, 2.363854e+003
1.222605e+003, 2.362370e+003
1.223087e+003, 2.363178e+003
1.223569e+003, 2.363872e+003
1.224051e+003, 2.360656e+003
1.224533e+003, 2.356397e+003
1.225016e+003, 2.355342e+003
1.225498e+003, 2.356058e+003
1.225980e+003, 2.354969e+003
1.226462e+003, 2.351764e+003
1.226944e+003, 2.348943e+003
1.227426e+003, 2.347238e+003
1.227908e+003, 2.346329e+003
1.228390e+003, 2.347067e+003
1.228872e+003, 2.347289e+003
1.229354e+003, 2.345835e+003
1.229837e+003, 2.343751e+003
1.230319e+003, 2.341684e+003
1.230801e+003, 2.339667e+003
1.231283e+003, 2.337824e+003
1.231765e+003, 2.336142e+003
1.232247e+003, 2.333706e+003
1.232729e+003, 2.329887e+003
1.233211e+003, 2.327445e+003
1.233694e+003, 2.326905e+003
1.234176e+003, 2.326287e+003
1.234658e+003, 2.324921e+003
1.235140e+003, 2.323924e+003
1.235622e+003, 2.324369e+003
1.236104e+003, 2.324495e+003
1.236586e+003, 2.320595e+003
1.237068e+003, 2.314136e+003
1.237551e+003, 2.311747e+003
1.238033e+003, 2.312387e+003
1.238515e+003, 2.311415e+003
1.238997e+003, 2.308626e+003
1.239479e+003, 2.305558e+003
1.239961e+003, 2.302744e+003
1.240443e+003, 2.300242e+003
1.240925e+003, 2.298163e+003
1.241407e+003, 2.296033e+003
1.241890e+003, 2.292877e+003
1.242372e+003, 2.290000e+003
1.242854e+003, 2.288754e+003
1.243336e+003, 2.288470e+003
1.243818e+003, 2.288435e+003
1.244300e+003, 2.288594e+003
1.244782e+003, 2.289453e+003
1.245264e+003, 2.290922e+003
1.245746e+003, 2.290862e+003
1.246229e+003, 2.287655e+003
1.246711e+003, 2.284861e+003
1.247193e+003, 2.282357e+003
1.247675e+003, 2.281360e+003
1.248157e+003, 2.284121e+003
1.248639e+003, 2.286197e+003
1.249121e+003, 2.283706e+003
1.249603e+003, 2.279259e+003
1.250085e+003, 2.277662e+003
1.250568e+003, 2.278716e+003
1.251050e+003, 2.279070e+003
1.251532e+003, 2.278707e+003
1.252014e+003, 2.277445e+003
1.252496e+003, 2.275202e+003
1.252978e+003, 2.273813e+003
1.253460e+003, 2.273825e+003
1.253942e+003, 2.274057e+003
1.254425e+003, 2.273640e+003
1.254907e+003, 2.273649e+003
1.255389e+003, 2.276641e+003
1.255871e+003, 2.280286e+003
1.256353e+003, 2.279848e+003
1.256835e+003, 2.276981e+003
1.257317e+003, 2.273952e+003
1.257799e+003, 2.271500e+003
1.258281e+003, 2.270879e+003
1.258764e+003, 2.271940e+003
1.259246e+003, 2.272335e+003
1.259728e+003, 2.270831e+003
1.260210e+003, 2.269532e+003
1.260692e+003, 2.269671e+003
1.261174e+003, 2.269929e+003
1.261656e+003, 2.269655e+003
1.262138e+003, 2.269280e+003
1.262620e+003, 2.269333e+003
1.263103e+003, 2.269388e+003
1.263585e+003, 2.268785e+003
1.264067e+003, 2.267540e+003
1.264549e+003, 2.265708e+003
1.265031e+003, 2.262257e+003
1.265513e+003, 2.262148e+003
1.265995e+003, 2.266660e+003
1.266477e+003, 2.268390e+003
1.266960e+003, 2.265240e+003
1.267442e+003, 2.262358e+003
1.267924e+003, 2.262718e+003
1.268406e+003, 2.263686e+003
1.268888e+003, 2.261962e+003
1.269370e+003, 2.258893e+003
1.269852e+003, 2.257420e+003
1.270334e+003, 2.257165e+003
1.270817e+003, 2.257478e+003
1.271299e+003, 2.258066e+003
1.271781e+003, 2.258670e+003
1.272263e+003, 2.258932e+003
1.272745e+003, 2.257617e+003
1.273227e+003, 2.254251e+003
1.273709e+003, 2.251190e+003
1.274191e+003, 2.250386e+003
1.274673e+003, 2.249489e+003
1.275156e+003, 2.246036e+003
1.275638e+003, 2.243520e+003
1.276120e+003, 2.244805e+003
1.276602e+003, 2.247838e+003
1.277084e+003, 2.250805e+003
1.277566e+003, 2.253355e+003
1.278048e+003, 2.254843e+003
1.278530e+003, 2.255281e+003
1.279012e+003, 2.254448e+003
1.279495e+003, 2.251614e+003
1.279977e+003, 2.249829e+003
1.280459e+003, 2.249690e+003
1.280941e+003, 2.249818e+003
1.281423e+003, 2.249747e+003
1.281905e+003, 2.249312e+003
1.282387e+003, 2.248327e+003
1.282869e+003, 2.247263e+003
1.283352e+003, 2.247179e+003
1.283834e+003, 2.247240e+003
1.284316e+003, 2.245494e+003
1.284798e+003, 2.242049e+003
##END=



