##NAMES=Scottyite
##RRUFFID=R141116
##IDEAL CHEMISTRY=BaCu^2+^_2_Si_2_O_7_
##LOCALITY=Wessels mine, Kalahari manganese field, Northern Cape Province, South Africa
##OWNER=RRUFF
##SOURCE=Jaco and Tania Janse van Nieuwenhuizen
##DESCRIPTION=Dark blue granular or blocky crystals associated with light-blue platy lavinskyite (R141115) and blue wesselsite.
##STATUS=The identification of this mineral is confirmed by single-crystal X-ray diffraction and chemical analysis.
##URL=rruff.info/R141116
##MEASURED CHEMISTRY=Ba_1.01_Sr_0.02_Cu_2.03_Na_0.01_Si_1.97_O_7_; (Scottyite is light grey material in image, associated with dark grey R141115 lavinskyite)
8.930109e+001, 0.000000e+000
8.978320e+001, 3.670211e+002
9.026532e+001, 3.674496e+002
9.074744e+001, 3.678344e+002
9.122955e+001, 3.680855e+002
9.171167e+001, 3.689199e+002
9.219379e+001, 3.731480e+002
9.267590e+001, 3.800206e+002
9.315802e+001, 3.825424e+002
9.364014e+001, 3.713902e+002
9.412225e+001, 3.514342e+002
9.460437e+001, 3.367844e+002
9.508649e+001, 3.334502e+002
9.556860e+001, 3.359955e+002
9.605072e+001, 3.313675e+002
9.653284e+001, 3.195174e+002
9.701495e+001, 3.059128e+002
9.749707e+001, 2.951397e+002
9.797919e+001, 2.870431e+002
9.846130e+001, 2.808817e+002
9.894342e+001, 2.763643e+002
9.942554e+001, 2.734175e+002
9.990765e+001, 2.726878e+002
1.003898e+002, 2.752534e+002
1.008719e+002, 2.778506e+002
1.013540e+002, 2.750774e+002
1.018361e+002, 2.655105e+002
1.023182e+002, 2.562430e+002
1.028004e+002, 2.497461e+002
1.032825e+002, 2.463795e+002
1.037646e+002, 2.440695e+002
1.042467e+002, 2.429074e+002
1.047288e+002, 2.427046e+002
1.052109e+002, 2.428406e+002
1.056931e+002, 2.420657e+002
1.061752e+002, 2.432699e+002
1.066573e+002, 2.479649e+002
1.071394e+002, 2.591498e+002
1.076215e+002, 2.686783e+002
1.081036e+002, 2.781978e+002
1.085858e+002, 2.867420e+002
1.090679e+002, 2.882683e+002
1.095500e+002, 2.766320e+002
1.100321e+002, 2.627205e+002
1.105142e+002, 2.524013e+002
1.109963e+002, 2.472027e+002
1.114785e+002, 2.437056e+002
1.119606e+002, 2.416777e+002
1.124427e+002, 2.410671e+002
1.129248e+002, 2.416238e+002
1.134069e+002, 2.439943e+002
1.138890e+002, 2.471300e+002
1.143712e+002, 2.502193e+002
1.148533e+002, 2.509410e+002
1.153354e+002, 2.535140e+002
1.158175e+002, 2.604823e+002
1.162996e+002, 2.725023e+002
1.167817e+002, 2.827675e+002
1.172639e+002, 2.862268e+002
1.177460e+002, 2.873133e+002
1.182281e+002, 2.916493e+002
1.187102e+002, 3.029538e+002
1.191923e+002, 3.169368e+002
1.196744e+002, 3.300843e+002
1.201566e+002, 3.410272e+002
1.206387e+002, 3.558686e+002
1.211208e+002, 3.782937e+002
1.216029e+002, 4.072283e+002
1.220850e+002, 4.404045e+002
1.225671e+002, 4.909835e+002
1.230493e+002, 5.390017e+002
1.235314e+002, 5.644863e+002
1.240135e+002, 5.636031e+002
1.244956e+002, 5.412857e+002
1.249777e+002, 4.907127e+002
1.254598e+002, 4.185398e+002
1.259420e+002, 3.507518e+002
1.264241e+002, 3.033989e+002
1.269062e+002, 2.720282e+002
1.273883e+002, 2.491203e+002
1.278704e+002, 2.345166e+002
1.283525e+002, 2.258453e+002
1.288347e+002, 2.208337e+002
1.293168e+002, 2.193399e+002
1.297989e+002, 2.190319e+002
1.302810e+002, 2.180794e+002
1.307631e+002, 2.167310e+002
1.312452e+002, 2.161150e+002
1.317274e+002, 2.171728e+002
1.322095e+002, 2.188384e+002
1.326916e+002, 2.178846e+002
1.331737e+002, 2.140255e+002
1.336558e+002, 2.094335e+002
1.341379e+002, 2.059567e+002
1.346201e+002, 2.035891e+002
1.351022e+002, 2.018320e+002
1.355843e+002, 2.004096e+002
1.360664e+002, 1.994243e+002
1.365485e+002, 1.999769e+002
1.370306e+002, 2.024468e+002
1.375128e+002, 2.055751e+002
1.379949e+002, 2.073571e+002
1.384770e+002, 2.071582e+002
1.389591e+002, 2.089050e+002
1.394412e+002, 2.149798e+002
1.399233e+002, 2.258954e+002
1.404055e+002, 2.331208e+002
1.408876e+002, 2.357120e+002
1.413697e+002, 2.355630e+002
1.418518e+002, 2.355977e+002
1.423339e+002, 2.356671e+002
1.428160e+002, 2.362330e+002
1.432982e+002, 2.373685e+002
1.437803e+002, 2.388464e+002
1.442624e+002, 2.417346e+002
1.447445e+002, 2.468973e+002
1.452266e+002, 2.532049e+002
1.457087e+002, 2.576849e+002
1.461909e+002, 2.586711e+002
1.466730e+002, 2.600482e+002
1.471551e+002, 2.634703e+002
1.476372e+002, 2.704899e+002
1.481193e+002, 2.768543e+002
1.486014e+002, 2.816810e+002
1.490836e+002, 2.857237e+002
1.495657e+002, 2.918312e+002
1.500478e+002, 3.007477e+002
1.505299e+002, 3.109792e+002
1.510120e+002, 3.219702e+002
1.514941e+002, 3.324108e+002
1.519763e+002, 3.449868e+002
1.524584e+002, 3.608971e+002
1.529405e+002, 3.794512e+002
1.534226e+002, 3.974720e+002
1.539047e+002, 4.128909e+002
1.543868e+002, 4.288979e+002
1.548690e+002, 4.472287e+002
1.553511e+002, 4.702486e+002
1.558332e+002, 4.932733e+002
1.563153e+002, 5.148346e+002
1.567974e+002, 5.352548e+002
1.572795e+002, 5.572005e+002
1.577617e+002, 5.803275e+002
1.582438e+002, 6.056740e+002
1.587259e+002, 6.339923e+002
1.592080e+002, 6.696424e+002
1.596901e+002, 7.043016e+002
1.601722e+002, 7.386283e+002
1.606544e+002, 7.720788e+002
1.611365e+002, 7.953881e+002
1.616186e+002, 8.089006e+002
1.621007e+002, 8.092302e+002
1.625828e+002, 7.935048e+002
1.630649e+002, 7.525182e+002
1.635471e+002, 7.020216e+002
1.640292e+002, 6.449540e+002
1.645113e+002, 5.814616e+002
1.649934e+002, 5.232230e+002
1.654755e+002, 4.755669e+002
1.659576e+002, 4.364475e+002
1.664398e+002, 4.039005e+002
1.669219e+002, 3.787210e+002
1.674040e+002, 3.582406e+002
1.678861e+002, 3.411818e+002
1.683682e+002, 3.273802e+002
1.688503e+002, 3.167912e+002
1.693325e+002, 3.103093e+002
1.698146e+002, 3.069091e+002
1.702967e+002, 3.050003e+002
1.707788e+002, 3.051468e+002
1.712609e+002, 3.057282e+002
1.717430e+002, 3.059833e+002
1.722252e+002, 3.061041e+002
1.727073e+002, 3.038013e+002
1.731894e+002, 2.955767e+002
1.736715e+002, 2.833501e+002
1.741536e+002, 2.717581e+002
1.746357e+002, 2.628449e+002
1.751179e+002, 2.556559e+002
1.756000e+002, 2.494658e+002
1.760821e+002, 2.445186e+002
1.765642e+002, 2.392148e+002
1.770463e+002, 2.318361e+002
1.775284e+002, 2.227539e+002
1.780106e+002, 2.132497e+002
1.784927e+002, 2.031695e+002
1.789748e+002, 1.932507e+002
1.794569e+002, 1.850025e+002
1.799390e+002, 1.785751e+002
1.804211e+002, 1.734794e+002
1.809033e+002, 1.691663e+002
1.813854e+002, 1.656241e+002
1.818675e+002, 1.628902e+002
1.823496e+002, 1.613728e+002
1.828317e+002, 1.606553e+002
1.833138e+002, 1.596713e+002
1.837960e+002, 1.583024e+002
1.842781e+002, 1.567001e+002
1.847602e+002, 1.547116e+002
1.852423e+002, 1.524459e+002
1.857244e+002, 1.509745e+002
1.862065e+002, 1.515993e+002
1.866887e+002, 1.536816e+002
1.871708e+002, 1.547455e+002
1.876529e+002, 1.543511e+002
1.881350e+002, 1.532114e+002
1.886171e+002, 1.524270e+002
1.890992e+002, 1.519870e+002
1.895814e+002, 1.517448e+002
1.900635e+002, 1.516394e+002
1.905456e+002, 1.516628e+002
1.910277e+002, 1.518787e+002
1.915098e+002, 1.524883e+002
1.919919e+002, 1.529969e+002
1.924741e+002, 1.521766e+002
1.929562e+002, 1.499815e+002
1.934383e+002, 1.475835e+002
1.939204e+002, 1.456038e+002
1.944025e+002, 1.440522e+002
1.948846e+002, 1.432247e+002
1.953668e+002, 1.434202e+002
1.958489e+002, 1.440640e+002
1.963310e+002, 1.436069e+002
1.968131e+002, 1.419035e+002
1.972952e+002, 1.402049e+002
1.977773e+002, 1.393998e+002
1.982595e+002, 1.395175e+002
1.987416e+002, 1.396905e+002
1.992237e+002, 1.398893e+002
1.997058e+002, 1.400249e+002
2.001879e+002, 1.397151e+002
2.006700e+002, 1.388276e+002
2.011522e+002, 1.380842e+002
2.016343e+002, 1.380514e+002
2.021164e+002, 1.388001e+002
2.025985e+002, 1.395584e+002
2.030806e+002, 1.402562e+002
2.035627e+002, 1.408863e+002
2.040449e+002, 1.414268e+002
2.045270e+002, 1.418905e+002
2.050091e+002, 1.422199e+002
2.054912e+002, 1.422717e+002
2.059733e+002, 1.419458e+002
2.064554e+002, 1.419545e+002
2.069376e+002, 1.424411e+002
2.074197e+002, 1.433015e+002
2.079018e+002, 1.441951e+002
2.083839e+002, 1.451584e+002
2.088660e+002, 1.460677e+002
2.093481e+002, 1.467786e+002
2.098303e+002, 1.472154e+002
2.103124e+002, 1.478156e+002
2.107945e+002, 1.486286e+002
2.112766e+002, 1.496402e+002
2.117587e+002, 1.509483e+002
2.122408e+002, 1.528456e+002
2.127230e+002, 1.544291e+002
2.132051e+002, 1.548268e+002
2.136872e+002, 1.533740e+002
2.141693e+002, 1.530935e+002
2.146514e+002, 1.546149e+002
2.151335e+002, 1.575538e+002
2.156157e+002, 1.601293e+002
2.160978e+002, 1.624268e+002
2.165799e+002, 1.642331e+002
2.170620e+002, 1.654559e+002
2.175441e+002, 1.661318e+002
2.180262e+002, 1.660933e+002
2.185084e+002, 1.652822e+002
2.189905e+002, 1.637270e+002
2.194726e+002, 1.615192e+002
2.199547e+002, 1.581306e+002
2.204368e+002, 1.549303e+002
2.209189e+002, 1.529113e+002
2.214011e+002, 1.525327e+002
2.218832e+002, 1.520915e+002
2.223653e+002, 1.514251e+002
2.228474e+002, 1.505949e+002
2.233295e+002, 1.498823e+002
2.238116e+002, 1.494970e+002
2.242938e+002, 1.489289e+002
2.247759e+002, 1.478181e+002
2.252580e+002, 1.459108e+002
2.257401e+002, 1.440930e+002
2.262222e+002, 1.424297e+002
2.267043e+002, 1.409002e+002
2.271865e+002, 1.393296e+002
2.276686e+002, 1.376696e+002
2.281507e+002, 1.360839e+002
2.286328e+002, 1.346571e+002
2.291149e+002, 1.333118e+002
2.295970e+002, 1.323479e+002
2.300792e+002, 1.320185e+002
2.305613e+002, 1.320864e+002
2.310434e+002, 1.315607e+002
2.315255e+002, 1.300083e+002
2.320076e+002, 1.285141e+002
2.324897e+002, 1.277029e+002
2.329719e+002, 1.278751e+002
2.334540e+002, 1.280780e+002
2.339361e+002, 1.283718e+002
2.344182e+002, 1.286671e+002
2.349003e+002, 1.285973e+002
2.353824e+002, 1.278224e+002
2.358646e+002, 1.271692e+002
2.363467e+002, 1.270892e+002
2.368288e+002, 1.279199e+002
2.373109e+002, 1.285892e+002
2.377930e+002, 1.291443e+002
2.382751e+002, 1.295077e+002
2.387573e+002, 1.293665e+002
2.392394e+002, 1.283201e+002
2.397215e+002, 1.273405e+002
2.402036e+002, 1.268575e+002
2.406857e+002, 1.270151e+002
2.411678e+002, 1.273621e+002
2.416500e+002, 1.280141e+002
2.421321e+002, 1.288185e+002
2.426142e+002, 1.293741e+002
2.430963e+002, 1.294881e+002
2.435784e+002, 1.296344e+002
2.440605e+002, 1.300775e+002
2.445427e+002, 1.311404e+002
2.450248e+002, 1.316736e+002
2.455069e+002, 1.315764e+002
2.459890e+002, 1.309899e+002
2.464711e+002, 1.301686e+002
2.469532e+002, 1.288495e+002
2.474354e+002, 1.277221e+002
2.479175e+002, 1.271150e+002
2.483996e+002, 1.272429e+002
2.488817e+002, 1.271847e+002
2.493638e+002, 1.268921e+002
2.498459e+002, 1.264446e+002
2.503281e+002, 1.259490e+002
2.508102e+002, 1.252551e+002
2.512923e+002, 1.247820e+002
2.517744e+002, 1.247412e+002
2.522565e+002, 1.252956e+002
2.527386e+002, 1.255756e+002
2.532208e+002, 1.254168e+002
2.537029e+002, 1.251050e+002
2.541850e+002, 1.251283e+002
2.546671e+002, 1.257240e+002
2.551492e+002, 1.261869e+002
2.556313e+002, 1.262628e+002
2.561135e+002, 1.258843e+002
2.565956e+002, 1.255436e+002
2.570777e+002, 1.251919e+002
2.575598e+002, 1.249238e+002
2.580419e+002, 1.248832e+002
2.585240e+002, 1.251339e+002
2.590062e+002, 1.254656e+002
2.594883e+002, 1.258437e+002
2.599704e+002, 1.262663e+002
2.604525e+002, 1.266386e+002
2.609346e+002, 1.268878e+002
2.614167e+002, 1.271715e+002
2.618989e+002, 1.277539e+002
2.623810e+002, 1.288642e+002
2.628631e+002, 1.296299e+002
2.633452e+002, 1.296920e+002
2.638273e+002, 1.290594e+002
2.643094e+002, 1.290093e+002
2.647916e+002, 1.298257e+002
2.652737e+002, 1.307740e+002
2.657558e+002, 1.311651e+002
2.662379e+002, 1.309200e+002
2.667200e+002, 1.303460e+002
2.672021e+002, 1.293872e+002
2.676843e+002, 1.281029e+002
2.681664e+002, 1.270052e+002
2.686485e+002, 1.260512e+002
2.691306e+002, 1.253717e+002
2.696127e+002, 1.251160e+002
2.700948e+002, 1.253342e+002
2.705770e+002, 1.257555e+002
2.710591e+002, 1.263941e+002
2.715412e+002, 1.271920e+002
2.720233e+002, 1.279081e+002
2.725054e+002, 1.285311e+002
2.729875e+002, 1.290646e+002
2.734697e+002, 1.295779e+002
2.739518e+002, 1.301337e+002
2.744339e+002, 1.302253e+002
2.749160e+002, 1.296438e+002
2.753981e+002, 1.286510e+002
2.758802e+002, 1.279933e+002
2.763624e+002, 1.276943e+002
2.768445e+002, 1.276854e+002
2.773266e+002, 1.280305e+002
2.778087e+002, 1.287641e+002
2.782908e+002, 1.293680e+002
2.787729e+002, 1.298379e+002
2.792551e+002, 1.301155e+002
2.797372e+002, 1.298347e+002
2.802193e+002, 1.288471e+002
2.807014e+002, 1.282791e+002
2.811835e+002, 1.291080e+002
2.816656e+002, 1.313014e+002
2.821478e+002, 1.324516e+002
2.826299e+002, 1.321924e+002
2.831120e+002, 1.314050e+002
2.835941e+002, 1.316174e+002
2.840762e+002, 1.328762e+002
2.845583e+002, 1.342578e+002
2.850405e+002, 1.353064e+002
2.855226e+002, 1.360758e+002
2.860047e+002, 1.371136e+002
2.864868e+002, 1.384839e+002
2.869689e+002, 1.399192e+002
2.874510e+002, 1.408893e+002
2.879332e+002, 1.414335e+002
2.884153e+002, 1.423902e+002
2.888974e+002, 1.443329e+002
2.893795e+002, 1.469511e+002
2.898616e+002, 1.489848e+002
2.903438e+002, 1.503847e+002
2.908259e+002, 1.515369e+002
2.913080e+002, 1.525850e+002
2.917901e+002, 1.536266e+002
2.922722e+002, 1.553348e+002
2.927543e+002, 1.580718e+002
2.932365e+002, 1.615318e+002
2.937186e+002, 1.650656e+002
2.942007e+002, 1.686434e+002
2.946828e+002, 1.722583e+002
2.951649e+002, 1.755792e+002
2.956470e+002, 1.788466e+002
2.961292e+002, 1.830256e+002
2.966113e+002, 1.885444e+002
2.970934e+002, 1.948324e+002
2.975755e+002, 2.008793e+002
2.980576e+002, 2.067942e+002
2.985397e+002, 2.133706e+002
2.990219e+002, 2.215787e+002
2.995040e+002, 2.309436e+002
2.999861e+002, 2.402527e+002
3.004682e+002, 2.490853e+002
3.009503e+002, 2.581561e+002
3.014324e+002, 2.689222e+002
3.019146e+002, 2.809011e+002
3.023967e+002, 2.925283e+002
3.028788e+002, 3.033697e+002
3.033609e+002, 3.130130e+002
3.038430e+002, 3.208024e+002
3.043251e+002, 3.267592e+002
3.048073e+002, 3.304489e+002
3.052894e+002, 3.309183e+002
3.057715e+002, 3.287711e+002
3.062536e+002, 3.254901e+002
3.067357e+002, 3.210970e+002
3.072178e+002, 3.163300e+002
3.077000e+002, 3.116036e+002
3.081821e+002, 3.068161e+002
3.086642e+002, 3.033596e+002
3.091463e+002, 3.022626e+002
3.096284e+002, 3.031626e+002
3.101105e+002, 3.055049e+002
3.105927e+002, 3.093213e+002
3.110748e+002, 3.142793e+002
3.115569e+002, 3.203426e+002
3.120390e+002, 3.275088e+002
3.125211e+002, 3.353120e+002
3.130032e+002, 3.442990e+002
3.134854e+002, 3.535788e+002
3.139675e+002, 3.620850e+002
3.144496e+002, 3.708648e+002
3.149317e+002, 3.775260e+002
3.154138e+002, 3.814053e+002
3.158959e+002, 3.823857e+002
3.163781e+002, 3.799599e+002
3.168602e+002, 3.727608e+002
3.173423e+002, 3.627664e+002
3.178244e+002, 3.513202e+002
3.183065e+002, 3.380207e+002
3.187886e+002, 3.243268e+002
3.192708e+002, 3.104082e+002
3.197529e+002, 2.964807e+002
3.202350e+002, 2.831006e+002
3.207171e+002, 2.706779e+002
3.211992e+002, 2.588090e+002
3.216813e+002, 2.473386e+002
3.221635e+002, 2.362681e+002
3.226456e+002, 2.255366e+002
3.231277e+002, 2.145164e+002
3.236098e+002, 2.039191e+002
3.240919e+002, 1.948976e+002
3.245740e+002, 1.883812e+002
3.250562e+002, 1.828978e+002
3.255383e+002, 1.780515e+002
3.260204e+002, 1.738040e+002
3.265025e+002, 1.702700e+002
3.269846e+002, 1.676076e+002
3.274667e+002, 1.656131e+002
3.279489e+002, 1.640429e+002
3.284310e+002, 1.637243e+002
3.289131e+002, 1.628913e+002
3.293952e+002, 1.610032e+002
3.298773e+002, 1.580221e+002
3.303594e+002, 1.556450e+002
3.308416e+002, 1.541951e+002
3.313237e+002, 1.531001e+002
3.318058e+002, 1.519502e+002
3.322879e+002, 1.505072e+002
3.327700e+002, 1.494372e+002
3.332521e+002, 1.490282e+002
3.337343e+002, 1.490613e+002
3.342164e+002, 1.483765e+002
3.346985e+002, 1.464241e+002
3.351806e+002, 1.446179e+002
3.356627e+002, 1.438417e+002
3.361448e+002, 1.446293e+002
3.366270e+002, 1.447711e+002
3.371091e+002, 1.439563e+002
3.375912e+002, 1.426606e+002
3.380733e+002, 1.418674e+002
3.385554e+002, 1.417098e+002
3.390375e+002, 1.416534e+002
3.395197e+002, 1.415323e+002
3.400018e+002, 1.413541e+002
3.404839e+002, 1.409667e+002
3.409660e+002, 1.403136e+002
3.414481e+002, 1.395903e+002
3.419302e+002, 1.389748e+002
3.424124e+002, 1.384425e+002
3.428945e+002, 1.383090e+002
3.433766e+002, 1.388454e+002
3.438587e+002, 1.398463e+002
3.443408e+002, 1.402928e+002
3.448229e+002, 1.401042e+002
3.453051e+002, 1.398936e+002
3.457872e+002, 1.401846e+002
3.462693e+002, 1.409393e+002
3.467514e+002, 1.419407e+002
3.472335e+002, 1.431425e+002
3.477156e+002, 1.445612e+002
3.481978e+002, 1.461050e+002
3.486799e+002, 1.477994e+002
3.491620e+002, 1.499572e+002
3.496441e+002, 1.532630e+002
3.501262e+002, 1.571621e+002
3.506083e+002, 1.602607e+002
3.510905e+002, 1.623170e+002
3.515726e+002, 1.639525e+002
3.520547e+002, 1.656137e+002
3.525368e+002, 1.674057e+002
3.530189e+002, 1.696478e+002
3.535010e+002, 1.725581e+002
3.539832e+002, 1.759787e+002
3.544653e+002, 1.797472e+002
3.549474e+002, 1.838919e+002
3.554295e+002, 1.882953e+002
3.559116e+002, 1.926704e+002
3.563937e+002, 1.973148e+002
3.568759e+002, 2.026133e+002
3.573580e+002, 2.098690e+002
3.578401e+002, 2.169130e+002
3.583222e+002, 2.224385e+002
3.588043e+002, 2.265319e+002
3.592864e+002, 2.293915e+002
3.597686e+002, 2.315560e+002
3.602507e+002, 2.323178e+002
3.607328e+002, 2.310497e+002
3.612149e+002, 2.274397e+002
3.616970e+002, 2.220925e+002
3.621791e+002, 2.144888e+002
3.626613e+002, 2.052956e+002
3.631434e+002, 1.960510e+002
3.636255e+002, 1.868840e+002
3.641076e+002, 1.780594e+002
3.645897e+002, 1.695503e+002
3.650718e+002, 1.613825e+002
3.655540e+002, 1.540423e+002
3.660361e+002, 1.476938e+002
3.665182e+002, 1.422051e+002
3.670003e+002, 1.374181e+002
3.674824e+002, 1.334869e+002
3.679645e+002, 1.300822e+002
3.684467e+002, 1.272863e+002
3.689288e+002, 1.251740e+002
3.694109e+002, 1.229343e+002
3.698930e+002, 1.201836e+002
3.703751e+002, 1.176040e+002
3.708572e+002, 1.156687e+002
3.713394e+002, 1.147794e+002
3.718215e+002, 1.138966e+002
3.723036e+002, 1.129520e+002
3.727857e+002, 1.119623e+002
3.732678e+002, 1.109714e+002
3.737499e+002, 1.099502e+002
3.742321e+002, 1.089596e+002
3.747142e+002, 1.080373e+002
3.751963e+002, 1.071848e+002
3.756784e+002, 1.063449e+002
3.761605e+002, 1.054689e+002
3.766426e+002, 1.046733e+002
3.771248e+002, 1.042464e+002
3.776069e+002, 1.042670e+002
3.780890e+002, 1.041332e+002
3.785711e+002, 1.035227e+002
3.790532e+002, 1.025477e+002
3.795353e+002, 1.021295e+002
3.800175e+002, 1.023376e+002
3.804996e+002, 1.027374e+002
3.809817e+002, 1.030465e+002
3.814638e+002, 1.032388e+002
3.819459e+002, 1.030269e+002
3.824280e+002, 1.021947e+002
3.829102e+002, 1.011408e+002
3.833923e+002, 1.006412e+002
3.838744e+002, 1.006606e+002
3.843565e+002, 1.008887e+002
3.848386e+002, 1.011595e+002
3.853207e+002, 1.014893e+002
3.858029e+002, 1.019875e+002
3.862850e+002, 1.027288e+002
3.867671e+002, 1.033151e+002
3.872492e+002, 1.031962e+002
3.877313e+002, 1.026068e+002
3.882134e+002, 1.020830e+002
3.886956e+002, 1.017850e+002
3.891777e+002, 1.017219e+002
3.896598e+002, 1.019745e+002
3.901419e+002, 1.025288e+002
3.906240e+002, 1.031389e+002
3.911061e+002, 1.037133e+002
3.915883e+002, 1.042486e+002
3.920704e+002, 1.047412e+002
3.925525e+002, 1.051656e+002
3.930346e+002, 1.055828e+002
3.935167e+002, 1.060753e+002
3.939988e+002, 1.065948e+002
3.944810e+002, 1.070111e+002
3.949631e+002, 1.073138e+002
3.954452e+002, 1.074752e+002
3.959273e+002, 1.075017e+002
3.964094e+002, 1.074345e+002
3.968915e+002, 1.071009e+002
3.973737e+002, 1.063601e+002
3.978558e+002, 1.053696e+002
3.983379e+002, 1.043236e+002
3.988200e+002, 1.028488e+002
3.993021e+002, 1.017373e+002
3.997842e+002, 1.013378e+002
4.002664e+002, 1.016447e+002
4.007485e+002, 1.015021e+002
4.012306e+002, 1.005080e+002
4.017127e+002, 9.945562e+001
4.021948e+002, 9.886126e+001
4.026769e+002, 9.893645e+001
4.031591e+002, 9.902013e+001
4.036412e+002, 9.910961e+001
4.041233e+002, 9.917029e+001
4.046054e+002, 9.913912e+001
4.050875e+002, 9.905109e+001
4.055696e+002, 9.876147e+001
4.060518e+002, 9.802914e+001
4.065339e+002, 9.682283e+001
4.070160e+002, 9.644266e+001
4.074981e+002, 9.707171e+001
4.079802e+002, 9.802246e+001
4.084623e+002, 9.851234e+001
4.089445e+002, 9.855105e+001
4.094266e+002, 9.852953e+001
4.099087e+002, 9.854246e+001
4.103908e+002, 9.856895e+001
4.108729e+002, 9.852742e+001
4.113550e+002, 9.842278e+001
4.118372e+002, 9.837900e+001
4.123193e+002, 9.860008e+001
4.128014e+002, 9.893906e+001
4.132835e+002, 9.900436e+001
4.137656e+002, 9.868792e+001
4.142477e+002, 9.832281e+001
4.147299e+002, 9.809939e+001
4.152120e+002, 9.809509e+001
4.156941e+002, 9.850112e+001
4.161762e+002, 9.986597e+001
4.166583e+002, 1.013837e+002
4.171404e+002, 1.022815e+002
4.176226e+002, 1.025678e+002
4.181047e+002, 1.027641e+002
4.185868e+002, 1.031728e+002
4.190689e+002, 1.036391e+002
4.195510e+002, 1.040229e+002
4.200331e+002, 1.042701e+002
4.205153e+002, 1.044457e+002
4.209974e+002, 1.043886e+002
4.214795e+002, 1.042627e+002
4.219616e+002, 1.044880e+002
4.224437e+002, 1.058225e+002
4.229258e+002, 1.069814e+002
4.234080e+002, 1.073770e+002
4.238901e+002, 1.067828e+002
4.243722e+002, 1.061357e+002
4.248543e+002, 1.054899e+002
4.253364e+002, 1.048352e+002
4.258185e+002, 1.041594e+002
4.263007e+002, 1.033717e+002
4.267828e+002, 1.026877e+002
4.272649e+002, 1.021607e+002
4.277470e+002, 1.017716e+002
4.282291e+002, 1.013812e+002
4.287112e+002, 1.009764e+002
4.291934e+002, 1.005959e+002
4.296755e+002, 1.003012e+002
4.301576e+002, 1.001581e+002
4.306397e+002, 9.972298e+001
4.311218e+002, 9.888988e+001
4.316039e+002, 9.791470e+001
4.320861e+002, 9.710701e+001
4.325682e+002, 9.645802e+001
4.330503e+002, 9.619375e+001
4.335324e+002, 9.656620e+001
4.340145e+002, 9.734745e+001
4.344966e+002, 9.769385e+001
4.349788e+002, 9.759439e+001
4.354609e+002, 9.742552e+001
4.359430e+002, 9.755273e+001
4.364251e+002, 9.786235e+001
4.369072e+002, 9.795229e+001
4.373893e+002, 9.760104e+001
4.378715e+002, 9.739812e+001
4.383536e+002, 9.820121e+001
4.388357e+002, 9.972862e+001
4.393178e+002, 1.011943e+002
4.397999e+002, 1.021416e+002
4.402820e+002, 1.028795e+002
4.407642e+002, 1.035390e+002
4.412463e+002, 1.041328e+002
4.417284e+002, 1.050743e+002
4.422105e+002, 1.068472e+002
4.426926e+002, 1.089632e+002
4.431747e+002, 1.109445e+002
4.436569e+002, 1.123253e+002
4.441390e+002, 1.139661e+002
4.446211e+002, 1.161747e+002
4.451032e+002, 1.188524e+002
4.455853e+002, 1.216446e+002
4.460674e+002, 1.245083e+002
4.465496e+002, 1.274791e+002
4.470317e+002, 1.305456e+002
4.475138e+002, 1.336778e+002
4.479959e+002, 1.370543e+002
4.484780e+002, 1.404611e+002
4.489601e+002, 1.442833e+002
4.494423e+002, 1.489639e+002
4.499244e+002, 1.545569e+002
4.504065e+002, 1.608477e+002
4.508886e+002, 1.680980e+002
4.513707e+002, 1.759769e+002
4.518528e+002, 1.831766e+002
4.523350e+002, 1.893856e+002
4.528171e+002, 1.959936e+002
4.532992e+002, 2.038413e+002
4.537813e+002, 2.129734e+002
4.542634e+002, 2.227765e+002
4.547455e+002, 2.332772e+002
4.552277e+002, 2.445739e+002
4.557098e+002, 2.571229e+002
4.561919e+002, 2.707394e+002
4.566740e+002, 2.851561e+002
4.571561e+002, 3.005052e+002
4.576382e+002, 3.160694e+002
4.581204e+002, 3.315973e+002
4.586025e+002, 3.467049e+002
4.590846e+002, 3.575750e+002
4.595667e+002, 3.627298e+002
4.600488e+002, 3.618199e+002
4.605309e+002, 3.538896e+002
4.610131e+002, 3.382864e+002
4.614952e+002, 3.183994e+002
4.619773e+002, 2.939441e+002
4.624594e+002, 2.675431e+002
4.629415e+002, 2.426853e+002
4.634236e+002, 2.198898e+002
4.639058e+002, 2.000285e+002
4.643879e+002, 1.835724e+002
4.648700e+002, 1.705901e+002
4.653521e+002, 1.595339e+002
4.658342e+002, 1.504902e+002
4.663163e+002, 1.428151e+002
4.667985e+002, 1.361657e+002
4.672806e+002, 1.307430e+002
4.677627e+002, 1.259718e+002
4.682448e+002, 1.219349e+002
4.687269e+002, 1.185405e+002
4.692090e+002, 1.156386e+002
4.696912e+002, 1.133561e+002
4.701733e+002, 1.112938e+002
4.706554e+002, 1.094293e+002
4.711375e+002, 1.077331e+002
4.716196e+002, 1.058691e+002
4.721017e+002, 1.037260e+002
4.725839e+002, 1.017203e+002
4.730660e+002, 1.000576e+002
4.735481e+002, 9.874686e+001
4.740302e+002, 9.789156e+001
4.745123e+002, 9.762949e+001
4.749944e+002, 9.747541e+001
4.754766e+002, 9.662586e+001
4.759587e+002, 9.518389e+001
4.764408e+002, 9.378361e+001
4.769229e+002, 9.254534e+001
4.774050e+002, 9.159685e+001
4.778871e+002, 9.138351e+001
4.783693e+002, 9.181966e+001
4.788514e+002, 9.212119e+001
4.793335e+002, 9.143047e+001
4.798156e+002, 9.042170e+001
4.802977e+002, 8.997234e+001
4.807798e+002, 9.039645e+001
4.812620e+002, 9.083216e+001
4.817441e+002, 9.082461e+001
4.822262e+002, 9.049878e+001
4.827083e+002, 9.003942e+001
4.831904e+002, 8.906917e+001
4.836725e+002, 8.839502e+001
4.841547e+002, 8.862484e+001
4.846368e+002, 8.965739e+001
4.851189e+002, 9.007973e+001
4.856010e+002, 8.908899e+001
4.860831e+002, 8.790916e+001
4.865652e+002, 8.714161e+001
4.870474e+002, 8.684547e+001
4.875295e+002, 8.686288e+001
4.880116e+002, 8.746646e+001
4.884937e+002, 8.818149e+001
4.889758e+002, 8.827630e+001
4.894579e+002, 8.750665e+001
4.899401e+002, 8.687792e+001
4.904222e+002, 8.671871e+001
4.909043e+002, 8.687510e+001
4.913864e+002, 8.649565e+001
4.918685e+002, 8.548042e+001
4.923506e+002, 8.461223e+001
4.928328e+002, 8.452608e+001
4.933149e+002, 8.506748e+001
4.937970e+002, 8.553758e+001
4.942791e+002, 8.587776e+001
4.947612e+002, 8.618668e+001
4.952433e+002, 8.678084e+001
4.957255e+002, 8.744670e+001
4.962076e+002, 8.761742e+001
4.966897e+002, 8.662771e+001
4.971718e+002, 8.550590e+001
4.976539e+002, 8.535686e+001
4.981360e+002, 8.596860e+001
4.986182e+002, 8.651960e+001
4.991003e+002, 8.671342e+001
4.995824e+002, 8.659837e+001
5.000645e+002, 8.612637e+001
5.005466e+002, 8.519381e+001
5.010287e+002, 8.434821e+001
5.015109e+002, 8.351083e+001
5.019930e+002, 8.293926e+001
5.024751e+002, 8.290369e+001
5.029572e+002, 8.400239e+001
5.034393e+002, 8.496879e+001
5.039214e+002, 8.566004e+001
5.044036e+002, 8.611343e+001
5.048857e+002, 8.650748e+001
5.053678e+002, 8.700668e+001
5.058499e+002, 8.714507e+001
5.063320e+002, 8.643125e+001
5.068141e+002, 8.471671e+001
5.072963e+002, 8.468825e+001
5.077784e+002, 8.691633e+001
5.082605e+002, 8.931462e+001
5.087426e+002, 8.946170e+001
5.092247e+002, 8.752671e+001
5.097068e+002, 8.611562e+001
5.101890e+002, 8.579564e+001
5.106711e+002, 8.604918e+001
5.111532e+002, 8.605973e+001
5.116353e+002, 8.588789e+001
5.121174e+002, 8.582511e+001
5.125995e+002, 8.624621e+001
5.130817e+002, 8.673836e+001
5.135638e+002, 8.667808e+001
5.140459e+002, 8.608476e+001
5.145280e+002, 8.562124e+001
5.150101e+002, 8.590145e+001
5.154922e+002, 8.640949e+001
5.159744e+002, 8.664212e+001
5.164565e+002, 8.633813e+001
5.169386e+002, 8.606724e+001
5.174207e+002, 8.598845e+001
5.179028e+002, 8.606648e+001
5.183849e+002, 8.624304e+001
5.188671e+002, 8.673775e+001
5.193492e+002, 8.708187e+001
5.198313e+002, 8.713094e+001
5.203134e+002, 8.690576e+001
5.207955e+002, 8.668742e+001
5.212776e+002, 8.628951e+001
5.217598e+002, 8.617325e+001
5.222419e+002, 8.687558e+001
5.227240e+002, 8.881208e+001
5.232061e+002, 8.909362e+001
5.236882e+002, 8.710107e+001
5.241703e+002, 8.467756e+001
5.246525e+002, 8.453891e+001
5.251346e+002, 8.652551e+001
5.256167e+002, 8.811288e+001
5.260988e+002, 8.847674e+001
5.265809e+002, 8.820507e+001
5.270630e+002, 8.830842e+001
5.275452e+002, 8.873318e+001
5.280273e+002, 8.916680e+001
5.285094e+002, 8.942207e+001
5.289915e+002, 8.958884e+001
5.294736e+002, 8.965330e+001
5.299557e+002, 8.960140e+001
5.304379e+002, 8.989880e+001
5.309200e+002, 9.116831e+001
5.314021e+002, 9.276243e+001
5.318842e+002, 9.404688e+001
5.323663e+002, 9.473415e+001
5.328484e+002, 9.528751e+001
5.333306e+002, 9.551492e+001
5.338127e+002, 9.570255e+001
5.342948e+002, 9.646333e+001
5.347769e+002, 9.882880e+001
5.352590e+002, 1.006373e+002
5.357411e+002, 1.012237e+002
5.362233e+002, 1.006320e+002
5.367054e+002, 1.003876e+002
5.371875e+002, 1.005988e+002
5.376696e+002, 1.009560e+002
5.381517e+002, 1.012446e+002
5.386339e+002, 1.014451e+002
5.391160e+002, 1.018936e+002
5.395981e+002, 1.027085e+002
5.400802e+002, 1.034848e+002
5.405623e+002, 1.034205e+002
5.410444e+002, 1.027292e+002
5.415266e+002, 1.026532e+002
5.420087e+002, 1.038008e+002
5.424908e+002, 1.054973e+002
5.429729e+002, 1.068193e+002
5.434550e+002, 1.078371e+002
5.439371e+002, 1.088781e+002
5.444193e+002, 1.100138e+002
5.449014e+002, 1.113364e+002
5.453835e+002, 1.129673e+002
5.458656e+002, 1.149264e+002
5.463477e+002, 1.169616e+002
5.468298e+002, 1.186384e+002
5.473120e+002, 1.205636e+002
5.477941e+002, 1.232196e+002
5.482762e+002, 1.270080e+002
5.487583e+002, 1.311101e+002
5.492404e+002, 1.354542e+002
5.497225e+002, 1.400745e+002
5.502047e+002, 1.450783e+002
5.506868e+002, 1.506791e+002
5.511689e+002, 1.562449e+002
5.516510e+002, 1.614154e+002
5.521331e+002, 1.663623e+002
5.526152e+002, 1.720971e+002
5.530974e+002, 1.786718e+002
5.535795e+002, 1.857806e+002
5.540616e+002, 1.934016e+002
5.545437e+002, 2.014458e+002
5.550258e+002, 2.092549e+002
5.555079e+002, 2.167527e+002
5.559901e+002, 2.245451e+002
5.564722e+002, 2.337800e+002
5.569543e+002, 2.438252e+002
5.574364e+002, 2.533069e+002
5.579185e+002, 2.615367e+002
5.584006e+002, 2.695855e+002
5.588828e+002, 2.790233e+002
5.593649e+002, 2.889760e+002
5.598470e+002, 2.976425e+002
5.603291e+002, 3.042278e+002
5.608112e+002, 3.093922e+002
5.612933e+002, 3.141817e+002
5.617755e+002, 3.186242e+002
5.622576e+002, 3.192666e+002
5.627397e+002, 3.141490e+002
5.632218e+002, 3.062189e+002
5.637039e+002, 2.966558e+002
5.641860e+002, 2.849255e+002
5.646682e+002, 2.727545e+002
5.651503e+002, 2.596841e+002
5.656324e+002, 2.465984e+002
5.661145e+002, 2.349265e+002
5.665966e+002, 2.247154e+002
5.670787e+002, 2.144617e+002
5.675609e+002, 2.035534e+002
5.680430e+002, 1.927808e+002
5.685251e+002, 1.841851e+002
5.690072e+002, 1.775650e+002
5.694893e+002, 1.719349e+002
5.699714e+002, 1.669118e+002
5.704536e+002, 1.624031e+002
5.709357e+002, 1.582225e+002
5.714178e+002, 1.543885e+002
5.718999e+002, 1.510048e+002
5.723820e+002, 1.483037e+002
5.728641e+002, 1.460267e+002
5.733463e+002, 1.440154e+002
5.738284e+002, 1.422696e+002
5.743105e+002, 1.406377e+002
5.747926e+002, 1.386117e+002
5.752747e+002, 1.368374e+002
5.757568e+002, 1.361653e+002
5.762390e+002, 1.382074e+002
5.767211e+002, 1.392467e+002
5.772032e+002, 1.384325e+002
5.776853e+002, 1.363540e+002
5.781674e+002, 1.351340e+002
5.786495e+002, 1.351008e+002
5.791317e+002, 1.349643e+002
5.796138e+002, 1.341352e+002
5.800959e+002, 1.327057e+002
5.805780e+002, 1.314436e+002
5.810601e+002, 1.303512e+002
5.815422e+002, 1.292897e+002
5.820244e+002, 1.279950e+002
5.825065e+002, 1.266454e+002
5.829886e+002, 1.258280e+002
5.834707e+002, 1.257158e+002
5.839528e+002, 1.255360e+002
5.844349e+002, 1.242688e+002
5.849171e+002, 1.225669e+002
5.853992e+002, 1.214042e+002
5.858813e+002, 1.215789e+002
5.863634e+002, 1.218612e+002
5.868455e+002, 1.215963e+002
5.873276e+002, 1.210359e+002
5.878098e+002, 1.208823e+002
5.882919e+002, 1.217925e+002
5.887740e+002, 1.225916e+002
5.892561e+002, 1.228822e+002
5.897382e+002, 1.226528e+002
5.902203e+002, 1.224920e+002
5.907025e+002, 1.222001e+002
5.911846e+002, 1.223345e+002
5.916667e+002, 1.236416e+002
5.921488e+002, 1.262984e+002
5.926309e+002, 1.273254e+002
5.931130e+002, 1.263056e+002
5.935952e+002, 1.248656e+002
5.940773e+002, 1.249178e+002
5.945594e+002, 1.262317e+002
5.950415e+002, 1.279627e+002
5.955236e+002, 1.300794e+002
5.960057e+002, 1.322027e+002
5.964879e+002, 1.336510e+002
5.969700e+002, 1.347571e+002
5.974521e+002, 1.362876e+002
5.979342e+002, 1.393023e+002
5.984163e+002, 1.422233e+002
5.988984e+002, 1.439064e+002
5.993806e+002, 1.445089e+002
5.998627e+002, 1.455976e+002
6.003448e+002, 1.485193e+002
6.008269e+002, 1.511494e+002
6.013090e+002, 1.524350e+002
6.017911e+002, 1.520069e+002
6.022733e+002, 1.516963e+002
6.027554e+002, 1.516563e+002
6.032375e+002, 1.515189e+002
6.037196e+002, 1.508530e+002
6.042017e+002, 1.495818e+002
6.046838e+002, 1.485958e+002
6.051660e+002, 1.481263e+002
6.056481e+002, 1.476696e+002
6.061302e+002, 1.463108e+002
6.066123e+002, 1.442118e+002
6.070944e+002, 1.421149e+002
6.075765e+002, 1.401502e+002
6.080587e+002, 1.384493e+002
6.085408e+002, 1.374329e+002
6.090229e+002, 1.368665e+002
6.095050e+002, 1.358726e+002
6.099871e+002, 1.333461e+002
6.104692e+002, 1.307873e+002
6.109514e+002, 1.293093e+002
6.114335e+002, 1.290450e+002
6.119156e+002, 1.283177e+002
6.123977e+002, 1.263703e+002
6.128798e+002, 1.241736e+002
6.133619e+002, 1.223525e+002
6.138441e+002, 1.212085e+002
6.143262e+002, 1.196445e+002
6.148083e+002, 1.175479e+002
6.152904e+002, 1.151783e+002
6.157725e+002, 1.128393e+002
6.162546e+002, 1.105270e+002
6.167368e+002, 1.083486e+002
6.172189e+002, 1.063285e+002
6.177010e+002, 1.043960e+002
6.181831e+002, 1.024576e+002
6.186652e+002, 1.005147e+002
6.191473e+002, 9.855565e+001
6.196295e+002, 9.625601e+001
6.201116e+002, 9.417863e+001
6.205937e+002, 9.313603e+001
6.210758e+002, 9.293108e+001
6.215579e+002, 9.254715e+001
6.220400e+002, 9.123093e+001
6.225222e+002, 8.980451e+001
6.230043e+002, 8.876054e+001
6.234864e+002, 8.821592e+001
6.239685e+002, 8.764305e+001
6.244506e+002, 8.702959e+001
6.249327e+002, 8.633688e+001
6.254149e+002, 8.548230e+001
6.258970e+002, 8.429449e+001
6.263791e+002, 8.349327e+001
6.268612e+002, 8.314354e+001
6.273433e+002, 8.311632e+001
6.278254e+002, 8.337540e+001
6.283076e+002, 8.389639e+001
6.287897e+002, 8.414943e+001
6.292718e+002, 8.398185e+001
6.297539e+002, 8.351558e+001
6.302360e+002, 8.279331e+001
6.307181e+002, 8.191160e+001
6.312003e+002, 8.118615e+001
6.316824e+002, 8.078112e+001
6.321645e+002, 8.058936e+001
6.326466e+002, 8.061381e+001
6.331287e+002, 8.081693e+001
6.336108e+002, 8.097610e+001
6.340930e+002, 8.082944e+001
6.345751e+002, 8.077644e+001
6.350572e+002, 8.119498e+001
6.355393e+002, 8.235464e+001
6.360214e+002, 8.256483e+001
6.365035e+002, 8.118725e+001
6.369857e+002, 7.963564e+001
6.374678e+002, 7.905312e+001
6.379499e+002, 7.959367e+001
6.384320e+002, 8.000613e+001
6.389141e+002, 8.021206e+001
6.393962e+002, 8.027581e+001
6.398784e+002, 8.021141e+001
6.403605e+002, 8.005912e+001
6.408426e+002, 7.999079e+001
6.413247e+002, 8.005938e+001
6.418068e+002, 8.022266e+001
6.422889e+002, 8.055339e+001
6.427711e+002, 8.094249e+001
6.432532e+002, 8.114978e+001
6.437353e+002, 8.088125e+001
6.442174e+002, 8.058322e+001
6.446995e+002, 8.040611e+001
6.451816e+002, 8.036547e+001
6.456638e+002, 8.050974e+001
6.461459e+002, 8.104117e+001
6.466280e+002, 8.155997e+001
6.471101e+002, 8.193309e+001
6.475922e+002, 8.214891e+001
6.480743e+002, 8.235450e+001
6.485565e+002, 8.252812e+001
6.490386e+002, 8.274204e+001
6.495207e+002, 8.309571e+001
6.500028e+002, 8.356070e+001
6.504849e+002, 8.387402e+001
6.509670e+002, 8.399953e+001
6.514492e+002, 8.407199e+001
6.519313e+002, 8.407798e+001
6.524134e+002, 8.416096e+001
6.528955e+002, 8.463111e+001
6.533776e+002, 8.573435e+001
6.538597e+002, 8.687373e+001
6.543419e+002, 8.750500e+001
6.548240e+002, 8.797507e+001
6.553061e+002, 8.880523e+001
6.557882e+002, 9.092715e+001
6.562703e+002, 9.251598e+001
6.567524e+002, 9.270770e+001
6.572346e+002, 9.207701e+001
6.577167e+002, 9.232964e+001
6.581988e+002, 9.369895e+001
6.586809e+002, 9.544262e+001
6.591630e+002, 9.740714e+001
6.596451e+002, 9.954577e+001
6.601273e+002, 1.014877e+002
6.606094e+002, 1.032357e+002
6.610915e+002, 1.052091e+002
6.615736e+002, 1.079011e+002
6.620557e+002, 1.109791e+002
6.625378e+002, 1.137072e+002
6.630200e+002, 1.160503e+002
6.635021e+002, 1.185609e+002
6.639842e+002, 1.214962e+002
6.644663e+002, 1.248699e+002
6.649484e+002, 1.286341e+002
6.654305e+002, 1.327431e+002
6.659127e+002, 1.374164e+002
6.663948e+002, 1.429401e+002
6.668769e+002, 1.489448e+002
6.673590e+002, 1.550155e+002
6.678411e+002, 1.606824e+002
6.683232e+002, 1.673400e+002
6.688054e+002, 1.752473e+002
6.692875e+002, 1.839234e+002
6.697696e+002, 1.923009e+002
6.702517e+002, 2.003560e+002
6.707338e+002, 2.095193e+002
6.712159e+002, 2.205493e+002
6.716981e+002, 2.323040e+002
6.721802e+002, 2.428293e+002
6.726623e+002, 2.522587e+002
6.731444e+002, 2.614646e+002
6.736265e+002, 2.710758e+002
6.741086e+002, 2.803411e+002
6.745908e+002, 2.894689e+002
6.750729e+002, 2.980234e+002
6.755550e+002, 3.038990e+002
6.760371e+002, 3.063725e+002
6.765192e+002, 3.060145e+002
6.770013e+002, 3.029850e+002
6.774835e+002, 2.972642e+002
6.779656e+002, 2.895470e+002
6.784477e+002, 2.794618e+002
6.789298e+002, 2.679305e+002
6.794119e+002, 2.554629e+002
6.798940e+002, 2.418943e+002
6.803762e+002, 2.281092e+002
6.808583e+002, 2.138145e+002
6.813404e+002, 2.001620e+002
6.818225e+002, 1.880018e+002
6.823046e+002, 1.772911e+002
6.827867e+002, 1.677193e+002
6.832689e+002, 1.594247e+002
6.837510e+002, 1.518786e+002
6.842331e+002, 1.450058e+002
6.847152e+002, 1.386998e+002
6.851973e+002, 1.329910e+002
6.856794e+002, 1.281609e+002
6.861616e+002, 1.235083e+002
6.866437e+002, 1.186058e+002
6.871258e+002, 1.138639e+002
6.876079e+002, 1.102045e+002
6.880900e+002, 1.080651e+002
6.885721e+002, 1.059633e+002
6.890543e+002, 1.035157e+002
6.895364e+002, 1.009269e+002
6.900185e+002, 9.875990e+001
6.905006e+002, 9.701695e+001
6.909827e+002, 9.548575e+001
6.914648e+002, 9.407859e+001
6.919470e+002, 9.279369e+001
6.924291e+002, 9.162582e+001
6.929112e+002, 9.056011e+001
6.933933e+002, 8.951833e+001
6.938754e+002, 8.845635e+001
6.943575e+002, 8.739182e+001
6.948397e+002, 8.630733e+001
6.953218e+002, 8.518992e+001
6.958039e+002, 8.418990e+001
6.962860e+002, 8.324186e+001
6.967681e+002, 8.249416e+001
6.972502e+002, 8.208891e+001
6.977324e+002, 8.216060e+001
6.982145e+002, 8.184988e+001
6.986966e+002, 8.101614e+001
6.991787e+002, 8.019804e+001
6.996608e+002, 8.008651e+001
7.001429e+002, 8.050057e+001
7.006251e+002, 8.047686e+001
7.011072e+002, 7.982919e+001
7.015893e+002, 7.908245e+001
7.020714e+002, 7.862102e+001
7.025535e+002, 7.843640e+001
7.030356e+002, 7.856192e+001
7.035178e+002, 7.930957e+001
7.039999e+002, 7.983355e+001
7.044820e+002, 7.977024e+001
7.049641e+002, 7.929403e+001
7.054462e+002, 7.864281e+001
7.059283e+002, 7.739684e+001
7.064105e+002, 7.670097e+001
7.068926e+002, 7.685312e+001
7.073747e+002, 7.754846e+001
7.078568e+002, 7.815926e+001
7.083389e+002, 7.870724e+001
7.088210e+002, 7.890647e+001
7.093032e+002, 7.851669e+001
7.097853e+002, 7.785543e+001
7.102674e+002, 7.765313e+001
7.107495e+002, 7.778582e+001
7.112316e+002, 7.773917e+001
7.117137e+002, 7.692422e+001
7.121959e+002, 7.607985e+001
7.126780e+002, 7.577912e+001
7.131601e+002, 7.597423e+001
7.136422e+002, 7.621334e+001
7.141243e+002, 7.647747e+001
7.146064e+002, 7.665479e+001
7.150886e+002, 7.668578e+001
7.155707e+002, 7.656618e+001
7.160528e+002, 7.645872e+001
7.165349e+002, 7.635864e+001
7.170170e+002, 7.628148e+001
7.174991e+002, 7.628523e+001
7.179813e+002, 7.634250e+001
7.184634e+002, 7.615665e+001
7.189455e+002, 7.570708e+001
7.194276e+002, 7.534873e+001
7.199097e+002, 7.555334e+001
7.203918e+002, 7.596220e+001
7.208740e+002, 7.598723e+001
7.213561e+002, 7.543571e+001
7.218382e+002, 7.518615e+001
7.223203e+002, 7.612932e+001
7.228024e+002, 7.728128e+001
7.232845e+002, 7.775311e+001
7.237667e+002, 7.679597e+001
7.242488e+002, 7.637383e+001
7.247309e+002, 7.683288e+001
7.252130e+002, 7.745296e+001
7.256951e+002, 7.724275e+001
7.261772e+002, 7.611718e+001
7.266594e+002, 7.554419e+001
7.271415e+002, 7.586958e+001
7.276236e+002, 7.647991e+001
7.281057e+002, 7.652474e+001
7.285878e+002, 7.617990e+001
7.290699e+002, 7.591843e+001
7.295521e+002, 7.601490e+001
7.300342e+002, 7.604861e+001
7.305163e+002, 7.556494e+001
7.309984e+002, 7.485323e+001
7.314805e+002, 7.442905e+001
7.319626e+002, 7.480476e+001
7.324448e+002, 7.500520e+001
7.329269e+002, 7.465837e+001
7.334090e+002, 7.406448e+001
7.338911e+002, 7.418153e+001
7.343732e+002, 7.527674e+001
7.348553e+002, 7.595312e+001
7.353375e+002, 7.562826e+001
7.358196e+002, 7.471237e+001
7.363017e+002, 7.420372e+001
7.367838e+002, 7.406977e+001
7.372659e+002, 7.411152e+001
7.377480e+002, 7.435603e+001
7.382302e+002, 7.462566e+001
7.387123e+002, 7.462698e+001
7.391944e+002, 7.445887e+001
7.396765e+002, 7.461057e+001
7.401586e+002, 7.579131e+001
7.406407e+002, 7.683071e+001
7.411229e+002, 7.719311e+001
7.416050e+002, 7.690670e+001
7.420871e+002, 7.635073e+001
7.425692e+002, 7.537087e+001
7.430513e+002, 7.447777e+001
7.435334e+002, 7.397239e+001
7.440156e+002, 7.380791e+001
7.444977e+002, 7.351883e+001
7.449798e+002, 7.310365e+001
7.454619e+002, 7.297056e+001
7.459440e+002, 7.385163e+001
7.464261e+002, 7.498244e+001
7.469083e+002, 7.527747e+001
7.473904e+002, 7.462794e+001
7.478725e+002, 7.409752e+001
7.483546e+002, 7.434127e+001
7.488367e+002, 7.476405e+001
7.493188e+002, 7.497614e+001
7.498010e+002, 7.490456e+001
7.502831e+002, 7.475607e+001
7.507652e+002, 7.444606e+001
7.512473e+002, 7.418759e+001
7.517294e+002, 7.422871e+001
7.522115e+002, 7.456219e+001
7.526937e+002, 7.463168e+001
7.531758e+002, 7.439439e+001
7.536579e+002, 7.396301e+001
7.541400e+002, 7.325364e+001
7.546221e+002, 7.249373e+001
7.551042e+002, 7.204898e+001
7.555864e+002, 7.201351e+001
7.560685e+002, 7.222171e+001
7.565506e+002, 7.270188e+001
7.570327e+002, 7.332866e+001
7.575148e+002, 7.397267e+001
7.579969e+002, 7.509708e+001
7.584791e+002, 7.544621e+001
7.589612e+002, 7.462098e+001
7.594433e+002, 7.346227e+001
7.599254e+002, 7.306200e+001
7.604075e+002, 7.345466e+001
7.608896e+002, 7.371666e+001
7.613718e+002, 7.369524e+001
7.618539e+002, 7.353822e+001
7.623360e+002, 7.334802e+001
7.628181e+002, 7.317969e+001
7.633002e+002, 7.318491e+001
7.637823e+002, 7.360757e+001
7.642645e+002, 7.384592e+001
7.647466e+002, 7.323229e+001
7.652287e+002, 7.232784e+001
7.657108e+002, 7.197282e+001
7.661929e+002, 7.294142e+001
7.666750e+002, 7.356107e+001
7.671572e+002, 7.360032e+001
7.676393e+002, 7.329169e+001
7.681214e+002, 7.306453e+001
7.686035e+002, 7.293058e+001
7.690856e+002, 7.265831e+001
7.695677e+002, 7.207398e+001
7.700499e+002, 7.153558e+001
7.705320e+002, 7.169162e+001
7.710141e+002, 7.234477e+001
7.714962e+002, 7.299333e+001
7.719783e+002, 7.369050e+001
7.724604e+002, 7.404414e+001
7.729426e+002, 7.347930e+001
7.734247e+002, 7.243925e+001
7.739068e+002, 7.198135e+001
7.743889e+002, 7.286852e+001
7.748710e+002, 7.340849e+001
7.753531e+002, 7.315739e+001
7.758353e+002, 7.244473e+001
7.763174e+002, 7.234303e+001
7.767995e+002, 7.289767e+001
7.772816e+002, 7.306149e+001
7.777637e+002, 7.215639e+001
7.782458e+002, 7.096822e+001
7.787280e+002, 7.093068e+001
7.792101e+002, 7.175747e+001
7.796922e+002, 7.252665e+001
7.801743e+002, 7.282809e+001
7.806564e+002, 7.292946e+001
7.811385e+002, 7.288551e+001
7.816207e+002, 7.274044e+001
7.821028e+002, 7.267931e+001
7.825849e+002, 7.284990e+001
7.830670e+002, 7.286625e+001
7.835491e+002, 7.248440e+001
7.840313e+002, 7.190636e+001
7.845134e+002, 7.210746e+001
7.849955e+002, 7.310510e+001
7.854776e+002, 7.380984e+001
7.859597e+002, 7.356368e+001
7.864418e+002, 7.283008e+001
7.869240e+002, 7.221165e+001
7.874061e+002, 7.172050e+001
7.878882e+002, 7.141250e+001
7.883703e+002, 7.142534e+001
7.888524e+002, 7.153198e+001
7.893345e+002, 7.172700e+001
7.898167e+002, 7.196094e+001
7.902988e+002, 7.190842e+001
7.907809e+002, 7.145640e+001
7.912630e+002, 7.090102e+001
7.917451e+002, 7.020548e+001
7.922272e+002, 6.951163e+001
7.927094e+002, 6.969044e+001
7.931915e+002, 7.068931e+001
7.936736e+002, 7.118617e+001
7.941557e+002, 6.951881e+001
7.946378e+002, 6.747900e+001
7.951199e+002, 6.778563e+001
7.956021e+002, 6.992957e+001
7.960842e+002, 7.154957e+001
7.965663e+002, 7.116409e+001
7.970484e+002, 7.046076e+001
7.975305e+002, 7.019643e+001
7.980126e+002, 7.031701e+001
7.984948e+002, 7.012540e+001
7.989769e+002, 6.937685e+001
7.994590e+002, 6.893528e+001
7.999411e+002, 6.926456e+001
8.004232e+002, 7.015963e+001
8.009053e+002, 7.094565e+001
8.013875e+002, 7.160085e+001
8.018696e+002, 7.190672e+001
8.023517e+002, 7.146655e+001
8.028338e+002, 7.080622e+001
8.033159e+002, 7.041102e+001
8.037980e+002, 7.026395e+001
8.042802e+002, 7.019073e+001
8.047623e+002, 7.010925e+001
8.052444e+002, 7.012782e+001
8.057265e+002, 7.037122e+001
8.062086e+002, 7.078402e+001
8.066907e+002, 7.079935e+001
8.071729e+002, 7.028226e+001
8.076550e+002, 6.995625e+001
8.081371e+002, 7.036014e+001
8.086192e+002, 7.111937e+001
8.091013e+002, 7.115506e+001
8.095834e+002, 7.057590e+001
8.100656e+002, 7.000145e+001
8.105477e+002, 6.965248e+001
8.110298e+002, 6.956263e+001
8.115119e+002, 6.996941e+001
8.119940e+002, 7.076320e+001
8.124761e+002, 7.110958e+001
8.129583e+002, 7.026072e+001
8.134404e+002, 6.977460e+001
8.139225e+002, 7.037698e+001
8.144046e+002, 7.176519e+001
8.148867e+002, 7.193642e+001
8.153688e+002, 7.082297e+001
8.158510e+002, 6.984296e+001
8.163331e+002, 6.988298e+001
8.168152e+002, 7.042284e+001
8.172973e+002, 7.059011e+001
8.177794e+002, 7.047956e+001
8.182615e+002, 7.046864e+001
8.187437e+002, 7.090336e+001
8.192258e+002, 7.132512e+001
8.197079e+002, 7.151556e+001
8.201900e+002, 7.148901e+001
8.206721e+002, 7.142426e+001
8.211542e+002, 7.124174e+001
8.216364e+002, 7.120383e+001
8.221185e+002, 7.146087e+001
8.226006e+002, 7.189305e+001
8.230827e+002, 7.212722e+001
8.235648e+002, 7.217442e+001
8.240469e+002, 7.213662e+001
8.245291e+002, 7.193704e+001
8.250112e+002, 7.178022e+001
8.254933e+002, 7.189946e+001
8.259754e+002, 7.222998e+001
8.264575e+002, 7.256293e+001
8.269396e+002, 7.289732e+001
8.274218e+002, 7.314755e+001
8.279039e+002, 7.325834e+001
8.283860e+002, 7.327627e+001
8.288681e+002, 7.339705e+001
8.293502e+002, 7.367384e+001
8.298323e+002, 7.373492e+001
8.303145e+002, 7.340575e+001
8.307966e+002, 7.284872e+001
8.312787e+002, 7.215838e+001
8.317608e+002, 7.147378e+001
8.322429e+002, 7.124777e+001
8.327250e+002, 7.229206e+001
8.332072e+002, 7.323615e+001
8.336893e+002, 7.316967e+001
8.341714e+002, 7.245358e+001
8.346535e+002, 7.205701e+001
8.351356e+002, 7.219190e+001
8.356177e+002, 7.238471e+001
8.360999e+002, 7.259377e+001
8.365820e+002, 7.278041e+001
8.370641e+002, 7.280653e+001
8.375462e+002, 7.269426e+001
8.380283e+002, 7.273376e+001
8.385104e+002, 7.316180e+001
8.389926e+002, 7.351277e+001
8.394747e+002, 7.301351e+001
8.399568e+002, 7.212591e+001
8.404389e+002, 7.164996e+001
8.409210e+002, 7.256480e+001
8.414031e+002, 7.305186e+001
8.418853e+002, 7.211605e+001
8.423674e+002, 7.083202e+001
8.428495e+002, 7.086330e+001
8.433316e+002, 7.255815e+001
8.438137e+002, 7.384965e+001
8.442958e+002, 7.442886e+001
8.447780e+002, 7.444341e+001
8.452601e+002, 7.369351e+001
8.457422e+002, 7.258313e+001
8.462243e+002, 7.212597e+001
8.467064e+002, 7.280241e+001
8.471885e+002, 7.364900e+001
8.476707e+002, 7.429009e+001
8.481528e+002, 7.471693e+001
8.486349e+002, 7.490568e+001
8.491170e+002, 7.475703e+001
8.495991e+002, 7.454084e+001
8.500812e+002, 7.418537e+001
8.505634e+002, 7.388657e+001
8.510455e+002, 7.389488e+001
8.515276e+002, 7.417693e+001
8.520097e+002, 7.445937e+001
8.524918e+002, 7.469896e+001
8.529739e+002, 7.501221e+001
8.534561e+002, 7.567587e+001
8.539382e+002, 7.638412e+001
8.544203e+002, 7.676790e+001
8.549024e+002, 7.667241e+001
8.553845e+002, 7.655116e+001
8.558666e+002, 7.635458e+001
8.563488e+002, 7.628476e+001
8.568309e+002, 7.646305e+001
8.573130e+002, 7.688873e+001
8.577951e+002, 7.767507e+001
8.582772e+002, 7.888931e+001
8.587593e+002, 7.994263e+001
8.592415e+002, 8.004047e+001
8.597236e+002, 7.973234e+001
8.602057e+002, 7.994607e+001
8.606878e+002, 8.076055e+001
8.611699e+002, 8.179243e+001
8.616520e+002, 8.298109e+001
8.621342e+002, 8.423074e+001
8.626163e+002, 8.557613e+001
8.630984e+002, 8.702406e+001
8.635805e+002, 8.811436e+001
8.640626e+002, 8.875083e+001
8.645447e+002, 8.930180e+001
8.650269e+002, 9.009216e+001
8.655090e+002, 9.095203e+001
8.659911e+002, 9.115962e+001
8.664732e+002, 9.079390e+001
8.669553e+002, 9.039561e+001
8.674374e+002, 9.034478e+001
8.679196e+002, 9.033981e+001
8.684017e+002, 9.034457e+001
8.688838e+002, 9.028166e+001
8.693659e+002, 8.957449e+001
8.698480e+002, 8.756120e+001
8.703301e+002, 8.598985e+001
8.708123e+002, 8.548744e+001
8.712944e+002, 8.571822e+001
8.717765e+002, 8.546168e+001
8.722586e+002, 8.477699e+001
8.727407e+002, 8.428294e+001
8.732228e+002, 8.428367e+001
8.737050e+002, 8.456895e+001
8.741871e+002, 8.513863e+001
8.746692e+002, 8.580727e+001
8.751513e+002, 8.617794e+001
8.756334e+002, 8.558320e+001
8.761155e+002, 8.537548e+001
8.765977e+002, 8.595401e+001
8.770798e+002, 8.693021e+001
8.775619e+002, 8.753955e+001
8.780440e+002, 8.773623e+001
8.785261e+002, 8.822826e+001
8.790082e+002, 8.917928e+001
8.794904e+002, 9.044643e+001
8.799725e+002, 9.201450e+001
8.804546e+002, 9.373779e+001
8.809367e+002, 9.536765e+001
8.814188e+002, 9.684425e+001
8.819009e+002, 9.820078e+001
8.823831e+002, 9.927275e+001
8.828652e+002, 1.003484e+002
8.833473e+002, 1.016195e+002
8.838294e+002, 1.029840e+002
8.843115e+002, 1.050276e+002
8.847936e+002, 1.078490e+002
8.852758e+002, 1.110578e+002
8.857579e+002, 1.143831e+002
8.862400e+002, 1.177696e+002
8.867221e+002, 1.210202e+002
8.872042e+002, 1.240780e+002
8.876863e+002, 1.273932e+002
8.881685e+002, 1.313171e+002
8.886506e+002, 1.355512e+002
8.891327e+002, 1.399263e+002
8.896148e+002, 1.444634e+002
8.900969e+002, 1.489019e+002
8.905790e+002, 1.530151e+002
8.910612e+002, 1.577285e+002
8.915433e+002, 1.640200e+002
8.920254e+002, 1.713373e+002
8.925075e+002, 1.775229e+002
8.929896e+002, 1.826836e+002
8.934717e+002, 1.874829e+002
8.939539e+002, 1.924982e+002
8.944360e+002, 1.972237e+002
8.949181e+002, 2.015390e+002
8.954002e+002, 2.053592e+002
8.958823e+002, 2.080045e+002
8.963644e+002, 2.091269e+002
8.968466e+002, 2.098754e+002
8.973287e+002, 2.107545e+002
8.978108e+002, 2.113195e+002
8.982929e+002, 2.101346e+002
8.987750e+002, 2.074226e+002
8.992571e+002, 2.045653e+002
8.997393e+002, 2.020283e+002
9.002214e+002, 1.996451e+002
9.007035e+002, 1.973835e+002
9.011856e+002, 1.951740e+002
9.016677e+002, 1.929482e+002
9.021498e+002, 1.904706e+002
9.026320e+002, 1.882409e+002
9.031141e+002, 1.862901e+002
9.035962e+002, 1.845686e+002
9.040783e+002, 1.834763e+002
9.045604e+002, 1.828540e+002
9.050425e+002, 1.804603e+002
9.055247e+002, 1.757607e+002
9.060068e+002, 1.705969e+002
9.064889e+002, 1.665402e+002
9.069710e+002, 1.630824e+002
9.074531e+002, 1.597747e+002
9.079352e+002, 1.566612e+002
9.084174e+002, 1.530826e+002
9.088995e+002, 1.486220e+002
9.093816e+002, 1.440529e+002
9.098637e+002, 1.397772e+002
9.103458e+002, 1.357432e+002
9.108279e+002, 1.326521e+002
9.113101e+002, 1.305266e+002
9.117922e+002, 1.281290e+002
9.122743e+002, 1.239554e+002
9.127564e+002, 1.194406e+002
9.132385e+002, 1.161575e+002
9.137206e+002, 1.140619e+002
9.142028e+002, 1.123128e+002
9.146849e+002, 1.110222e+002
9.151670e+002, 1.096373e+002
9.156491e+002, 1.079948e+002
9.161312e+002, 1.061389e+002
9.166133e+002, 1.040813e+002
9.170955e+002, 1.018051e+002
9.175776e+002, 1.000972e+002
9.180597e+002, 9.946016e+001
9.185418e+002, 9.917795e+001
9.190239e+002, 9.838792e+001
9.195060e+002, 9.728588e+001
9.199882e+002, 9.626382e+001
9.204703e+002, 9.537855e+001
9.209524e+002, 9.467799e+001
9.214345e+002, 9.438326e+001
9.219166e+002, 9.410303e+001
9.223987e+002, 9.309109e+001
9.228809e+002, 9.122900e+001
9.233630e+002, 9.085363e+001
9.238451e+002, 9.249196e+001
9.243272e+002, 9.404060e+001
9.248093e+002, 9.268017e+001
9.252914e+002, 9.013183e+001
9.257736e+002, 8.879196e+001
9.262557e+002, 8.922362e+001
9.267378e+002, 8.947466e+001
9.272199e+002, 8.869053e+001
9.277020e+002, 8.786754e+001
9.281841e+002, 8.754086e+001
9.286663e+002, 8.771188e+001
9.291484e+002, 8.759484e+001
9.296305e+002, 8.716538e+001
9.301126e+002, 8.697707e+001
9.305947e+002, 8.787955e+001
9.310768e+002, 8.890121e+001
9.315590e+002, 8.863772e+001
9.320411e+002, 8.733223e+001
9.325232e+002, 8.609000e+001
9.330053e+002, 8.528661e+001
9.334874e+002, 8.455531e+001
9.339695e+002, 8.364316e+001
9.344517e+002, 8.280108e+001
9.349338e+002, 8.282799e+001
9.354159e+002, 8.374953e+001
9.358980e+002, 8.418986e+001
9.363801e+002, 8.363264e+001
9.368622e+002, 8.282852e+001
9.373444e+002, 8.272289e+001
9.378265e+002, 8.294162e+001
9.383086e+002, 8.291203e+001
9.387907e+002, 8.227600e+001
9.392728e+002, 8.179230e+001
9.397549e+002, 8.143410e+001
9.402371e+002, 8.141759e+001
9.407192e+002, 8.216821e+001
9.412013e+002, 8.372920e+001
9.416834e+002, 8.428570e+001
9.421655e+002, 8.374111e+001
9.426476e+002, 8.293599e+001
9.431298e+002, 8.220030e+001
9.436119e+002, 8.182479e+001
9.440940e+002, 8.249243e+001
9.445761e+002, 8.415995e+001
9.450582e+002, 8.493526e+001
9.455403e+002, 8.322146e+001
9.460225e+002, 8.199275e+001
9.465046e+002, 8.243323e+001
9.469867e+002, 8.401524e+001
9.474688e+002, 8.439868e+001
9.479509e+002, 8.367278e+001
9.484330e+002, 8.331728e+001
9.489152e+002, 8.423495e+001
9.493973e+002, 8.540367e+001
9.498794e+002, 8.581634e+001
9.503615e+002, 8.578413e+001
9.508436e+002, 8.585955e+001
9.513257e+002, 8.584655e+001
9.518079e+002, 8.650784e+001
9.522900e+002, 8.821291e+001
9.527721e+002, 9.015410e+001
9.532542e+002, 9.137051e+001
9.537363e+002, 9.192691e+001
9.542184e+002, 9.219849e+001
9.547006e+002, 9.219400e+001
9.551827e+002, 9.236050e+001
9.556648e+002, 9.326014e+001
9.561469e+002, 9.436019e+001
9.566290e+002, 9.523852e+001
9.571111e+002, 9.585165e+001
9.575933e+002, 9.617106e+001
9.580754e+002, 9.619800e+001
9.585575e+002, 9.593284e+001
9.590396e+002, 9.523743e+001
9.595217e+002, 9.430319e+001
9.600038e+002, 9.393821e+001
9.604860e+002, 9.400389e+001
9.609681e+002, 9.377818e+001
9.614502e+002, 9.262077e+001
9.619323e+002, 9.132092e+001
9.624144e+002, 9.017880e+001
9.628965e+002, 8.926376e+001
9.633787e+002, 8.879570e+001
9.638608e+002, 8.912629e+001
9.643429e+002, 8.895409e+001
9.648250e+002, 8.806509e+001
9.653071e+002, 8.676888e+001
9.657892e+002, 8.514413e+001
9.662714e+002, 8.350582e+001
9.667535e+002, 8.281275e+001
9.672356e+002, 8.338718e+001
9.677177e+002, 8.372948e+001
9.681998e+002, 8.279488e+001
9.686819e+002, 8.150093e+001
9.691641e+002, 8.048887e+001
9.696462e+002, 7.977921e+001
9.701283e+002, 7.903760e+001
9.706104e+002, 7.820766e+001
9.710925e+002, 7.760722e+001
9.715746e+002, 7.758463e+001
9.720568e+002, 7.781193e+001
9.725389e+002, 7.765520e+001
9.730210e+002, 7.722217e+001
9.735031e+002, 7.687331e+001
9.739852e+002, 7.696207e+001
9.744673e+002, 7.690302e+001
9.749495e+002, 7.631145e+001
9.754316e+002, 7.559436e+001
9.759137e+002, 7.558303e+001
9.763958e+002, 7.633755e+001
9.768779e+002, 7.668493e+001
9.773600e+002, 7.638360e+001
9.778422e+002, 7.581833e+001
9.783243e+002, 7.509065e+001
9.788064e+002, 7.449971e+001
9.792885e+002, 7.454343e+001
9.797706e+002, 7.548099e+001
9.802527e+002, 7.614109e+001
9.807349e+002, 7.630908e+001
9.812170e+002, 7.620301e+001
9.816991e+002, 7.581561e+001
9.821812e+002, 7.521958e+001
9.826633e+002, 7.511607e+001
9.831454e+002, 7.544854e+001
9.836276e+002, 7.558825e+001
9.841097e+002, 7.488867e+001
9.845918e+002, 7.410444e+001
9.850739e+002, 7.389994e+001
9.855560e+002, 7.406013e+001
9.860381e+002, 7.398067e+001
9.865203e+002, 7.339230e+001
9.870024e+002, 7.304595e+001
9.874845e+002, 7.308194e+001
9.879666e+002, 7.330346e+001
9.884487e+002, 7.350566e+001
9.889308e+002, 7.365581e+001
9.894130e+002, 7.366920e+001
9.898951e+002, 7.353475e+001
9.903772e+002, 7.324231e+001
9.908593e+002, 7.239403e+001
9.913414e+002, 7.170180e+001
9.918235e+002, 7.184239e+001
9.923057e+002, 7.287125e+001
9.927878e+002, 7.333161e+001
9.932699e+002, 7.316158e+001
9.937520e+002, 7.284122e+001
9.942341e+002, 7.256835e+001
9.947162e+002, 7.235034e+001
9.951984e+002, 7.224439e+001
9.956805e+002, 7.220654e+001
9.961626e+002, 7.212037e+001
9.966447e+002, 7.196028e+001
9.971268e+002, 7.170656e+001
9.976089e+002, 7.117786e+001
9.980911e+002, 7.069682e+001
9.985732e+002, 7.081507e+001
9.990553e+002, 7.152505e+001
9.995374e+002, 7.203959e+001
1.000020e+003, 7.224757e+001
1.000502e+003, 7.231570e+001
1.000984e+003, 7.234910e+001
1.001466e+003, 7.234344e+001
1.001948e+003, 7.224390e+001
1.002430e+003, 7.202553e+001
1.002912e+003, 7.204805e+001
1.003394e+003, 7.253749e+001
1.003876e+003, 7.283694e+001
1.004359e+003, 7.252254e+001
1.004841e+003, 7.191776e+001
1.005323e+003, 7.218752e+001
1.005805e+003, 7.310410e+001
1.006287e+003, 7.371359e+001
1.006769e+003, 7.311660e+001
1.007251e+003, 7.275119e+001
1.007733e+003, 7.373191e+001
1.008216e+003, 7.521609e+001
1.008698e+003, 7.597087e+001
1.009180e+003, 7.572283e+001
1.009662e+003, 7.573901e+001
1.010144e+003, 7.606185e+001
1.010626e+003, 7.675100e+001
1.011108e+003, 7.827096e+001
1.011590e+003, 7.998099e+001
1.012072e+003, 8.084130e+001
1.012555e+003, 8.082030e+001
1.013037e+003, 8.065807e+001
1.013519e+003, 7.978257e+001
1.014001e+003, 7.985745e+001
1.014483e+003, 8.184310e+001
1.014965e+003, 8.499847e+001
1.015447e+003, 8.675005e+001
1.015929e+003, 8.721286e+001
1.016411e+003, 8.746812e+001
1.016894e+003, 8.778292e+001
1.017376e+003, 8.820711e+001
1.017858e+003, 8.903747e+001
1.018340e+003, 8.988182e+001
1.018822e+003, 9.022640e+001
1.019304e+003, 8.987576e+001
1.019786e+003, 8.940500e+001
1.020268e+003, 8.890493e+001
1.020751e+003, 8.804697e+001
1.021233e+003, 8.624199e+001
1.021715e+003, 8.395438e+001
1.022197e+003, 8.247295e+001
1.022679e+003, 8.172537e+001
1.023161e+003, 8.117724e+001
1.023643e+003, 8.078791e+001
1.024125e+003, 8.029711e+001
1.024607e+003, 7.962315e+001
1.025090e+003, 7.876920e+001
1.025572e+003, 7.757425e+001
1.026054e+003, 7.596959e+001
1.026536e+003, 7.506307e+001
1.027018e+003, 7.517748e+001
1.027500e+003, 7.542771e+001
1.027982e+003, 7.485096e+001
1.028464e+003, 7.388900e+001
1.028947e+003, 7.298338e+001
1.029429e+003, 7.216161e+001
1.029911e+003, 7.173574e+001
1.030393e+003, 7.191502e+001
1.030875e+003, 7.209276e+001
1.031357e+003, 7.196819e+001
1.031839e+003, 7.160940e+001
1.032321e+003, 7.119112e+001
1.032803e+003, 7.073718e+001
1.033286e+003, 7.032918e+001
1.033768e+003, 7.005967e+001
1.034250e+003, 6.979272e+001
1.034732e+003, 6.933195e+001
1.035214e+003, 6.890567e+001
1.035696e+003, 6.885465e+001
1.036178e+003, 6.924599e+001
1.036660e+003, 6.973884e+001
1.037143e+003, 7.038058e+001
1.037625e+003, 7.068032e+001
1.038107e+003, 6.979249e+001
1.038589e+003, 6.854459e+001
1.039071e+003, 6.799017e+001
1.039553e+003, 6.816862e+001
1.040035e+003, 6.843144e+001
1.040517e+003, 6.864148e+001
1.041000e+003, 6.892557e+001
1.041482e+003, 6.934702e+001
1.041964e+003, 6.983000e+001
1.042446e+003, 7.022031e+001
1.042928e+003, 7.050883e+001
1.043410e+003, 7.061292e+001
1.043892e+003, 7.043407e+001
1.044374e+003, 7.029285e+001
1.044856e+003, 7.076310e+001
1.045339e+003, 7.107807e+001
1.045821e+003, 7.034853e+001
1.046303e+003, 6.827677e+001
1.046785e+003, 6.765359e+001
1.047267e+003, 6.865496e+001
1.047749e+003, 6.955678e+001
1.048231e+003, 6.884585e+001
1.048713e+003, 6.763592e+001
1.049195e+003, 6.735927e+001
1.049677e+003, 6.777967e+001
1.050160e+003, 6.819870e+001
1.050642e+003, 6.855949e+001
1.051124e+003, 6.866468e+001
1.051606e+003, 6.835729e+001
1.052088e+003, 6.798983e+001
1.052570e+003, 6.815178e+001
1.053052e+003, 6.867269e+001
1.053534e+003, 6.878699e+001
1.054017e+003, 6.838872e+001
1.054499e+003, 6.815430e+001
1.054981e+003, 6.911124e+001
1.055463e+003, 6.980348e+001
1.055945e+003, 6.892680e+001
1.056427e+003, 6.687871e+001
1.056909e+003, 6.604033e+001
1.057391e+003, 6.651121e+001
1.057874e+003, 6.707024e+001
1.058356e+003, 6.734322e+001
1.058838e+003, 6.743422e+001
1.059320e+003, 6.743208e+001
1.059802e+003, 6.734533e+001
1.060284e+003, 6.718435e+001
1.060766e+003, 6.693575e+001
1.061248e+003, 6.661418e+001
1.061730e+003, 6.610313e+001
1.062213e+003, 6.575301e+001
1.062695e+003, 6.589033e+001
1.063177e+003, 6.638537e+001
1.063659e+003, 6.685275e+001
1.064141e+003, 6.726683e+001
1.064623e+003, 6.750349e+001
1.065105e+003, 6.727465e+001
1.065587e+003, 6.711293e+001
1.066070e+003, 6.740293e+001
1.066552e+003, 6.779005e+001
1.067034e+003, 6.766978e+001
1.067516e+003, 6.701968e+001
1.067998e+003, 6.658292e+001
1.068480e+003, 6.645064e+001
1.068962e+003, 6.651406e+001
1.069444e+003, 6.690994e+001
1.069927e+003, 6.728632e+001
1.070409e+003, 6.726833e+001
1.070891e+003, 6.682902e+001
1.071373e+003, 6.647749e+001
1.071855e+003, 6.619482e+001
1.072337e+003, 6.613577e+001
1.072819e+003, 6.648347e+001
1.073301e+003, 6.685828e+001
1.073783e+003, 6.640282e+001
1.074266e+003, 6.548743e+001
1.074748e+003, 6.491047e+001
1.075230e+003, 6.501330e+001
1.075712e+003, 6.510662e+001
1.076194e+003, 6.507533e+001
1.076676e+003, 6.490219e+001
1.077158e+003, 6.435572e+001
1.077640e+003, 6.356206e+001
1.078122e+003, 6.417518e+001
1.078604e+003, 6.598842e+001
1.079087e+003, 6.724633e+001
1.079569e+003, 6.628244e+001
1.080051e+003, 6.517986e+001
1.080533e+003, 6.526487e+001
1.081015e+003, 6.601144e+001
1.081497e+003, 6.644204e+001
1.081979e+003, 6.651886e+001
1.082461e+003, 6.636865e+001
1.082944e+003, 6.597514e+001
1.083426e+003, 6.553326e+001
1.083908e+003, 6.513834e+001
1.084390e+003, 6.486445e+001
1.084872e+003, 6.493897e+001
1.085354e+003, 6.531329e+001
1.085836e+003, 6.530137e+001
1.086318e+003, 6.443594e+001
1.086801e+003, 6.391821e+001
1.087283e+003, 6.413887e+001
1.087765e+003, 6.468024e+001
1.088247e+003, 6.479019e+001
1.088729e+003, 6.459654e+001
1.089211e+003, 6.438067e+001
1.089693e+003, 6.415208e+001
1.090175e+003, 6.416395e+001
1.090657e+003, 6.481474e+001
1.091140e+003, 6.545159e+001
1.091622e+003, 6.571981e+001
1.092104e+003, 6.565744e+001
1.092586e+003, 6.560423e+001
1.093068e+003, 6.554183e+001
1.093550e+003, 6.524567e+001
1.094032e+003, 6.440491e+001
1.094514e+003, 6.360806e+001
1.094997e+003, 6.315985e+001
1.095479e+003, 6.308183e+001
1.095961e+003, 6.346102e+001
1.096443e+003, 6.457478e+001
1.096925e+003, 6.511166e+001
1.097407e+003, 6.501945e+001
1.097889e+003, 6.467475e+001
1.098371e+003, 6.417724e+001
1.098854e+003, 6.373209e+001
1.099336e+003, 6.371178e+001
1.099818e+003, 6.399544e+001
1.100300e+003, 6.409230e+001
1.100782e+003, 6.365464e+001
1.101264e+003, 6.347442e+001
1.101746e+003, 6.376952e+001
1.102228e+003, 6.411150e+001
1.102710e+003, 6.375862e+001
1.103193e+003, 6.303649e+001
1.103675e+003, 6.279112e+001
1.104157e+003, 6.312340e+001
1.104639e+003, 6.346299e+001
1.105121e+003, 6.331844e+001
1.105603e+003, 6.345720e+001
1.106085e+003, 6.441920e+001
1.106567e+003, 6.573923e+001
1.107049e+003, 6.580277e+001
1.107531e+003, 6.477534e+001
1.108014e+003, 6.390990e+001
1.108496e+003, 6.347304e+001
1.108978e+003, 6.348837e+001
1.109460e+003, 6.442841e+001
1.109942e+003, 6.548747e+001
1.110424e+003, 6.598952e+001
1.110906e+003, 6.593022e+001
1.111388e+003, 6.531367e+001
1.111871e+003, 6.408708e+001
1.112353e+003, 6.306712e+001
1.112835e+003, 6.273638e+001
1.113317e+003, 6.271715e+001
1.113799e+003, 6.251903e+001
1.114281e+003, 6.237991e+001
1.114763e+003, 6.275298e+001
1.115245e+003, 6.444217e+001
1.115728e+003, 6.497266e+001
1.116210e+003, 6.406147e+001
1.116692e+003, 6.292900e+001
1.117174e+003, 6.261174e+001
1.117656e+003, 6.275530e+001
1.118138e+003, 6.273488e+001
1.118620e+003, 6.258619e+001
1.119102e+003, 6.252972e+001
1.119584e+003, 6.273389e+001
1.120067e+003, 6.293393e+001
1.120549e+003, 6.319653e+001
1.121031e+003, 6.327616e+001
1.121513e+003, 6.258645e+001
1.121995e+003, 6.143922e+001
1.122477e+003, 6.093474e+001
1.122959e+003, 6.116610e+001
1.123441e+003, 6.167965e+001
1.123924e+003, 6.277547e+001
1.124406e+003, 6.345947e+001
1.124888e+003, 6.301534e+001
1.125370e+003, 6.203104e+001
1.125852e+003, 6.236456e+001
1.126334e+003, 6.386487e+001
1.126816e+003, 6.471793e+001
1.127298e+003, 6.440353e+001
1.127781e+003, 6.388517e+001
1.128263e+003, 6.391255e+001
1.128745e+003, 6.400441e+001
1.129227e+003, 6.361834e+001
1.129709e+003, 6.279050e+001
1.130191e+003, 6.274155e+001
1.130673e+003, 6.352453e+001
1.131155e+003, 6.426768e+001
1.131637e+003, 6.469908e+001
1.132120e+003, 6.479943e+001
1.132602e+003, 6.428427e+001
1.133084e+003, 6.353693e+001
1.133566e+003, 6.312768e+001
1.134048e+003, 6.323555e+001
1.134530e+003, 6.322991e+001
1.135012e+003, 6.304027e+001
1.135494e+003, 6.302471e+001
1.135976e+003, 6.367879e+001
1.136458e+003, 6.447897e+001
1.136941e+003, 6.444896e+001
1.137423e+003, 6.388793e+001
1.137905e+003, 6.352502e+001
1.138387e+003, 6.374386e+001
1.138869e+003, 6.389387e+001
1.139351e+003, 6.390479e+001
1.139833e+003, 6.392434e+001
1.140315e+003, 6.416821e+001
1.140798e+003, 6.450880e+001
1.141280e+003, 6.465944e+001
1.141762e+003, 6.461547e+001
1.142244e+003, 6.443275e+001
1.142726e+003, 6.397059e+001
1.143208e+003, 6.357277e+001
1.143690e+003, 6.324794e+001
1.144172e+003, 6.309608e+001
1.144655e+003, 6.349012e+001
1.145137e+003, 6.420437e+001
1.145619e+003, 6.419297e+001
1.146101e+003, 6.331803e+001
1.146583e+003, 6.265868e+001
1.147065e+003, 6.285609e+001
1.147547e+003, 6.339488e+001
1.148029e+003, 6.425951e+001
1.148511e+003, 6.515520e+001
1.148994e+003, 6.498476e+001
1.149476e+003, 6.391026e+001
1.149958e+003, 6.346589e+001
1.150440e+003, 6.410614e+001
1.150922e+003, 6.488175e+001
1.151404e+003, 6.542010e+001
1.151886e+003, 6.554249e+001
1.152368e+003, 6.485745e+001
1.152851e+003, 6.353313e+001
1.153333e+003, 6.319282e+001
1.153815e+003, 6.384058e+001
1.154297e+003, 6.460130e+001
1.154779e+003, 6.529107e+001
1.155261e+003, 6.565452e+001
1.155743e+003, 6.507620e+001
1.156225e+003, 6.424597e+001
1.156708e+003, 6.409570e+001
1.157190e+003, 6.483260e+001
1.157672e+003, 6.478278e+001
1.158154e+003, 6.384814e+001
1.158636e+003, 6.297917e+001
1.159118e+003, 6.275503e+001
1.159600e+003, 6.282105e+001
1.160082e+003, 6.297212e+001
1.160564e+003, 6.308017e+001
1.161047e+003, 6.287758e+001
1.161529e+003, 6.195667e+001
1.162011e+003, 6.169874e+001
1.162493e+003, 6.224781e+001
1.162975e+003, 6.287996e+001
1.163457e+003, 6.295769e+001
1.163939e+003, 6.283606e+001
1.164421e+003, 6.303605e+001
1.164903e+003, 6.345989e+001
1.165385e+003, 6.379617e+001
1.165868e+003, 6.403433e+001
1.166350e+003, 6.400632e+001
1.166832e+003, 6.357666e+001
1.167314e+003, 6.321802e+001
1.167796e+003, 6.362936e+001
1.168278e+003, 6.435690e+001
1.168760e+003, 6.460213e+001
1.169242e+003, 6.437049e+001
1.169725e+003, 6.401624e+001
1.170207e+003, 6.335004e+001
1.170689e+003, 6.304133e+001
1.171171e+003, 6.330096e+001
1.171653e+003, 6.374875e+001
1.172135e+003, 6.390246e+001
1.172617e+003, 6.381591e+001
1.173099e+003, 6.357094e+001
1.173582e+003, 6.318165e+001
1.174064e+003, 6.279639e+001
1.174546e+003, 6.225066e+001
1.175028e+003, 6.204645e+001
1.175510e+003, 6.245412e+001
1.175992e+003, 6.310123e+001
1.176474e+003, 6.315348e+001
1.176956e+003, 6.282747e+001
1.177438e+003, 6.281374e+001
1.177921e+003, 6.329804e+001
1.178403e+003, 6.357105e+001
1.178885e+003, 6.298526e+001
1.179367e+003, 6.255848e+001
1.179849e+003, 6.280622e+001
1.180331e+003, 6.342358e+001
1.180813e+003, 6.343739e+001
1.181295e+003, 6.298283e+001
1.181778e+003, 6.255500e+001
1.182260e+003, 6.228291e+001
1.182742e+003, 6.207987e+001
1.183224e+003, 6.198512e+001
1.183706e+003, 6.185172e+001
1.184188e+003, 6.146782e+001
1.184670e+003, 6.098359e+001
1.185152e+003, 6.159657e+001
1.185635e+003, 6.299707e+001
1.186117e+003, 6.354189e+001
1.186599e+003, 6.209752e+001
1.187081e+003, 6.075970e+001
1.187563e+003, 6.063218e+001
1.188045e+003, 6.097764e+001
1.188527e+003, 6.131203e+001
1.189009e+003, 6.162500e+001
1.189491e+003, 6.177507e+001
1.189974e+003, 6.178481e+001
1.190456e+003, 6.181855e+001
1.190938e+003, 6.199398e+001
1.191420e+003, 6.216401e+001
1.191902e+003, 6.228880e+001
1.192384e+003, 6.234724e+001
1.192866e+003, 6.227958e+001
1.193348e+003, 6.207956e+001
1.193830e+003, 6.211223e+001
1.194313e+003, 6.236148e+001
1.194795e+003, 6.262271e+001
1.195277e+003, 6.294733e+001
1.195759e+003, 6.305650e+001
1.196241e+003, 6.244477e+001
1.196723e+003, 6.174235e+001
1.197205e+003, 6.191476e+001
1.197687e+003, 6.300441e+001
1.198169e+003, 6.313336e+001
1.198652e+003, 6.225985e+001
1.199134e+003, 6.155185e+001
1.199616e+003, 6.214922e+001
1.200098e+003, 6.278688e+001
1.200580e+003, 6.250032e+001
1.201062e+003, 6.185813e+001
1.201544e+003, 6.192126e+001
1.202026e+003, 6.272191e+001
1.202509e+003, 6.280283e+001
1.202991e+003, 6.202766e+001
1.203473e+003, 6.160412e+001
1.203955e+003, 6.315104e+001
1.204437e+003, 6.460152e+001
1.204919e+003, 6.426268e+001
1.205401e+003, 6.293978e+001
1.205883e+003, 6.244984e+001
1.206365e+003, 6.280777e+001
1.206848e+003, 6.306089e+001
1.207330e+003, 6.307937e+001
1.207812e+003, 6.306712e+001
1.208294e+003, 6.331116e+001
1.208776e+003, 6.345950e+001
1.209258e+003, 6.303330e+001
1.209740e+003, 6.234925e+001
1.210222e+003, 6.247646e+001
1.210705e+003, 6.343025e+001
1.211187e+003, 6.359324e+001
1.211669e+003, 6.258591e+001
1.212151e+003, 6.165068e+001
1.212633e+003, 6.193151e+001
1.213115e+003, 6.253461e+001
1.213597e+003, 6.279245e+001
1.214079e+003, 6.281566e+001
1.214562e+003, 6.312421e+001
1.215044e+003, 6.370723e+001
1.215526e+003, 6.406203e+001
1.216008e+003, 6.406528e+001
1.216490e+003, 6.388054e+001
1.216972e+003, 6.346680e+001
1.217454e+003, 6.306335e+001
1.217936e+003, 6.286656e+001
1.218418e+003, 6.284269e+001
1.218901e+003, 6.286908e+001
1.219383e+003, 6.294092e+001
1.219865e+003, 6.293359e+001
1.220347e+003, 6.276101e+001
1.220829e+003, 6.270507e+001
1.221311e+003, 6.314788e+001
1.221793e+003, 6.363768e+001
1.222275e+003, 6.382187e+001
1.222757e+003, 6.374380e+001
1.223240e+003, 6.381355e+001
1.223722e+003, 6.399921e+001
1.224204e+003, 6.378870e+001
1.224686e+003, 6.276361e+001
1.225168e+003, 6.204571e+001
1.225650e+003, 6.296698e+001
1.226132e+003, 6.396580e+001
1.226614e+003, 6.373964e+001
1.227096e+003, 6.246587e+001
1.227579e+003, 6.173530e+001
1.228061e+003, 6.150226e+001
1.228543e+003, 6.137415e+001
1.229025e+003, 6.121848e+001
1.229507e+003, 6.109814e+001
1.229989e+003, 6.119636e+001
1.230471e+003, 6.119337e+001
1.230953e+003, 6.065825e+001
1.231436e+003, 5.974116e+001
1.231918e+003, 6.020640e+001
1.232400e+003, 6.181725e+001
1.232882e+003, 6.290799e+001
1.233364e+003, 6.243948e+001
1.233846e+003, 6.199246e+001
1.234328e+003, 6.270949e+001
1.234810e+003, 6.338492e+001
1.235292e+003, 6.300768e+001
1.235775e+003, 6.176177e+001
1.236257e+003, 6.100125e+001
1.236739e+003, 6.073098e+001
1.237221e+003, 6.097281e+001
1.237703e+003, 6.216032e+001
1.238185e+003, 6.317971e+001
1.238667e+003, 6.379340e+001
1.239149e+003, 6.386691e+001
1.239632e+003, 6.293531e+001
1.240114e+003, 6.131235e+001
1.240596e+003, 6.079562e+001
1.241078e+003, 6.125154e+001
1.241560e+003, 6.211188e+001
1.242042e+003, 6.395557e+001
1.242524e+003, 6.488998e+001
1.243006e+003, 6.405734e+001
1.243489e+003, 6.275380e+001
1.243971e+003, 6.172030e+001
1.244453e+003, 6.106349e+001
1.244935e+003, 6.162486e+001
1.245417e+003, 6.305375e+001
1.245899e+003, 6.402611e+001
1.246381e+003, 6.366175e+001
1.246863e+003, 6.326501e+001
1.247345e+003, 6.306664e+001
1.247828e+003, 6.285242e+001
1.248310e+003, 6.225152e+001
1.248792e+003, 6.155822e+001
1.249274e+003, 6.179014e+001
1.249756e+003, 6.265584e+001
1.250238e+003, 6.313291e+001
1.250720e+003, 6.219864e+001
1.251202e+003, 6.196061e+001
1.251684e+003, 6.288326e+001
1.252167e+003, 6.376987e+001
1.252649e+003, 6.330437e+001
1.253131e+003, 6.221439e+001
1.253613e+003, 6.205181e+001
1.254095e+003, 6.251811e+001
1.254577e+003, 6.255916e+001
1.255059e+003, 6.143461e+001
1.255541e+003, 6.077751e+001
1.256023e+003, 6.072008e+001
1.256506e+003, 6.097395e+001
1.256988e+003, 6.151106e+001
1.257470e+003, 6.205327e+001
1.257952e+003, 6.198957e+001
1.258434e+003, 6.160094e+001
1.258916e+003, 6.183197e+001
1.259398e+003, 6.325087e+001
1.259880e+003, 6.383921e+001
1.260363e+003, 6.338521e+001
1.260845e+003, 6.269142e+001
1.261327e+003, 6.227039e+001
1.261809e+003, 6.209148e+001
1.262291e+003, 6.224453e+001
1.262773e+003, 6.259222e+001
1.263255e+003, 6.280829e+001
1.263737e+003, 6.291818e+001
1.264219e+003, 6.261095e+001
1.264702e+003, 6.182530e+001
1.265184e+003, 6.122850e+001
1.265666e+003, 6.151297e+001
1.266148e+003, 6.201334e+001
1.266630e+003, 6.229448e+001
1.267112e+003, 6.238525e+001
1.267594e+003, 6.241925e+001
1.268076e+003, 6.240918e+001
1.268559e+003, 6.206814e+001
1.269041e+003, 6.138338e+001
1.269523e+003, 6.083450e+001
1.270005e+003, 6.083642e+001
1.270487e+003, 6.097194e+001
1.270969e+003, 6.109299e+001
1.271451e+003, 6.114552e+001
1.271933e+003, 6.096782e+001
1.272416e+003, 6.059980e+001
1.272898e+003, 6.065990e+001
1.273380e+003, 6.113883e+001
1.273862e+003, 6.145428e+001
1.274344e+003, 6.102161e+001
1.274826e+003, 6.067925e+001
1.275308e+003, 6.075091e+001
1.275790e+003, 6.100819e+001
1.276272e+003, 6.111764e+001
1.276755e+003, 6.116981e+001
1.277237e+003, 6.172707e+001
1.277719e+003, 6.267896e+001
1.278201e+003, 6.310091e+001
1.278683e+003, 6.178709e+001
1.279165e+003, 6.106060e+001
1.279647e+003, 6.147318e+001
1.280129e+003, 6.231529e+001
1.280611e+003, 6.305200e+001
1.281094e+003, 6.352882e+001
1.281576e+003, 6.324190e+001
1.282058e+003, 6.233685e+001
1.282540e+003, 6.161459e+001
1.283022e+003, 6.113381e+001
1.283504e+003, 6.122026e+001
1.283986e+003, 6.205024e+001
1.284468e+003, 6.295467e+001
1.284950e+003, 6.338867e+001
1.285433e+003, 6.341231e+001
1.285915e+003, 6.284093e+001
1.286397e+003, 6.190256e+001
1.286879e+003, 6.146532e+001
1.287361e+003, 6.171292e+001
1.287843e+003, 6.196368e+001
1.288325e+003, 6.217185e+001
1.288807e+003, 6.226764e+001
1.289290e+003, 6.207148e+001
1.289772e+003, 6.184745e+001
1.290254e+003, 6.176464e+001
1.290736e+003, 6.185991e+001
1.291218e+003, 6.218045e+001
1.291700e+003, 6.274502e+001
1.292182e+003, 6.337517e+001
1.292664e+003, 6.405523e+001
1.293146e+003, 6.438861e+001
1.293629e+003, 6.387191e+001
1.294111e+003, 6.317371e+001
1.294593e+003, 6.246537e+001
1.295075e+003, 6.194506e+001
1.295557e+003, 6.199223e+001
1.296039e+003, 6.251793e+001
1.296521e+003, 6.280499e+001
1.297003e+003, 6.282712e+001
1.297486e+003, 6.272880e+001
1.297968e+003, 6.249841e+001
1.298450e+003, 6.226713e+001
1.298932e+003, 6.194320e+001
1.299414e+003, 6.182210e+001
1.299896e+003, 6.255068e+001
1.300378e+003, 6.366161e+001
1.300860e+003, 6.371621e+001
1.301343e+003, 6.288470e+001
1.301825e+003, 6.217542e+001
##END=



