##NAMES=Scottyite
##RRUFFID=R120077
##IDEAL CHEMISTRY=BaCu^2+^_2_Si_2_O_7_
##LOCALITY=Wessels mine, Kalahari manganese field, Northern Cape Province, South Africa
##OWNER=RRUFF
##SOURCE=William W. Pinch and Marcus Origlieri
##DESCRIPTION=Blue massive, associated with R120019 wesselsite and R120057 lavinskyite
##STATUS=The identification of this mineral is confirmed by single-crystal X-ray diffraction and chemical analysis.
##URL=rruff.info/R120077
##MEASURED CHEMISTRY=Ba_1.00_Sr_0.01_Na_0.01_Cu_2.04_Si_1.97_O_7_ ; (Scottyite is light grey material in image, associated with dark grey R120057 lavinskyite, and medium gray R120019 wesselsite
8.930109e+001, 0.000000e+000
8.978320e+001, 4.643253e+002
9.026532e+001, 4.626176e+002
9.074744e+001, 4.627183e+002
9.122955e+001, 4.650742e+002
9.171167e+001, 4.692119e+002
9.219379e+001, 4.768536e+002
9.267590e+001, 4.872292e+002
9.315802e+001, 4.927272e+002
9.364014e+001, 4.836606e+002
9.412225e+001, 4.649494e+002
9.460437e+001, 4.507179e+002
9.508649e+001, 4.470390e+002
9.556860e+001, 4.484229e+002
9.605072e+001, 4.413143e+002
9.653284e+001, 4.256469e+002
9.701495e+001, 4.083931e+002
9.749707e+001, 3.958635e+002
9.797919e+001, 3.878215e+002
9.846130e+001, 3.814320e+002
9.894342e+001, 3.753179e+002
9.942554e+001, 3.696076e+002
9.990765e+001, 3.681496e+002
1.003898e+002, 3.725247e+002
1.008719e+002, 3.777905e+002
1.013540e+002, 3.762773e+002
1.018361e+002, 3.665648e+002
1.023182e+002, 3.560651e+002
1.028004e+002, 3.469951e+002
1.032825e+002, 3.390990e+002
1.037646e+002, 3.336666e+002
1.042467e+002, 3.308418e+002
1.047288e+002, 3.302599e+002
1.052109e+002, 3.311084e+002
1.056931e+002, 3.329804e+002
1.061752e+002, 3.366774e+002
1.066573e+002, 3.427623e+002
1.071394e+002, 3.532011e+002
1.076215e+002, 3.627148e+002
1.081036e+002, 3.740028e+002
1.085858e+002, 3.854719e+002
1.090679e+002, 3.875412e+002
1.095500e+002, 3.718189e+002
1.100321e+002, 3.531587e+002
1.105142e+002, 3.395618e+002
1.109963e+002, 3.348350e+002
1.114785e+002, 3.307287e+002
1.119606e+002, 3.257823e+002
1.124427e+002, 3.200652e+002
1.129248e+002, 3.166972e+002
1.134069e+002, 3.176716e+002
1.138890e+002, 3.203028e+002
1.143712e+002, 3.224472e+002
1.148533e+002, 3.211007e+002
1.153354e+002, 3.215184e+002
1.158175e+002, 3.270423e+002
1.162996e+002, 3.385090e+002
1.167817e+002, 3.467818e+002
1.172639e+002, 3.459429e+002
1.177460e+002, 3.408560e+002
1.182281e+002, 3.376822e+002
1.187102e+002, 3.410327e+002
1.191923e+002, 3.453127e+002
1.196744e+002, 3.467954e+002
1.201566e+002, 3.444926e+002
1.206387e+002, 3.421736e+002
1.211208e+002, 3.413821e+002
1.216029e+002, 3.422233e+002
1.220850e+002, 3.449615e+002
1.225671e+002, 3.504622e+002
1.230493e+002, 3.575884e+002
1.235314e+002, 3.666955e+002
1.240135e+002, 3.803312e+002
1.244956e+002, 3.897231e+002
1.249777e+002, 3.836894e+002
1.254598e+002, 3.651252e+002
1.259420e+002, 3.449789e+002
1.264241e+002, 3.283468e+002
1.269062e+002, 3.151992e+002
1.273883e+002, 3.055983e+002
1.278704e+002, 2.998588e+002
1.283525e+002, 2.972645e+002
1.288347e+002, 2.977358e+002
1.293168e+002, 3.011397e+002
1.297989e+002, 3.049355e+002
1.302810e+002, 3.073179e+002
1.307631e+002, 3.084427e+002
1.312452e+002, 3.090826e+002
1.317274e+002, 3.096219e+002
1.322095e+002, 3.097135e+002
1.326916e+002, 3.082160e+002
1.331737e+002, 3.049807e+002
1.336558e+002, 3.010751e+002
1.341379e+002, 2.970189e+002
1.346201e+002, 2.928314e+002
1.351022e+002, 2.897052e+002
1.355843e+002, 2.882931e+002
1.360664e+002, 2.883627e+002
1.365485e+002, 2.882086e+002
1.370306e+002, 2.877417e+002
1.375128e+002, 2.872622e+002
1.379949e+002, 2.865396e+002
1.384770e+002, 2.850585e+002
1.389591e+002, 2.860451e+002
1.394412e+002, 2.919276e+002
1.399233e+002, 3.033318e+002
1.404055e+002, 3.101934e+002
1.408876e+002, 3.118033e+002
1.413697e+002, 3.095497e+002
1.418518e+002, 3.051080e+002
1.423339e+002, 2.971203e+002
1.428160e+002, 2.900316e+002
1.432982e+002, 2.854370e+002
1.437803e+002, 2.837700e+002
1.442624e+002, 2.835325e+002
1.447445e+002, 2.857882e+002
1.452266e+002, 2.891367e+002
1.457087e+002, 2.900701e+002
1.461909e+002, 2.862811e+002
1.466730e+002, 2.830394e+002
1.471551e+002, 2.825105e+002
1.476372e+002, 2.866615e+002
1.481193e+002, 2.902607e+002
1.486014e+002, 2.937582e+002
1.490836e+002, 2.967756e+002
1.495657e+002, 2.980511e+002
1.500478e+002, 2.951661e+002
1.505299e+002, 2.924598e+002
1.510120e+002, 2.918174e+002
1.514941e+002, 2.945453e+002
1.519763e+002, 2.977758e+002
1.524584e+002, 3.021694e+002
1.529405e+002, 3.073026e+002
1.534226e+002, 3.111566e+002
1.539047e+002, 3.112651e+002
1.543868e+002, 3.115527e+002
1.548690e+002, 3.141556e+002
1.553511e+002, 3.228359e+002
1.558332e+002, 3.300869e+002
1.563153e+002, 3.343921e+002
1.567974e+002, 3.359888e+002
1.572795e+002, 3.368965e+002
1.577617e+002, 3.364955e+002
1.582438e+002, 3.361217e+002
1.587259e+002, 3.367404e+002
1.592080e+002, 3.392404e+002
1.596901e+002, 3.421278e+002
1.601722e+002, 3.454514e+002
1.606544e+002, 3.491279e+002
1.611365e+002, 3.517467e+002
1.616186e+002, 3.536828e+002
1.621007e+002, 3.539673e+002
1.625828e+002, 3.517408e+002
1.630649e+002, 3.445084e+002
1.635471e+002, 3.365282e+002
1.640292e+002, 3.299077e+002
1.645113e+002, 3.247197e+002
1.649934e+002, 3.191569e+002
1.654755e+002, 3.115953e+002
1.659576e+002, 3.032938e+002
1.664398e+002, 2.959113e+002
1.669219e+002, 2.897692e+002
1.674040e+002, 2.848651e+002
1.678861e+002, 2.810493e+002
1.683682e+002, 2.782460e+002
1.688503e+002, 2.772715e+002
1.693325e+002, 2.796900e+002
1.698146e+002, 2.841887e+002
1.702967e+002, 2.885970e+002
1.707788e+002, 2.925280e+002
1.712609e+002, 2.956895e+002
1.717430e+002, 2.975673e+002
1.722252e+002, 2.980508e+002
1.727073e+002, 2.981409e+002
1.731894e+002, 2.985891e+002
1.736715e+002, 2.992468e+002
1.741536e+002, 2.997660e+002
1.746357e+002, 3.004168e+002
1.751179e+002, 3.006720e+002
1.756000e+002, 2.999777e+002
1.760821e+002, 2.983286e+002
1.765642e+002, 2.955533e+002
1.770463e+002, 2.908102e+002
1.775284e+002, 2.846175e+002
1.780106e+002, 2.786509e+002
1.784927e+002, 2.740309e+002
1.789748e+002, 2.701408e+002
1.794569e+002, 2.659753e+002
1.799390e+002, 2.613029e+002
1.804211e+002, 2.567324e+002
1.809033e+002, 2.529265e+002
1.813854e+002, 2.497926e+002
1.818675e+002, 2.469831e+002
1.823496e+002, 2.439767e+002
1.828317e+002, 2.411558e+002
1.833138e+002, 2.393649e+002
1.837960e+002, 2.388313e+002
1.842781e+002, 2.390031e+002
1.847602e+002, 2.392549e+002
1.852423e+002, 2.395812e+002
1.857244e+002, 2.399217e+002
1.862065e+002, 2.405795e+002
1.866887e+002, 2.412921e+002
1.871708e+002, 2.409146e+002
1.876529e+002, 2.390493e+002
1.881350e+002, 2.366325e+002
1.886171e+002, 2.349935e+002
1.890992e+002, 2.341262e+002
1.895814e+002, 2.343117e+002
1.900635e+002, 2.367777e+002
1.905456e+002, 2.409893e+002
1.910277e+002, 2.428810e+002
1.915098e+002, 2.415940e+002
1.919919e+002, 2.384605e+002
1.924741e+002, 2.359801e+002
1.929562e+002, 2.341707e+002
1.934383e+002, 2.327888e+002
1.939204e+002, 2.318076e+002
1.944025e+002, 2.312059e+002
1.948846e+002, 2.306683e+002
1.953668e+002, 2.302537e+002
1.958489e+002, 2.297766e+002
1.963310e+002, 2.285428e+002
1.968131e+002, 2.264100e+002
1.972952e+002, 2.246033e+002
1.977773e+002, 2.241610e+002
1.982595e+002, 2.251315e+002
1.987416e+002, 2.258251e+002
1.992237e+002, 2.260031e+002
1.997058e+002, 2.258135e+002
2.001879e+002, 2.256348e+002
2.006700e+002, 2.254695e+002
2.011522e+002, 2.253048e+002
2.016343e+002, 2.251827e+002
2.021164e+002, 2.251288e+002
2.025985e+002, 2.248160e+002
2.030806e+002, 2.240699e+002
2.035627e+002, 2.231153e+002
2.040449e+002, 2.227498e+002
2.045270e+002, 2.231051e+002
2.050091e+002, 2.236113e+002
2.054912e+002, 2.238805e+002
2.059733e+002, 2.238740e+002
2.064554e+002, 2.238758e+002
2.069376e+002, 2.239884e+002
2.074197e+002, 2.241118e+002
2.079018e+002, 2.236597e+002
2.083839e+002, 2.222418e+002
2.088660e+002, 2.212464e+002
2.093481e+002, 2.219872e+002
2.098303e+002, 2.250773e+002
2.103124e+002, 2.271156e+002
2.107945e+002, 2.274731e+002
2.112766e+002, 2.265469e+002
2.117587e+002, 2.258374e+002
2.122408e+002, 2.251662e+002
2.127230e+002, 2.250947e+002
2.132051e+002, 2.262677e+002
2.136872e+002, 2.292880e+002
2.141693e+002, 2.314311e+002
2.146514e+002, 2.321792e+002
2.151335e+002, 2.318188e+002
2.156157e+002, 2.316432e+002
2.160978e+002, 2.316903e+002
2.165799e+002, 2.318362e+002
2.170620e+002, 2.319614e+002
2.175441e+002, 2.319514e+002
2.180262e+002, 2.322871e+002
2.185084e+002, 2.331969e+002
2.189905e+002, 2.345060e+002
2.194726e+002, 2.352627e+002
2.199547e+002, 2.352620e+002
2.204368e+002, 2.350858e+002
2.209189e+002, 2.350611e+002
2.214011e+002, 2.351332e+002
2.218832e+002, 2.356091e+002
2.223653e+002, 2.370163e+002
2.228474e+002, 2.388686e+002
2.233295e+002, 2.387828e+002
2.238116e+002, 2.357285e+002
2.242938e+002, 2.323767e+002
2.247759e+002, 2.303993e+002
2.252580e+002, 2.304620e+002
2.257401e+002, 2.303339e+002
2.262222e+002, 2.298721e+002
2.267043e+002, 2.291008e+002
2.271865e+002, 2.280471e+002
2.276686e+002, 2.265365e+002
2.281507e+002, 2.250306e+002
2.286328e+002, 2.239263e+002
2.291149e+002, 2.237722e+002
2.295970e+002, 2.226232e+002
2.300792e+002, 2.196251e+002
2.305613e+002, 2.155484e+002
2.310434e+002, 2.136806e+002
2.315255e+002, 2.151972e+002
2.320076e+002, 2.172228e+002
2.324897e+002, 2.182184e+002
2.329719e+002, 2.177723e+002
2.334540e+002, 2.172040e+002
2.339361e+002, 2.163954e+002
2.344182e+002, 2.155124e+002
2.349003e+002, 2.151718e+002
2.353824e+002, 2.157305e+002
2.358646e+002, 2.163214e+002
2.363467e+002, 2.164790e+002
2.368288e+002, 2.158923e+002
2.373109e+002, 2.155757e+002
2.377930e+002, 2.157054e+002
2.382751e+002, 2.160928e+002
2.387573e+002, 2.161137e+002
2.392394e+002, 2.153910e+002
2.397215e+002, 2.148367e+002
2.402036e+002, 2.148901e+002
2.406857e+002, 2.158478e+002
2.411678e+002, 2.167218e+002
2.416500e+002, 2.173887e+002
2.421321e+002, 2.179975e+002
2.426142e+002, 2.190599e+002
2.430963e+002, 2.212251e+002
2.435784e+002, 2.228691e+002
2.440605e+002, 2.232120e+002
2.445427e+002, 2.217147e+002
2.450248e+002, 2.202774e+002
2.455069e+002, 2.187339e+002
2.459890e+002, 2.173165e+002
2.464711e+002, 2.166031e+002
2.469532e+002, 2.169348e+002
2.474354e+002, 2.174034e+002
2.479175e+002, 2.176789e+002
2.483996e+002, 2.177234e+002
2.488817e+002, 2.177383e+002
2.493638e+002, 2.178487e+002
2.498459e+002, 2.178653e+002
2.503281e+002, 2.173460e+002
2.508102e+002, 2.158177e+002
2.512923e+002, 2.145850e+002
2.517744e+002, 2.141743e+002
2.522565e+002, 2.148462e+002
2.527386e+002, 2.152511e+002
2.532208e+002, 2.152862e+002
2.537029e+002, 2.151303e+002
2.541850e+002, 2.150936e+002
2.546671e+002, 2.153357e+002
2.551492e+002, 2.153742e+002
2.556313e+002, 2.150086e+002
2.561135e+002, 2.141660e+002
2.565956e+002, 2.133696e+002
2.570777e+002, 2.125197e+002
2.575598e+002, 2.118132e+002
2.580419e+002, 2.115540e+002
2.585240e+002, 2.118902e+002
2.590062e+002, 2.123383e+002
2.594883e+002, 2.127950e+002
2.599704e+002, 2.132538e+002
2.604525e+002, 2.137031e+002
2.609346e+002, 2.141986e+002
2.614167e+002, 2.146106e+002
2.618989e+002, 2.147928e+002
2.623810e+002, 2.147341e+002
2.628631e+002, 2.144597e+002
2.633452e+002, 2.138530e+002
2.638273e+002, 2.129148e+002
2.643094e+002, 2.125061e+002
2.647916e+002, 2.127843e+002
2.652737e+002, 2.133352e+002
2.657558e+002, 2.138571e+002
2.662379e+002, 2.144738e+002
2.667200e+002, 2.146032e+002
2.672021e+002, 2.139007e+002
2.676843e+002, 2.125121e+002
2.681664e+002, 2.119674e+002
2.686485e+002, 2.125992e+002
2.691306e+002, 2.133793e+002
2.696127e+002, 2.132983e+002
2.700948e+002, 2.120668e+002
2.705770e+002, 2.112494e+002
2.710591e+002, 2.110939e+002
2.715412e+002, 2.115459e+002
2.720233e+002, 2.125726e+002
2.725054e+002, 2.144577e+002
2.729875e+002, 2.160854e+002
2.734697e+002, 2.163819e+002
2.739518e+002, 2.150474e+002
2.744339e+002, 2.144335e+002
2.749160e+002, 2.150336e+002
2.753981e+002, 2.164015e+002
2.758802e+002, 2.172115e+002
2.763624e+002, 2.173813e+002
2.768445e+002, 2.172707e+002
2.773266e+002, 2.171921e+002
2.778087e+002, 2.171874e+002
2.782908e+002, 2.164863e+002
2.787729e+002, 2.147741e+002
2.792551e+002, 2.126327e+002
2.797372e+002, 2.114893e+002
2.802193e+002, 2.114599e+002
2.807014e+002, 2.116658e+002
2.811835e+002, 2.115959e+002
2.816656e+002, 2.112583e+002
2.821478e+002, 2.112339e+002
2.826299e+002, 2.116177e+002
2.831120e+002, 2.121771e+002
2.835941e+002, 2.124834e+002
2.840762e+002, 2.125216e+002
2.845583e+002, 2.126363e+002
2.850405e+002, 2.130901e+002
2.855226e+002, 2.138242e+002
2.860047e+002, 2.142278e+002
2.864868e+002, 2.142212e+002
2.869689e+002, 2.141374e+002
2.874510e+002, 2.145240e+002
2.879332e+002, 2.153508e+002
2.884153e+002, 2.160096e+002
2.888974e+002, 2.161434e+002
2.893795e+002, 2.159063e+002
2.898616e+002, 2.158203e+002
2.903438e+002, 2.158750e+002
2.908259e+002, 2.161493e+002
2.913080e+002, 2.169215e+002
2.917901e+002, 2.180782e+002
2.922722e+002, 2.189773e+002
2.927543e+002, 2.193254e+002
2.932365e+002, 2.193103e+002
2.937186e+002, 2.192624e+002
2.942007e+002, 2.191787e+002
2.946828e+002, 2.192784e+002
2.951649e+002, 2.197729e+002
2.956470e+002, 2.206121e+002
2.961292e+002, 2.216546e+002
2.966113e+002, 2.228679e+002
2.970934e+002, 2.242469e+002
2.975755e+002, 2.258869e+002
2.980576e+002, 2.277701e+002
2.985397e+002, 2.296154e+002
2.990219e+002, 2.309310e+002
2.995040e+002, 2.321028e+002
2.999861e+002, 2.340501e+002
3.004682e+002, 2.372125e+002
3.009503e+002, 2.406616e+002
3.014324e+002, 2.432616e+002
3.019146e+002, 2.451601e+002
3.023967e+002, 2.470841e+002
3.028788e+002, 2.500783e+002
3.033609e+002, 2.531784e+002
3.038430e+002, 2.547370e+002
3.043251e+002, 2.542498e+002
3.048073e+002, 2.532874e+002
3.052894e+002, 2.531357e+002
3.057715e+002, 2.536228e+002
3.062536e+002, 2.543286e+002
3.067357e+002, 2.545401e+002
3.072178e+002, 2.551145e+002
3.077000e+002, 2.573188e+002
3.081821e+002, 2.614287e+002
3.086642e+002, 2.653487e+002
3.091463e+002, 2.672687e+002
3.096284e+002, 2.680165e+002
3.101105e+002, 2.689086e+002
3.105927e+002, 2.696663e+002
3.110748e+002, 2.713477e+002
3.115569e+002, 2.754761e+002
3.120390e+002, 2.820325e+002
3.125211e+002, 2.878144e+002
3.130032e+002, 2.905909e+002
3.134854e+002, 2.918794e+002
3.139675e+002, 2.932514e+002
3.144496e+002, 2.962113e+002
3.149317e+002, 2.985008e+002
3.154138e+002, 2.990401e+002
3.158959e+002, 2.979453e+002
3.163781e+002, 2.959693e+002
3.168602e+002, 2.929922e+002
3.173423e+002, 2.895397e+002
3.178244e+002, 2.859865e+002
3.183065e+002, 2.823627e+002
3.187886e+002, 2.787305e+002
3.192708e+002, 2.752632e+002
3.197529e+002, 2.718419e+002
3.202350e+002, 2.681179e+002
3.207171e+002, 2.635405e+002
3.211992e+002, 2.590096e+002
3.216813e+002, 2.550622e+002
3.221635e+002, 2.521686e+002
3.226456e+002, 2.489257e+002
3.231277e+002, 2.445151e+002
3.236098e+002, 2.396700e+002
3.240919e+002, 2.356016e+002
3.245740e+002, 2.325563e+002
3.250562e+002, 2.303121e+002
3.255383e+002, 2.289442e+002
3.260204e+002, 2.286482e+002
3.265025e+002, 2.284296e+002
3.269846e+002, 2.280080e+002
3.274667e+002, 2.277272e+002
3.279489e+002, 2.279597e+002
3.284310e+002, 2.302809e+002
3.289131e+002, 2.313527e+002
3.293952e+002, 2.302775e+002
3.298773e+002, 2.269962e+002
3.303594e+002, 2.241052e+002
3.308416e+002, 2.213751e+002
3.313237e+002, 2.192581e+002
3.318058e+002, 2.182148e+002
3.322879e+002, 2.194995e+002
3.327700e+002, 2.196668e+002
3.332521e+002, 2.179550e+002
3.337343e+002, 2.148264e+002
3.342164e+002, 2.125059e+002
3.346985e+002, 2.111870e+002
3.351806e+002, 2.104051e+002
3.356627e+002, 2.099665e+002
3.361448e+002, 2.099519e+002
3.366270e+002, 2.101054e+002
3.371091e+002, 2.106482e+002
3.375912e+002, 2.111821e+002
3.380733e+002, 2.107653e+002
3.385554e+002, 2.091199e+002
3.390375e+002, 2.074306e+002
3.395197e+002, 2.060137e+002
3.400018e+002, 2.048520e+002
3.404839e+002, 2.046452e+002
3.409660e+002, 2.056354e+002
3.414481e+002, 2.070587e+002
3.419302e+002, 2.080029e+002
3.424124e+002, 2.084666e+002
3.428945e+002, 2.084922e+002
3.433766e+002, 2.076872e+002
3.438587e+002, 2.064673e+002
3.443408e+002, 2.070589e+002
3.448229e+002, 2.096909e+002
3.453051e+002, 2.125549e+002
3.457872e+002, 2.139053e+002
3.462693e+002, 2.139435e+002
3.467514e+002, 2.140301e+002
3.472335e+002, 2.144407e+002
3.477156e+002, 2.150425e+002
3.481978e+002, 2.154355e+002
3.486799e+002, 2.156640e+002
3.491620e+002, 2.162695e+002
3.496441e+002, 2.182532e+002
3.501262e+002, 2.208486e+002
3.506083e+002, 2.220177e+002
3.510905e+002, 2.212603e+002
3.515726e+002, 2.200529e+002
3.520547e+002, 2.198370e+002
3.525368e+002, 2.205384e+002
3.530189e+002, 2.219332e+002
3.535010e+002, 2.241728e+002
3.539832e+002, 2.269185e+002
3.544653e+002, 2.300900e+002
3.549474e+002, 2.337490e+002
3.554295e+002, 2.367142e+002
3.559116e+002, 2.370532e+002
3.563937e+002, 2.363167e+002
3.568759e+002, 2.368292e+002
3.573580e+002, 2.408458e+002
3.578401e+002, 2.452259e+002
3.583222e+002, 2.479542e+002
3.588043e+002, 2.491814e+002
3.592864e+002, 2.496453e+002
3.597686e+002, 2.499171e+002
3.602507e+002, 2.495031e+002
3.607328e+002, 2.478959e+002
3.612149e+002, 2.443800e+002
3.616970e+002, 2.406691e+002
3.621791e+002, 2.375387e+002
3.626613e+002, 2.347143e+002
3.631434e+002, 2.315671e+002
3.636255e+002, 2.274621e+002
3.641076e+002, 2.233336e+002
3.645897e+002, 2.196030e+002
3.650718e+002, 2.164834e+002
3.655540e+002, 2.134389e+002
3.660361e+002, 2.103940e+002
3.665182e+002, 2.073744e+002
3.670003e+002, 2.044109e+002
3.674824e+002, 2.005265e+002
3.679645e+002, 1.977112e+002
3.684467e+002, 1.969860e+002
3.689288e+002, 1.985036e+002
3.694109e+002, 1.987851e+002
3.698930e+002, 1.966544e+002
3.703751e+002, 1.941994e+002
3.708572e+002, 1.928625e+002
3.713394e+002, 1.936241e+002
3.718215e+002, 1.938471e+002
3.723036e+002, 1.929871e+002
3.727857e+002, 1.914648e+002
3.732678e+002, 1.908944e+002
3.737499e+002, 1.919350e+002
3.742321e+002, 1.927448e+002
3.747142e+002, 1.923299e+002
3.751963e+002, 1.902921e+002
3.756784e+002, 1.886432e+002
3.761605e+002, 1.872863e+002
3.766426e+002, 1.864603e+002
3.771248e+002, 1.867780e+002
3.776069e+002, 1.884500e+002
3.780890e+002, 1.900271e+002
3.785711e+002, 1.911998e+002
3.790532e+002, 1.919149e+002
3.795353e+002, 1.914434e+002
3.800175e+002, 1.895652e+002
3.804996e+002, 1.875888e+002
3.809817e+002, 1.869641e+002
3.814638e+002, 1.875108e+002
3.819459e+002, 1.876310e+002
3.824280e+002, 1.868004e+002
3.829102e+002, 1.856432e+002
3.833923e+002, 1.856021e+002
3.838744e+002, 1.865534e+002
3.843565e+002, 1.872510e+002
3.848386e+002, 1.863529e+002
3.853207e+002, 1.847111e+002
3.858029e+002, 1.842651e+002
3.862850e+002, 1.853685e+002
3.867671e+002, 1.867646e+002
3.872492e+002, 1.872124e+002
3.877313e+002, 1.869694e+002
3.882134e+002, 1.866098e+002
3.886956e+002, 1.864415e+002
3.891777e+002, 1.862514e+002
3.896598e+002, 1.858321e+002
3.901419e+002, 1.851907e+002
3.906240e+002, 1.844612e+002
3.911061e+002, 1.833962e+002
3.915883e+002, 1.824214e+002
3.920704e+002, 1.820058e+002
3.925525e+002, 1.826213e+002
3.930346e+002, 1.833465e+002
3.935167e+002, 1.839438e+002
3.939988e+002, 1.843508e+002
3.944810e+002, 1.844029e+002
3.949631e+002, 1.835869e+002
3.954452e+002, 1.827558e+002
3.959273e+002, 1.823787e+002
3.964094e+002, 1.826659e+002
3.968915e+002, 1.829044e+002
3.973737e+002, 1.832176e+002
3.978558e+002, 1.833266e+002
3.983379e+002, 1.828877e+002
3.988200e+002, 1.808699e+002
3.993021e+002, 1.793594e+002
3.997842e+002, 1.791491e+002
4.002664e+002, 1.802286e+002
4.007485e+002, 1.801472e+002
4.012306e+002, 1.775103e+002
4.017127e+002, 1.750683e+002
4.021948e+002, 1.747329e+002
4.026769e+002, 1.778813e+002
4.031591e+002, 1.801355e+002
4.036412e+002, 1.810640e+002
4.041233e+002, 1.810360e+002
4.046054e+002, 1.809851e+002
4.050875e+002, 1.809834e+002
4.055696e+002, 1.807364e+002
4.060518e+002, 1.798512e+002
4.065339e+002, 1.782802e+002
4.070160e+002, 1.780688e+002
4.074981e+002, 1.795750e+002
4.079802e+002, 1.814416e+002
4.084623e+002, 1.819180e+002
4.089445e+002, 1.810387e+002
4.094266e+002, 1.805374e+002
4.099087e+002, 1.812161e+002
4.103908e+002, 1.822772e+002
4.108729e+002, 1.813857e+002
4.113550e+002, 1.786086e+002
4.118372e+002, 1.761441e+002
4.123193e+002, 1.757954e+002
4.128014e+002, 1.768939e+002
4.132835e+002, 1.779594e+002
4.137656e+002, 1.788633e+002
4.142477e+002, 1.794765e+002
4.147299e+002, 1.792696e+002
4.152120e+002, 1.786294e+002
4.156941e+002, 1.784916e+002
4.161762e+002, 1.802976e+002
4.166583e+002, 1.821411e+002
4.171404e+002, 1.817823e+002
4.176226e+002, 1.792859e+002
4.181047e+002, 1.774106e+002
4.185868e+002, 1.787363e+002
4.190689e+002, 1.809749e+002
4.195510e+002, 1.818854e+002
4.200331e+002, 1.796113e+002
4.205153e+002, 1.776070e+002
4.209974e+002, 1.775822e+002
4.214795e+002, 1.788552e+002
4.219616e+002, 1.797042e+002
4.224437e+002, 1.793591e+002
4.229258e+002, 1.787945e+002
4.234080e+002, 1.784287e+002
4.238901e+002, 1.783780e+002
4.243722e+002, 1.782111e+002
4.248543e+002, 1.775751e+002
4.253364e+002, 1.769690e+002
4.258185e+002, 1.768892e+002
4.263007e+002, 1.776269e+002
4.267828e+002, 1.784933e+002
4.272649e+002, 1.795896e+002
4.277470e+002, 1.807973e+002
4.282291e+002, 1.813097e+002
4.287112e+002, 1.808963e+002
4.291934e+002, 1.801766e+002
4.296755e+002, 1.794190e+002
4.301576e+002, 1.785880e+002
4.306397e+002, 1.779355e+002
4.311218e+002, 1.775251e+002
4.316039e+002, 1.772014e+002
4.320861e+002, 1.765618e+002
4.325682e+002, 1.755567e+002
4.330503e+002, 1.750573e+002
4.335324e+002, 1.755401e+002
4.340145e+002, 1.767222e+002
4.344966e+002, 1.778065e+002
4.349788e+002, 1.788094e+002
4.354609e+002, 1.792751e+002
4.359430e+002, 1.782184e+002
4.364251e+002, 1.762988e+002
4.369072e+002, 1.755425e+002
4.373893e+002, 1.766870e+002
4.378715e+002, 1.781122e+002
4.383536e+002, 1.775761e+002
4.388357e+002, 1.757545e+002
4.393178e+002, 1.745334e+002
4.397999e+002, 1.752045e+002
4.402820e+002, 1.767139e+002
4.407642e+002, 1.783963e+002
4.412463e+002, 1.802243e+002
4.417284e+002, 1.814375e+002
4.422105e+002, 1.811149e+002
4.426926e+002, 1.802213e+002
4.431747e+002, 1.796693e+002
4.436569e+002, 1.794771e+002
4.441390e+002, 1.799304e+002
4.446211e+002, 1.819338e+002
4.451032e+002, 1.847595e+002
4.455853e+002, 1.862367e+002
4.460674e+002, 1.844930e+002
4.465496e+002, 1.826524e+002
4.470317e+002, 1.819379e+002
4.475138e+002, 1.827874e+002
4.479959e+002, 1.834594e+002
4.484780e+002, 1.834691e+002
4.489601e+002, 1.836477e+002
4.494423e+002, 1.848540e+002
4.499244e+002, 1.874469e+002
4.504065e+002, 1.903316e+002
4.508886e+002, 1.935272e+002
4.513707e+002, 1.968696e+002
4.518528e+002, 1.999461e+002
4.523350e+002, 2.030148e+002
4.528171e+002, 2.050467e+002
4.532992e+002, 2.047986e+002
4.537813e+002, 2.022151e+002
4.542634e+002, 2.018795e+002
4.547455e+002, 2.042682e+002
4.552277e+002, 2.076601e+002
4.557098e+002, 2.097585e+002
4.561919e+002, 2.107739e+002
4.566740e+002, 2.123739e+002
4.571561e+002, 2.154835e+002
4.576382e+002, 2.191246e+002
4.581204e+002, 2.217506e+002
4.586025e+002, 2.233873e+002
4.590846e+002, 2.240446e+002
4.595667e+002, 2.233555e+002
4.600488e+002, 2.218567e+002
4.605309e+002, 2.202736e+002
4.610131e+002, 2.187734e+002
4.614952e+002, 2.169268e+002
4.619773e+002, 2.142630e+002
4.624594e+002, 2.111268e+002
4.629415e+002, 2.079809e+002
4.634236e+002, 2.050418e+002
4.639058e+002, 2.021349e+002
4.643879e+002, 1.991764e+002
4.648700e+002, 1.961925e+002
4.653521e+002, 1.931199e+002
4.658342e+002, 1.892018e+002
4.663163e+002, 1.857005e+002
4.667985e+002, 1.833495e+002
4.672806e+002, 1.828076e+002
4.677627e+002, 1.823401e+002
4.682448e+002, 1.821693e+002
4.687269e+002, 1.819495e+002
4.692090e+002, 1.810704e+002
4.696912e+002, 1.786796e+002
4.701733e+002, 1.772301e+002
4.706554e+002, 1.777269e+002
4.711375e+002, 1.798548e+002
4.716196e+002, 1.804287e+002
4.721017e+002, 1.790726e+002
4.725839e+002, 1.772142e+002
4.730660e+002, 1.756029e+002
4.735481e+002, 1.742449e+002
4.740302e+002, 1.735052e+002
4.745123e+002, 1.734749e+002
4.749944e+002, 1.739025e+002
4.754766e+002, 1.746785e+002
4.759587e+002, 1.757033e+002
4.764408e+002, 1.763416e+002
4.769229e+002, 1.764617e+002
4.774050e+002, 1.759701e+002
4.778871e+002, 1.739092e+002
4.783693e+002, 1.705611e+002
4.788514e+002, 1.684780e+002
4.793335e+002, 1.707794e+002
4.798156e+002, 1.748075e+002
4.802977e+002, 1.772668e+002
4.807798e+002, 1.771965e+002
4.812620e+002, 1.768281e+002
4.817441e+002, 1.778690e+002
4.822262e+002, 1.793361e+002
4.827083e+002, 1.797797e+002
4.831904e+002, 1.779903e+002
4.836725e+002, 1.757910e+002
4.841547e+002, 1.734319e+002
4.846368e+002, 1.710262e+002
4.851189e+002, 1.696436e+002
4.856010e+002, 1.700679e+002
4.860831e+002, 1.710706e+002
4.865652e+002, 1.720297e+002
4.870474e+002, 1.728573e+002
4.875295e+002, 1.738525e+002
4.880116e+002, 1.750964e+002
4.884937e+002, 1.764357e+002
4.889758e+002, 1.778467e+002
4.894579e+002, 1.797143e+002
4.899401e+002, 1.803725e+002
4.904222e+002, 1.789426e+002
4.909043e+002, 1.760602e+002
4.913864e+002, 1.748244e+002
4.918685e+002, 1.754428e+002
4.923506e+002, 1.762607e+002
4.928328e+002, 1.758003e+002
4.933149e+002, 1.744844e+002
4.937970e+002, 1.745054e+002
4.942791e+002, 1.762488e+002
4.947612e+002, 1.782052e+002
4.952433e+002, 1.785328e+002
4.957255e+002, 1.777230e+002
4.962076e+002, 1.770296e+002
4.966897e+002, 1.769102e+002
4.971718e+002, 1.771030e+002
4.976539e+002, 1.776904e+002
4.981360e+002, 1.784770e+002
4.986182e+002, 1.787070e+002
4.991003e+002, 1.771521e+002
4.995824e+002, 1.754642e+002
5.000645e+002, 1.750368e+002
5.005466e+002, 1.764034e+002
5.010287e+002, 1.772449e+002
5.015109e+002, 1.762043e+002
5.019930e+002, 1.746183e+002
5.024751e+002, 1.738344e+002
5.029572e+002, 1.750150e+002
5.034393e+002, 1.758141e+002
5.039214e+002, 1.757918e+002
5.044036e+002, 1.751902e+002
5.048857e+002, 1.749036e+002
5.053678e+002, 1.752751e+002
5.058499e+002, 1.753418e+002
5.063320e+002, 1.744173e+002
5.068141e+002, 1.723443e+002
5.072963e+002, 1.719314e+002
5.077784e+002, 1.737092e+002
5.082605e+002, 1.757271e+002
5.087426e+002, 1.756958e+002
5.092247e+002, 1.737787e+002
5.097068e+002, 1.725401e+002
5.101890e+002, 1.726148e+002
5.106711e+002, 1.732711e+002
5.111532e+002, 1.733014e+002
5.116353e+002, 1.728172e+002
5.121174e+002, 1.723623e+002
5.125995e+002, 1.720519e+002
5.130817e+002, 1.720096e+002
5.135638e+002, 1.727519e+002
5.140459e+002, 1.742135e+002
5.145280e+002, 1.750234e+002
5.150101e+002, 1.733211e+002
5.154922e+002, 1.710696e+002
5.159744e+002, 1.702347e+002
5.164565e+002, 1.720392e+002
5.169386e+002, 1.736570e+002
5.174207e+002, 1.738264e+002
5.179028e+002, 1.732940e+002
5.183849e+002, 1.732829e+002
5.188671e+002, 1.749458e+002
5.193492e+002, 1.761052e+002
5.198313e+002, 1.759440e+002
5.203134e+002, 1.746028e+002
5.207955e+002, 1.742659e+002
5.212776e+002, 1.755927e+002
5.217598e+002, 1.769489e+002
5.222419e+002, 1.773917e+002
5.227240e+002, 1.767768e+002
5.232061e+002, 1.759042e+002
5.236882e+002, 1.745677e+002
5.241703e+002, 1.734297e+002
5.246525e+002, 1.736397e+002
5.251346e+002, 1.750969e+002
5.256167e+002, 1.761280e+002
5.260988e+002, 1.760651e+002
5.265809e+002, 1.755648e+002
5.270630e+002, 1.761185e+002
5.275452e+002, 1.774787e+002
5.280273e+002, 1.782415e+002
5.285094e+002, 1.767519e+002
5.289915e+002, 1.746519e+002
5.294736e+002, 1.739328e+002
5.299557e+002, 1.747778e+002
5.304379e+002, 1.757586e+002
5.309200e+002, 1.763847e+002
5.314021e+002, 1.765513e+002
5.318842e+002, 1.760719e+002
5.323663e+002, 1.736492e+002
5.328484e+002, 1.723773e+002
5.333306e+002, 1.740354e+002
5.338127e+002, 1.772995e+002
5.342948e+002, 1.793369e+002
5.347769e+002, 1.794070e+002
5.352590e+002, 1.788168e+002
5.357411e+002, 1.773839e+002
5.362233e+002, 1.751775e+002
5.367054e+002, 1.747027e+002
5.371875e+002, 1.766970e+002
5.376696e+002, 1.790108e+002
5.381517e+002, 1.803307e+002
5.386339e+002, 1.806030e+002
5.391160e+002, 1.803969e+002
5.395981e+002, 1.796133e+002
5.400802e+002, 1.787169e+002
5.405623e+002, 1.781026e+002
5.410444e+002, 1.778343e+002
5.415266e+002, 1.783333e+002
5.420087e+002, 1.801855e+002
5.424908e+002, 1.823372e+002
5.429729e+002, 1.830476e+002
5.434550e+002, 1.826349e+002
5.439371e+002, 1.824015e+002
5.444193e+002, 1.831902e+002
5.449014e+002, 1.843971e+002
5.453835e+002, 1.855093e+002
5.458656e+002, 1.864692e+002
5.463477e+002, 1.876056e+002
5.468298e+002, 1.893381e+002
5.473120e+002, 1.911606e+002
5.477941e+002, 1.926199e+002
5.482762e+002, 1.926000e+002
5.487583e+002, 1.936730e+002
5.492404e+002, 1.966197e+002
5.497225e+002, 2.005862e+002
5.502047e+002, 2.041777e+002
5.506868e+002, 2.073674e+002
5.511689e+002, 2.102253e+002
5.516510e+002, 2.126461e+002
5.521331e+002, 2.147190e+002
5.526152e+002, 2.169501e+002
5.530974e+002, 2.193553e+002
5.535795e+002, 2.218523e+002
5.540616e+002, 2.243425e+002
5.545437e+002, 2.268655e+002
5.550258e+002, 2.296361e+002
5.555079e+002, 2.326844e+002
5.559901e+002, 2.359508e+002
5.564722e+002, 2.397798e+002
5.569543e+002, 2.437805e+002
5.574364e+002, 2.470573e+002
5.579185e+002, 2.489451e+002
5.584006e+002, 2.507011e+002
5.588828e+002, 2.535447e+002
5.593649e+002, 2.570304e+002
5.598470e+002, 2.601935e+002
5.603291e+002, 2.632590e+002
5.608112e+002, 2.653397e+002
5.612933e+002, 2.661624e+002
5.617755e+002, 2.657039e+002
5.622576e+002, 2.638002e+002
5.627397e+002, 2.590962e+002
5.632218e+002, 2.540243e+002
5.637039e+002, 2.498579e+002
5.641860e+002, 2.474270e+002
5.646682e+002, 2.435998e+002
5.651503e+002, 2.377784e+002
5.656324e+002, 2.312661e+002
5.661145e+002, 2.256719e+002
5.665966e+002, 2.209637e+002
5.670787e+002, 2.171346e+002
5.675609e+002, 2.143536e+002
5.680430e+002, 2.122370e+002
5.685251e+002, 2.099567e+002
5.690072e+002, 2.075656e+002
5.694893e+002, 2.056390e+002
5.699714e+002, 2.052760e+002
5.704536e+002, 2.051784e+002
5.709357e+002, 2.029482e+002
5.714178e+002, 1.987235e+002
5.718999e+002, 1.950851e+002
5.723820e+002, 1.943561e+002
5.728641e+002, 1.946197e+002
5.733463e+002, 1.941110e+002
5.738284e+002, 1.920588e+002
5.743105e+002, 1.904492e+002
5.747926e+002, 1.902888e+002
5.752747e+002, 1.907450e+002
5.757568e+002, 1.907596e+002
5.762390e+002, 1.893508e+002
5.767211e+002, 1.887314e+002
5.772032e+002, 1.896638e+002
5.776853e+002, 1.915205e+002
5.781674e+002, 1.920153e+002
5.786495e+002, 1.907396e+002
5.791317e+002, 1.892931e+002
5.796138e+002, 1.882773e+002
5.800959e+002, 1.876605e+002
5.805780e+002, 1.872322e+002
5.810601e+002, 1.870064e+002
5.815422e+002, 1.867883e+002
5.820244e+002, 1.865868e+002
5.825065e+002, 1.862525e+002
5.829886e+002, 1.851829e+002
5.834707e+002, 1.830849e+002
5.839528e+002, 1.813559e+002
5.844349e+002, 1.819491e+002
5.849171e+002, 1.835387e+002
5.853992e+002, 1.841434e+002
5.858813e+002, 1.819413e+002
5.863634e+002, 1.798365e+002
5.868455e+002, 1.789987e+002
5.873276e+002, 1.791710e+002
5.878098e+002, 1.797058e+002
5.882919e+002, 1.807163e+002
5.887740e+002, 1.818441e+002
5.892561e+002, 1.831811e+002
5.897382e+002, 1.847437e+002
5.902203e+002, 1.853700e+002
5.907025e+002, 1.846276e+002
5.911846e+002, 1.837150e+002
5.916667e+002, 1.835505e+002
5.921488e+002, 1.842292e+002
5.926309e+002, 1.840415e+002
5.931130e+002, 1.826772e+002
5.935952e+002, 1.813868e+002
5.940773e+002, 1.821401e+002
5.945594e+002, 1.843710e+002
5.950415e+002, 1.858342e+002
5.955236e+002, 1.858197e+002
5.960057e+002, 1.851177e+002
5.964879e+002, 1.840393e+002
5.969700e+002, 1.829455e+002
5.974521e+002, 1.827006e+002
5.979342e+002, 1.846425e+002
5.984163e+002, 1.867181e+002
5.988984e+002, 1.876635e+002
5.993806e+002, 1.875858e+002
5.998627e+002, 1.877181e+002
6.003448e+002, 1.885094e+002
6.008269e+002, 1.894310e+002
6.013090e+002, 1.903505e+002
6.017911e+002, 1.914629e+002
6.022733e+002, 1.917031e+002
6.027554e+002, 1.906257e+002
6.032375e+002, 1.893030e+002
6.037196e+002, 1.888699e+002
6.042017e+002, 1.894487e+002
6.046838e+002, 1.895937e+002
6.051660e+002, 1.890674e+002
6.056481e+002, 1.882070e+002
6.061302e+002, 1.875100e+002
6.066123e+002, 1.869519e+002
6.070944e+002, 1.864205e+002
6.075765e+002, 1.858793e+002
6.080587e+002, 1.853323e+002
6.085408e+002, 1.848988e+002
6.090229e+002, 1.844883e+002
6.095050e+002, 1.837611e+002
6.099871e+002, 1.822202e+002
6.104692e+002, 1.805712e+002
6.109514e+002, 1.790154e+002
6.114335e+002, 1.775215e+002
6.119156e+002, 1.769487e+002
6.123977e+002, 1.787022e+002
6.128798e+002, 1.804847e+002
6.133619e+002, 1.808977e+002
6.138441e+002, 1.792483e+002
6.143262e+002, 1.778714e+002
6.148083e+002, 1.767812e+002
6.152904e+002, 1.759320e+002
6.157725e+002, 1.753635e+002
6.162546e+002, 1.751004e+002
6.167368e+002, 1.747575e+002
6.172189e+002, 1.743346e+002
6.177010e+002, 1.736592e+002
6.181831e+002, 1.719565e+002
6.186652e+002, 1.695958e+002
6.191473e+002, 1.680698e+002
6.196295e+002, 1.695078e+002
6.201116e+002, 1.711921e+002
6.205937e+002, 1.694929e+002
6.210758e+002, 1.652066e+002
6.215579e+002, 1.622891e+002
6.220400e+002, 1.638588e+002
6.225222e+002, 1.664975e+002
6.230043e+002, 1.684027e+002
6.234864e+002, 1.693503e+002
6.239685e+002, 1.698525e+002
6.244506e+002, 1.697984e+002
6.249327e+002, 1.694583e+002
6.254149e+002, 1.688566e+002
6.258970e+002, 1.675570e+002
6.263791e+002, 1.675108e+002
6.268612e+002, 1.692840e+002
6.273433e+002, 1.714783e+002
6.278254e+002, 1.719199e+002
6.283076e+002, 1.706990e+002
6.287897e+002, 1.697896e+002
6.292718e+002, 1.697942e+002
6.297539e+002, 1.701644e+002
6.302360e+002, 1.699564e+002
6.307181e+002, 1.693634e+002
6.312003e+002, 1.690007e+002
6.316824e+002, 1.699565e+002
6.321645e+002, 1.706475e+002
6.326466e+002, 1.692954e+002
6.331287e+002, 1.662726e+002
6.336108e+002, 1.641625e+002
6.340930e+002, 1.642431e+002
6.345751e+002, 1.651108e+002
6.350572e+002, 1.663702e+002
6.355393e+002, 1.682978e+002
6.360214e+002, 1.689400e+002
6.365035e+002, 1.674972e+002
6.369857e+002, 1.657402e+002
6.374678e+002, 1.650277e+002
6.379499e+002, 1.654866e+002
6.384320e+002, 1.661172e+002
6.389141e+002, 1.669065e+002
6.393962e+002, 1.677061e+002
6.398784e+002, 1.686051e+002
6.403605e+002, 1.694137e+002
6.408426e+002, 1.691865e+002
6.413247e+002, 1.671434e+002
6.418068e+002, 1.649209e+002
6.422889e+002, 1.644713e+002
6.427711e+002, 1.652010e+002
6.432532e+002, 1.657483e+002
6.437353e+002, 1.646665e+002
6.442174e+002, 1.640688e+002
6.446995e+002, 1.656970e+002
6.451816e+002, 1.690719e+002
6.456638e+002, 1.709072e+002
6.461459e+002, 1.691546e+002
6.466280e+002, 1.673629e+002
6.471101e+002, 1.667406e+002
6.475922e+002, 1.673672e+002
6.480743e+002, 1.678312e+002
6.485565e+002, 1.681256e+002
6.490386e+002, 1.682591e+002
6.495207e+002, 1.681542e+002
6.500028e+002, 1.678479e+002
6.504849e+002, 1.676367e+002
6.509670e+002, 1.675242e+002
6.514492e+002, 1.676249e+002
6.519313e+002, 1.682056e+002
6.524134e+002, 1.690638e+002
6.528955e+002, 1.698106e+002
6.533776e+002, 1.703490e+002
6.538597e+002, 1.707883e+002
6.543419e+002, 1.709726e+002
6.548240e+002, 1.711610e+002
6.553061e+002, 1.717488e+002
6.557882e+002, 1.740325e+002
6.562703e+002, 1.753585e+002
6.567524e+002, 1.739853e+002
6.572346e+002, 1.712297e+002
6.577167e+002, 1.713394e+002
6.581988e+002, 1.759821e+002
6.586809e+002, 1.796653e+002
6.591630e+002, 1.801623e+002
6.596451e+002, 1.781245e+002
6.601273e+002, 1.773428e+002
6.606094e+002, 1.778503e+002
6.610915e+002, 1.788467e+002
6.615736e+002, 1.802147e+002
6.620557e+002, 1.815780e+002
6.625378e+002, 1.819712e+002
6.630200e+002, 1.813526e+002
6.635021e+002, 1.808752e+002
6.639842e+002, 1.807929e+002
6.644663e+002, 1.815545e+002
6.649484e+002, 1.838169e+002
6.654305e+002, 1.883791e+002
6.659127e+002, 1.924240e+002
6.663948e+002, 1.950899e+002
6.668769e+002, 1.970025e+002
6.673590e+002, 1.987556e+002
6.678411e+002, 1.998392e+002
6.683232e+002, 2.019448e+002
6.688054e+002, 2.057319e+002
6.692875e+002, 2.099767e+002
6.697696e+002, 2.120005e+002
6.702517e+002, 2.117370e+002
6.707338e+002, 2.128064e+002
6.712159e+002, 2.166553e+002
6.716981e+002, 2.218709e+002
6.721802e+002, 2.262191e+002
6.726623e+002, 2.298172e+002
6.731444e+002, 2.332488e+002
6.736265e+002, 2.369946e+002
6.741086e+002, 2.404868e+002
6.745908e+002, 2.435354e+002
6.750729e+002, 2.460247e+002
6.755550e+002, 2.474803e+002
6.760371e+002, 2.475624e+002
6.765192e+002, 2.467330e+002
6.770013e+002, 2.452543e+002
6.774835e+002, 2.431834e+002
6.779656e+002, 2.398766e+002
6.784477e+002, 2.347341e+002
6.789298e+002, 2.293882e+002
6.794119e+002, 2.250924e+002
6.798940e+002, 2.218036e+002
6.803762e+002, 2.183423e+002
6.808583e+002, 2.146219e+002
6.813404e+002, 2.107236e+002
6.818225e+002, 2.061828e+002
6.823046e+002, 2.015796e+002
6.827867e+002, 1.982152e+002
6.832689e+002, 1.967427e+002
6.837510e+002, 1.953106e+002
6.842331e+002, 1.921952e+002
6.847152e+002, 1.885005e+002
6.851973e+002, 1.857044e+002
6.856794e+002, 1.847279e+002
6.861616e+002, 1.840107e+002
6.866437e+002, 1.835436e+002
6.871258e+002, 1.830957e+002
6.876079e+002, 1.821364e+002
6.880900e+002, 1.802291e+002
6.885721e+002, 1.790464e+002
6.890543e+002, 1.792899e+002
6.895364e+002, 1.803364e+002
6.900185e+002, 1.802802e+002
6.905006e+002, 1.791494e+002
6.909827e+002, 1.778747e+002
6.914648e+002, 1.768325e+002
6.919470e+002, 1.759717e+002
6.924291e+002, 1.751314e+002
6.929112e+002, 1.743501e+002
6.933933e+002, 1.738444e+002
6.938754e+002, 1.742249e+002
6.943575e+002, 1.745280e+002
6.948397e+002, 1.738882e+002
6.953218e+002, 1.721295e+002
6.958039e+002, 1.710741e+002
6.962860e+002, 1.713640e+002
6.967681e+002, 1.720336e+002
6.972502e+002, 1.726474e+002
6.977324e+002, 1.731889e+002
6.982145e+002, 1.738622e+002
6.986966e+002, 1.748527e+002
6.991787e+002, 1.754545e+002
6.996608e+002, 1.745856e+002
7.001429e+002, 1.726140e+002
7.006251e+002, 1.713473e+002
7.011072e+002, 1.710649e+002
7.015893e+002, 1.712471e+002
7.020714e+002, 1.713813e+002
7.025535e+002, 1.716457e+002
7.030356e+002, 1.724257e+002
7.035178e+002, 1.746686e+002
7.039999e+002, 1.759497e+002
7.044820e+002, 1.742660e+002
7.049641e+002, 1.713490e+002
7.054462e+002, 1.699297e+002
7.059283e+002, 1.711908e+002
7.064105e+002, 1.722936e+002
7.068926e+002, 1.729453e+002
7.073747e+002, 1.732043e+002
7.078568e+002, 1.730357e+002
7.083389e+002, 1.723743e+002
7.088210e+002, 1.722228e+002
7.093032e+002, 1.732753e+002
7.097853e+002, 1.747110e+002
7.102674e+002, 1.746684e+002
7.107495e+002, 1.734485e+002
7.112316e+002, 1.723156e+002
7.117137e+002, 1.720877e+002
7.121959e+002, 1.720982e+002
7.126780e+002, 1.717427e+002
7.131601e+002, 1.711084e+002
7.136422e+002, 1.709165e+002
7.141243e+002, 1.718253e+002
7.146064e+002, 1.727788e+002
7.150886e+002, 1.733607e+002
7.155707e+002, 1.735664e+002
7.160528e+002, 1.737441e+002
7.165349e+002, 1.740098e+002
7.170170e+002, 1.739569e+002
7.174991e+002, 1.730022e+002
7.179813e+002, 1.713523e+002
7.184634e+002, 1.707113e+002
7.189455e+002, 1.711537e+002
7.194276e+002, 1.718717e+002
7.199097e+002, 1.720660e+002
7.203918e+002, 1.721605e+002
7.208740e+002, 1.728618e+002
7.213561e+002, 1.744221e+002
7.218382e+002, 1.756664e+002
7.223203e+002, 1.759399e+002
7.228024e+002, 1.757146e+002
7.232845e+002, 1.754155e+002
7.237667e+002, 1.752355e+002
7.242488e+002, 1.746660e+002
7.247309e+002, 1.734139e+002
7.252130e+002, 1.720745e+002
7.256951e+002, 1.715091e+002
7.261772e+002, 1.718083e+002
7.266594e+002, 1.713302e+002
7.271415e+002, 1.695253e+002
7.276236e+002, 1.677688e+002
7.281057e+002, 1.685430e+002
7.285878e+002, 1.708889e+002
7.290699e+002, 1.721951e+002
7.295521e+002, 1.706537e+002
7.300342e+002, 1.693572e+002
7.305163e+002, 1.713101e+002
7.309984e+002, 1.747882e+002
7.314805e+002, 1.767173e+002
7.319626e+002, 1.744278e+002
7.324448e+002, 1.728338e+002
7.329269e+002, 1.731160e+002
7.334090e+002, 1.746015e+002
7.338911e+002, 1.756001e+002
7.343732e+002, 1.762059e+002
7.348553e+002, 1.757780e+002
7.353375e+002, 1.735430e+002
7.358196e+002, 1.705963e+002
7.363017e+002, 1.700640e+002
7.367838e+002, 1.716176e+002
7.372659e+002, 1.732506e+002
7.377480e+002, 1.740660e+002
7.382302e+002, 1.743109e+002
7.387123e+002, 1.739485e+002
7.391944e+002, 1.731364e+002
7.396765e+002, 1.726099e+002
7.401586e+002, 1.724598e+002
7.406407e+002, 1.728257e+002
7.411229e+002, 1.742093e+002
7.416050e+002, 1.765223e+002
7.420871e+002, 1.773562e+002
7.425692e+002, 1.759826e+002
7.430513e+002, 1.748722e+002
7.435334e+002, 1.758451e+002
7.440156e+002, 1.784669e+002
7.444977e+002, 1.787115e+002
7.449798e+002, 1.765861e+002
7.454619e+002, 1.742456e+002
7.459440e+002, 1.732695e+002
7.464261e+002, 1.731086e+002
7.469083e+002, 1.731201e+002
7.473904e+002, 1.732452e+002
7.478725e+002, 1.735706e+002
7.483546e+002, 1.741598e+002
7.488367e+002, 1.749396e+002
7.493188e+002, 1.760859e+002
7.498010e+002, 1.780744e+002
7.502831e+002, 1.784363e+002
7.507652e+002, 1.763303e+002
7.512473e+002, 1.738836e+002
7.517294e+002, 1.727656e+002
7.522115e+002, 1.729700e+002
7.526937e+002, 1.735025e+002
7.531758e+002, 1.743862e+002
7.536579e+002, 1.750749e+002
7.541400e+002, 1.749421e+002
7.546221e+002, 1.742639e+002
7.551042e+002, 1.732493e+002
7.555864e+002, 1.716447e+002
7.560685e+002, 1.709846e+002
7.565506e+002, 1.731159e+002
7.570327e+002, 1.760942e+002
7.575148e+002, 1.779147e+002
7.579969e+002, 1.775602e+002
7.584791e+002, 1.772608e+002
7.589612e+002, 1.770937e+002
7.594433e+002, 1.768952e+002
7.599254e+002, 1.762847e+002
7.604075e+002, 1.752071e+002
7.608896e+002, 1.750896e+002
7.613718e+002, 1.764763e+002
7.618539e+002, 1.778185e+002
7.623360e+002, 1.765076e+002
7.628181e+002, 1.736906e+002
7.633002e+002, 1.717361e+002
7.637823e+002, 1.713129e+002
7.642645e+002, 1.719448e+002
7.647466e+002, 1.747387e+002
7.652287e+002, 1.780035e+002
7.657108e+002, 1.792204e+002
7.661929e+002, 1.753996e+002
7.666750e+002, 1.732170e+002
7.671572e+002, 1.738792e+002
7.676393e+002, 1.759702e+002
7.681214e+002, 1.769536e+002
7.686035e+002, 1.767787e+002
7.690856e+002, 1.760430e+002
7.695677e+002, 1.747205e+002
7.700499e+002, 1.732379e+002
7.705320e+002, 1.718686e+002
7.710141e+002, 1.708630e+002
7.714962e+002, 1.708756e+002
7.719783e+002, 1.734084e+002
7.724604e+002, 1.757422e+002
7.729426e+002, 1.760718e+002
7.734247e+002, 1.751742e+002
7.739068e+002, 1.748622e+002
7.743889e+002, 1.761392e+002
7.748710e+002, 1.768628e+002
7.753531e+002, 1.764422e+002
7.758353e+002, 1.753369e+002
7.763174e+002, 1.749274e+002
7.767995e+002, 1.752538e+002
7.772816e+002, 1.755120e+002
7.777637e+002, 1.754274e+002
7.782458e+002, 1.750890e+002
7.787280e+002, 1.745926e+002
7.792101e+002, 1.739594e+002
7.796922e+002, 1.732675e+002
7.801743e+002, 1.718647e+002
7.806564e+002, 1.710809e+002
7.811385e+002, 1.720158e+002
7.816207e+002, 1.742549e+002
7.821028e+002, 1.759443e+002
7.825849e+002, 1.770531e+002
7.830670e+002, 1.774746e+002
7.835491e+002, 1.769982e+002
7.840313e+002, 1.758508e+002
7.845134e+002, 1.746740e+002
7.849955e+002, 1.734438e+002
7.854776e+002, 1.731319e+002
7.859597e+002, 1.749823e+002
7.864418e+002, 1.774535e+002
7.869240e+002, 1.778422e+002
7.874061e+002, 1.766388e+002
7.878882e+002, 1.756310e+002
7.883703e+002, 1.762016e+002
7.888524e+002, 1.767386e+002
7.893345e+002, 1.761362e+002
7.898167e+002, 1.746145e+002
7.902988e+002, 1.741536e+002
7.907809e+002, 1.755992e+002
7.912630e+002, 1.765750e+002
7.917451e+002, 1.760660e+002
7.922272e+002, 1.744971e+002
7.927094e+002, 1.735706e+002
7.931915e+002, 1.732935e+002
7.936736e+002, 1.736639e+002
7.941557e+002, 1.756513e+002
7.946378e+002, 1.776933e+002
7.951199e+002, 1.770444e+002
7.956021e+002, 1.743993e+002
7.960842e+002, 1.729268e+002
7.965663e+002, 1.757691e+002
7.970484e+002, 1.783956e+002
7.975305e+002, 1.784304e+002
7.980126e+002, 1.761892e+002
7.984948e+002, 1.744764e+002
7.989769e+002, 1.732023e+002
7.994590e+002, 1.727626e+002
7.999411e+002, 1.736898e+002
8.004232e+002, 1.754976e+002
8.009053e+002, 1.761219e+002
8.013875e+002, 1.756713e+002
8.018696e+002, 1.752173e+002
8.023517e+002, 1.758155e+002
8.028338e+002, 1.764228e+002
8.033159e+002, 1.757144e+002
8.037980e+002, 1.739375e+002
8.042802e+002, 1.726655e+002
8.047623e+002, 1.724898e+002
8.052444e+002, 1.728349e+002
8.057265e+002, 1.735296e+002
8.062086e+002, 1.745557e+002
8.066907e+002, 1.760871e+002
8.071729e+002, 1.785307e+002
8.076550e+002, 1.796696e+002
8.081371e+002, 1.777564e+002
8.086192e+002, 1.740793e+002
8.091013e+002, 1.718691e+002
8.095834e+002, 1.710225e+002
8.100656e+002, 1.709444e+002
8.105477e+002, 1.722195e+002
8.110298e+002, 1.733422e+002
8.115119e+002, 1.726691e+002
8.119940e+002, 1.705633e+002
8.124761e+002, 1.700565e+002
8.129583e+002, 1.733199e+002
8.134404e+002, 1.760278e+002
8.139225e+002, 1.765728e+002
8.144046e+002, 1.754361e+002
8.148867e+002, 1.758003e+002
8.153688e+002, 1.777547e+002
8.158510e+002, 1.793483e+002
8.163331e+002, 1.792928e+002
8.168152e+002, 1.784063e+002
8.172973e+002, 1.780263e+002
8.177794e+002, 1.780255e+002
8.182615e+002, 1.779098e+002
8.187437e+002, 1.768736e+002
8.192258e+002, 1.762086e+002
8.197079e+002, 1.769092e+002
8.201900e+002, 1.787090e+002
8.206721e+002, 1.795653e+002
8.211542e+002, 1.792765e+002
8.216364e+002, 1.784270e+002
8.221185e+002, 1.768225e+002
8.226006e+002, 1.749940e+002
8.230827e+002, 1.750256e+002
8.235648e+002, 1.766707e+002
8.240469e+002, 1.779114e+002
8.245291e+002, 1.771010e+002
8.250112e+002, 1.758725e+002
8.254933e+002, 1.759118e+002
8.259754e+002, 1.768565e+002
8.264575e+002, 1.775385e+002
8.269396e+002, 1.772305e+002
8.274218e+002, 1.770403e+002
8.279039e+002, 1.775000e+002
8.283860e+002, 1.782669e+002
8.288681e+002, 1.779568e+002
8.293502e+002, 1.762822e+002
8.298323e+002, 1.752489e+002
8.303145e+002, 1.757573e+002
8.307966e+002, 1.770181e+002
8.312787e+002, 1.777920e+002
8.317608e+002, 1.780697e+002
8.322429e+002, 1.778018e+002
8.327250e+002, 1.761122e+002
8.332072e+002, 1.747340e+002
8.336893e+002, 1.747950e+002
8.341714e+002, 1.758622e+002
8.346535e+002, 1.768117e+002
8.351356e+002, 1.776931e+002
8.356177e+002, 1.781987e+002
8.360999e+002, 1.781857e+002
8.365820e+002, 1.778543e+002
8.370641e+002, 1.777150e+002
8.375462e+002, 1.777297e+002
8.380283e+002, 1.774119e+002
8.385104e+002, 1.764040e+002
8.389926e+002, 1.753716e+002
8.394747e+002, 1.751767e+002
8.399568e+002, 1.754529e+002
8.404389e+002, 1.755604e+002
8.409210e+002, 1.746819e+002
8.414031e+002, 1.743499e+002
8.418853e+002, 1.751401e+002
8.423674e+002, 1.765356e+002
8.428495e+002, 1.779909e+002
8.433316e+002, 1.796615e+002
8.438137e+002, 1.805387e+002
8.442958e+002, 1.803443e+002
8.447780e+002, 1.796032e+002
8.452601e+002, 1.788692e+002
8.457422e+002, 1.782162e+002
8.462243e+002, 1.778406e+002
8.467064e+002, 1.779068e+002
8.471885e+002, 1.779771e+002
8.476707e+002, 1.776560e+002
8.481528e+002, 1.772681e+002
8.486349e+002, 1.772166e+002
8.491170e+002, 1.779006e+002
8.495991e+002, 1.782105e+002
8.500812e+002, 1.779191e+002
8.505634e+002, 1.775910e+002
8.510455e+002, 1.780094e+002
8.515276e+002, 1.790493e+002
8.520097e+002, 1.797202e+002
8.524918e+002, 1.798772e+002
8.529739e+002, 1.798088e+002
8.534561e+002, 1.797050e+002
8.539382e+002, 1.795657e+002
8.544203e+002, 1.792818e+002
8.549024e+002, 1.785924e+002
8.553845e+002, 1.786096e+002
8.558666e+002, 1.801413e+002
8.563488e+002, 1.819149e+002
8.568309e+002, 1.831457e+002
8.573130e+002, 1.838327e+002
8.577951e+002, 1.839802e+002
8.582772e+002, 1.835237e+002
8.587593e+002, 1.829449e+002
8.592415e+002, 1.825332e+002
8.597236e+002, 1.823324e+002
8.602057e+002, 1.824751e+002
8.606878e+002, 1.829693e+002
8.611699e+002, 1.834989e+002
8.616520e+002, 1.835282e+002
8.621342e+002, 1.838677e+002
8.626163e+002, 1.854023e+002
8.630984e+002, 1.882031e+002
8.635805e+002, 1.895316e+002
8.640626e+002, 1.888335e+002
8.645447e+002, 1.882915e+002
8.650269e+002, 1.896794e+002
8.655090e+002, 1.921376e+002
8.659911e+002, 1.922488e+002
8.664732e+002, 1.903383e+002
8.669553e+002, 1.886388e+002
8.674374e+002, 1.888946e+002
8.679196e+002, 1.895411e+002
8.684017e+002, 1.895559e+002
8.688838e+002, 1.889683e+002
8.693659e+002, 1.882964e+002
8.698480e+002, 1.876427e+002
8.703301e+002, 1.867837e+002
8.708123e+002, 1.853717e+002
8.712944e+002, 1.838264e+002
8.717765e+002, 1.839533e+002
8.722586e+002, 1.855665e+002
8.727407e+002, 1.866853e+002
8.732228e+002, 1.862437e+002
8.737050e+002, 1.851177e+002
8.741871e+002, 1.838700e+002
8.746692e+002, 1.826632e+002
8.751513e+002, 1.818345e+002
8.756334e+002, 1.816166e+002
8.761155e+002, 1.816784e+002
8.765977e+002, 1.820678e+002
8.770798e+002, 1.826102e+002
8.775619e+002, 1.830506e+002
8.780440e+002, 1.834055e+002
8.785261e+002, 1.834111e+002
8.790082e+002, 1.829519e+002
8.794904e+002, 1.822988e+002
8.799725e+002, 1.812483e+002
8.804546e+002, 1.803896e+002
8.809367e+002, 1.809222e+002
8.814188e+002, 1.840091e+002
8.819009e+002, 1.866604e+002
8.823831e+002, 1.876144e+002
8.828652e+002, 1.877515e+002
8.833473e+002, 1.879723e+002
8.838294e+002, 1.883768e+002
8.843115e+002, 1.882844e+002
8.847936e+002, 1.874043e+002
8.852758e+002, 1.870313e+002
8.857579e+002, 1.891125e+002
8.862400e+002, 1.925840e+002
8.867221e+002, 1.949673e+002
8.872042e+002, 1.959098e+002
8.876863e+002, 1.966750e+002
8.881685e+002, 1.976949e+002
8.886506e+002, 1.990329e+002
8.891327e+002, 2.008538e+002
8.896148e+002, 2.032579e+002
8.900969e+002, 2.052102e+002
8.905790e+002, 2.063088e+002
8.910612e+002, 2.080451e+002
8.915433e+002, 2.120500e+002
8.920254e+002, 2.173707e+002
8.925075e+002, 2.201410e+002
8.929896e+002, 2.206140e+002
8.934717e+002, 2.207839e+002
8.939539e+002, 2.223611e+002
8.944360e+002, 2.236320e+002
8.949181e+002, 2.229850e+002
8.954002e+002, 2.207835e+002
8.958823e+002, 2.196332e+002
8.963644e+002, 2.200781e+002
8.968466e+002, 2.208509e+002
8.973287e+002, 2.218590e+002
8.978108e+002, 2.227818e+002
8.982929e+002, 2.227962e+002
8.987750e+002, 2.219473e+002
8.992571e+002, 2.204571e+002
8.997393e+002, 2.179571e+002
9.002214e+002, 2.155460e+002
9.007035e+002, 2.141428e+002
9.011856e+002, 2.134768e+002
9.016677e+002, 2.131227e+002
9.021498e+002, 2.134255e+002
9.026320e+002, 2.134098e+002
9.031141e+002, 2.129917e+002
9.035962e+002, 2.122587e+002
9.040783e+002, 2.109347e+002
9.045604e+002, 2.091450e+002
9.050425e+002, 2.091279e+002
9.055247e+002, 2.115275e+002
9.060068e+002, 2.136859e+002
9.064889e+002, 2.128400e+002
9.069710e+002, 2.104906e+002
9.074531e+002, 2.082113e+002
9.079352e+002, 2.062047e+002
9.084174e+002, 2.044513e+002
9.088995e+002, 2.029374e+002
9.093816e+002, 2.016668e+002
9.098637e+002, 2.007373e+002
9.103458e+002, 2.001365e+002
9.108279e+002, 1.994126e+002
9.113101e+002, 1.985679e+002
9.117922e+002, 1.974441e+002
9.122743e+002, 1.955029e+002
9.127564e+002, 1.935049e+002
9.132385e+002, 1.922668e+002
9.137206e+002, 1.917730e+002
9.142028e+002, 1.916372e+002
9.146849e+002, 1.926017e+002
9.151670e+002, 1.928620e+002
9.156491e+002, 1.914752e+002
9.161312e+002, 1.890736e+002
9.166133e+002, 1.882175e+002
9.170955e+002, 1.889302e+002
9.175776e+002, 1.898619e+002
9.180597e+002, 1.905622e+002
9.185418e+002, 1.911770e+002
9.190239e+002, 1.922923e+002
9.195060e+002, 1.933914e+002
9.199882e+002, 1.934654e+002
9.204703e+002, 1.912004e+002
9.209524e+002, 1.891223e+002
9.214345e+002, 1.871180e+002
9.219166e+002, 1.859019e+002
9.223987e+002, 1.868318e+002
9.228809e+002, 1.901084e+002
9.233630e+002, 1.922579e+002
9.238451e+002, 1.928255e+002
9.243272e+002, 1.926678e+002
9.248093e+002, 1.927161e+002
9.252914e+002, 1.925817e+002
9.257736e+002, 1.914913e+002
9.262557e+002, 1.890720e+002
9.267378e+002, 1.874203e+002
9.272199e+002, 1.875834e+002
9.277020e+002, 1.883120e+002
9.281841e+002, 1.891536e+002
9.286663e+002, 1.901048e+002
9.291484e+002, 1.904826e+002
9.296305e+002, 1.902607e+002
9.301126e+002, 1.901296e+002
9.305947e+002, 1.907566e+002
9.310768e+002, 1.915801e+002
9.315590e+002, 1.919612e+002
9.320411e+002, 1.919120e+002
9.325232e+002, 1.915252e+002
9.330053e+002, 1.909526e+002
9.334874e+002, 1.898098e+002
9.339695e+002, 1.873579e+002
9.344517e+002, 1.846072e+002
9.349338e+002, 1.843083e+002
9.354159e+002, 1.865157e+002
9.358980e+002, 1.885750e+002
9.363801e+002, 1.897888e+002
9.368622e+002, 1.904634e+002
9.373444e+002, 1.906991e+002
9.378265e+002, 1.906964e+002
9.383086e+002, 1.907727e+002
9.387907e+002, 1.911945e+002
9.392728e+002, 1.913244e+002
9.397549e+002, 1.910451e+002
9.402371e+002, 1.904597e+002
9.407192e+002, 1.896007e+002
9.412013e+002, 1.884646e+002
9.416834e+002, 1.869600e+002
9.421655e+002, 1.850342e+002
9.426476e+002, 1.837863e+002
9.431298e+002, 1.845399e+002
9.436119e+002, 1.862220e+002
9.440940e+002, 1.879302e+002
9.445761e+002, 1.895735e+002
9.450582e+002, 1.906735e+002
9.455403e+002, 1.909572e+002
9.460225e+002, 1.908324e+002
9.465046e+002, 1.902246e+002
9.469867e+002, 1.893492e+002
9.474688e+002, 1.893271e+002
9.479509e+002, 1.900742e+002
9.484330e+002, 1.902235e+002
9.489152e+002, 1.885517e+002
9.493973e+002, 1.869226e+002
9.498794e+002, 1.876856e+002
9.503615e+002, 1.896432e+002
9.508436e+002, 1.906742e+002
9.513257e+002, 1.890946e+002
9.518079e+002, 1.882546e+002
9.522900e+002, 1.887195e+002
9.527721e+002, 1.894565e+002
9.532542e+002, 1.887712e+002
9.537363e+002, 1.870110e+002
9.542184e+002, 1.872007e+002
9.547006e+002, 1.898506e+002
9.551827e+002, 1.923381e+002
9.556648e+002, 1.925724e+002
9.561469e+002, 1.916898e+002
9.566290e+002, 1.905103e+002
9.571111e+002, 1.890692e+002
9.575933e+002, 1.878084e+002
9.580754e+002, 1.863881e+002
9.585575e+002, 1.859102e+002
9.590396e+002, 1.875046e+002
9.595217e+002, 1.902236e+002
9.600038e+002, 1.906158e+002
9.604860e+002, 1.890030e+002
9.609681e+002, 1.870522e+002
9.614502e+002, 1.846764e+002
9.619323e+002, 1.832325e+002
9.624144e+002, 1.846185e+002
9.628965e+002, 1.873443e+002
9.633787e+002, 1.878587e+002
9.638608e+002, 1.843950e+002
9.643429e+002, 1.833567e+002
9.648250e+002, 1.862804e+002
9.653071e+002, 1.899500e+002
9.657892e+002, 1.890919e+002
9.662714e+002, 1.856071e+002
9.667535e+002, 1.845005e+002
9.672356e+002, 1.869509e+002
9.677177e+002, 1.893713e+002
9.681998e+002, 1.898819e+002
9.686819e+002, 1.895543e+002
9.691641e+002, 1.890733e+002
9.696462e+002, 1.884607e+002
9.701283e+002, 1.877306e+002
9.706104e+002, 1.868632e+002
9.710925e+002, 1.859328e+002
9.715746e+002, 1.846924e+002
9.720568e+002, 1.835690e+002
9.725389e+002, 1.835956e+002
9.730210e+002, 1.844415e+002
9.735031e+002, 1.850156e+002
9.739852e+002, 1.843841e+002
9.744673e+002, 1.839956e+002
9.749495e+002, 1.844483e+002
9.754316e+002, 1.852864e+002
9.759137e+002, 1.857717e+002
9.763958e+002, 1.858977e+002
9.768779e+002, 1.858419e+002
9.773600e+002, 1.856627e+002
9.778422e+002, 1.851757e+002
9.783243e+002, 1.834775e+002
9.788064e+002, 1.817016e+002
9.792885e+002, 1.816161e+002
9.797706e+002, 1.840475e+002
9.802527e+002, 1.853772e+002
9.807349e+002, 1.844137e+002
9.812170e+002, 1.830846e+002
9.816991e+002, 1.822559e+002
9.821812e+002, 1.819244e+002
9.826633e+002, 1.823287e+002
9.831454e+002, 1.833952e+002
9.836276e+002, 1.843135e+002
9.841097e+002, 1.843149e+002
9.845918e+002, 1.842491e+002
9.850739e+002, 1.852207e+002
9.855560e+002, 1.866133e+002
9.860381e+002, 1.866320e+002
9.865203e+002, 1.842937e+002
9.870024e+002, 1.824105e+002
9.874845e+002, 1.812018e+002
9.879666e+002, 1.808307e+002
9.884487e+002, 1.820593e+002
9.889308e+002, 1.842978e+002
9.894130e+002, 1.859311e+002
9.898951e+002, 1.867077e+002
9.903772e+002, 1.867078e+002
9.908593e+002, 1.849006e+002
9.913414e+002, 1.831956e+002
9.918235e+002, 1.832530e+002
9.923057e+002, 1.851877e+002
9.927878e+002, 1.862639e+002
9.932699e+002, 1.864517e+002
9.937520e+002, 1.860471e+002
9.942341e+002, 1.848835e+002
9.947162e+002, 1.834665e+002
9.951984e+002, 1.826187e+002
9.956805e+002, 1.822449e+002
9.961626e+002, 1.821098e+002
9.966447e+002, 1.824085e+002
9.971268e+002, 1.825402e+002
9.976089e+002, 1.819711e+002
9.980911e+002, 1.814980e+002
9.985732e+002, 1.827338e+002
9.990553e+002, 1.856528e+002
9.995374e+002, 1.865318e+002
1.000020e+003, 1.847116e+002
1.000502e+003, 1.825608e+002
1.000984e+003, 1.819979e+002
1.001466e+003, 1.823572e+002
1.001948e+003, 1.832560e+002
1.002430e+003, 1.847205e+002
1.002912e+003, 1.855648e+002
1.003394e+003, 1.858458e+002
1.003876e+003, 1.852237e+002
1.004359e+003, 1.831860e+002
1.004841e+003, 1.803750e+002
1.005323e+003, 1.784995e+002
1.005805e+003, 1.775881e+002
1.006287e+003, 1.778655e+002
1.006769e+003, 1.804556e+002
1.007251e+003, 1.829178e+002
1.007733e+003, 1.838379e+002
1.008216e+003, 1.839229e+002
1.008698e+003, 1.841627e+002
1.009180e+003, 1.846273e+002
1.009662e+003, 1.849753e+002
1.010144e+003, 1.851436e+002
1.010626e+003, 1.854126e+002
1.011108e+003, 1.859505e+002
1.011590e+003, 1.868112e+002
1.012072e+003, 1.882752e+002
1.012555e+003, 1.903133e+002
1.013037e+003, 1.920042e+002
1.013519e+003, 1.927675e+002
1.014001e+003, 1.934431e+002
1.014483e+003, 1.945300e+002
1.014965e+003, 1.956505e+002
1.015447e+003, 1.951340e+002
1.015929e+003, 1.931845e+002
1.016411e+003, 1.920009e+002
1.016894e+003, 1.924016e+002
1.017376e+003, 1.935605e+002
1.017858e+003, 1.957464e+002
1.018340e+003, 1.978049e+002
1.018822e+003, 1.981027e+002
1.019304e+003, 1.952959e+002
1.019786e+003, 1.938405e+002
1.020268e+003, 1.942207e+002
1.020751e+003, 1.946709e+002
1.021233e+003, 1.934488e+002
1.021715e+003, 1.913375e+002
1.022197e+003, 1.906238e+002
1.022679e+003, 1.911096e+002
1.023161e+003, 1.914051e+002
1.023643e+003, 1.906342e+002
1.024125e+003, 1.897462e+002
1.024607e+003, 1.893933e+002
1.025090e+003, 1.890799e+002
1.025572e+003, 1.872036e+002
1.026054e+003, 1.835090e+002
1.026536e+003, 1.824224e+002
1.027018e+003, 1.852743e+002
1.027500e+003, 1.884639e+002
1.027982e+003, 1.875934e+002
1.028464e+003, 1.852051e+002
1.028947e+003, 1.844647e+002
1.029429e+003, 1.863838e+002
1.029911e+003, 1.871273e+002
1.030393e+003, 1.861277e+002
1.030875e+003, 1.845147e+002
1.031357e+003, 1.824538e+002
1.031839e+003, 1.803829e+002
1.032321e+003, 1.801142e+002
1.032803e+003, 1.813130e+002
1.033286e+003, 1.825466e+002
1.033768e+003, 1.836657e+002
1.034250e+003, 1.840196e+002
1.034732e+003, 1.825413e+002
1.035214e+003, 1.804875e+002
1.035696e+003, 1.797304e+002
1.036178e+003, 1.805246e+002
1.036660e+003, 1.812549e+002
1.037143e+003, 1.818550e+002
1.037625e+003, 1.821344e+002
1.038107e+003, 1.815211e+002
1.038589e+003, 1.807348e+002
1.039071e+003, 1.808509e+002
1.039553e+003, 1.818671e+002
1.040035e+003, 1.824944e+002
1.040517e+003, 1.826115e+002
1.041000e+003, 1.819561e+002
1.041482e+003, 1.799180e+002
1.041964e+003, 1.776007e+002
1.042446e+003, 1.782419e+002
1.042928e+003, 1.811053e+002
1.043410e+003, 1.831306e+002
1.043892e+003, 1.832466e+002
1.044374e+003, 1.829103e+002
1.044856e+003, 1.832499e+002
1.045339e+003, 1.833287e+002
1.045821e+003, 1.820612e+002
1.046303e+003, 1.790882e+002
1.046785e+003, 1.777461e+002
1.047267e+003, 1.782134e+002
1.047749e+003, 1.787552e+002
1.048231e+003, 1.775305e+002
1.048713e+003, 1.762113e+002
1.049195e+003, 1.774151e+002
1.049677e+003, 1.803438e+002
1.050160e+003, 1.826490e+002
1.050642e+003, 1.836171e+002
1.051124e+003, 1.838831e+002
1.051606e+003, 1.833730e+002
1.052088e+003, 1.823988e+002
1.052570e+003, 1.812856e+002
1.053052e+003, 1.800624e+002
1.053534e+003, 1.786430e+002
1.054017e+003, 1.769837e+002
1.054499e+003, 1.763054e+002
1.054981e+003, 1.783890e+002
1.055463e+003, 1.807777e+002
1.055945e+003, 1.820675e+002
1.056427e+003, 1.823260e+002
1.056909e+003, 1.814962e+002
1.057391e+003, 1.794067e+002
1.057874e+003, 1.783139e+002
1.058356e+003, 1.793056e+002
1.058838e+003, 1.809537e+002
1.059320e+003, 1.820430e+002
1.059802e+003, 1.824454e+002
1.060284e+003, 1.819229e+002
1.060766e+003, 1.798032e+002
1.061248e+003, 1.781576e+002
1.061730e+003, 1.769317e+002
1.062213e+003, 1.764322e+002
1.062695e+003, 1.773192e+002
1.063177e+003, 1.790779e+002
1.063659e+003, 1.799214e+002
1.064141e+003, 1.799328e+002
1.064623e+003, 1.795052e+002
1.065105e+003, 1.780730e+002
1.065587e+003, 1.771127e+002
1.066070e+003, 1.778756e+002
1.066552e+003, 1.790936e+002
1.067034e+003, 1.784123e+002
1.067516e+003, 1.757089e+002
1.067998e+003, 1.755279e+002
1.068480e+003, 1.786710e+002
1.068962e+003, 1.815595e+002
1.069444e+003, 1.803850e+002
1.069927e+003, 1.778644e+002
1.070409e+003, 1.763146e+002
1.070891e+003, 1.759914e+002
1.071373e+003, 1.760307e+002
1.071855e+003, 1.765468e+002
1.072337e+003, 1.770402e+002
1.072819e+003, 1.774421e+002
1.073301e+003, 1.776033e+002
1.073783e+003, 1.768126e+002
1.074266e+003, 1.756671e+002
1.074748e+003, 1.755376e+002
1.075230e+003, 1.773009e+002
1.075712e+003, 1.786453e+002
1.076194e+003, 1.786129e+002
1.076676e+003, 1.784088e+002
1.077158e+003, 1.790104e+002
1.077640e+003, 1.802103e+002
1.078122e+003, 1.793624e+002
1.078604e+003, 1.767676e+002
1.079087e+003, 1.749888e+002
1.079569e+003, 1.764599e+002
1.080051e+003, 1.781354e+002
1.080533e+003, 1.780815e+002
1.081015e+003, 1.770569e+002
1.081497e+003, 1.764566e+002
1.081979e+003, 1.762946e+002
1.082461e+003, 1.766999e+002
1.082944e+003, 1.777837e+002
1.083426e+003, 1.787355e+002
1.083908e+003, 1.783482e+002
1.084390e+003, 1.776569e+002
1.084872e+003, 1.781839e+002
1.085354e+003, 1.798553e+002
1.085836e+003, 1.806978e+002
1.086318e+003, 1.803081e+002
1.086801e+003, 1.792769e+002
1.087283e+003, 1.774252e+002
1.087765e+003, 1.755027e+002
1.088247e+003, 1.750837e+002
1.088729e+003, 1.756900e+002
1.089211e+003, 1.760240e+002
1.089693e+003, 1.757024e+002
1.090175e+003, 1.756856e+002
1.090657e+003, 1.767578e+002
1.091140e+003, 1.779068e+002
1.091622e+003, 1.788538e+002
1.092104e+003, 1.794534e+002
1.092586e+003, 1.779581e+002
1.093068e+003, 1.745869e+002
1.093550e+003, 1.720380e+002
1.094032e+003, 1.714814e+002
1.094514e+003, 1.721642e+002
1.094997e+003, 1.749387e+002
1.095479e+003, 1.779452e+002
1.095961e+003, 1.785018e+002
1.096443e+003, 1.754441e+002
1.096925e+003, 1.738774e+002
1.097407e+003, 1.739558e+002
1.097889e+003, 1.746183e+002
1.098371e+003, 1.755018e+002
1.098854e+003, 1.761711e+002
1.099336e+003, 1.758687e+002
1.099818e+003, 1.748204e+002
1.100300e+003, 1.739281e+002
1.100782e+003, 1.731058e+002
1.101264e+003, 1.729706e+002
1.101746e+003, 1.736842e+002
1.102228e+003, 1.749421e+002
1.102710e+003, 1.769144e+002
1.103193e+003, 1.789925e+002
1.103675e+003, 1.794989e+002
1.104157e+003, 1.782352e+002
1.104639e+003, 1.768767e+002
1.105121e+003, 1.758145e+002
1.105603e+003, 1.752210e+002
1.106085e+003, 1.752632e+002
1.106567e+003, 1.757253e+002
1.107049e+003, 1.760983e+002
1.107531e+003, 1.763338e+002
1.108014e+003, 1.758862e+002
1.108496e+003, 1.743052e+002
1.108978e+003, 1.730725e+002
1.109460e+003, 1.734812e+002
1.109942e+003, 1.745213e+002
1.110424e+003, 1.753478e+002
1.110906e+003, 1.759317e+002
1.111388e+003, 1.765919e+002
1.111871e+003, 1.773672e+002
1.112353e+003, 1.776236e+002
1.112835e+003, 1.767168e+002
1.113317e+003, 1.755549e+002
1.113799e+003, 1.748518e+002
1.114281e+003, 1.746768e+002
1.114763e+003, 1.752256e+002
1.115245e+003, 1.774523e+002
1.115728e+003, 1.782787e+002
1.116210e+003, 1.773303e+002
1.116692e+003, 1.762248e+002
1.117174e+003, 1.766767e+002
1.117656e+003, 1.777063e+002
1.118138e+003, 1.772344e+002
1.118620e+003, 1.756378e+002
1.119102e+003, 1.746375e+002
1.119584e+003, 1.752595e+002
1.120067e+003, 1.759663e+002
1.120549e+003, 1.765873e+002
1.121031e+003, 1.770897e+002
1.121513e+003, 1.773671e+002
1.121995e+003, 1.774900e+002
1.122477e+003, 1.778599e+002
1.122959e+003, 1.784981e+002
1.123441e+003, 1.785785e+002
1.123924e+003, 1.774499e+002
1.124406e+003, 1.758346e+002
1.124888e+003, 1.735936e+002
1.125370e+003, 1.713482e+002
1.125852e+003, 1.710919e+002
1.126334e+003, 1.726544e+002
1.126816e+003, 1.740493e+002
1.127298e+003, 1.747821e+002
1.127781e+003, 1.754328e+002
1.128263e+003, 1.768047e+002
1.128745e+003, 1.779787e+002
1.129227e+003, 1.781718e+002
1.129709e+003, 1.774234e+002
1.130191e+003, 1.760150e+002
1.130673e+003, 1.738635e+002
1.131155e+003, 1.721460e+002
1.131637e+003, 1.711468e+002
1.132120e+003, 1.711009e+002
1.132602e+003, 1.731549e+002
1.133084e+003, 1.759348e+002
1.133566e+003, 1.774321e+002
1.134048e+003, 1.771638e+002
1.134530e+003, 1.764621e+002
1.135012e+003, 1.752027e+002
1.135494e+003, 1.739960e+002
1.135976e+003, 1.732514e+002
1.136458e+003, 1.727826e+002
1.136941e+003, 1.718324e+002
1.137423e+003, 1.709584e+002
1.137905e+003, 1.715138e+002
1.138387e+003, 1.761678e+002
1.138869e+003, 1.786198e+002
1.139351e+003, 1.778985e+002
1.139833e+003, 1.763504e+002
1.140315e+003, 1.763055e+002
1.140798e+003, 1.771770e+002
1.141280e+003, 1.776491e+002
1.141762e+003, 1.776970e+002
1.142244e+003, 1.775651e+002
1.142726e+003, 1.774146e+002
1.143208e+003, 1.769096e+002
1.143690e+003, 1.754817e+002
1.144172e+003, 1.742793e+002
1.144655e+003, 1.758114e+002
1.145137e+003, 1.791476e+002
1.145619e+003, 1.803011e+002
1.146101e+003, 1.787516e+002
1.146583e+003, 1.773300e+002
1.147065e+003, 1.782789e+002
1.147547e+003, 1.789542e+002
1.148029e+003, 1.780939e+002
1.148511e+003, 1.761268e+002
1.148994e+003, 1.737826e+002
1.149476e+003, 1.712440e+002
1.149958e+003, 1.703380e+002
1.150440e+003, 1.717040e+002
1.150922e+003, 1.735823e+002
1.151404e+003, 1.756984e+002
1.151886e+003, 1.769447e+002
1.152368e+003, 1.759169e+002
1.152851e+003, 1.730219e+002
1.153333e+003, 1.721842e+002
1.153815e+003, 1.734125e+002
1.154297e+003, 1.745531e+002
1.154779e+003, 1.746064e+002
1.155261e+003, 1.747207e+002
1.155743e+003, 1.766236e+002
1.156225e+003, 1.787709e+002
1.156708e+003, 1.791066e+002
1.157190e+003, 1.772725e+002
1.157672e+003, 1.762225e+002
1.158154e+003, 1.760489e+002
1.158636e+003, 1.758609e+002
1.159118e+003, 1.749831e+002
1.159600e+003, 1.740495e+002
1.160082e+003, 1.736759e+002
1.160564e+003, 1.737794e+002
1.161047e+003, 1.742378e+002
1.161529e+003, 1.750426e+002
1.162011e+003, 1.763678e+002
1.162493e+003, 1.785241e+002
1.162975e+003, 1.799343e+002
1.163457e+003, 1.790397e+002
1.163939e+003, 1.769146e+002
1.164421e+003, 1.741747e+002
1.164903e+003, 1.714701e+002
1.165385e+003, 1.707411e+002
1.165868e+003, 1.741794e+002
1.166350e+003, 1.762807e+002
1.166832e+003, 1.764364e+002
1.167314e+003, 1.757125e+002
1.167796e+003, 1.746895e+002
1.168278e+003, 1.738006e+002
1.168760e+003, 1.740306e+002
1.169242e+003, 1.752545e+002
1.169725e+003, 1.763423e+002
1.170207e+003, 1.772226e+002
1.170689e+003, 1.774864e+002
1.171171e+003, 1.769109e+002
1.171653e+003, 1.760047e+002
1.172135e+003, 1.752331e+002
1.172617e+003, 1.747550e+002
1.173099e+003, 1.750475e+002
1.173582e+003, 1.761471e+002
1.174064e+003, 1.772475e+002
1.174546e+003, 1.785269e+002
1.175028e+003, 1.790547e+002
1.175510e+003, 1.782969e+002
1.175992e+003, 1.770089e+002
1.176474e+003, 1.767897e+002
1.176956e+003, 1.772986e+002
1.177438e+003, 1.775481e+002
1.177921e+003, 1.773215e+002
1.178403e+003, 1.771290e+002
1.178885e+003, 1.772590e+002
1.179367e+003, 1.773391e+002
1.179849e+003, 1.769919e+002
1.180331e+003, 1.766436e+002
1.180813e+003, 1.783262e+002
1.181295e+003, 1.812497e+002
1.181778e+003, 1.821730e+002
1.182260e+003, 1.795687e+002
1.182742e+003, 1.772569e+002
1.183224e+003, 1.773086e+002
1.183706e+003, 1.778082e+002
1.184188e+003, 1.776572e+002
1.184670e+003, 1.770432e+002
1.185152e+003, 1.772108e+002
1.185635e+003, 1.779449e+002
1.186117e+003, 1.780468e+002
1.186599e+003, 1.764326e+002
1.187081e+003, 1.754275e+002
1.187563e+003, 1.773015e+002
1.188045e+003, 1.792344e+002
1.188527e+003, 1.787366e+002
1.189009e+003, 1.761179e+002
1.189491e+003, 1.757542e+002
1.189974e+003, 1.773275e+002
1.190456e+003, 1.785055e+002
1.190938e+003, 1.777132e+002
1.191420e+003, 1.768133e+002
1.191902e+003, 1.767278e+002
1.192384e+003, 1.769799e+002
1.192866e+003, 1.771445e+002
1.193348e+003, 1.772232e+002
1.193830e+003, 1.769166e+002
1.194313e+003, 1.762875e+002
1.194795e+003, 1.761104e+002
1.195277e+003, 1.772403e+002
1.195759e+003, 1.785096e+002
1.196241e+003, 1.794231e+002
1.196723e+003, 1.800105e+002
1.197205e+003, 1.802708e+002
1.197687e+003, 1.801977e+002
1.198169e+003, 1.800773e+002
1.198652e+003, 1.799236e+002
1.199134e+003, 1.797159e+002
1.199616e+003, 1.796023e+002
1.200098e+003, 1.792657e+002
1.200580e+003, 1.777922e+002
1.201062e+003, 1.763236e+002
1.201544e+003, 1.771148e+002
1.202026e+003, 1.802623e+002
1.202509e+003, 1.819927e+002
1.202991e+003, 1.819712e+002
1.203473e+003, 1.809853e+002
1.203955e+003, 1.781637e+002
1.204437e+003, 1.759936e+002
1.204919e+003, 1.766541e+002
1.205401e+003, 1.789978e+002
1.205883e+003, 1.807299e+002
1.206365e+003, 1.818666e+002
1.206848e+003, 1.818325e+002
1.207330e+003, 1.804844e+002
1.207812e+003, 1.791397e+002
1.208294e+003, 1.788826e+002
1.208776e+003, 1.789100e+002
1.209258e+003, 1.786616e+002
1.209740e+003, 1.782536e+002
1.210222e+003, 1.780866e+002
1.210705e+003, 1.781638e+002
1.211187e+003, 1.780998e+002
1.211669e+003, 1.777917e+002
1.212151e+003, 1.776669e+002
1.212633e+003, 1.784469e+002
1.213115e+003, 1.792050e+002
1.213597e+003, 1.790490e+002
1.214079e+003, 1.782980e+002
1.214562e+003, 1.781235e+002
1.215044e+003, 1.785135e+002
1.215526e+003, 1.789507e+002
1.216008e+003, 1.793567e+002
1.216490e+003, 1.795793e+002
1.216972e+003, 1.792609e+002
1.217454e+003, 1.789220e+002
1.217936e+003, 1.790831e+002
1.218418e+003, 1.795826e+002
1.218901e+003, 1.795298e+002
1.219383e+003, 1.789469e+002
1.219865e+003, 1.782460e+002
1.220347e+003, 1.773194e+002
1.220829e+003, 1.772051e+002
1.221311e+003, 1.798463e+002
1.221793e+003, 1.825635e+002
1.222275e+003, 1.832731e+002
1.222757e+003, 1.822400e+002
1.223240e+003, 1.811453e+002
1.223722e+003, 1.800641e+002
1.224204e+003, 1.801741e+002
1.224686e+003, 1.824788e+002
1.225168e+003, 1.842494e+002
1.225650e+003, 1.830045e+002
1.226132e+003, 1.810636e+002
1.226614e+003, 1.802219e+002
1.227096e+003, 1.803661e+002
1.227579e+003, 1.804645e+002
1.228061e+003, 1.805316e+002
1.228543e+003, 1.807002e+002
1.229025e+003, 1.810523e+002
1.229507e+003, 1.814338e+002
1.229989e+003, 1.820757e+002
1.230471e+003, 1.823817e+002
1.230953e+003, 1.816602e+002
1.231436e+003, 1.801248e+002
1.231918e+003, 1.801168e+002
1.232400e+003, 1.813892e+002
1.232882e+003, 1.822881e+002
1.233364e+003, 1.822518e+002
1.233846e+003, 1.814754e+002
1.234328e+003, 1.786900e+002
1.234810e+003, 1.764919e+002
1.235292e+003, 1.772520e+002
1.235775e+003, 1.804317e+002
1.236257e+003, 1.815684e+002
1.236739e+003, 1.809668e+002
1.237221e+003, 1.802658e+002
1.237703e+003, 1.800903e+002
1.238185e+003, 1.800833e+002
1.238667e+003, 1.799714e+002
1.239149e+003, 1.801391e+002
1.239632e+003, 1.810853e+002
1.240114e+003, 1.825853e+002
1.240596e+003, 1.833760e+002
1.241078e+003, 1.835539e+002
1.241560e+003, 1.835647e+002
1.242042e+003, 1.840726e+002
1.242524e+003, 1.836472e+002
1.243006e+003, 1.810033e+002
1.243489e+003, 1.786189e+002
1.243971e+003, 1.787954e+002
1.244453e+003, 1.808529e+002
1.244935e+003, 1.821618e+002
1.245417e+003, 1.828197e+002
1.245899e+003, 1.831629e+002
1.246381e+003, 1.828824e+002
1.246863e+003, 1.830598e+002
1.247345e+003, 1.842934e+002
1.247828e+003, 1.851719e+002
1.248310e+003, 1.837745e+002
1.248792e+003, 1.813119e+002
1.249274e+003, 1.814404e+002
1.249756e+003, 1.834458e+002
1.250238e+003, 1.847519e+002
1.250720e+003, 1.837303e+002
1.251202e+003, 1.829682e+002
1.251684e+003, 1.825826e+002
1.252167e+003, 1.826826e+002
1.252649e+003, 1.838115e+002
1.253131e+003, 1.852673e+002
1.253613e+003, 1.856633e+002
1.254095e+003, 1.851850e+002
1.254577e+003, 1.845088e+002
1.255059e+003, 1.837222e+002
1.255541e+003, 1.828509e+002
1.256023e+003, 1.818430e+002
1.256506e+003, 1.809462e+002
1.256988e+003, 1.799859e+002
1.257470e+003, 1.795397e+002
1.257952e+003, 1.811116e+002
1.258434e+003, 1.838736e+002
1.258916e+003, 1.852747e+002
1.259398e+003, 1.848941e+002
1.259880e+003, 1.833511e+002
1.260363e+003, 1.803437e+002
1.260845e+003, 1.782231e+002
1.261327e+003, 1.797928e+002
1.261809e+003, 1.825644e+002
1.262291e+003, 1.844017e+002
1.262773e+003, 1.852758e+002
1.263255e+003, 1.852996e+002
1.263737e+003, 1.842508e+002
1.264219e+003, 1.836999e+002
1.264702e+003, 1.837902e+002
1.265184e+003, 1.837739e+002
1.265666e+003, 1.827888e+002
1.266148e+003, 1.817418e+002
1.266630e+003, 1.811732e+002
1.267112e+003, 1.811428e+002
1.267594e+003, 1.817728e+002
1.268076e+003, 1.831370e+002
1.268559e+003, 1.840547e+002
1.269041e+003, 1.844475e+002
1.269523e+003, 1.845795e+002
1.270005e+003, 1.848691e+002
1.270487e+003, 1.846989e+002
1.270969e+003, 1.829962e+002
1.271451e+003, 1.810355e+002
1.271933e+003, 1.807172e+002
1.272416e+003, 1.819029e+002
1.272898e+003, 1.827652e+002
1.273380e+003, 1.832121e+002
1.273862e+003, 1.836716e+002
1.274344e+003, 1.845264e+002
1.274826e+003, 1.852865e+002
1.275308e+003, 1.860937e+002
1.275790e+003, 1.864044e+002
1.276272e+003, 1.850053e+002
1.276755e+003, 1.825391e+002
1.277237e+003, 1.814447e+002
1.277719e+003, 1.817548e+002
1.278201e+003, 1.825303e+002
1.278683e+003, 1.843712e+002
1.279165e+003, 1.850379e+002
1.279647e+003, 1.836460e+002
1.280129e+003, 1.819721e+002
1.280611e+003, 1.824532e+002
1.281094e+003, 1.839207e+002
1.281576e+003, 1.836245e+002
1.282058e+003, 1.818523e+002
1.282540e+003, 1.807120e+002
1.283022e+003, 1.809394e+002
1.283504e+003, 1.815806e+002
1.283986e+003, 1.827065e+002
1.284468e+003, 1.836665e+002
1.284950e+003, 1.838264e+002
1.285433e+003, 1.834224e+002
1.285915e+003, 1.823401e+002
1.286397e+003, 1.809381e+002
1.286879e+003, 1.805635e+002
1.287361e+003, 1.815220e+002
1.287843e+003, 1.825416e+002
1.288325e+003, 1.835210e+002
1.288807e+003, 1.844610e+002
1.289290e+003, 1.855764e+002
1.289772e+003, 1.864569e+002
1.290254e+003, 1.867133e+002
1.290736e+003, 1.864352e+002
1.291218e+003, 1.857946e+002
1.291700e+003, 1.847054e+002
1.292182e+003, 1.846467e+002
1.292664e+003, 1.857079e+002
1.293146e+003, 1.864882e+002
1.293629e+003, 1.857464e+002
1.294111e+003, 1.847228e+002
1.294593e+003, 1.838599e+002
1.295075e+003, 1.833114e+002
1.295557e+003, 1.833534e+002
1.296039e+003, 1.839351e+002
1.296521e+003, 1.850011e+002
1.297003e+003, 1.863804e+002
1.297486e+003, 1.867399e+002
1.297968e+003, 1.836016e+002
1.298450e+003, 1.819300e+002
1.298932e+003, 1.836018e+002
1.299414e+003, 1.860338e+002
1.299896e+003, 1.861619e+002
1.300378e+003, 1.848450e+002
1.300860e+003, 1.841463e+002
1.301343e+003, 1.842151e+002
1.301825e+003, 1.851507e+002
##END=



