##NAMES=Scottyite
##RRUFFID=R120077
##IDEAL CHEMISTRY=BaCu^2+^_2_Si_2_O_7_
##LOCALITY=Wessels mine, Kalahari manganese field, Northern Cape Province, South Africa
##OWNER=RRUFF
##SOURCE=William W. Pinch and Marcus Origlieri
##DESCRIPTION=Blue massive, associated with R120019 wesselsite and R120057 lavinskyite
##STATUS=The identification of this mineral is confirmed by single-crystal X-ray diffraction and chemical analysis.
##URL=rruff.info/R120077
##MEASURED CHEMISTRY=Ba_1.00_Sr_0.01_Na_0.01_Cu_2.04_Si_1.97_O_7_ ; (Scottyite is light grey material in image, associated with dark grey R120057 lavinskyite, and medium gray R120019 wesselsite
9.112140e+001, 0.000000e+000
9.160352e+001, 2.096800e+002
9.208563e+001, 2.058917e+002
9.256775e+001, 2.055188e+002
9.304987e+001, 2.107923e+002
9.353198e+001, 2.163775e+002
9.401410e+001, 2.178818e+002
9.449622e+001, 2.161170e+002
9.497833e+001, 2.130835e+002
9.546045e+001, 2.102274e+002
9.594257e+001, 2.075053e+002
9.642468e+001, 2.050597e+002
9.690680e+001, 2.034430e+002
9.738892e+001, 2.017660e+002
9.787103e+001, 1.996901e+002
9.835315e+001, 1.970322e+002
9.883527e+001, 1.939578e+002
9.931738e+001, 1.911579e+002
9.979950e+001, 1.886693e+002
1.002816e+002, 1.866216e+002
1.007637e+002, 1.850297e+002
1.012458e+002, 1.837247e+002
1.017280e+002, 1.825776e+002
1.022101e+002, 1.815319e+002
1.026922e+002, 1.806191e+002
1.031743e+002, 1.798639e+002
1.036564e+002, 1.791900e+002
1.041385e+002, 1.787688e+002
1.046207e+002, 1.788276e+002
1.051028e+002, 1.792139e+002
1.055849e+002, 1.794056e+002
1.060670e+002, 1.791179e+002
1.065491e+002, 1.785953e+002
1.070313e+002, 1.780573e+002
1.075134e+002, 1.774683e+002
1.079955e+002, 1.770662e+002
1.084776e+002, 1.770999e+002
1.089597e+002, 1.776018e+002
1.094418e+002, 1.783781e+002
1.099240e+002, 1.793035e+002
1.104061e+002, 1.804839e+002
1.108882e+002, 1.820016e+002
1.113703e+002, 1.838828e+002
1.118524e+002, 1.861434e+002
1.123345e+002, 1.888506e+002
1.128167e+002, 1.923019e+002
1.132988e+002, 1.958673e+002
1.137809e+002, 1.992747e+002
1.142630e+002, 2.027553e+002
1.147451e+002, 2.065301e+002
1.152272e+002, 2.106538e+002
1.157094e+002, 2.152088e+002
1.161915e+002, 2.212375e+002
1.166736e+002, 2.284666e+002
1.171557e+002, 2.371637e+002
1.176378e+002, 2.473549e+002
1.181199e+002, 2.590912e+002
1.186021e+002, 2.728128e+002
1.190842e+002, 2.896460e+002
1.195663e+002, 3.097343e+002
1.200484e+002, 3.253741e+002
1.205305e+002, 3.397681e+002
1.210126e+002, 3.481568e+002
1.214948e+002, 3.449774e+002
1.219769e+002, 3.289478e+002
1.224590e+002, 3.067984e+002
1.229411e+002, 2.818190e+002
1.234232e+002, 2.552011e+002
1.239053e+002, 2.323311e+002
1.243875e+002, 2.157100e+002
1.248696e+002, 2.042837e+002
1.253517e+002, 1.955087e+002
1.258338e+002, 1.899174e+002
1.263159e+002, 1.860694e+002
1.267980e+002, 1.828721e+002
1.272802e+002, 1.802598e+002
1.277623e+002, 1.780085e+002
1.282444e+002, 1.758877e+002
1.287265e+002, 1.738764e+002
1.292086e+002, 1.723179e+002
1.296907e+002, 1.714802e+002
1.301729e+002, 1.709543e+002
1.306550e+002, 1.705467e+002
1.311371e+002, 1.702500e+002
1.316192e+002, 1.702225e+002
1.321013e+002, 1.707078e+002
1.325834e+002, 1.719424e+002
1.330656e+002, 1.732962e+002
1.335477e+002, 1.744555e+002
1.340298e+002, 1.758678e+002
1.345119e+002, 1.779680e+002
1.349940e+002, 1.808742e+002
1.354761e+002, 1.842870e+002
1.359583e+002, 1.875042e+002
1.364404e+002, 1.898188e+002
1.369225e+002, 1.928159e+002
1.374046e+002, 1.966966e+002
1.378867e+002, 2.012992e+002
1.383688e+002, 2.064150e+002
1.388510e+002, 2.120239e+002
1.393331e+002, 2.180020e+002
1.398152e+002, 2.239114e+002
1.402973e+002, 2.298210e+002
1.407794e+002, 2.356145e+002
1.412615e+002, 2.417269e+002
1.417437e+002, 2.478669e+002
1.422258e+002, 2.529214e+002
1.427079e+002, 2.565741e+002
1.431900e+002, 2.583182e+002
1.436721e+002, 2.577516e+002
1.441542e+002, 2.539603e+002
1.446364e+002, 2.489301e+002
1.451185e+002, 2.439869e+002
1.456006e+002, 2.388792e+002
1.460827e+002, 2.354188e+002
1.465648e+002, 2.348416e+002
1.470469e+002, 2.363293e+002
1.475291e+002, 2.395023e+002
1.480112e+002, 2.445204e+002
1.484933e+002, 2.508413e+002
1.489754e+002, 2.572138e+002
1.494575e+002, 2.633692e+002
1.499396e+002, 2.701983e+002
1.504218e+002, 2.784442e+002
1.509039e+002, 2.873383e+002
1.513860e+002, 2.958257e+002
1.518681e+002, 3.032893e+002
1.523502e+002, 3.098674e+002
1.528323e+002, 3.163436e+002
1.533145e+002, 3.222784e+002
1.537966e+002, 3.285731e+002
1.542787e+002, 3.354283e+002
1.547608e+002, 3.428157e+002
1.552429e+002, 3.506906e+002
1.557250e+002, 3.590953e+002
1.562072e+002, 3.680454e+002
1.566893e+002, 3.770226e+002
1.571714e+002, 3.871790e+002
1.576535e+002, 3.963733e+002
1.581356e+002, 4.040553e+002
1.586177e+002, 4.100428e+002
1.590999e+002, 4.141582e+002
1.595820e+002, 4.160976e+002
1.600641e+002, 4.154719e+002
1.605462e+002, 4.143019e+002
1.610283e+002, 4.117365e+002
1.615104e+002, 4.092322e+002
1.619926e+002, 4.075736e+002
1.624747e+002, 4.068893e+002
1.629568e+002, 4.075671e+002
1.634389e+002, 4.102040e+002
1.639210e+002, 4.147525e+002
1.644031e+002, 4.206030e+002
1.648853e+002, 4.282346e+002
1.653674e+002, 4.369633e+002
1.658495e+002, 4.460375e+002
1.663316e+002, 4.558326e+002
1.668137e+002, 4.647128e+002
1.672958e+002, 4.726079e+002
1.677780e+002, 4.791394e+002
1.682601e+002, 4.809305e+002
1.687422e+002, 4.757729e+002
1.692243e+002, 4.644030e+002
1.697064e+002, 4.495075e+002
1.701885e+002, 4.296786e+002
1.706707e+002, 4.081969e+002
1.711528e+002, 3.867840e+002
1.716349e+002, 3.656011e+002
1.721170e+002, 3.449226e+002
1.725991e+002, 3.247291e+002
1.730812e+002, 3.049759e+002
1.735634e+002, 2.866680e+002
1.740455e+002, 2.702975e+002
1.745276e+002, 2.550951e+002
1.750097e+002, 2.407992e+002
1.754918e+002, 2.274197e+002
1.759739e+002, 2.152295e+002
1.764561e+002, 2.046910e+002
1.769382e+002, 1.959797e+002
1.774203e+002, 1.881800e+002
1.779024e+002, 1.810609e+002
1.783845e+002, 1.749017e+002
1.788666e+002, 1.701200e+002
1.793488e+002, 1.666651e+002
1.798309e+002, 1.639798e+002
1.803130e+002, 1.613509e+002
1.807951e+002, 1.585097e+002
1.812772e+002, 1.564566e+002
1.817593e+002, 1.552782e+002
1.822415e+002, 1.547087e+002
1.827236e+002, 1.546216e+002
1.832057e+002, 1.549675e+002
1.836878e+002, 1.556918e+002
1.841699e+002, 1.567173e+002
1.846520e+002, 1.580898e+002
1.851342e+002, 1.597719e+002
1.856163e+002, 1.618855e+002
1.860984e+002, 1.642562e+002
1.865805e+002, 1.670181e+002
1.870626e+002, 1.702790e+002
1.875447e+002, 1.731830e+002
1.880269e+002, 1.742063e+002
1.885090e+002, 1.733961e+002
1.889911e+002, 1.712474e+002
1.894732e+002, 1.671221e+002
1.899553e+002, 1.618226e+002
1.904374e+002, 1.566978e+002
1.909196e+002, 1.520040e+002
1.914017e+002, 1.477856e+002
1.918838e+002, 1.439470e+002
1.923659e+002, 1.404110e+002
1.928480e+002, 1.375582e+002
1.933301e+002, 1.358454e+002
1.938123e+002, 1.350317e+002
1.942944e+002, 1.342281e+002
1.947765e+002, 1.332284e+002
1.952586e+002, 1.321535e+002
1.957407e+002, 1.310567e+002
1.962228e+002, 1.299367e+002
1.967050e+002, 1.290273e+002
1.971871e+002, 1.285822e+002
1.976692e+002, 1.285812e+002
1.981513e+002, 1.285585e+002
1.986334e+002, 1.283658e+002
1.991155e+002, 1.281804e+002
1.995977e+002, 1.281789e+002
2.000798e+002, 1.283560e+002
2.005619e+002, 1.284837e+002
2.010440e+002, 1.282318e+002
2.015261e+002, 1.274922e+002
2.020082e+002, 1.270974e+002
2.024904e+002, 1.274276e+002
2.029725e+002, 1.279447e+002
2.034546e+002, 1.284381e+002
2.039367e+002, 1.288643e+002
2.044188e+002, 1.292544e+002
2.049009e+002, 1.296016e+002
2.053831e+002, 1.298113e+002
2.058652e+002, 1.302821e+002
2.063473e+002, 1.311853e+002
2.068294e+002, 1.322049e+002
2.073115e+002, 1.331978e+002
2.077936e+002, 1.341212e+002
2.082758e+002, 1.349857e+002
2.087579e+002, 1.357747e+002
2.092400e+002, 1.363595e+002
2.097221e+002, 1.371667e+002
2.102042e+002, 1.383389e+002
2.106863e+002, 1.395877e+002
2.111685e+002, 1.407799e+002
2.116506e+002, 1.418643e+002
2.121327e+002, 1.428049e+002
2.126148e+002, 1.435579e+002
2.130969e+002, 1.440930e+002
2.135790e+002, 1.444349e+002
2.140612e+002, 1.445605e+002
2.145433e+002, 1.445256e+002
2.150254e+002, 1.443177e+002
2.155075e+002, 1.439503e+002
2.159896e+002, 1.435437e+002
2.164717e+002, 1.432728e+002
2.169539e+002, 1.432026e+002
2.174360e+002, 1.431281e+002
2.179181e+002, 1.430505e+002
2.184002e+002, 1.429646e+002
2.188823e+002, 1.429571e+002
2.193644e+002, 1.430515e+002
2.198466e+002, 1.429732e+002
2.203287e+002, 1.422820e+002
2.208108e+002, 1.408744e+002
2.212929e+002, 1.394445e+002
2.217750e+002, 1.380796e+002
2.222571e+002, 1.367411e+002
2.227393e+002, 1.353311e+002
2.232214e+002, 1.338056e+002
2.237035e+002, 1.323625e+002
2.241856e+002, 1.313005e+002
2.246677e+002, 1.305854e+002
2.251498e+002, 1.299878e+002
2.256320e+002, 1.295528e+002
2.261141e+002, 1.291759e+002
2.265962e+002, 1.286328e+002
2.270783e+002, 1.278127e+002
2.275604e+002, 1.270469e+002
2.280425e+002, 1.267002e+002
2.285247e+002, 1.266927e+002
2.290068e+002, 1.267759e+002
2.294889e+002, 1.269469e+002
2.299710e+002, 1.271352e+002
2.304531e+002, 1.271397e+002
2.309352e+002, 1.268326e+002
2.314174e+002, 1.265725e+002
2.318995e+002, 1.266472e+002
2.323816e+002, 1.269789e+002
2.328637e+002, 1.273806e+002
2.333458e+002, 1.277590e+002
2.338279e+002, 1.281373e+002
2.343101e+002, 1.286071e+002
2.347922e+002, 1.292066e+002
2.352743e+002, 1.298340e+002
2.357564e+002, 1.303856e+002
2.362385e+002, 1.309149e+002
2.367206e+002, 1.315439e+002
2.372028e+002, 1.323931e+002
2.376849e+002, 1.333969e+002
2.381670e+002, 1.342964e+002
2.386491e+002, 1.351039e+002
2.391312e+002, 1.357669e+002
2.396133e+002, 1.361917e+002
2.400955e+002, 1.364932e+002
2.405776e+002, 1.368992e+002
2.410597e+002, 1.376288e+002
2.415418e+002, 1.385463e+002
2.420239e+002, 1.389702e+002
2.425060e+002, 1.386820e+002
2.429882e+002, 1.381409e+002
2.434703e+002, 1.372775e+002
2.439524e+002, 1.363178e+002
2.444345e+002, 1.355965e+002
2.449166e+002, 1.353405e+002
2.453987e+002, 1.354298e+002
2.458809e+002, 1.352896e+002
2.463630e+002, 1.345910e+002
2.468451e+002, 1.340891e+002
2.473272e+002, 1.340394e+002
2.478093e+002, 1.342346e+002
2.482914e+002, 1.344313e+002
2.487736e+002, 1.345052e+002
2.492557e+002, 1.344552e+002
2.497378e+002, 1.342615e+002
2.502199e+002, 1.335498e+002
2.507020e+002, 1.331775e+002
2.511841e+002, 1.334111e+002
2.516663e+002, 1.339834e+002
2.521484e+002, 1.346095e+002
2.526305e+002, 1.351574e+002
2.531126e+002, 1.356248e+002
2.535947e+002, 1.360138e+002
2.540768e+002, 1.361830e+002
2.545590e+002, 1.364406e+002
2.550411e+002, 1.368515e+002
2.555232e+002, 1.373418e+002
2.560053e+002, 1.378137e+002
2.564874e+002, 1.382252e+002
2.569695e+002, 1.386419e+002
2.574517e+002, 1.392194e+002
2.579338e+002, 1.398809e+002
2.584159e+002, 1.408420e+002
2.588980e+002, 1.423086e+002
2.593801e+002, 1.439875e+002
2.598622e+002, 1.455580e+002
2.603444e+002, 1.469114e+002
2.608265e+002, 1.482136e+002
2.613086e+002, 1.497803e+002
2.617907e+002, 1.519007e+002
2.622728e+002, 1.538559e+002
2.627549e+002, 1.554227e+002
2.632371e+002, 1.569328e+002
2.637192e+002, 1.586914e+002
2.642013e+002, 1.607864e+002
2.646834e+002, 1.631201e+002
2.651655e+002, 1.655526e+002
2.656476e+002, 1.680546e+002
2.661298e+002, 1.707641e+002
2.666119e+002, 1.737871e+002
2.670940e+002, 1.769761e+002
2.675761e+002, 1.802984e+002
2.680582e+002, 1.837417e+002
2.685403e+002, 1.870371e+002
2.690225e+002, 1.899571e+002
2.695046e+002, 1.925230e+002
2.699867e+002, 1.941906e+002
2.704688e+002, 1.949532e+002
2.709509e+002, 1.948006e+002
2.714330e+002, 1.935850e+002
2.719152e+002, 1.913267e+002
2.723973e+002, 1.884131e+002
2.728794e+002, 1.851426e+002
2.733615e+002, 1.814617e+002
2.738436e+002, 1.776304e+002
2.743257e+002, 1.733382e+002
2.748079e+002, 1.690947e+002
2.752900e+002, 1.652490e+002
2.757721e+002, 1.618228e+002
2.762542e+002, 1.588918e+002
2.767363e+002, 1.565250e+002
2.772184e+002, 1.547796e+002
2.777006e+002, 1.533450e+002
2.781827e+002, 1.522250e+002
2.786648e+002, 1.514252e+002
2.791469e+002, 1.510369e+002
2.796290e+002, 1.510268e+002
2.801111e+002, 1.511543e+002
2.805933e+002, 1.512989e+002
2.810754e+002, 1.514790e+002
2.815575e+002, 1.517190e+002
2.820396e+002, 1.519011e+002
2.825217e+002, 1.522802e+002
2.830038e+002, 1.530221e+002
2.834860e+002, 1.541037e+002
2.839681e+002, 1.554330e+002
2.844502e+002, 1.570535e+002
2.849323e+002, 1.588380e+002
2.854144e+002, 1.604754e+002
2.858965e+002, 1.618431e+002
2.863787e+002, 1.633574e+002
2.868608e+002, 1.652902e+002
2.873429e+002, 1.675636e+002
2.878250e+002, 1.698999e+002
2.883071e+002, 1.721380e+002
2.887892e+002, 1.745146e+002
2.892714e+002, 1.773787e+002
2.897535e+002, 1.807442e+002
2.902356e+002, 1.842601e+002
2.907177e+002, 1.877432e+002
2.911998e+002, 1.912525e+002
2.916819e+002, 1.949626e+002
2.921641e+002, 1.988754e+002
2.926462e+002, 2.030973e+002
2.931283e+002, 2.078427e+002
2.936104e+002, 2.130375e+002
2.940925e+002, 2.183136e+002
2.945746e+002, 2.233880e+002
2.950568e+002, 2.284509e+002
2.955389e+002, 2.339214e+002
2.960210e+002, 2.399211e+002
2.965031e+002, 2.460978e+002
2.969852e+002, 2.523046e+002
2.974673e+002, 2.584918e+002
2.979495e+002, 2.645332e+002
2.984316e+002, 2.703846e+002
2.989137e+002, 2.760449e+002
2.993958e+002, 2.814019e+002
2.998779e+002, 2.863752e+002
3.003600e+002, 2.914440e+002
3.008422e+002, 2.971514e+002
3.013243e+002, 3.031325e+002
3.018064e+002, 3.086174e+002
3.022885e+002, 3.130282e+002
3.027706e+002, 3.173443e+002
3.032527e+002, 3.229992e+002
3.037349e+002, 3.301421e+002
3.042170e+002, 3.368160e+002
3.046991e+002, 3.419444e+002
3.051812e+002, 3.460992e+002
3.056633e+002, 3.500355e+002
3.061454e+002, 3.538102e+002
3.066276e+002, 3.574129e+002
3.071097e+002, 3.611226e+002
3.075918e+002, 3.648741e+002
3.080739e+002, 3.676412e+002
3.085560e+002, 3.692766e+002
3.090381e+002, 3.694040e+002
3.095203e+002, 3.678369e+002
3.100024e+002, 3.645088e+002
3.104845e+002, 3.600342e+002
3.109666e+002, 3.546203e+002
3.114487e+002, 3.483466e+002
3.119308e+002, 3.416084e+002
3.124130e+002, 3.344390e+002
3.128951e+002, 3.268927e+002
3.133772e+002, 3.190201e+002
3.138593e+002, 3.108496e+002
3.143414e+002, 3.027838e+002
3.148235e+002, 2.950215e+002
3.153057e+002, 2.874982e+002
3.157878e+002, 2.798597e+002
3.162699e+002, 2.719382e+002
3.167520e+002, 2.643315e+002
3.172341e+002, 2.575031e+002
3.177162e+002, 2.513299e+002
3.181984e+002, 2.456113e+002
3.186805e+002, 2.404868e+002
3.191626e+002, 2.357084e+002
3.196447e+002, 2.308167e+002
3.201268e+002, 2.257270e+002
3.206089e+002, 2.209628e+002
3.210911e+002, 2.168994e+002
3.215732e+002, 2.133177e+002
3.220553e+002, 2.099953e+002
3.225374e+002, 2.069175e+002
3.230195e+002, 2.040096e+002
3.235016e+002, 2.011567e+002
3.239838e+002, 1.983393e+002
3.244659e+002, 1.958736e+002
3.249480e+002, 1.941197e+002
3.254301e+002, 1.926334e+002
3.259122e+002, 1.908365e+002
3.263943e+002, 1.886121e+002
3.268765e+002, 1.864547e+002
3.273586e+002, 1.847172e+002
3.278407e+002, 1.833494e+002
3.283228e+002, 1.821537e+002
3.288049e+002, 1.812145e+002
3.292870e+002, 1.802525e+002
3.297692e+002, 1.789131e+002
3.302513e+002, 1.772384e+002
3.307334e+002, 1.756820e+002
3.312155e+002, 1.744421e+002
3.316976e+002, 1.734834e+002
3.321797e+002, 1.727359e+002
3.326619e+002, 1.722079e+002
3.331440e+002, 1.718510e+002
3.336261e+002, 1.716493e+002
3.341082e+002, 1.715847e+002
3.345903e+002, 1.716568e+002
3.350724e+002, 1.718776e+002
3.355546e+002, 1.722293e+002
3.360367e+002, 1.727214e+002
3.365188e+002, 1.733626e+002
3.370009e+002, 1.740134e+002
3.374830e+002, 1.744151e+002
3.379651e+002, 1.748479e+002
3.384473e+002, 1.758528e+002
3.389294e+002, 1.777442e+002
3.394115e+002, 1.798123e+002
3.398936e+002, 1.813573e+002
3.403757e+002, 1.824879e+002
3.408578e+002, 1.839706e+002
3.413400e+002, 1.861248e+002
3.418221e+002, 1.887772e+002
3.423042e+002, 1.916001e+002
3.427863e+002, 1.945899e+002
3.432684e+002, 1.977824e+002
3.437505e+002, 2.012194e+002
3.442327e+002, 2.048728e+002
3.447148e+002, 2.086865e+002
3.451969e+002, 2.126614e+002
3.456790e+002, 2.167579e+002
3.461611e+002, 2.209524e+002
3.466432e+002, 2.252314e+002
3.471254e+002, 2.296202e+002
3.476075e+002, 2.340199e+002
3.480896e+002, 2.385779e+002
3.485717e+002, 2.435504e+002
3.490538e+002, 2.490008e+002
3.495359e+002, 2.542928e+002
3.500181e+002, 2.589066e+002
3.505002e+002, 2.629672e+002
3.509823e+002, 2.671434e+002
3.514644e+002, 2.717685e+002
3.519465e+002, 2.762388e+002
3.524286e+002, 2.804595e+002
3.529108e+002, 2.842885e+002
3.533929e+002, 2.871556e+002
3.538750e+002, 2.888058e+002
3.543571e+002, 2.892249e+002
3.548392e+002, 2.884527e+002
3.553214e+002, 2.864595e+002
3.558035e+002, 2.836450e+002
3.562856e+002, 2.801978e+002
3.567677e+002, 2.760219e+002
3.572498e+002, 2.709004e+002
3.577319e+002, 2.647323e+002
3.582141e+002, 2.577694e+002
3.586962e+002, 2.500522e+002
3.591783e+002, 2.414109e+002
3.596604e+002, 2.331028e+002
3.601425e+002, 2.250562e+002
3.606246e+002, 2.174914e+002
3.611068e+002, 2.108162e+002
3.615889e+002, 2.049627e+002
3.620710e+002, 1.993751e+002
3.625531e+002, 1.934979e+002
3.630352e+002, 1.873611e+002
3.635173e+002, 1.821367e+002
3.639995e+002, 1.786033e+002
3.644816e+002, 1.750923e+002
3.649637e+002, 1.705074e+002
3.654458e+002, 1.652983e+002
3.659279e+002, 1.606414e+002
3.664100e+002, 1.571497e+002
3.668922e+002, 1.546219e+002
3.673743e+002, 1.525152e+002
3.678564e+002, 1.512336e+002
3.683385e+002, 1.497661e+002
3.688206e+002, 1.477025e+002
3.693027e+002, 1.455042e+002
3.697849e+002, 1.437136e+002
3.702670e+002, 1.424861e+002
3.707491e+002, 1.416172e+002
3.712312e+002, 1.408772e+002
3.717133e+002, 1.404290e+002
3.721954e+002, 1.395781e+002
3.726776e+002, 1.380702e+002
3.731597e+002, 1.364127e+002
3.736418e+002, 1.347471e+002
3.741239e+002, 1.331821e+002
3.746060e+002, 1.319497e+002
3.750881e+002, 1.312735e+002
3.755703e+002, 1.311328e+002
3.760524e+002, 1.306852e+002
3.765345e+002, 1.294615e+002
3.770166e+002, 1.284720e+002
3.774987e+002, 1.281312e+002
3.779808e+002, 1.281158e+002
3.784630e+002, 1.279223e+002
3.789451e+002, 1.273178e+002
3.794272e+002, 1.264976e+002
3.799093e+002, 1.259394e+002
3.803914e+002, 1.259046e+002
3.808735e+002, 1.256941e+002
3.813557e+002, 1.251090e+002
3.818378e+002, 1.244801e+002
3.823199e+002, 1.240171e+002
3.828020e+002, 1.237643e+002
3.832841e+002, 1.236875e+002
3.837662e+002, 1.238124e+002
3.842484e+002, 1.242137e+002
3.847305e+002, 1.242877e+002
3.852126e+002, 1.235327e+002
3.856947e+002, 1.229244e+002
3.861768e+002, 1.228735e+002
3.866589e+002, 1.232016e+002
3.871411e+002, 1.235162e+002
3.876232e+002, 1.235789e+002
3.881053e+002, 1.234620e+002
3.885874e+002, 1.234586e+002
3.890695e+002, 1.237784e+002
3.895516e+002, 1.237982e+002
3.900338e+002, 1.230633e+002
3.905159e+002, 1.221780e+002
3.909980e+002, 1.217782e+002
3.914801e+002, 1.220324e+002
3.919622e+002, 1.224236e+002
3.924443e+002, 1.222748e+002
3.929265e+002, 1.215238e+002
3.934086e+002, 1.208421e+002
3.938907e+002, 1.202708e+002
3.943728e+002, 1.198409e+002
3.948549e+002, 1.196622e+002
3.953370e+002, 1.196635e+002
3.958192e+002, 1.195881e+002
3.963013e+002, 1.191649e+002
3.967834e+002, 1.185418e+002
3.972655e+002, 1.182450e+002
3.977476e+002, 1.183890e+002
3.982297e+002, 1.185640e+002
3.987119e+002, 1.186547e+002
3.991940e+002, 1.186177e+002
3.996761e+002, 1.183112e+002
4.001582e+002, 1.175522e+002
4.006403e+002, 1.168438e+002
4.011224e+002, 1.168700e+002
4.016046e+002, 1.175724e+002
4.020867e+002, 1.179385e+002
4.025688e+002, 1.175405e+002
4.030509e+002, 1.168053e+002
4.035330e+002, 1.161986e+002
4.040151e+002, 1.157148e+002
4.044973e+002, 1.154091e+002
4.049794e+002, 1.153655e+002
4.054615e+002, 1.154987e+002
4.059436e+002, 1.157429e+002
4.064257e+002, 1.161247e+002
4.069078e+002, 1.163253e+002
4.073900e+002, 1.159621e+002
4.078721e+002, 1.151569e+002
4.083542e+002, 1.145812e+002
4.088363e+002, 1.143531e+002
4.093184e+002, 1.143034e+002
4.098005e+002, 1.144042e+002
4.102827e+002, 1.146120e+002
4.107648e+002, 1.147895e+002
4.112469e+002, 1.148864e+002
4.117290e+002, 1.148997e+002
4.122111e+002, 1.147891e+002
4.126932e+002, 1.144583e+002
4.131754e+002, 1.142583e+002
4.136575e+002, 1.144240e+002
4.141396e+002, 1.146554e+002
4.146217e+002, 1.145771e+002
4.151038e+002, 1.141488e+002
4.155859e+002, 1.136870e+002
4.160681e+002, 1.135044e+002
4.165502e+002, 1.136273e+002
4.170323e+002, 1.137776e+002
4.175144e+002, 1.140405e+002
4.179965e+002, 1.142387e+002
4.184786e+002, 1.143060e+002
4.189608e+002, 1.142552e+002
4.194429e+002, 1.140928e+002
4.199250e+002, 1.138152e+002
4.204071e+002, 1.134895e+002
4.208892e+002, 1.133022e+002
4.213713e+002, 1.133359e+002
4.218535e+002, 1.133973e+002
4.223356e+002, 1.134899e+002
4.228177e+002, 1.135991e+002
4.232998e+002, 1.137275e+002
4.237819e+002, 1.138677e+002
4.242640e+002, 1.139937e+002
4.247462e+002, 1.140939e+002
4.252283e+002, 1.141759e+002
4.257104e+002, 1.141156e+002
4.261925e+002, 1.135440e+002
4.266746e+002, 1.132403e+002
4.271567e+002, 1.136054e+002
4.276389e+002, 1.143403e+002
4.281210e+002, 1.149743e+002
4.286031e+002, 1.152749e+002
4.290852e+002, 1.153965e+002
4.295673e+002, 1.156667e+002
4.300494e+002, 1.161540e+002
4.305316e+002, 1.165450e+002
4.310137e+002, 1.166433e+002
4.314958e+002, 1.167023e+002
4.319779e+002, 1.168386e+002
4.324600e+002, 1.170754e+002
4.329421e+002, 1.174524e+002
4.334243e+002, 1.180848e+002
4.339064e+002, 1.189007e+002
4.343885e+002, 1.195686e+002
4.348706e+002, 1.200082e+002
4.353527e+002, 1.204573e+002
4.358348e+002, 1.210654e+002
4.363170e+002, 1.217876e+002
4.367991e+002, 1.225709e+002
4.372812e+002, 1.233989e+002
4.377633e+002, 1.242842e+002
4.382454e+002, 1.251632e+002
4.387275e+002, 1.260737e+002
4.392097e+002, 1.273060e+002
4.396918e+002, 1.290713e+002
4.401739e+002, 1.310261e+002
4.406560e+002, 1.325970e+002
4.411381e+002, 1.337546e+002
4.416202e+002, 1.350644e+002
4.421024e+002, 1.365514e+002
4.425845e+002, 1.383396e+002
4.430666e+002, 1.406922e+002
4.435487e+002, 1.435953e+002
4.440308e+002, 1.465222e+002
4.445129e+002, 1.490170e+002
4.449951e+002, 1.511640e+002
4.454772e+002, 1.538641e+002
4.459593e+002, 1.575176e+002
4.464414e+002, 1.611507e+002
4.469235e+002, 1.643549e+002
4.474056e+002, 1.673880e+002
4.478878e+002, 1.707221e+002
4.483699e+002, 1.745101e+002
4.488520e+002, 1.783973e+002
4.493341e+002, 1.818528e+002
4.498162e+002, 1.846881e+002
4.502983e+002, 1.875757e+002
4.507805e+002, 1.906216e+002
4.512626e+002, 1.936081e+002
4.517447e+002, 1.962778e+002
4.522268e+002, 1.987897e+002
4.527089e+002, 2.015557e+002
4.531910e+002, 2.048351e+002
4.536732e+002, 2.085731e+002
4.541553e+002, 2.125486e+002
4.546374e+002, 2.169616e+002
4.551195e+002, 2.212803e+002
4.556016e+002, 2.259671e+002
4.560837e+002, 2.301898e+002
4.565659e+002, 2.332858e+002
4.570480e+002, 2.351363e+002
4.575301e+002, 2.358813e+002
4.580122e+002, 2.359765e+002
4.584943e+002, 2.353914e+002
4.589764e+002, 2.324220e+002
4.594586e+002, 2.262063e+002
4.599407e+002, 2.186902e+002
4.604228e+002, 2.103461e+002
4.609049e+002, 2.016733e+002
4.613870e+002, 1.935624e+002
4.618691e+002, 1.863827e+002
4.623513e+002, 1.797991e+002
4.628334e+002, 1.734440e+002
4.633155e+002, 1.673271e+002
4.637976e+002, 1.616953e+002
4.642797e+002, 1.566409e+002
4.647618e+002, 1.521187e+002
4.652440e+002, 1.480485e+002
4.657261e+002, 1.444085e+002
4.662082e+002, 1.411118e+002
4.666903e+002, 1.380660e+002
4.671724e+002, 1.353649e+002
4.676545e+002, 1.331980e+002
4.681367e+002, 1.315661e+002
4.686188e+002, 1.301496e+002
4.691009e+002, 1.287716e+002
4.695830e+002, 1.274437e+002
4.700651e+002, 1.261821e+002
4.705472e+002, 1.249458e+002
4.710294e+002, 1.238254e+002
4.715115e+002, 1.228551e+002
4.719936e+002, 1.220097e+002
4.724757e+002, 1.212958e+002
4.729578e+002, 1.207044e+002
4.734399e+002, 1.201111e+002
4.739221e+002, 1.193432e+002
4.744042e+002, 1.183303e+002
4.748863e+002, 1.175597e+002
4.753684e+002, 1.171096e+002
4.758505e+002, 1.167794e+002
4.763326e+002, 1.165462e+002
4.768148e+002, 1.163736e+002
4.772969e+002, 1.162316e+002
4.777790e+002, 1.161093e+002
4.782611e+002, 1.159720e+002
4.787432e+002, 1.157502e+002
4.792253e+002, 1.154428e+002
4.797075e+002, 1.150559e+002
4.801896e+002, 1.144394e+002
4.806717e+002, 1.138711e+002
4.811538e+002, 1.135303e+002
4.816359e+002, 1.133921e+002
4.821180e+002, 1.132989e+002
4.826002e+002, 1.131733e+002
4.830823e+002, 1.130079e+002
4.835644e+002, 1.127411e+002
4.840465e+002, 1.123196e+002
4.845286e+002, 1.120054e+002
4.850107e+002, 1.120813e+002
4.854929e+002, 1.122398e+002
4.859750e+002, 1.120651e+002
4.864571e+002, 1.114458e+002
4.869392e+002, 1.108640e+002
4.874213e+002, 1.106108e+002
4.879034e+002, 1.106053e+002
4.883856e+002, 1.107417e+002
4.888677e+002, 1.110362e+002
4.893498e+002, 1.112030e+002
4.898319e+002, 1.108990e+002
4.903140e+002, 1.101811e+002
4.907961e+002, 1.098270e+002
4.912783e+002, 1.101591e+002
4.917604e+002, 1.105073e+002
4.922425e+002, 1.105124e+002
4.927246e+002, 1.103296e+002
4.932067e+002, 1.102782e+002
4.936888e+002, 1.104706e+002
4.941710e+002, 1.107391e+002
4.946531e+002, 1.108168e+002
4.951352e+002, 1.106203e+002
4.956173e+002, 1.104923e+002
4.960994e+002, 1.104708e+002
4.965815e+002, 1.104701e+002
4.970637e+002, 1.104504e+002
4.975458e+002, 1.104187e+002
4.980279e+002, 1.103932e+002
4.985100e+002, 1.103815e+002
4.989921e+002, 1.103939e+002
4.994742e+002, 1.104561e+002
4.999564e+002, 1.105685e+002
5.004385e+002, 1.107299e+002
5.009206e+002, 1.109394e+002
5.014027e+002, 1.111983e+002
5.018848e+002, 1.115892e+002
5.023669e+002, 1.120622e+002
5.028491e+002, 1.123883e+002
5.033312e+002, 1.123504e+002
5.038133e+002, 1.120666e+002
5.042954e+002, 1.118015e+002
5.047775e+002, 1.115165e+002
5.052596e+002, 1.114502e+002
5.057418e+002, 1.118615e+002
5.062239e+002, 1.124829e+002
5.067060e+002, 1.129508e+002
5.071881e+002, 1.132452e+002
5.076702e+002, 1.133888e+002
5.081523e+002, 1.132478e+002
5.086345e+002, 1.130100e+002
5.091166e+002, 1.129996e+002
5.095987e+002, 1.132652e+002
5.100808e+002, 1.136550e+002
5.105629e+002, 1.140824e+002
5.110450e+002, 1.145326e+002
5.115272e+002, 1.148689e+002
5.120093e+002, 1.150088e+002
5.124914e+002, 1.151501e+002
5.129735e+002, 1.152685e+002
5.134556e+002, 1.154545e+002
5.139377e+002, 1.159310e+002
5.144199e+002, 1.167155e+002
5.149020e+002, 1.174503e+002
5.153841e+002, 1.176477e+002
5.158662e+002, 1.172132e+002
5.163483e+002, 1.168935e+002
5.168304e+002, 1.163658e+002
5.173126e+002, 1.163163e+002
5.177947e+002, 1.174206e+002
5.182768e+002, 1.189855e+002
5.187589e+002, 1.199042e+002
5.192410e+002, 1.197069e+002
5.197231e+002, 1.192271e+002
5.202053e+002, 1.198972e+002
5.206874e+002, 1.218498e+002
5.211695e+002, 1.229221e+002
5.216516e+002, 1.223235e+002
5.221337e+002, 1.214155e+002
5.226158e+002, 1.210957e+002
5.230980e+002, 1.212266e+002
5.235801e+002, 1.214142e+002
5.240622e+002, 1.214262e+002
5.245443e+002, 1.215289e+002
5.250264e+002, 1.221608e+002
5.255085e+002, 1.232094e+002
5.259907e+002, 1.239171e+002
5.264728e+002, 1.239159e+002
5.269549e+002, 1.237069e+002
5.274370e+002, 1.240832e+002
5.279191e+002, 1.251615e+002
5.284012e+002, 1.260612e+002
5.288834e+002, 1.265093e+002
5.293655e+002, 1.269137e+002
5.298476e+002, 1.276166e+002
5.303297e+002, 1.285252e+002
5.308118e+002, 1.293062e+002
5.312939e+002, 1.297737e+002
5.317761e+002, 1.300501e+002
5.322582e+002, 1.304281e+002
5.327403e+002, 1.307910e+002
5.332224e+002, 1.314897e+002
5.337045e+002, 1.328202e+002
5.341866e+002, 1.341813e+002
5.346688e+002, 1.352006e+002
5.351509e+002, 1.359285e+002
5.356330e+002, 1.366143e+002
5.361151e+002, 1.373930e+002
5.365972e+002, 1.382768e+002
5.370793e+002, 1.393391e+002
5.375615e+002, 1.406196e+002
5.380436e+002, 1.418862e+002
5.385257e+002, 1.428887e+002
5.390078e+002, 1.439962e+002
5.394899e+002, 1.455466e+002
5.399720e+002, 1.475395e+002
5.404542e+002, 1.496865e+002
5.409363e+002, 1.518241e+002
5.414184e+002, 1.540398e+002
5.419005e+002, 1.563991e+002
5.423826e+002, 1.589168e+002
5.428647e+002, 1.617779e+002
5.433469e+002, 1.651464e+002
5.438290e+002, 1.688728e+002
5.443111e+002, 1.725712e+002
5.447932e+002, 1.759942e+002
5.452753e+002, 1.799108e+002
5.457574e+002, 1.845256e+002
5.462396e+002, 1.896341e+002
5.467217e+002, 1.951901e+002
5.472038e+002, 2.011047e+002
5.476859e+002, 2.070316e+002
5.481680e+002, 2.127214e+002
5.486501e+002, 2.183131e+002
5.491323e+002, 2.244686e+002
5.496144e+002, 2.315554e+002
5.500965e+002, 2.385386e+002
5.505786e+002, 2.452479e+002
5.510607e+002, 2.518997e+002
5.515428e+002, 2.587346e+002
5.520250e+002, 2.656915e+002
5.525071e+002, 2.723922e+002
5.529892e+002, 2.786970e+002
5.534713e+002, 2.845161e+002
5.539534e+002, 2.896915e+002
5.544355e+002, 2.942253e+002
5.549177e+002, 2.980574e+002
5.553998e+002, 3.011224e+002
5.558819e+002, 3.034585e+002
5.563640e+002, 3.054314e+002
5.568461e+002, 3.071553e+002
5.573282e+002, 3.075391e+002
5.578104e+002, 3.057279e+002
5.582925e+002, 3.026089e+002
5.587746e+002, 2.991435e+002
5.592567e+002, 2.953823e+002
5.597388e+002, 2.911748e+002
5.602209e+002, 2.863752e+002
5.607031e+002, 2.810893e+002
5.611852e+002, 2.756459e+002
5.616673e+002, 2.697051e+002
5.621494e+002, 2.640043e+002
5.626315e+002, 2.587301e+002
5.631136e+002, 2.535604e+002
5.635958e+002, 2.482205e+002
5.640779e+002, 2.427283e+002
5.645600e+002, 2.373677e+002
5.650421e+002, 2.322996e+002
5.655242e+002, 2.275427e+002
5.660063e+002, 2.231629e+002
5.664885e+002, 2.192143e+002
5.669706e+002, 2.155495e+002
5.674527e+002, 2.122049e+002
5.679348e+002, 2.091180e+002
5.684169e+002, 2.062762e+002
5.688990e+002, 2.036849e+002
5.693812e+002, 2.012721e+002
5.698633e+002, 1.990401e+002
5.703454e+002, 1.969731e+002
5.708275e+002, 1.951767e+002
5.713096e+002, 1.936204e+002
5.717917e+002, 1.917714e+002
5.722739e+002, 1.892466e+002
5.727560e+002, 1.865322e+002
5.732381e+002, 1.845820e+002
5.737202e+002, 1.836678e+002
5.742023e+002, 1.823627e+002
5.746844e+002, 1.802736e+002
5.751666e+002, 1.779729e+002
5.756487e+002, 1.757954e+002
5.761308e+002, 1.737375e+002
5.766129e+002, 1.716692e+002
5.770950e+002, 1.695061e+002
5.775771e+002, 1.673668e+002
5.780593e+002, 1.655319e+002
5.785414e+002, 1.641392e+002
5.790235e+002, 1.626738e+002
5.795056e+002, 1.607963e+002
5.799877e+002, 1.591382e+002
5.804698e+002, 1.582856e+002
5.809520e+002, 1.578655e+002
5.814341e+002, 1.569536e+002
5.819162e+002, 1.549682e+002
5.823983e+002, 1.526688e+002
5.828804e+002, 1.510522e+002
5.833625e+002, 1.500702e+002
5.838447e+002, 1.493142e+002
5.843268e+002, 1.487675e+002
5.848089e+002, 1.482463e+002
5.852910e+002, 1.475052e+002
5.857731e+002, 1.465824e+002
5.862552e+002, 1.458887e+002
5.867374e+002, 1.457109e+002
5.872195e+002, 1.455083e+002
5.877016e+002, 1.449140e+002
5.881837e+002, 1.441292e+002
5.886658e+002, 1.434988e+002
5.891479e+002, 1.431288e+002
5.896301e+002, 1.429268e+002
5.901122e+002, 1.427981e+002
5.905943e+002, 1.427579e+002
5.910764e+002, 1.426453e+002
5.915585e+002, 1.425205e+002
5.920406e+002, 1.422398e+002
5.925228e+002, 1.414936e+002
5.930049e+002, 1.407032e+002
5.934870e+002, 1.404756e+002
5.939691e+002, 1.409458e+002
5.944512e+002, 1.414325e+002
5.949333e+002, 1.411906e+002
5.954155e+002, 1.404004e+002
5.958976e+002, 1.398627e+002
5.963797e+002, 1.396579e+002
5.968618e+002, 1.395521e+002
5.973439e+002, 1.394890e+002
5.978260e+002, 1.394019e+002
5.983082e+002, 1.391240e+002
5.987903e+002, 1.385383e+002
5.992724e+002, 1.380598e+002
5.997545e+002, 1.379270e+002
6.002366e+002, 1.379027e+002
6.007188e+002, 1.377221e+002
6.012009e+002, 1.373823e+002
6.016830e+002, 1.370559e+002
6.021651e+002, 1.368655e+002
6.026472e+002, 1.367581e+002
6.031293e+002, 1.365248e+002
6.036115e+002, 1.360198e+002
6.040936e+002, 1.356596e+002
6.045757e+002, 1.356509e+002
6.050578e+002, 1.356239e+002
6.055399e+002, 1.352969e+002
6.060220e+002, 1.347432e+002
6.065042e+002, 1.342508e+002
6.069863e+002, 1.340166e+002
6.074684e+002, 1.338766e+002
6.079505e+002, 1.335958e+002
6.084326e+002, 1.331729e+002
6.089147e+002, 1.325421e+002
6.093969e+002, 1.315466e+002
6.098790e+002, 1.305982e+002
6.103611e+002, 1.302882e+002
6.108432e+002, 1.305453e+002
6.113253e+002, 1.304703e+002
6.118074e+002, 1.296698e+002
6.122896e+002, 1.288286e+002
6.127717e+002, 1.283035e+002
6.132538e+002, 1.279824e+002
6.137359e+002, 1.276761e+002
6.142180e+002, 1.273230e+002
6.147001e+002, 1.269505e+002
6.151823e+002, 1.266037e+002
6.156644e+002, 1.262911e+002
6.161465e+002, 1.258082e+002
6.166286e+002, 1.248604e+002
6.171107e+002, 1.241594e+002
6.175928e+002, 1.240404e+002
6.180750e+002, 1.241516e+002
6.185571e+002, 1.242004e+002
6.190392e+002, 1.241178e+002
6.195213e+002, 1.238208e+002
6.200034e+002, 1.230396e+002
6.204855e+002, 1.220510e+002
6.209677e+002, 1.215065e+002
6.214498e+002, 1.214448e+002
6.219319e+002, 1.214996e+002
6.224140e+002, 1.215138e+002
6.228961e+002, 1.215119e+002
6.233782e+002, 1.215560e+002
6.238604e+002, 1.216811e+002
6.243425e+002, 1.217379e+002
6.248246e+002, 1.215732e+002
6.253067e+002, 1.214552e+002
6.257888e+002, 1.216447e+002
6.262709e+002, 1.220259e+002
6.267531e+002, 1.223023e+002
6.272352e+002, 1.223261e+002
6.277173e+002, 1.221942e+002
6.281994e+002, 1.220383e+002
6.286815e+002, 1.218172e+002
6.291636e+002, 1.218104e+002
6.296458e+002, 1.222309e+002
6.301279e+002, 1.226107e+002
6.306100e+002, 1.226649e+002
6.310921e+002, 1.225377e+002
6.315742e+002, 1.224620e+002
6.320563e+002, 1.224639e+002
6.325385e+002, 1.226210e+002
6.330206e+002, 1.231387e+002
6.335027e+002, 1.238130e+002
6.339848e+002, 1.242389e+002
6.344669e+002, 1.243580e+002
6.349490e+002, 1.242968e+002
6.354312e+002, 1.240857e+002
6.359133e+002, 1.238083e+002
6.363954e+002, 1.238632e+002
6.368775e+002, 1.246038e+002
6.373596e+002, 1.252120e+002
6.378417e+002, 1.255717e+002
6.383239e+002, 1.258640e+002
6.388060e+002, 1.262488e+002
6.392881e+002, 1.266885e+002
6.397702e+002, 1.270069e+002
6.402523e+002, 1.270705e+002
6.407344e+002, 1.270288e+002
6.412166e+002, 1.271630e+002
6.416987e+002, 1.274783e+002
6.421808e+002, 1.278444e+002
6.426629e+002, 1.281842e+002
6.431450e+002, 1.286563e+002
6.436271e+002, 1.295586e+002
6.441093e+002, 1.307481e+002
6.445914e+002, 1.316698e+002
6.450735e+002, 1.319524e+002
6.455556e+002, 1.322873e+002
6.460377e+002, 1.330735e+002
6.465198e+002, 1.340775e+002
6.470020e+002, 1.348615e+002
6.474841e+002, 1.353962e+002
6.479662e+002, 1.361964e+002
6.484483e+002, 1.378134e+002
6.489304e+002, 1.400505e+002
6.494125e+002, 1.415182e+002
6.498947e+002, 1.416696e+002
6.503768e+002, 1.420575e+002
6.508589e+002, 1.428396e+002
6.513410e+002, 1.440187e+002
6.518231e+002, 1.458185e+002
6.523052e+002, 1.480921e+002
6.527874e+002, 1.501948e+002
6.532695e+002, 1.516155e+002
6.537516e+002, 1.528853e+002
6.542337e+002, 1.546353e+002
6.547158e+002, 1.568015e+002
6.551979e+002, 1.590840e+002
6.556801e+002, 1.613913e+002
6.561622e+002, 1.638206e+002
6.566443e+002, 1.664719e+002
6.571264e+002, 1.693343e+002
6.576085e+002, 1.725414e+002
6.580906e+002, 1.762172e+002
6.585728e+002, 1.800217e+002
6.590549e+002, 1.837937e+002
6.595370e+002, 1.877312e+002
6.600191e+002, 1.922012e+002
6.605012e+002, 1.971736e+002
6.609833e+002, 2.020873e+002
6.614655e+002, 2.062486e+002
6.619476e+002, 2.101487e+002
6.624297e+002, 2.152997e+002
6.629118e+002, 2.218127e+002
6.633939e+002, 2.286456e+002
6.638760e+002, 2.355431e+002
6.643582e+002, 2.425150e+002
6.648403e+002, 2.494108e+002
6.653224e+002, 2.562503e+002
6.658045e+002, 2.636270e+002
6.662866e+002, 2.722945e+002
6.667687e+002, 2.808321e+002
6.672509e+002, 2.884070e+002
6.677330e+002, 2.953013e+002
6.682151e+002, 3.021144e+002
6.686972e+002, 3.089678e+002
6.691793e+002, 3.153419e+002
6.696614e+002, 3.208961e+002
6.701436e+002, 3.255674e+002
6.706257e+002, 3.285305e+002
6.711078e+002, 3.296559e+002
6.715899e+002, 3.293542e+002
6.720720e+002, 3.276280e+002
6.725541e+002, 3.245522e+002
6.730363e+002, 3.199723e+002
6.735184e+002, 3.139427e+002
6.740005e+002, 3.069764e+002
6.744826e+002, 2.991221e+002
6.749647e+002, 2.904865e+002
6.754468e+002, 2.808101e+002
6.759290e+002, 2.704074e+002
6.764111e+002, 2.601498e+002
6.768932e+002, 2.503226e+002
6.773753e+002, 2.407681e+002
6.778574e+002, 2.312299e+002
6.783395e+002, 2.216483e+002
6.788217e+002, 2.136627e+002
6.793038e+002, 2.088021e+002
6.797859e+002, 2.036282e+002
6.802680e+002, 1.971108e+002
6.807501e+002, 1.904028e+002
6.812322e+002, 1.844474e+002
6.817144e+002, 1.794109e+002
6.821965e+002, 1.750035e+002
6.826786e+002, 1.712672e+002
6.831607e+002, 1.679490e+002
6.836428e+002, 1.646248e+002
6.841249e+002, 1.613227e+002
6.846071e+002, 1.584257e+002
6.850892e+002, 1.560676e+002
6.855713e+002, 1.540388e+002
6.860534e+002, 1.521341e+002
6.865355e+002, 1.503727e+002
6.870176e+002, 1.485090e+002
6.874998e+002, 1.461164e+002
6.879819e+002, 1.441690e+002
6.884640e+002, 1.432974e+002
6.889461e+002, 1.427475e+002
6.894282e+002, 1.416440e+002
6.899103e+002, 1.399726e+002
6.903925e+002, 1.384651e+002
6.908746e+002, 1.377535e+002
6.913567e+002, 1.375228e+002
6.918388e+002, 1.370199e+002
6.923209e+002, 1.362331e+002
6.928030e+002, 1.354929e+002
6.932852e+002, 1.349059e+002
6.937673e+002, 1.343523e+002
6.942494e+002, 1.336546e+002
6.947315e+002, 1.328358e+002
6.952136e+002, 1.322483e+002
6.956957e+002, 1.322980e+002
6.961779e+002, 1.321019e+002
6.966600e+002, 1.309350e+002
6.971421e+002, 1.296131e+002
6.976242e+002, 1.292028e+002
6.981063e+002, 1.297009e+002
6.985884e+002, 1.301764e+002
6.990706e+002, 1.298878e+002
6.995527e+002, 1.291277e+002
7.000348e+002, 1.287632e+002
7.005169e+002, 1.288703e+002
7.009990e+002, 1.288781e+002
7.014811e+002, 1.286214e+002
7.019633e+002, 1.283124e+002
7.024454e+002, 1.280877e+002
7.029275e+002, 1.279515e+002
7.034096e+002, 1.279429e+002
7.038917e+002, 1.283020e+002
7.043738e+002, 1.284654e+002
7.048560e+002, 1.279783e+002
7.053381e+002, 1.272934e+002
7.058202e+002, 1.269318e+002
7.063023e+002, 1.269443e+002
7.067844e+002, 1.271581e+002
7.072665e+002, 1.274889e+002
7.077487e+002, 1.278133e+002
7.082308e+002, 1.277355e+002
7.087129e+002, 1.271456e+002
7.091950e+002, 1.266649e+002
7.096771e+002, 1.263691e+002
7.101592e+002, 1.261946e+002
7.106414e+002, 1.261699e+002
7.111235e+002, 1.262222e+002
7.116056e+002, 1.261681e+002
7.120877e+002, 1.258635e+002
7.125698e+002, 1.257229e+002
7.130519e+002, 1.261078e+002
7.135341e+002, 1.266701e+002
7.140162e+002, 1.270289e+002
7.144983e+002, 1.271564e+002
7.149804e+002, 1.271562e+002
7.154625e+002, 1.270820e+002
7.159446e+002, 1.269508e+002
7.164268e+002, 1.267692e+002
7.169089e+002, 1.264873e+002
7.173910e+002, 1.263853e+002
7.178731e+002, 1.265893e+002
7.183552e+002, 1.268125e+002
7.188373e+002, 1.268642e+002
7.193195e+002, 1.268730e+002
7.198016e+002, 1.270794e+002
7.202837e+002, 1.275799e+002
7.207658e+002, 1.279070e+002
7.212479e+002, 1.276948e+002
7.217300e+002, 1.272985e+002
7.222122e+002, 1.270878e+002
7.226943e+002, 1.270451e+002
7.231764e+002, 1.269940e+002
7.236585e+002, 1.268566e+002
7.241406e+002, 1.267384e+002
7.246227e+002, 1.268237e+002
7.251049e+002, 1.271466e+002
7.255870e+002, 1.273492e+002
7.260691e+002, 1.273745e+002
7.265512e+002, 1.273687e+002
7.270333e+002, 1.273765e+002
7.275154e+002, 1.273807e+002
7.279976e+002, 1.273200e+002
7.284797e+002, 1.271963e+002
7.289618e+002, 1.272144e+002
7.294439e+002, 1.275590e+002
7.299260e+002, 1.279965e+002
7.304081e+002, 1.284686e+002
7.308903e+002, 1.288453e+002
7.313724e+002, 1.286994e+002
7.318545e+002, 1.279459e+002
7.323366e+002, 1.272255e+002
7.328187e+002, 1.272614e+002
7.333008e+002, 1.279725e+002
7.337830e+002, 1.283592e+002
7.342651e+002, 1.282510e+002
7.347472e+002, 1.281874e+002
7.352293e+002, 1.282832e+002
7.357114e+002, 1.284689e+002
7.361935e+002, 1.288146e+002
7.366757e+002, 1.292366e+002
7.371578e+002, 1.293842e+002
7.376399e+002, 1.289651e+002
7.381220e+002, 1.284832e+002
7.386041e+002, 1.282702e+002
7.390862e+002, 1.282156e+002
7.395684e+002, 1.280914e+002
7.400505e+002, 1.279009e+002
7.405326e+002, 1.279301e+002
7.410147e+002, 1.284243e+002
7.414968e+002, 1.291801e+002
7.419789e+002, 1.295531e+002
7.424611e+002, 1.294167e+002
7.429432e+002, 1.293691e+002
7.434253e+002, 1.295980e+002
7.439074e+002, 1.297537e+002
7.443895e+002, 1.295187e+002
7.448716e+002, 1.291087e+002
7.453538e+002, 1.289511e+002
7.458359e+002, 1.292010e+002
7.463180e+002, 1.294102e+002
7.468001e+002, 1.291993e+002
7.472822e+002, 1.289782e+002
7.477643e+002, 1.292631e+002
7.482465e+002, 1.299325e+002
7.487286e+002, 1.305447e+002
7.492107e+002, 1.308970e+002
7.496928e+002, 1.310177e+002
7.501749e+002, 1.308598e+002
7.506570e+002, 1.303944e+002
7.511392e+002, 1.303132e+002
7.516213e+002, 1.308268e+002
7.521034e+002, 1.312401e+002
7.525855e+002, 1.312617e+002
7.530676e+002, 1.310496e+002
7.535497e+002, 1.306862e+002
7.540319e+002, 1.301612e+002
7.545140e+002, 1.299998e+002
7.549961e+002, 1.307389e+002
7.554782e+002, 1.314457e+002
7.559603e+002, 1.314671e+002
7.564424e+002, 1.311222e+002
7.569246e+002, 1.308550e+002
7.574067e+002, 1.307958e+002
7.578888e+002, 1.309731e+002
7.583709e+002, 1.314971e+002
7.588530e+002, 1.321812e+002
7.593351e+002, 1.323082e+002
7.598173e+002, 1.317919e+002
7.602994e+002, 1.314633e+002
7.607815e+002, 1.315419e+002
7.612636e+002, 1.317717e+002
7.617457e+002, 1.319732e+002
7.622278e+002, 1.321495e+002
7.627100e+002, 1.323152e+002
7.631921e+002, 1.324080e+002
7.636742e+002, 1.325884e+002
7.641563e+002, 1.330392e+002
7.646384e+002, 1.334730e+002
7.651205e+002, 1.336273e+002
7.656027e+002, 1.335600e+002
7.660848e+002, 1.334492e+002
7.665669e+002, 1.333694e+002
7.670490e+002, 1.333995e+002
7.675311e+002, 1.337486e+002
7.680132e+002, 1.343283e+002
7.684954e+002, 1.346389e+002
7.689775e+002, 1.346373e+002
7.694596e+002, 1.344296e+002
7.699417e+002, 1.339225e+002
7.704238e+002, 1.334538e+002
7.709059e+002, 1.337380e+002
7.713881e+002, 1.351721e+002
7.718702e+002, 1.357134e+002
7.723523e+002, 1.344432e+002
7.728344e+002, 1.334055e+002
7.733165e+002, 1.334609e+002
7.737986e+002, 1.340244e+002
7.742808e+002, 1.345120e+002
7.747629e+002, 1.347880e+002
7.752450e+002, 1.348764e+002
7.757271e+002, 1.346683e+002
7.762092e+002, 1.344008e+002
7.766913e+002, 1.343991e+002
7.771735e+002, 1.346440e+002
7.776556e+002, 1.351777e+002
7.781377e+002, 1.360316e+002
7.786198e+002, 1.366293e+002
7.791019e+002, 1.363919e+002
7.795840e+002, 1.355440e+002
7.800662e+002, 1.352578e+002
7.805483e+002, 1.359013e+002
7.810304e+002, 1.364100e+002
7.815125e+002, 1.366751e+002
7.819946e+002, 1.368377e+002
7.824767e+002, 1.369222e+002
7.829589e+002, 1.369640e+002
7.834410e+002, 1.370301e+002
7.839231e+002, 1.371503e+002
7.844052e+002, 1.372270e+002
7.848873e+002, 1.371323e+002
7.853694e+002, 1.370086e+002
7.858516e+002, 1.370745e+002
7.863337e+002, 1.372766e+002
7.868158e+002, 1.373517e+002
7.872979e+002, 1.371982e+002
7.877800e+002, 1.370849e+002
7.882621e+002, 1.374188e+002
7.887443e+002, 1.381772e+002
7.892264e+002, 1.386403e+002
7.897085e+002, 1.386729e+002
7.901906e+002, 1.387931e+002
7.906727e+002, 1.392328e+002
7.911548e+002, 1.397442e+002
7.916370e+002, 1.401054e+002
7.921191e+002, 1.403245e+002
7.926012e+002, 1.404354e+002
7.930833e+002, 1.403610e+002
7.935654e+002, 1.402814e+002
7.940475e+002, 1.401712e+002
7.945297e+002, 1.401524e+002
7.950118e+002, 1.404917e+002
7.954939e+002, 1.410595e+002
7.959760e+002, 1.413330e+002
7.964581e+002, 1.409806e+002
7.969402e+002, 1.404892e+002
7.974224e+002, 1.407692e+002
7.979045e+002, 1.416434e+002
7.983866e+002, 1.418004e+002
7.988687e+002, 1.410470e+002
7.993508e+002, 1.403629e+002
7.998329e+002, 1.402538e+002
8.003151e+002, 1.404953e+002
8.007972e+002, 1.406819e+002
8.012793e+002, 1.407813e+002
8.017614e+002, 1.409583e+002
8.022435e+002, 1.413241e+002
8.027256e+002, 1.416253e+002
8.032078e+002, 1.417063e+002
8.036899e+002, 1.417409e+002
8.041720e+002, 1.419250e+002
8.046541e+002, 1.422636e+002
8.051362e+002, 1.426114e+002
8.056183e+002, 1.429041e+002
8.061005e+002, 1.431563e+002
8.065826e+002, 1.433662e+002
8.070647e+002, 1.435497e+002
8.075468e+002, 1.437483e+002
8.080289e+002, 1.439664e+002
8.085110e+002, 1.441767e+002
8.089932e+002, 1.443745e+002
8.094753e+002, 1.445050e+002
8.099574e+002, 1.443530e+002
8.104395e+002, 1.437720e+002
8.109216e+002, 1.435826e+002
8.114037e+002, 1.439830e+002
8.118859e+002, 1.445155e+002
8.123680e+002, 1.450975e+002
8.128501e+002, 1.456066e+002
8.133322e+002, 1.458013e+002
8.138143e+002, 1.456077e+002
8.142964e+002, 1.455686e+002
8.147786e+002, 1.459764e+002
8.152607e+002, 1.463934e+002
8.157428e+002, 1.465398e+002
8.162249e+002, 1.465466e+002
8.167070e+002, 1.465513e+002
8.171891e+002, 1.466179e+002
8.176713e+002, 1.468786e+002
8.181534e+002, 1.475472e+002
8.186355e+002, 1.482960e+002
8.191176e+002, 1.483512e+002
8.195997e+002, 1.478248e+002
8.200818e+002, 1.476555e+002
8.205640e+002, 1.480417e+002
8.210461e+002, 1.484609e+002
8.215282e+002, 1.485018e+002
8.220103e+002, 1.483559e+002
8.224924e+002, 1.486425e+002
8.229745e+002, 1.498209e+002
8.234567e+002, 1.504078e+002
8.239388e+002, 1.498739e+002
8.244209e+002, 1.493632e+002
8.249030e+002, 1.492712e+002
8.253851e+002, 1.494378e+002
8.258672e+002, 1.497042e+002
8.263494e+002, 1.500398e+002
8.268315e+002, 1.502731e+002
8.273136e+002, 1.502038e+002
8.277957e+002, 1.501166e+002
8.282778e+002, 1.502618e+002
8.287599e+002, 1.505605e+002
8.292421e+002, 1.509141e+002
8.297242e+002, 1.512717e+002
8.302063e+002, 1.514843e+002
8.306884e+002, 1.513950e+002
8.311705e+002, 1.512069e+002
8.316526e+002, 1.515514e+002
8.321348e+002, 1.524573e+002
8.326169e+002, 1.528004e+002
8.330990e+002, 1.521914e+002
8.335811e+002, 1.518887e+002
8.340632e+002, 1.528611e+002
8.345453e+002, 1.544561e+002
8.350275e+002, 1.552323e+002
8.355096e+002, 1.548717e+002
8.359917e+002, 1.545946e+002
8.364738e+002, 1.544724e+002
8.369559e+002, 1.543555e+002
8.374380e+002, 1.540390e+002
8.379202e+002, 1.537902e+002
8.384023e+002, 1.539512e+002
8.388844e+002, 1.545242e+002
8.393665e+002, 1.551819e+002
8.398486e+002, 1.557867e+002
8.403307e+002, 1.563597e+002
8.408129e+002, 1.571250e+002
8.412950e+002, 1.578126e+002
8.417771e+002, 1.576532e+002
8.422592e+002, 1.566935e+002
8.427413e+002, 1.559401e+002
8.432234e+002, 1.560392e+002
8.437056e+002, 1.566662e+002
8.441877e+002, 1.572147e+002
8.446698e+002, 1.576833e+002
8.451519e+002, 1.580460e+002
8.456340e+002, 1.582684e+002
8.461161e+002, 1.584714e+002
8.465983e+002, 1.587161e+002
8.470804e+002, 1.589553e+002
8.475625e+002, 1.590562e+002
8.480446e+002, 1.589915e+002
8.485267e+002, 1.592464e+002
8.490089e+002, 1.600405e+002
8.494910e+002, 1.608960e+002
8.499731e+002, 1.618357e+002
8.504552e+002, 1.626633e+002
8.509373e+002, 1.631626e+002
8.514194e+002, 1.633931e+002
8.519016e+002, 1.635773e+002
8.523837e+002, 1.637959e+002
8.528658e+002, 1.640602e+002
8.533479e+002, 1.643599e+002
8.538300e+002, 1.647243e+002
8.543121e+002, 1.651693e+002
8.547943e+002, 1.657184e+002
8.552764e+002, 1.665423e+002
8.557585e+002, 1.677146e+002
8.562406e+002, 1.688506e+002
8.567227e+002, 1.693627e+002
8.572048e+002, 1.693277e+002
8.576870e+002, 1.698987e+002
8.581691e+002, 1.712946e+002
8.586512e+002, 1.723868e+002
8.591333e+002, 1.727230e+002
8.596154e+002, 1.729539e+002
8.600975e+002, 1.737474e+002
8.605797e+002, 1.749535e+002
8.610618e+002, 1.757190e+002
8.615439e+002, 1.755190e+002
8.620260e+002, 1.757643e+002
8.625081e+002, 1.771302e+002
8.629902e+002, 1.784524e+002
8.634724e+002, 1.791136e+002
8.639545e+002, 1.792306e+002
8.644366e+002, 1.789554e+002
8.649187e+002, 1.783446e+002
8.654008e+002, 1.778603e+002
8.658829e+002, 1.778527e+002
8.663651e+002, 1.780933e+002
8.668472e+002, 1.783658e+002
8.673293e+002, 1.786658e+002
8.678114e+002, 1.790196e+002
8.682935e+002, 1.794213e+002
8.687756e+002, 1.797676e+002
8.692578e+002, 1.799495e+002
8.697399e+002, 1.801184e+002
8.702220e+002, 1.807378e+002
8.707041e+002, 1.818386e+002
8.711862e+002, 1.826220e+002
8.716683e+002, 1.828982e+002
8.721505e+002, 1.833157e+002
8.726326e+002, 1.842850e+002
8.731147e+002, 1.854857e+002
8.735968e+002, 1.863184e+002
8.740789e+002, 1.866075e+002
8.745610e+002, 1.874790e+002
8.750432e+002, 1.896074e+002
8.755253e+002, 1.913905e+002
8.760074e+002, 1.921261e+002
8.764895e+002, 1.926436e+002
8.769716e+002, 1.936008e+002
8.774537e+002, 1.949917e+002
8.779359e+002, 1.965515e+002
8.784180e+002, 1.982230e+002
8.789001e+002, 1.999866e+002
8.793822e+002, 2.018600e+002
8.798643e+002, 2.038072e+002
8.803464e+002, 2.058243e+002
8.808286e+002, 2.078874e+002
8.813107e+002, 2.098709e+002
8.817928e+002, 2.117522e+002
8.822749e+002, 2.138935e+002
8.827570e+002, 2.167853e+002
8.832391e+002, 2.201875e+002
8.837213e+002, 2.233205e+002
8.842034e+002, 2.261995e+002
8.846855e+002, 2.290763e+002
8.851676e+002, 2.320085e+002
8.856497e+002, 2.349365e+002
8.861318e+002, 2.378593e+002
8.866140e+002, 2.407159e+002
8.870961e+002, 2.433054e+002
8.875782e+002, 2.456396e+002
8.880603e+002, 2.476496e+002
8.885424e+002, 2.487721e+002
8.890245e+002, 2.503425e+002
8.895067e+002, 2.534143e+002
8.899888e+002, 2.568991e+002
8.904709e+002, 2.597112e+002
8.909530e+002, 2.618032e+002
8.914351e+002, 2.630468e+002
8.919172e+002, 2.627380e+002
8.923994e+002, 2.624293e+002
8.928815e+002, 2.627925e+002
8.933636e+002, 2.634196e+002
8.938457e+002, 2.640573e+002
8.943278e+002, 2.645732e+002
8.948099e+002, 2.647289e+002
8.952921e+002, 2.643877e+002
8.957742e+002, 2.639800e+002
8.962563e+002, 2.638873e+002
8.967384e+002, 2.640137e+002
8.972205e+002, 2.642467e+002
8.977026e+002, 2.645534e+002
8.981848e+002, 2.649295e+002
8.986669e+002, 2.653550e+002
8.991490e+002, 2.654754e+002
8.996311e+002, 2.649037e+002
9.001132e+002, 2.638073e+002
9.005953e+002, 2.628240e+002
9.010775e+002, 2.619714e+002
9.015596e+002, 2.610745e+002
9.020417e+002, 2.601743e+002
9.025238e+002, 2.590035e+002
9.030059e+002, 2.573291e+002
9.034880e+002, 2.553621e+002
9.039702e+002, 2.535768e+002
9.044523e+002, 2.521770e+002
9.049344e+002, 2.501376e+002
9.054165e+002, 2.470113e+002
9.058986e+002, 2.438214e+002
9.063807e+002, 2.405459e+002
9.068629e+002, 2.374599e+002
9.073450e+002, 2.349273e+002
9.078271e+002, 2.328133e+002
9.083092e+002, 2.305743e+002
9.087913e+002, 2.279180e+002
9.092734e+002, 2.253938e+002
9.097556e+002, 2.232833e+002
9.102377e+002, 2.213615e+002
9.107198e+002, 2.194270e+002
9.112019e+002, 2.175207e+002
9.116840e+002, 2.157661e+002
9.121661e+002, 2.142007e+002
9.126483e+002, 2.127532e+002
9.131304e+002, 2.114833e+002
9.136125e+002, 2.101905e+002
9.140946e+002, 2.083841e+002
9.145767e+002, 2.062881e+002
9.150588e+002, 2.046543e+002
9.155410e+002, 2.035877e+002
9.160231e+002, 2.027664e+002
9.165052e+002, 2.019923e+002
9.169873e+002, 2.012775e+002
9.174694e+002, 2.006510e+002
9.179515e+002, 2.001152e+002
9.184337e+002, 1.995602e+002
9.189158e+002, 1.989787e+002
9.193979e+002, 1.983672e+002
9.198800e+002, 1.976208e+002
9.203621e+002, 1.970717e+002
9.208442e+002, 1.972075e+002
9.213264e+002, 1.979216e+002
9.218085e+002, 1.980763e+002
9.222906e+002, 1.972547e+002
9.227727e+002, 1.965539e+002
9.232548e+002, 1.960773e+002
9.237369e+002, 1.956665e+002
9.242191e+002, 1.951563e+002
9.247012e+002, 1.947093e+002
9.251833e+002, 1.946740e+002
9.256654e+002, 1.951137e+002
9.261475e+002, 1.952994e+002
9.266296e+002, 1.947278e+002
9.271118e+002, 1.941883e+002
9.275939e+002, 1.941844e+002
9.280760e+002, 1.943464e+002
9.285581e+002, 1.942129e+002
9.290402e+002, 1.938449e+002
9.295223e+002, 1.935871e+002
9.300045e+002, 1.935721e+002
9.304866e+002, 1.938230e+002
9.309687e+002, 1.946708e+002
9.314508e+002, 1.956111e+002
9.319329e+002, 1.957854e+002
9.324150e+002, 1.953452e+002
9.328972e+002, 1.947327e+002
9.333793e+002, 1.941340e+002
9.338614e+002, 1.939328e+002
9.343435e+002, 1.945411e+002
9.348256e+002, 1.956055e+002
9.353077e+002, 1.963264e+002
9.357899e+002, 1.967061e+002
9.362720e+002, 1.967176e+002
9.367541e+002, 1.963285e+002
9.372362e+002, 1.958627e+002
9.377183e+002, 1.954057e+002
9.382004e+002, 1.951982e+002
9.386826e+002, 1.956764e+002
9.391647e+002, 1.968640e+002
9.396468e+002, 1.976826e+002
9.401289e+002, 1.979909e+002
9.406110e+002, 1.982631e+002
9.410931e+002, 1.984977e+002
9.415753e+002, 1.988289e+002
9.420574e+002, 1.993387e+002
9.425395e+002, 2.000223e+002
9.430216e+002, 2.009110e+002
9.435037e+002, 2.021730e+002
9.439858e+002, 2.031208e+002
9.444680e+002, 2.033368e+002
9.449501e+002, 2.036729e+002
9.454322e+002, 2.044361e+002
9.459143e+002, 2.054863e+002
9.463964e+002, 2.068030e+002
9.468785e+002, 2.082831e+002
9.473607e+002, 2.095817e+002
9.478428e+002, 2.106725e+002
9.483249e+002, 2.113961e+002
9.488070e+002, 2.113270e+002
9.492891e+002, 2.111377e+002
9.497712e+002, 2.115210e+002
9.502534e+002, 2.122637e+002
9.507355e+002, 2.128941e+002
9.512176e+002, 2.132697e+002
9.516997e+002, 2.134702e+002
9.521818e+002, 2.135887e+002
9.526639e+002, 2.135161e+002
9.531461e+002, 2.129979e+002
9.536282e+002, 2.121994e+002
9.541103e+002, 2.114712e+002
9.545924e+002, 2.108689e+002
9.550745e+002, 2.103772e+002
9.555566e+002, 2.099868e+002
9.560388e+002, 2.096991e+002
9.565209e+002, 2.096302e+002
9.570030e+002, 2.096574e+002
9.574851e+002, 2.089575e+002
9.579672e+002, 2.075359e+002
9.584493e+002, 2.066860e+002
9.589315e+002, 2.067311e+002
9.594136e+002, 2.071753e+002
9.598957e+002, 2.077835e+002
9.603778e+002, 2.082723e+002
9.608599e+002, 2.077309e+002
9.613420e+002, 2.057412e+002
9.618242e+002, 2.049760e+002
9.623063e+002, 2.060230e+002
9.627884e+002, 2.068517e+002
9.632705e+002, 2.067424e+002
9.637526e+002, 2.062331e+002
9.642347e+002, 2.057475e+002
9.647169e+002, 2.053132e+002
9.651990e+002, 2.051313e+002
9.656811e+002, 2.053770e+002
9.661632e+002, 2.056111e+002
9.666453e+002, 2.057298e+002
9.671274e+002, 2.059553e+002
9.676096e+002, 2.065517e+002
9.680917e+002, 2.072094e+002
9.685738e+002, 2.075571e+002
9.690559e+002, 2.075712e+002
9.695380e+002, 2.074011e+002
9.700201e+002, 2.068276e+002
9.705023e+002, 2.064157e+002
9.709844e+002, 2.062946e+002
9.714665e+002, 2.064745e+002
9.719486e+002, 2.072321e+002
9.724307e+002, 2.082133e+002
9.729128e+002, 2.087434e+002
9.733950e+002, 2.086505e+002
9.738771e+002, 2.083781e+002
9.743592e+002, 2.079903e+002
9.748413e+002, 2.077360e+002
9.753234e+002, 2.078840e+002
9.758055e+002, 2.082767e+002
9.762877e+002, 2.088038e+002
9.767698e+002, 2.093458e+002
9.772519e+002, 2.095844e+002
9.777340e+002, 2.093602e+002
9.782161e+002, 2.090943e+002
9.786982e+002, 2.092431e+002
9.791804e+002, 2.096598e+002
9.796625e+002, 2.101777e+002
9.801446e+002, 2.107123e+002
9.806267e+002, 2.108747e+002
9.811088e+002, 2.106558e+002
9.815909e+002, 2.107663e+002
9.820731e+002, 2.117464e+002
9.825552e+002, 2.130230e+002
9.830373e+002, 2.135915e+002
9.835194e+002, 2.135099e+002
9.840015e+002, 2.130203e+002
9.844836e+002, 2.121384e+002
9.849658e+002, 2.119001e+002
9.854479e+002, 2.126917e+002
9.859300e+002, 2.136490e+002
9.864121e+002, 2.139547e+002
9.868942e+002, 2.138264e+002
9.873763e+002, 2.140702e+002
9.878585e+002, 2.147632e+002
9.883406e+002, 2.152888e+002
9.888227e+002, 2.155158e+002
9.893048e+002, 2.159709e+002
9.897869e+002, 2.170534e+002
9.902690e+002, 2.180925e+002
9.907512e+002, 2.181554e+002
9.912333e+002, 2.173647e+002
9.917154e+002, 2.173055e+002
9.921975e+002, 2.185045e+002
9.926796e+002, 2.193068e+002
9.931617e+002, 2.192854e+002
9.936439e+002, 2.192925e+002
9.941260e+002, 2.198145e+002
9.946081e+002, 2.205505e+002
9.950902e+002, 2.210471e+002
9.955723e+002, 2.212924e+002
9.960544e+002, 2.216723e+002
9.965366e+002, 2.222283e+002
9.970187e+002, 2.228850e+002
9.975008e+002, 2.238355e+002
9.979829e+002, 2.246756e+002
9.984650e+002, 2.251258e+002
9.989471e+002, 2.253169e+002
9.994293e+002, 2.253631e+002
9.999114e+002, 2.252552e+002
1.000393e+003, 2.255879e+002
1.000876e+003, 2.267278e+002
1.001358e+003, 2.280785e+002
1.001840e+003, 2.296501e+002
1.002322e+003, 2.310956e+002
1.002804e+003, 2.319724e+002
1.003286e+003, 2.325108e+002
1.003768e+003, 2.332927e+002
1.004250e+003, 2.344835e+002
1.004733e+003, 2.357313e+002
1.005215e+003, 2.368919e+002
1.005697e+003, 2.379879e+002
1.006179e+003, 2.389482e+002
1.006661e+003, 2.399038e+002
1.007143e+003, 2.410931e+002
1.007625e+003, 2.424359e+002
1.008107e+003, 2.436654e+002
1.008589e+003, 2.446717e+002
1.009072e+003, 2.454539e+002
1.009554e+003, 2.458674e+002
1.010036e+003, 2.461662e+002
1.010518e+003, 2.469203e+002
1.011000e+003, 2.476956e+002
1.011482e+003, 2.473113e+002
1.011964e+003, 2.459132e+002
1.012446e+003, 2.451321e+002
1.012929e+003, 2.459194e+002
1.013411e+003, 2.470120e+002
1.013893e+003, 2.467626e+002
1.014375e+003, 2.457921e+002
1.014857e+003, 2.453413e+002
1.015339e+003, 2.453119e+002
1.015821e+003, 2.452653e+002
1.016303e+003, 2.450828e+002
1.016785e+003, 2.447388e+002
1.017268e+003, 2.442051e+002
1.017750e+003, 2.435667e+002
1.018232e+003, 2.428790e+002
1.018714e+003, 2.422014e+002
1.019196e+003, 2.417976e+002
1.019678e+003, 2.416561e+002
1.020160e+003, 2.416467e+002
1.020642e+003, 2.417299e+002
1.021125e+003, 2.416553e+002
1.021607e+003, 2.411936e+002
1.022089e+003, 2.405417e+002
1.022571e+003, 2.401600e+002
1.023053e+003, 2.400308e+002
1.023535e+003, 2.398224e+002
1.024017e+003, 2.395115e+002
1.024499e+003, 2.394658e+002
1.024981e+003, 2.398319e+002
1.025464e+003, 2.402762e+002
1.025946e+003, 2.405089e+002
1.026428e+003, 2.405632e+002
1.026910e+003, 2.405343e+002
1.027392e+003, 2.404198e+002
1.027874e+003, 2.401733e+002
1.028356e+003, 2.396861e+002
1.028838e+003, 2.396153e+002
1.029321e+003, 2.402615e+002
1.029803e+003, 2.412054e+002
1.030285e+003, 2.421148e+002
1.030767e+003, 2.429365e+002
1.031249e+003, 2.434352e+002
1.031731e+003, 2.435845e+002
1.032213e+003, 2.434666e+002
1.032695e+003, 2.429078e+002
1.033177e+003, 2.425315e+002
1.033660e+003, 2.425767e+002
1.034142e+003, 2.428853e+002
1.034624e+003, 2.433642e+002
1.035106e+003, 2.439624e+002
1.035588e+003, 2.443312e+002
1.036070e+003, 2.443403e+002
1.036552e+003, 2.444392e+002
1.037034e+003, 2.447120e+002
1.037516e+003, 2.449298e+002
1.037999e+003, 2.447786e+002
1.038481e+003, 2.447835e+002
1.038963e+003, 2.457620e+002
1.039445e+003, 2.474993e+002
1.039927e+003, 2.483104e+002
1.040409e+003, 2.474945e+002
1.040891e+003, 2.469890e+002
1.041373e+003, 2.467665e+002
1.041855e+003, 2.469045e+002
1.042338e+003, 2.477637e+002
1.042820e+003, 2.487582e+002
1.043302e+003, 2.492491e+002
1.043784e+003, 2.493031e+002
1.044266e+003, 2.494598e+002
1.044748e+003, 2.497880e+002
1.045230e+003, 2.501306e+002
1.045712e+003, 2.505954e+002
1.046195e+003, 2.509341e+002
1.046677e+003, 2.509944e+002
1.047159e+003, 2.509199e+002
1.047641e+003, 2.507512e+002
1.048123e+003, 2.505550e+002
1.048605e+003, 2.507192e+002
1.049087e+003, 2.516183e+002
1.049569e+003, 2.522711e+002
1.050052e+003, 2.522268e+002
1.050534e+003, 2.522698e+002
1.051016e+003, 2.529985e+002
1.051498e+003, 2.538298e+002
1.051980e+003, 2.539594e+002
1.052462e+003, 2.535119e+002
1.052944e+003, 2.534743e+002
1.053426e+003, 2.541512e+002
1.053908e+003, 2.549776e+002
1.054391e+003, 2.560722e+002
1.054873e+003, 2.570001e+002
1.055355e+003, 2.576412e+002
1.055837e+003, 2.579320e+002
1.056319e+003, 2.575071e+002
1.056801e+003, 2.566143e+002
1.057283e+003, 2.564550e+002
1.057765e+003, 2.576169e+002
1.058248e+003, 2.587949e+002
1.058730e+003, 2.598064e+002
1.059212e+003, 2.605175e+002
1.059694e+003, 2.607749e+002
1.060176e+003, 2.607490e+002
1.060658e+003, 2.604703e+002
1.061140e+003, 2.600791e+002
1.061622e+003, 2.600666e+002
1.062104e+003, 2.607442e+002
1.062587e+003, 2.612936e+002
1.063069e+003, 2.611440e+002
1.063551e+003, 2.610957e+002
1.064033e+003, 2.617051e+002
1.064515e+003, 2.626073e+002
1.064997e+003, 2.635119e+002
1.065479e+003, 2.642922e+002
1.065961e+003, 2.646781e+002
1.066443e+003, 2.644498e+002
1.066926e+003, 2.643291e+002
1.067408e+003, 2.647100e+002
1.067890e+003, 2.651663e+002
1.068372e+003, 2.654885e+002
1.068854e+003, 2.657145e+002
1.069336e+003, 2.657815e+002
1.069818e+003, 2.658102e+002
1.070300e+003, 2.662010e+002
1.070782e+003, 2.671811e+002
1.071265e+003, 2.679730e+002
1.071747e+003, 2.681151e+002
1.072229e+003, 2.681102e+002
1.072711e+003, 2.681744e+002
1.073193e+003, 2.683191e+002
1.073675e+003, 2.685758e+002
1.074157e+003, 2.689059e+002
1.074639e+003, 2.692333e+002
1.075122e+003, 2.695515e+002
1.075604e+003, 2.697560e+002
1.076086e+003, 2.694067e+002
1.076568e+003, 2.693973e+002
1.077050e+003, 2.708042e+002
1.077532e+003, 2.723757e+002
1.078014e+003, 2.726033e+002
1.078496e+003, 2.719128e+002
1.078979e+003, 2.716414e+002
1.079461e+003, 2.721418e+002
1.079943e+003, 2.728522e+002
1.080425e+003, 2.737729e+002
1.080907e+003, 2.745167e+002
1.081389e+003, 2.747183e+002
1.081871e+003, 2.747673e+002
1.082353e+003, 2.750158e+002
1.082835e+003, 2.754190e+002
1.083318e+003, 2.758347e+002
1.083800e+003, 2.762274e+002
1.084282e+003, 2.765109e+002
1.084764e+003, 2.763692e+002
1.085246e+003, 2.764682e+002
1.085728e+003, 2.774434e+002
1.086210e+003, 2.785229e+002
1.086692e+003, 2.788628e+002
1.087175e+003, 2.788815e+002
1.087657e+003, 2.795285e+002
1.088139e+003, 2.809111e+002
1.088621e+003, 2.819573e+002
1.089103e+003, 2.821034e+002
1.089585e+003, 2.820211e+002
1.090067e+003, 2.816383e+002
1.090549e+003, 2.814932e+002
1.091031e+003, 2.822721e+002
1.091514e+003, 2.834183e+002
1.091996e+003, 2.839996e+002
1.092478e+003, 2.839735e+002
1.092960e+003, 2.841513e+002
1.093442e+003, 2.849914e+002
1.093924e+003, 2.857186e+002
1.094406e+003, 2.859481e+002
1.094888e+003, 2.860829e+002
1.095370e+003, 2.863921e+002
1.095853e+003, 2.867636e+002
1.096335e+003, 2.870150e+002
1.096817e+003, 2.871647e+002
1.097299e+003, 2.874177e+002
1.097781e+003, 2.879707e+002
1.098263e+003, 2.882702e+002
1.098745e+003, 2.876985e+002
1.099227e+003, 2.873577e+002
1.099709e+003, 2.880781e+002
1.100192e+003, 2.891349e+002
1.100674e+003, 2.897926e+002
1.101156e+003, 2.900748e+002
1.101638e+003, 2.902469e+002
1.102120e+003, 2.902352e+002
1.102602e+003, 2.905840e+002
1.103084e+003, 2.919686e+002
1.103566e+003, 2.930341e+002
1.104049e+003, 2.929961e+002
1.104531e+003, 2.926371e+002
1.105013e+003, 2.924268e+002
1.105495e+003, 2.924805e+002
1.105977e+003, 2.930587e+002
1.106459e+003, 2.943209e+002
1.106941e+003, 2.952096e+002
1.107423e+003, 2.949792e+002
1.107906e+003, 2.951517e+002
1.108388e+003, 2.968896e+002
1.108870e+003, 2.983792e+002
1.109352e+003, 2.980502e+002
1.109834e+003, 2.968282e+002
1.110316e+003, 2.963092e+002
1.110798e+003, 2.966032e+002
1.111280e+003, 2.971439e+002
1.111762e+003, 2.982851e+002
1.112245e+003, 2.990768e+002
1.112727e+003, 2.991088e+002
1.113209e+003, 2.991134e+002
1.113691e+003, 2.994028e+002
1.114173e+003, 2.998866e+002
1.114655e+003, 3.005154e+002
1.115137e+003, 3.012658e+002
1.115619e+003, 3.018690e+002
1.116102e+003, 3.021932e+002
1.116584e+003, 3.025905e+002
1.117066e+003, 3.029722e+002
1.117548e+003, 3.035722e+002
1.118030e+003, 3.047495e+002
1.118512e+003, 3.058756e+002
1.118994e+003, 3.062755e+002
1.119476e+003, 3.061390e+002
1.119958e+003, 3.062225e+002
1.120441e+003, 3.065294e+002
1.120923e+003, 3.070698e+002
1.121405e+003, 3.080085e+002
1.121887e+003, 3.088047e+002
1.122369e+003, 3.092354e+002
1.122851e+003, 3.096567e+002
1.123333e+003, 3.104060e+002
1.123815e+003, 3.112503e+002
1.124297e+003, 3.116429e+002
1.124780e+003, 3.115377e+002
1.125262e+003, 3.115542e+002
1.125744e+003, 3.116524e+002
1.126226e+003, 3.120875e+002
1.126708e+003, 3.130488e+002
1.127190e+003, 3.138148e+002
1.127672e+003, 3.138653e+002
1.128154e+003, 3.138331e+002
1.128636e+003, 3.147425e+002
1.129119e+003, 3.164135e+002
1.129601e+003, 3.172620e+002
1.130083e+003, 3.172085e+002
1.130565e+003, 3.172366e+002
1.131047e+003, 3.174478e+002
1.131529e+003, 3.176542e+002
1.132011e+003, 3.177587e+002
1.132493e+003, 3.179619e+002
1.132976e+003, 3.184486e+002
1.133458e+003, 3.192318e+002
1.133940e+003, 3.205871e+002
1.134422e+003, 3.224084e+002
1.134904e+003, 3.231435e+002
1.135386e+003, 3.227820e+002
1.135868e+003, 3.224775e+002
1.136350e+003, 3.225531e+002
1.136833e+003, 3.231837e+002
1.137315e+003, 3.245755e+002
1.137797e+003, 3.260670e+002
1.138279e+003, 3.262713e+002
1.138761e+003, 3.257062e+002
1.139243e+003, 3.263413e+002
1.139725e+003, 3.278641e+002
1.140207e+003, 3.289063e+002
1.140689e+003, 3.292778e+002
1.141172e+003, 3.294221e+002
1.141654e+003, 3.295556e+002
1.142136e+003, 3.297060e+002
1.142618e+003, 3.299104e+002
1.143100e+003, 3.301398e+002
1.143582e+003, 3.301713e+002
1.144064e+003, 3.302655e+002
1.144546e+003, 3.312554e+002
1.145029e+003, 3.328032e+002
1.145511e+003, 3.335401e+002
1.145993e+003, 3.331963e+002
1.146475e+003, 3.331111e+002
1.146957e+003, 3.343877e+002
1.147439e+003, 3.357813e+002
1.147921e+003, 3.358989e+002
1.148403e+003, 3.355789e+002
1.148885e+003, 3.356029e+002
1.149368e+003, 3.360562e+002
1.149850e+003, 3.372585e+002
1.150332e+003, 3.389433e+002
1.150814e+003, 3.399900e+002
1.151296e+003, 3.398058e+002
1.151778e+003, 3.397197e+002
1.152260e+003, 3.407509e+002
1.152742e+003, 3.418916e+002
1.153224e+003, 3.424770e+002
1.153707e+003, 3.428093e+002
1.154189e+003, 3.432355e+002
1.154671e+003, 3.437019e+002
1.155153e+003, 3.439341e+002
1.155635e+003, 3.438740e+002
1.156117e+003, 3.440577e+002
1.156599e+003, 3.450052e+002
1.157081e+003, 3.457218e+002
1.157563e+003, 3.454265e+002
1.158046e+003, 3.453236e+002
1.158528e+003, 3.464070e+002
1.159010e+003, 3.479698e+002
1.159492e+003, 3.491117e+002
1.159974e+003, 3.498044e+002
1.160456e+003, 3.503730e+002
1.160938e+003, 3.508218e+002
1.161420e+003, 3.511769e+002
1.161903e+003, 3.513489e+002
1.162385e+003, 3.515482e+002
1.162867e+003, 3.517589e+002
1.163349e+003, 3.521026e+002
1.163831e+003, 3.527256e+002
1.164313e+003, 3.535236e+002
1.164795e+003, 3.542603e+002
1.165277e+003, 3.549575e+002
1.165760e+003, 3.553806e+002
1.166242e+003, 3.553453e+002
1.166724e+003, 3.556410e+002
1.167206e+003, 3.564360e+002
1.167688e+003, 3.574664e+002
1.168170e+003, 3.587160e+002
1.168652e+003, 3.597610e+002
1.169134e+003, 3.599209e+002
1.169616e+003, 3.595199e+002
1.170099e+003, 3.603295e+002
1.170581e+003, 3.623776e+002
1.171063e+003, 3.631297e+002
1.171545e+003, 3.624221e+002
1.172027e+003, 3.622382e+002
1.172509e+003, 3.631880e+002
1.172991e+003, 3.644156e+002
1.173473e+003, 3.652975e+002
1.173956e+003, 3.659160e+002
1.174438e+003, 3.664022e+002
1.174920e+003, 3.667447e+002
1.175402e+003, 3.667759e+002
1.175884e+003, 3.666356e+002
1.176366e+003, 3.667741e+002
1.176848e+003, 3.672739e+002
1.177330e+003, 3.682069e+002
1.177813e+003, 3.695810e+002
1.178295e+003, 3.708592e+002
1.178777e+003, 3.715097e+002
1.179259e+003, 3.719203e+002
1.179741e+003, 3.725754e+002
1.180223e+003, 3.732983e+002
1.180705e+003, 3.738344e+002
1.181187e+003, 3.742258e+002
1.181669e+003, 3.746369e+002
1.182151e+003, 3.750568e+002
1.182634e+003, 3.751614e+002
1.183116e+003, 3.745574e+002
1.183598e+003, 3.745535e+002
1.184080e+003, 3.765412e+002
1.184562e+003, 3.786597e+002
1.185044e+003, 3.797514e+002
1.185526e+003, 3.802620e+002
1.186008e+003, 3.806308e+002
1.186490e+003, 3.808690e+002
1.186973e+003, 3.807459e+002
1.187455e+003, 3.801769e+002
1.187937e+003, 3.801324e+002
1.188419e+003, 3.810748e+002
1.188901e+003, 3.821499e+002
1.189383e+003, 3.834849e+002
1.189865e+003, 3.845787e+002
1.190347e+003, 3.849174e+002
1.190830e+003, 3.850885e+002
1.191312e+003, 3.857632e+002
1.191794e+003, 3.868228e+002
1.192276e+003, 3.877001e+002
1.192758e+003, 3.884374e+002
1.193240e+003, 3.887818e+002
1.193722e+003, 3.884224e+002
1.194204e+003, 3.886538e+002
1.194687e+003, 3.899310e+002
1.195169e+003, 3.913786e+002
1.195651e+003, 3.925119e+002
1.196133e+003, 3.933300e+002
1.196615e+003, 3.938477e+002
1.197097e+003, 3.940470e+002
1.197579e+003, 3.935921e+002
1.198061e+003, 3.925547e+002
1.198543e+003, 3.925034e+002
1.199026e+003, 3.935143e+002
1.199508e+003, 3.943223e+002
1.199990e+003, 3.945241e+002
1.200472e+003, 3.951118e+002
1.200954e+003, 3.969813e+002
1.201436e+003, 3.990865e+002
1.201918e+003, 3.997522e+002
1.202400e+003, 3.995730e+002
1.202883e+003, 3.994388e+002
1.203365e+003, 3.995546e+002
1.203847e+003, 4.004661e+002
1.204329e+003, 4.020063e+002
1.204811e+003, 4.034505e+002
1.205293e+003, 4.045172e+002
1.205775e+003, 4.052533e+002
1.206257e+003, 4.056176e+002
1.206740e+003, 4.057670e+002
1.207222e+003, 4.055165e+002
1.207704e+003, 4.053946e+002
1.208186e+003, 4.059251e+002
1.208668e+003, 4.068831e+002
1.209150e+003, 4.080842e+002
1.209632e+003, 4.093652e+002
1.210114e+003, 4.101843e+002
1.210596e+003, 4.102056e+002
1.211078e+003, 4.104745e+002
1.211561e+003, 4.116952e+002
1.212043e+003, 4.125055e+002
1.212525e+003, 4.117729e+002
1.213007e+003, 4.112900e+002
1.213489e+003, 4.125811e+002
1.213971e+003, 4.145266e+002
1.214453e+003, 4.152630e+002
1.214935e+003, 4.148921e+002
1.215417e+003, 4.154263e+002
1.215900e+003, 4.172453e+002
1.216382e+003, 4.184540e+002
1.216864e+003, 4.187794e+002
1.217346e+003, 4.192466e+002
1.217828e+003, 4.202018e+002
1.218310e+003, 4.212686e+002
1.218792e+003, 4.222071e+002
1.219274e+003, 4.229371e+002
1.219757e+003, 4.232233e+002
1.220239e+003, 4.231998e+002
1.220721e+003, 4.236031e+002
1.221203e+003, 4.243051e+002
1.221685e+003, 4.244006e+002
1.222167e+003, 4.240225e+002
1.222649e+003, 4.246592e+002
1.223131e+003, 4.267240e+002
1.223614e+003, 4.286749e+002
1.224096e+003, 4.293112e+002
1.224578e+003, 4.294395e+002
1.225060e+003, 4.297094e+002
1.225542e+003, 4.301801e+002
1.226024e+003, 4.310438e+002
1.226506e+003, 4.320809e+002
1.226988e+003, 4.330589e+002
1.227470e+003, 4.338707e+002
1.227953e+003, 4.343414e+002
1.228435e+003, 4.344087e+002
1.228917e+003, 4.343878e+002
1.229399e+003, 4.341390e+002
1.229881e+003, 4.341906e+002
1.230363e+003, 4.349203e+002
1.230845e+003, 4.357646e+002
1.231327e+003, 4.361943e+002
1.231810e+003, 4.367038e+002
1.232292e+003, 4.381396e+002
1.232774e+003, 4.401781e+002
1.233256e+003, 4.415204e+002
1.233738e+003, 4.420713e+002
1.234220e+003, 4.422504e+002
1.234702e+003, 4.417794e+002
1.235184e+003, 4.419218e+002
1.235667e+003, 4.431072e+002
1.236149e+003, 4.440654e+002
1.236631e+003, 4.440272e+002
1.237113e+003, 4.440216e+002
1.237595e+003, 4.454043e+002
1.238077e+003, 4.475656e+002
1.238559e+003, 4.487739e+002
1.239041e+003, 4.491184e+002
1.239523e+003, 4.487420e+002
1.240005e+003, 4.479181e+002
1.240488e+003, 4.478677e+002
1.240970e+003, 4.487660e+002
1.241452e+003, 4.499483e+002
1.241934e+003, 4.510961e+002
1.242416e+003, 4.523571e+002
1.242898e+003, 4.543190e+002
1.243380e+003, 4.559445e+002
1.243862e+003, 4.559006e+002
1.244344e+003, 4.552047e+002
1.244827e+003, 4.544066e+002
1.245309e+003, 4.541359e+002
1.245791e+003, 4.557976e+002
1.246273e+003, 4.589701e+002
1.246755e+003, 4.607927e+002
1.247237e+003, 4.599122e+002
1.247719e+003, 4.598590e+002
1.248201e+003, 4.626871e+002
1.248684e+003, 4.646764e+002
1.249166e+003, 4.638142e+002
1.249648e+003, 4.628766e+002
1.250130e+003, 4.634848e+002
1.250612e+003, 4.648271e+002
1.251094e+003, 4.658152e+002
1.251576e+003, 4.665611e+002
1.252058e+003, 4.678126e+002
1.252541e+003, 4.696601e+002
1.253023e+003, 4.715428e+002
1.253505e+003, 4.735466e+002
1.253987e+003, 4.741254e+002
1.254469e+003, 4.728842e+002
1.254951e+003, 4.721358e+002
1.255433e+003, 4.732430e+002
1.255915e+003, 4.748351e+002
1.256397e+003, 4.751981e+002
1.256880e+003, 4.749900e+002
1.257362e+003, 4.753932e+002
1.257844e+003, 4.762442e+002
1.258326e+003, 4.773747e+002
1.258808e+003, 4.786201e+002
1.259290e+003, 4.795448e+002
1.259772e+003, 4.802318e+002
1.260254e+003, 4.815131e+002
1.260737e+003, 4.838524e+002
1.261219e+003, 4.857460e+002
1.261701e+003, 4.861127e+002
1.262183e+003, 4.862287e+002
1.262665e+003, 4.866393e+002
1.263147e+003, 4.871056e+002
1.263629e+003, 4.871946e+002
1.264111e+003, 4.873824e+002
1.264594e+003, 4.886330e+002
1.265076e+003, 4.906696e+002
1.265558e+003, 4.917787e+002
1.266040e+003, 4.916095e+002
1.266522e+003, 4.917193e+002
1.267004e+003, 4.919894e+002
1.267486e+003, 4.930590e+002
1.267968e+003, 4.952381e+002
1.268450e+003, 4.973594e+002
1.268932e+003, 4.988604e+002
1.269415e+003, 4.998247e+002
1.269897e+003, 5.002704e+002
1.270379e+003, 5.004507e+002
1.270861e+003, 5.010220e+002
1.271343e+003, 5.018279e+002
1.271825e+003, 5.022510e+002
1.272307e+003, 5.025092e+002
1.272789e+003, 5.035118e+002
1.273271e+003, 5.051267e+002
1.273754e+003, 5.061055e+002
1.274236e+003, 5.060089e+002
1.274718e+003, 5.060518e+002
1.275200e+003, 5.071937e+002
1.275682e+003, 5.084680e+002
1.276164e+003, 5.092729e+002
1.276646e+003, 5.100351e+002
1.277128e+003, 5.109487e+002
1.277611e+003, 5.120793e+002
1.278093e+003, 5.137658e+002
1.278575e+003, 5.156871e+002
1.279057e+003, 5.166072e+002
1.279539e+003, 5.162861e+002
1.280021e+003, 5.170147e+002
1.280503e+003, 5.193027e+002
1.280985e+003, 5.208211e+002
1.281468e+003, 5.212566e+002
1.281950e+003, 5.218594e+002
1.282432e+003, 5.231107e+002
1.282914e+003, 5.244131e+002
1.283396e+003, 5.252651e+002
1.283878e+003, 5.259681e+002
1.284360e+003, 5.271965e+002
1.284842e+003, 5.284433e+002
1.285324e+003, 5.283663e+002
##END=



