##NAMES=Scottyite
##RRUFFID=R141116
##IDEAL CHEMISTRY=BaCu^2+^_2_Si_2_O_7_
##LOCALITY=Wessels mine, Kalahari manganese field, Northern Cape Province, South Africa
##OWNER=RRUFF
##SOURCE=Jaco and Tania Janse van Nieuwenhuizen
##DESCRIPTION=Dark blue granular or blocky crystals associated with light-blue platy lavinskyite (R141115) and blue wesselsite.
##STATUS=The identification of this mineral is confirmed by single-crystal X-ray diffraction and chemical analysis.
##URL=rruff.info/R141116
##MEASURED CHEMISTRY=Ba_1.01_Sr_0.02_Cu_2.03_Na_0.01_Si_1.97_O_7_; (Scottyite is light grey material in image, associated with dark grey R141115 lavinskyite)
9.059570e+001, 5.959286e+002
9.107782e+001, 5.980302e+002
9.155994e+001, 5.988066e+002
9.204205e+001, 5.974152e+002
9.252417e+001, 5.952632e+002
9.300629e+001, 5.928719e+002
9.348840e+001, 5.873509e+002
9.397052e+001, 5.751448e+002
9.445264e+001, 5.553887e+002
9.493475e+001, 5.352507e+002
9.541687e+001, 5.169337e+002
9.589898e+001, 5.014236e+002
9.638110e+001, 4.874084e+002
9.686321e+001, 4.735659e+002
9.734533e+001, 4.589696e+002
9.782745e+001, 4.433278e+002
9.830956e+001, 4.300198e+002
9.879168e+001, 4.193066e+002
9.927380e+001, 4.097899e+002
9.975591e+001, 4.013308e+002
1.002380e+002, 3.936610e+002
1.007201e+002, 3.863112e+002
1.012023e+002, 3.789676e+002
1.016844e+002, 3.716989e+002
1.021665e+002, 3.647780e+002
1.026486e+002, 3.579932e+002
1.031307e+002, 3.515684e+002
1.036128e+002, 3.457216e+002
1.040950e+002, 3.403950e+002
1.045771e+002, 3.356170e+002
1.050592e+002, 3.314438e+002
1.055413e+002, 3.276935e+002
1.060234e+002, 3.242188e+002
1.065055e+002, 3.208587e+002
1.069877e+002, 3.176758e+002
1.074698e+002, 3.150720e+002
1.079519e+002, 3.140421e+002
1.084340e+002, 3.122715e+002
1.089161e+002, 3.086612e+002
1.093982e+002, 3.035557e+002
1.098804e+002, 2.978761e+002
1.103625e+002, 2.922284e+002
1.108446e+002, 2.864742e+002
1.113267e+002, 2.816155e+002
1.118088e+002, 2.780164e+002
1.122909e+002, 2.749004e+002
1.127731e+002, 2.719547e+002
1.132552e+002, 2.691275e+002
1.137373e+002, 2.665072e+002
1.142194e+002, 2.642663e+002
1.147015e+002, 2.626579e+002
1.151836e+002, 2.609766e+002
1.156658e+002, 2.591077e+002
1.161479e+002, 2.572134e+002
1.166300e+002, 2.555674e+002
1.171121e+002, 2.542882e+002
1.175942e+002, 2.530393e+002
1.180763e+002, 2.508729e+002
1.185584e+002, 2.471814e+002
1.190406e+002, 2.440076e+002
1.195227e+002, 2.421338e+002
1.200048e+002, 2.412629e+002
1.204869e+002, 2.405452e+002
1.209690e+002, 2.395174e+002
1.214511e+002, 2.385500e+002
1.219333e+002, 2.382441e+002
1.224154e+002, 2.387115e+002
1.228975e+002, 2.396355e+002
1.233796e+002, 2.413127e+002
1.238617e+002, 2.439968e+002
1.243438e+002, 2.453067e+002
1.248260e+002, 2.435151e+002
1.253081e+002, 2.399141e+002
1.257902e+002, 2.351587e+002
1.262723e+002, 2.291170e+002
1.267544e+002, 2.225279e+002
1.272365e+002, 2.171063e+002
1.277187e+002, 2.131142e+002
1.282008e+002, 2.100025e+002
1.286829e+002, 2.076306e+002
1.291650e+002, 2.058355e+002
1.296471e+002, 2.044483e+002
1.301292e+002, 2.033926e+002
1.306114e+002, 2.026525e+002
1.310935e+002, 2.019935e+002
1.315756e+002, 2.021826e+002
1.320577e+002, 2.017023e+002
1.325398e+002, 1.996755e+002
1.330219e+002, 1.965689e+002
1.335041e+002, 1.935433e+002
1.339862e+002, 1.916457e+002
1.344683e+002, 1.911180e+002
1.349504e+002, 1.901287e+002
1.354325e+002, 1.884102e+002
1.359146e+002, 1.865413e+002
1.363968e+002, 1.846990e+002
1.368789e+002, 1.829594e+002
1.373610e+002, 1.815252e+002
1.378431e+002, 1.807040e+002
1.383252e+002, 1.806333e+002
1.388073e+002, 1.805712e+002
1.392895e+002, 1.803904e+002
1.397716e+002, 1.802314e+002
1.402537e+002, 1.803274e+002
1.407358e+002, 1.807860e+002
1.412179e+002, 1.812762e+002
1.417000e+002, 1.813691e+002
1.421821e+002, 1.811138e+002
1.426643e+002, 1.806785e+002
1.431464e+002, 1.802504e+002
1.436285e+002, 1.797256e+002
1.441106e+002, 1.786491e+002
1.445927e+002, 1.765262e+002
1.450748e+002, 1.742630e+002
1.455570e+002, 1.726980e+002
1.460391e+002, 1.718408e+002
1.465212e+002, 1.711321e+002
1.470033e+002, 1.700337e+002
1.474854e+002, 1.684796e+002
1.479675e+002, 1.671674e+002
1.484497e+002, 1.659767e+002
1.489318e+002, 1.652455e+002
1.494139e+002, 1.654235e+002
1.498960e+002, 1.665538e+002
1.503781e+002, 1.679914e+002
1.508602e+002, 1.687103e+002
1.513424e+002, 1.682305e+002
1.518245e+002, 1.680831e+002
1.523066e+002, 1.682648e+002
1.527887e+002, 1.688369e+002
1.532708e+002, 1.699804e+002
1.537529e+002, 1.717365e+002
1.542351e+002, 1.738323e+002
1.547172e+002, 1.755812e+002
1.551993e+002, 1.766053e+002
1.556814e+002, 1.776915e+002
1.561635e+002, 1.790860e+002
1.566456e+002, 1.805050e+002
1.571278e+002, 1.815257e+002
1.576099e+002, 1.819142e+002
1.580920e+002, 1.818740e+002
1.585741e+002, 1.822844e+002
1.590562e+002, 1.832202e+002
1.595383e+002, 1.844351e+002
1.600205e+002, 1.862287e+002
1.605026e+002, 1.882908e+002
1.609847e+002, 1.899767e+002
1.614668e+002, 1.909836e+002
1.619489e+002, 1.912216e+002
1.624310e+002, 1.906293e+002
1.629131e+002, 1.894901e+002
1.633953e+002, 1.873885e+002
1.638774e+002, 1.838018e+002
1.643595e+002, 1.788292e+002
1.648416e+002, 1.734604e+002
1.653237e+002, 1.680061e+002
1.658058e+002, 1.626494e+002
1.662880e+002, 1.577457e+002
1.667701e+002, 1.533196e+002
1.672522e+002, 1.493466e+002
1.677343e+002, 1.458040e+002
1.682164e+002, 1.426841e+002
1.686985e+002, 1.400634e+002
1.691807e+002, 1.381641e+002
1.696628e+002, 1.367586e+002
1.701449e+002, 1.356584e+002
1.706270e+002, 1.349039e+002
1.711091e+002, 1.343548e+002
1.715912e+002, 1.336665e+002
1.720734e+002, 1.327040e+002
1.725555e+002, 1.318576e+002
1.730376e+002, 1.315379e+002
1.735197e+002, 1.313635e+002
1.740018e+002, 1.307722e+002
1.744839e+002, 1.293875e+002
1.749661e+002, 1.273257e+002
1.754482e+002, 1.252829e+002
1.759303e+002, 1.230796e+002
1.764124e+002, 1.211243e+002
1.768945e+002, 1.196584e+002
1.773766e+002, 1.185054e+002
1.778588e+002, 1.173793e+002
1.783409e+002, 1.160668e+002
1.788230e+002, 1.145635e+002
1.793051e+002, 1.130707e+002
1.797872e+002, 1.115342e+002
1.802693e+002, 1.100576e+002
1.807515e+002, 1.086573e+002
1.812336e+002, 1.073426e+002
1.817157e+002, 1.061195e+002
1.821978e+002, 1.049662e+002
1.826799e+002, 1.038503e+002
1.831620e+002, 1.032064e+002
1.836441e+002, 1.032538e+002
1.841263e+002, 1.034577e+002
1.846084e+002, 1.036912e+002
1.850905e+002, 1.038829e+002
1.855726e+002, 1.038743e+002
1.860547e+002, 1.034886e+002
1.865368e+002, 1.026586e+002
1.870190e+002, 1.019136e+002
1.875011e+002, 1.012102e+002
1.879832e+002, 1.006215e+002
1.884653e+002, 1.002219e+002
1.889474e+002, 1.000172e+002
1.894296e+002, 9.992863e+001
1.899117e+002, 9.994021e+001
1.903938e+002, 1.000428e+002
1.908759e+002, 9.999984e+001
1.913580e+002, 9.964760e+001
1.918401e+002, 9.920127e+001
1.923223e+002, 9.894884e+001
1.928044e+002, 9.896291e+001
1.932865e+002, 9.895621e+001
1.937686e+002, 9.872210e+001
1.942507e+002, 9.827325e+001
1.947328e+002, 9.749447e+001
1.952150e+002, 9.591116e+001
1.956971e+002, 9.403963e+001
1.961792e+002, 9.298144e+001
1.966613e+002, 9.308852e+001
1.971434e+002, 9.344607e+001
1.976255e+002, 9.337776e+001
1.981077e+002, 9.300833e+001
1.985898e+002, 9.264150e+001
1.990719e+002, 9.252626e+001
1.995540e+002, 9.256478e+001
2.000361e+002, 9.231931e+001
2.005182e+002, 9.162461e+001
2.010004e+002, 9.084079e+001
2.014825e+002, 9.002231e+001
2.019646e+002, 8.926025e+001
2.024467e+002, 8.878846e+001
2.029288e+002, 8.895364e+001
2.034109e+002, 8.969519e+001
2.038930e+002, 8.994203e+001
2.043752e+002, 8.921876e+001
2.048573e+002, 8.845589e+001
2.053394e+002, 8.793449e+001
2.058215e+002, 8.765684e+001
2.063036e+002, 8.757353e+001
2.067857e+002, 8.772546e+001
2.072679e+002, 8.814201e+001
2.077500e+002, 8.821789e+001
2.082321e+002, 8.762513e+001
2.087142e+002, 8.696896e+001
2.091963e+002, 8.628200e+001
2.096784e+002, 8.566943e+001
2.101606e+002, 8.534358e+001
2.106427e+002, 8.557509e+001
2.111248e+002, 8.648795e+001
2.116069e+002, 8.682462e+001
2.120890e+002, 8.597665e+001
2.125711e+002, 8.517551e+001
2.130533e+002, 8.499454e+001
2.135354e+002, 8.533575e+001
2.140175e+002, 8.571629e+001
2.144996e+002, 8.567700e+001
2.149817e+002, 8.512465e+001
2.154638e+002, 8.480687e+001
2.159460e+002, 8.496033e+001
2.164281e+002, 8.508444e+001
2.169102e+002, 8.490189e+001
2.173923e+002, 8.443644e+001
2.178744e+002, 8.388619e+001
2.183565e+002, 8.340721e+001
2.188387e+002, 8.299844e+001
2.193208e+002, 8.280266e+001
2.198029e+002, 8.312705e+001
2.202850e+002, 8.339054e+001
2.207671e+002, 8.316363e+001
2.212492e+002, 8.247135e+001
2.217314e+002, 8.171285e+001
2.222135e+002, 8.123326e+001
2.226956e+002, 8.105717e+001
2.231777e+002, 8.079185e+001
2.236598e+002, 8.046099e+001
2.241419e+002, 8.002672e+001
2.246240e+002, 7.927891e+001
2.251062e+002, 7.824625e+001
2.255883e+002, 7.751696e+001
2.260704e+002, 7.771838e+001
2.265525e+002, 7.873954e+001
2.270346e+002, 7.947762e+001
2.275167e+002, 7.989379e+001
2.279989e+002, 7.998255e+001
2.284810e+002, 7.955570e+001
2.289631e+002, 7.858669e+001
2.294452e+002, 7.771915e+001
2.299273e+002, 7.749450e+001
2.304094e+002, 7.774697e+001
2.308916e+002, 7.800793e+001
2.313737e+002, 7.849242e+001
2.318558e+002, 7.879238e+001
2.323379e+002, 7.822791e+001
2.328200e+002, 7.665122e+001
2.333021e+002, 7.524760e+001
2.337843e+002, 7.493065e+001
2.342664e+002, 7.525542e+001
2.347485e+002, 7.560244e+001
2.352306e+002, 7.583945e+001
2.357127e+002, 7.601470e+001
2.361948e+002, 7.623973e+001
2.366770e+002, 7.656921e+001
2.371591e+002, 7.672132e+001
2.376412e+002, 7.643394e+001
2.381233e+002, 7.592333e+001
2.386054e+002, 7.538472e+001
2.390875e+002, 7.484000e+001
2.395697e+002, 7.434760e+001
2.400518e+002, 7.401847e+001
2.405339e+002, 7.388850e+001
2.410160e+002, 7.380629e+001
2.414981e+002, 7.365156e+001
2.419802e+002, 7.353790e+001
2.424624e+002, 7.365557e+001
2.429445e+002, 7.414034e+001
2.434266e+002, 7.465700e+001
2.439087e+002, 7.451658e+001
2.443908e+002, 7.336710e+001
2.448729e+002, 7.252792e+001
2.453550e+002, 7.265318e+001
2.458372e+002, 7.306927e+001
2.463193e+002, 7.315646e+001
2.468014e+002, 7.268809e+001
2.472835e+002, 7.204176e+001
2.477656e+002, 7.196008e+001
2.482477e+002, 7.286361e+001
2.487299e+002, 7.330771e+001
2.492120e+002, 7.267696e+001
2.496941e+002, 7.176398e+001
2.501762e+002, 7.121239e+001
2.506583e+002, 7.120985e+001
2.511404e+002, 7.140833e+001
2.516226e+002, 7.120841e+001
2.521047e+002, 7.042240e+001
2.525868e+002, 6.965059e+001
2.530689e+002, 6.877844e+001
2.535510e+002, 6.804386e+001
2.540331e+002, 6.762182e+001
2.545153e+002, 6.755439e+001
2.549974e+002, 6.774636e+001
2.554795e+002, 6.814742e+001
2.559616e+002, 6.915883e+001
2.564437e+002, 6.945647e+001
2.569258e+002, 6.855585e+001
2.574080e+002, 6.741383e+001
2.578901e+002, 6.657008e+001
2.583722e+002, 6.616171e+001
2.588543e+002, 6.607085e+001
2.593364e+002, 6.617614e+001
2.598185e+002, 6.661952e+001
2.603007e+002, 6.689641e+001
2.607828e+002, 6.702694e+001
2.612649e+002, 6.701887e+001
2.617470e+002, 6.675444e+001
2.622291e+002, 6.629094e+001
2.627112e+002, 6.591914e+001
2.631934e+002, 6.602961e+001
2.636755e+002, 6.690641e+001
2.641576e+002, 6.719765e+001
2.646397e+002, 6.669613e+001
2.651218e+002, 6.591112e+001
2.656039e+002, 6.485752e+001
2.660861e+002, 6.370148e+001
2.665682e+002, 6.290401e+001
2.670503e+002, 6.300901e+001
2.675324e+002, 6.426289e+001
2.680145e+002, 6.480556e+001
2.684966e+002, 6.426375e+001
2.689788e+002, 6.351118e+001
2.694609e+002, 6.284994e+001
2.699430e+002, 6.234145e+001
2.704251e+002, 6.202187e+001
2.709072e+002, 6.195966e+001
2.713893e+002, 6.217276e+001
2.718715e+002, 6.209961e+001
2.723536e+002, 6.140250e+001
2.728357e+002, 6.081300e+001
2.733178e+002, 6.077201e+001
2.737999e+002, 6.111794e+001
2.742820e+002, 6.136438e+001
2.747642e+002, 6.116338e+001
2.752463e+002, 6.056207e+001
2.757284e+002, 6.014928e+001
2.762105e+002, 6.029803e+001
2.766926e+002, 6.019208e+001
2.771747e+002, 5.922669e+001
2.776568e+002, 5.778816e+001
2.781389e+002, 5.676633e+001
2.786211e+002, 5.668090e+001
2.791032e+002, 5.732124e+001
2.795853e+002, 5.780639e+001
2.800674e+002, 5.827065e+001
2.805495e+002, 5.846992e+001
2.810316e+002, 5.811979e+001
2.815138e+002, 5.748913e+001
2.819959e+002, 5.704706e+001
2.824780e+002, 5.699605e+001
2.829601e+002, 5.724297e+001
2.834422e+002, 5.760081e+001
2.839243e+002, 5.829063e+001
2.844065e+002, 5.867864e+001
2.848886e+002, 5.839403e+001
2.853707e+002, 5.779274e+001
2.858528e+002, 5.738342e+001
2.863349e+002, 5.733253e+001
2.868170e+002, 5.751806e+001
2.872992e+002, 5.777764e+001
2.877813e+002, 5.816061e+001
2.882634e+002, 5.844367e+001
2.887455e+002, 5.857580e+001
2.892276e+002, 5.859404e+001
2.897097e+002, 5.848930e+001
2.901919e+002, 5.825216e+001
2.906740e+002, 5.804267e+001
2.911561e+002, 5.809429e+001
2.916382e+002, 5.845339e+001
2.921203e+002, 5.870691e+001
2.926024e+002, 5.866326e+001
2.930846e+002, 5.858162e+001
2.935667e+002, 5.869778e+001
2.940488e+002, 5.904380e+001
2.945309e+002, 5.956380e+001
2.950130e+002, 6.026626e+001
2.954951e+002, 6.115119e+001
2.959773e+002, 6.189692e+001
2.964594e+002, 6.229823e+001
2.969415e+002, 6.269666e+001
2.974236e+002, 6.340880e+001
2.979057e+002, 6.441868e+001
2.983878e+002, 6.541305e+001
2.988700e+002, 6.609354e+001
2.993521e+002, 6.657185e+001
2.998342e+002, 6.748338e+001
3.003163e+002, 6.916905e+001
3.007984e+002, 7.095780e+001
3.012805e+002, 7.247264e+001
3.017627e+002, 7.375601e+001
3.022448e+002, 7.504180e+001
3.027269e+002, 7.645541e+001
3.032090e+002, 7.796159e+001
3.036911e+002, 7.944676e+001
3.041732e+002, 8.086278e+001
3.046554e+002, 8.234486e+001
3.051375e+002, 8.445766e+001
3.056196e+002, 8.672164e+001
3.061017e+002, 8.774810e+001
3.065838e+002, 8.678923e+001
3.070659e+002, 8.476469e+001
3.075481e+002, 8.345559e+001
3.080302e+002, 8.300091e+001
3.085123e+002, 8.249928e+001
3.089944e+002, 8.148938e+001
3.094765e+002, 8.028066e+001
3.099586e+002, 7.938464e+001
3.104408e+002, 7.892329e+001
3.109229e+002, 7.883733e+001
3.114050e+002, 7.912468e+001
3.118871e+002, 7.977065e+001
3.123692e+002, 8.061128e+001
3.128513e+002, 8.167554e+001
3.133335e+002, 8.289017e+001
3.138156e+002, 8.416736e+001
3.142977e+002, 8.548947e+001
3.147798e+002, 8.694895e+001
3.152619e+002, 8.884614e+001
3.157440e+002, 9.109715e+001
3.162262e+002, 9.258134e+001
3.167083e+002, 9.306255e+001
3.171904e+002, 9.284428e+001
3.176725e+002, 9.211812e+001
3.181546e+002, 9.089951e+001
3.186367e+002, 8.920203e+001
3.191188e+002, 8.685894e+001
3.196010e+002, 8.404276e+001
3.200831e+002, 8.159844e+001
3.205652e+002, 7.997946e+001
3.210473e+002, 7.826032e+001
3.215294e+002, 7.569438e+001
3.220115e+002, 7.254839e+001
3.224937e+002, 6.974588e+001
3.229758e+002, 6.778786e+001
3.234579e+002, 6.637847e+001
3.239400e+002, 6.474940e+001
3.244221e+002, 6.258523e+001
3.249042e+002, 6.087463e+001
3.253864e+002, 6.030643e+001
3.258685e+002, 6.037856e+001
3.263506e+002, 6.011904e+001
3.268327e+002, 5.919507e+001
3.273148e+002, 5.796195e+001
3.277969e+002, 5.694683e+001
3.282791e+002, 5.616919e+001
3.287612e+002, 5.542902e+001
3.292433e+002, 5.458899e+001
3.297254e+002, 5.381796e+001
3.302075e+002, 5.335641e+001
3.306896e+002, 5.324584e+001
3.311718e+002, 5.325952e+001
3.316539e+002, 5.319340e+001
3.321360e+002, 5.303910e+001
3.326181e+002, 5.284949e+001
3.331002e+002, 5.254079e+001
3.335823e+002, 5.226300e+001
3.340645e+002, 5.215609e+001
3.345466e+002, 5.220550e+001
3.350287e+002, 5.226295e+001
3.355108e+002, 5.222668e+001
3.359929e+002, 5.210842e+001
3.364750e+002, 5.201170e+001
3.369572e+002, 5.222150e+001
3.374393e+002, 5.215786e+001
3.379214e+002, 5.123029e+001
3.384035e+002, 4.982838e+001
3.388856e+002, 4.892745e+001
3.393677e+002, 4.902676e+001
3.398499e+002, 4.978522e+001
3.403320e+002, 5.031150e+001
3.408141e+002, 5.055263e+001
3.412962e+002, 5.070252e+001
3.417783e+002, 5.085096e+001
3.422604e+002, 5.090892e+001
3.427426e+002, 5.066730e+001
3.432247e+002, 5.006635e+001
3.437068e+002, 4.943603e+001
3.441889e+002, 4.926391e+001
3.446710e+002, 4.979698e+001
3.451531e+002, 5.009118e+001
3.456353e+002, 5.002289e+001
3.461174e+002, 4.979512e+001
3.465995e+002, 4.947759e+001
3.470816e+002, 4.911908e+001
3.475637e+002, 4.887044e+001
3.480458e+002, 4.889705e+001
3.485280e+002, 4.921917e+001
3.490101e+002, 4.937706e+001
3.494922e+002, 4.915286e+001
3.499743e+002, 4.901134e+001
3.504564e+002, 4.917915e+001
3.509385e+002, 4.958718e+001
3.514207e+002, 5.009016e+001
3.519028e+002, 5.062477e+001
3.523849e+002, 5.113867e+001
3.528670e+002, 5.139989e+001
3.533491e+002, 5.119073e+001
3.538312e+002, 5.100065e+001
3.543134e+002, 5.068248e+001
3.547955e+002, 5.049395e+001
3.552776e+002, 5.086882e+001
3.557597e+002, 5.193666e+001
3.562418e+002, 5.321599e+001
3.567239e+002, 5.385555e+001
3.572061e+002, 5.322454e+001
3.576882e+002, 5.325551e+001
3.581703e+002, 5.453814e+001
3.586524e+002, 5.597741e+001
3.591345e+002, 5.688059e+001
3.596166e+002, 5.716877e+001
3.600987e+002, 5.706703e+001
3.605808e+002, 5.672212e+001
3.610630e+002, 5.605565e+001
3.615451e+002, 5.592591e+001
3.620272e+002, 5.712620e+001
3.625093e+002, 5.800624e+001
3.629914e+002, 5.799702e+001
3.634735e+002, 5.725992e+001
3.639557e+002, 5.611650e+001
3.644378e+002, 5.472891e+001
3.649199e+002, 5.318416e+001
3.654020e+002, 5.184409e+001
3.658841e+002, 5.066240e+001
3.663662e+002, 4.979368e+001
3.668484e+002, 4.951536e+001
3.673305e+002, 4.941103e+001
3.678126e+002, 4.899236e+001
3.682947e+002, 4.813054e+001
3.687768e+002, 4.720869e+001
3.692589e+002, 4.689385e+001
3.697411e+002, 4.752797e+001
3.702232e+002, 4.783775e+001
3.707053e+002, 4.755901e+001
3.711874e+002, 4.715514e+001
3.716695e+002, 4.680670e+001
3.721516e+002, 4.655188e+001
3.726338e+002, 4.638795e+001
3.731159e+002, 4.637465e+001
3.735980e+002, 4.650025e+001
3.740801e+002, 4.633838e+001
3.745622e+002, 4.560818e+001
3.750443e+002, 4.492328e+001
3.755265e+002, 4.445285e+001
3.760086e+002, 4.416272e+001
3.764907e+002, 4.398253e+001
3.769728e+002, 4.386351e+001
3.774549e+002, 4.386610e+001
3.779370e+002, 4.424797e+001
3.784192e+002, 4.531417e+001
3.789013e+002, 4.588179e+001
3.793834e+002, 4.510271e+001
3.798655e+002, 4.402276e+001
3.803476e+002, 4.344053e+001
3.808297e+002, 4.351376e+001
3.813119e+002, 4.385265e+001
3.817940e+002, 4.421232e+001
3.822761e+002, 4.458649e+001
3.827582e+002, 4.453564e+001
3.832403e+002, 4.364385e+001
3.837224e+002, 4.273592e+001
3.842046e+002, 4.232267e+001
3.846867e+002, 4.234872e+001
3.851688e+002, 4.258418e+001
3.856509e+002, 4.300659e+001
3.861330e+002, 4.353631e+001
3.866151e+002, 4.404649e+001
3.870973e+002, 4.459019e+001
3.875794e+002, 4.491332e+001
3.880615e+002, 4.469454e+001
3.885436e+002, 4.420414e+001
3.890257e+002, 4.380490e+001
3.895078e+002, 4.356506e+001
3.899900e+002, 4.342811e+001
3.904721e+002, 4.340258e+001
3.909542e+002, 4.346648e+001
3.914363e+002, 4.341328e+001
3.919184e+002, 4.305416e+001
3.924005e+002, 4.270607e+001
3.928827e+002, 4.295428e+001
3.933648e+002, 4.387561e+001
3.938469e+002, 4.439989e+001
3.943290e+002, 4.362296e+001
3.948111e+002, 4.234512e+001
3.952932e+002, 4.194090e+001
3.957754e+002, 4.266063e+001
3.962575e+002, 4.363402e+001
3.967396e+002, 4.420294e+001
3.972217e+002, 4.435107e+001
3.977038e+002, 4.423035e+001
3.981859e+002, 4.357524e+001
3.986681e+002, 4.288982e+001
3.991501e+002, 4.246404e+001
3.996323e+002, 4.228152e+001
4.001144e+002, 4.228723e+001
4.005965e+002, 4.250103e+001
4.010786e+002, 4.280927e+001
4.015607e+002, 4.286535e+001
4.020428e+002, 4.256156e+001
4.025250e+002, 4.224084e+001
4.030071e+002, 4.183011e+001
4.034892e+002, 4.149245e+001
4.039713e+002, 4.149386e+001
4.044534e+002, 4.187322e+001
4.049355e+002, 4.232975e+001
4.054177e+002, 4.250460e+001
4.058998e+002, 4.232439e+001
4.063819e+002, 4.220759e+001
4.068640e+002, 4.218309e+001
4.073461e+002, 4.218591e+001
4.078282e+002, 4.216488e+001
4.083104e+002, 4.214361e+001
4.087925e+002, 4.220055e+001
4.092746e+002, 4.239697e+001
4.097567e+002, 4.268267e+001
4.102388e+002, 4.282756e+001
4.107209e+002, 4.268925e+001
4.112031e+002, 4.258660e+001
4.116852e+002, 4.263725e+001
4.121673e+002, 4.268536e+001
4.126494e+002, 4.255174e+001
4.131315e+002, 4.220341e+001
4.136136e+002, 4.178566e+001
4.140958e+002, 4.148803e+001
4.145779e+002, 4.133085e+001
4.150600e+002, 4.120853e+001
4.155421e+002, 4.102468e+001
4.160242e+002, 4.096999e+001
4.165063e+002, 4.130412e+001
4.169885e+002, 4.183798e+001
4.174706e+002, 4.209455e+001
4.179527e+002, 4.166784e+001
4.184348e+002, 4.083780e+001
4.189169e+002, 4.064514e+001
4.193990e+002, 4.148945e+001
4.198812e+002, 4.208418e+001
4.203633e+002, 4.178868e+001
4.208454e+002, 4.121071e+001
4.213275e+002, 4.088881e+001
4.218096e+002, 4.095284e+001
4.222917e+002, 4.119887e+001
4.227739e+002, 4.147212e+001
4.232560e+002, 4.176796e+001
4.237381e+002, 4.200145e+001
4.242202e+002, 4.213826e+001
4.247023e+002, 4.223592e+001
4.251844e+002, 4.234707e+001
4.256666e+002, 4.246216e+001
4.261487e+002, 4.254583e+001
4.266308e+002, 4.262471e+001
4.271129e+002, 4.264484e+001
4.275950e+002, 4.248214e+001
4.280771e+002, 4.212307e+001
4.285593e+002, 4.179222e+001
4.290414e+002, 4.158074e+001
4.295235e+002, 4.149762e+001
4.300056e+002, 4.153629e+001
4.304877e+002, 4.174752e+001
4.309698e+002, 4.196576e+001
4.314520e+002, 4.221761e+001
4.319341e+002, 4.240269e+001
4.324162e+002, 4.223299e+001
4.328983e+002, 4.159560e+001
4.333804e+002, 4.090218e+001
4.338625e+002, 4.064308e+001
4.343447e+002, 4.088525e+001
4.348268e+002, 4.110899e+001
4.353089e+002, 4.127422e+001
4.357910e+002, 4.143601e+001
4.362731e+002, 4.168704e+001
4.367552e+002, 4.197691e+001
4.372374e+002, 4.210004e+001
4.377195e+002, 4.189989e+001
4.382016e+002, 4.151760e+001
4.386837e+002, 4.149844e+001
4.391658e+002, 4.234825e+001
4.396479e+002, 4.291553e+001
4.401301e+002, 4.298718e+001
4.406122e+002, 4.282023e+001
4.410943e+002, 4.257177e+001
4.415764e+002, 4.231548e+001
4.420585e+002, 4.216406e+001
4.425406e+002, 4.226403e+001
4.430227e+002, 4.265320e+001
4.435049e+002, 4.302059e+001
4.439870e+002, 4.341839e+001
4.444691e+002, 4.373812e+001
4.449512e+002, 4.385209e+001
4.454333e+002, 4.388082e+001
4.459154e+002, 4.405250e+001
4.463976e+002, 4.450233e+001
4.468797e+002, 4.505444e+001
4.473618e+002, 4.527212e+001
4.478439e+002, 4.499017e+001
4.483260e+002, 4.486641e+001
4.488081e+002, 4.497322e+001
4.492903e+002, 4.531573e+001
4.497724e+002, 4.601740e+001
4.502545e+002, 4.703245e+001
4.507366e+002, 4.804290e+001
4.512187e+002, 4.867825e+001
4.517008e+002, 4.908210e+001
4.521830e+002, 4.995102e+001
4.526651e+002, 5.154172e+001
4.531472e+002, 5.297372e+001
4.536293e+002, 5.326471e+001
4.541114e+002, 5.317896e+001
4.545935e+002, 5.386871e+001
4.550757e+002, 5.577411e+001
4.555578e+002, 5.810679e+001
4.560399e+002, 6.018951e+001
4.565220e+002, 6.213010e+001
4.570041e+002, 6.448026e+001
4.574862e+002, 6.747963e+001
4.579684e+002, 7.077293e+001
4.584505e+002, 7.403944e+001
4.589326e+002, 7.730051e+001
4.594147e+002, 8.015000e+001
4.598968e+002, 8.299935e+001
4.603789e+002, 8.504549e+001
4.608611e+002, 8.549947e+001
4.613432e+002, 8.443378e+001
4.618253e+002, 8.244297e+001
4.623074e+002, 7.981789e+001
4.627895e+002, 7.660195e+001
4.632716e+002, 7.287589e+001
4.637538e+002, 6.778550e+001
4.642359e+002, 6.333474e+001
4.647180e+002, 5.970087e+001
4.652001e+002, 5.679946e+001
4.656822e+002, 5.472691e+001
4.661643e+002, 5.340358e+001
4.666465e+002, 5.240205e+001
4.671286e+002, 5.126897e+001
4.676107e+002, 4.997660e+001
4.680928e+002, 4.873066e+001
4.685749e+002, 4.720966e+001
4.690570e+002, 4.608773e+001
4.695392e+002, 4.580145e+001
4.700213e+002, 4.596817e+001
4.705034e+002, 4.605039e+001
4.709855e+002, 4.581371e+001
4.714676e+002, 4.537346e+001
4.719497e+002, 4.489699e+001
4.724319e+002, 4.435489e+001
4.729140e+002, 4.390725e+001
4.733961e+002, 4.353318e+001
4.738782e+002, 4.331230e+001
4.743603e+002, 4.344020e+001
4.748424e+002, 4.380653e+001
4.753246e+002, 4.398099e+001
4.758067e+002, 4.352337e+001
4.762888e+002, 4.276724e+001
4.767709e+002, 4.249492e+001
4.772530e+002, 4.278633e+001
4.777351e+002, 4.306655e+001
4.782173e+002, 4.307130e+001
4.786994e+002, 4.290043e+001
4.791815e+002, 4.266909e+001
4.796636e+002, 4.230486e+001
4.801457e+002, 4.216319e+001
4.806278e+002, 4.268954e+001
4.811100e+002, 4.349204e+001
4.815920e+002, 4.379930e+001
4.820742e+002, 4.346141e+001
4.825563e+002, 4.297260e+001
4.830384e+002, 4.276088e+001
4.835205e+002, 4.282658e+001
4.840026e+002, 4.282811e+001
4.844847e+002, 4.272682e+001
4.849669e+002, 4.260758e+001
4.854490e+002, 4.246402e+001
4.859311e+002, 4.233402e+001
4.864132e+002, 4.230926e+001
4.868953e+002, 4.242206e+001
4.873774e+002, 4.255785e+001
4.878596e+002, 4.251014e+001
4.883417e+002, 4.214061e+001
4.888238e+002, 4.197076e+001
4.893059e+002, 4.222443e+001
4.897880e+002, 4.243065e+001
4.902701e+002, 4.235863e+001
4.907523e+002, 4.205340e+001
4.912344e+002, 4.163396e+001
4.917165e+002, 4.114797e+001
4.921986e+002, 4.066674e+001
4.926807e+002, 4.037144e+001
4.931628e+002, 4.024513e+001
4.936450e+002, 4.035438e+001
4.941271e+002, 4.098330e+001
4.946092e+002, 4.165907e+001
4.950913e+002, 4.212551e+001
4.955734e+002, 4.234531e+001
4.960555e+002, 4.232707e+001
4.965377e+002, 4.188310e+001
4.970198e+002, 4.121976e+001
4.975019e+002, 4.096412e+001
4.979840e+002, 4.121519e+001
4.984661e+002, 4.145994e+001
4.989482e+002, 4.137862e+001
4.994304e+002, 4.112554e+001
4.999125e+002, 4.104045e+001
5.003946e+002, 4.128686e+001
5.008767e+002, 4.134130e+001
5.013588e+002, 4.057550e+001
5.018409e+002, 3.953899e+001
5.023231e+002, 3.932154e+001
5.028052e+002, 4.015460e+001
5.032873e+002, 4.123742e+001
5.037694e+002, 4.183003e+001
5.042515e+002, 4.191431e+001
5.047336e+002, 4.199614e+001
5.052158e+002, 4.219998e+001
5.056979e+002, 4.226476e+001
5.061800e+002, 4.189172e+001
5.066621e+002, 4.138128e+001
5.071442e+002, 4.128241e+001
5.076263e+002, 4.177094e+001
5.081085e+002, 4.238817e+001
5.085906e+002, 4.236420e+001
5.090727e+002, 4.140637e+001
5.095548e+002, 4.086616e+001
5.100369e+002, 4.114742e+001
5.105190e+002, 4.144500e+001
5.110012e+002, 4.140408e+001
5.114833e+002, 4.116219e+001
5.119654e+002, 4.103878e+001
5.124475e+002, 4.121993e+001
5.129296e+002, 4.150471e+001
5.134117e+002, 4.145428e+001
5.138939e+002, 4.099096e+001
5.143760e+002, 4.081921e+001
5.148581e+002, 4.141885e+001
5.153402e+002, 4.202415e+001
5.158223e+002, 4.190291e+001
5.163044e+002, 4.116136e+001
5.167866e+002, 4.054060e+001
5.172687e+002, 4.037095e+001
5.177508e+002, 4.047720e+001
5.182329e+002, 4.075403e+001
5.187150e+002, 4.117022e+001
5.191971e+002, 4.134717e+001
5.196793e+002, 4.100708e+001
5.201614e+002, 4.043831e+001
5.206435e+002, 4.032111e+001
5.211256e+002, 4.074708e+001
5.216077e+002, 4.123584e+001
5.220898e+002, 4.211128e+001
5.225720e+002, 4.273630e+001
5.230541e+002, 4.219765e+001
5.235362e+002, 4.071570e+001
5.240183e+002, 3.955299e+001
5.245004e+002, 3.967647e+001
5.249825e+002, 4.079869e+001
5.254647e+002, 4.143154e+001
5.259468e+002, 4.111027e+001
5.264289e+002, 4.093864e+001
5.269110e+002, 4.109053e+001
5.273931e+002, 4.136778e+001
5.278752e+002, 4.170575e+001
5.283574e+002, 4.203624e+001
5.288395e+002, 4.216193e+001
5.293216e+002, 4.176429e+001
5.298037e+002, 4.098762e+001
5.302858e+002, 4.076112e+001
5.307679e+002, 4.128831e+001
5.312501e+002, 4.189725e+001
5.317322e+002, 4.258461e+001
5.322143e+002, 4.306715e+001
5.326964e+002, 4.284821e+001
5.331785e+002, 4.171894e+001
5.336606e+002, 4.084235e+001
5.341428e+002, 4.122454e+001
5.346249e+002, 4.235182e+001
5.351070e+002, 4.312365e+001
5.355891e+002, 4.338534e+001
5.360712e+002, 4.351656e+001
5.365533e+002, 4.386665e+001
5.370355e+002, 4.432699e+001
5.375176e+002, 4.427483e+001
5.379997e+002, 4.296196e+001
5.384818e+002, 4.209639e+001
5.389639e+002, 4.254939e+001
5.394460e+002, 4.353394e+001
5.399282e+002, 4.403653e+001
5.404103e+002, 4.386875e+001
5.408924e+002, 4.356001e+001
5.413745e+002, 4.367863e+001
5.418566e+002, 4.424166e+001
5.423387e+002, 4.464009e+001
5.428209e+002, 4.475790e+001
5.433029e+002, 4.483605e+001
5.437850e+002, 4.489648e+001
5.442672e+002, 4.495421e+001
5.447493e+002, 4.501418e+001
5.452314e+002, 4.507962e+001
5.457135e+002, 4.517265e+001
5.461956e+002, 4.527565e+001
5.466777e+002, 4.540300e+001
5.471599e+002, 4.578506e+001
5.476420e+002, 4.662941e+001
5.481241e+002, 4.731171e+001
5.486062e+002, 4.714311e+001
5.490883e+002, 4.661689e+001
5.495704e+002, 4.657386e+001
5.500526e+002, 4.736361e+001
5.505347e+002, 4.819891e+001
5.510168e+002, 4.843060e+001
5.514989e+002, 4.838179e+001
5.519810e+002, 4.877143e+001
5.524631e+002, 4.975573e+001
5.529453e+002, 5.093058e+001
5.534274e+002, 5.192958e+001
5.539095e+002, 5.275471e+001
5.543916e+002, 5.363158e+001
5.548737e+002, 5.431370e+001
5.553558e+002, 5.532886e+001
5.558380e+002, 5.697379e+001
5.563201e+002, 5.896973e+001
5.568022e+002, 6.101055e+001
5.572843e+002, 6.300244e+001
5.577664e+002, 6.491043e+001
5.582485e+002, 6.663403e+001
5.587307e+002, 6.814071e+001
5.592128e+002, 7.013245e+001
5.596949e+002, 7.307155e+001
5.601770e+002, 7.581054e+001
5.606591e+002, 7.802388e+001
5.611412e+002, 7.982808e+001
5.616234e+002, 8.138998e+001
5.621055e+002, 8.275060e+001
5.625876e+002, 8.380999e+001
5.630697e+002, 8.458646e+001
5.635518e+002, 8.499844e+001
5.640339e+002, 8.476846e+001
5.645161e+002, 8.385159e+001
5.649982e+002, 8.232236e+001
5.654803e+002, 8.002733e+001
5.659624e+002, 7.713908e+001
5.664445e+002, 7.450199e+001
5.669266e+002, 7.221361e+001
5.674088e+002, 7.003551e+001
5.678909e+002, 6.784901e+001
5.683730e+002, 6.574802e+001
5.688551e+002, 6.387048e+001
5.693372e+002, 6.223175e+001
5.698193e+002, 6.064265e+001
5.703015e+002, 5.891685e+001
5.707836e+002, 5.707389e+001
5.712657e+002, 5.562346e+001
5.717478e+002, 5.483570e+001
5.722299e+002, 5.409282e+001
5.727120e+002, 5.326935e+001
5.731942e+002, 5.246066e+001
5.736763e+002, 5.167057e+001
5.741584e+002, 5.093941e+001
5.746405e+002, 5.049085e+001
5.751226e+002, 5.075959e+001
5.756047e+002, 5.150269e+001
5.760869e+002, 5.165870e+001
5.765690e+002, 5.111882e+001
5.770511e+002, 5.042419e+001
5.775332e+002, 4.957491e+001
5.780153e+002, 4.888345e+001
5.784974e+002, 4.898271e+001
5.789796e+002, 5.016793e+001
5.794617e+002, 5.084730e+001
5.799438e+002, 4.996087e+001
5.804259e+002, 4.852872e+001
5.809080e+002, 4.765380e+001
5.813901e+002, 4.740948e+001
5.818723e+002, 4.745461e+001
5.823544e+002, 4.760904e+001
5.828365e+002, 4.782939e+001
5.833186e+002, 4.797321e+001
5.838007e+002, 4.811488e+001
5.842828e+002, 4.805170e+001
5.847650e+002, 4.755555e+001
5.852471e+002, 4.705554e+001
5.857292e+002, 4.682251e+001
5.862113e+002, 4.684349e+001
5.866934e+002, 4.700087e+001
5.871755e+002, 4.727024e+001
5.876577e+002, 4.753724e+001
5.881398e+002, 4.750217e+001
5.886219e+002, 4.711934e+001
5.891040e+002, 4.672144e+001
5.895861e+002, 4.622021e+001
5.900682e+002, 4.592360e+001
5.905504e+002, 4.629358e+001
5.910325e+002, 4.719661e+001
5.915146e+002, 4.774729e+001
5.919967e+002, 4.744517e+001
5.924788e+002, 4.687945e+001
5.929609e+002, 4.646852e+001
5.934431e+002, 4.620452e+001
5.939252e+002, 4.604016e+001
5.944073e+002, 4.596094e+001
5.948894e+002, 4.596563e+001
5.953715e+002, 4.607552e+001
5.958536e+002, 4.635338e+001
5.963358e+002, 4.644517e+001
5.968179e+002, 4.598947e+001
5.973000e+002, 4.577517e+001
5.977821e+002, 4.623224e+001
5.982642e+002, 4.704935e+001
5.987463e+002, 4.782776e+001
5.992285e+002, 4.842317e+001
5.997106e+002, 4.881750e+001
6.001927e+002, 4.893528e+001
6.006748e+002, 4.878748e+001
6.011569e+002, 4.867957e+001
6.016390e+002, 4.865267e+001
6.021212e+002, 4.860452e+001
6.026033e+002, 4.838536e+001
6.030854e+002, 4.813630e+001
6.035675e+002, 4.810178e+001
6.040496e+002, 4.837490e+001
6.045317e+002, 4.866891e+001
6.050139e+002, 4.888115e+001
6.054960e+002, 4.900796e+001
6.059781e+002, 4.904503e+001
6.064602e+002, 4.899164e+001
6.069423e+002, 4.884532e+001
6.074244e+002, 4.860565e+001
6.079066e+002, 4.827186e+001
6.083887e+002, 4.782734e+001
6.088708e+002, 4.697895e+001
6.093529e+002, 4.645455e+001
6.098350e+002, 4.649519e+001
6.103171e+002, 4.668298e+001
6.107993e+002, 4.675866e+001
6.112814e+002, 4.670912e+001
6.117635e+002, 4.661718e+001
6.122456e+002, 4.651257e+001
6.127277e+002, 4.643467e+001
6.132098e+002, 4.651690e+001
6.136920e+002, 4.678570e+001
6.141741e+002, 4.688410e+001
6.146562e+002, 4.662231e+001
6.151383e+002, 4.629742e+001
6.156204e+002, 4.623068e+001
6.161025e+002, 4.637801e+001
6.165847e+002, 4.648773e+001
6.170668e+002, 4.666728e+001
6.175489e+002, 4.663843e+001
6.180310e+002, 4.598813e+001
6.185131e+002, 4.504200e+001
6.189952e+002, 4.448640e+001
6.194774e+002, 4.451851e+001
6.199595e+002, 4.477715e+001
6.204416e+002, 4.482784e+001
6.209237e+002, 4.464451e+001
6.214058e+002, 4.466450e+001
6.218879e+002, 4.538840e+001
6.223701e+002, 4.568622e+001
6.228522e+002, 4.489903e+001
6.233343e+002, 4.382177e+001
6.238164e+002, 4.332278e+001
6.242985e+002, 4.354542e+001
6.247806e+002, 4.389823e+001
6.252628e+002, 4.377552e+001
6.257448e+002, 4.343526e+001
6.262269e+002, 4.373156e+001
6.267090e+002, 4.475892e+001
6.271912e+002, 4.544261e+001
6.276733e+002, 4.512880e+001
6.281554e+002, 4.434752e+001
6.286375e+002, 4.416647e+001
6.291196e+002, 4.474028e+001
6.296017e+002, 4.505434e+001
6.300839e+002, 4.472914e+001
6.305660e+002, 4.430455e+001
6.310481e+002, 4.415260e+001
6.315302e+002, 4.420824e+001
6.320123e+002, 4.421740e+001
6.324944e+002, 4.406309e+001
6.329766e+002, 4.392273e+001
6.334587e+002, 4.418706e+001
6.339408e+002, 4.501860e+001
6.344229e+002, 4.540035e+001
6.349050e+002, 4.494379e+001
6.353871e+002, 4.452013e+001
6.358693e+002, 4.456474e+001
6.363514e+002, 4.486287e+001
6.368335e+002, 4.513291e+001
6.373156e+002, 4.534927e+001
6.377977e+002, 4.534254e+001
6.382798e+002, 4.470306e+001
6.387620e+002, 4.384587e+001
6.392441e+002, 4.356022e+001
6.397262e+002, 4.393272e+001
6.402083e+002, 4.470665e+001
6.406904e+002, 4.586593e+001
6.411725e+002, 4.713342e+001
6.416547e+002, 4.757420e+001
6.421368e+002, 4.622689e+001
6.426189e+002, 4.545300e+001
6.431010e+002, 4.568332e+001
6.435831e+002, 4.610073e+001
6.440652e+002, 4.622436e+001
6.445474e+002, 4.609307e+001
6.450295e+002, 4.592923e+001
6.455116e+002, 4.583601e+001
6.459937e+002, 4.582775e+001
6.464758e+002, 4.593447e+001
6.469579e+002, 4.615584e+001
6.474401e+002, 4.649608e+001
6.479222e+002, 4.709003e+001
6.484043e+002, 4.751493e+001
6.488864e+002, 4.733530e+001
6.493685e+002, 4.672107e+001
6.498506e+002, 4.619875e+001
6.503328e+002, 4.576312e+001
6.508149e+002, 4.549295e+001
6.512970e+002, 4.551181e+001
6.517791e+002, 4.566421e+001
6.522612e+002, 4.569160e+001
6.527433e+002, 4.561898e+001
6.532255e+002, 4.580434e+001
6.537076e+002, 4.656977e+001
6.541897e+002, 4.767383e+001
6.546718e+002, 4.816897e+001
6.551539e+002, 4.773509e+001
6.556360e+002, 4.746448e+001
6.561182e+002, 4.765888e+001
6.566003e+002, 4.792327e+001
6.570824e+002, 4.809780e+001
6.575645e+002, 4.816631e+001
6.580466e+002, 4.809115e+001
6.585287e+002, 4.768893e+001
6.590109e+002, 4.740863e+001
6.594930e+002, 4.779412e+001
6.599751e+002, 4.863723e+001
6.604572e+002, 4.943254e+001
6.609393e+002, 5.007685e+001
6.614214e+002, 5.041532e+001
6.619036e+002, 5.021846e+001
6.623857e+002, 4.957142e+001
6.628678e+002, 4.939717e+001
6.633499e+002, 5.032035e+001
6.638320e+002, 5.089228e+001
6.643141e+002, 5.038628e+001
6.647963e+002, 4.994837e+001
6.652784e+002, 5.065996e+001
6.657605e+002, 5.235211e+001
6.662426e+002, 5.402367e+001
6.667247e+002, 5.508137e+001
6.672068e+002, 5.574072e+001
6.676890e+002, 5.624054e+001
6.681711e+002, 5.659777e+001
6.686532e+002, 5.750023e+001
6.691353e+002, 5.930419e+001
6.696174e+002, 6.117902e+001
6.700995e+002, 6.219624e+001
6.705817e+002, 6.248138e+001
6.710638e+002, 6.330540e+001
6.715459e+002, 6.484518e+001
6.720280e+002, 6.672926e+001
6.725101e+002, 6.917874e+001
6.729922e+002, 7.169858e+001
6.734744e+002, 7.367765e+001
6.739565e+002, 7.511739e+001
6.744386e+002, 7.655663e+001
6.749207e+002, 7.845142e+001
6.754028e+002, 8.059200e+001
6.758849e+002, 8.230270e+001
6.763671e+002, 8.353217e+001
6.768492e+002, 8.457979e+001
6.773313e+002, 8.573803e+001
6.778134e+002, 8.644798e+001
6.782955e+002, 8.622718e+001
6.787776e+002, 8.522364e+001
6.792598e+002, 8.393406e+001
6.797419e+002, 8.237553e+001
6.802240e+002, 8.068073e+001
6.807061e+002, 7.898608e+001
6.811882e+002, 7.718533e+001
6.816703e+002, 7.499613e+001
6.821525e+002, 7.243167e+001
6.826346e+002, 6.986268e+001
6.831167e+002, 6.756894e+001
6.835988e+002, 6.555434e+001
6.840809e+002, 6.382874e+001
6.845630e+002, 6.247436e+001
6.850452e+002, 6.123720e+001
6.855273e+002, 6.020165e+001
6.860094e+002, 5.918087e+001
6.864915e+002, 5.804381e+001
6.869736e+002, 5.683194e+001
6.874557e+002, 5.564647e+001
6.879379e+002, 5.441504e+001
6.884200e+002, 5.342628e+001
6.889021e+002, 5.308319e+001
6.893842e+002, 5.315788e+001
6.898663e+002, 5.316504e+001
6.903484e+002, 5.301157e+001
6.908306e+002, 5.269709e+001
6.913127e+002, 5.217979e+001
6.917948e+002, 5.153081e+001
6.922769e+002, 5.110014e+001
6.927590e+002, 5.097331e+001
6.932411e+002, 5.094077e+001
6.937233e+002, 5.114452e+001
6.942054e+002, 5.129526e+001
6.946875e+002, 5.118456e+001
6.951696e+002, 5.087765e+001
6.956517e+002, 5.054295e+001
6.961339e+002, 5.021419e+001
6.966160e+002, 5.000894e+001
6.970981e+002, 5.019769e+001
6.975802e+002, 5.062895e+001
6.980623e+002, 5.072042e+001
6.985444e+002, 5.036559e+001
6.990266e+002, 4.994135e+001
6.995087e+002, 4.967904e+001
6.999908e+002, 4.957034e+001
7.004729e+002, 4.959047e+001
7.009550e+002, 4.982045e+001
7.014371e+002, 5.005873e+001
7.019193e+002, 5.024831e+001
7.024014e+002, 5.049561e+001
7.028835e+002, 5.102068e+001
7.033656e+002, 5.162987e+001
7.038477e+002, 5.185479e+001
7.043298e+002, 5.145388e+001
7.048120e+002, 5.097852e+001
7.052941e+002, 5.128618e+001
7.057762e+002, 5.215555e+001
7.062583e+002, 5.240288e+001
7.067404e+002, 5.182703e+001
7.072225e+002, 5.128054e+001
7.077046e+002, 5.129949e+001
7.081867e+002, 5.164834e+001
7.086688e+002, 5.171788e+001
7.091509e+002, 5.137712e+001
7.096331e+002, 5.110801e+001
7.101152e+002, 5.088974e+001
7.105973e+002, 5.080054e+001
7.110794e+002, 5.098164e+001
7.115615e+002, 5.129862e+001
7.120436e+002, 5.153308e+001
7.125258e+002, 5.160506e+001
7.130079e+002, 5.155786e+001
7.134900e+002, 5.135540e+001
7.139721e+002, 5.105630e+001
7.144542e+002, 5.100899e+001
7.149363e+002, 5.125389e+001
7.154185e+002, 5.157329e+001
7.159006e+002, 5.194412e+001
7.163827e+002, 5.225570e+001
7.168648e+002, 5.224770e+001
7.173469e+002, 5.182906e+001
7.178290e+002, 5.166911e+001
7.183112e+002, 5.190403e+001
7.187933e+002, 5.232437e+001
7.192754e+002, 5.310713e+001
7.197575e+002, 5.389176e+001
7.202396e+002, 5.402043e+001
7.207217e+002, 5.341256e+001
7.212039e+002, 5.288838e+001
7.216860e+002, 5.350222e+001
7.221681e+002, 5.479342e+001
7.226502e+002, 5.468664e+001
7.231323e+002, 5.294701e+001
7.236144e+002, 5.180999e+001
7.240966e+002, 5.221642e+001
7.245787e+002, 5.315781e+001
7.250608e+002, 5.347731e+001
7.255429e+002, 5.319032e+001
7.260250e+002, 5.298165e+001
7.265071e+002, 5.293269e+001
7.269893e+002, 5.291313e+001
7.274714e+002, 5.286289e+001
7.279535e+002, 5.282514e+001
7.284356e+002, 5.288343e+001
7.289177e+002, 5.302101e+001
7.293998e+002, 5.308613e+001
7.298820e+002, 5.290709e+001
7.303641e+002, 5.269367e+001
7.308462e+002, 5.308929e+001
7.313283e+002, 5.412987e+001
7.318104e+002, 5.465020e+001
7.322925e+002, 5.427378e+001
7.327747e+002, 5.367896e+001
7.332568e+002, 5.330727e+001
7.337389e+002, 5.317963e+001
7.342210e+002, 5.333918e+001
7.347031e+002, 5.413140e+001
7.351852e+002, 5.467238e+001
7.356674e+002, 5.455424e+001
7.361495e+002, 5.430190e+001
7.366316e+002, 5.434176e+001
7.371137e+002, 5.463705e+001
7.375958e+002, 5.500726e+001
7.380779e+002, 5.538829e+001
7.385601e+002, 5.558460e+001
7.390422e+002, 5.514727e+001
7.395243e+002, 5.417144e+001
7.400064e+002, 5.360197e+001
7.404885e+002, 5.357572e+001
7.409706e+002, 5.367083e+001
7.414528e+002, 5.362898e+001
7.419349e+002, 5.357926e+001
7.424170e+002, 5.387206e+001
7.428991e+002, 5.469289e+001
7.433812e+002, 5.519200e+001
7.438633e+002, 5.516240e+001
7.443455e+002, 5.494094e+001
7.448276e+002, 5.461394e+001
7.453097e+002, 5.424749e+001
7.457918e+002, 5.380891e+001
7.462739e+002, 5.333346e+001
7.467560e+002, 5.317487e+001
7.472382e+002, 5.401906e+001
7.477203e+002, 5.538971e+001
7.482024e+002, 5.558519e+001
7.486845e+002, 5.456750e+001
7.491666e+002, 5.405714e+001
7.496487e+002, 5.478772e+001
7.501309e+002, 5.584267e+001
7.506130e+002, 5.611927e+001
7.510951e+002, 5.555713e+001
7.515772e+002, 5.529546e+001
7.520593e+002, 5.552753e+001
7.525414e+002, 5.578144e+001
7.530236e+002, 5.590223e+001
7.535057e+002, 5.603813e+001
7.539878e+002, 5.653032e+001
7.544699e+002, 5.720971e+001
7.549520e+002, 5.734368e+001
7.554341e+002, 5.628773e+001
7.559163e+002, 5.497849e+001
7.563984e+002, 5.482436e+001
7.568805e+002, 5.558270e+001
7.573626e+002, 5.623875e+001
7.578447e+002, 5.663452e+001
7.583268e+002, 5.683485e+001
7.588090e+002, 5.683360e+001
7.592911e+002, 5.672235e+001
7.597732e+002, 5.682370e+001
7.602553e+002, 5.748444e+001
7.607374e+002, 5.772021e+001
7.612195e+002, 5.695388e+001
7.617017e+002, 5.640210e+001
7.621838e+002, 5.698012e+001
7.626659e+002, 5.803084e+001
7.631480e+002, 5.841784e+001
7.636301e+002, 5.780634e+001
7.641122e+002, 5.709776e+001
7.645944e+002, 5.701553e+001
7.650765e+002, 5.722785e+001
7.655586e+002, 5.709285e+001
7.660407e+002, 5.670649e+001
7.665228e+002, 5.681699e+001
7.670049e+002, 5.774710e+001
7.674871e+002, 5.882483e+001
7.679692e+002, 5.913958e+001
7.684513e+002, 5.865751e+001
7.689334e+002, 5.828283e+001
7.694155e+002, 5.787037e+001
7.698976e+002, 5.780881e+001
7.703798e+002, 5.853772e+001
7.708619e+002, 5.935305e+001
7.713440e+002, 5.974736e+001
7.718261e+002, 5.972192e+001
7.723082e+002, 5.947069e+001
7.727903e+002, 5.891940e+001
7.732725e+002, 5.835282e+001
7.737546e+002, 5.765683e+001
7.742367e+002, 5.721266e+001
7.747188e+002, 5.791192e+001
7.752009e+002, 5.964500e+001
7.756830e+002, 6.122393e+001
7.761652e+002, 6.188872e+001
7.766473e+002, 6.181717e+001
7.771294e+002, 6.127451e+001
7.776115e+002, 6.011249e+001
7.780936e+002, 5.950299e+001
7.785757e+002, 5.976413e+001
7.790579e+002, 6.013446e+001
7.795400e+002, 6.025208e+001
7.800221e+002, 6.020076e+001
7.805042e+002, 6.009248e+001
7.809863e+002, 5.989898e+001
7.814684e+002, 5.980276e+001
7.819506e+002, 5.983158e+001
7.824327e+002, 5.998662e+001
7.829148e+002, 6.041095e+001
7.833969e+002, 6.091152e+001
7.838790e+002, 6.113834e+001
7.843611e+002, 6.102621e+001
7.848433e+002, 6.085692e+001
7.853254e+002, 6.088108e+001
7.858075e+002, 6.105121e+001
7.862896e+002, 6.127094e+001
7.867717e+002, 6.154217e+001
7.872538e+002, 6.164184e+001
7.877360e+002, 6.145821e+001
7.882181e+002, 6.127617e+001
7.887002e+002, 6.146092e+001
7.891823e+002, 6.191438e+001
7.896644e+002, 6.179215e+001
7.901465e+002, 6.014726e+001
7.906286e+002, 5.931503e+001
7.911107e+002, 6.013358e+001
7.915928e+002, 6.119912e+001
7.920750e+002, 6.170480e+001
7.925571e+002, 6.172161e+001
7.930392e+002, 6.149279e+001
7.935213e+002, 6.105751e+001
7.940034e+002, 6.081226e+001
7.944855e+002, 6.118613e+001
7.949677e+002, 6.195324e+001
7.954498e+002, 6.283750e+001
7.959319e+002, 6.375762e+001
7.964140e+002, 6.433472e+001
7.968961e+002, 6.441130e+001
7.973782e+002, 6.409840e+001
7.978604e+002, 6.343938e+001
7.983425e+002, 6.238650e+001
7.988246e+002, 6.216756e+001
7.993067e+002, 6.346805e+001
7.997888e+002, 6.435963e+001
8.002709e+002, 6.391678e+001
8.007531e+002, 6.324578e+001
8.012352e+002, 6.325973e+001
8.017173e+002, 6.381223e+001
8.021994e+002, 6.405270e+001
8.026815e+002, 6.349778e+001
8.031636e+002, 6.296918e+001
8.036458e+002, 6.287124e+001
8.041279e+002, 6.304881e+001
8.046100e+002, 6.342498e+001
8.050921e+002, 6.390585e+001
8.055742e+002, 6.426460e+001
8.060563e+002, 6.436819e+001
8.065385e+002, 6.440058e+001
8.070206e+002, 6.473387e+001
8.075027e+002, 6.532723e+001
8.079848e+002, 6.549838e+001
8.084669e+002, 6.509219e+001
8.089490e+002, 6.498147e+001
8.094312e+002, 6.576825e+001
8.099133e+002, 6.675135e+001
8.103954e+002, 6.680510e+001
8.108775e+002, 6.572935e+001
8.113596e+002, 6.501722e+001
8.118417e+002, 6.483596e+001
8.123239e+002, 6.480085e+001
8.128060e+002, 6.479733e+001
8.132881e+002, 6.490247e+001
8.137702e+002, 6.527450e+001
8.142523e+002, 6.584684e+001
8.147344e+002, 6.633275e+001
8.152166e+002, 6.658302e+001
8.156987e+002, 6.670580e+001
8.161808e+002, 6.682771e+001
8.166629e+002, 6.689950e+001
8.171450e+002, 6.674478e+001
8.176271e+002, 6.637923e+001
8.181093e+002, 6.607689e+001
8.185914e+002, 6.598418e+001
8.190735e+002, 6.610368e+001
8.195556e+002, 6.650397e+001
8.200377e+002, 6.727718e+001
8.205198e+002, 6.772927e+001
8.210020e+002, 6.771000e+001
8.214841e+002, 6.765506e+001
8.219662e+002, 6.765162e+001
8.224483e+002, 6.774551e+001
8.229304e+002, 6.809289e+001
8.234125e+002, 6.867458e+001
8.238947e+002, 6.894363e+001
8.243768e+002, 6.844444e+001
8.248589e+002, 6.802906e+001
8.253410e+002, 6.819611e+001
8.258231e+002, 6.855793e+001
8.263052e+002, 6.864778e+001
8.267874e+002, 6.848537e+001
8.272695e+002, 6.839506e+001
8.277516e+002, 6.856157e+001
8.282337e+002, 6.886374e+001
8.287158e+002, 6.915330e+001
8.291979e+002, 6.943246e+001
8.296801e+002, 6.976916e+001
8.301622e+002, 7.016916e+001
8.306443e+002, 7.029141e+001
8.311264e+002, 6.988826e+001
8.316085e+002, 6.934383e+001
8.320906e+002, 6.929366e+001
8.325728e+002, 6.979427e+001
8.330549e+002, 7.039083e+001
8.335370e+002, 7.152116e+001
8.340191e+002, 7.209251e+001
8.345012e+002, 7.135281e+001
8.349833e+002, 7.039793e+001
8.354655e+002, 7.021999e+001
8.359476e+002, 7.068741e+001
8.364297e+002, 7.087440e+001
8.369118e+002, 7.017485e+001
8.373939e+002, 6.966487e+001
8.378760e+002, 7.003783e+001
8.383582e+002, 7.084396e+001
8.388403e+002, 7.182095e+001
8.393224e+002, 7.273900e+001
8.398045e+002, 7.299126e+001
8.402866e+002, 7.228516e+001
8.407687e+002, 7.146992e+001
8.412509e+002, 7.196067e+001
8.417330e+002, 7.344075e+001
8.422151e+002, 7.397717e+001
8.426972e+002, 7.348331e+001
8.431793e+002, 7.292004e+001
8.436614e+002, 7.258615e+001
8.441436e+002, 7.242977e+001
8.446257e+002, 7.236370e+001
8.451078e+002, 7.239342e+001
8.455899e+002, 7.281656e+001
8.460720e+002, 7.445129e+001
8.465541e+002, 7.525915e+001
8.470363e+002, 7.432419e+001
8.475184e+002, 7.323591e+001
8.480005e+002, 7.291171e+001
8.484826e+002, 7.321764e+001
8.489647e+002, 7.382881e+001
8.494468e+002, 7.482368e+001
8.499290e+002, 7.539365e+001
8.504111e+002, 7.461368e+001
8.508932e+002, 7.358984e+001
8.513753e+002, 7.345572e+001
8.518574e+002, 7.400969e+001
8.523395e+002, 7.474325e+001
8.528217e+002, 7.544413e+001
8.533038e+002, 7.589932e+001
8.537859e+002, 7.583765e+001
8.542680e+002, 7.541424e+001
8.547501e+002, 7.501745e+001
8.552322e+002, 7.464648e+001
8.557144e+002, 7.471059e+001
8.561965e+002, 7.536925e+001
8.566786e+002, 7.613852e+001
8.571607e+002, 7.668205e+001
8.576428e+002, 7.704166e+001
8.581249e+002, 7.736663e+001
8.586071e+002, 7.779126e+001
8.590892e+002, 7.787987e+001
8.595713e+002, 7.732629e+001
8.600534e+002, 7.680318e+001
8.605355e+002, 7.638033e+001
8.610176e+002, 7.620926e+001
8.614998e+002, 7.659366e+001
8.619819e+002, 7.752342e+001
8.624640e+002, 7.829615e+001
8.629461e+002, 7.853636e+001
8.634282e+002, 7.863589e+001
8.639103e+002, 7.891048e+001
8.643925e+002, 7.918529e+001
8.648746e+002, 7.915318e+001
8.653567e+002, 7.884396e+001
8.658388e+002, 7.850990e+001
8.663209e+002, 7.827285e+001
8.668030e+002, 7.827148e+001
8.672852e+002, 7.886170e+001
8.677673e+002, 7.990821e+001
8.682494e+002, 8.071550e+001
8.687315e+002, 8.124056e+001
8.692136e+002, 8.154360e+001
8.696957e+002, 8.161089e+001
8.701779e+002, 8.161529e+001
8.706600e+002, 8.183492e+001
8.711421e+002, 8.227585e+001
8.716242e+002, 8.222513e+001
8.721063e+002, 8.106155e+001
8.725884e+002, 8.050070e+001
8.730705e+002, 8.148750e+001
8.735526e+002, 8.254163e+001
8.740347e+002, 8.265952e+001
8.745168e+002, 8.217632e+001
8.749990e+002, 8.198838e+001
8.754811e+002, 8.237397e+001
8.759632e+002, 8.263932e+001
8.764453e+002, 8.247217e+001
8.769274e+002, 8.216636e+001
8.774095e+002, 8.165913e+001
8.778917e+002, 8.127541e+001
8.783738e+002, 8.170681e+001
8.788559e+002, 8.298524e+001
8.793380e+002, 8.414387e+001
8.798201e+002, 8.433193e+001
8.803022e+002, 8.408369e+001
8.807844e+002, 8.424409e+001
8.812665e+002, 8.472929e+001
8.817486e+002, 8.528023e+001
8.822307e+002, 8.584327e+001
8.827128e+002, 8.632529e+001
8.831949e+002, 8.668308e+001
8.836771e+002, 8.684166e+001
8.841592e+002, 8.651302e+001
8.846413e+002, 8.553349e+001
8.851234e+002, 8.535209e+001
8.856055e+002, 8.628379e+001
8.860876e+002, 8.722685e+001
8.865698e+002, 8.767731e+001
8.870519e+002, 8.810358e+001
8.875340e+002, 8.916141e+001
8.880161e+002, 9.078907e+001
8.884982e+002, 9.206092e+001
8.889803e+002, 9.277548e+001
8.894625e+002, 9.338005e+001
8.899446e+002, 9.371268e+001
8.904267e+002, 9.418785e+001
8.909088e+002, 9.529329e+001
8.913909e+002, 9.669996e+001
8.918730e+002, 9.764470e+001
8.923552e+002, 9.789896e+001
8.928373e+002, 9.833424e+001
8.933194e+002, 9.971386e+001
8.938015e+002, 1.013814e+002
8.942836e+002, 1.027157e+002
8.947657e+002, 1.037671e+002
8.952479e+002, 1.045952e+002
8.957300e+002, 1.052603e+002
8.962121e+002, 1.060013e+002
8.966942e+002, 1.070081e+002
8.971763e+002, 1.081353e+002
8.976584e+002, 1.092127e+002
8.981406e+002, 1.101917e+002
8.986227e+002, 1.105090e+002
8.991048e+002, 1.100567e+002
8.995869e+002, 1.096261e+002
9.000690e+002, 1.095833e+002
9.005511e+002, 1.097776e+002
9.010333e+002, 1.100387e+002
9.015154e+002, 1.103852e+002
9.019975e+002, 1.103246e+002
9.024796e+002, 1.093509e+002
9.029617e+002, 1.089199e+002
9.034438e+002, 1.099052e+002
9.039260e+002, 1.109244e+002
9.044081e+002, 1.110840e+002
9.048902e+002, 1.105547e+002
9.053723e+002, 1.097033e+002
9.058544e+002, 1.083351e+002
9.063365e+002, 1.073209e+002
9.068187e+002, 1.071046e+002
9.073008e+002, 1.070588e+002
9.077829e+002, 1.069504e+002
9.082650e+002, 1.067099e+002
9.087471e+002, 1.062246e+002
9.092292e+002, 1.055186e+002
9.097114e+002, 1.048030e+002
9.101935e+002, 1.041038e+002
9.106756e+002, 1.036084e+002
9.111577e+002, 1.037972e+002
9.116398e+002, 1.042040e+002
9.121219e+002, 1.038771e+002
9.126041e+002, 1.028549e+002
9.130862e+002, 1.017290e+002
9.135683e+002, 1.007794e+002
9.140504e+002, 1.002074e+002
9.145325e+002, 1.004826e+002
9.150146e+002, 1.013885e+002
9.154968e+002, 1.015792e+002
9.159789e+002, 1.010258e+002
9.164610e+002, 1.007000e+002
9.169431e+002, 1.009333e+002
9.174252e+002, 1.009970e+002
9.179073e+002, 1.001848e+002
9.183895e+002, 9.881338e+001
9.188716e+002, 9.806398e+001
9.193537e+002, 9.824771e+001
9.198358e+002, 9.822975e+001
9.203179e+002, 9.769059e+001
9.208000e+002, 9.740340e+001
9.212822e+002, 9.798418e+001
9.217643e+002, 9.876661e+001
9.222464e+002, 9.894015e+001
9.227285e+002, 9.852728e+001
9.232106e+002, 9.836192e+001
9.236927e+002, 9.868153e+001
9.241749e+002, 9.909361e+001
9.246570e+002, 9.986037e+001
9.251391e+002, 1.003472e+002
9.256212e+002, 9.979945e+001
9.261033e+002, 9.864681e+001
9.265854e+002, 9.772590e+001
9.270676e+002, 9.727386e+001
9.275497e+002, 9.734178e+001
9.280318e+002, 9.845043e+001
9.285139e+002, 9.966370e+001
9.289960e+002, 9.998466e+001
9.294781e+002, 9.971841e+001
9.299603e+002, 9.942017e+001
9.304424e+002, 9.922398e+001
9.309245e+002, 9.910667e+001
9.314066e+002, 9.905309e+001
9.318887e+002, 9.907045e+001
9.323708e+002, 9.904904e+001
9.328530e+002, 9.910255e+001
9.333351e+002, 9.996642e+001
9.338172e+002, 1.015960e+002
9.342993e+002, 1.025328e+002
9.347814e+002, 1.021805e+002
9.352635e+002, 1.014956e+002
9.357457e+002, 1.015523e+002
9.362278e+002, 1.021681e+002
9.367099e+002, 1.021977e+002
9.371920e+002, 1.014321e+002
9.376741e+002, 1.009959e+002
9.381563e+002, 1.010714e+002
9.386384e+002, 1.013715e+002
9.391205e+002, 1.018257e+002
9.396026e+002, 1.023436e+002
9.400847e+002, 1.028046e+002
9.405668e+002, 1.032537e+002
9.410490e+002, 1.033778e+002
9.415311e+002, 1.027184e+002
9.420132e+002, 1.023753e+002
9.424953e+002, 1.027020e+002
9.429774e+002, 1.032814e+002
9.434595e+002, 1.039320e+002
9.439417e+002, 1.045718e+002
9.444238e+002, 1.050277e+002
9.449059e+002, 1.052240e+002
9.453880e+002, 1.054033e+002
9.458701e+002, 1.058755e+002
9.463522e+002, 1.061239e+002
9.468344e+002, 1.054432e+002
9.473165e+002, 1.045275e+002
9.477986e+002, 1.042962e+002
9.482807e+002, 1.048464e+002
9.487628e+002, 1.058132e+002
9.492449e+002, 1.072379e+002
9.497271e+002, 1.083996e+002
9.502092e+002, 1.082839e+002
9.506913e+002, 1.076540e+002
9.511734e+002, 1.078067e+002
9.516555e+002, 1.085564e+002
9.521376e+002, 1.089432e+002
9.526198e+002, 1.086597e+002
9.531019e+002, 1.081983e+002
9.535840e+002, 1.079590e+002
9.540661e+002, 1.079662e+002
9.545482e+002, 1.082919e+002
9.550303e+002, 1.089222e+002
9.555124e+002, 1.099998e+002
9.559945e+002, 1.115423e+002
9.564766e+002, 1.122208e+002
9.569587e+002, 1.111905e+002
9.574409e+002, 1.096766e+002
9.579230e+002, 1.097521e+002
9.584051e+002, 1.113779e+002
9.588872e+002, 1.122402e+002
9.593693e+002, 1.121872e+002
9.598514e+002, 1.119910e+002
9.603336e+002, 1.116974e+002
9.608157e+002, 1.115886e+002
9.612978e+002, 1.120000e+002
9.617799e+002, 1.126786e+002
9.622620e+002, 1.128861e+002
9.627441e+002, 1.124082e+002
9.632263e+002, 1.121217e+002
9.637084e+002, 1.121031e+002
9.641905e+002, 1.121771e+002
9.646726e+002, 1.122985e+002
9.651547e+002, 1.124890e+002
9.656368e+002, 1.129516e+002
9.661190e+002, 1.135353e+002
9.666011e+002, 1.135260e+002
9.670832e+002, 1.122846e+002
9.675653e+002, 1.115728e+002
9.680474e+002, 1.121135e+002
9.685295e+002, 1.129053e+002
9.690117e+002, 1.136066e+002
9.694938e+002, 1.140802e+002
9.699759e+002, 1.139937e+002
9.704580e+002, 1.134467e+002
9.709401e+002, 1.133230e+002
9.714222e+002, 1.143085e+002
9.719044e+002, 1.153302e+002
9.723865e+002, 1.158230e+002
9.728686e+002, 1.159243e+002
9.733507e+002, 1.154642e+002
9.738328e+002, 1.148077e+002
9.743149e+002, 1.148055e+002
9.747971e+002, 1.156478e+002
9.752792e+002, 1.164749e+002
9.757613e+002, 1.165263e+002
9.762434e+002, 1.162784e+002
9.767255e+002, 1.164209e+002
9.772076e+002, 1.167338e+002
9.776898e+002, 1.165929e+002
9.781719e+002, 1.160778e+002
9.786540e+002, 1.160304e+002
9.791361e+002, 1.168474e+002
9.796182e+002, 1.177674e+002
9.801003e+002, 1.177239e+002
9.805825e+002, 1.170646e+002
9.810646e+002, 1.170309e+002
9.815467e+002, 1.175294e+002
9.820288e+002, 1.176573e+002
9.825109e+002, 1.172388e+002
9.829930e+002, 1.173261e+002
9.834752e+002, 1.186976e+002
9.839573e+002, 1.205367e+002
9.844394e+002, 1.212188e+002
9.849215e+002, 1.207341e+002
9.854036e+002, 1.205236e+002
9.858857e+002, 1.206399e+002
9.863679e+002, 1.206852e+002
9.868500e+002, 1.204760e+002
9.873321e+002, 1.204749e+002
9.878142e+002, 1.212335e+002
9.882963e+002, 1.223214e+002
9.887784e+002, 1.222494e+002
9.892606e+002, 1.203621e+002
9.897427e+002, 1.196965e+002
9.902248e+002, 1.209100e+002
9.907069e+002, 1.220930e+002
9.911890e+002, 1.227753e+002
9.916711e+002, 1.230548e+002
9.921533e+002, 1.228218e+002
9.926354e+002, 1.222188e+002
9.931175e+002, 1.221101e+002
9.935996e+002, 1.228660e+002
9.940817e+002, 1.234470e+002
9.945638e+002, 1.237126e+002
9.950460e+002, 1.239561e+002
9.955281e+002, 1.241160e+002
9.960102e+002, 1.244288e+002
9.964923e+002, 1.253490e+002
9.969744e+002, 1.267509e+002
9.974565e+002, 1.276470e+002
9.979387e+002, 1.277198e+002
9.984208e+002, 1.274912e+002
9.989029e+002, 1.266767e+002
9.993850e+002, 1.260326e+002
9.998671e+002, 1.261879e+002
1.000349e+003, 1.267384e+002
1.000831e+003, 1.269786e+002
1.001313e+003, 1.268880e+002
1.001796e+003, 1.272577e+002
1.002278e+003, 1.290989e+002
1.002760e+003, 1.304268e+002
1.003242e+003, 1.294626e+002
1.003724e+003, 1.281013e+002
1.004206e+003, 1.282508e+002
1.004688e+003, 1.293534e+002
1.005170e+003, 1.300198e+002
1.005653e+003, 1.299335e+002
1.006135e+003, 1.298093e+002
1.006617e+003, 1.301050e+002
1.007099e+003, 1.305412e+002
1.007581e+003, 1.308663e+002
1.008063e+003, 1.311586e+002
1.008545e+003, 1.316220e+002
1.009027e+003, 1.321470e+002
1.009509e+003, 1.322678e+002
1.009992e+003, 1.318757e+002
1.010474e+003, 1.317390e+002
1.010956e+003, 1.328955e+002
1.011438e+003, 1.342961e+002
1.011920e+003, 1.341089e+002
1.012402e+003, 1.329964e+002
1.012884e+003, 1.324041e+002
1.013366e+003, 1.324898e+002
1.013849e+003, 1.330149e+002
1.014331e+003, 1.338648e+002
1.014813e+003, 1.347632e+002
1.015295e+003, 1.353948e+002
1.015777e+003, 1.358521e+002
1.016259e+003, 1.363342e+002
1.016741e+003, 1.368496e+002
1.017223e+003, 1.375399e+002
1.017705e+003, 1.383764e+002
1.018188e+003, 1.388060e+002
1.018670e+003, 1.385241e+002
1.019152e+003, 1.380429e+002
1.019634e+003, 1.380345e+002
1.020116e+003, 1.384472e+002
1.020598e+003, 1.391254e+002
1.021080e+003, 1.400504e+002
1.021562e+003, 1.408954e+002
1.022044e+003, 1.416311e+002
1.022527e+003, 1.416398e+002
1.023009e+003, 1.404488e+002
1.023491e+003, 1.389133e+002
1.023973e+003, 1.384463e+002
1.024455e+003, 1.389784e+002
1.024937e+003, 1.393452e+002
1.025419e+003, 1.395158e+002
1.025901e+003, 1.397591e+002
1.026384e+003, 1.401079e+002
1.026866e+003, 1.406763e+002
1.027348e+003, 1.416673e+002
1.027830e+003, 1.426230e+002
1.028312e+003, 1.425790e+002
1.028794e+003, 1.414668e+002
1.029276e+003, 1.411324e+002
1.029758e+003, 1.418149e+002
1.030240e+003, 1.424096e+002
1.030723e+003, 1.426076e+002
1.031205e+003, 1.429620e+002
1.031687e+003, 1.440091e+002
1.032169e+003, 1.452512e+002
1.032651e+003, 1.456037e+002
1.033133e+003, 1.449043e+002
1.033615e+003, 1.446764e+002
1.034097e+003, 1.450576e+002
1.034579e+003, 1.456467e+002
1.035062e+003, 1.466972e+002
1.035544e+003, 1.474185e+002
1.036026e+003, 1.469886e+002
1.036508e+003, 1.460494e+002
1.036990e+003, 1.460412e+002
1.037472e+003, 1.472354e+002
1.037954e+003, 1.478235e+002
1.038436e+003, 1.473411e+002
1.038919e+003, 1.469884e+002
1.039401e+003, 1.469434e+002
1.039883e+003, 1.471162e+002
1.040365e+003, 1.475980e+002
1.040847e+003, 1.482144e+002
1.041329e+003, 1.485322e+002
1.041811e+003, 1.484283e+002
1.042293e+003, 1.486920e+002
1.042776e+003, 1.497535e+002
1.043258e+003, 1.506041e+002
1.043740e+003, 1.508924e+002
1.044222e+003, 1.510829e+002
1.044704e+003, 1.516328e+002
1.045186e+003, 1.522444e+002
1.045668e+003, 1.520986e+002
1.046150e+003, 1.508863e+002
1.046632e+003, 1.507897e+002
1.047115e+003, 1.536180e+002
1.047597e+003, 1.554051e+002
1.048079e+003, 1.541159e+002
1.048561e+003, 1.525125e+002
1.049043e+003, 1.525961e+002
1.049525e+003, 1.536977e+002
1.050007e+003, 1.544658e+002
1.050489e+003, 1.547365e+002
1.050971e+003, 1.548137e+002
1.051454e+003, 1.544349e+002
1.051936e+003, 1.543050e+002
1.052418e+003, 1.547354e+002
1.052900e+003, 1.553884e+002
1.053382e+003, 1.561853e+002
1.053864e+003, 1.569610e+002
1.054346e+003, 1.574057e+002
1.054828e+003, 1.574690e+002
1.055311e+003, 1.576185e+002
1.055793e+003, 1.583576e+002
1.056275e+003, 1.586881e+002
1.056757e+003, 1.576111e+002
1.057239e+003, 1.566400e+002
1.057721e+003, 1.570228e+002
1.058203e+003, 1.582754e+002
1.058685e+003, 1.596338e+002
1.059167e+003, 1.609491e+002
1.059650e+003, 1.616957e+002
1.060132e+003, 1.611624e+002
1.060614e+003, 1.607603e+002
1.061096e+003, 1.611069e+002
1.061578e+003, 1.617040e+002
1.062060e+003, 1.624114e+002
1.062542e+003, 1.629900e+002
1.063024e+003, 1.629983e+002
1.063506e+003, 1.624221e+002
1.063989e+003, 1.619892e+002
1.064471e+003, 1.620329e+002
1.064953e+003, 1.621651e+002
1.065435e+003, 1.620430e+002
1.065917e+003, 1.621291e+002
1.066399e+003, 1.629574e+002
1.066881e+003, 1.641428e+002
1.067363e+003, 1.651475e+002
1.067846e+003, 1.658593e+002
1.068328e+003, 1.662757e+002
1.068810e+003, 1.661873e+002
1.069292e+003, 1.661691e+002
1.069774e+003, 1.665390e+002
1.070256e+003, 1.670152e+002
1.070738e+003, 1.672946e+002
1.071220e+003, 1.675970e+002
1.071703e+003, 1.685574e+002
1.072185e+003, 1.699987e+002
1.072667e+003, 1.704791e+002
1.073149e+003, 1.688231e+002
1.073631e+003, 1.676311e+002
1.074113e+003, 1.685081e+002
1.074595e+003, 1.698718e+002
1.075077e+003, 1.708638e+002
1.075559e+003, 1.714592e+002
1.076042e+003, 1.716835e+002
1.076524e+003, 1.715807e+002
1.077006e+003, 1.711844e+002
1.077488e+003, 1.702149e+002
1.077970e+003, 1.698953e+002
1.078452e+003, 1.712476e+002
1.078934e+003, 1.729466e+002
1.079416e+003, 1.744431e+002
1.079898e+003, 1.755385e+002
1.080380e+003, 1.758779e+002
1.080863e+003, 1.756641e+002
1.081345e+003, 1.756568e+002
1.081827e+003, 1.761916e+002
1.082309e+003, 1.764184e+002
1.082791e+003, 1.755863e+002
1.083273e+003, 1.747584e+002
1.083755e+003, 1.743886e+002
1.084237e+003, 1.745126e+002
1.084720e+003, 1.753636e+002
1.085202e+003, 1.766743e+002
1.085684e+003, 1.778585e+002
1.086166e+003, 1.787821e+002
1.086648e+003, 1.793447e+002
1.087130e+003, 1.792410e+002
1.087612e+003, 1.790903e+002
1.088094e+003, 1.790795e+002
1.088577e+003, 1.792871e+002
1.089059e+003, 1.800060e+002
1.089541e+003, 1.809216e+002
1.090023e+003, 1.813399e+002
1.090505e+003, 1.811211e+002
1.090987e+003, 1.809346e+002
1.091469e+003, 1.809599e+002
1.091951e+003, 1.811668e+002
1.092433e+003, 1.815728e+002
1.092916e+003, 1.821286e+002
1.093398e+003, 1.828993e+002
1.093880e+003, 1.837424e+002
1.094362e+003, 1.844911e+002
1.094844e+003, 1.851033e+002
1.095326e+003, 1.854459e+002
1.095808e+003, 1.850812e+002
1.096290e+003, 1.850260e+002
1.096772e+003, 1.859686e+002
1.097255e+003, 1.869403e+002
1.097737e+003, 1.872828e+002
1.098219e+003, 1.873088e+002
1.098701e+003, 1.874495e+002
1.099183e+003, 1.877364e+002
1.099665e+003, 1.880247e+002
1.100147e+003, 1.883336e+002
1.100629e+003, 1.885285e+002
1.101112e+003, 1.884401e+002
1.101594e+003, 1.883863e+002
1.102076e+003, 1.882192e+002
1.102558e+003, 1.883968e+002
1.103040e+003, 1.897291e+002
1.103522e+003, 1.918415e+002
1.104004e+003, 1.933112e+002
1.104486e+003, 1.939409e+002
1.104969e+003, 1.939082e+002
1.105451e+003, 1.924736e+002
1.105933e+003, 1.913800e+002
1.106415e+003, 1.912686e+002
1.106897e+003, 1.916963e+002
1.107379e+003, 1.925964e+002
1.107861e+003, 1.936801e+002
1.108343e+003, 1.942793e+002
1.108825e+003, 1.942601e+002
1.109307e+003, 1.942616e+002
1.109790e+003, 1.940303e+002
1.110272e+003, 1.942650e+002
1.110754e+003, 1.954801e+002
1.111236e+003, 1.968026e+002
1.111718e+003, 1.979364e+002
1.112200e+003, 1.987414e+002
1.112682e+003, 1.987916e+002
1.113164e+003, 1.980190e+002
1.113647e+003, 1.979304e+002
1.114129e+003, 1.992152e+002
1.114611e+003, 2.000281e+002
1.115093e+003, 1.996730e+002
1.115575e+003, 1.996311e+002
1.116057e+003, 2.009983e+002
1.116539e+003, 2.025436e+002
1.117021e+003, 2.025640e+002
1.117504e+003, 2.013858e+002
1.117986e+003, 2.015043e+002
1.118468e+003, 2.038410e+002
1.118950e+003, 2.052757e+002
1.119432e+003, 2.056202e+002
1.119914e+003, 2.053080e+002
1.120396e+003, 2.039930e+002
1.120878e+003, 2.028452e+002
1.121360e+003, 2.028749e+002
1.121843e+003, 2.038348e+002
1.122325e+003, 2.050684e+002
1.122807e+003, 2.066873e+002
1.123289e+003, 2.079304e+002
1.123771e+003, 2.088545e+002
1.124253e+003, 2.091249e+002
1.124735e+003, 2.084036e+002
1.125217e+003, 2.078173e+002
1.125699e+003, 2.080605e+002
1.126182e+003, 2.089299e+002
1.126664e+003, 2.102188e+002
1.127146e+003, 2.118603e+002
1.127628e+003, 2.125044e+002
1.128110e+003, 2.120179e+002
1.128592e+003, 2.116845e+002
1.129074e+003, 2.116655e+002
1.129556e+003, 2.118615e+002
1.130039e+003, 2.122587e+002
1.130521e+003, 2.126299e+002
1.131003e+003, 2.126262e+002
1.131485e+003, 2.125251e+002
1.131967e+003, 2.135710e+002
1.132449e+003, 2.156515e+002
1.132931e+003, 2.166292e+002
1.133413e+003, 2.164166e+002
1.133896e+003, 2.162742e+002
1.134378e+003, 2.165886e+002
1.134860e+003, 2.170699e+002
1.135342e+003, 2.175079e+002
1.135824e+003, 2.179020e+002
1.136306e+003, 2.181904e+002
1.136788e+003, 2.184409e+002
1.137270e+003, 2.188965e+002
1.137752e+003, 2.195585e+002
1.138234e+003, 2.205642e+002
1.138717e+003, 2.218399e+002
1.139199e+003, 2.226873e+002
1.139681e+003, 2.227512e+002
1.140163e+003, 2.225542e+002
1.140645e+003, 2.225743e+002
1.141127e+003, 2.228282e+002
1.141609e+003, 2.234635e+002
1.142091e+003, 2.243067e+002
1.142574e+003, 2.249794e+002
1.143056e+003, 2.254833e+002
1.143538e+003, 2.259635e+002
1.144020e+003, 2.264788e+002
1.144502e+003, 2.270878e+002
1.144984e+003, 2.279053e+002
1.145466e+003, 2.286630e+002
1.145948e+003, 2.289371e+002
1.146431e+003, 2.291051e+002
1.146913e+003, 2.297084e+002
1.147395e+003, 2.305416e+002
1.147877e+003, 2.312121e+002
1.148359e+003, 2.316579e+002
1.148841e+003, 2.319614e+002
1.149323e+003, 2.321265e+002
1.149805e+003, 2.323561e+002
1.150287e+003, 2.329263e+002
1.150770e+003, 2.334379e+002
1.151252e+003, 2.334940e+002
1.151734e+003, 2.334269e+002
1.152216e+003, 2.334035e+002
1.152698e+003, 2.336216e+002
1.153180e+003, 2.346074e+002
1.153662e+003, 2.364621e+002
1.154144e+003, 2.378092e+002
1.154626e+003, 2.376813e+002
1.155109e+003, 2.377048e+002
1.155591e+003, 2.386895e+002
1.156073e+003, 2.396881e+002
1.156555e+003, 2.399732e+002
1.157037e+003, 2.400161e+002
1.157519e+003, 2.404832e+002
1.158001e+003, 2.413498e+002
1.158483e+003, 2.421357e+002
1.158966e+003, 2.428523e+002
1.159448e+003, 2.433784e+002
1.159930e+003, 2.435896e+002
1.160412e+003, 2.437635e+002
1.160894e+003, 2.436529e+002
1.161376e+003, 2.439154e+002
1.161858e+003, 2.455346e+002
1.162340e+003, 2.475756e+002
1.162822e+003, 2.477917e+002
1.163305e+003, 2.458971e+002
1.163787e+003, 2.453210e+002
1.164269e+003, 2.465508e+002
1.164751e+003, 2.476810e+002
1.165233e+003, 2.484082e+002
1.165715e+003, 2.491789e+002
1.166197e+003, 2.502226e+002
1.166679e+003, 2.513927e+002
1.167161e+003, 2.526206e+002
1.167644e+003, 2.537255e+002
1.168126e+003, 2.537494e+002
1.168608e+003, 2.526282e+002
1.169090e+003, 2.524964e+002
1.169572e+003, 2.534666e+002
1.170054e+003, 2.546460e+002
1.170536e+003, 2.558006e+002
1.171018e+003, 2.565686e+002
1.171500e+003, 2.566689e+002
1.171983e+003, 2.564637e+002
1.172465e+003, 2.563968e+002
1.172947e+003, 2.565509e+002
1.173429e+003, 2.574231e+002
1.173911e+003, 2.587582e+002
1.174393e+003, 2.594875e+002
1.174875e+003, 2.596224e+002
1.175357e+003, 2.600025e+002
1.175840e+003, 2.609294e+002
1.176322e+003, 2.619011e+002
1.176804e+003, 2.624654e+002
1.177286e+003, 2.629678e+002
1.177768e+003, 2.641474e+002
1.178250e+003, 2.653104e+002
1.178732e+003, 2.650233e+002
1.179214e+003, 2.640969e+002
1.179697e+003, 2.643935e+002
1.180179e+003, 2.658948e+002
1.180661e+003, 2.670280e+002
1.181143e+003, 2.670858e+002
1.181625e+003, 2.671901e+002
1.182107e+003, 2.678648e+002
1.182589e+003, 2.689960e+002
1.183071e+003, 2.710524e+002
1.183553e+003, 2.730401e+002
1.184036e+003, 2.739181e+002
1.184518e+003, 2.740560e+002
1.185000e+003, 2.742386e+002
1.185482e+003, 2.745782e+002
1.185964e+003, 2.748254e+002
1.186446e+003, 2.745261e+002
1.186928e+003, 2.747782e+002
1.187410e+003, 2.767076e+002
1.187892e+003, 2.780513e+002
1.188375e+003, 2.770824e+002
1.188857e+003, 2.757866e+002
1.189339e+003, 2.760395e+002
1.189821e+003, 2.774029e+002
1.190303e+003, 2.786921e+002
1.190785e+003, 2.799984e+002
1.191267e+003, 2.806129e+002
1.191749e+003, 2.800925e+002
1.192232e+003, 2.801947e+002
1.192714e+003, 2.814672e+002
1.193196e+003, 2.825182e+002
1.193678e+003, 2.825006e+002
1.194160e+003, 2.823880e+002
1.194642e+003, 2.834381e+002
1.195124e+003, 2.852975e+002
1.195606e+003, 2.866720e+002
1.196089e+003, 2.875572e+002
1.196571e+003, 2.875893e+002
1.197053e+003, 2.868126e+002
1.197535e+003, 2.865021e+002
1.198017e+003, 2.869612e+002
1.198499e+003, 2.875860e+002
1.198981e+003, 2.879993e+002
1.199463e+003, 2.884536e+002
1.199945e+003, 2.892265e+002
1.200427e+003, 2.903139e+002
1.200910e+003, 2.920656e+002
1.201392e+003, 2.939901e+002
1.201874e+003, 2.949082e+002
1.202356e+003, 2.949885e+002
1.202838e+003, 2.949616e+002
1.203320e+003, 2.951083e+002
1.203802e+003, 2.957198e+002
1.204284e+003, 2.972371e+002
1.204767e+003, 2.984370e+002
1.205249e+003, 2.976888e+002
1.205731e+003, 2.969890e+002
1.206213e+003, 2.983414e+002
1.206695e+003, 3.004547e+002
1.207177e+003, 3.017796e+002
1.207659e+003, 3.024193e+002
1.208141e+003, 3.031367e+002
1.208624e+003, 3.040898e+002
1.209106e+003, 3.049005e+002
1.209588e+003, 3.054993e+002
1.210070e+003, 3.059105e+002
1.210552e+003, 3.059247e+002
1.211034e+003, 3.060122e+002
1.211516e+003, 3.065695e+002
1.211998e+003, 3.071646e+002
1.212480e+003, 3.072769e+002
1.212963e+003, 3.070801e+002
1.213445e+003, 3.072696e+002
1.213927e+003, 3.079696e+002
1.214409e+003, 3.083209e+002
1.214891e+003, 3.080555e+002
1.215373e+003, 3.086777e+002
1.215855e+003, 3.107611e+002
1.216337e+003, 3.121950e+002
1.216819e+003, 3.116999e+002
1.217302e+003, 3.109217e+002
1.217784e+003, 3.119714e+002
1.218266e+003, 3.141730e+002
1.218748e+003, 3.155713e+002
1.219230e+003, 3.162176e+002
1.219712e+003, 3.160640e+002
1.220194e+003, 3.153522e+002
1.220676e+003, 3.152104e+002
1.221159e+003, 3.158691e+002
1.221641e+003, 3.169694e+002
1.222123e+003, 3.183374e+002
1.222605e+003, 3.196801e+002
1.223087e+003, 3.207547e+002
1.223569e+003, 3.215942e+002
1.224051e+003, 3.221357e+002
1.224533e+003, 3.225376e+002
1.225016e+003, 3.227607e+002
1.225498e+003, 3.231034e+002
1.225980e+003, 3.243598e+002
1.226462e+003, 3.263969e+002
1.226944e+003, 3.277000e+002
1.227426e+003, 3.273377e+002
1.227908e+003, 3.273764e+002
1.228390e+003, 3.290063e+002
1.228872e+003, 3.305333e+002
1.229354e+003, 3.312526e+002
1.229837e+003, 3.315871e+002
1.230319e+003, 3.314864e+002
1.230801e+003, 3.314467e+002
1.231283e+003, 3.325101e+002
1.231765e+003, 3.346265e+002
1.232247e+003, 3.358271e+002
1.232729e+003, 3.357780e+002
1.233211e+003, 3.357920e+002
1.233694e+003, 3.358100e+002
1.234176e+003, 3.363575e+002
1.234658e+003, 3.376743e+002
1.235140e+003, 3.392879e+002
1.235622e+003, 3.409706e+002
1.236104e+003, 3.422813e+002
1.236586e+003, 3.421845e+002
1.237068e+003, 3.412090e+002
1.237551e+003, 3.418986e+002
1.238033e+003, 3.437458e+002
1.238515e+003, 3.441597e+002
1.238997e+003, 3.433488e+002
1.239479e+003, 3.438081e+002
1.239961e+003, 3.460824e+002
1.240443e+003, 3.483799e+002
1.240925e+003, 3.496378e+002
1.241407e+003, 3.501675e+002
1.241890e+003, 3.497993e+002
1.242372e+003, 3.493448e+002
1.242854e+003, 3.496180e+002
1.243336e+003, 3.502680e+002
1.243818e+003, 3.510201e+002
1.244300e+003, 3.517030e+002
1.244782e+003, 3.519319e+002
1.245264e+003, 3.517201e+002
1.245746e+003, 3.519858e+002
1.246229e+003, 3.531209e+002
1.246711e+003, 3.544614e+002
1.247193e+003, 3.560869e+002
1.247675e+003, 3.576523e+002
1.248157e+003, 3.593186e+002
1.248639e+003, 3.605277e+002
1.249121e+003, 3.605946e+002
1.249603e+003, 3.602499e+002
1.250085e+003, 3.609679e+002
1.250568e+003, 3.626241e+002
1.251050e+003, 3.627570e+002
1.251532e+003, 3.610610e+002
1.252014e+003, 3.615904e+002
1.252496e+003, 3.647662e+002
1.252978e+003, 3.666249e+002
1.253460e+003, 3.659851e+002
1.253942e+003, 3.652415e+002
1.254425e+003, 3.660319e+002
1.254907e+003, 3.676278e+002
1.255389e+003, 3.692895e+002
1.255871e+003, 3.708473e+002
1.256353e+003, 3.718898e+002
1.256835e+003, 3.726278e+002
1.257317e+003, 3.734106e+002
1.257799e+003, 3.742315e+002
1.258281e+003, 3.748709e+002
1.258764e+003, 3.753727e+002
1.259246e+003, 3.762682e+002
1.259728e+003, 3.779203e+002
1.260210e+003, 3.794527e+002
1.260692e+003, 3.808758e+002
1.261174e+003, 3.815350e+002
1.261656e+003, 3.798524e+002
1.262138e+003, 3.785801e+002
1.262620e+003, 3.802892e+002
1.263103e+003, 3.835316e+002
1.263585e+003, 3.861528e+002
1.264067e+003, 3.881124e+002
1.264549e+003, 3.890402e+002
1.265031e+003, 3.885167e+002
1.265513e+003, 3.883545e+002
1.265995e+003, 3.885663e+002
1.266477e+003, 3.891171e+002
1.266960e+003, 3.900089e+002
1.267442e+003, 3.913033e+002
1.267924e+003, 3.931173e+002
1.268406e+003, 3.945550e+002
1.268888e+003, 3.943383e+002
1.269370e+003, 3.934034e+002
1.269852e+003, 3.940223e+002
1.270334e+003, 3.956103e+002
1.270817e+003, 3.968191e+002
1.271299e+003, 3.976573e+002
1.271781e+003, 3.983851e+002
1.272263e+003, 3.990504e+002
1.272745e+003, 3.995196e+002
1.273227e+003, 3.997415e+002
1.273709e+003, 4.002119e+002
1.274191e+003, 4.012782e+002
1.274673e+003, 4.026023e+002
1.275156e+003, 4.042397e+002
1.275638e+003, 4.058344e+002
1.276120e+003, 4.075590e+002
1.276602e+003, 4.087997e+002
1.277084e+003, 4.083429e+002
1.277566e+003, 4.069061e+002
1.278048e+003, 4.068636e+002
1.278530e+003, 4.083626e+002
1.279012e+003, 4.099430e+002
1.279495e+003, 4.114816e+002
1.279977e+003, 4.137048e+002
1.280459e+003, 4.170789e+002
1.280941e+003, 4.189022e+002
1.281423e+003, 4.180203e+002
1.281905e+003, 4.169499e+002
1.282387e+003, 4.177156e+002
1.282869e+003, 4.192927e+002
1.283352e+003, 4.201783e+002
1.283834e+003, 4.203913e+002
1.284316e+003, 4.199356e+002
1.284798e+003, 4.188306e+002
##END=



