##NAMES=Scottyite
##RRUFFID=R160006
##IDEAL CHEMISTRY=BaCu^2+^_2_Si_2_O_7_
##LOCALITY=Graulay Quarry, Eifel, Germany
##OWNER=RRUFF
##SOURCE=Bill Pinch
##DESCRIPTION=Aggregates of granular crystals, associated with calcite and grey elongated tabular hedenbergite
##STATUS=The identification of this mineral has been confirmed by single-crystal X-ray diffraction.
##URL=rruff.info/R160006
8.813672e+001, 3.590298e+003
8.861884e+001, 3.632935e+003
8.910095e+001, 3.677023e+003
8.958307e+001, 3.737825e+003
9.006519e+001, 3.811181e+003
9.054730e+001, 3.882407e+003
9.102942e+001, 3.956514e+003
9.151154e+001, 4.023457e+003
9.199365e+001, 4.069064e+003
9.247577e+001, 4.097437e+003
9.295789e+001, 4.123879e+003
9.344000e+001, 4.159974e+003
9.392212e+001, 4.199122e+003
9.440424e+001, 4.233342e+003
9.488635e+001, 4.266598e+003
9.536847e+001, 4.300286e+003
9.585059e+001, 4.333933e+003
9.633270e+001, 4.367137e+003
9.681482e+001, 4.401698e+003
9.729694e+001, 4.437654e+003
9.777905e+001, 4.475093e+003
9.826117e+001, 4.518142e+003
9.874329e+001, 4.569542e+003
9.922540e+001, 4.627385e+003
9.970752e+001, 4.680202e+003
1.001896e+002, 4.726224e+003
1.006718e+002, 4.768906e+003
1.011539e+002, 4.811818e+003
1.016360e+002, 4.855072e+003
1.021181e+002, 4.899358e+003
1.026002e+002, 4.944132e+003
1.030823e+002, 4.988861e+003
1.035645e+002, 5.037615e+003
1.040466e+002, 5.092126e+003
1.045287e+002, 5.150090e+003
1.050108e+002, 5.208733e+003
1.054929e+002, 5.268421e+003
1.059750e+002, 5.328544e+003
1.064572e+002, 5.389385e+003
1.069393e+002, 5.456787e+003
1.074214e+002, 5.515467e+003
1.079035e+002, 5.562415e+003
1.083856e+002, 5.601167e+003
1.088677e+002, 5.641517e+003
1.093499e+002, 5.684592e+003
1.098320e+002, 5.729442e+003
1.103141e+002, 5.775632e+003
1.107962e+002, 5.823416e+003
1.112783e+002, 5.873398e+003
1.117604e+002, 5.926940e+003
1.122426e+002, 5.984028e+003
1.127247e+002, 6.040574e+003
1.132068e+002, 6.093891e+003
1.136889e+002, 6.147763e+003
1.141710e+002, 6.204243e+003
1.146531e+002, 6.269643e+003
1.151353e+002, 6.331853e+003
1.156174e+002, 6.385953e+003
1.160995e+002, 6.431636e+003
1.165816e+002, 6.480140e+003
1.170637e+002, 6.538491e+003
1.175458e+002, 6.600500e+003
1.180280e+002, 6.660221e+003
1.185101e+002, 6.708685e+003
1.189922e+002, 6.758326e+003
1.194743e+002, 6.817128e+003
1.199564e+002, 6.886641e+003
1.204385e+002, 6.957206e+003
1.209207e+002, 7.026708e+003
1.214028e+002, 7.092820e+003
1.218849e+002, 7.151320e+003
1.223670e+002, 7.204280e+003
1.228491e+002, 7.247147e+003
1.233312e+002, 7.271162e+003
1.238134e+002, 7.271409e+003
1.242955e+002, 7.268099e+003
1.247776e+002, 7.278561e+003
1.252597e+002, 7.301004e+003
1.257418e+002, 7.329240e+003
1.262239e+002, 7.359749e+003
1.267061e+002, 7.393893e+003
1.271882e+002, 7.433760e+003
1.276703e+002, 7.481481e+003
1.281524e+002, 7.532644e+003
1.286345e+002, 7.580901e+003
1.291166e+002, 7.626506e+003
1.295988e+002, 7.672567e+003
1.300809e+002, 7.722079e+003
1.305630e+002, 7.774107e+003
1.310451e+002, 7.824993e+003
1.315272e+002, 7.873135e+003
1.320093e+002, 7.919388e+003
1.324915e+002, 7.966791e+003
1.329736e+002, 8.015306e+003
1.334557e+002, 8.063319e+003
1.339378e+002, 8.107614e+003
1.344199e+002, 8.148248e+003
1.349020e+002, 8.190531e+003
1.353842e+002, 8.236340e+003
1.358663e+002, 8.284034e+003
1.363484e+002, 8.330393e+003
1.368305e+002, 8.374896e+003
1.373126e+002, 8.418551e+003
1.377947e+002, 8.462755e+003
1.382769e+002, 8.508459e+003
1.387590e+002, 8.550034e+003
1.392411e+002, 8.585705e+003
1.397232e+002, 8.615818e+003
1.402053e+002, 8.640013e+003
1.406874e+002, 8.657723e+003
1.411696e+002, 8.671179e+003
1.416517e+002, 8.682814e+003
1.421338e+002, 8.692452e+003
1.426159e+002, 8.701997e+003
1.430980e+002, 8.713167e+003
1.435801e+002, 8.727543e+003
1.440623e+002, 8.737097e+003
1.445444e+002, 8.740069e+003
1.450265e+002, 8.739893e+003
1.455086e+002, 8.742029e+003
1.459907e+002, 8.747311e+003
1.464728e+002, 8.754487e+003
1.469550e+002, 8.763781e+003
1.474371e+002, 8.777209e+003
1.479192e+002, 8.788223e+003
1.484013e+002, 8.793473e+003
1.488834e+002, 8.796629e+003
1.493655e+002, 8.805927e+003
1.498477e+002, 8.824277e+003
1.503298e+002, 8.846146e+003
1.508119e+002, 8.869759e+003
1.512940e+002, 8.899764e+003
1.517761e+002, 8.924576e+003
1.522583e+002, 8.940566e+003
1.527404e+002, 8.950370e+003
1.532225e+002, 8.961605e+003
1.537046e+002, 8.972409e+003
1.541867e+002, 8.986405e+003
1.546688e+002, 9.005257e+003
1.551510e+002, 9.032735e+003
1.556331e+002, 9.061076e+003
1.561152e+002, 9.090327e+003
1.565973e+002, 9.119916e+003
1.570794e+002, 9.146818e+003
1.575615e+002, 9.172379e+003
1.580437e+002, 9.194247e+003
1.585258e+002, 9.211131e+003
1.590079e+002, 9.228479e+003
1.594900e+002, 9.234947e+003
1.599721e+002, 9.225128e+003
1.604542e+002, 9.200606e+003
1.609364e+002, 9.170407e+003
1.614185e+002, 9.135551e+003
1.619006e+002, 9.097438e+003
1.623827e+002, 9.057184e+003
1.628648e+002, 9.008546e+003
1.633469e+002, 8.963574e+003
1.638291e+002, 8.927604e+003
1.643112e+002, 8.900574e+003
1.647933e+002, 8.878300e+003
1.652754e+002, 8.858811e+003
1.657575e+002, 8.843031e+003
1.662396e+002, 8.831935e+003
1.667218e+002, 8.828717e+003
1.672039e+002, 8.828135e+003
1.676860e+002, 8.826251e+003
1.681681e+002, 8.823175e+003
1.686502e+002, 8.822736e+003
1.691323e+002, 8.829775e+003
1.696145e+002, 8.840486e+003
1.700966e+002, 8.849645e+003
1.705787e+002, 8.856364e+003
1.710608e+002, 8.859970e+003
1.715429e+002, 8.857813e+003
1.720250e+002, 8.849577e+003
1.725072e+002, 8.843178e+003
1.729893e+002, 8.847875e+003
1.734714e+002, 8.858487e+003
1.739535e+002, 8.865415e+003
1.744356e+002, 8.864629e+003
1.749177e+002, 8.857808e+003
1.753999e+002, 8.845343e+003
1.758820e+002, 8.826604e+003
1.763641e+002, 8.807231e+003
1.768462e+002, 8.790234e+003
1.773283e+002, 8.775972e+003
1.778104e+002, 8.765452e+003
1.782926e+002, 8.760713e+003
1.787747e+002, 8.759511e+003
1.792568e+002, 8.758728e+003
1.797389e+002, 8.758267e+003
1.802210e+002, 8.757293e+003
1.807031e+002, 8.753589e+003
1.811853e+002, 8.748109e+003
1.816674e+002, 8.744645e+003
1.821495e+002, 8.747208e+003
1.826316e+002, 8.753127e+003
1.831137e+002, 8.755797e+003
1.835958e+002, 8.754614e+003
1.840780e+002, 8.751845e+003
1.845601e+002, 8.750960e+003
1.850422e+002, 8.751655e+003
1.855243e+002, 8.750951e+003
1.860064e+002, 8.745176e+003
1.864885e+002, 8.736544e+003
1.869707e+002, 8.733608e+003
1.874528e+002, 8.737968e+003
1.879349e+002, 8.745256e+003
1.884170e+002, 8.748386e+003
1.888991e+002, 8.747625e+003
1.893812e+002, 8.747579e+003
1.898634e+002, 8.753060e+003
1.903455e+002, 8.762372e+003
1.908276e+002, 8.764307e+003
1.913097e+002, 8.756429e+003
1.917918e+002, 8.744350e+003
1.922739e+002, 8.737139e+003
1.927561e+002, 8.734694e+003
1.932382e+002, 8.735268e+003
1.937203e+002, 8.738622e+003
1.942024e+002, 8.744487e+003
1.946845e+002, 8.750744e+003
1.951666e+002, 8.757929e+003
1.956488e+002, 8.764220e+003
1.961309e+002, 8.764595e+003
1.966130e+002, 8.758217e+003
1.970951e+002, 8.753122e+003
1.975772e+002, 8.755224e+003
1.980593e+002, 8.764681e+003
1.985415e+002, 8.771136e+003
1.990236e+002, 8.773604e+003
1.995057e+002, 8.773154e+003
1.999878e+002, 8.771525e+003
2.004699e+002, 8.768393e+003
2.009520e+002, 8.765736e+003
2.014342e+002, 8.764719e+003
2.019163e+002, 8.765397e+003
2.023984e+002, 8.766936e+003
2.028805e+002, 8.769447e+003
2.033626e+002, 8.772603e+003
2.038447e+002, 8.775558e+003
2.043269e+002, 8.778189e+003
2.048090e+002, 8.780982e+003
2.052911e+002, 8.784043e+003
2.057732e+002, 8.787281e+003
2.062553e+002, 8.791784e+003
2.067374e+002, 8.798669e+003
2.072196e+002, 8.806212e+003
2.077017e+002, 8.808647e+003
2.081838e+002, 8.803825e+003
2.086659e+002, 8.799932e+003
2.091480e+002, 8.802729e+003
2.096301e+002, 8.814532e+003
2.101123e+002, 8.822283e+003
2.105944e+002, 8.823776e+003
2.110765e+002, 8.821637e+003
2.115586e+002, 8.823420e+003
2.120407e+002, 8.829976e+003
2.125228e+002, 8.838590e+003
2.130050e+002, 8.847926e+003
2.134871e+002, 8.858075e+003
2.139692e+002, 8.868912e+003
2.144513e+002, 8.882479e+003
2.149334e+002, 8.895845e+003
2.154155e+002, 8.899309e+003
2.158977e+002, 8.888067e+003
2.163798e+002, 8.876043e+003
2.168619e+002, 8.871040e+003
2.173440e+002, 8.875371e+003
2.178261e+002, 8.879243e+003
2.183082e+002, 8.882440e+003
2.187904e+002, 8.884692e+003
2.192725e+002, 8.884557e+003
2.197546e+002, 8.879665e+003
2.202367e+002, 8.876583e+003
2.207188e+002, 8.880140e+003
2.212009e+002, 8.895853e+003
2.216831e+002, 8.903299e+003
2.221652e+002, 8.899419e+003
2.226473e+002, 8.887819e+003
2.231294e+002, 8.878938e+003
2.236115e+002, 8.873842e+003
2.240936e+002, 8.869996e+003
2.245758e+002, 8.866238e+003
2.250579e+002, 8.862535e+003
2.255400e+002, 8.859432e+003
2.260221e+002, 8.856755e+003
2.265042e+002, 8.854865e+003
2.269863e+002, 8.854916e+003
2.274685e+002, 8.858005e+003
2.279506e+002, 8.861335e+003
2.284327e+002, 8.863389e+003
2.289148e+002, 8.862741e+003
2.293969e+002, 8.863897e+003
2.298790e+002, 8.866794e+003
2.303612e+002, 8.871376e+003
2.308433e+002, 8.877735e+003
2.313254e+002, 8.886612e+003
2.318075e+002, 8.895969e+003
2.322896e+002, 8.905000e+003
2.327717e+002, 8.913757e+003
2.332539e+002, 8.921634e+003
2.337360e+002, 8.927979e+003
2.342181e+002, 8.933365e+003
2.347002e+002, 8.939150e+003
2.351823e+002, 8.944965e+003
2.356644e+002, 8.951442e+003
2.361466e+002, 8.959206e+003
2.366287e+002, 8.969641e+003
2.371108e+002, 8.977385e+003
2.375929e+002, 8.982301e+003
2.380750e+002, 8.984467e+003
2.385571e+002, 8.983593e+003
2.390393e+002, 8.977720e+003
2.395214e+002, 8.972073e+003
2.400035e+002, 8.968916e+003
2.404856e+002, 8.969747e+003
2.409677e+002, 8.968768e+003
2.414498e+002, 8.964991e+003
2.419320e+002, 8.960213e+003
2.424141e+002, 8.957512e+003
2.428962e+002, 8.957824e+003
2.433783e+002, 8.959157e+003
2.438604e+002, 8.961475e+003
2.443425e+002, 8.965959e+003
2.448247e+002, 8.967385e+003
2.453068e+002, 8.964071e+003
2.457889e+002, 8.958869e+003
2.462710e+002, 8.956290e+003
2.467531e+002, 8.957559e+003
2.472352e+002, 8.959187e+003
2.477174e+002, 8.959794e+003
2.481995e+002, 8.958708e+003
2.486816e+002, 8.959422e+003
2.491637e+002, 8.962058e+003
2.496458e+002, 8.966209e+003
2.501279e+002, 8.971389e+003
2.506101e+002, 8.977918e+003
2.510922e+002, 8.984715e+003
2.515743e+002, 8.991269e+003
2.520564e+002, 8.997429e+003
2.525385e+002, 9.004780e+003
2.530206e+002, 9.014972e+003
2.535028e+002, 9.024874e+003
2.539849e+002, 9.030100e+003
2.544670e+002, 9.028476e+003
2.549491e+002, 9.027120e+003
2.554312e+002, 9.028127e+003
2.559133e+002, 9.031748e+003
2.563955e+002, 9.033282e+003
2.568776e+002, 9.031199e+003
2.573597e+002, 9.028740e+003
2.578418e+002, 9.029543e+003
2.583239e+002, 9.034975e+003
2.588061e+002, 9.040244e+003
2.592882e+002, 9.044323e+003
2.597703e+002, 9.047224e+003
2.602524e+002, 9.050552e+003
2.607345e+002, 9.055052e+003
2.612166e+002, 9.058993e+003
2.616988e+002, 9.060040e+003
2.621809e+002, 9.055873e+003
2.626630e+002, 9.055880e+003
2.631451e+002, 9.063771e+003
2.636272e+002, 9.078203e+003
2.641093e+002, 9.085362e+003
2.645915e+002, 9.082723e+003
2.650736e+002, 9.077588e+003
2.655557e+002, 9.076314e+003
2.660378e+002, 9.081036e+003
2.665199e+002, 9.081953e+003
2.670020e+002, 9.075569e+003
2.674842e+002, 9.064339e+003
2.679663e+002, 9.061465e+003
2.684484e+002, 9.068998e+003
2.689305e+002, 9.080000e+003
2.694126e+002, 9.089913e+003
2.698947e+002, 9.098597e+003
2.703769e+002, 9.107466e+003
2.708590e+002, 9.117964e+003
2.713411e+002, 9.128146e+003
2.718232e+002, 9.130235e+003
2.723053e+002, 9.121720e+003
2.727874e+002, 9.112628e+003
2.732696e+002, 9.109072e+003
2.737517e+002, 9.111907e+003
2.742338e+002, 9.114703e+003
2.747159e+002, 9.117042e+003
2.751980e+002, 9.119202e+003
2.756801e+002, 9.122005e+003
2.761623e+002, 9.125775e+003
2.766444e+002, 9.129047e+003
2.771265e+002, 9.130813e+003
2.776086e+002, 9.130991e+003
2.780907e+002, 9.132446e+003
2.785728e+002, 9.136270e+003
2.790550e+002, 9.139890e+003
2.795371e+002, 9.136401e+003
2.800192e+002, 9.124347e+003
2.805013e+002, 9.117052e+003
2.809834e+002, 9.123732e+003
2.814655e+002, 9.143811e+003
2.819477e+002, 9.154393e+003
2.824298e+002, 9.152855e+003
2.829119e+002, 9.148108e+003
2.833940e+002, 9.153315e+003
2.838761e+002, 9.168598e+003
2.843582e+002, 9.183872e+003
2.848404e+002, 9.195958e+003
2.853225e+002, 9.204792e+003
2.858046e+002, 9.210032e+003
2.862867e+002, 9.211229e+003
2.867688e+002, 9.210431e+003
2.872509e+002, 9.208955e+003
2.877331e+002, 9.206982e+003
2.882152e+002, 9.207017e+003
2.886973e+002, 9.211123e+003
2.891794e+002, 9.217645e+003
2.896615e+002, 9.220899e+003
2.901436e+002, 9.220893e+003
2.906258e+002, 9.219465e+003
2.911079e+002, 9.217037e+003
2.915900e+002, 9.214306e+003
2.920721e+002, 9.214822e+003
2.925542e+002, 9.220794e+003
2.930363e+002, 9.229563e+003
2.935185e+002, 9.234783e+003
2.940006e+002, 9.236629e+003
2.944827e+002, 9.239641e+003
2.949648e+002, 9.247551e+003
2.954469e+002, 9.259509e+003
2.959290e+002, 9.272824e+003
2.964112e+002, 9.287296e+003
2.968933e+002, 9.302401e+003
2.973754e+002, 9.317162e+003
2.978575e+002, 9.331513e+003
2.983396e+002, 9.345980e+003
2.988217e+002, 9.361235e+003
2.993039e+002, 9.376607e+003
2.997860e+002, 9.390063e+003
3.002681e+002, 9.400823e+003
3.007502e+002, 9.411353e+003
3.012323e+002, 9.426563e+003
3.017144e+002, 9.444582e+003
3.021966e+002, 9.458203e+003
3.026787e+002, 9.461526e+003
3.031608e+002, 9.459232e+003
3.036429e+002, 9.458025e+003
3.041250e+002, 9.458763e+003
3.046071e+002, 9.458213e+003
3.050893e+002, 9.451112e+003
3.055714e+002, 9.440514e+003
3.060535e+002, 9.433059e+003
3.065356e+002, 9.432896e+003
3.070177e+002, 9.436428e+003
3.074998e+002, 9.440922e+003
3.079820e+002, 9.446347e+003
3.084641e+002, 9.451579e+003
3.089462e+002, 9.455368e+003
3.094283e+002, 9.458716e+003
3.099104e+002, 9.462931e+003
3.103925e+002, 9.470179e+003
3.108747e+002, 9.477282e+003
3.113568e+002, 9.481511e+003
3.118389e+002, 9.483307e+003
3.123210e+002, 9.485487e+003
3.128031e+002, 9.492473e+003
3.132852e+002, 9.499378e+003
3.137674e+002, 9.501282e+003
3.142495e+002, 9.493479e+003
3.147316e+002, 9.484800e+003
3.152137e+002, 9.480546e+003
3.156958e+002, 9.479159e+003
3.161779e+002, 9.475515e+003
3.166601e+002, 9.466189e+003
3.171422e+002, 9.454534e+003
3.176243e+002, 9.442071e+003
3.181064e+002, 9.427066e+003
3.185885e+002, 9.415536e+003
3.190706e+002, 9.413691e+003
3.195528e+002, 9.416373e+003
3.200349e+002, 9.413630e+003
3.205170e+002, 9.394313e+003
3.209991e+002, 9.375751e+003
3.214812e+002, 9.366173e+003
3.219633e+002, 9.368731e+003
3.224455e+002, 9.371278e+003
3.229276e+002, 9.371059e+003
3.234097e+002, 9.369675e+003
3.238918e+002, 9.369090e+003
3.243739e+002, 9.370850e+003
3.248560e+002, 9.372360e+003
3.253382e+002, 9.373480e+003
3.258203e+002, 9.374435e+003
3.263024e+002, 9.373427e+003
3.267845e+002, 9.367931e+003
3.272666e+002, 9.361880e+003
3.277487e+002, 9.358420e+003
3.282309e+002, 9.361528e+003
3.287130e+002, 9.362682e+003
3.291951e+002, 9.359810e+003
3.296772e+002, 9.353502e+003
3.301593e+002, 9.349748e+003
3.306414e+002, 9.350396e+003
3.311236e+002, 9.351764e+003
3.316057e+002, 9.351422e+003
3.320878e+002, 9.345179e+003
3.325699e+002, 9.344904e+003
3.330520e+002, 9.354897e+003
3.335341e+002, 9.370191e+003
3.340163e+002, 9.376231e+003
3.344984e+002, 9.367172e+003
3.349805e+002, 9.358416e+003
3.354626e+002, 9.357068e+003
3.359447e+002, 9.366064e+003
3.364268e+002, 9.371110e+003
3.369090e+002, 9.371291e+003
3.373911e+002, 9.368677e+003
3.378732e+002, 9.366104e+003
3.383553e+002, 9.363245e+003
3.388374e+002, 9.361999e+003
3.393195e+002, 9.363584e+003
3.398017e+002, 9.367928e+003
3.402838e+002, 9.370975e+003
3.407659e+002, 9.372484e+003
3.412480e+002, 9.373611e+003
3.417301e+002, 9.376542e+003
3.422122e+002, 9.381615e+003
3.426944e+002, 9.382448e+003
3.431765e+002, 9.374915e+003
3.436586e+002, 9.363298e+003
3.441407e+002, 9.364513e+003
3.446228e+002, 9.379546e+003
3.451049e+002, 9.395101e+003
3.455871e+002, 9.399108e+003
3.460692e+002, 9.393521e+003
3.465513e+002, 9.391906e+003
3.470334e+002, 9.396796e+003
3.475155e+002, 9.404716e+003
3.479977e+002, 9.409756e+003
3.484798e+002, 9.412293e+003
3.489619e+002, 9.415189e+003
3.494440e+002, 9.420973e+003
3.499261e+002, 9.428225e+003
3.504082e+002, 9.433845e+003
3.508904e+002, 9.437636e+003
3.513725e+002, 9.439990e+003
3.518546e+002, 9.438790e+003
3.523367e+002, 9.436235e+003
3.528188e+002, 9.438061e+003
3.533009e+002, 9.452068e+003
3.537831e+002, 9.468968e+003
3.542652e+002, 9.476762e+003
3.547473e+002, 9.475772e+003
3.552294e+002, 9.473753e+003
3.557115e+002, 9.476668e+003
3.561936e+002, 9.481851e+003
3.566758e+002, 9.485897e+003
3.571579e+002, 9.488275e+003
3.576400e+002, 9.488755e+003
3.581221e+002, 9.487307e+003
3.586042e+002, 9.483922e+003
3.590863e+002, 9.478449e+003
3.595685e+002, 9.469531e+003
3.600506e+002, 9.459384e+003
3.605327e+002, 9.449300e+003
3.610148e+002, 9.438900e+003
3.614969e+002, 9.430369e+003
3.619790e+002, 9.425574e+003
3.624612e+002, 9.423141e+003
3.629433e+002, 9.420624e+003
3.634254e+002, 9.416739e+003
3.639075e+002, 9.413017e+003
3.643896e+002, 9.410436e+003
3.648717e+002, 9.409294e+003
3.653539e+002, 9.406765e+003
3.658360e+002, 9.400312e+003
3.663181e+002, 9.393034e+003
3.668002e+002, 9.387634e+003
3.672823e+002, 9.381381e+003
3.677644e+002, 9.380167e+003
3.682466e+002, 9.389662e+003
3.687287e+002, 9.408162e+003
3.692108e+002, 9.415971e+003
3.696929e+002, 9.404009e+003
3.701750e+002, 9.389384e+003
3.706571e+002, 9.381021e+003
3.711393e+002, 9.384002e+003
3.716214e+002, 9.384303e+003
3.721035e+002, 9.380299e+003
3.725856e+002, 9.374154e+003
3.730677e+002, 9.370804e+003
3.735498e+002, 9.371099e+003
3.740320e+002, 9.372729e+003
3.745141e+002, 9.375730e+003
3.749962e+002, 9.380724e+003
3.754783e+002, 9.381215e+003
3.759604e+002, 9.375349e+003
3.764425e+002, 9.368036e+003
3.769247e+002, 9.365517e+003
3.774068e+002, 9.368558e+003
3.778889e+002, 9.371768e+003
3.783710e+002, 9.374302e+003
3.788531e+002, 9.375830e+003
3.793352e+002, 9.374324e+003
3.798174e+002, 9.369361e+003
3.802995e+002, 9.364255e+003
3.807816e+002, 9.361646e+003
3.812637e+002, 9.361324e+003
3.817458e+002, 9.361489e+003
3.822279e+002, 9.361610e+003
3.827101e+002, 9.362788e+003
3.831922e+002, 9.367924e+003
3.836743e+002, 9.376452e+003
3.841564e+002, 9.383996e+003
3.846385e+002, 9.387877e+003
3.851206e+002, 9.389277e+003
3.856028e+002, 9.390656e+003
3.860849e+002, 9.392190e+003
3.865670e+002, 9.393038e+003
3.870491e+002, 9.390474e+003
3.875312e+002, 9.386762e+003
3.880133e+002, 9.386460e+003
3.884955e+002, 9.393649e+003
3.889776e+002, 9.402857e+003
3.894597e+002, 9.409283e+003
3.899418e+002, 9.413167e+003
3.904239e+002, 9.416128e+003
3.909060e+002, 9.419372e+003
3.913882e+002, 9.422004e+003
3.918703e+002, 9.422673e+003
3.923524e+002, 9.419225e+003
3.928345e+002, 9.417825e+003
3.933166e+002, 9.424226e+003
3.937987e+002, 9.434666e+003
3.942809e+002, 9.441500e+003
3.947630e+002, 9.438927e+003
3.952451e+002, 9.435087e+003
3.957272e+002, 9.432910e+003
3.962093e+002, 9.432558e+003
3.966914e+002, 9.434464e+003
3.971736e+002, 9.441886e+003
3.976557e+002, 9.449994e+003
3.981378e+002, 9.454354e+003
3.986199e+002, 9.450505e+003
3.991020e+002, 9.447171e+003
3.995841e+002, 9.446126e+003
4.000663e+002, 9.446766e+003
4.005484e+002, 9.445079e+003
4.010305e+002, 9.438333e+003
4.015126e+002, 9.432265e+003
4.019947e+002, 9.430239e+003
4.024768e+002, 9.435871e+003
4.029590e+002, 9.437079e+003
4.034411e+002, 9.432082e+003
4.039232e+002, 9.424255e+003
4.044053e+002, 9.420036e+003
4.048874e+002, 9.421277e+003
4.053695e+002, 9.420862e+003
4.058517e+002, 9.415281e+003
4.063338e+002, 9.405291e+003
4.068159e+002, 9.400957e+003
4.072980e+002, 9.403185e+003
4.077801e+002, 9.408125e+003
4.082622e+002, 9.412627e+003
4.087444e+002, 9.416669e+003
4.092265e+002, 9.419815e+003
4.097086e+002, 9.421496e+003
4.101907e+002, 9.422626e+003
4.106728e+002, 9.425899e+003
4.111549e+002, 9.430931e+003
4.116371e+002, 9.434395e+003
4.121192e+002, 9.431924e+003
4.126013e+002, 9.426587e+003
4.130834e+002, 9.425662e+003
4.135655e+002, 9.430024e+003
4.140476e+002, 9.435767e+003
4.145298e+002, 9.439384e+003
4.150119e+002, 9.441572e+003
4.154940e+002, 9.443870e+003
4.159761e+002, 9.447706e+003
4.164582e+002, 9.451300e+003
4.169403e+002, 9.453062e+003
4.174225e+002, 9.453203e+003
4.179046e+002, 9.452662e+003
4.183867e+002, 9.452438e+003
4.188688e+002, 9.451657e+003
4.193509e+002, 9.449512e+003
4.198330e+002, 9.445390e+003
4.203152e+002, 9.441095e+003
4.207973e+002, 9.435900e+003
4.212794e+002, 9.431252e+003
4.217615e+002, 9.429677e+003
4.222436e+002, 9.436580e+003
4.227257e+002, 9.442374e+003
4.232079e+002, 9.443231e+003
4.236900e+002, 9.438285e+003
4.241721e+002, 9.434329e+003
4.246542e+002, 9.430746e+003
4.251363e+002, 9.429010e+003
4.256184e+002, 9.430146e+003
4.261006e+002, 9.434342e+003
4.265827e+002, 9.441088e+003
4.270648e+002, 9.452374e+003
4.275469e+002, 9.465931e+003
4.280290e+002, 9.473386e+003
4.285111e+002, 9.472298e+003
4.289933e+002, 9.469429e+003
4.294754e+002, 9.467319e+003
4.299575e+002, 9.465856e+003
4.304396e+002, 9.465186e+003
4.309217e+002, 9.465536e+003
4.314038e+002, 9.465902e+003
4.318860e+002, 9.464751e+003
4.323681e+002, 9.462032e+003
4.328502e+002, 9.459908e+003
4.333323e+002, 9.459119e+003
4.338144e+002, 9.459418e+003
4.342965e+002, 9.460235e+003
4.347787e+002, 9.461705e+003
4.352608e+002, 9.463416e+003
4.357429e+002, 9.466443e+003
4.362250e+002, 9.469634e+003
4.367071e+002, 9.469042e+003
4.371892e+002, 9.463459e+003
4.376714e+002, 9.457910e+003
4.381535e+002, 9.457246e+003
4.386356e+002, 9.460753e+003
4.391177e+002, 9.466850e+003
4.395998e+002, 9.478670e+003
4.400819e+002, 9.489966e+003
4.405641e+002, 9.493838e+003
4.410462e+002, 9.490892e+003
4.415283e+002, 9.488979e+003
4.420104e+002, 9.491947e+003
4.424925e+002, 9.497817e+003
4.429746e+002, 9.505179e+003
4.434568e+002, 9.515152e+003
4.439389e+002, 9.523770e+003
4.444210e+002, 9.527433e+003
4.449031e+002, 9.529073e+003
4.453852e+002, 9.534371e+003
4.458673e+002, 9.550622e+003
4.463495e+002, 9.564787e+003
4.468316e+002, 9.571978e+003
4.473137e+002, 9.570847e+003
4.477958e+002, 9.572403e+003
4.482779e+002, 9.577134e+003
4.487600e+002, 9.584354e+003
4.492422e+002, 9.593849e+003
4.497243e+002, 9.607183e+003
4.502064e+002, 9.619993e+003
4.506885e+002, 9.632696e+003
4.511706e+002, 9.644566e+003
4.516527e+002, 9.652604e+003
4.521349e+002, 9.655436e+003
4.526170e+002, 9.659215e+003
4.530991e+002, 9.665537e+003
4.535812e+002, 9.674567e+003
4.540633e+002, 9.690730e+003
4.545454e+002, 9.715329e+003
4.550276e+002, 9.741028e+003
4.555097e+002, 9.760826e+003
4.559918e+002, 9.774989e+003
4.564739e+002, 9.783887e+003
4.569560e+002, 9.786698e+003
4.574381e+002, 9.785784e+003
4.579203e+002, 9.785429e+003
4.584024e+002, 9.785002e+003
4.588845e+002, 9.781443e+003
4.593666e+002, 9.773224e+003
4.598488e+002, 9.760755e+003
4.603309e+002, 9.743766e+003
4.608130e+002, 9.722089e+003
4.612951e+002, 9.699196e+003
4.617772e+002, 9.676519e+003
4.622593e+002, 9.654748e+003
4.627415e+002, 9.635139e+003
4.632236e+002, 9.618528e+003
4.637057e+002, 9.603764e+003
4.641878e+002, 9.591896e+003
4.646699e+002, 9.582045e+003
4.651520e+002, 9.570683e+003
4.656342e+002, 9.552115e+003
4.661163e+002, 9.536228e+003
4.665984e+002, 9.527978e+003
4.670805e+002, 9.531002e+003
4.675626e+002, 9.532651e+003
4.680447e+002, 9.533021e+003
4.685269e+002, 9.531729e+003
4.690090e+002, 9.527854e+003
4.694911e+002, 9.518144e+003
4.699732e+002, 9.512193e+003
4.704553e+002, 9.512485e+003
4.709374e+002, 9.517413e+003
4.714196e+002, 9.520101e+003
4.719017e+002, 9.519861e+003
4.723838e+002, 9.519041e+003
4.728659e+002, 9.517880e+003
4.733480e+002, 9.516297e+003
4.738301e+002, 9.519490e+003
4.743123e+002, 9.528566e+003
4.747944e+002, 9.538035e+003
4.752765e+002, 9.540439e+003
4.757586e+002, 9.536963e+003
4.762407e+002, 9.534021e+003
4.767228e+002, 9.534038e+003
4.772050e+002, 9.535100e+003
4.776871e+002, 9.534512e+003
4.781692e+002, 9.532482e+003
4.786513e+002, 9.529729e+003
4.791334e+002, 9.525474e+003
4.796155e+002, 9.521567e+003
4.800977e+002, 9.520141e+003
4.805798e+002, 9.521692e+003
4.810619e+002, 9.524626e+003
4.815440e+002, 9.529463e+003
4.820261e+002, 9.534710e+003
4.825082e+002, 9.538650e+003
4.829904e+002, 9.541382e+003
4.834725e+002, 9.542138e+003
4.839546e+002, 9.538484e+003
4.844367e+002, 9.531925e+003
4.849188e+002, 9.529116e+003
4.854009e+002, 9.534097e+003
4.858831e+002, 9.540034e+003
4.863652e+002, 9.543932e+003
4.868473e+002, 9.544479e+003
4.873294e+002, 9.547041e+003
4.878115e+002, 9.552421e+003
4.882936e+002, 9.558743e+003
4.887758e+002, 9.564250e+003
4.892579e+002, 9.568865e+003
4.897400e+002, 9.572598e+003
4.902221e+002, 9.575788e+003
4.907042e+002, 9.577797e+003
4.911863e+002, 9.575744e+003
4.916685e+002, 9.569202e+003
4.921506e+002, 9.563294e+003
4.926327e+002, 9.561255e+003
4.931148e+002, 9.562486e+003
4.935969e+002, 9.565106e+003
4.940790e+002, 9.569581e+003
4.945612e+002, 9.571957e+003
4.950433e+002, 9.565916e+003
4.955254e+002, 9.555221e+003
4.960075e+002, 9.547904e+003
4.964896e+002, 9.547253e+003
4.969717e+002, 9.549452e+003
4.974539e+002, 9.551810e+003
4.979360e+002, 9.554293e+003
4.984181e+002, 9.556672e+003
4.989002e+002, 9.557213e+003
4.993823e+002, 9.558757e+003
4.998644e+002, 9.563743e+003
5.003466e+002, 9.572550e+003
5.008287e+002, 9.580015e+003
5.013108e+002, 9.582448e+003
5.017929e+002, 9.583850e+003
5.022750e+002, 9.587224e+003
5.027571e+002, 9.594443e+003
5.032393e+002, 9.601541e+003
5.037214e+002, 9.610661e+003
5.042035e+002, 9.618896e+003
5.046856e+002, 9.619546e+003
5.051677e+002, 9.607922e+003
5.056498e+002, 9.597300e+003
5.061320e+002, 9.592016e+003
5.066141e+002, 9.591864e+003
5.070962e+002, 9.590724e+003
5.075783e+002, 9.588326e+003
5.080604e+002, 9.586388e+003
5.085425e+002, 9.587501e+003
5.090247e+002, 9.591332e+003
5.095068e+002, 9.591967e+003
5.099889e+002, 9.588449e+003
5.104710e+002, 9.582830e+003
5.109531e+002, 9.575965e+003
5.114352e+002, 9.568967e+003
5.119174e+002, 9.565856e+003
5.123995e+002, 9.572018e+003
5.128816e+002, 9.580450e+003
5.133637e+002, 9.582598e+003
5.138458e+002, 9.579251e+003
5.143279e+002, 9.575554e+003
5.148101e+002, 9.571343e+003
5.152922e+002, 9.569751e+003
5.157743e+002, 9.574927e+003
5.162564e+002, 9.590444e+003
5.167385e+002, 9.601549e+003
5.172206e+002, 9.600041e+003
5.177028e+002, 9.592440e+003
5.181849e+002, 9.586172e+003
5.186670e+002, 9.580891e+003
5.191491e+002, 9.578869e+003
5.196312e+002, 9.582843e+003
5.201133e+002, 9.590902e+003
5.205955e+002, 9.594849e+003
5.210776e+002, 9.594188e+003
5.215597e+002, 9.590659e+003
5.220418e+002, 9.584093e+003
5.225239e+002, 9.574028e+003
5.230060e+002, 9.567426e+003
5.234882e+002, 9.564413e+003
5.239703e+002, 9.564843e+003
5.244524e+002, 9.569928e+003
5.249345e+002, 9.579288e+003
5.254166e+002, 9.586951e+003
5.258987e+002, 9.591001e+003
5.263809e+002, 9.594403e+003
5.268630e+002, 9.603050e+003
5.273451e+002, 9.615535e+003
5.278272e+002, 9.626159e+003
5.283093e+002, 9.631750e+003
5.287914e+002, 9.633960e+003
5.292736e+002, 9.633332e+003
5.297557e+002, 9.630052e+003
5.302378e+002, 9.627713e+003
5.307199e+002, 9.627129e+003
5.312020e+002, 9.628896e+003
5.316841e+002, 9.634271e+003
5.321663e+002, 9.646661e+003
5.326484e+002, 9.655545e+003
5.331305e+002, 9.657893e+003
5.336126e+002, 9.655491e+003
5.340947e+002, 9.650847e+003
5.345768e+002, 9.639418e+003
5.350590e+002, 9.632028e+003
5.355411e+002, 9.631857e+003
5.360232e+002, 9.637754e+003
5.365053e+002, 9.642380e+003
5.369874e+002, 9.645738e+003
5.374695e+002, 9.648246e+003
5.379517e+002, 9.650726e+003
5.384338e+002, 9.653443e+003
5.389159e+002, 9.651093e+003
5.393980e+002, 9.642423e+003
5.398801e+002, 9.633628e+003
5.403622e+002, 9.632646e+003
5.408444e+002, 9.637928e+003
5.413265e+002, 9.641973e+003
5.418086e+002, 9.642301e+003
5.422907e+002, 9.642231e+003
5.427728e+002, 9.646902e+003
5.432549e+002, 9.654783e+003
5.437371e+002, 9.661510e+003
5.442192e+002, 9.664054e+003
5.447013e+002, 9.665125e+003
5.451834e+002, 9.665783e+003
5.456655e+002, 9.666310e+003
5.461476e+002, 9.669328e+003
5.466298e+002, 9.677253e+003
5.471119e+002, 9.687308e+003
5.475940e+002, 9.698191e+003
5.480761e+002, 9.712277e+003
5.485582e+002, 9.722154e+003
5.490403e+002, 9.722934e+003
5.495225e+002, 9.721588e+003
5.500046e+002, 9.726663e+003
5.504867e+002, 9.741616e+003
5.509688e+002, 9.756014e+003
5.514509e+002, 9.768159e+003
5.519330e+002, 9.778413e+003
5.524152e+002, 9.787230e+003
5.528973e+002, 9.794025e+003
5.533794e+002, 9.802422e+003
5.538615e+002, 9.816019e+003
5.543436e+002, 9.833185e+003
5.548257e+002, 9.845351e+003
5.553079e+002, 9.852243e+003
5.557900e+002, 9.856187e+003
5.562721e+002, 9.856856e+003
5.567542e+002, 9.856496e+003
5.572363e+002, 9.860040e+003
5.577184e+002, 9.870231e+003
5.582006e+002, 9.879726e+003
5.586827e+002, 9.883422e+003
5.591648e+002, 9.882480e+003
5.596469e+002, 9.878890e+003
5.601290e+002, 9.873949e+003
5.606111e+002, 9.866094e+003
5.610933e+002, 9.853311e+003
5.615754e+002, 9.836449e+003
5.620575e+002, 9.821111e+003
5.625396e+002, 9.807927e+003
5.630217e+002, 9.796578e+003
5.635038e+002, 9.787123e+003
5.639860e+002, 9.779956e+003
5.644681e+002, 9.772495e+003
5.649502e+002, 9.764599e+003
5.654323e+002, 9.756572e+003
5.659144e+002, 9.749046e+003
5.663965e+002, 9.742110e+003
5.668787e+002, 9.733814e+003
5.673608e+002, 9.723137e+003
5.678429e+002, 9.712688e+003
5.683250e+002, 9.708531e+003
5.688071e+002, 9.709533e+003
5.692892e+002, 9.709604e+003
5.697714e+002, 9.703794e+003
5.702535e+002, 9.697067e+003
5.707356e+002, 9.697456e+003
5.712177e+002, 9.703803e+003
5.716998e+002, 9.709369e+003
5.721819e+002, 9.709666e+003
5.726641e+002, 9.707946e+003
5.731462e+002, 9.706113e+003
5.736283e+002, 9.703921e+003
5.741104e+002, 9.703716e+003
5.745925e+002, 9.709463e+003
5.750746e+002, 9.715627e+003
5.755568e+002, 9.717135e+003
5.760389e+002, 9.706541e+003
5.765210e+002, 9.701239e+003
5.770031e+002, 9.705359e+003
5.774852e+002, 9.713729e+003
5.779673e+002, 9.715329e+003
5.784495e+002, 9.708317e+003
5.789316e+002, 9.700704e+003
5.794137e+002, 9.694732e+003
5.798958e+002, 9.690300e+003
5.803779e+002, 9.686209e+003
5.808600e+002, 9.682522e+003
5.813422e+002, 9.680080e+003
5.818243e+002, 9.680088e+003
5.823064e+002, 9.681708e+003
5.827885e+002, 9.682767e+003
5.832706e+002, 9.683018e+003
5.837527e+002, 9.683895e+003
5.842349e+002, 9.688580e+003
5.847170e+002, 9.693699e+003
5.851991e+002, 9.694750e+003
5.856812e+002, 9.688156e+003
5.861633e+002, 9.681207e+003
5.866454e+002, 9.675826e+003
5.871276e+002, 9.672183e+003
5.876097e+002, 9.670719e+003
5.880918e+002, 9.674099e+003
5.885739e+002, 9.676640e+003
5.890560e+002, 9.677248e+003
5.895381e+002, 9.676037e+003
5.900203e+002, 9.673628e+003
5.905024e+002, 9.669437e+003
5.909845e+002, 9.665396e+003
5.914666e+002, 9.662598e+003
5.919487e+002, 9.661143e+003
5.924308e+002, 9.659973e+003
5.929130e+002, 9.659111e+003
5.933951e+002, 9.659190e+003
5.938772e+002, 9.661600e+003
5.943593e+002, 9.665623e+003
5.948414e+002, 9.668488e+003
5.953235e+002, 9.669351e+003
5.958057e+002, 9.670243e+003
5.962878e+002, 9.673693e+003
5.967699e+002, 9.678559e+003
5.972520e+002, 9.682658e+003
5.977341e+002, 9.685378e+003
5.982162e+002, 9.686752e+003
5.986984e+002, 9.686528e+003
5.991805e+002, 9.684762e+003
5.996626e+002, 9.681943e+003
6.001447e+002, 9.675306e+003
6.006268e+002, 9.670138e+003
6.011089e+002, 9.668536e+003
6.015911e+002, 9.670683e+003
6.020732e+002, 9.673687e+003
6.025553e+002, 9.678563e+003
6.030374e+002, 9.682683e+003
6.035195e+002, 9.683871e+003
6.040016e+002, 9.681933e+003
6.044838e+002, 9.680318e+003
6.049659e+002, 9.679478e+003
6.054480e+002, 9.678377e+003
6.059301e+002, 9.674281e+003
6.064122e+002, 9.668463e+003
6.068943e+002, 9.666578e+003
6.073765e+002, 9.672552e+003
6.078586e+002, 9.678934e+003
6.083407e+002, 9.675968e+003
6.088228e+002, 9.666762e+003
6.093049e+002, 9.659043e+003
6.097870e+002, 9.657622e+003
6.102692e+002, 9.657338e+003
6.107513e+002, 9.655658e+003
6.112334e+002, 9.652538e+003
6.117155e+002, 9.648910e+003
6.121976e+002, 9.644212e+003
6.126797e+002, 9.639721e+003
6.131619e+002, 9.636176e+003
6.136440e+002, 9.633917e+003
6.141261e+002, 9.631213e+003
6.146082e+002, 9.628260e+003
6.150903e+002, 9.624628e+003
6.155724e+002, 9.619094e+003
6.160546e+002, 9.611537e+003
6.165367e+002, 9.606840e+003
6.170188e+002, 9.606064e+003
6.175009e+002, 9.607121e+003
6.179830e+002, 9.607626e+003
6.184651e+002, 9.607474e+003
6.189473e+002, 9.606217e+003
6.194294e+002, 9.602677e+003
6.199115e+002, 9.599052e+003
6.203936e+002, 9.597753e+003
6.208757e+002, 9.598114e+003
6.213578e+002, 9.598213e+003
6.218400e+002, 9.597165e+003
6.223221e+002, 9.595650e+003
6.228042e+002, 9.594059e+003
6.232863e+002, 9.592424e+003
6.237684e+002, 9.590418e+003
6.242505e+002, 9.587746e+003
6.247327e+002, 9.585026e+003
6.252148e+002, 9.582326e+003
6.256969e+002, 9.579169e+003
6.261790e+002, 9.578515e+003
6.266611e+002, 9.581212e+003
6.271432e+002, 9.584755e+003
6.276254e+002, 9.586925e+003
6.281075e+002, 9.587702e+003
6.285896e+002, 9.586218e+003
6.290717e+002, 9.581515e+003
6.295538e+002, 9.576718e+003
6.300359e+002, 9.576214e+003
6.305181e+002, 9.578919e+003
6.310002e+002, 9.582228e+003
6.314823e+002, 9.586622e+003
6.319644e+002, 9.589604e+003
6.324465e+002, 9.588412e+003
6.329286e+002, 9.584138e+003
6.334108e+002, 9.580337e+003
6.338929e+002, 9.577464e+003
6.343750e+002, 9.575920e+003
6.348571e+002, 9.577073e+003
6.353392e+002, 9.581193e+003
6.358214e+002, 9.581251e+003
6.363035e+002, 9.575057e+003
6.367856e+002, 9.568152e+003
6.372677e+002, 9.563774e+003
6.377498e+002, 9.562421e+003
6.382319e+002, 9.561099e+003
6.387141e+002, 9.560047e+003
6.391962e+002, 9.558515e+003
6.396783e+002, 9.554092e+003
6.401604e+002, 9.548240e+003
6.406425e+002, 9.547253e+003
6.411246e+002, 9.553450e+003
6.416068e+002, 9.560880e+003
6.420889e+002, 9.563521e+003
6.425710e+002, 9.563124e+003
6.430531e+002, 9.562640e+003
6.435352e+002, 9.565155e+003
6.440173e+002, 9.565644e+003
6.444995e+002, 9.558101e+003
6.449816e+002, 9.546524e+003
6.454637e+002, 9.542393e+003
6.459458e+002, 9.556826e+003
6.464279e+002, 9.568428e+003
6.469100e+002, 9.570969e+003
6.473922e+002, 9.565253e+003
6.478743e+002, 9.561875e+003
6.483564e+002, 9.560973e+003
6.488385e+002, 9.561779e+003
6.493206e+002, 9.563845e+003
6.498027e+002, 9.567198e+003
6.502849e+002, 9.572993e+003
6.507670e+002, 9.581425e+003
6.512491e+002, 9.588436e+003
6.517312e+002, 9.588387e+003
6.522133e+002, 9.585011e+003
6.526954e+002, 9.584768e+003
6.531776e+002, 9.589630e+003
6.536597e+002, 9.594252e+003
6.541418e+002, 9.595514e+003
6.546239e+002, 9.594733e+003
6.551060e+002, 9.593465e+003
6.555881e+002, 9.591720e+003
6.560703e+002, 9.589979e+003
6.565524e+002, 9.588041e+003
6.570345e+002, 9.586244e+003
6.575166e+002, 9.584968e+003
6.579987e+002, 9.583419e+003
6.584808e+002, 9.584615e+003
6.589630e+002, 9.590606e+003
6.594451e+002, 9.599202e+003
6.599272e+002, 9.601777e+003
6.604093e+002, 9.598324e+003
6.608914e+002, 9.596476e+003
6.613735e+002, 9.602232e+003
6.618557e+002, 9.611709e+003
6.623378e+002, 9.617932e+003
6.628199e+002, 9.621170e+003
6.633020e+002, 9.623686e+003
6.637841e+002, 9.625507e+003
6.642662e+002, 9.628279e+003
6.647484e+002, 9.633311e+003
6.652305e+002, 9.640830e+003
6.657126e+002, 9.650094e+003
6.661947e+002, 9.662973e+003
6.666768e+002, 9.676097e+003
6.671589e+002, 9.687094e+003
6.676411e+002, 9.695282e+003
6.681232e+002, 9.702018e+003
6.686053e+002, 9.705447e+003
6.690874e+002, 9.709741e+003
6.695695e+002, 9.721975e+003
6.700516e+002, 9.742003e+003
6.705338e+002, 9.758207e+003
6.710159e+002, 9.768132e+003
6.714980e+002, 9.773585e+003
6.719801e+002, 9.776078e+003
6.724622e+002, 9.776178e+003
6.729443e+002, 9.775417e+003
6.734265e+002, 9.775292e+003
6.739086e+002, 9.773825e+003
6.743907e+002, 9.769592e+003
6.748728e+002, 9.762993e+003
6.753549e+002, 9.755207e+003
6.758370e+002, 9.746000e+003
6.763192e+002, 9.736307e+003
6.768013e+002, 9.727206e+003
6.772834e+002, 9.718503e+003
6.777655e+002, 9.706859e+003
6.782476e+002, 9.690192e+003
6.787297e+002, 9.675205e+003
6.792119e+002, 9.666909e+003
6.796940e+002, 9.664690e+003
6.801761e+002, 9.656366e+003
6.806582e+002, 9.641396e+003
6.811403e+002, 9.625905e+003
6.816224e+002, 9.615425e+003
6.821046e+002, 9.607868e+003
6.825867e+002, 9.599007e+003
6.830688e+002, 9.587807e+003
6.835509e+002, 9.578627e+003
6.840330e+002, 9.574535e+003
6.845151e+002, 9.573811e+003
6.849973e+002, 9.574994e+003
6.854794e+002, 9.581515e+003
6.859615e+002, 9.583642e+003
6.864436e+002, 9.575288e+003
6.869257e+002, 9.563978e+003
6.874078e+002, 9.558918e+003
6.878900e+002, 9.563280e+003
6.883721e+002, 9.565371e+003
6.888542e+002, 9.562907e+003
6.893363e+002, 9.558239e+003
6.898184e+002, 9.556587e+003
6.903005e+002, 9.557687e+003
6.907827e+002, 9.557739e+003
6.912648e+002, 9.554571e+003
6.917469e+002, 9.550308e+003
6.922290e+002, 9.547688e+003
6.927111e+002, 9.546472e+003
6.931932e+002, 9.546122e+003
6.936754e+002, 9.545692e+003
6.941575e+002, 9.546502e+003
6.946396e+002, 9.549782e+003
6.951217e+002, 9.555265e+003
6.956038e+002, 9.560324e+003
6.960859e+002, 9.566281e+003
6.965681e+002, 9.569578e+003
6.970502e+002, 9.567701e+003
6.975323e+002, 9.560299e+003
6.980144e+002, 9.557854e+003
6.984965e+002, 9.562037e+003
6.989786e+002, 9.565409e+003
6.994608e+002, 9.560464e+003
6.999429e+002, 9.549650e+003
7.004250e+002, 9.545237e+003
7.009071e+002, 9.548338e+003
7.013892e+002, 9.550858e+003
7.018713e+002, 9.543546e+003
7.023535e+002, 9.532512e+003
7.028356e+002, 9.525421e+003
7.033177e+002, 9.524573e+003
7.037998e+002, 9.525286e+003
7.042819e+002, 9.525848e+003
7.047640e+002, 9.526932e+003
7.052462e+002, 9.529386e+003
7.057283e+002, 9.534827e+003
7.062104e+002, 9.538744e+003
7.066925e+002, 9.540946e+003
7.071746e+002, 9.541443e+003
7.076567e+002, 9.539919e+003
7.081389e+002, 9.536239e+003
7.086210e+002, 9.532228e+003
7.091031e+002, 9.528094e+003
7.095852e+002, 9.524146e+003
7.100673e+002, 9.520662e+003
7.105494e+002, 9.517806e+003
7.110316e+002, 9.515918e+003
7.115137e+002, 9.515260e+003
7.119958e+002, 9.515629e+003
7.124779e+002, 9.516715e+003
7.129600e+002, 9.518729e+003
7.134421e+002, 9.522237e+003
7.139243e+002, 9.531891e+003
7.144064e+002, 9.538185e+003
7.148885e+002, 9.536722e+003
7.153706e+002, 9.528768e+003
7.158527e+002, 9.524731e+003
7.163348e+002, 9.525862e+003
7.168170e+002, 9.527069e+003
7.172991e+002, 9.525628e+003
7.177812e+002, 9.522129e+003
7.182633e+002, 9.519478e+003
7.187454e+002, 9.517620e+003
7.192275e+002, 9.516931e+003
7.197097e+002, 9.519080e+003
7.201918e+002, 9.521737e+003
7.206739e+002, 9.521590e+003
7.211560e+002, 9.518395e+003
7.216381e+002, 9.515904e+003
7.221202e+002, 9.515619e+003
7.226024e+002, 9.516938e+003
7.230845e+002, 9.520188e+003
7.235666e+002, 9.527337e+003
7.240487e+002, 9.529878e+003
7.245308e+002, 9.525115e+003
7.250129e+002, 9.519450e+003
7.254951e+002, 9.518426e+003
7.259772e+002, 9.522290e+003
7.264593e+002, 9.526334e+003
7.269414e+002, 9.530386e+003
7.274235e+002, 9.533714e+003
7.279056e+002, 9.535591e+003
7.283878e+002, 9.536026e+003
7.288699e+002, 9.534662e+003
7.293520e+002, 9.530482e+003
7.298341e+002, 9.527052e+003
7.303162e+002, 9.526940e+003
7.307983e+002, 9.528922e+003
7.312805e+002, 9.531440e+003
7.317626e+002, 9.535427e+003
7.322447e+002, 9.538334e+003
7.327268e+002, 9.540036e+003
7.332089e+002, 9.540612e+003
7.336910e+002, 9.539933e+003
7.341732e+002, 9.537676e+003
7.346553e+002, 9.535970e+003
7.351374e+002, 9.535363e+003
7.356195e+002, 9.535502e+003
7.361016e+002, 9.535249e+003
7.365837e+002, 9.534964e+003
7.370659e+002, 9.536316e+003
7.375480e+002, 9.541465e+003
7.380301e+002, 9.546880e+003
7.385122e+002, 9.548972e+003
7.389943e+002, 9.548688e+003
7.394764e+002, 9.548533e+003
7.399586e+002, 9.550125e+003
7.404407e+002, 9.551058e+003
7.409228e+002, 9.550385e+003
7.414049e+002, 9.548329e+003
7.418870e+002, 9.545348e+003
7.423691e+002, 9.540311e+003
7.428513e+002, 9.537713e+003
7.433334e+002, 9.540357e+003
7.438155e+002, 9.546698e+003
7.442976e+002, 9.550089e+003
7.447797e+002, 9.550709e+003
7.452618e+002, 9.550463e+003
7.457440e+002, 9.551638e+003
7.462261e+002, 9.552010e+003
7.467082e+002, 9.547756e+003
7.471903e+002, 9.539433e+003
7.476724e+002, 9.532441e+003
7.481545e+002, 9.528278e+003
7.486367e+002, 9.526821e+003
7.491188e+002, 9.529131e+003
7.496009e+002, 9.535815e+003
7.500830e+002, 9.539074e+003
7.505651e+002, 9.537604e+003
7.510472e+002, 9.535000e+003
7.515294e+002, 9.533275e+003
7.520115e+002, 9.532337e+003
7.524936e+002, 9.531011e+003
7.529757e+002, 9.529244e+003
7.534578e+002, 9.527593e+003
7.539399e+002, 9.527310e+003
7.544221e+002, 9.527254e+003
7.549042e+002, 9.525716e+003
7.553863e+002, 9.522512e+003
7.558684e+002, 9.518644e+003
7.563505e+002, 9.512495e+003
7.568326e+002, 9.507395e+003
7.573148e+002, 9.506366e+003
7.577969e+002, 9.512111e+003
7.582790e+002, 9.515468e+003
7.587611e+002, 9.514651e+003
7.592432e+002, 9.513919e+003
7.597253e+002, 9.518395e+003
7.602075e+002, 9.528296e+003
7.606896e+002, 9.531681e+003
7.611717e+002, 9.526706e+003
7.616538e+002, 9.519688e+003
7.621359e+002, 9.517750e+003
7.626180e+002, 9.518420e+003
7.631002e+002, 9.516948e+003
7.635823e+002, 9.511387e+003
7.640644e+002, 9.506974e+003
7.645465e+002, 9.508090e+003
7.650286e+002, 9.511176e+003
7.655107e+002, 9.512395e+003
7.659929e+002, 9.507777e+003
7.664750e+002, 9.506848e+003
7.669571e+002, 9.510791e+003
7.674392e+002, 9.517459e+003
7.679213e+002, 9.525499e+003
7.684034e+002, 9.535166e+003
7.688856e+002, 9.539098e+003
7.693677e+002, 9.534666e+003
7.698498e+002, 9.528733e+003
7.703319e+002, 9.531354e+003
7.708140e+002, 9.538834e+003
7.712961e+002, 9.543441e+003
7.717783e+002, 9.541813e+003
7.722604e+002, 9.538387e+003
7.727425e+002, 9.533821e+003
7.732246e+002, 9.529350e+003
7.737067e+002, 9.526847e+003
7.741888e+002, 9.527224e+003
7.746710e+002, 9.528786e+003
7.751531e+002, 9.532427e+003
7.756352e+002, 9.536447e+003
7.761173e+002, 9.536797e+003
7.765994e+002, 9.533361e+003
7.770815e+002, 9.533160e+003
7.775637e+002, 9.539213e+003
7.780458e+002, 9.546513e+003
7.785279e+002, 9.546293e+003
7.790100e+002, 9.541791e+003
7.794921e+002, 9.540420e+003
7.799742e+002, 9.550325e+003
7.804564e+002, 9.557924e+003
7.809385e+002, 9.554190e+003
7.814206e+002, 9.544203e+003
7.819027e+002, 9.539065e+003
7.823848e+002, 9.541731e+003
7.828669e+002, 9.545688e+003
7.833491e+002, 9.551676e+003
7.838312e+002, 9.557153e+003
7.843133e+002, 9.554413e+003
7.847954e+002, 9.543761e+003
7.852775e+002, 9.534533e+003
7.857596e+002, 9.530134e+003
7.862418e+002, 9.528699e+003
7.867239e+002, 9.527231e+003
7.872060e+002, 9.526731e+003
7.876881e+002, 9.529563e+003
7.881702e+002, 9.544674e+003
7.886523e+002, 9.554822e+003
7.891345e+002, 9.548788e+003
7.896166e+002, 9.532281e+003
7.900987e+002, 9.522503e+003
7.905808e+002, 9.521571e+003
7.910629e+002, 9.524054e+003
7.915450e+002, 9.530174e+003
7.920272e+002, 9.537792e+003
7.925093e+002, 9.540091e+003
7.929914e+002, 9.537489e+003
7.934735e+002, 9.534779e+003
7.939556e+002, 9.533854e+003
7.944377e+002, 9.533857e+003
7.949199e+002, 9.535271e+003
7.954020e+002, 9.536854e+003
7.958841e+002, 9.535280e+003
7.963662e+002, 9.522607e+003
7.968483e+002, 9.513724e+003
7.973304e+002, 9.517817e+003
7.978126e+002, 9.529901e+003
7.982947e+002, 9.534006e+003
7.987768e+002, 9.527266e+003
7.992589e+002, 9.520584e+003
7.997410e+002, 9.516730e+003
8.002231e+002, 9.515345e+003
8.007053e+002, 9.516909e+003
8.011874e+002, 9.520688e+003
8.016695e+002, 9.522337e+003
8.021516e+002, 9.517165e+003
8.026337e+002, 9.511262e+003
8.031158e+002, 9.511057e+003
8.035980e+002, 9.514538e+003
8.040801e+002, 9.516151e+003
8.045622e+002, 9.508947e+003
8.050443e+002, 9.505887e+003
8.055264e+002, 9.513173e+003
8.060085e+002, 9.526403e+003
8.064907e+002, 9.530697e+003
8.069728e+002, 9.524312e+003
8.074549e+002, 9.517599e+003
8.079370e+002, 9.513969e+003
8.084191e+002, 9.511993e+003
8.089012e+002, 9.507869e+003
8.093834e+002, 9.502658e+003
8.098655e+002, 9.500170e+003
8.103476e+002, 9.504596e+003
8.108297e+002, 9.510197e+003
8.113118e+002, 9.514428e+003
8.117939e+002, 9.517145e+003
8.122761e+002, 9.517787e+003
8.127582e+002, 9.514424e+003
8.132403e+002, 9.511819e+003
8.137224e+002, 9.511500e+003
8.142045e+002, 9.512341e+003
8.146866e+002, 9.509845e+003
8.151688e+002, 9.503978e+003
8.156509e+002, 9.501404e+003
8.161330e+002, 9.505341e+003
8.166151e+002, 9.512829e+003
8.170972e+002, 9.520170e+003
8.175793e+002, 9.527483e+003
8.180615e+002, 9.535362e+003
8.185436e+002, 9.547425e+003
8.190257e+002, 9.556256e+003
8.195078e+002, 9.558656e+003
8.199899e+002, 9.555340e+003
8.204720e+002, 9.548286e+003
8.209542e+002, 9.534282e+003
8.214363e+002, 9.524611e+003
8.219184e+002, 9.522923e+003
8.224005e+002, 9.525615e+003
8.228826e+002, 9.524502e+003
8.233647e+002, 9.520244e+003
8.238469e+002, 9.516600e+003
8.243290e+002, 9.515487e+003
8.248111e+002, 9.514880e+003
8.252932e+002, 9.512545e+003
8.257753e+002, 9.509456e+003
8.262574e+002, 9.507545e+003
8.267396e+002, 9.507817e+003
8.272217e+002, 9.508931e+003
8.277038e+002, 9.511417e+003
8.281859e+002, 9.514222e+003
8.286681e+002, 9.515084e+003
8.291502e+002, 9.513639e+003
8.296323e+002, 9.512908e+003
8.301144e+002, 9.513953e+003
8.305966e+002, 9.515085e+003
8.310787e+002, 9.513354e+003
8.315608e+002, 9.509656e+003
8.320429e+002, 9.506027e+003
8.325250e+002, 9.502453e+003
8.330071e+002, 9.500302e+003
8.334893e+002, 9.501881e+003
8.339714e+002, 9.504809e+003
8.344535e+002, 9.505094e+003
8.349356e+002, 9.500099e+003
8.354177e+002, 9.497214e+003
8.358998e+002, 9.497081e+003
8.363820e+002, 9.499220e+003
8.368641e+002, 9.503990e+003
8.373462e+002, 9.510912e+003
8.378283e+002, 9.516112e+003
8.383104e+002, 9.518657e+003
8.387925e+002, 9.519487e+003
8.392747e+002, 9.520459e+003
8.397568e+002, 9.519897e+003
8.402389e+002, 9.515029e+003
8.407210e+002, 9.500512e+003
8.412031e+002, 9.490143e+003
8.416852e+002, 9.489646e+003
8.421674e+002, 9.492465e+003
8.426495e+002, 9.492637e+003
8.431316e+002, 9.489681e+003
8.436137e+002, 9.487518e+003
8.440958e+002, 9.486479e+003
8.445779e+002, 9.486468e+003
8.450601e+002, 9.489158e+003
8.455422e+002, 9.492441e+003
8.460243e+002, 9.490760e+003
8.465064e+002, 9.482009e+003
8.469885e+002, 9.474987e+003
8.474706e+002, 9.475370e+003
8.479528e+002, 9.478974e+003
8.484349e+002, 9.482277e+003
8.489170e+002, 9.484591e+003
8.493991e+002, 9.487407e+003
8.498812e+002, 9.491188e+003
8.503633e+002, 9.494169e+003
8.508455e+002, 9.494124e+003
8.513276e+002, 9.491610e+003
8.518097e+002, 9.491467e+003
8.522918e+002, 9.494036e+003
8.527739e+002, 9.495303e+003
8.532560e+002, 9.490312e+003
8.537382e+002, 9.483838e+003
8.542203e+002, 9.480830e+003
8.547024e+002, 9.482290e+003
8.551845e+002, 9.482893e+003
8.556666e+002, 9.480698e+003
8.561487e+002, 9.478609e+003
8.566309e+002, 9.478073e+003
8.571130e+002, 9.479101e+003
8.575951e+002, 9.480077e+003
8.580772e+002, 9.481002e+003
8.585593e+002, 9.481723e+003
8.590414e+002, 9.481379e+003
8.595236e+002, 9.481046e+003
8.600057e+002, 9.482366e+003
8.604878e+002, 9.485252e+003
8.609699e+002, 9.489075e+003
8.614520e+002, 9.495402e+003
8.619341e+002, 9.500753e+003
8.624163e+002, 9.502298e+003
8.628984e+002, 9.500932e+003
8.633805e+002, 9.503435e+003
8.638626e+002, 9.511769e+003
8.643447e+002, 9.517319e+003
8.648268e+002, 9.515359e+003
8.653090e+002, 9.509438e+003
8.657911e+002, 9.509035e+003
8.662732e+002, 9.512761e+003
8.667553e+002, 9.515059e+003
8.672374e+002, 9.509910e+003
8.677195e+002, 9.505359e+003
8.682017e+002, 9.508567e+003
8.686838e+002, 9.516127e+003
8.691659e+002, 9.517858e+003
8.696480e+002, 9.508769e+003
8.701301e+002, 9.502013e+003
8.706122e+002, 9.501647e+003
8.710944e+002, 9.503262e+003
8.715765e+002, 9.496037e+003
8.720586e+002, 9.481331e+003
8.725407e+002, 9.468886e+003
8.730228e+002, 9.462172e+003
8.735049e+002, 9.458027e+003
8.739871e+002, 9.454434e+003
8.744692e+002, 9.451299e+003
8.749513e+002, 9.448366e+003
8.754334e+002, 9.444952e+003
8.759155e+002, 9.443103e+003
8.763976e+002, 9.444298e+003
8.768798e+002, 9.445893e+003
8.773619e+002, 9.443775e+003
8.778440e+002, 9.437496e+003
8.783261e+002, 9.435615e+003
8.788082e+002, 9.439649e+003
8.792903e+002, 9.444563e+003
8.797725e+002, 9.443278e+003
8.802546e+002, 9.439889e+003
8.807367e+002, 9.440559e+003
8.812188e+002, 9.446813e+003
8.817009e+002, 9.454252e+003
8.821830e+002, 9.462893e+003
8.826652e+002, 9.470762e+003
8.831473e+002, 9.476588e+003
8.836294e+002, 9.480337e+003
8.841115e+002, 9.482237e+003
8.845936e+002, 9.482082e+003
8.850757e+002, 9.481592e+003
8.855579e+002, 9.480909e+003
8.860400e+002, 9.481396e+003
8.865221e+002, 9.488269e+003
8.870042e+002, 9.500897e+003
8.874863e+002, 9.508842e+003
8.879684e+002, 9.500025e+003
8.884506e+002, 9.490949e+003
8.889327e+002, 9.492032e+003
8.894148e+002, 9.502767e+003
8.898969e+002, 9.510926e+003
8.903790e+002, 9.515281e+003
8.908611e+002, 9.520475e+003
8.913433e+002, 9.528689e+003
8.918254e+002, 9.538749e+003
8.923075e+002, 9.548791e+003
8.927896e+002, 9.558348e+003
8.932717e+002, 9.565579e+003
8.937538e+002, 9.568472e+003
8.942360e+002, 9.569709e+003
8.947181e+002, 9.571059e+003
8.952002e+002, 9.571783e+003
8.956823e+002, 9.569674e+003
8.961644e+002, 9.562277e+003
8.966465e+002, 9.557169e+003
8.971287e+002, 9.556229e+003
8.976108e+002, 9.557326e+003
8.980929e+002, 9.558175e+003
8.985750e+002, 9.558093e+003
8.990571e+002, 9.552708e+003
8.995392e+002, 9.538890e+003
9.000214e+002, 9.525625e+003
9.005035e+002, 9.521984e+003
9.009856e+002, 9.522071e+003
9.014677e+002, 9.518728e+003
9.019498e+002, 9.506415e+003
9.024319e+002, 9.498723e+003
9.029141e+002, 9.497929e+003
9.033962e+002, 9.498502e+003
9.038783e+002, 9.495110e+003
9.043604e+002, 9.488155e+003
9.048425e+002, 9.481688e+003
9.053246e+002, 9.475870e+003
9.058068e+002, 9.470303e+003
9.062889e+002, 9.464395e+003
9.067710e+002, 9.458596e+003
9.072531e+002, 9.453782e+003
9.077352e+002, 9.450200e+003
9.082173e+002, 9.444322e+003
9.086995e+002, 9.433069e+003
9.091816e+002, 9.423080e+003
9.096637e+002, 9.417928e+003
9.101458e+002, 9.416730e+003
9.106279e+002, 9.413794e+003
9.111100e+002, 9.409201e+003
9.115922e+002, 9.404064e+003
9.120743e+002, 9.397519e+003
9.125564e+002, 9.391920e+003
9.130385e+002, 9.391467e+003
9.135206e+002, 9.394156e+003
9.140027e+002, 9.393763e+003
9.144849e+002, 9.385527e+003
9.149670e+002, 9.377903e+003
9.154491e+002, 9.372554e+003
9.159312e+002, 9.368637e+003
9.164133e+002, 9.363770e+003
9.168954e+002, 9.357998e+003
9.173776e+002, 9.355483e+003
9.178597e+002, 9.357795e+003
9.183418e+002, 9.361706e+003
9.188239e+002, 9.364382e+003
9.193060e+002, 9.366073e+003
9.197881e+002, 9.366980e+003
9.202703e+002, 9.366107e+003
9.207524e+002, 9.366616e+003
9.212345e+002, 9.370296e+003
9.217166e+002, 9.373971e+003
9.221987e+002, 9.374874e+003
9.226808e+002, 9.372886e+003
9.231630e+002, 9.370834e+003
9.236451e+002, 9.368793e+003
9.241272e+002, 9.366932e+003
9.246093e+002, 9.364385e+003
9.250914e+002, 9.362679e+003
9.255735e+002, 9.365082e+003
9.260557e+002, 9.371576e+003
9.265378e+002, 9.374381e+003
9.270199e+002, 9.367297e+003
9.275020e+002, 9.360365e+003
9.279841e+002, 9.356595e+003
9.284662e+002, 9.355884e+003
9.289484e+002, 9.359554e+003
9.294305e+002, 9.367550e+003
9.299126e+002, 9.370053e+003
9.303947e+002, 9.357210e+003
9.308768e+002, 9.342210e+003
9.313589e+002, 9.344157e+003
9.318411e+002, 9.355725e+003
9.323232e+002, 9.360696e+003
9.328053e+002, 9.348347e+003
9.332874e+002, 9.336346e+003
9.337695e+002, 9.326315e+003
9.342516e+002, 9.319162e+003
9.347338e+002, 9.317057e+003
9.352159e+002, 9.319974e+003
9.356980e+002, 9.323917e+003
9.361801e+002, 9.328665e+003
9.366622e+002, 9.332038e+003
9.371443e+002, 9.330451e+003
9.376265e+002, 9.326806e+003
9.381086e+002, 9.323934e+003
9.385907e+002, 9.321341e+003
9.390728e+002, 9.323596e+003
9.395549e+002, 9.336248e+003
9.400370e+002, 9.347472e+003
9.405192e+002, 9.349334e+003
9.410013e+002, 9.342381e+003
9.414834e+002, 9.338551e+003
9.419655e+002, 9.337741e+003
9.424476e+002, 9.337888e+003
9.429297e+002, 9.339178e+003
9.434119e+002, 9.339554e+003
9.438940e+002, 9.336314e+003
9.443761e+002, 9.330199e+003
9.448582e+002, 9.324665e+003
9.453403e+002, 9.320913e+003
9.458224e+002, 9.317241e+003
9.463046e+002, 9.312765e+003
9.467867e+002, 9.308765e+003
9.472688e+002, 9.309653e+003
9.477509e+002, 9.314630e+003
9.482330e+002, 9.316411e+003
9.487151e+002, 9.312124e+003
9.491973e+002, 9.306542e+003
9.496794e+002, 9.302538e+003
9.501615e+002, 9.300537e+003
9.506436e+002, 9.301319e+003
9.511257e+002, 9.308049e+003
9.516078e+002, 9.311876e+003
9.520900e+002, 9.312756e+003
9.525721e+002, 9.310760e+003
9.530542e+002, 9.303379e+003
9.535363e+002, 9.292386e+003
9.540184e+002, 9.290103e+003
9.545005e+002, 9.296679e+003
9.549827e+002, 9.303692e+003
9.554648e+002, 9.304604e+003
9.559469e+002, 9.304096e+003
9.564290e+002, 9.305124e+003
9.569111e+002, 9.307774e+003
9.573932e+002, 9.311312e+003
9.578754e+002, 9.316550e+003
9.583575e+002, 9.320151e+003
9.588396e+002, 9.320733e+003
9.593217e+002, 9.319104e+003
9.598038e+002, 9.316362e+003
9.602859e+002, 9.313011e+003
9.607681e+002, 9.311107e+003
9.612502e+002, 9.312301e+003
9.617323e+002, 9.313667e+003
9.622144e+002, 9.313829e+003
9.626965e+002, 9.313178e+003
9.631786e+002, 9.312421e+003
9.636608e+002, 9.312662e+003
9.641429e+002, 9.310139e+003
9.646250e+002, 9.304486e+003
9.651071e+002, 9.297583e+003
9.655892e+002, 9.289944e+003
9.660714e+002, 9.283009e+003
9.665535e+002, 9.280972e+003
9.670356e+002, 9.284045e+003
9.675177e+002, 9.284478e+003
9.679998e+002, 9.275509e+003
9.684819e+002, 9.265563e+003
9.689641e+002, 9.258556e+003
9.694462e+002, 9.254395e+003
9.699283e+002, 9.252319e+003
9.704104e+002, 9.252331e+003
9.708925e+002, 9.253822e+003
9.713746e+002, 9.257034e+003
9.718568e+002, 9.260672e+003
9.723389e+002, 9.262839e+003
9.728210e+002, 9.263838e+003
9.733031e+002, 9.264485e+003
9.737852e+002, 9.266046e+003
9.742673e+002, 9.265597e+003
9.747495e+002, 9.260665e+003
9.752316e+002, 9.255021e+003
9.757137e+002, 9.251993e+003
9.761958e+002, 9.251525e+003
9.766779e+002, 9.257356e+003
9.771600e+002, 9.270624e+003
9.776422e+002, 9.281683e+003
9.781243e+002, 9.281264e+003
9.786064e+002, 9.275064e+003
9.790885e+002, 9.267966e+003
9.795706e+002, 9.260548e+003
9.800527e+002, 9.255360e+003
9.805349e+002, 9.253767e+003
9.810170e+002, 9.253094e+003
9.814991e+002, 9.252705e+003
9.819812e+002, 9.252340e+003
9.824633e+002, 9.250439e+003
9.829454e+002, 9.247422e+003
9.834276e+002, 9.246029e+003
9.839097e+002, 9.246971e+003
9.843918e+002, 9.250403e+003
9.848739e+002, 9.261514e+003
9.853560e+002, 9.273420e+003
9.858381e+002, 9.274410e+003
9.863203e+002, 9.256353e+003
9.868024e+002, 9.245166e+003
9.872845e+002, 9.243446e+003
9.877666e+002, 9.244862e+003
9.882487e+002, 9.243231e+003
9.887308e+002, 9.239632e+003
9.892130e+002, 9.235910e+003
9.896951e+002, 9.232372e+003
9.901772e+002, 9.231406e+003
9.906593e+002, 9.237493e+003
9.911414e+002, 9.243407e+003
9.916235e+002, 9.245257e+003
9.921057e+002, 9.243377e+003
9.925878e+002, 9.238763e+003
9.930699e+002, 9.230480e+003
9.935520e+002, 9.225736e+003
9.940341e+002, 9.228458e+003
9.945162e+002, 9.233417e+003
9.949984e+002, 9.232437e+003
9.954805e+002, 9.228313e+003
9.959626e+002, 9.226538e+003
9.964447e+002, 9.232488e+003
9.969268e+002, 9.234853e+003
9.974089e+002, 9.230554e+003
9.978911e+002, 9.224130e+003
9.983732e+002, 9.219665e+003
9.988553e+002, 9.217224e+003
9.993374e+002, 9.213451e+003
9.998195e+002, 9.208279e+003
1.000302e+003, 9.204625e+003
1.000784e+003, 9.205287e+003
1.001266e+003, 9.207853e+003
1.001748e+003, 9.210512e+003
1.002230e+003, 9.213110e+003
1.002712e+003, 9.215808e+003
1.003194e+003, 9.218189e+003
1.003676e+003, 9.221046e+003
1.004159e+003, 9.224729e+003
1.004641e+003, 9.228481e+003
1.005123e+003, 9.230963e+003
1.005605e+003, 9.232333e+003
1.006087e+003, 9.233270e+003
1.006569e+003, 9.234105e+003
1.007051e+003, 9.234382e+003
1.007533e+003, 9.234563e+003
1.008016e+003, 9.233774e+003
1.008498e+003, 9.230232e+003
1.008980e+003, 9.222162e+003
1.009462e+003, 9.224276e+003
1.009944e+003, 9.238143e+003
1.010426e+003, 9.251472e+003
1.010908e+003, 9.253846e+003
1.011390e+003, 9.250972e+003
1.011872e+003, 9.248834e+003
1.012355e+003, 9.247890e+003
1.012837e+003, 9.249323e+003
1.013319e+003, 9.255183e+003
1.013801e+003, 9.261276e+003
1.014283e+003, 9.268048e+003
1.014765e+003, 9.273075e+003
1.015247e+003, 9.270547e+003
1.015729e+003, 9.261489e+003
1.016211e+003, 9.253618e+003
1.016694e+003, 9.248010e+003
1.017176e+003, 9.246442e+003
1.017658e+003, 9.255583e+003
1.018140e+003, 9.266119e+003
1.018622e+003, 9.269941e+003
1.019104e+003, 9.266131e+003
1.019586e+003, 9.256392e+003
1.020068e+003, 9.238174e+003
1.020551e+003, 9.223025e+003
1.021033e+003, 9.219019e+003
1.021515e+003, 9.221161e+003
1.021997e+003, 9.217888e+003
1.022479e+003, 9.211252e+003
1.022961e+003, 9.207363e+003
1.023443e+003, 9.210607e+003
1.023925e+003, 9.214679e+003
1.024407e+003, 9.218464e+003
1.024890e+003, 9.221558e+003
1.025372e+003, 9.223637e+003
1.025854e+003, 9.224649e+003
1.026336e+003, 9.222866e+003
1.026818e+003, 9.217747e+003
1.027300e+003, 9.213260e+003
1.027782e+003, 9.214030e+003
1.028264e+003, 9.216275e+003
1.028746e+003, 9.216538e+003
1.029229e+003, 9.214471e+003
1.029711e+003, 9.211155e+003
1.030193e+003, 9.204757e+003
1.030675e+003, 9.201558e+003
1.031157e+003, 9.204753e+003
1.031639e+003, 9.211176e+003
1.032121e+003, 9.214552e+003
1.032603e+003, 9.215151e+003
1.033086e+003, 9.213625e+003
1.033568e+003, 9.209823e+003
1.034050e+003, 9.205018e+003
1.034532e+003, 9.198766e+003
1.035014e+003, 9.192733e+003
1.035496e+003, 9.188018e+003
1.035978e+003, 9.184443e+003
1.036460e+003, 9.185371e+003
1.036943e+003, 9.191182e+003
1.037425e+003, 9.195892e+003
1.037907e+003, 9.192519e+003
1.038389e+003, 9.187683e+003
1.038871e+003, 9.189700e+003
1.039353e+003, 9.196802e+003
1.039835e+003, 9.201156e+003
1.040317e+003, 9.198927e+003
1.040799e+003, 9.197417e+003
1.041281e+003, 9.197572e+003
1.041764e+003, 9.198837e+003
1.042246e+003, 9.199943e+003
1.042728e+003, 9.201405e+003
1.043210e+003, 9.206021e+003
1.043692e+003, 9.215028e+003
1.044174e+003, 9.221150e+003
1.044656e+003, 9.218587e+003
1.045138e+003, 9.213263e+003
1.045621e+003, 9.208233e+003
1.046103e+003, 9.203718e+003
1.046585e+003, 9.202645e+003
1.047067e+003, 9.205346e+003
1.047549e+003, 9.206959e+003
1.048031e+003, 9.204860e+003
1.048513e+003, 9.201228e+003
1.048995e+003, 9.198235e+003
1.049478e+003, 9.195655e+003
1.049960e+003, 9.193080e+003
1.050442e+003, 9.187778e+003
1.050924e+003, 9.187418e+003
1.051406e+003, 9.195052e+003
1.051888e+003, 9.202261e+003
1.052370e+003, 9.199675e+003
1.052852e+003, 9.190511e+003
1.053334e+003, 9.185478e+003
1.053817e+003, 9.184831e+003
1.054299e+003, 9.185778e+003
1.054781e+003, 9.189231e+003
1.055263e+003, 9.191331e+003
1.055745e+003, 9.189322e+003
1.056227e+003, 9.184979e+003
1.056709e+003, 9.182438e+003
1.057191e+003, 9.181778e+003
1.057673e+003, 9.180059e+003
1.058156e+003, 9.175896e+003
1.058638e+003, 9.173616e+003
1.059120e+003, 9.181716e+003
1.059602e+003, 9.191631e+003
1.060084e+003, 9.192512e+003
1.060566e+003, 9.180339e+003
1.061048e+003, 9.175423e+003
1.061530e+003, 9.181979e+003
1.062013e+003, 9.187220e+003
1.062495e+003, 9.184177e+003
1.062977e+003, 9.176416e+003
1.063459e+003, 9.171744e+003
1.063941e+003, 9.169778e+003
1.064423e+003, 9.169377e+003
1.064905e+003, 9.173291e+003
1.065387e+003, 9.174190e+003
1.065870e+003, 9.165376e+003
1.066352e+003, 9.156091e+003
1.066834e+003, 9.155921e+003
1.067316e+003, 9.164979e+003
1.067798e+003, 9.169240e+003
1.068280e+003, 9.168243e+003
1.068762e+003, 9.164718e+003
1.069244e+003, 9.157720e+003
1.069726e+003, 9.151552e+003
1.070208e+003, 9.150267e+003
1.070691e+003, 9.153076e+003
1.071173e+003, 9.156087e+003
1.071655e+003, 9.160064e+003
1.072137e+003, 9.160942e+003
1.072619e+003, 9.157160e+003
1.073101e+003, 9.152339e+003
1.073583e+003, 9.151061e+003
1.074065e+003, 9.152122e+003
1.074548e+003, 9.154246e+003
1.075030e+003, 9.157530e+003
1.075512e+003, 9.158532e+003
1.075994e+003, 9.154084e+003
1.076476e+003, 9.150114e+003
1.076958e+003, 9.149272e+003
1.077440e+003, 9.150657e+003
1.077922e+003, 9.151938e+003
1.078405e+003, 9.152668e+003
1.078887e+003, 9.150254e+003
1.079369e+003, 9.141302e+003
1.079851e+003, 9.133314e+003
1.080333e+003, 9.131065e+003
1.080815e+003, 9.131759e+003
1.081297e+003, 9.132401e+003
1.081779e+003, 9.133103e+003
1.082261e+003, 9.132782e+003
1.082744e+003, 9.131295e+003
1.083226e+003, 9.130495e+003
1.083708e+003, 9.134035e+003
1.084190e+003, 9.137063e+003
1.084672e+003, 9.130911e+003
1.085154e+003, 9.119595e+003
1.085636e+003, 9.117657e+003
1.086118e+003, 9.134480e+003
1.086601e+003, 9.144753e+003
1.087083e+003, 9.144608e+003
1.087565e+003, 9.139301e+003
1.088047e+003, 9.133578e+003
1.088529e+003, 9.128236e+003
1.089011e+003, 9.124909e+003
1.089493e+003, 9.123769e+003
1.089975e+003, 9.123790e+003
1.090458e+003, 9.123466e+003
1.090940e+003, 9.125994e+003
1.091422e+003, 9.134942e+003
1.091904e+003, 9.146077e+003
1.092386e+003, 9.144250e+003
1.092868e+003, 9.131520e+003
1.093350e+003, 9.120976e+003
1.093832e+003, 9.116553e+003
1.094314e+003, 9.114574e+003
1.094797e+003, 9.113447e+003
1.095279e+003, 9.113056e+003
1.095761e+003, 9.113486e+003
1.096243e+003, 9.114859e+003
1.096725e+003, 9.116392e+003
1.097207e+003, 9.118313e+003
1.097689e+003, 9.118729e+003
1.098171e+003, 9.115407e+003
1.098653e+003, 9.111313e+003
1.099136e+003, 9.110402e+003
1.099618e+003, 9.111093e+003
1.100100e+003, 9.110129e+003
1.100582e+003, 9.104472e+003
1.101064e+003, 9.101771e+003
1.101546e+003, 9.103147e+003
1.102028e+003, 9.104802e+003
1.102510e+003, 9.101991e+003
1.102993e+003, 9.097231e+003
1.103475e+003, 9.097355e+003
1.103957e+003, 9.101450e+003
1.104439e+003, 9.102467e+003
1.104921e+003, 9.092134e+003
1.105403e+003, 9.085704e+003
1.105885e+003, 9.089245e+003
1.106367e+003, 9.096310e+003
1.106849e+003, 9.094709e+003
1.107332e+003, 9.086229e+003
1.107814e+003, 9.078717e+003
1.108296e+003, 9.072995e+003
1.108778e+003, 9.073565e+003
1.109260e+003, 9.092924e+003
1.109742e+003, 9.110504e+003
1.110224e+003, 9.110747e+003
1.110706e+003, 9.097462e+003
1.111188e+003, 9.090452e+003
1.111671e+003, 9.089672e+003
1.112153e+003, 9.091049e+003
1.112635e+003, 9.093907e+003
1.113117e+003, 9.096497e+003
1.113599e+003, 9.097464e+003
1.114081e+003, 9.096906e+003
1.114563e+003, 9.094585e+003
1.115045e+003, 9.089986e+003
1.115528e+003, 9.086037e+003
1.116010e+003, 9.082467e+003
1.116492e+003, 9.080696e+003
1.116974e+003, 9.082505e+003
1.117456e+003, 9.085850e+003
1.117938e+003, 9.089185e+003
1.118420e+003, 9.091335e+003
1.118902e+003, 9.089693e+003
1.119385e+003, 9.077321e+003
1.119867e+003, 9.071550e+003
1.120349e+003, 9.076551e+003
1.120831e+003, 9.081760e+003
1.121313e+003, 9.074901e+003
1.121795e+003, 9.061082e+003
1.122277e+003, 9.055422e+003
1.122759e+003, 9.057302e+003
1.123241e+003, 9.060226e+003
1.123724e+003, 9.059559e+003
1.124206e+003, 9.061769e+003
1.124688e+003, 9.071264e+003
1.125170e+003, 9.081786e+003
1.125652e+003, 9.082778e+003
1.126134e+003, 9.075436e+003
1.126616e+003, 9.067313e+003
1.127098e+003, 9.059215e+003
1.127580e+003, 9.054109e+003
1.128063e+003, 9.055661e+003
1.128545e+003, 9.059436e+003
1.129027e+003, 9.064058e+003
1.129509e+003, 9.068631e+003
1.129991e+003, 9.069500e+003
1.130473e+003, 9.066672e+003
1.130955e+003, 9.063368e+003
1.131437e+003, 9.060050e+003
1.131920e+003, 9.058129e+003
1.132402e+003, 9.060288e+003
1.132884e+003, 9.063587e+003
1.133366e+003, 9.064862e+003
1.133848e+003, 9.063696e+003
1.134330e+003, 9.063563e+003
1.134812e+003, 9.064462e+003
1.135294e+003, 9.066187e+003
1.135776e+003, 9.069031e+003
1.136259e+003, 9.071787e+003
1.136741e+003, 9.072030e+003
1.137223e+003, 9.071272e+003
1.137705e+003, 9.071874e+003
1.138187e+003, 9.074147e+003
1.138669e+003, 9.078762e+003
1.139151e+003, 9.087255e+003
1.139633e+003, 9.093846e+003
1.140115e+003, 9.094503e+003
1.140598e+003, 9.090654e+003
1.141080e+003, 9.081861e+003
1.141562e+003, 9.071137e+003
1.142044e+003, 9.066632e+003
1.142526e+003, 9.080257e+003
1.143008e+003, 9.087219e+003
1.143490e+003, 9.082239e+003
1.143972e+003, 9.074493e+003
1.144455e+003, 9.074697e+003
1.144937e+003, 9.079615e+003
1.145419e+003, 9.076343e+003
1.145901e+003, 9.065886e+003
1.146383e+003, 9.058828e+003
1.146865e+003, 9.063780e+003
1.147347e+003, 9.069048e+003
1.147829e+003, 9.071489e+003
1.148312e+003, 9.071906e+003
1.148794e+003, 9.071255e+003
1.149276e+003, 9.069629e+003
1.149758e+003, 9.067025e+003
1.150240e+003, 9.063378e+003
1.150722e+003, 9.062013e+003
1.151204e+003, 9.068989e+003
1.151686e+003, 9.074644e+003
1.152168e+003, 9.071270e+003
1.152651e+003, 9.063104e+003
1.153133e+003, 9.063712e+003
1.153615e+003, 9.072592e+003
1.154097e+003, 9.078335e+003
1.154579e+003, 9.077968e+003
1.155061e+003, 9.075672e+003
1.155543e+003, 9.072764e+003
1.156025e+003, 9.070919e+003
1.156507e+003, 9.072312e+003
1.156990e+003, 9.076480e+003
1.157472e+003, 9.079893e+003
1.157954e+003, 9.082688e+003
1.158436e+003, 9.082685e+003
1.158918e+003, 9.077544e+003
1.159400e+003, 9.073425e+003
1.159882e+003, 9.078971e+003
1.160364e+003, 9.087703e+003
1.160847e+003, 9.091271e+003
1.161329e+003, 9.087640e+003
1.161811e+003, 9.089224e+003
1.162293e+003, 9.097178e+003
1.162775e+003, 9.102687e+003
1.163257e+003, 9.099170e+003
1.163739e+003, 9.093239e+003
1.164221e+003, 9.093017e+003
1.164703e+003, 9.096187e+003
1.165186e+003, 9.099118e+003
1.165668e+003, 9.102426e+003
1.166150e+003, 9.101481e+003
1.166632e+003, 9.095096e+003
1.167114e+003, 9.088677e+003
1.167596e+003, 9.084956e+003
1.168078e+003, 9.084466e+003
1.168560e+003, 9.091600e+003
1.169042e+003, 9.102623e+003
1.169525e+003, 9.107454e+003
1.170007e+003, 9.097915e+003
1.170489e+003, 9.091652e+003
1.170971e+003, 9.090894e+003
1.171453e+003, 9.090203e+003
1.171935e+003, 9.082112e+003
1.172417e+003, 9.071393e+003
1.172899e+003, 9.067580e+003
1.173382e+003, 9.070067e+003
1.173864e+003, 9.073894e+003
1.174346e+003, 9.079545e+003
1.174828e+003, 9.083308e+003
1.175310e+003, 9.084104e+003
1.175792e+003, 9.083924e+003
1.176274e+003, 9.087077e+003
1.176756e+003, 9.090731e+003
1.177239e+003, 9.085438e+003
1.177721e+003, 9.071473e+003
1.178203e+003, 9.063896e+003
1.178685e+003, 9.076920e+003
1.179167e+003, 9.085972e+003
1.179649e+003, 9.083493e+003
1.180131e+003, 9.076259e+003
1.180613e+003, 9.077028e+003
1.181095e+003, 9.083064e+003
1.181578e+003, 9.086517e+003
1.182060e+003, 9.086173e+003
1.182542e+003, 9.084783e+003
1.183024e+003, 9.083390e+003
1.183506e+003, 9.081132e+003
1.183988e+003, 9.075991e+003
1.184470e+003, 9.071415e+003
1.184952e+003, 9.079585e+003
1.185434e+003, 9.096091e+003
1.185917e+003, 9.104868e+003
1.186399e+003, 9.101125e+003
1.186881e+003, 9.095033e+003
1.187363e+003, 9.087395e+003
1.187845e+003, 9.083153e+003
1.188327e+003, 9.085257e+003
1.188809e+003, 9.092077e+003
1.189291e+003, 9.099035e+003
1.189774e+003, 9.105491e+003
1.190256e+003, 9.108598e+003
1.190738e+003, 9.106584e+003
1.191220e+003, 9.103319e+003
1.191702e+003, 9.098634e+003
1.192184e+003, 9.095250e+003
1.192666e+003, 9.094787e+003
1.193148e+003, 9.097092e+003
1.193630e+003, 9.103208e+003
1.194113e+003, 9.111911e+003
1.194595e+003, 9.115542e+003
1.195077e+003, 9.107204e+003
1.195559e+003, 9.100201e+003
1.196041e+003, 9.104415e+003
1.196523e+003, 9.110034e+003
1.197005e+003, 9.109381e+003
1.197487e+003, 9.102835e+003
1.197969e+003, 9.095161e+003
1.198452e+003, 9.086841e+003
1.198934e+003, 9.080856e+003
1.199416e+003, 9.079481e+003
1.199898e+003, 9.080029e+003
1.200380e+003, 9.081817e+003
1.200862e+003, 9.084614e+003
1.201344e+003, 9.088438e+003
1.201826e+003, 9.093315e+003
1.202309e+003, 9.097753e+003
1.202791e+003, 9.101656e+003
1.203273e+003, 9.103796e+003
1.203755e+003, 9.103737e+003
1.204237e+003, 9.101420e+003
1.204719e+003, 9.093318e+003
1.205201e+003, 9.085139e+003
1.205683e+003, 9.085334e+003
1.206166e+003, 9.093631e+003
1.206648e+003, 9.093557e+003
1.207130e+003, 9.085083e+003
1.207612e+003, 9.079479e+003
1.208094e+003, 9.088965e+003
1.208576e+003, 9.097829e+003
1.209058e+003, 9.095168e+003
1.209540e+003, 9.087988e+003
1.210022e+003, 9.086516e+003
1.210505e+003, 9.090485e+003
1.210987e+003, 9.091969e+003
1.211469e+003, 9.090426e+003
1.211951e+003, 9.086639e+003
1.212433e+003, 9.077325e+003
1.212915e+003, 9.070060e+003
1.213397e+003, 9.070885e+003
1.213879e+003, 9.075778e+003
1.214361e+003, 9.079033e+003
1.214844e+003, 9.080635e+003
1.215326e+003, 9.078354e+003
1.215808e+003, 9.071896e+003
1.216290e+003, 9.068028e+003
1.216772e+003, 9.074206e+003
1.217254e+003, 9.081216e+003
1.217736e+003, 9.084485e+003
1.218218e+003, 9.084803e+003
1.218701e+003, 9.082342e+003
1.219183e+003, 9.077595e+003
1.219665e+003, 9.078081e+003
1.220147e+003, 9.085208e+003
1.220629e+003, 9.090162e+003
1.221111e+003, 9.083872e+003
1.221593e+003, 9.077265e+003
1.222075e+003, 9.076737e+003
1.222557e+003, 9.079823e+003
1.223040e+003, 9.079744e+003
1.223522e+003, 9.077176e+003
1.224004e+003, 9.078065e+003
1.224486e+003, 9.083986e+003
1.224968e+003, 9.088228e+003
1.225450e+003, 9.086947e+003
1.225932e+003, 9.082337e+003
1.226414e+003, 9.074033e+003
1.226896e+003, 9.064608e+003
1.227379e+003, 9.063009e+003
1.227861e+003, 9.067706e+003
1.228343e+003, 9.069868e+003
1.228825e+003, 9.067138e+003
1.229307e+003, 9.064574e+003
1.229789e+003, 9.064987e+003
1.230271e+003, 9.066239e+003
1.230753e+003, 9.067434e+003
1.231236e+003, 9.068337e+003
1.231718e+003, 9.068553e+003
1.232200e+003, 9.067899e+003
1.232682e+003, 9.065447e+003
1.233164e+003, 9.060490e+003
1.233646e+003, 9.055959e+003
1.234128e+003, 9.053922e+003
1.234610e+003, 9.052024e+003
1.235093e+003, 9.049159e+003
1.235575e+003, 9.045798e+003
1.236057e+003, 9.043253e+003
1.236539e+003, 9.041578e+003
1.237021e+003, 9.041163e+003
1.237503e+003, 9.042878e+003
1.237985e+003, 9.043132e+003
1.238467e+003, 9.037552e+003
1.238949e+003, 9.034234e+003
1.239432e+003, 9.038311e+003
1.239914e+003, 9.046043e+003
1.240396e+003, 9.044729e+003
1.240878e+003, 9.037645e+003
1.241360e+003, 9.034471e+003
1.241842e+003, 9.039817e+003
1.242324e+003, 9.042811e+003
1.242806e+003, 9.039936e+003
1.243288e+003, 9.036051e+003
1.243771e+003, 9.033287e+003
1.244253e+003, 9.031391e+003
1.244735e+003, 9.028768e+003
1.245217e+003, 9.026597e+003
1.245699e+003, 9.028212e+003
1.246181e+003, 9.037291e+003
1.246663e+003, 9.042085e+003
1.247145e+003, 9.040192e+003
1.247628e+003, 9.036771e+003
1.248110e+003, 9.033629e+003
1.248592e+003, 9.031705e+003
1.249074e+003, 9.034457e+003
1.249556e+003, 9.039588e+003
1.250038e+003, 9.042470e+003
1.250520e+003, 9.040097e+003
1.251002e+003, 9.040467e+003
1.251484e+003, 9.044999e+003
1.251967e+003, 9.048656e+003
1.252449e+003, 9.047470e+003
1.252931e+003, 9.044750e+003
1.253413e+003, 9.046665e+003
1.253895e+003, 9.050580e+003
1.254377e+003, 9.051488e+003
1.254859e+003, 9.045907e+003
1.255341e+003, 9.044741e+003
1.255823e+003, 9.048873e+003
1.256306e+003, 9.053011e+003
1.256788e+003, 9.053804e+003
1.257270e+003, 9.053215e+003
1.257752e+003, 9.054517e+003
1.258234e+003, 9.055771e+003
1.258716e+003, 9.053193e+003
1.259198e+003, 9.044841e+003
1.259680e+003, 9.041033e+003
1.260163e+003, 9.042271e+003
1.260645e+003, 9.044543e+003
1.261127e+003, 9.047576e+003
1.261609e+003, 9.048354e+003
1.262091e+003, 9.041274e+003
1.262573e+003, 9.031803e+003
1.263055e+003, 9.027933e+003
1.263537e+003, 9.030906e+003
1.264020e+003, 9.029792e+003
1.264502e+003, 9.024591e+003
1.264984e+003, 9.021015e+003
1.265466e+003, 9.023123e+003
1.265948e+003, 9.026764e+003
1.266430e+003, 9.031254e+003
1.266912e+003, 9.034139e+003
1.267394e+003, 9.031619e+003
1.267876e+003, 9.023530e+003
1.268359e+003, 9.023262e+003
1.268841e+003, 9.029848e+003
1.269323e+003, 9.034644e+003
1.269805e+003, 9.031899e+003
1.270287e+003, 9.027894e+003
1.270769e+003, 9.025103e+003
1.271251e+003, 9.022604e+003
1.271733e+003, 9.019604e+003
1.272215e+003, 9.016248e+003
1.272698e+003, 9.013412e+003
1.273180e+003, 9.011032e+003
1.273662e+003, 9.008640e+003
1.274144e+003, 9.004917e+003
1.274626e+003, 9.002978e+003
1.275108e+003, 9.004129e+003
1.275590e+003, 9.006036e+003
1.276072e+003, 9.007044e+003
1.276555e+003, 9.007267e+003
1.277037e+003, 9.006924e+003
1.277519e+003, 9.006106e+003
1.278001e+003, 9.005122e+003
1.278483e+003, 9.002176e+003
1.278965e+003, 9.002670e+003
1.279447e+003, 9.008761e+003
1.279929e+003, 9.013292e+003
1.280411e+003, 9.007656e+003
1.280894e+003, 8.998571e+003
1.281376e+003, 8.999343e+003
1.281858e+003, 9.006478e+003
1.282340e+003, 9.012057e+003
1.282822e+003, 9.015316e+003
1.283304e+003, 9.014063e+003
1.283786e+003, 9.006939e+003
1.284268e+003, 9.002359e+003
1.284750e+003, 9.010511e+003
1.285233e+003, 9.020448e+003
1.285715e+003, 9.016235e+003
1.286197e+003, 9.005943e+003
1.286679e+003, 9.004272e+003
1.287161e+003, 9.014468e+003
1.287643e+003, 9.021949e+003
1.288125e+003, 9.026603e+003
1.288607e+003, 9.029522e+003
1.289090e+003, 9.031766e+003
1.289572e+003, 9.031818e+003
1.290054e+003, 9.025395e+003
1.290536e+003, 9.018082e+003
1.291018e+003, 9.017694e+003
1.291500e+003, 9.024639e+003
1.291982e+003, 9.024891e+003
1.292464e+003, 9.019061e+003
1.292947e+003, 9.012636e+003
1.293429e+003, 9.007689e+003
1.293911e+003, 9.004041e+003
1.294393e+003, 9.003440e+003
1.294875e+003, 9.002976e+003
1.295357e+003, 9.000038e+003
1.295839e+003, 8.995131e+003
1.296321e+003, 8.992220e+003
1.296803e+003, 8.991140e+003
1.297286e+003, 8.990529e+003
1.297768e+003, 8.989745e+003
1.298250e+003, 8.989928e+003
1.298732e+003, 8.992027e+003
1.299214e+003, 8.993970e+003
1.299696e+003, 8.992704e+003
1.300178e+003, 8.990272e+003
1.300660e+003, 8.993952e+003
##END=



