##NAMES=Seligmannite
##RRUFFID=R100189
##IDEAL CHEMISTRY=Cu^1+^Pb^2+^As^3+^S^2-^_3_
##LOCALITY=Palomo mine, Huancavelica Department, Peru
##OWNER=RRUFF
##SOURCE=William W. Pinch
##DESCRIPTION=Black short prismatic crystals on galena associated with quartz and sphalerite
##STATUS=The identification of this mineral has been confirmed by single-crystal X-ray diffraction.
##URL=rruff.info/R100189
170.5845, 90.63641
171.0666, 89.37409
171.5487, 87.89527
172.0309, 86.23441
172.5130, 84.81914
172.9951, 84.21522
173.4772, 84.00743
173.9593, 83.54548
174.4414, 82.10522
174.9236, 80.54054
175.4057, 79.75398
175.8878, 79.73280
176.3699, 80.25133
176.8520, 81.90358
177.3341, 83.98268
177.8163, 84.93803
178.2984, 82.70895
178.7805, 79.45072
179.2626, 78.85229
179.7447, 81.17262
180.2268, 83.76824
180.7090, 83.66342
181.1911, 81.57760
181.6732, 79.70627
182.1553, 79.40612
182.6374, 79.96536
183.1195, 79.65150
183.6017, 78.23977
184.0838, 76.99124
184.5659, 77.70477
185.0480, 80.01981
185.5301, 82.15840
186.0123, 83.14634
186.4944, 83.28056
186.9765, 83.43827
187.4586, 83.66504
187.9407, 83.86802
188.4228, 83.75890
188.9050, 83.38896
189.3871, 83.33507
189.8692, 83.86765
190.3513, 84.94922
190.8334, 86.65816
191.3155, 89.22600
191.7977, 91.80367
192.2798, 92.79243
192.7619, 92.20002
193.2440, 91.63029
193.7261, 92.13889
194.2082, 93.59204
194.6904, 94.29720
195.1725, 93.94739
195.6546, 93.25675
196.1367, 93.70532
196.6188, 95.37988
197.1009, 97.02652
197.5831, 97.68718
198.0652, 97.37436
198.5473, 98.17400
199.0294, 100.6115
199.5115, 103.6288
199.9937, 104.9626
200.4758, 104.4206
200.9579, 103.3807
201.4400, 102.3408
201.9221, 101.2454
202.4042, 100.9558
202.8864, 101.7041
203.3685, 103.0915
203.8506, 104.3904
204.3327, 105.7420
204.8148, 106.4036
205.2969, 105.8222
205.7791, 103.8465
206.2612, 101.7212
206.7433, 99.45360
207.2254, 97.12582
207.7075, 94.70615
208.1896, 91.81095
208.6718, 89.91624
209.1539, 90.40269
209.6360, 94.09972
210.1181, 95.80824
210.6002, 94.69018
211.0823, 91.73827
211.5645, 89.71924
212.0466, 88.85033
212.5287, 88.38618
213.0108, 87.95321
213.4929, 87.53356
213.9750, 87.25188
214.4572, 87.27807
214.9393, 87.38335
215.4214, 86.83598
215.9035, 85.43084
216.3856, 83.77995
216.8678, 82.10264
217.3499, 80.12111
217.8320, 79.00977
218.3141, 79.19337
218.7962, 80.17628
219.2783, 80.43918
219.7605, 79.89745
220.2426, 78.78300
220.7247, 76.96598
221.2068, 73.74391
221.6889, 71.90946
222.1710, 72.06588
222.6532, 73.57736
223.1353, 74.51538
223.6174, 74.90263
224.0995, 74.69994
224.5816, 73.64816
225.0637, 70.84995
225.5459, 69.58899
226.0280, 70.72573
226.5101, 73.29389
226.9922, 74.17765
227.4743, 72.38601
227.9564, 70.48702
228.4386, 69.73628
228.9207, 70.61054
229.4028, 71.54742
229.8849, 72.74784
230.3670, 73.94165
230.8492, 74.37627
231.3313, 73.83633
231.8134, 72.86191
232.2955, 71.50315
232.7776, 69.06155
233.2597, 67.99919
233.7419, 68.96716
234.2240, 71.14517
234.7061, 72.35869
235.1882, 72.24971
235.6703, 71.73170
236.1524, 71.12283
236.6346, 70.24182
237.1167, 69.72970
237.5988, 69.82513
238.0809, 70.20174
238.5630, 70.04597
239.0451, 68.97342
239.5273, 67.94394
240.0094, 67.32042
240.4915, 67.12566
240.9736, 67.30107
241.4557, 68.00937
241.9378, 69.01323
242.4200, 69.87631
242.9021, 70.83281
243.3842, 71.28886
243.8663, 70.88418
244.3484, 69.13874
244.8306, 68.00469
245.3127, 67.81778
245.7948, 68.07342
246.2769, 67.78109
246.7590, 66.48591
247.2411, 65.42482
247.7233, 65.09663
248.2054, 65.75732
248.6875, 66.18887
249.1696, 66.27921
249.6517, 66.21346
250.1338, 66.30356
250.6160, 66.66453
251.0981, 66.97502
251.5802, 67.11087
252.0623, 67.02371
252.5444, 67.03988
253.0265, 67.28003
253.5087, 67.52517
253.9908, 67.41547
254.4729, 66.71696
254.9550, 66.13486
255.4371, 65.84792
255.9192, 65.86528
256.4014, 66.15536
256.8835, 66.90579
257.3656, 67.74289
257.8477, 68.21168
258.3298, 68.17194
258.8120, 68.08296
259.2941, 68.09610
259.7762, 68.23158
260.2583, 68.07689
260.7404, 67.50596
261.2225, 66.79744
261.7047, 66.18479
262.1868, 65.57968
262.6689, 65.31253
263.1510, 65.54915
263.6331, 66.26883
264.1152, 66.82516
264.5974, 67.22073
265.0795, 67.44132
265.5616, 67.33318
266.0437, 66.62511
266.5258, 66.52737
267.0079, 67.50474
267.4901, 69.38264
267.9722, 70.50046
268.4543, 70.72423
268.9364, 70.48415
269.4185, 70.00947
269.9006, 69.17325
270.3828, 68.69521
270.8649, 68.83040
271.3470, 69.39140
271.8291, 69.35715
272.3112, 68.43291
272.7933, 67.68171
273.2755, 68.17650
273.7576, 70.23336
274.2397, 71.28625
274.7218, 70.79225
275.2039, 69.23325
275.6860, 67.88747
276.1682, 66.61502
276.6503, 66.03433
277.1324, 66.99149
277.6145, 69.67847
278.0966, 71.12777
278.5787, 70.81634
279.0609, 69.50522
279.5430, 68.74914
280.0251, 68.57516
280.5072, 68.83250
280.9893, 69.77755
281.4715, 71.39664
281.9536, 72.00799
282.4357, 71.29693
282.9178, 70.03225
283.3999, 69.43611
283.8820, 69.51987
284.3642, 70.03896
284.8463, 71.03800
285.3284, 72.47057
285.8105, 73.85693
286.2926, 75.29340
286.7747, 76.38334
287.2569, 76.40125
287.7390, 75.38259
288.2211, 74.29283
288.7032, 73.47595
289.1853, 72.89991
289.6674, 72.36327
290.1496, 71.83785
290.6317, 71.51376
291.1138, 71.72717
291.5959, 72.40482
292.0780, 73.02171
292.5602, 73.39624
293.0423, 73.60311
293.5244, 73.73885
294.0065, 73.79287
294.4886, 74.03620
294.9707, 74.93768
295.4529, 76.29074
295.9350, 77.31413
296.4171, 77.71688
296.8992, 77.77755
297.3813, 77.86732
297.8634, 77.99856
298.3456, 78.33293
298.8277, 79.27279
299.3098, 80.49162
299.7919, 81.22800
300.2740, 81.20588
300.7561, 80.84196
301.2383, 80.45529
301.7204, 80.11172
302.2025, 80.14462
302.6846, 81.32100
303.1667, 82.84635
303.6488, 83.47665
304.1310, 82.87884
304.6131, 81.80238
305.0952, 80.74777
305.5773, 79.77551
306.0594, 79.05222
306.5415, 78.64631
307.0237, 78.53651
307.5058, 78.90206
307.9879, 79.87397
308.4700, 80.49780
308.9521, 79.68020
309.4343, 78.05134
309.9164, 76.70833
310.3985, 75.94756
310.8806, 75.76168
311.3627, 76.37821
311.8448, 77.81894
312.3270, 79.14977
312.8091, 79.96559
313.2912, 80.31117
313.7733, 80.23939
314.2554, 78.91027
314.7375, 77.90990
315.2197, 78.32292
315.7018, 79.99499
316.1839, 81.56536
316.6660, 82.74911
317.1481, 83.40527
317.6302, 83.38810
318.1124, 82.24406
318.5945, 80.95821
319.0766, 79.38492
319.5587, 77.81844
320.0408, 77.24168
320.5229, 79.34404
321.0051, 81.55212
321.4872, 82.30746
321.9693, 80.33128
322.4514, 78.84189
322.9335, 79.06112
323.4156, 80.15659
323.8978, 80.52371
324.3799, 79.13768
324.8620, 77.63109
325.3441, 76.48076
325.8262, 75.63892
326.3083, 75.44949
326.7905, 76.24381
327.2726, 77.60960
327.7547, 79.02578
328.2368, 81.34673
328.7189, 82.81425
329.2010, 82.69907
329.6832, 80.78207
330.1653, 79.75304
330.6474, 80.23742
331.1295, 81.16003
331.6116, 81.61817
332.0938, 80.98777
332.5759, 80.91653
333.0580, 81.92900
333.5401, 83.80827
334.0222, 84.84897
334.5043, 84.79321
334.9865, 84.26955
335.4686, 83.54326
335.9507, 82.34348
336.4328, 81.76112
336.9149, 82.23697
337.3970, 83.17480
337.8792, 82.90944
338.3613, 81.12611
338.8434, 79.02856
339.3255, 76.97643
339.8076, 74.88261
340.2898, 73.54072
340.7719, 73.10044
341.2540, 73.13381
341.7361, 73.04092
342.2182, 72.81407
342.7003, 72.55882
343.1825, 72.33964
343.6646, 72.13125
344.1467, 71.76086
344.6288, 71.20696
345.1109, 70.58262
345.5930, 69.95979
346.0752, 69.35044
346.5573, 68.79269
347.0394, 68.27017
347.5215, 67.82114
348.0036, 67.44738
348.4857, 67.15668
348.9679, 67.16010
349.4500, 67.96697
349.9321, 69.21738
350.4142, 69.81511
350.8963, 69.48502
351.3784, 68.74705
351.8606, 68.02117
352.3427, 67.39302
352.8248, 67.17191
353.3069, 67.96807
353.7890, 69.11201
354.2711, 69.53366
354.7533, 69.05553
355.2354, 68.72454
355.7175, 69.54957
356.1996, 71.12505
356.6817, 72.74369
357.1638, 74.24998
357.6460, 75.58238
358.1281, 76.76215
358.6102, 77.77250
359.0923, 78.47062
359.5744, 78.66019
360.0565, 78.53840
360.5387, 78.28215
361.0208, 77.77527
361.5029, 77.34877
361.9850, 77.46415
362.4671, 77.83947
362.9492, 77.59828
363.4314, 76.08592
363.9135, 74.13115
364.3956, 72.08331
364.8777, 69.72278
365.3598, 67.90675
365.8419, 67.21078
366.3241, 67.07773
366.8062, 66.67857
367.2883, 65.58900
367.7704, 64.52006
368.2526, 63.69121
368.7347, 63.16169
369.2168, 62.53605
369.6989, 61.36930
370.1810, 60.36938
370.6631, 60.14887
371.1453, 61.49471
371.6274, 62.45668
372.1095, 62.80786
372.5916, 62.58944
373.0737, 62.03523
373.5558, 60.91162
374.0380, 59.79199
374.5201, 58.98727
375.0022, 58.58134
375.4843, 58.26465
375.9664, 58.11528
376.4485, 57.97380
376.9307, 57.34320
377.4128, 55.99445
377.8949, 55.17662
378.3770, 55.80433
378.8591, 57.74658
379.3412, 58.07800
379.8234, 56.43456
380.3055, 54.45338
380.7876, 54.32622
381.2697, 55.91624
381.7518, 56.72036
382.2339, 55.68963
382.7161, 53.76166
383.1982, 53.13518
383.6803, 53.78564
384.1624, 54.86255
384.6445, 56.16396
385.1266, 57.39778
385.6088, 57.65348
386.0909, 56.54619
386.5730, 55.22622
387.0551, 55.31814
387.5372, 56.34868
388.0193, 56.96055
388.5015, 55.93142
388.9836, 54.39174
389.4657, 53.51778
389.9478, 53.38100
390.4299, 53.60056
390.9120, 54.06886
391.3942, 54.69515
391.8763, 55.36821
392.3584, 56.55174
392.8405, 57.29261
393.3226, 56.61098
393.8047, 54.88269
394.2869, 53.82775
394.7690, 54.72760
395.2511, 56.09162
395.7332, 57.05288
396.2154, 57.51965
396.6975, 57.48680
397.1796, 56.43930
397.6617, 54.96907
398.1438, 54.09709
398.6259, 54.18591
399.1081, 54.65141
399.5902, 55.54680
400.0723, 57.02021
400.5544, 57.85104
401.0365, 57.60448
401.5186, 57.03637
402.0008, 56.79898
402.4829, 57.26931
402.9650, 57.32614
403.4471, 56.64825
403.9292, 55.46289
404.4113, 54.71944
404.8935, 54.43718
405.3756, 54.53440
405.8577, 55.23597
406.3398, 56.75329
406.8219, 57.05361
407.3040, 55.69484
407.7862, 53.92364
408.2683, 53.86372
408.7504, 55.58631
409.2325, 56.63963
409.7146, 55.85176
410.1967, 53.84557
410.6789, 52.65018
411.1610, 52.28452
411.6431, 52.22756
412.1252, 51.87797
412.6073, 51.46845
413.0894, 51.83967
413.5716, 53.47977
414.0537, 55.20985
414.5358, 55.31939
415.0179, 54.23038
415.5000, 53.32526
415.9821, 53.51944
416.4643, 54.19703
416.9464, 54.87084
417.4285, 55.52037
417.9106, 55.79671
418.3927, 55.06767
418.8748, 53.97143
419.3570, 53.27864
419.8391, 53.80318
420.3212, 54.23746
420.8033, 54.01958
421.2854, 53.23513
421.7675, 52.29772
422.2497, 50.71078
422.7318, 49.46824
423.2139, 49.14648
423.6960, 50.09222
424.1781, 51.33419
424.6602, 53.43972
425.1424, 55.60394
425.6245, 56.59901
426.1066, 55.39943
426.5887, 54.31854
427.0709, 53.85876
427.5530, 54.01927
428.0351, 54.18446
428.5172, 54.42865
428.9993, 54.57643
429.4814, 54.41648
429.9636, 53.76838
430.4457, 53.54895
430.9278, 53.96613
431.4099, 54.71928
431.8920, 55.19483
432.3741, 55.39149
432.8563, 55.34827
433.3384, 55.05114
433.8205, 54.51596
434.3026, 53.72469
434.7847, 52.61003
435.2668, 51.73660
435.7490, 51.89893
436.2311, 52.82976
436.7132, 53.60410
437.1953, 54.05769
437.6774, 54.13354
438.1595, 53.46325
438.6417, 52.24800
439.1238, 51.32073
439.6059, 51.37397
440.0880, 51.87341
440.5701, 52.32845
441.0522, 52.71034
441.5344, 52.87412
442.0165, 52.35141
442.4986, 51.68049
442.9807, 51.52494
443.4628, 53.15377
443.9449, 54.31066
444.4271, 53.67927
444.9092, 51.60962
445.3913, 50.13177
445.8734, 49.88939
446.3555, 50.27954
446.8376, 51.07257
447.3198, 52.55128
447.8019, 53.84336
448.2840, 54.99738
448.7661, 55.91908
449.2482, 56.50100
449.7303, 56.92846
450.2125, 56.65814
450.6946, 55.30803
451.1767, 52.98318
451.6588, 51.29984
452.1409, 50.27166
452.6230, 49.81822
453.1052, 50.09172
453.5873, 51.17696
454.0694, 51.80989
454.5515, 51.75025
455.0337, 51.49582
455.5158, 52.03989
455.9979, 53.31773
456.4800, 54.30066
456.9621, 54.44288
457.4442, 54.02491
457.9264, 53.74072
458.4085, 53.58126
458.8906, 53.24066
459.3727, 52.19595
459.8548, 50.87525
460.3369, 49.98241
460.8191, 49.69497
461.3012, 49.77899
461.7833, 50.37119
462.2654, 51.18578
462.7475, 51.62683
463.2296, 51.26892
463.7118, 50.60827
464.1939, 49.61029
464.6760, 48.25529
465.1581, 47.75468
465.6402, 49.10786
466.1223, 51.07787
466.6045, 52.78374
467.0866, 54.62144
467.5687, 55.54199
468.0508, 54.96322
468.5329, 53.48924
469.0150, 52.43170
469.4972, 51.90059
469.9793, 51.64101
470.4614, 51.64134
470.9435, 51.91840
471.4256, 52.15271
471.9077, 52.40537
472.3899, 52.49569
472.8720, 52.09998
473.3541, 51.13285
473.8362, 50.75047
474.3183, 51.29598
474.8004, 52.20556
475.2826, 52.21239
475.7647, 51.39086
476.2468, 50.79947
476.7289, 51.38404
477.2110, 52.50132
477.6931, 52.53595
478.1753, 51.48116
478.6574, 50.41607
479.1395, 50.13248
479.6216, 50.43316
480.1037, 51.15710
480.5858, 52.73663
481.0680, 53.84027
481.5501, 52.93280
482.0322, 50.90354
482.5143, 49.61431
482.9964, 50.50771
483.4786, 51.69102
483.9607, 52.27559
484.4428, 52.15849
484.9249, 52.01634
485.4070, 51.87704
485.8892, 51.82054
486.3713, 51.91879
486.8534, 52.53621
487.3355, 52.74101
487.8176, 52.14578
488.2997, 51.24738
488.7819, 51.18370
489.2640, 52.39307
489.7461, 53.44984
490.2282, 53.88646
490.7103, 53.73359
491.1924, 53.34667
491.6746, 52.60955
492.1567, 52.10218
492.6388, 52.73152
493.1209, 54.28564
493.6030, 54.72039
494.0851, 53.56392
494.5673, 51.78771
495.0494, 50.49142
495.5315, 49.70046
496.0136, 49.55150
496.4957, 51.07496
496.9778, 52.69256
497.4600, 52.12928
497.9421, 49.63976
498.4242, 47.76776
498.9063, 48.86390
499.3884, 50.76428
499.8705, 51.49819
500.3527, 50.15178
500.8348, 48.93714
501.3169, 48.81841
501.7990, 49.26274
502.2811, 49.52124
502.7632, 48.95185
503.2454, 48.73399
503.7275, 49.33307
504.2096, 50.64704
504.6917, 51.58875
505.1738, 52.02806
505.6559, 52.26193
506.1381, 52.45636
506.6202, 52.67200
507.1023, 52.58675
507.5844, 52.15258
508.0665, 51.50779
508.5486, 50.65313
509.0308, 49.56910
509.5129, 49.13594
509.9950, 49.83744
510.4771, 51.06276
510.9592, 51.36476
511.4413, 50.84056
511.9235, 50.44648
512.4056, 50.99439
512.8877, 51.97414
513.3698, 52.66738
513.8519, 53.01641
514.3340, 53.13056
514.8162, 53.24378
515.2983, 53.11208
515.7804, 52.39349
516.2625, 50.11851
516.7446, 48.34614
517.2267, 48.28591
517.7089, 49.35952
518.1910, 50.15258
518.6731, 50.45138
519.1552, 50.34106
519.6373, 49.61350
520.1194, 48.15044
520.6016, 47.34919
521.0837, 47.41092
521.5658, 47.91547
522.0479, 48.61823
522.5300, 49.57578
523.0121, 50.55790
523.4943, 51.69098
523.9764, 52.65076
524.4585, 52.63557
524.9406, 51.61868
525.4227, 50.89544
525.9048, 51.16755
526.3870, 51.93712
526.8691, 51.80292
527.3513, 50.82745
527.8334, 49.96539
528.3155, 50.08694
528.7976, 50.67815
529.2797, 51.04982
529.7618, 51.13631
530.2440, 50.89226
530.7261, 49.77256
531.2082, 48.46321
531.6903, 47.86178
532.1724, 49.11140
532.6545, 50.20166
533.1367, 50.20055
533.6188, 49.46676
534.1009, 49.29236
534.5830, 50.59607
535.0651, 51.78971
535.5472, 52.40228
536.0294, 52.42207
536.5115, 51.86570
536.9936, 50.23647
537.4757, 48.72494
537.9578, 48.45384
538.4399, 49.64681
538.9221, 50.65855
539.4042, 51.32681
539.8863, 51.75647
540.3684, 52.20483
540.8505, 52.64458
541.3326, 52.73952
541.8148, 52.24110
542.2969, 51.38385
542.7790, 50.24764
543.2611, 48.94796
543.7432, 48.34583
544.2253, 49.64956
544.7075, 51.61439
545.1896, 53.10912
545.6717, 54.04654
546.1538, 54.12328
546.6359, 52.17506
547.1180, 49.71363
547.6002, 48.37159
548.0823, 49.69418
548.5644, 50.82025
549.0465, 51.05131
549.5286, 50.71141
550.0107, 50.74086
550.4929, 51.25497
550.9750, 51.98001
551.4571, 52.96414
551.9392, 54.21352
552.4213, 54.91885
552.9034, 55.06124
553.3856, 54.74031
553.8677, 53.82039
554.3498, 52.37346
554.8319, 51.27507
555.3140, 50.62692
555.7961, 50.28360
556.2783, 50.07846
556.7604, 50.02876
557.2425, 50.20432
557.7246, 50.80562
558.2067, 51.46248
558.6888, 51.86598
559.1710, 52.03175
559.6531, 52.00054
560.1352, 51.37465
560.6173, 50.88824
561.0994, 51.12728
561.5815, 52.25252
562.0637, 53.06711
562.5458, 53.38768
563.0279, 53.27254
563.5100, 52.72614
563.9921, 50.99928
564.4742, 50.25929
564.9564, 51.16809
565.4385, 52.60197
565.9206, 52.43359
566.4027, 50.26215
566.8848, 48.50248
567.3669, 47.88725
567.8491, 48.15773
568.3312, 48.65161
568.8133, 49.35691
569.2954, 50.01822
569.7775, 50.43905
570.2596, 50.70873
570.7418, 50.93642
571.2239, 51.12695
571.7060, 51.40865
572.1881, 51.98540
572.6702, 52.65820
573.1523, 53.24115
573.6345, 53.81239
574.1166, 54.04964
574.5987, 53.46987
575.0808, 52.54811
575.5629, 52.06538
576.0450, 53.05029
576.5272, 53.45764
577.0093, 52.56277
577.4914, 50.64777
577.9735, 49.55364
578.4556, 49.44556
578.9377, 49.84482
579.4199, 50.84265
579.9020, 52.45619
580.3841, 52.64920
580.8662, 51.17172
581.3483, 49.61862
581.8304, 49.95129
582.3126, 51.59587
582.7947, 52.53357
583.2768, 52.31346
583.7589, 51.53368
584.2410, 50.52097
584.7231, 49.44061
585.2053, 48.62010
585.6874, 48.25446
586.1696, 48.13137
586.6517, 48.19691
587.1338, 48.42503
587.6159, 48.71077
588.0980, 48.87784
588.5801, 49.22808
589.0623, 50.02135
589.5444, 51.39019
590.0265, 52.28266
590.5086, 52.55210
590.9907, 52.53350
591.4728, 52.50570
591.9550, 52.51514
592.4371, 52.13838
592.9192, 51.20376
593.4013, 50.22290
593.8834, 49.87578
594.3655, 50.13783
594.8477, 50.94939
595.3298, 52.71048
595.8119, 54.46627
596.2940, 54.87894
596.7761, 54.16578
597.2582, 53.07040
597.7404, 51.20226
598.2225, 49.69356
598.7046, 49.76504
599.1867, 51.44611
599.6688, 52.37321
600.1509, 50.89209
600.6331, 49.12721
601.1152, 48.46824
601.5973, 49.57492
602.0794, 50.29939
602.5615, 50.43310
603.0436, 50.37813
603.5258, 50.67250
604.0079, 51.46263
604.4900, 51.72307
604.9721, 51.06258
605.4542, 50.12320
605.9363, 50.58632
606.4185, 52.23241
606.9006, 53.10491
607.3827, 51.47260
607.8648, 49.06730
608.3469, 48.64480
608.8290, 49.89622
609.3112, 51.10778
609.7933, 51.15050
610.2754, 50.84685
610.7575, 50.87089
611.2396, 51.36271
611.7217, 51.63278
612.2039, 51.37132
612.6860, 50.88664
613.1681, 50.36507
613.6502, 49.18355
614.1323, 49.17305
614.6144, 51.16879
615.0966, 53.62157
615.5787, 54.06566
616.0608, 52.10934
616.5429, 50.66719
617.0250, 50.58421
617.5071, 51.21998
617.9893, 51.09719
618.4714, 50.30440
618.9535, 49.54272
619.4356, 49.25285
619.9177, 49.14998
620.3998, 48.81882
620.8820, 48.29043
621.3641, 47.88515
621.8462, 47.40253
622.3283, 47.36935
622.8104, 48.42127
623.2925, 51.09142
623.7747, 52.98980
624.2568, 53.14555
624.7389, 52.68762
625.2210, 52.52546
625.7031, 52.88367
626.1852, 53.07344
626.6674, 53.14510
627.1495, 52.93360
627.6316, 51.82613
628.1137, 49.75071
628.5958, 48.63017
629.0779, 49.35041
629.5601, 50.96190
630.0422, 51.58253
630.5243, 51.39007
631.0064, 51.24960
631.4885, 51.95006
631.9706, 52.71527
632.4528, 52.76918
632.9349, 52.13368
633.4170, 51.35615
633.8991, 50.31693
634.3812, 49.48198
634.8633, 49.12041
635.3455, 49.32109
635.8276, 49.89095
636.3097, 51.45803
636.7918, 52.80045
637.2739, 52.58724
637.7560, 50.08739
638.2382, 49.18798
638.7203, 50.68550
639.2024, 52.94692
639.6845, 53.27588
640.1666, 51.92751
640.6487, 51.01835
641.1309, 51.35127
641.6130, 52.18795
642.0951, 52.74982
642.5772, 52.99968
643.0594, 52.80508
643.5415, 51.21344
644.0236, 49.93463
644.5057, 50.44774
644.9879, 52.52612
645.4700, 53.77210
645.9521, 53.01052
646.4342, 51.85112
646.9163, 50.85490
647.3984, 49.92311
647.8806, 49.88371
648.3627, 51.11805
648.8448, 52.53112
649.3269, 53.35026
649.8090, 53.57092
650.2911, 53.22374
650.7733, 52.26250
651.2554, 50.95149
651.7375, 48.88481
652.2196, 46.72519
652.7017, 46.26775
653.1838, 48.80805
653.6660, 51.61235
654.1481, 52.64840
654.6302, 52.46582
655.1123, 52.04366
655.5944, 50.94223
656.0765, 50.45149
656.5587, 51.66548
657.0408, 54.00914
657.5229, 54.72295
658.0050, 52.65100
658.4871, 50.91879
658.9692, 50.87711
659.4514, 52.29167
659.9335, 52.26436
660.4156, 50.59029
660.8977, 49.16283
661.3798, 49.83657
661.8619, 51.76525
662.3441, 52.57029
662.8262, 52.09138
663.3083, 51.45168
663.7904, 51.36407
664.2725, 51.68635
664.7546, 52.34698
665.2368, 53.54993
665.7189, 54.48928
666.2010, 55.33252
666.6831, 55.59320
667.1652, 54.58307
667.6473, 50.47839
668.1295, 48.21294
668.6116, 48.78283
669.0937, 50.86979
669.5758, 51.87242
670.0579, 51.67872
670.5400, 51.57853
671.0222, 52.09095
671.5043, 52.77293
671.9864, 52.50698
672.4685, 51.49182
672.9506, 50.71294
673.4327, 51.05361
673.9149, 51.63814
674.3970, 51.64386
674.8791, 51.12691
675.3612, 50.63275
675.8433, 50.20617
676.3254, 49.99842
676.8076, 50.18550
677.2897, 50.87253
677.7718, 51.26727
678.2539, 51.07534
678.7360, 50.99754
679.2181, 51.67970
679.7003, 53.25519
680.1824, 54.13700
680.6645, 54.24709
681.1466, 53.78472
681.6287, 52.46149
682.1108, 50.73390
682.5930, 50.04213
683.0751, 50.90582
683.5572, 52.00157
684.0393, 52.24339
684.5214, 51.99842
685.0035, 51.79646
685.4857, 51.96587
685.9678, 52.01062
686.4499, 51.59151
686.9320, 50.99348
687.4141, 50.89197
687.8962, 51.82090
688.3784, 52.15103
688.8605, 51.09018
689.3426, 49.35670
689.8247, 49.90042
690.3068, 52.83641
690.7889, 55.07605
691.2711, 54.47514
691.7532, 52.46772
692.2353, 52.04578
692.7174, 52.98336
693.1995, 53.83509
693.6816, 53.42109
694.1638, 52.80702
694.6459, 53.02478
695.1280, 54.20469
695.6101, 54.67620
696.0922, 53.16808
696.5743, 51.56340
697.0565, 50.98356
697.5386, 51.84700
698.0207, 51.82755
698.5028, 50.51847
698.9849, 49.19009
699.4670, 49.17120
699.9492, 50.33288
700.4313, 51.40232
700.9135, 52.26826
701.3956, 52.81281
701.8777, 52.68918
702.3598, 52.20091
702.8419, 51.91657
703.3240, 52.23738
703.8062, 52.27981
704.2883, 50.79490
704.7704, 48.97458
705.2525, 48.58575
705.7346, 51.85903
706.2167, 54.07429
706.6989, 54.45645
707.1810, 53.66086
707.6631, 53.16865
708.1452, 53.09703
708.6273, 52.60102
709.1094, 51.06929
709.5916, 49.31029
710.0737, 49.67881
710.5558, 51.73011
711.0379, 53.17841
711.5200, 51.93768
712.0021, 50.19373
712.4843, 50.09027
712.9664, 51.32700
713.4485, 52.18457
713.9306, 51.35712
714.4127, 50.60341
714.8948, 50.90057
715.3770, 52.27355
715.8591, 53.22302
716.3412, 53.75001
716.8233, 53.84982
717.3054, 53.29862
717.7875, 52.13901
718.2697, 51.73075
718.7518, 52.12734
719.2339, 52.50793
719.7160, 51.85115
720.1981, 50.82951
720.6802, 50.69973
721.1624, 51.70965
721.6445, 52.48393
722.1266, 51.56639
722.6087, 50.43052
723.0908, 50.48550
723.5729, 53.17539
724.0551, 54.46440
724.5372, 53.28060
725.0193, 51.47339
725.5014, 51.06732
725.9835, 52.40302
726.4656, 52.93137
726.9478, 52.16167
727.4299, 51.14683
727.9120, 51.66590
728.3941, 53.21896
728.8762, 54.14563
729.3583, 53.74546
729.8405, 53.10479
730.3226, 53.22371
730.8047, 53.69634
731.2868, 53.84957
731.7689, 52.88727
732.2510, 52.27815
732.7332, 52.88007
733.2153, 53.93872
733.6974, 53.77129
734.1795, 51.67630
734.6616, 50.31971
735.1437, 50.54782
735.6259, 51.77211
736.1080, 52.56444
736.5901, 52.95605
737.0722, 53.22886
737.5543, 53.69323
738.0364, 53.97403
738.5186, 53.33495
739.0007, 52.07156
739.4828, 51.21958
739.9649, 51.57757
740.4470, 52.10991
740.9291, 52.44763
741.4113, 52.56235
741.8934, 52.43968
742.3755, 51.93211
742.8576, 51.44506
743.3397, 51.08219
743.8218, 50.86552
744.3040, 51.11064
744.7861, 51.83062
745.2682, 52.42210
745.7503, 52.10659
746.2324, 51.55326
746.7145, 52.06927
747.1967, 53.61332
747.6788, 54.86990
748.1609, 54.94675
748.6430, 54.61502
749.1251, 54.32053
749.6072, 54.09108
750.0894, 54.02801
750.5715, 54.39991
751.0536, 54.58710
751.5357, 54.06082
752.0178, 52.71697
752.4999, 51.86744
752.9821, 51.51318
753.4642, 51.62048
753.9463, 52.56398
754.4284, 53.85295
754.9105, 54.41938
755.3926, 54.07720
755.8748, 53.59039
756.3569, 53.38099
756.8390, 53.29109
757.3211, 53.19339
757.8032, 53.13499
758.2853, 52.88232
758.7675, 52.11981
759.2496, 51.46687
759.7318, 51.76336
760.2139, 53.29586
760.6960, 53.21534
761.1781, 50.85267
761.6602, 48.44659
762.1423, 49.24010
762.6245, 52.07506
763.1066, 54.20390
763.5887, 55.02301
764.0708, 55.04931
764.5529, 53.86631
765.0350, 52.40281
765.5172, 51.76054
765.9993, 53.39105
766.4814, 54.19056
766.9635, 53.53463
767.4456, 52.33111
767.9277, 51.77180
768.4099, 51.94388
768.8920, 52.17008
769.3741, 52.36868
769.8562, 52.52151
770.3383, 52.59556
770.8204, 52.60478
771.3026, 52.59443
771.7847, 52.61390
772.2668, 52.55197
772.7489, 52.06982
773.2310, 51.52611
773.7131, 51.48722
774.1953, 52.88608
774.6774, 53.72489
775.1595, 53.55951
775.6416, 52.87010
776.1237, 52.55012
776.6058, 52.65687
777.0880, 52.69991
777.5701, 52.57590
778.0522, 52.30873
778.5343, 51.60147
779.0164, 50.75579
779.4985, 50.70898
779.9807, 52.95206
780.4628, 54.74056
780.9449, 53.49276
781.4270, 50.67462
781.9091, 49.31599
782.3912, 51.33241
782.8734, 53.25900
783.3555, 54.74646
783.8376, 55.80294
784.3197, 56.41646
784.8018, 56.58452
785.2839, 56.35786
785.7661, 55.62145
786.2482, 54.69633
786.7303, 54.05616
787.2124, 53.67491
787.6945, 53.46048
788.1766, 53.64832
788.6588, 53.71404
789.1409, 53.22663
789.6230, 52.40563
790.1051, 51.85751
790.5872, 51.50463
791.0693, 51.68082
791.5515, 52.70969
792.0336, 54.17814
792.5157, 54.80473
792.9978, 54.58601
793.4799, 54.26817
793.9620, 54.03390
794.4442, 53.95757
794.9263, 54.27713
795.4084, 54.85267
795.8905, 55.29739
796.3726, 55.72750
796.8547, 55.68791
797.3369, 54.57505
797.8190, 52.79644
798.3011, 51.75033
798.7832, 51.68788
799.2653, 51.88967
799.7474, 52.22339
800.2296, 52.67632
800.7117, 53.39605
801.1938, 54.31953
801.6759, 54.74380
802.1580, 54.14714
802.6401, 53.15157
803.1223, 52.15444
803.6044, 51.32455
804.0865, 51.11145
804.5686, 52.37392
805.0507, 53.50692
805.5328, 53.71599
806.0150, 53.44287
806.4971, 54.01673
806.9792, 55.95841
807.4613, 57.00908
807.9434, 56.27340
808.4255, 54.57057
808.9077, 53.77296
809.3898, 53.69652
809.8719, 53.49432
810.3540, 52.22823
810.8361, 51.29065
811.3182, 52.21148
811.8004, 54.28267
812.2825, 55.84553
812.7646, 56.60465
813.2467, 56.57866
813.7288, 55.27601
814.2109, 53.40736
814.6931, 52.94106
815.1752, 54.03868
815.6573, 55.07621
816.1394, 55.70724
816.6215, 55.85410
817.1037, 55.01043
817.5858, 53.56707
818.0679, 52.53439
818.5500, 52.66018
819.0322, 52.95074
819.5143, 52.75368
819.9964, 52.40314
820.4785, 52.64536
820.9606, 53.89737
821.4427, 55.02231
821.9249, 55.93743
822.4070, 56.54920
822.8891, 56.51188
823.3712, 55.88882
823.8533, 55.42138
824.3354, 55.44891
824.8176, 55.43451
825.2997, 54.53756
825.7818, 53.22294
826.2639, 52.30549
826.7460, 52.08283
827.2281, 52.24509
827.7103, 53.18031
828.1924, 54.25057
828.6745, 54.55677
829.1566, 53.88497
829.6387, 53.23835
830.1208, 52.67822
830.6030, 52.39527
831.0851, 53.04331
831.5672, 54.21283
832.0493, 54.70156
832.5314, 53.95741
833.0135, 53.07522
833.4957, 52.55245
833.9778, 52.43148
834.4599, 52.76138
834.9420, 54.60632
835.4241, 55.32857
835.9063, 54.55995
836.3884, 53.10647
836.8705, 51.56563
837.3526, 49.97232
837.8347, 49.87584
838.3168, 51.69606
838.7990, 53.76130
839.2811, 54.26044
839.7632, 53.94708
840.2453, 53.87841
840.7274, 54.37876
841.2095, 54.72993
841.6917, 54.81685
842.1738, 54.55017
842.6559, 53.76416
843.1380, 52.08448
843.6201, 51.27999
844.1022, 51.48460
844.5844, 52.10358
845.0665, 52.71322
845.5486, 53.28752
846.0307, 53.73760
846.5128, 54.05756
846.9949, 54.30655
847.4771, 54.87104
847.9592, 55.13196
848.4413, 54.21985
848.9234, 51.52224
849.4055, 50.88754
849.8876, 53.83192
850.3698, 56.53234
850.8519, 56.28349
851.3340, 53.42582
851.8161, 52.51759
852.2982, 53.54661
852.7803, 54.87612
853.2625, 55.73383
853.7446, 55.98799
854.2267, 55.07546
854.7088, 53.15095
855.1909, 52.00053
855.6730, 52.72550
856.1552, 53.84383
856.6373, 54.98513
857.1194, 56.07540
857.6015, 56.40034
858.0836, 55.84116
858.5657, 55.45707
859.0479, 56.04023
859.5300, 56.91719
860.0121, 56.56005
860.4942, 55.30898
860.9763, 54.35428
861.4584, 54.65577
861.9406, 55.03519
862.4227, 54.85783
862.9048, 54.31416
863.3869, 54.13794
863.8690, 54.52720
864.3511, 54.80835
864.8333, 54.87838
865.3154, 54.68717
865.7975, 53.71771
866.2796, 52.28785
866.7617, 51.89726
867.2438, 53.93959
867.7260, 55.69725
868.2081, 54.32005
868.6902, 51.54035
869.1723, 50.04731
869.6544, 51.67497
870.1365, 52.78500
870.6187, 52.92544
871.1008, 52.77843
871.5829, 53.51588
872.0650, 55.05474
872.5471, 55.55077
873.0292, 54.58282
873.5114, 53.28811
873.9935, 52.74036
874.4756, 52.60701
874.9577, 52.46522
875.4399, 52.19001
875.9220, 52.03327
876.4041, 51.87061
876.8862, 52.01514
877.3683, 52.88773
877.8505, 54.75075
878.3326, 55.37803
878.8147, 54.63084
879.2968, 53.65843
879.7789, 53.43129
880.2610, 53.65101
880.7432, 53.92799
881.2253, 54.21982
881.7074, 54.30632
882.1895, 53.88318
882.6716, 53.40699
883.1537, 53.06824
883.6359, 52.87447
884.1180, 53.02714
884.6001, 53.64009
885.0822, 54.12450
885.5643, 54.15215
886.0464, 53.88310
886.5286, 53.73524
887.0107, 53.64739
887.4928, 53.36349
887.9749, 52.31365
888.4570, 51.48213
888.9391, 51.74046
889.4213, 52.63239
889.9034, 52.56950
890.3855, 50.75708
890.8676, 49.88496
891.3497, 50.79197
891.8318, 52.47677
892.3140, 52.96315
892.7961, 52.56116
893.2782, 52.56571
893.7603, 53.62718
894.2424, 54.56773
894.7245, 54.24432
895.2067, 53.40477
895.6888, 52.96667
896.1709, 53.56079
896.6530, 53.75323
897.1351, 53.35157
897.6172, 52.84745
898.0994, 52.75368
898.5815, 53.02703
899.0636, 53.44723
899.5457, 54.00694
900.0278, 54.39508
900.5099, 54.40330
900.9921, 54.09243
901.4742, 53.34372
901.9563, 52.03451
902.4384, 51.32739
902.9205, 51.53345
903.4026, 52.09829
903.8848, 53.07410
904.3669, 54.27188
904.8490, 53.60878
905.3311, 51.18287
905.8132, 49.54864
906.2953, 51.10247
906.7775, 53.53612
907.2596, 54.82323
907.7417, 55.05554
908.2238, 54.70433
908.7059, 53.01299
909.1880, 51.85884
909.6702, 51.78001
910.1523, 52.36871
910.6344, 52.73116
911.1165, 52.86851
911.5986, 52.75289
912.0807, 52.22204
912.5629, 51.82517
913.0450, 52.67433
913.5271, 53.90569
914.0092, 54.17977
914.4913, 52.36938
914.9734, 50.93364
915.4556, 50.05627
915.9377, 49.85577
916.4198, 50.84243
916.9019, 53.16106
917.3840, 53.76442
917.8661, 52.31808
918.3483, 50.85398
918.8304, 51.66718
919.3125, 53.26247
919.7946, 53.64556
920.2767, 52.60052
920.7589, 51.88627
921.2410, 52.39637
921.7231, 52.97504
922.2052, 53.19822
922.6873, 53.09191
923.1694, 52.79989
923.6516, 52.31440
924.1337, 51.98059
924.6158, 51.86670
925.0979, 52.09341
925.5800, 53.32096
926.0621, 55.00405
926.5443, 55.79449
927.0264, 54.10825
927.5085, 52.90471
927.9906, 53.12173
928.4727, 53.88879
928.9548, 53.58997
929.4370, 52.16714
929.9191, 51.45798
930.4012, 51.88066
930.8833, 52.67225
931.3654, 53.18128
931.8475, 53.43981
932.3297, 53.41978
932.8118, 52.96201
933.2939, 52.81746
933.7761, 53.83599
934.2582, 54.52913
934.7403, 53.76925
935.2224, 51.49492
935.7045, 50.28300
936.1866, 50.14422
936.6688, 50.50190
937.1509, 51.20932
937.6330, 52.01268
938.1151, 52.75409
938.5972, 53.37172
939.0793, 53.57567
939.5615, 52.62447
940.0436, 52.08090
940.5257, 52.55378
941.0078, 53.56261
941.4899, 53.74506
941.9720, 53.13240
942.4542, 52.51782
942.9363, 52.05894
943.4184, 51.83659
943.9005, 52.15210
944.3826, 52.67260
944.8647, 52.92141
945.3469, 52.51162
945.8290, 52.35516
946.3111, 52.64195
946.7932, 53.03973
947.2753, 53.32935
947.7574, 53.50461
948.2396, 53.31472
948.7217, 52.74969
949.2038, 52.19292
949.6859, 52.19281
950.1680, 52.15000
950.6501, 51.24027
951.1323, 49.52026
951.6144, 48.70965
952.0965, 49.68560
952.5786, 50.36866
953.0607, 49.90010
953.5428, 48.86052
954.0250, 49.27238
954.5071, 50.84809
954.9892, 51.82887
955.4713, 51.04095
955.9534, 50.27074
956.4355, 51.25232
956.9177, 52.94543
957.3998, 53.82673
957.8819, 53.13998
958.3640, 52.71947
958.8461, 52.61237
959.3282, 52.75489
959.8104, 53.23492
960.2925, 53.90816
960.7746, 54.38757
961.2567, 54.63606
961.7388, 54.27482
962.2209, 52.00090
962.7031, 49.92426
963.1852, 49.76019
963.6673, 51.45152
964.1494, 52.68807
964.6315, 53.44754
965.1136, 53.74385
965.5958, 53.35995
966.0779, 52.75986
966.5600, 53.13722
967.0421, 54.10027
967.5242, 54.56053
968.0063, 53.65288
968.4885, 52.78231
968.9706, 52.45065
969.4527, 52.45897
969.9348, 52.56975
970.4169, 52.79512
970.8990, 53.13379
971.3812, 53.64054
971.8633, 53.94773
972.3454, 53.30816
972.8275, 52.41499
973.3096, 52.48500
973.7917, 53.60803
974.2739, 54.36734
974.7560, 53.51844
975.2381, 53.06062
975.7202, 54.09098
976.2023, 56.12262
976.6844, 56.57827
977.1666, 55.47926
977.6487, 54.24831
978.1308, 53.31197
978.6129, 52.75207
979.0950, 52.83772
979.5771, 53.30944
980.0593, 53.73950
980.5414, 54.15603
981.0235, 54.28260
981.5056, 53.91925
981.9877, 53.54560
982.4698, 53.92667
982.9520, 54.82182
983.4341, 54.31147
983.9162, 52.29961
984.3983, 50.90875
984.8804, 52.84648
985.3625, 54.99152
985.8447, 54.55227
986.3268, 51.62172
986.8089, 50.62466
987.2910, 52.39069
987.7731, 53.76906
988.2552, 53.59188
988.7374, 52.64709
989.2195, 52.64856
989.7016, 53.20144
990.1837, 53.18904
990.6658, 51.61044
991.1479, 50.66183
991.6301, 51.90892
992.1122, 53.80478
992.5944, 54.91356
993.0765, 55.17519
993.5586, 54.73899
994.0407, 53.52135
994.5228, 52.28574
995.0049, 51.46284
995.4871, 51.11253
995.9692, 51.52892
996.4513, 52.58942
996.9334, 53.44051
997.4155, 53.82317
997.8976, 53.91135
998.3798, 53.60266
998.8619, 53.12997
999.3440, 53.03465
999.8261, 53.29893
1000.308, 53.81445
1000.790, 54.67475
1001.272, 55.36380
1001.755, 55.34201
1002.237, 54.98489
1002.719, 54.66413
1003.201, 54.38427
1003.683, 54.40226
1004.165, 55.02656
1004.647, 55.17029
1005.129, 53.43559
1005.612, 50.81288
1006.094, 50.35329
1006.576, 51.71452
1007.058, 53.25692
1007.540, 54.33350
1008.022, 55.20052
1008.504, 56.25103
1008.986, 57.06157
1009.468, 56.72903
1009.951, 55.08860
1010.433, 53.57961
1010.915, 52.36129
1011.397, 51.53695
1011.879, 51.39902
1012.361, 51.62917
1012.843, 51.79920
1013.325, 51.80427
1013.807, 52.16919
1014.290, 53.44216
1014.772, 54.39555
1015.254, 54.42126
1015.736, 53.72016
1016.218, 52.95954
1016.700, 52.18903
1017.182, 51.69132
1017.664, 51.54691
1018.147, 51.77083
1018.629, 52.92574
1019.111, 54.22959
1019.593, 54.41087
1020.075, 52.85271
1020.557, 52.02547
1021.039, 52.13789
1021.521, 52.55703
1022.003, 52.81115
1022.486, 52.90333
1022.968, 52.76350
1023.450, 52.41807
1023.932, 52.16121
1024.414, 51.74297
1024.896, 51.93952
1025.378, 53.44096
1025.860, 55.48631
1026.343, 55.58712
1026.825, 53.90524
1027.307, 52.67588
1027.789, 52.48900
1028.271, 52.98106
1028.753, 54.61393
1029.235, 56.31800
1029.717, 56.80240
1030.199, 55.51583
1030.682, 54.31736
1031.164, 53.17675
1031.646, 52.17869
1032.128, 51.20623
1032.610, 50.46235
1033.092, 50.68613
1033.574, 51.65151
1034.056, 52.52113
1034.539, 53.01939
1035.021, 53.22615
1035.503, 52.90144
1035.985, 52.46991
1036.467, 52.48813
1036.949, 52.96197
1037.431, 53.81464
1037.913, 55.11611
1038.396, 55.93357
1038.878, 54.96458
1039.360, 53.46019
1039.842, 52.45066
1040.324, 52.05857
1040.806, 52.28883
1041.288, 53.48087
1041.770, 54.45625
1042.252, 54.88461
1042.734, 54.83974
1043.217, 54.16421
1043.699, 53.16376
1044.181, 52.71618
1044.663, 53.46925
1045.145, 53.87864
1045.627, 52.79294
1046.109, 51.58731
1046.591, 51.29752
1047.074, 51.95613
1047.556, 52.84379
1048.038, 53.96923
1048.520, 54.72746
1049.002, 54.40633
1049.484, 53.81420
1049.966, 53.69067
1050.448, 53.86268
1050.931, 53.76949
1051.413, 52.99286
1051.895, 52.82442
1052.377, 53.58822
1052.859, 54.54382
1053.341, 54.91280
1053.823, 54.76524
1054.305, 53.97268
1054.787, 52.51927
1055.270, 51.77890
1055.752, 53.19501
1056.234, 54.56903
1056.716, 54.93703
1057.198, 54.53674
1057.680, 54.23269
1058.162, 54.01802
1058.644, 53.78306
1059.126, 53.47391
1059.609, 53.17838
1060.091, 53.09370
1060.573, 53.00641
1061.055, 52.59166
1061.537, 51.59398
1062.019, 51.22797
1062.501, 51.59718
1062.983, 52.22150
1063.466, 52.79716
1063.948, 53.40516
1064.430, 54.53742
1064.912, 55.86033
1065.394, 56.37294
1065.876, 55.19958
1066.358, 53.74934
1066.840, 51.81906
1067.323, 50.24888
1067.805, 50.47504
1068.287, 52.15597
1068.769, 52.56770
1069.251, 51.50311
1069.733, 50.88291
1070.215, 53.00046
1070.697, 55.15121
1071.179, 55.33271
1071.661, 53.94475
1072.144, 52.59655
1072.626, 51.18891
1073.108, 50.62600
1073.590, 51.25931
1074.072, 52.47784
1074.554, 54.09463
1075.036, 55.54052
1075.518, 55.99293
1076.001, 55.11765
1076.483, 54.00913
1076.965, 52.38875
1077.447, 51.34636
1077.929, 51.63761
1078.411, 52.80799
1078.893, 53.67363
1079.375, 54.28381
1079.858, 54.80706
1080.340, 55.59692
1080.822, 55.91177
1081.304, 54.89394
1081.786, 53.72882
1082.268, 53.72508
1082.750, 54.92286
1083.232, 54.67223
1083.714, 52.93023
1084.197, 51.57249
1084.679, 52.44218
1085.161, 53.74879
1085.643, 54.07377
1086.125, 53.71247
1086.607, 53.85528
1087.089, 54.76638
1087.571, 55.35517
1088.054, 55.47490
1088.536, 55.19161
1089.018, 54.25138
1089.500, 53.12005
1089.982, 52.50023
1090.464, 52.47017
1090.946, 52.57076
1091.428, 52.68099
1091.911, 52.96399
1092.393, 53.54319
1092.875, 54.25051
1093.357, 54.80010
1093.839, 55.13651
1094.321, 55.05034
1094.803, 54.35512
1095.285, 53.64922
1095.767, 52.92611
1096.250, 52.58723
1096.732, 53.08679
1097.214, 54.34370
1097.696, 54.80501
1098.178, 54.47919
1098.660, 53.54092
1099.142, 51.28226
1099.624, 49.38906
1100.106, 49.43246
1100.589, 50.58303
1101.071, 51.54197
1101.553, 52.25574
1102.035, 52.72611
1102.517, 52.93910
1102.999, 53.00824
1103.481, 52.84948
1103.963, 52.71824
1104.446, 53.21492
1104.928, 54.09719
1105.410, 54.31483
1105.892, 53.02511
1106.374, 52.05086
1106.856, 51.54935
1107.338, 51.59503
1107.820, 52.88160
1108.302, 54.65685
1108.785, 54.88998
1109.267, 53.35250
1109.749, 52.05372
1110.231, 51.91692
1110.713, 52.13611
1111.195, 52.47289
1111.677, 52.89268
1112.159, 53.52151
1112.641, 54.22670
1113.124, 53.93265
1113.606, 51.99726
1114.088, 50.64118
1114.570, 52.00476
1115.052, 54.04341
1115.534, 55.30122
1116.016, 55.75423
1116.498, 55.07379
1116.981, 53.19532
1117.463, 52.07845
1117.945, 53.11320
1118.427, 54.42088
1118.909, 54.08965
1119.391, 52.85411
1119.873, 51.59943
1120.355, 49.82310
1120.838, 50.32447
1121.320, 53.77490
1121.802, 56.60677
1122.284, 55.29446
1122.766, 52.49268
1123.248, 52.34813
1123.730, 54.07314
1124.212, 55.47829
1124.694, 55.78573
1125.177, 55.94750
1125.659, 56.12969
1126.141, 55.98989
1126.623, 54.87726
1127.105, 53.22068
1127.587, 51.91118
1128.069, 51.06956
1128.551, 51.17232
1129.033, 53.97738
1129.516, 55.71984
1129.998, 54.89723
1130.480, 53.01867
1130.962, 52.72364
1131.444, 53.69602
1131.926, 54.32007
1132.408, 54.36816
1132.890, 54.12424
1133.373, 53.23906
1133.855, 52.65982
1134.337, 53.12012
1134.819, 54.25557
1135.301, 54.94441
1135.783, 55.17723
1136.265, 54.55999
1136.747, 52.65398
1137.229, 51.25473
1137.712, 52.91302
1138.194, 55.02480
1138.676, 54.81944
1139.158, 52.27039
1139.640, 51.30134
1140.122, 52.07273
1140.604, 52.75259
1141.086, 52.36312
1141.569, 51.98576
1142.051, 53.26688
1142.533, 55.11858
1143.015, 56.08307
1143.497, 55.80214
1143.979, 54.87616
1144.461, 53.00732
1144.943, 51.71962
1145.426, 52.53767
1145.908, 54.02682
1146.390, 53.57979
1146.872, 52.07228
1147.354, 51.33419
1147.836, 52.79419
1148.318, 53.60122
1148.800, 53.41294
1149.282, 53.20689
1149.765, 54.16836
1150.247, 55.58157
1150.729, 55.55299
1151.211, 54.42884
1151.693, 53.79002
1152.175, 55.20732
1152.657, 55.71727
1153.139, 54.41845
1153.621, 52.75446
1154.104, 52.63752
1154.586, 53.56311
1155.068, 53.73496
1155.550, 53.11802
1156.032, 52.69791
1156.514, 53.49113
1156.996, 53.84001
1157.478, 52.86208
1157.961, 51.52684
1158.443, 51.76802
1158.925, 53.28197
1159.407, 54.49830
1159.889, 55.20458
1160.371, 55.22700
1160.853, 53.84026
1161.335, 52.36089
1161.818, 51.19308
1162.300, 50.53828
1162.782, 51.44300
1163.264, 53.71243
1163.746, 55.00938
1164.228, 54.78639
1164.710, 53.81427
1165.192, 51.45585
1165.674, 49.62531
1166.156, 50.14880
1166.639, 52.54499
1167.121, 54.03139
1167.603, 54.60140
1168.085, 54.38858
1168.567, 53.10068
1169.049, 52.05191
1169.531, 52.69419
1170.013, 53.91782
1170.496, 54.60429
1170.978, 54.70745
1171.460, 55.09242
1171.942, 55.81437
1172.424, 55.77301
1172.906, 53.89331
1173.388, 52.07796
1173.870, 52.73707
1174.353, 54.37483
1174.835, 54.87974
1175.317, 53.80809
1175.799, 53.68093
1176.281, 54.64545
1176.763, 55.36119
1177.245, 54.82026
1177.727, 53.92162
1178.209, 53.74447
1178.692, 53.90783
1179.174, 53.70134
1179.656, 52.62761
1180.138, 52.44988
1180.620, 53.33776
1181.102, 54.24210
1181.584, 54.37274
1182.066, 54.11497
1182.548, 53.64601
1183.031, 53.22004
1183.513, 53.50039
1183.995, 55.31293
1184.477, 56.02074
1184.959, 55.30287
1185.441, 54.32815
1185.923, 54.11518
1186.405, 54.28097
1186.888, 54.38475
1187.370, 54.40731
1187.852, 54.32904
1188.334, 54.02392
1188.816, 53.88934
1189.298, 53.98379
1189.780, 54.17646
1190.262, 54.36539
1190.745, 54.54667
1191.227, 54.89153
1191.709, 55.27997
1192.191, 55.02824
1192.673, 53.59734
1193.155, 52.23212
1193.637, 50.92615
1194.119, 50.19093
1194.601, 50.93148
1195.084, 52.48414
1195.566, 54.02234
1196.048, 55.41752
1196.530, 56.14594
1197.012, 56.14010
1197.494, 55.30520
1197.976, 53.23121
1198.458, 51.25194
1198.941, 51.76319
1199.423, 53.44996
1199.905, 53.94707
1200.387, 53.03999
1200.869, 52.53378
1201.351, 52.94004
1201.833, 53.47817
1202.315, 54.08915
1202.797, 54.48108
1203.280, 53.88244
1203.762, 52.85368
1204.244, 52.41749
1204.726, 52.75693
1205.208, 53.03548
1205.690, 53.10746
1206.172, 53.08185
1206.654, 52.90020
1207.136, 52.80394
1207.619, 53.54357
1208.101, 54.54581
1208.583, 54.69569
1209.065, 53.66145
1209.547, 52.87533
1210.029, 52.55999
1210.511, 52.45641
1210.993, 52.52533
1211.476, 52.66704
1211.958, 52.71226
1212.440, 52.69312
1212.922, 52.71838
1213.404, 52.88468
1213.886, 52.54749
1214.368, 51.05970
1214.850, 50.55191
1215.333, 52.35878
1215.815, 54.97094
1216.297, 55.70914
1216.779, 55.21885
1217.261, 54.65016
1217.743, 54.26645
1218.225, 53.63908
1218.707, 52.51394
1219.189, 51.76590
1219.672, 51.92128
1220.154, 52.53606
1220.636, 52.75531
1221.118, 52.84654
1221.600, 53.42463
1222.082, 55.14303
1222.564, 55.37801
1223.046, 53.32586
1223.528, 51.94203
1224.011, 53.31417
1224.493, 55.59428
1224.975, 55.52184
1225.457, 54.10947
1225.939, 53.06794
1226.421, 52.70692
1226.903, 53.18958
1227.385, 54.85801
1227.868, 56.12172
1228.350, 55.82338
1228.832, 54.91496
1229.314, 54.77209
1229.796, 55.08687
1230.278, 55.38147
1230.760, 55.71577
1231.242, 55.40786
1231.724, 54.22094
1232.207, 53.54196
1232.689, 54.88149
1233.171, 56.44392
1233.653, 55.41238
1234.135, 53.16011
1234.617, 52.01360
1235.099, 52.44987
1235.581, 53.46751
1236.063, 55.19529
1236.546, 56.56323
1237.028, 56.77147
1237.510, 56.41371
1237.992, 55.99682
1238.474, 55.48856
1238.956, 54.76780
1239.438, 53.62779
1239.920, 53.29455
1240.403, 53.84748
1240.885, 54.16857
1241.367, 53.00352
1241.849, 51.86102
1242.331, 51.95872
1242.813, 53.00630
1243.295, 54.83269
1243.777, 57.99514
1244.260, 58.10874
1244.742, 55.17581
1245.224, 52.66865
1245.706, 53.21511
1246.188, 54.39923
1246.670, 54.90704
1247.152, 54.86395
1247.634, 54.42445
1248.116, 53.52871
1248.599, 53.01656
1249.081, 52.88736
1249.563, 53.03359
1250.045, 53.71634
1250.527, 54.28127
1251.009, 54.25834
1251.491, 54.02525
1251.973, 53.90078
1252.455, 53.89095
1252.938, 54.14825
1253.420, 54.68232
1253.902, 55.55263
1254.384, 57.94120
1254.866, 59.16065
1255.348, 57.29188
1255.830, 54.81385
1256.313, 53.98978
1256.795, 54.52369
1257.277, 54.46586
1257.759, 53.97044
1258.241, 53.91305
1258.723, 55.11189
1259.205, 56.24311
1259.687, 57.24333
1260.169, 57.80561
1260.651, 57.44093
1261.134, 56.46104
1261.616, 55.81392
1262.098, 55.44873
1262.580, 55.12896
1263.062, 54.87285
1263.544, 54.43494
1264.026, 53.60566
1264.508, 53.03272
1264.991, 53.50488
1265.473, 54.47460
1265.955, 54.97093
1266.437, 55.07545
1266.919, 55.02268
1267.401, 54.65012
1267.883, 54.55243
1268.365, 54.78010
1268.848, 55.12159
1269.330, 55.54799
1269.812, 55.88796
1270.294, 56.12485
1270.776, 56.06288
1271.258, 55.06557
1271.740, 52.20296
1272.222, 51.69723
1272.704, 53.87698
1273.187, 55.89829
1273.669, 55.22744
1274.151, 54.09502
1274.633, 54.67350
1275.115, 55.98426
1275.597, 56.40000
1276.079, 55.71474
1276.561, 55.38568
1277.043, 55.41196
1277.526, 55.46692
1278.008, 55.40197
1278.490, 55.25217
1278.972, 55.02414
1279.454, 54.72887
1279.936, 54.28841
1280.418, 53.72765
1280.900, 53.58801
1281.383, 53.86648
1281.865, 54.53398
1282.347, 56.04970
1282.829, 57.29512
1283.311, 57.98355
1283.793, 58.17165
1284.275, 57.69477
1284.757, 56.75329
1285.240, 56.26090
1285.722, 56.04812
1286.204, 55.56404
1286.686, 54.21168
1287.168, 53.26407
1287.650, 52.80143
1288.132, 52.85258
1288.614, 53.67115
1289.096, 54.85604
1289.578, 55.81891
1290.061, 56.45601
1290.543, 56.50318
1291.025, 55.43685
1291.507, 54.94935
1291.989, 55.19942
1292.471, 55.26952
1292.953, 54.45958
1293.435, 53.42080
1293.918, 52.56385
1294.400, 52.16422
1294.882, 52.90434
1295.364, 54.99604
1295.846, 55.73126
1296.328, 55.08193
1296.810, 54.81300
1297.292, 56.12164
1297.775, 57.41280
1298.257, 57.23907
1298.739, 56.65454
1299.221, 56.75349
1299.703, 56.46786
1300.185, 56.19173
1300.667, 56.39502
1301.149, 55.86210
1301.631, 56.20020
1302.114, 56.39767
1302.596, 56.19647
##END=



