##NAMES=Senaite
##RRUFFID=R060644
##IDEAL CHEMISTRY=Pb^2+^(Mn^2+^,Y^3+^,U^6+^)(Fe^2+^,Zn^2+^)_2_(Ti^4+^,Fe^3+^,Cr^3+^,V^5+^)_18_(O,OH)_38_
##LOCALITY=Fazenda Guariba, Minas Gerais, Brazil
##OWNER=RRUFF
##SOURCE=Michael Scott
##DESCRIPTION=Black submetallic rounded grains on quartz with associated rutile
##STATUS=The identification of this mineral has been confirmed only by single crystal X-ray diffraction.
##URL=rruff.info/R060644
9.059570e+001, 2.245295e+003
9.107782e+001, 2.247784e+003
9.155994e+001, 2.248778e+003
9.204205e+001, 2.249781e+003
9.252417e+001, 2.248136e+003
9.300629e+001, 2.241552e+003
9.348840e+001, 2.218604e+003
9.397052e+001, 2.168673e+003
9.445264e+001, 2.093292e+003
9.493475e+001, 2.022998e+003
9.541687e+001, 1.956465e+003
9.589898e+001, 1.891838e+003
9.638110e+001, 1.832761e+003
9.686321e+001, 1.783593e+003
9.734533e+001, 1.744840e+003
9.782745e+001, 1.709880e+003
9.830956e+001, 1.673636e+003
9.879168e+001, 1.634969e+003
9.927380e+001, 1.597203e+003
9.975591e+001, 1.560603e+003
1.002380e+002, 1.524879e+003
1.007201e+002, 1.489767e+003
1.012023e+002, 1.453842e+003
1.016844e+002, 1.418785e+003
1.021665e+002, 1.389529e+003
1.026486e+002, 1.367373e+003
1.031307e+002, 1.349481e+003
1.036128e+002, 1.334577e+003
1.040950e+002, 1.323185e+003
1.045771e+002, 1.311134e+003
1.050592e+002, 1.294075e+003
1.055413e+002, 1.274282e+003
1.060234e+002, 1.255038e+003
1.065055e+002, 1.235963e+003
1.069877e+002, 1.218105e+003
1.074698e+002, 1.206897e+003
1.079519e+002, 1.211063e+003
1.084340e+002, 1.210878e+003
1.089161e+002, 1.197568e+003
1.093982e+002, 1.173467e+003
1.098804e+002, 1.144878e+003
1.103625e+002, 1.115940e+003
1.108446e+002, 1.085620e+003
1.113267e+002, 1.061174e+003
1.118088e+002, 1.044717e+003
1.122909e+002, 1.031662e+003
1.127731e+002, 1.020036e+003
1.132552e+002, 1.009578e+003
1.137373e+002, 1.001166e+003
1.142194e+002, 9.962815e+002
1.147015e+002, 9.973098e+002
1.151836e+002, 9.979530e+002
1.156658e+002, 1.000360e+003
1.161479e+002, 1.001502e+003
1.166300e+002, 9.984880e+002
1.171121e+002, 9.902705e+002
1.175942e+002, 9.776624e+002
1.180763e+002, 9.615928e+002
1.185584e+002, 9.402224e+002
1.190406e+002, 9.199694e+002
1.195227e+002, 9.027978e+002
1.200048e+002, 8.882000e+002
1.204869e+002, 8.746032e+002
1.209690e+002, 8.611892e+002
1.214511e+002, 8.487953e+002
1.219333e+002, 8.382504e+002
1.224154e+002, 8.293715e+002
1.228975e+002, 8.226003e+002
1.233796e+002, 8.193536e+002
1.238617e+002, 8.200889e+002
1.243438e+002, 8.203273e+002
1.248260e+002, 8.180765e+002
1.253081e+002, 8.141530e+002
1.257902e+002, 8.086671e+002
1.262723e+002, 8.010804e+002
1.267544e+002, 7.927144e+002
1.272365e+002, 7.865636e+002
1.277187e+002, 7.829540e+002
1.282008e+002, 7.813746e+002
1.286829e+002, 7.826719e+002
1.291650e+002, 7.853039e+002
1.296471e+002, 7.873173e+002
1.301292e+002, 7.875179e+002
1.306114e+002, 7.859763e+002
1.310935e+002, 7.836448e+002
1.315756e+002, 7.801850e+002
1.320577e+002, 7.761901e+002
1.325398e+002, 7.725085e+002
1.330219e+002, 7.685026e+002
1.335041e+002, 7.625785e+002
1.339862e+002, 7.529947e+002
1.344683e+002, 7.387415e+002
1.349504e+002, 7.273867e+002
1.354325e+002, 7.196397e+002
1.359146e+002, 7.135374e+002
1.363968e+002, 7.083635e+002
1.368789e+002, 7.039005e+002
1.373610e+002, 6.998749e+002
1.378431e+002, 6.961469e+002
1.383252e+002, 6.928116e+002
1.388073e+002, 6.890884e+002
1.392895e+002, 6.852457e+002
1.397716e+002, 6.808617e+002
1.402537e+002, 6.753956e+002
1.407358e+002, 6.687103e+002
1.412179e+002, 6.610878e+002
1.417000e+002, 6.525931e+002
1.421821e+002, 6.433319e+002
1.426643e+002, 6.341400e+002
1.431464e+002, 6.250883e+002
1.436285e+002, 6.163239e+002
1.441106e+002, 6.082997e+002
1.445927e+002, 6.011239e+002
1.450748e+002, 5.948649e+002
1.455570e+002, 5.895060e+002
1.460391e+002, 5.850487e+002
1.465212e+002, 5.809365e+002
1.470033e+002, 5.766672e+002
1.474854e+002, 5.721847e+002
1.479675e+002, 5.680342e+002
1.484497e+002, 5.652606e+002
1.489318e+002, 5.622039e+002
1.494139e+002, 5.576013e+002
1.498960e+002, 5.512808e+002
1.503781e+002, 5.444158e+002
1.508602e+002, 5.387851e+002
1.513424e+002, 5.346973e+002
1.518245e+002, 5.312029e+002
1.523066e+002, 5.286062e+002
1.527887e+002, 5.261969e+002
1.532708e+002, 5.233058e+002
1.537529e+002, 5.197145e+002
1.542351e+002, 5.157855e+002
1.547172e+002, 5.124280e+002
1.551993e+002, 5.098978e+002
1.556814e+002, 5.077604e+002
1.561635e+002, 5.067271e+002
1.566456e+002, 5.058556e+002
1.571278e+002, 5.039654e+002
1.576099e+002, 5.004334e+002
1.580920e+002, 4.956284e+002
1.585741e+002, 4.910787e+002
1.590562e+002, 4.866681e+002
1.595383e+002, 4.825786e+002
1.600205e+002, 4.785908e+002
1.605026e+002, 4.749443e+002
1.609847e+002, 4.723226e+002
1.614668e+002, 4.713819e+002
1.619489e+002, 4.716524e+002
1.624310e+002, 4.709601e+002
1.629131e+002, 4.687973e+002
1.633953e+002, 4.662659e+002
1.638774e+002, 4.641577e+002
1.643595e+002, 4.623862e+002
1.648416e+002, 4.600671e+002
1.653237e+002, 4.561901e+002
1.658058e+002, 4.514733e+002
1.662880e+002, 4.476025e+002
1.667701e+002, 4.451072e+002
1.672522e+002, 4.432286e+002
1.677343e+002, 4.411119e+002
1.682164e+002, 4.386751e+002
1.686985e+002, 4.364080e+002
1.691807e+002, 4.345061e+002
1.696628e+002, 4.329695e+002
1.701449e+002, 4.318916e+002
1.706270e+002, 4.314344e+002
1.711091e+002, 4.313906e+002
1.715912e+002, 4.313916e+002
1.720734e+002, 4.317650e+002
1.725555e+002, 4.315137e+002
1.730376e+002, 4.299369e+002
1.735197e+002, 4.276678e+002
1.740018e+002, 4.255726e+002
1.744839e+002, 4.241481e+002
1.749661e+002, 4.233211e+002
1.754482e+002, 4.226622e+002
1.759303e+002, 4.220514e+002
1.764124e+002, 4.218018e+002
1.768945e+002, 4.222382e+002
1.773766e+002, 4.230728e+002
1.778588e+002, 4.238616e+002
1.783409e+002, 4.243349e+002
1.788230e+002, 4.244943e+002
1.793051e+002, 4.239940e+002
1.797872e+002, 4.215358e+002
1.802693e+002, 4.196859e+002
1.807515e+002, 4.197713e+002
1.812336e+002, 4.212232e+002
1.817157e+002, 4.224608e+002
1.821978e+002, 4.220382e+002
1.826799e+002, 4.196754e+002
1.831620e+002, 4.184238e+002
1.836441e+002, 4.193906e+002
1.841263e+002, 4.202271e+002
1.846084e+002, 4.197694e+002
1.850905e+002, 4.180311e+002
1.855726e+002, 4.156910e+002
1.860547e+002, 4.133122e+002
1.865368e+002, 4.108850e+002
1.870190e+002, 4.085525e+002
1.875011e+002, 4.063940e+002
1.879832e+002, 4.042912e+002
1.884653e+002, 4.020721e+002
1.889474e+002, 3.997435e+002
1.894296e+002, 3.976117e+002
1.899117e+002, 3.961496e+002
1.903938e+002, 3.953290e+002
1.908759e+002, 3.940258e+002
1.913580e+002, 3.916506e+002
1.918401e+002, 3.889590e+002
1.923223e+002, 3.867313e+002
1.928044e+002, 3.850534e+002
1.932865e+002, 3.838394e+002
1.937686e+002, 3.835644e+002
1.942507e+002, 3.838549e+002
1.947328e+002, 3.833756e+002
1.952150e+002, 3.810891e+002
1.956971e+002, 3.778543e+002
1.961792e+002, 3.755649e+002
1.966613e+002, 3.749278e+002
1.971434e+002, 3.739763e+002
1.976255e+002, 3.708397e+002
1.981077e+002, 3.662078e+002
1.985898e+002, 3.618655e+002
1.990719e+002, 3.588217e+002
1.995540e+002, 3.568269e+002
2.000361e+002, 3.549012e+002
2.005182e+002, 3.532401e+002
2.010004e+002, 3.513012e+002
2.014825e+002, 3.485598e+002
2.019646e+002, 3.453266e+002
2.024467e+002, 3.423983e+002
2.029288e+002, 3.404559e+002
2.034109e+002, 3.394297e+002
2.038930e+002, 3.381876e+002
2.043752e+002, 3.365435e+002
2.048573e+002, 3.348675e+002
2.053394e+002, 3.333658e+002
2.058215e+002, 3.319664e+002
2.063036e+002, 3.304544e+002
2.067857e+002, 3.285963e+002
2.072679e+002, 3.263585e+002
2.077500e+002, 3.244411e+002
2.082321e+002, 3.229738e+002
2.087142e+002, 3.217307e+002
2.091963e+002, 3.207347e+002
2.096784e+002, 3.199278e+002
2.101606e+002, 3.191942e+002
2.106427e+002, 3.184198e+002
2.111248e+002, 3.175843e+002
2.116069e+002, 3.169258e+002
2.120890e+002, 3.167533e+002
2.125711e+002, 3.164566e+002
2.130533e+002, 3.156575e+002
2.135354e+002, 3.144735e+002
2.140175e+002, 3.133221e+002
2.144996e+002, 3.126020e+002
2.149817e+002, 3.123935e+002
2.154638e+002, 3.120649e+002
2.159460e+002, 3.116108e+002
2.164281e+002, 3.110736e+002
2.169102e+002, 3.104618e+002
2.173923e+002, 3.097835e+002
2.178744e+002, 3.090697e+002
2.183565e+002, 3.083973e+002
2.188387e+002, 3.078018e+002
2.193208e+002, 3.066681e+002
2.198029e+002, 3.041980e+002
2.202850e+002, 3.018913e+002
2.207671e+002, 3.009095e+002
2.212492e+002, 3.011646e+002
2.217314e+002, 3.014538e+002
2.222135e+002, 3.006345e+002
2.226956e+002, 2.986320e+002
2.231777e+002, 2.974587e+002
2.236598e+002, 2.977867e+002
2.241419e+002, 2.984366e+002
2.246240e+002, 2.985058e+002
2.251062e+002, 2.979598e+002
2.255883e+002, 2.973540e+002
2.260704e+002, 2.971643e+002
2.265525e+002, 2.973371e+002
2.270346e+002, 2.973509e+002
2.275167e+002, 2.968007e+002
2.279989e+002, 2.963130e+002
2.284810e+002, 2.966865e+002
2.289631e+002, 2.979883e+002
2.294452e+002, 2.991326e+002
2.299273e+002, 2.992001e+002
2.304094e+002, 2.984803e+002
2.308916e+002, 2.977881e+002
2.313737e+002, 2.969204e+002
2.318558e+002, 2.963224e+002
2.323379e+002, 2.967612e+002
2.328200e+002, 2.984112e+002
2.333021e+002, 2.998672e+002
2.337843e+002, 2.999501e+002
2.342664e+002, 2.993019e+002
2.347485e+002, 2.988359e+002
2.352306e+002, 2.986558e+002
2.357127e+002, 2.988604e+002
2.361948e+002, 2.997867e+002
2.366770e+002, 3.016736e+002
2.371591e+002, 3.033064e+002
2.376412e+002, 3.037312e+002
2.381233e+002, 3.036569e+002
2.386054e+002, 3.038761e+002
2.390875e+002, 3.047582e+002
2.395697e+002, 3.058540e+002
2.400518e+002, 3.063162e+002
2.405339e+002, 3.058461e+002
2.410160e+002, 3.057183e+002
2.414981e+002, 3.069159e+002
2.419802e+002, 3.084777e+002
2.424624e+002, 3.095250e+002
2.429445e+002, 3.097534e+002
2.434266e+002, 3.093568e+002
2.439087e+002, 3.084473e+002
2.443908e+002, 3.065743e+002
2.448729e+002, 3.054539e+002
2.453550e+002, 3.064901e+002
2.458372e+002, 3.079447e+002
2.463193e+002, 3.082343e+002
2.468014e+002, 3.067857e+002
2.472835e+002, 3.044707e+002
2.477656e+002, 3.028519e+002
2.482477e+002, 3.024633e+002
2.487299e+002, 3.014751e+002
2.492120e+002, 2.989336e+002
2.496941e+002, 2.961222e+002
2.501762e+002, 2.941071e+002
2.506583e+002, 2.931956e+002
2.511404e+002, 2.927847e+002
2.516226e+002, 2.917970e+002
2.521047e+002, 2.897909e+002
2.525868e+002, 2.882351e+002
2.530689e+002, 2.877948e+002
2.535510e+002, 2.874367e+002
2.540331e+002, 2.863292e+002
2.545153e+002, 2.843047e+002
2.549974e+002, 2.819084e+002
2.554795e+002, 2.799716e+002
2.559616e+002, 2.787751e+002
2.564437e+002, 2.774624e+002
2.569258e+002, 2.756535e+002
2.574080e+002, 2.739982e+002
2.578901e+002, 2.730723e+002
2.583722e+002, 2.729030e+002
2.588543e+002, 2.729289e+002
2.593364e+002, 2.723982e+002
2.598185e+002, 2.711391e+002
2.603007e+002, 2.697034e+002
2.607828e+002, 2.675848e+002
2.612649e+002, 2.656927e+002
2.617470e+002, 2.647449e+002
2.622291e+002, 2.647177e+002
2.627112e+002, 2.649685e+002
2.631934e+002, 2.647547e+002
2.636755e+002, 2.639149e+002
2.641576e+002, 2.631726e+002
2.646397e+002, 2.629274e+002
2.651218e+002, 2.624375e+002
2.656039e+002, 2.608447e+002
2.660861e+002, 2.584188e+002
2.665682e+002, 2.564444e+002
2.670503e+002, 2.563264e+002
2.675324e+002, 2.585324e+002
2.680145e+002, 2.595778e+002
2.684966e+002, 2.589816e+002
2.689788e+002, 2.579298e+002
2.694609e+002, 2.567044e+002
2.699430e+002, 2.554805e+002
2.704251e+002, 2.545867e+002
2.709072e+002, 2.543527e+002
2.713893e+002, 2.548152e+002
2.718715e+002, 2.548795e+002
2.723536e+002, 2.540562e+002
2.728357e+002, 2.534009e+002
2.733178e+002, 2.535802e+002
2.737999e+002, 2.543345e+002
2.742820e+002, 2.549065e+002
2.747642e+002, 2.547682e+002
2.752463e+002, 2.539794e+002
2.757284e+002, 2.532711e+002
2.762105e+002, 2.526637e+002
2.766926e+002, 2.520887e+002
2.771747e+002, 2.514304e+002
2.776568e+002, 2.507813e+002
2.781389e+002, 2.504252e+002
2.786211e+002, 2.505906e+002
2.791032e+002, 2.510594e+002
2.795853e+002, 2.508479e+002
2.800674e+002, 2.492846e+002
2.805495e+002, 2.479725e+002
2.810316e+002, 2.475511e+002
2.815138e+002, 2.476216e+002
2.819959e+002, 2.474927e+002
2.824780e+002, 2.468710e+002
2.829601e+002, 2.458764e+002
2.834422e+002, 2.447652e+002
2.839243e+002, 2.432532e+002
2.844065e+002, 2.421473e+002
2.848886e+002, 2.418079e+002
2.853707e+002, 2.419232e+002
2.858528e+002, 2.421846e+002
2.863349e+002, 2.425483e+002
2.868170e+002, 2.426740e+002
2.872992e+002, 2.418445e+002
2.877813e+002, 2.397567e+002
2.882634e+002, 2.378607e+002
2.887455e+002, 2.365156e+002
2.892276e+002, 2.354316e+002
2.897097e+002, 2.342709e+002
2.901919e+002, 2.329543e+002
2.906740e+002, 2.316150e+002
2.911561e+002, 2.304475e+002
2.916382e+002, 2.295054e+002
2.921203e+002, 2.283123e+002
2.926024e+002, 2.264115e+002
2.930846e+002, 2.244691e+002
2.935667e+002, 2.232798e+002
2.940488e+002, 2.229259e+002
2.945309e+002, 2.226408e+002
2.950130e+002, 2.216837e+002
2.954951e+002, 2.200332e+002
2.959773e+002, 2.185630e+002
2.964594e+002, 2.173031e+002
2.969415e+002, 2.162321e+002
2.974236e+002, 2.153862e+002
2.979057e+002, 2.147512e+002
2.983878e+002, 2.141777e+002
2.988700e+002, 2.135883e+002
2.993521e+002, 2.129711e+002
2.998342e+002, 2.122904e+002
3.003163e+002, 2.113270e+002
3.007984e+002, 2.105030e+002
3.012805e+002, 2.103379e+002
3.017627e+002, 2.106311e+002
3.022448e+002, 2.103904e+002
3.027269e+002, 2.088909e+002
3.032090e+002, 2.066454e+002
3.036911e+002, 2.052367e+002
3.041732e+002, 2.051468e+002
3.046554e+002, 2.050091e+002
3.051375e+002, 2.040480e+002
3.056196e+002, 2.025641e+002
3.061017e+002, 2.013751e+002
3.065838e+002, 2.008599e+002
3.070659e+002, 2.006518e+002
3.075481e+002, 1.999373e+002
3.080302e+002, 1.984828e+002
3.085123e+002, 1.974825e+002
3.089944e+002, 1.977900e+002
3.094765e+002, 1.987080e+002
3.099586e+002, 1.989960e+002
3.104408e+002, 1.982848e+002
3.109229e+002, 1.971337e+002
3.114050e+002, 1.962351e+002
3.118871e+002, 1.955854e+002
3.123692e+002, 1.949567e+002
3.128513e+002, 1.941018e+002
3.133335e+002, 1.933386e+002
3.138156e+002, 1.932377e+002
3.142977e+002, 1.939121e+002
3.147798e+002, 1.944666e+002
3.152619e+002, 1.938779e+002
3.157440e+002, 1.922421e+002
3.162262e+002, 1.912010e+002
3.167083e+002, 1.914368e+002
3.171904e+002, 1.919253e+002
3.176725e+002, 1.917953e+002
3.181546e+002, 1.910483e+002
3.186367e+002, 1.902051e+002
3.191188e+002, 1.895661e+002
3.196010e+002, 1.891254e+002
3.200831e+002, 1.887563e+002
3.205652e+002, 1.887231e+002
3.210473e+002, 1.884991e+002
3.215294e+002, 1.876015e+002
3.220115e+002, 1.862245e+002
3.224937e+002, 1.850234e+002
3.229758e+002, 1.842882e+002
3.234579e+002, 1.839489e+002
3.239400e+002, 1.838909e+002
3.244221e+002, 1.843486e+002
3.249042e+002, 1.845478e+002
3.253864e+002, 1.839276e+002
3.258685e+002, 1.829040e+002
3.263506e+002, 1.823162e+002
3.268327e+002, 1.824848e+002
3.273148e+002, 1.829453e+002
3.277969e+002, 1.829497e+002
3.282791e+002, 1.824268e+002
3.287612e+002, 1.819819e+002
3.292433e+002, 1.817905e+002
3.297254e+002, 1.817049e+002
3.302075e+002, 1.815450e+002
3.306896e+002, 1.812795e+002
3.311718e+002, 1.810096e+002
3.316539e+002, 1.808283e+002
3.321360e+002, 1.807455e+002
3.326181e+002, 1.807128e+002
3.331002e+002, 1.807935e+002
3.335823e+002, 1.808748e+002
3.340645e+002, 1.809324e+002
3.345466e+002, 1.809398e+002
3.350287e+002, 1.807627e+002
3.355108e+002, 1.802703e+002
3.359929e+002, 1.795050e+002
3.364750e+002, 1.788407e+002
3.369572e+002, 1.780390e+002
3.374393e+002, 1.775572e+002
3.379214e+002, 1.778240e+002
3.384035e+002, 1.785648e+002
3.388856e+002, 1.791145e+002
3.393677e+002, 1.791469e+002
3.398499e+002, 1.788450e+002
3.403320e+002, 1.786938e+002
3.408141e+002, 1.787432e+002
3.412962e+002, 1.788228e+002
3.417783e+002, 1.789832e+002
3.422604e+002, 1.791269e+002
3.427426e+002, 1.791094e+002
3.432247e+002, 1.788896e+002
3.437068e+002, 1.785722e+002
3.441889e+002, 1.783204e+002
3.446710e+002, 1.782316e+002
3.451531e+002, 1.778747e+002
3.456353e+002, 1.771485e+002
3.461174e+002, 1.762255e+002
3.465995e+002, 1.752011e+002
3.470816e+002, 1.741059e+002
3.475637e+002, 1.729263e+002
3.480458e+002, 1.716083e+002
3.485280e+002, 1.701271e+002
3.490101e+002, 1.691566e+002
3.494922e+002, 1.688374e+002
3.499743e+002, 1.687877e+002
3.504564e+002, 1.691461e+002
3.509385e+002, 1.696576e+002
3.514207e+002, 1.697148e+002
3.519028e+002, 1.689018e+002
3.523849e+002, 1.675024e+002
3.528670e+002, 1.667377e+002
3.533491e+002, 1.675240e+002
3.538312e+002, 1.678089e+002
3.543134e+002, 1.669059e+002
3.547955e+002, 1.655477e+002
3.552776e+002, 1.646028e+002
3.557597e+002, 1.643712e+002
3.562418e+002, 1.645146e+002
3.567239e+002, 1.644613e+002
3.572061e+002, 1.640864e+002
3.576882e+002, 1.637562e+002
3.581703e+002, 1.635230e+002
3.586524e+002, 1.632899e+002
3.591345e+002, 1.629414e+002
3.596166e+002, 1.624992e+002
3.600987e+002, 1.621195e+002
3.605808e+002, 1.619558e+002
3.610630e+002, 1.620242e+002
3.615451e+002, 1.621565e+002
3.620272e+002, 1.626402e+002
3.625093e+002, 1.628878e+002
3.629914e+002, 1.625508e+002
3.634735e+002, 1.618418e+002
3.639557e+002, 1.611616e+002
3.644378e+002, 1.607480e+002
3.649199e+002, 1.605623e+002
3.654020e+002, 1.604468e+002
3.658841e+002, 1.605038e+002
3.663662e+002, 1.604910e+002
3.668484e+002, 1.602583e+002
3.673305e+002, 1.600082e+002
3.678126e+002, 1.599165e+002
3.682947e+002, 1.600450e+002
3.687768e+002, 1.603713e+002
3.692589e+002, 1.609466e+002
3.697411e+002, 1.620201e+002
3.702232e+002, 1.626417e+002
3.707053e+002, 1.626513e+002
3.711874e+002, 1.623461e+002
3.716695e+002, 1.617581e+002
3.721516e+002, 1.609646e+002
3.726338e+002, 1.601256e+002
3.731159e+002, 1.593391e+002
3.735980e+002, 1.586111e+002
3.740801e+002, 1.581453e+002
3.745622e+002, 1.581932e+002
3.750443e+002, 1.582029e+002
3.755265e+002, 1.578738e+002
3.760086e+002, 1.574136e+002
3.764907e+002, 1.571633e+002
3.769728e+002, 1.573127e+002
3.774549e+002, 1.577023e+002
3.779370e+002, 1.579539e+002
3.784192e+002, 1.579666e+002
3.789013e+002, 1.581303e+002
3.793834e+002, 1.590922e+002
3.798655e+002, 1.599212e+002
3.803476e+002, 1.596725e+002
3.808297e+002, 1.581756e+002
3.813119e+002, 1.565014e+002
3.817940e+002, 1.558654e+002
3.822761e+002, 1.562393e+002
3.827582e+002, 1.562077e+002
3.832403e+002, 1.552124e+002
3.837224e+002, 1.542272e+002
3.842046e+002, 1.540485e+002
3.846867e+002, 1.544663e+002
3.851688e+002, 1.546984e+002
3.856509e+002, 1.540873e+002
3.861330e+002, 1.530407e+002
3.866151e+002, 1.525126e+002
3.870973e+002, 1.526058e+002
3.875794e+002, 1.528560e+002
3.880615e+002, 1.532266e+002
3.885436e+002, 1.535259e+002
3.890257e+002, 1.533704e+002
3.895078e+002, 1.523724e+002
3.899900e+002, 1.514806e+002
3.904721e+002, 1.518266e+002
3.909542e+002, 1.532153e+002
3.914363e+002, 1.540728e+002
3.919184e+002, 1.537466e+002
3.924005e+002, 1.528239e+002
3.928827e+002, 1.520657e+002
3.933648e+002, 1.514606e+002
3.938469e+002, 1.510371e+002
3.943290e+002, 1.510418e+002
3.948111e+002, 1.511629e+002
3.952932e+002, 1.507408e+002
3.957754e+002, 1.496133e+002
3.962575e+002, 1.486795e+002
3.967396e+002, 1.489715e+002
3.972217e+002, 1.503344e+002
3.977038e+002, 1.508737e+002
3.981859e+002, 1.495967e+002
3.986681e+002, 1.482782e+002
3.991501e+002, 1.481550e+002
3.996323e+002, 1.490065e+002
4.001144e+002, 1.500249e+002
4.005965e+002, 1.509019e+002
4.010786e+002, 1.515316e+002
4.015607e+002, 1.514944e+002
4.020428e+002, 1.501318e+002
4.025250e+002, 1.493543e+002
4.030071e+002, 1.501945e+002
4.034892e+002, 1.514697e+002
4.039713e+002, 1.516130e+002
4.044534e+002, 1.503288e+002
4.049355e+002, 1.487851e+002
4.054177e+002, 1.483785e+002
4.058998e+002, 1.493988e+002
4.063819e+002, 1.501901e+002
4.068640e+002, 1.510709e+002
4.073461e+002, 1.514592e+002
4.078282e+002, 1.506403e+002
4.083104e+002, 1.490732e+002
4.087925e+002, 1.478883e+002
4.092746e+002, 1.478090e+002
4.097567e+002, 1.486011e+002
4.102388e+002, 1.491783e+002
4.107209e+002, 1.493953e+002
4.112031e+002, 1.495648e+002
4.116852e+002, 1.498616e+002
4.121673e+002, 1.500444e+002
4.126494e+002, 1.498251e+002
4.131315e+002, 1.491551e+002
4.136136e+002, 1.482883e+002
4.140958e+002, 1.474660e+002
4.145779e+002, 1.465432e+002
4.150600e+002, 1.462456e+002
4.155421e+002, 1.473046e+002
4.160242e+002, 1.483240e+002
4.165063e+002, 1.487487e+002
4.169885e+002, 1.486925e+002
4.174706e+002, 1.485274e+002
4.179527e+002, 1.484929e+002
4.184348e+002, 1.485238e+002
4.189169e+002, 1.483837e+002
4.193990e+002, 1.480134e+002
4.198812e+002, 1.476017e+002
4.203633e+002, 1.473511e+002
4.208454e+002, 1.470156e+002
4.213275e+002, 1.462035e+002
4.218096e+002, 1.448002e+002
4.222917e+002, 1.435344e+002
4.227739e+002, 1.433748e+002
4.232560e+002, 1.442506e+002
4.237381e+002, 1.446223e+002
4.242202e+002, 1.438990e+002
4.247023e+002, 1.431242e+002
4.251844e+002, 1.432553e+002
4.256666e+002, 1.440419e+002
4.261487e+002, 1.445707e+002
4.266308e+002, 1.443310e+002
4.271129e+002, 1.436717e+002
4.275950e+002, 1.430771e+002
4.280771e+002, 1.425492e+002
4.285593e+002, 1.420216e+002
4.290414e+002, 1.413338e+002
4.295235e+002, 1.407086e+002
4.300056e+002, 1.406305e+002
4.304877e+002, 1.414053e+002
4.309698e+002, 1.420374e+002
4.314520e+002, 1.418403e+002
4.319341e+002, 1.411831e+002
4.324162e+002, 1.408764e+002
4.328983e+002, 1.411651e+002
4.333804e+002, 1.415082e+002
4.338625e+002, 1.412163e+002
4.343447e+002, 1.401738e+002
4.348268e+002, 1.394227e+002
4.353089e+002, 1.392154e+002
4.357910e+002, 1.391220e+002
4.362731e+002, 1.388625e+002
4.367552e+002, 1.384671e+002
4.372374e+002, 1.380842e+002
4.377195e+002, 1.377880e+002
4.382016e+002, 1.375919e+002
4.386837e+002, 1.375553e+002
4.391658e+002, 1.379703e+002
4.396479e+002, 1.381695e+002
4.401301e+002, 1.379018e+002
4.406122e+002, 1.375167e+002
4.410943e+002, 1.373654e+002
4.415764e+002, 1.375058e+002
4.420585e+002, 1.377426e+002
4.425406e+002, 1.378883e+002
4.430227e+002, 1.379757e+002
4.435049e+002, 1.377378e+002
4.439870e+002, 1.368374e+002
4.444691e+002, 1.359587e+002
4.449512e+002, 1.351657e+002
4.454333e+002, 1.345687e+002
4.459154e+002, 1.343068e+002
4.463976e+002, 1.344616e+002
4.468797e+002, 1.349639e+002
4.473618e+002, 1.357808e+002
4.478439e+002, 1.371816e+002
4.483260e+002, 1.380860e+002
4.488081e+002, 1.380140e+002
4.492903e+002, 1.375848e+002
4.497724e+002, 1.371162e+002
4.502545e+002, 1.366477e+002
4.507366e+002, 1.361146e+002
4.512187e+002, 1.353983e+002
4.517008e+002, 1.345619e+002
4.521830e+002, 1.338921e+002
4.526651e+002, 1.334067e+002
4.531472e+002, 1.330631e+002
4.536293e+002, 1.329270e+002
4.541114e+002, 1.328961e+002
4.545935e+002, 1.328126e+002
4.550757e+002, 1.325722e+002
4.555578e+002, 1.324126e+002
4.560399e+002, 1.326592e+002
4.565220e+002, 1.331922e+002
4.570041e+002, 1.334145e+002
4.574862e+002, 1.330148e+002
4.579684e+002, 1.325556e+002
4.584505e+002, 1.329981e+002
4.589326e+002, 1.343513e+002
4.594147e+002, 1.351126e+002
4.598968e+002, 1.343852e+002
4.603789e+002, 1.334101e+002
4.608611e+002, 1.334227e+002
4.613432e+002, 1.343030e+002
4.618253e+002, 1.350359e+002
4.623074e+002, 1.350077e+002
4.627895e+002, 1.343512e+002
4.632716e+002, 1.335983e+002
4.637538e+002, 1.321333e+002
4.642359e+002, 1.313777e+002
4.647180e+002, 1.320709e+002
4.652001e+002, 1.332310e+002
4.656822e+002, 1.338065e+002
4.661643e+002, 1.336244e+002
4.666465e+002, 1.332729e+002
4.671286e+002, 1.334119e+002
4.676107e+002, 1.341110e+002
4.680928e+002, 1.346354e+002
4.685749e+002, 1.350459e+002
4.690570e+002, 1.352055e+002
4.695392e+002, 1.349050e+002
4.700213e+002, 1.343708e+002
4.705034e+002, 1.339258e+002
4.709855e+002, 1.337124e+002
4.714676e+002, 1.336295e+002
4.719497e+002, 1.334467e+002
4.724319e+002, 1.330686e+002
4.729140e+002, 1.330183e+002
4.733961e+002, 1.337848e+002
4.738782e+002, 1.345517e+002
4.743603e+002, 1.349043e+002
4.748424e+002, 1.348476e+002
4.753246e+002, 1.345322e+002
4.758067e+002, 1.338195e+002
4.762888e+002, 1.329879e+002
4.767709e+002, 1.327463e+002
4.772530e+002, 1.332069e+002
4.777351e+002, 1.335589e+002
4.782173e+002, 1.333985e+002
4.786994e+002, 1.329075e+002
4.791815e+002, 1.323227e+002
4.796636e+002, 1.315522e+002
4.801457e+002, 1.310606e+002
4.806278e+002, 1.312787e+002
4.811100e+002, 1.318839e+002
4.815920e+002, 1.323822e+002
4.820742e+002, 1.326986e+002
4.825563e+002, 1.326519e+002
4.830384e+002, 1.319545e+002
4.835205e+002, 1.306231e+002
4.840026e+002, 1.296956e+002
4.844847e+002, 1.293772e+002
4.849669e+002, 1.292117e+002
4.854490e+002, 1.290780e+002
4.859311e+002, 1.289559e+002
4.864132e+002, 1.287781e+002
4.868953e+002, 1.285211e+002
4.873774e+002, 1.283417e+002
4.878596e+002, 1.285310e+002
4.883417e+002, 1.293300e+002
4.888238e+002, 1.298384e+002
4.893059e+002, 1.298723e+002
4.897880e+002, 1.298425e+002
4.902701e+002, 1.298898e+002
4.907523e+002, 1.300370e+002
4.912344e+002, 1.303324e+002
4.917165e+002, 1.308511e+002
4.921986e+002, 1.314034e+002
4.926807e+002, 1.314492e+002
4.931628e+002, 1.308759e+002
4.936450e+002, 1.301075e+002
4.941271e+002, 1.287042e+002
4.946092e+002, 1.275238e+002
4.950913e+002, 1.273754e+002
4.955734e+002, 1.281884e+002
4.960555e+002, 1.289333e+002
4.965377e+002, 1.287349e+002
4.970198e+002, 1.279401e+002
4.975019e+002, 1.275328e+002
4.979840e+002, 1.276115e+002
4.984661e+002, 1.276942e+002
4.989482e+002, 1.274074e+002
4.994304e+002, 1.270029e+002
4.999125e+002, 1.270115e+002
5.003946e+002, 1.276936e+002
5.008767e+002, 1.282143e+002
5.013588e+002, 1.279693e+002
5.018409e+002, 1.273362e+002
5.023231e+002, 1.270542e+002
5.028052e+002, 1.272792e+002
5.032873e+002, 1.275011e+002
5.037694e+002, 1.272086e+002
5.042515e+002, 1.263756e+002
5.047336e+002, 1.257129e+002
5.052158e+002, 1.252214e+002
5.056979e+002, 1.248770e+002
5.061800e+002, 1.247133e+002
5.066621e+002, 1.246783e+002
5.071442e+002, 1.248118e+002
5.076263e+002, 1.251047e+002
5.081085e+002, 1.252304e+002
5.085906e+002, 1.245237e+002
5.090727e+002, 1.224336e+002
5.095548e+002, 1.215061e+002
5.100369e+002, 1.228029e+002
5.105190e+002, 1.242064e+002
5.110012e+002, 1.249161e+002
5.114833e+002, 1.251454e+002
5.119654e+002, 1.254942e+002
5.124475e+002, 1.263531e+002
5.129296e+002, 1.271682e+002
5.134117e+002, 1.267210e+002
5.138939e+002, 1.247872e+002
5.143760e+002, 1.233074e+002
5.148581e+002, 1.228047e+002
5.153402e+002, 1.228088e+002
5.158223e+002, 1.230754e+002
5.163044e+002, 1.235332e+002
5.167866e+002, 1.237632e+002
5.172687e+002, 1.233526e+002
5.177508e+002, 1.227562e+002
5.182329e+002, 1.226190e+002
5.187150e+002, 1.229128e+002
5.191971e+002, 1.231290e+002
5.196793e+002, 1.230054e+002
5.201614e+002, 1.226878e+002
5.206435e+002, 1.225272e+002
5.211256e+002, 1.226206e+002
5.216077e+002, 1.225565e+002
5.220898e+002, 1.220657e+002
5.225720e+002, 1.215295e+002
5.230541e+002, 1.213395e+002
5.235362e+002, 1.214657e+002
5.240183e+002, 1.215558e+002
5.245004e+002, 1.213278e+002
5.249825e+002, 1.208933e+002
5.254647e+002, 1.208391e+002
5.259468e+002, 1.214727e+002
5.264289e+002, 1.220679e+002
5.269110e+002, 1.226127e+002
5.273931e+002, 1.230635e+002
5.278752e+002, 1.234595e+002
5.283574e+002, 1.237585e+002
5.288395e+002, 1.237604e+002
5.293216e+002, 1.231390e+002
5.298037e+002, 1.220439e+002
5.302858e+002, 1.214310e+002
5.307679e+002, 1.215056e+002
5.312501e+002, 1.215910e+002
5.317322e+002, 1.212512e+002
5.322143e+002, 1.208448e+002
5.326964e+002, 1.207704e+002
5.331785e+002, 1.211201e+002
5.336606e+002, 1.215686e+002
5.341428e+002, 1.219894e+002
5.346249e+002, 1.223412e+002
5.351070e+002, 1.224461e+002
5.355891e+002, 1.222518e+002
5.360712e+002, 1.222496e+002
5.365533e+002, 1.230203e+002
5.370355e+002, 1.243128e+002
5.375176e+002, 1.246135e+002
5.379997e+002, 1.228992e+002
5.384818e+002, 1.215389e+002
5.389639e+002, 1.212392e+002
5.394460e+002, 1.216392e+002
5.399282e+002, 1.224698e+002
5.404103e+002, 1.235904e+002
5.408924e+002, 1.246634e+002
5.413745e+002, 1.253277e+002
5.418566e+002, 1.255750e+002
5.423387e+002, 1.257066e+002
5.428209e+002, 1.255720e+002
5.433029e+002, 1.254977e+002
5.437850e+002, 1.255980e+002
5.442672e+002, 1.257684e+002
5.447493e+002, 1.258905e+002
5.452314e+002, 1.259328e+002
5.457135e+002, 1.259457e+002
5.461956e+002, 1.259964e+002
5.466777e+002, 1.260769e+002
5.471599e+002, 1.260383e+002
5.476420e+002, 1.257139e+002
5.481241e+002, 1.256075e+002
5.486062e+002, 1.263213e+002
5.490883e+002, 1.274017e+002
5.495704e+002, 1.281085e+002
5.500526e+002, 1.281998e+002
5.505347e+002, 1.281567e+002
5.510168e+002, 1.282217e+002
5.514989e+002, 1.283804e+002
5.519810e+002, 1.286629e+002
5.524631e+002, 1.290811e+002
5.529453e+002, 1.294069e+002
5.534274e+002, 1.294176e+002
5.539095e+002, 1.291101e+002
5.543916e+002, 1.287562e+002
5.548737e+002, 1.280869e+002
5.553558e+002, 1.276961e+002
5.558380e+002, 1.280973e+002
5.563201e+002, 1.287063e+002
5.568022e+002, 1.287533e+002
5.572843e+002, 1.280697e+002
5.577664e+002, 1.271227e+002
5.582485e+002, 1.264168e+002
5.587307e+002, 1.259603e+002
5.592128e+002, 1.256233e+002
5.596949e+002, 1.256205e+002
5.601770e+002, 1.254229e+002
5.606591e+002, 1.247623e+002
5.611412e+002, 1.238757e+002
5.616234e+002, 1.229651e+002
5.621055e+002, 1.220585e+002
5.625876e+002, 1.214122e+002
5.630697e+002, 1.214743e+002
5.635518e+002, 1.219920e+002
5.640339e+002, 1.220286e+002
5.645161e+002, 1.213771e+002
5.649982e+002, 1.207647e+002
5.654803e+002, 1.207873e+002
5.659624e+002, 1.212827e+002
5.664445e+002, 1.214838e+002
5.669266e+002, 1.213060e+002
5.674088e+002, 1.209594e+002
5.678909e+002, 1.201351e+002
5.683730e+002, 1.193614e+002
5.688551e+002, 1.195461e+002
5.693372e+002, 1.207140e+002
5.698193e+002, 1.218081e+002
5.703015e+002, 1.217690e+002
5.707836e+002, 1.206790e+002
5.712657e+002, 1.201404e+002
5.717478e+002, 1.206173e+002
5.722299e+002, 1.210440e+002
5.727120e+002, 1.212279e+002
5.731942e+002, 1.213090e+002
5.736763e+002, 1.213778e+002
5.741584e+002, 1.214698e+002
5.746405e+002, 1.216509e+002
5.751226e+002, 1.220802e+002
5.756047e+002, 1.226593e+002
5.760869e+002, 1.229940e+002
5.765690e+002, 1.230856e+002
5.770511e+002, 1.229135e+002
5.775332e+002, 1.223132e+002
5.780153e+002, 1.215240e+002
5.784974e+002, 1.209140e+002
5.789796e+002, 1.204900e+002
5.794617e+002, 1.202431e+002
5.799438e+002, 1.201781e+002
5.804259e+002, 1.202845e+002
5.809080e+002, 1.207381e+002
5.813901e+002, 1.214364e+002
5.818723e+002, 1.217562e+002
5.823544e+002, 1.212368e+002
5.828365e+002, 1.201787e+002
5.833186e+002, 1.196102e+002
5.838007e+002, 1.200061e+002
5.842828e+002, 1.201802e+002
5.847650e+002, 1.196384e+002
5.852471e+002, 1.192801e+002
5.857292e+002, 1.201219e+002
5.862113e+002, 1.217318e+002
5.866934e+002, 1.226455e+002
5.871755e+002, 1.217928e+002
5.876577e+002, 1.199676e+002
5.881398e+002, 1.189728e+002
5.886219e+002, 1.188988e+002
5.891040e+002, 1.190468e+002
5.895861e+002, 1.193520e+002
5.900682e+002, 1.197197e+002
5.905504e+002, 1.202368e+002
5.910325e+002, 1.208194e+002
5.915146e+002, 1.208730e+002
5.919967e+002, 1.195575e+002
5.924788e+002, 1.181976e+002
5.929609e+002, 1.181013e+002
5.934431e+002, 1.189140e+002
5.939252e+002, 1.195549e+002
5.944073e+002, 1.196318e+002
5.948894e+002, 1.194234e+002
5.953715e+002, 1.193277e+002
5.958536e+002, 1.194226e+002
5.963358e+002, 1.192648e+002
5.968179e+002, 1.185896e+002
5.973000e+002, 1.179942e+002
5.977821e+002, 1.177413e+002
5.982642e+002, 1.176788e+002
5.987463e+002, 1.175556e+002
5.992285e+002, 1.172896e+002
5.997106e+002, 1.170399e+002
6.001927e+002, 1.169902e+002
6.006748e+002, 1.171371e+002
6.011569e+002, 1.174728e+002
6.016390e+002, 1.182310e+002
6.021212e+002, 1.186742e+002
6.026033e+002, 1.179510e+002
6.030854e+002, 1.167692e+002
6.035675e+002, 1.163059e+002
6.040496e+002, 1.169971e+002
6.045317e+002, 1.175112e+002
6.050139e+002, 1.168225e+002
6.054960e+002, 1.156993e+002
6.059781e+002, 1.153524e+002
6.064602e+002, 1.158674e+002
6.069423e+002, 1.164763e+002
6.074244e+002, 1.166262e+002
6.079066e+002, 1.164284e+002
6.083887e+002, 1.163896e+002
6.088708e+002, 1.167391e+002
6.093529e+002, 1.169204e+002
6.098350e+002, 1.169236e+002
6.103171e+002, 1.167510e+002
6.107993e+002, 1.162580e+002
6.112814e+002, 1.155714e+002
6.117635e+002, 1.150799e+002
6.122456e+002, 1.150889e+002
6.127277e+002, 1.153424e+002
6.132098e+002, 1.152495e+002
6.136920e+002, 1.147661e+002
6.141741e+002, 1.144637e+002
6.146562e+002, 1.145744e+002
6.151383e+002, 1.147863e+002
6.156204e+002, 1.147146e+002
6.161025e+002, 1.144260e+002
6.165847e+002, 1.143580e+002
6.170668e+002, 1.149970e+002
6.175489e+002, 1.154888e+002
6.180310e+002, 1.151447e+002
6.185131e+002, 1.142813e+002
6.189952e+002, 1.135140e+002
6.194774e+002, 1.130319e+002
6.199595e+002, 1.127181e+002
6.204416e+002, 1.124344e+002
6.209237e+002, 1.121727e+002
6.214058e+002, 1.120550e+002
6.218879e+002, 1.122936e+002
6.223701e+002, 1.124163e+002
6.228522e+002, 1.122345e+002
6.233343e+002, 1.119442e+002
6.238164e+002, 1.117907e+002
6.242985e+002, 1.118045e+002
6.247806e+002, 1.117332e+002
6.252628e+002, 1.113392e+002
6.257448e+002, 1.107100e+002
6.262269e+002, 1.099625e+002
6.267090e+002, 1.090581e+002
6.271912e+002, 1.085713e+002
6.276733e+002, 1.089057e+002
6.281554e+002, 1.096713e+002
6.286375e+002, 1.101515e+002
6.291196e+002, 1.103218e+002
6.296017e+002, 1.104083e+002
6.300839e+002, 1.105085e+002
6.305660e+002, 1.104782e+002
6.310481e+002, 1.099820e+002
6.315302e+002, 1.092912e+002
6.320123e+002, 1.091199e+002
6.324944e+002, 1.097974e+002
6.329766e+002, 1.107610e+002
6.334587e+002, 1.110071e+002
6.339408e+002, 1.103656e+002
6.344229e+002, 1.098807e+002
6.349050e+002, 1.096282e+002
6.353871e+002, 1.094620e+002
6.358693e+002, 1.091857e+002
6.363514e+002, 1.089873e+002
6.368335e+002, 1.092683e+002
6.373156e+002, 1.102679e+002
6.377977e+002, 1.110817e+002
6.382798e+002, 1.108500e+002
6.387620e+002, 1.100530e+002
6.392441e+002, 1.095756e+002
6.397262e+002, 1.095191e+002
6.402083e+002, 1.096370e+002
6.406904e+002, 1.098280e+002
6.411725e+002, 1.100083e+002
6.416547e+002, 1.098886e+002
6.421368e+002, 1.088840e+002
6.426189e+002, 1.084585e+002
6.431010e+002, 1.092187e+002
6.435831e+002, 1.100154e+002
6.440652e+002, 1.098958e+002
6.445474e+002, 1.092033e+002
6.450295e+002, 1.091064e+002
6.455116e+002, 1.103722e+002
6.459937e+002, 1.117712e+002
6.464758e+002, 1.107945e+002
6.469579e+002, 1.074728e+002
6.474401e+002, 1.056796e+002
6.479222e+002, 1.064351e+002
6.484043e+002, 1.078670e+002
6.488864e+002, 1.088345e+002
6.493685e+002, 1.093475e+002
6.498506e+002, 1.093669e+002
6.503328e+002, 1.083970e+002
6.508149e+002, 1.076979e+002
6.512970e+002, 1.080375e+002
6.517791e+002, 1.087665e+002
6.522612e+002, 1.090581e+002
6.527433e+002, 1.088711e+002
6.532255e+002, 1.087563e+002
6.537076e+002, 1.091564e+002
6.541897e+002, 1.098678e+002
6.546718e+002, 1.100790e+002
6.551539e+002, 1.094744e+002
6.556360e+002, 1.091325e+002
6.561182e+002, 1.095605e+002
6.566003e+002, 1.099767e+002
6.570824e+002, 1.097558e+002
6.575645e+002, 1.091477e+002
6.580466e+002, 1.089900e+002
6.585287e+002, 1.098586e+002
6.590109e+002, 1.108716e+002
6.594930e+002, 1.112667e+002
6.599751e+002, 1.111374e+002
6.604572e+002, 1.106264e+002
6.609393e+002, 1.097496e+002
6.614214e+002, 1.089605e+002
6.619036e+002, 1.086732e+002
6.623857e+002, 1.088421e+002
6.628678e+002, 1.089706e+002
6.633499e+002, 1.090840e+002
6.638320e+002, 1.091232e+002
6.643141e+002, 1.090044e+002
6.647963e+002, 1.088717e+002
6.652784e+002, 1.088030e+002
6.657605e+002, 1.088252e+002
6.662426e+002, 1.089770e+002
6.667247e+002, 1.093164e+002
6.672068e+002, 1.097430e+002
6.676890e+002, 1.101276e+002
6.681711e+002, 1.104662e+002
6.686532e+002, 1.105871e+002
6.691353e+002, 1.104036e+002
6.696174e+002, 1.101078e+002
6.700995e+002, 1.098572e+002
6.705817e+002, 1.096493e+002
6.710638e+002, 1.094566e+002
6.715459e+002, 1.090803e+002
6.720280e+002, 1.089620e+002
6.725101e+002, 1.095274e+002
6.729922e+002, 1.102528e+002
6.734744e+002, 1.105077e+002
6.739565e+002, 1.102769e+002
6.744386e+002, 1.100352e+002
6.749207e+002, 1.101602e+002
6.754028e+002, 1.105148e+002
6.758849e+002, 1.106135e+002
6.763671e+002, 1.103659e+002
6.768492e+002, 1.102817e+002
6.773313e+002, 1.106610e+002
6.778134e+002, 1.110019e+002
6.782955e+002, 1.106999e+002
6.787776e+002, 1.099990e+002
6.792598e+002, 1.098042e+002
6.797419e+002, 1.107667e+002
6.802240e+002, 1.117118e+002
6.807061e+002, 1.118951e+002
6.811882e+002, 1.116353e+002
6.816703e+002, 1.113170e+002
6.821525e+002, 1.110627e+002
6.826346e+002, 1.110998e+002
6.831167e+002, 1.116887e+002
6.835988e+002, 1.126358e+002
6.840809e+002, 1.129387e+002
6.845630e+002, 1.122029e+002
6.850452e+002, 1.116865e+002
6.855273e+002, 1.118632e+002
6.860094e+002, 1.120341e+002
6.864915e+002, 1.117302e+002
6.869736e+002, 1.110795e+002
6.874557e+002, 1.104922e+002
6.879379e+002, 1.100437e+002
6.884200e+002, 1.098482e+002
6.889021e+002, 1.101740e+002
6.893842e+002, 1.108039e+002
6.898663e+002, 1.112696e+002
6.903484e+002, 1.114839e+002
6.908306e+002, 1.114378e+002
6.913127e+002, 1.110607e+002
6.917948e+002, 1.104666e+002
6.922769e+002, 1.102424e+002
6.927590e+002, 1.108593e+002
6.932411e+002, 1.110896e+002
6.937233e+002, 1.105845e+002
6.942054e+002, 1.099721e+002
6.946875e+002, 1.096607e+002
6.951696e+002, 1.095568e+002
6.956517e+002, 1.092780e+002
6.961339e+002, 1.085286e+002
6.966160e+002, 1.079525e+002
6.970981e+002, 1.085598e+002
6.975802e+002, 1.099595e+002
6.980623e+002, 1.107459e+002
6.985444e+002, 1.106841e+002
6.990266e+002, 1.103039e+002
6.995087e+002, 1.099136e+002
6.999908e+002, 1.095270e+002
7.004729e+002, 1.092013e+002
7.009550e+002, 1.087392e+002
7.014371e+002, 1.086558e+002
7.019193e+002, 1.092468e+002
7.024014e+002, 1.099494e+002
7.028835e+002, 1.105934e+002
7.033656e+002, 1.110484e+002
7.038477e+002, 1.110265e+002
7.043298e+002, 1.103493e+002
7.048120e+002, 1.096669e+002
7.052941e+002, 1.099790e+002
7.057762e+002, 1.110353e+002
7.062583e+002, 1.115502e+002
7.067404e+002, 1.113384e+002
7.072225e+002, 1.110450e+002
7.077046e+002, 1.110318e+002
7.081867e+002, 1.111959e+002
7.086688e+002, 1.112263e+002
7.091509e+002, 1.108363e+002
7.096331e+002, 1.110466e+002
7.101152e+002, 1.131360e+002
7.105973e+002, 1.146631e+002
7.110794e+002, 1.134100e+002
7.115615e+002, 1.107683e+002
7.120436e+002, 1.093973e+002
7.125258e+002, 1.102404e+002
7.130079e+002, 1.118437e+002
7.134900e+002, 1.125645e+002
7.139721e+002, 1.125676e+002
7.144542e+002, 1.128636e+002
7.149363e+002, 1.135683e+002
7.154185e+002, 1.139631e+002
7.159006e+002, 1.135456e+002
7.163827e+002, 1.128168e+002
7.168648e+002, 1.127570e+002
7.173469e+002, 1.135840e+002
7.178290e+002, 1.137226e+002
7.183112e+002, 1.122844e+002
7.187933e+002, 1.109386e+002
7.192754e+002, 1.105750e+002
7.197575e+002, 1.108030e+002
7.202396e+002, 1.109962e+002
7.207217e+002, 1.110005e+002
7.212039e+002, 1.111293e+002
7.216860e+002, 1.118814e+002
7.221681e+002, 1.129651e+002
7.226502e+002, 1.129930e+002
7.231323e+002, 1.117697e+002
7.236144e+002, 1.112164e+002
7.240966e+002, 1.123403e+002
7.245787e+002, 1.137740e+002
7.250608e+002, 1.137250e+002
7.255429e+002, 1.122329e+002
7.260250e+002, 1.114003e+002
7.265071e+002, 1.118307e+002
7.269893e+002, 1.123438e+002
7.274714e+002, 1.124508e+002
7.279535e+002, 1.124549e+002
7.284356e+002, 1.128707e+002
7.289177e+002, 1.136262e+002
7.293998e+002, 1.140418e+002
7.298820e+002, 1.135734e+002
7.303641e+002, 1.125285e+002
7.308462e+002, 1.114248e+002
7.313283e+002, 1.102413e+002
7.318104e+002, 1.097823e+002
7.322925e+002, 1.104421e+002
7.327747e+002, 1.113050e+002
7.332568e+002, 1.116899e+002
7.337389e+002, 1.116404e+002
7.342210e+002, 1.114699e+002
7.347031e+002, 1.109953e+002
7.351852e+002, 1.106825e+002
7.356674e+002, 1.107027e+002
7.361495e+002, 1.108569e+002
7.366316e+002, 1.109788e+002
7.371137e+002, 1.110870e+002
7.375958e+002, 1.113225e+002
7.380779e+002, 1.117732e+002
7.385601e+002, 1.122226e+002
7.390422e+002, 1.122423e+002
7.395243e+002, 1.119035e+002
7.400064e+002, 1.120203e+002
7.404885e+002, 1.128228e+002
7.409706e+002, 1.132667e+002
7.414528e+002, 1.124977e+002
7.419349e+002, 1.111961e+002
7.424170e+002, 1.110121e+002
7.428991e+002, 1.124542e+002
7.433812e+002, 1.131625e+002
7.438633e+002, 1.121164e+002
7.443455e+002, 1.111595e+002
7.448276e+002, 1.115311e+002
7.453097e+002, 1.125311e+002
7.457918e+002, 1.130022e+002
7.462739e+002, 1.126322e+002
7.467560e+002, 1.119918e+002
7.472382e+002, 1.114702e+002
7.477203e+002, 1.111349e+002
7.482024e+002, 1.112780e+002
7.486845e+002, 1.119114e+002
7.491666e+002, 1.126217e+002
7.496487e+002, 1.133838e+002
7.501309e+002, 1.138802e+002
7.506130e+002, 1.135894e+002
7.510951e+002, 1.124382e+002
7.515772e+002, 1.119483e+002
7.520593e+002, 1.125779e+002
7.525414e+002, 1.132129e+002
7.530236e+002, 1.137615e+002
7.535057e+002, 1.141022e+002
7.539878e+002, 1.139738e+002
7.544699e+002, 1.135089e+002
7.549520e+002, 1.132328e+002
7.554341e+002, 1.134846e+002
7.559163e+002, 1.139729e+002
7.563984e+002, 1.144248e+002
7.568805e+002, 1.147803e+002
7.573626e+002, 1.146767e+002
7.578447e+002, 1.140267e+002
7.583268e+002, 1.133876e+002
7.588090e+002, 1.131777e+002
7.592911e+002, 1.132522e+002
7.597732e+002, 1.131105e+002
7.602553e+002, 1.124409e+002
7.607374e+002, 1.121334e+002
7.612195e+002, 1.123442e+002
7.617017e+002, 1.127292e+002
7.621838e+002, 1.133295e+002
7.626659e+002, 1.139251e+002
7.631480e+002, 1.141180e+002
7.636301e+002, 1.137804e+002
7.641122e+002, 1.134981e+002
7.645944e+002, 1.139562e+002
7.650765e+002, 1.146123e+002
7.655586e+002, 1.144626e+002
7.660407e+002, 1.136328e+002
7.665228e+002, 1.129665e+002
7.670049e+002, 1.127757e+002
7.674871e+002, 1.130070e+002
7.679692e+002, 1.136683e+002
7.684513e+002, 1.147962e+002
7.689334e+002, 1.155105e+002
7.694155e+002, 1.157948e+002
7.698976e+002, 1.156778e+002
7.703798e+002, 1.146301e+002
7.708619e+002, 1.136211e+002
7.713440e+002, 1.134035e+002
7.718261e+002, 1.139396e+002
7.723082e+002, 1.148148e+002
7.727903e+002, 1.163507e+002
7.732725e+002, 1.175576e+002
7.737546e+002, 1.174271e+002
7.742367e+002, 1.166558e+002
7.747188e+002, 1.163131e+002
7.752009e+002, 1.165171e+002
7.756830e+002, 1.168589e+002
7.761652e+002, 1.170876e+002
7.766473e+002, 1.171995e+002
7.771294e+002, 1.171649e+002
7.776115e+002, 1.169595e+002
7.780936e+002, 1.167810e+002
7.785757e+002, 1.166907e+002
7.790579e+002, 1.165311e+002
7.795400e+002, 1.159890e+002
7.800221e+002, 1.154267e+002
7.805042e+002, 1.155788e+002
7.809863e+002, 1.166995e+002
7.814684e+002, 1.173664e+002
7.819506e+002, 1.166557e+002
7.824327e+002, 1.159676e+002
7.829148e+002, 1.162896e+002
7.833969e+002, 1.172256e+002
7.838790e+002, 1.182080e+002
7.843611e+002, 1.190076e+002
7.848433e+002, 1.193520e+002
7.853254e+002, 1.187579e+002
7.858075e+002, 1.176605e+002
7.862896e+002, 1.174933e+002
7.867717e+002, 1.182725e+002
7.872538e+002, 1.188844e+002
7.877360e+002, 1.190481e+002
7.882181e+002, 1.189800e+002
7.887002e+002, 1.187976e+002
7.891823e+002, 1.185382e+002
7.896644e+002, 1.185288e+002
7.901465e+002, 1.191954e+002
7.906286e+002, 1.194883e+002
7.911107e+002, 1.190499e+002
7.915928e+002, 1.184750e+002
7.920750e+002, 1.180095e+002
7.925571e+002, 1.177385e+002
7.930392e+002, 1.178168e+002
7.935213e+002, 1.183439e+002
7.940034e+002, 1.188441e+002
7.944855e+002, 1.187623e+002
7.949677e+002, 1.184265e+002
7.954498e+002, 1.185743e+002
7.959319e+002, 1.191388e+002
7.964140e+002, 1.192912e+002
7.968961e+002, 1.186426e+002
7.973782e+002, 1.179587e+002
7.978604e+002, 1.184318e+002
7.983425e+002, 1.201537e+002
7.988246e+002, 1.207354e+002
7.993067e+002, 1.192996e+002
7.997888e+002, 1.183129e+002
8.002709e+002, 1.188836e+002
8.007531e+002, 1.197287e+002
8.012352e+002, 1.199551e+002
8.017173e+002, 1.196113e+002
8.021994e+002, 1.190954e+002
8.026815e+002, 1.182773e+002
8.031636e+002, 1.176512e+002
8.036458e+002, 1.175686e+002
8.041279e+002, 1.177658e+002
8.046100e+002, 1.179715e+002
8.050921e+002, 1.181515e+002
8.055742e+002, 1.184037e+002
8.060563e+002, 1.187930e+002
8.065385e+002, 1.190941e+002
8.070206e+002, 1.187827e+002
8.075027e+002, 1.179342e+002
8.079848e+002, 1.176852e+002
8.084669e+002, 1.181999e+002
8.089490e+002, 1.187301e+002
8.094312e+002, 1.190388e+002
8.099133e+002, 1.190604e+002
8.103954e+002, 1.185829e+002
8.108775e+002, 1.174594e+002
8.113596e+002, 1.168348e+002
8.118417e+002, 1.169150e+002
8.123239e+002, 1.172242e+002
8.128060e+002, 1.179064e+002
8.132881e+002, 1.185654e+002
8.137702e+002, 1.187862e+002
8.142523e+002, 1.186085e+002
8.147344e+002, 1.183786e+002
8.152166e+002, 1.182415e+002
8.156987e+002, 1.181767e+002
8.161808e+002, 1.182526e+002
8.166629e+002, 1.183637e+002
8.171450e+002, 1.181482e+002
8.176271e+002, 1.176333e+002
8.181093e+002, 1.174652e+002
8.185914e+002, 1.180611e+002
8.190735e+002, 1.189174e+002
8.195556e+002, 1.189525e+002
8.200377e+002, 1.179331e+002
8.205198e+002, 1.176317e+002
8.210020e+002, 1.185928e+002
8.214841e+002, 1.192287e+002
8.219662e+002, 1.185812e+002
8.224483e+002, 1.175729e+002
8.229304e+002, 1.171349e+002
8.234125e+002, 1.172747e+002
8.238947e+002, 1.178140e+002
8.243768e+002, 1.193785e+002
8.248589e+002, 1.205437e+002
8.253410e+002, 1.204834e+002
8.258231e+002, 1.198403e+002
8.263052e+002, 1.191981e+002
8.267874e+002, 1.186891e+002
8.272695e+002, 1.183251e+002
8.277516e+002, 1.181192e+002
8.282337e+002, 1.180220e+002
8.287158e+002, 1.179818e+002
8.291979e+002, 1.179908e+002
8.296801e+002, 1.180696e+002
8.301622e+002, 1.182209e+002
8.306443e+002, 1.181584e+002
8.311264e+002, 1.176921e+002
8.316085e+002, 1.170697e+002
8.320906e+002, 1.166680e+002
8.325728e+002, 1.164758e+002
8.330549e+002, 1.166016e+002
8.335370e+002, 1.173909e+002
8.340191e+002, 1.179959e+002
8.345012e+002, 1.181199e+002
8.349833e+002, 1.180802e+002
8.354655e+002, 1.182222e+002
8.359476e+002, 1.184654e+002
8.364297e+002, 1.183283e+002
8.369118e+002, 1.172267e+002
8.373939e+002, 1.164193e+002
8.378760e+002, 1.169212e+002
8.383582e+002, 1.178661e+002
8.388403e+002, 1.182881e+002
8.393224e+002, 1.181874e+002
8.398045e+002, 1.179465e+002
8.402866e+002, 1.177453e+002
8.407687e+002, 1.175815e+002
8.412509e+002, 1.173561e+002
8.417330e+002, 1.171429e+002
8.422151e+002, 1.175334e+002
8.426972e+002, 1.185919e+002
8.431793e+002, 1.192683e+002
8.436614e+002, 1.191016e+002
8.441436e+002, 1.186387e+002
8.446257e+002, 1.185178e+002
8.451078e+002, 1.187259e+002
8.455899e+002, 1.187367e+002
8.460720e+002, 1.185319e+002
8.465541e+002, 1.181443e+002
8.470363e+002, 1.170121e+002
8.475184e+002, 1.162343e+002
8.480005e+002, 1.169491e+002
8.484826e+002, 1.184668e+002
8.489647e+002, 1.191159e+002
8.494468e+002, 1.182720e+002
8.499290e+002, 1.174519e+002
8.504111e+002, 1.177335e+002
8.508932e+002, 1.182296e+002
8.513753e+002, 1.179195e+002
8.518574e+002, 1.170948e+002
8.523395e+002, 1.165569e+002
8.528217e+002, 1.165428e+002
8.533038e+002, 1.166995e+002
8.537859e+002, 1.166878e+002
8.542680e+002, 1.165796e+002
8.547501e+002, 1.166871e+002
8.552322e+002, 1.170106e+002
8.557144e+002, 1.169469e+002
8.561965e+002, 1.163232e+002
8.566786e+002, 1.155035e+002
8.571607e+002, 1.146620e+002
8.576428e+002, 1.139050e+002
8.581249e+002, 1.135962e+002
8.586071e+002, 1.140339e+002
8.590892e+002, 1.142731e+002
8.595713e+002, 1.140136e+002
8.600534e+002, 1.139100e+002
8.605355e+002, 1.144702e+002
8.610176e+002, 1.151538e+002
8.614998e+002, 1.152307e+002
8.619819e+002, 1.146507e+002
8.624640e+002, 1.141321e+002
8.629461e+002, 1.140613e+002
8.634282e+002, 1.140369e+002
8.639103e+002, 1.136862e+002
8.643925e+002, 1.132645e+002
8.648746e+002, 1.132070e+002
8.653567e+002, 1.134784e+002
8.658388e+002, 1.136918e+002
8.663209e+002, 1.136281e+002
8.668030e+002, 1.133564e+002
8.672852e+002, 1.128448e+002
8.677673e+002, 1.121912e+002
8.682494e+002, 1.120593e+002
8.687315e+002, 1.125119e+002
8.692136e+002, 1.125385e+002
8.696957e+002, 1.115876e+002
8.701779e+002, 1.105002e+002
8.706600e+002, 1.104599e+002
8.711421e+002, 1.114776e+002
8.716242e+002, 1.121829e+002
8.721063e+002, 1.127901e+002
8.725884e+002, 1.127052e+002
8.730705e+002, 1.109297e+002
8.735526e+002, 1.092697e+002
8.740347e+002, 1.091495e+002
8.745168e+002, 1.099391e+002
8.749990e+002, 1.099629e+002
8.754811e+002, 1.086029e+002
8.759632e+002, 1.075585e+002
8.764453e+002, 1.077784e+002
8.769274e+002, 1.081858e+002
8.774095e+002, 1.080619e+002
8.778917e+002, 1.075306e+002
8.783738e+002, 1.067308e+002
8.788559e+002, 1.057930e+002
8.793380e+002, 1.052003e+002
8.798201e+002, 1.055377e+002
8.803022e+002, 1.061912e+002
8.807844e+002, 1.060716e+002
8.812665e+002, 1.053899e+002
8.817486e+002, 1.048777e+002
8.822307e+002, 1.046582e+002
8.827128e+002, 1.047199e+002
8.831949e+002, 1.051116e+002
8.836771e+002, 1.055421e+002
8.841592e+002, 1.053227e+002
8.846413e+002, 1.043187e+002
8.851234e+002, 1.036809e+002
8.856055e+002, 1.034941e+002
8.860876e+002, 1.034862e+002
8.865698e+002, 1.037752e+002
8.870519e+002, 1.039810e+002
8.875340e+002, 1.035493e+002
8.880161e+002, 1.025368e+002
8.884982e+002, 1.018280e+002
8.889803e+002, 1.018267e+002
8.894625e+002, 1.015953e+002
8.899446e+002, 1.006096e+002
8.904267e+002, 9.968447e+001
8.909088e+002, 9.940813e+001
8.913909e+002, 9.961375e+001
8.918730e+002, 9.999464e+001
8.923552e+002, 1.004869e+002
8.928373e+002, 1.007119e+002
8.933194e+002, 1.001837e+002
8.938015e+002, 9.947432e+001
8.942836e+002, 9.915369e+001
8.947657e+002, 9.913970e+001
8.952479e+002, 9.936105e+001
8.957300e+002, 9.971557e+001
8.962121e+002, 9.979253e+001
8.966942e+002, 9.926083e+001
8.971763e+002, 9.835470e+001
8.976584e+002, 9.735023e+001
8.981406e+002, 9.631973e+001
8.986227e+002, 9.614188e+001
8.991048e+002, 9.698227e+001
8.995869e+002, 9.759265e+001
9.000690e+002, 9.736030e+001
9.005511e+002, 9.665498e+001
9.010333e+002, 9.595255e+001
9.015154e+002, 9.523374e+001
9.019975e+002, 9.498825e+001
9.024796e+002, 9.559951e+001
9.029617e+002, 9.596773e+001
9.034438e+002, 9.562498e+001
9.039260e+002, 9.523814e+001
9.044081e+002, 9.554689e+001
9.048902e+002, 9.613109e+001
9.053723e+002, 9.578828e+001
9.058544e+002, 9.390176e+001
9.063365e+002, 9.249981e+001
9.068187e+002, 9.256014e+001
9.073008e+002, 9.273188e+001
9.077829e+002, 9.192916e+001
9.082650e+002, 9.088700e+001
9.087471e+002, 9.073804e+001
9.092292e+002, 9.157852e+001
9.097114e+002, 9.259184e+001
9.101935e+002, 9.351759e+001
9.106756e+002, 9.405784e+001
9.111577e+002, 9.361681e+001
9.116398e+002, 9.269558e+001
9.121219e+002, 9.224041e+001
9.126041e+002, 9.227190e+001
9.130862e+002, 9.229086e+001
9.135683e+002, 9.206159e+001
9.140504e+002, 9.180375e+001
9.145325e+002, 9.192496e+001
9.150146e+002, 9.228671e+001
9.154968e+002, 9.200536e+001
9.159789e+002, 9.105759e+001
9.164610e+002, 9.009629e+001
9.169431e+002, 8.922511e+001
9.174252e+002, 8.864007e+001
9.179073e+002, 8.855859e+001
9.183895e+002, 8.883570e+001
9.188716e+002, 8.892615e+001
9.193537e+002, 8.868081e+001
9.198358e+002, 8.863728e+001
9.203179e+002, 8.896096e+001
9.208000e+002, 8.924907e+001
9.212822e+002, 8.943361e+001
9.217643e+002, 8.944189e+001
9.222464e+002, 8.908821e+001
9.227285e+002, 8.839558e+001
9.232106e+002, 8.790153e+001
9.236927e+002, 8.784633e+001
9.241749e+002, 8.777195e+001
9.246570e+002, 8.748640e+001
9.251391e+002, 8.719271e+001
9.256212e+002, 8.703743e+001
9.261033e+002, 8.700626e+001
9.265854e+002, 8.708253e+001
9.270676e+002, 8.726762e+001
9.275497e+002, 8.734789e+001
9.280318e+002, 8.703757e+001
9.285139e+002, 8.668488e+001
9.289960e+002, 8.661874e+001
9.294781e+002, 8.678438e+001
9.299603e+002, 8.715486e+001
9.304424e+002, 8.765271e+001
9.309245e+002, 8.797781e+001
9.314066e+002, 8.792184e+001
9.318887e+002, 8.769954e+001
9.323708e+002, 8.774397e+001
9.328530e+002, 8.791853e+001
9.333351e+002, 8.747644e+001
9.338172e+002, 8.643770e+001
9.342993e+002, 8.589247e+001
9.347814e+002, 8.628798e+001
9.352635e+002, 8.688708e+001
9.357457e+002, 8.689715e+001
9.362278e+002, 8.640046e+001
9.367099e+002, 8.578613e+001
9.371920e+002, 8.488586e+001
9.376741e+002, 8.468644e+001
9.381563e+002, 8.566233e+001
9.386384e+002, 8.652660e+001
9.391205e+002, 8.644675e+001
9.396026e+002, 8.593316e+001
9.400847e+002, 8.595037e+001
9.405668e+002, 8.665784e+001
9.410490e+002, 8.695277e+001
9.415311e+002, 8.657947e+001
9.420132e+002, 8.616286e+001
9.424953e+002, 8.575913e+001
9.429774e+002, 8.540688e+001
9.434595e+002, 8.517719e+001
9.439417e+002, 8.501417e+001
9.444238e+002, 8.478330e+001
9.449059e+002, 8.445779e+001
9.453880e+002, 8.406645e+001
9.458701e+002, 8.343356e+001
9.463522e+002, 8.293245e+001
9.468344e+002, 8.285966e+001
9.473165e+002, 8.304871e+001
9.477986e+002, 8.332291e+001
9.482807e+002, 8.361703e+001
9.487628e+002, 8.386455e+001
9.492449e+002, 8.404184e+001
9.497271e+002, 8.412904e+001
9.502092e+002, 8.409876e+001
9.506913e+002, 8.397199e+001
9.511734e+002, 8.374401e+001
9.516555e+002, 8.344978e+001
9.521376e+002, 8.313233e+001
9.526198e+002, 8.282627e+001
9.531019e+002, 8.273865e+001
9.535840e+002, 8.321540e+001
9.540661e+002, 8.386584e+001
9.545482e+002, 8.352474e+001
9.550303e+002, 8.239762e+001
9.555124e+002, 8.193565e+001
9.559945e+002, 8.233926e+001
9.564766e+002, 8.275160e+001
9.569587e+002, 8.270730e+001
9.574409e+002, 8.244743e+001
9.579230e+002, 8.231262e+001
9.584051e+002, 8.230575e+001
9.588872e+002, 8.275121e+001
9.593693e+002, 8.390051e+001
9.598514e+002, 8.433376e+001
9.603336e+002, 8.340354e+001
9.608157e+002, 8.249995e+001
9.612978e+002, 8.281255e+001
9.617799e+002, 8.383223e+001
9.622620e+002, 8.409980e+001
9.627441e+002, 8.330851e+001
9.632263e+002, 8.270950e+001
9.637084e+002, 8.219783e+001
9.641905e+002, 8.203085e+001
9.646726e+002, 8.270974e+001
9.651547e+002, 8.339890e+001
9.656368e+002, 8.324608e+001
9.661190e+002, 8.244067e+001
9.666011e+002, 8.193567e+001
9.670832e+002, 8.208952e+001
9.675653e+002, 8.205354e+001
9.680474e+002, 8.123616e+001
9.685295e+002, 8.062572e+001
9.690117e+002, 8.099601e+001
9.694938e+002, 8.179978e+001
9.699759e+002, 8.244555e+001
9.704580e+002, 8.277994e+001
9.709401e+002, 8.258215e+001
9.714222e+002, 8.140726e+001
9.719044e+002, 8.024059e+001
9.723865e+002, 7.956573e+001
9.728686e+002, 7.931983e+001
9.733507e+002, 7.967780e+001
9.738328e+002, 8.035628e+001
9.743149e+002, 8.074448e+001
9.747971e+002, 8.068156e+001
9.752792e+002, 8.058895e+001
9.757613e+002, 8.087668e+001
9.762434e+002, 8.122968e+001
9.767255e+002, 8.115369e+001
9.772076e+002, 8.084451e+001
9.776898e+002, 8.077686e+001
9.781719e+002, 8.093738e+001
9.786540e+002, 8.094092e+001
9.791361e+002, 8.060459e+001
9.796182e+002, 8.011052e+001
9.801003e+002, 7.957336e+001
9.805825e+002, 7.909865e+001
9.810646e+002, 7.915370e+001
9.815467e+002, 7.966724e+001
9.820288e+002, 8.007328e+001
9.825109e+002, 8.025870e+001
9.829930e+002, 8.032527e+001
9.834752e+002, 8.032249e+001
9.839573e+002, 8.031574e+001
9.844394e+002, 8.047005e+001
9.849215e+002, 8.078801e+001
9.854036e+002, 8.085359e+001
9.858857e+002, 8.062432e+001
9.863679e+002, 8.035493e+001
9.868500e+002, 8.004263e+001
9.873321e+002, 7.994691e+001
9.878142e+002, 8.036867e+001
9.882963e+002, 8.108547e+001
9.887784e+002, 8.138834e+001
9.892606e+002, 8.117187e+001
9.897427e+002, 8.090983e+001
9.902248e+002, 8.063130e+001
9.907069e+002, 8.022813e+001
9.911890e+002, 7.939339e+001
9.916711e+002, 7.871823e+001
9.921533e+002, 7.880303e+001
9.926354e+002, 7.955703e+001
9.931175e+002, 8.047172e+001
9.935996e+002, 8.213414e+001
9.940817e+002, 8.289781e+001
9.945638e+002, 8.201780e+001
9.950460e+002, 8.110383e+001
9.955281e+002, 8.070040e+001
9.960102e+002, 8.062283e+001
9.964923e+002, 8.078513e+001
9.969744e+002, 8.111612e+001
9.974565e+002, 8.121883e+001
9.979387e+002, 8.079787e+001
9.984208e+002, 8.051252e+001
9.989029e+002, 8.072515e+001
9.993850e+002, 8.091676e+001
9.998671e+002, 8.071378e+001
1.000349e+003, 8.030844e+001
1.000831e+003, 7.988316e+001
1.001313e+003, 7.952048e+001
1.001796e+003, 7.954646e+001
1.002278e+003, 8.042996e+001
1.002760e+003, 8.122367e+001
1.003242e+003, 8.130578e+001
1.003724e+003, 8.115557e+001
1.004206e+003, 8.133105e+001
1.004688e+003, 8.159118e+001
1.005170e+003, 8.128584e+001
1.005653e+003, 8.032535e+001
1.006135e+003, 7.948553e+001
1.006617e+003, 7.929900e+001
1.007099e+003, 7.937278e+001
1.007581e+003, 7.941305e+001
1.008063e+003, 7.943523e+001
1.008545e+003, 7.949155e+001
1.009027e+003, 7.954733e+001
1.009509e+003, 7.946915e+001
1.009992e+003, 7.922438e+001
1.010474e+003, 7.900395e+001
1.010956e+003, 7.899253e+001
1.011438e+003, 7.908530e+001
1.011920e+003, 7.904945e+001
1.012402e+003, 7.901690e+001
1.012884e+003, 7.953846e+001
1.013366e+003, 8.044572e+001
1.013849e+003, 8.056422e+001
1.014331e+003, 7.940705e+001
1.014813e+003, 7.821889e+001
1.015295e+003, 7.852612e+001
1.015777e+003, 7.973170e+001
1.016259e+003, 8.040533e+001
1.016741e+003, 8.062379e+001
1.017223e+003, 8.063566e+001
1.017705e+003, 8.051572e+001
1.018188e+003, 8.070858e+001
1.018670e+003, 8.147627e+001
1.019152e+003, 8.203853e+001
1.019634e+003, 8.105870e+001
1.020116e+003, 7.901949e+001
1.020598e+003, 7.841847e+001
1.021080e+003, 7.919943e+001
1.021562e+003, 7.979037e+001
1.022044e+003, 7.991077e+001
1.022527e+003, 8.002028e+001
1.023009e+003, 8.038628e+001
1.023491e+003, 8.088102e+001
1.023973e+003, 8.134779e+001
1.024455e+003, 8.176927e+001
1.024937e+003, 8.183801e+001
1.025419e+003, 8.153709e+001
1.025901e+003, 8.095644e+001
1.026384e+003, 8.000709e+001
1.026866e+003, 7.925188e+001
1.027348e+003, 7.906473e+001
1.027830e+003, 7.923119e+001
1.028312e+003, 7.934823e+001
1.028794e+003, 7.940594e+001
1.029276e+003, 7.975565e+001
1.029758e+003, 8.058219e+001
1.030240e+003, 8.103624e+001
1.030723e+003, 8.086948e+001
1.031205e+003, 8.050137e+001
1.031687e+003, 8.012810e+001
1.032169e+003, 7.981506e+001
1.032651e+003, 7.970511e+001
1.033133e+003, 7.982082e+001
1.033615e+003, 7.996935e+001
1.034097e+003, 8.030824e+001
1.034579e+003, 8.031081e+001
1.035062e+003, 7.965976e+001
1.035544e+003, 7.897878e+001
1.036026e+003, 7.868700e+001
1.036508e+003, 7.864091e+001
1.036990e+003, 7.851323e+001
1.037472e+003, 7.822828e+001
1.037954e+003, 7.829933e+001
1.038436e+003, 7.922585e+001
1.038919e+003, 7.969743e+001
1.039401e+003, 7.911282e+001
1.039883e+003, 7.842200e+001
1.040365e+003, 7.818009e+001
1.040847e+003, 7.827637e+001
1.041329e+003, 7.850053e+001
1.041811e+003, 7.887646e+001
1.042293e+003, 7.925980e+001
1.042776e+003, 7.999763e+001
1.043258e+003, 8.025489e+001
1.043740e+003, 7.912625e+001
1.044222e+003, 7.822189e+001
1.044704e+003, 7.900866e+001
1.045186e+003, 8.061401e+001
1.045668e+003, 8.128609e+001
1.046150e+003, 8.079263e+001
1.046632e+003, 8.023462e+001
1.047115e+003, 7.937721e+001
1.047597e+003, 7.895328e+001
1.048079e+003, 7.955905e+001
1.048561e+003, 8.025011e+001
1.049043e+003, 8.036035e+001
1.049525e+003, 8.009679e+001
1.050007e+003, 7.986284e+001
1.050489e+003, 7.969547e+001
1.050971e+003, 7.965850e+001
1.051454e+003, 8.018023e+001
1.051936e+003, 8.026699e+001
1.052418e+003, 7.924251e+001
1.052900e+003, 7.804877e+001
1.053382e+003, 7.721380e+001
1.053864e+003, 7.676363e+001
1.054346e+003, 7.667552e+001
1.054828e+003, 7.694803e+001
1.055311e+003, 7.745790e+001
1.055793e+003, 7.864822e+001
1.056275e+003, 7.942672e+001
1.056757e+003, 7.920445e+001
1.057239e+003, 7.864532e+001
1.057721e+003, 7.814895e+001
1.058203e+003, 7.771487e+001
1.058685e+003, 7.715163e+001
1.059167e+003, 7.644910e+001
1.059650e+003, 7.624392e+001
1.060132e+003, 7.738984e+001
1.060614e+003, 7.819588e+001
1.061096e+003, 7.760549e+001
1.061578e+003, 7.684256e+001
1.062060e+003, 7.694761e+001
1.062542e+003, 7.748676e+001
1.063024e+003, 7.756140e+001
1.063506e+003, 7.707854e+001
1.063989e+003, 7.686875e+001
1.064471e+003, 7.758496e+001
1.064953e+003, 7.812729e+001
1.065435e+003, 7.810136e+001
1.065917e+003, 7.767356e+001
1.066399e+003, 7.654517e+001
1.066881e+003, 7.531593e+001
1.067363e+003, 7.499857e+001
1.067846e+003, 7.563138e+001
1.068328e+003, 7.614945e+001
1.068810e+003, 7.610585e+001
1.069292e+003, 7.596859e+001
1.069774e+003, 7.599821e+001
1.070256e+003, 7.596120e+001
1.070738e+003, 7.555550e+001
1.071220e+003, 7.504287e+001
1.071703e+003, 7.485472e+001
1.072185e+003, 7.498306e+001
1.072667e+003, 7.496669e+001
1.073149e+003, 7.446306e+001
1.073631e+003, 7.419267e+001
1.074113e+003, 7.476900e+001
1.074595e+003, 7.540838e+001
1.075077e+003, 7.555801e+001
1.075559e+003, 7.541375e+001
1.076042e+003, 7.526263e+001
1.076524e+003, 7.512453e+001
1.077006e+003, 7.484057e+001
1.077488e+003, 7.425352e+001
1.077970e+003, 7.384745e+001
1.078452e+003, 7.410576e+001
1.078934e+003, 7.433617e+001
1.079416e+003, 7.385106e+001
1.079898e+003, 7.322366e+001
1.080380e+003, 7.319182e+001
1.080863e+003, 7.369061e+001
1.081345e+003, 7.426923e+001
1.081827e+003, 7.488612e+001
1.082309e+003, 7.507714e+001
1.082791e+003, 7.421950e+001
1.083273e+003, 7.335441e+001
1.083755e+003, 7.304021e+001
1.084237e+003, 7.311102e+001
1.084720e+003, 7.357732e+001
1.085202e+003, 7.421044e+001
1.085684e+003, 7.446910e+001
1.086166e+003, 7.416786e+001
1.086648e+003, 7.393547e+001
1.087130e+003, 7.423853e+001
1.087612e+003, 7.442657e+001
1.088094e+003, 7.390067e+001
1.088577e+003, 7.333037e+001
1.089059e+003, 7.347392e+001
1.089541e+003, 7.403716e+001
1.090023e+003, 7.434557e+001
1.090505e+003, 7.426175e+001
1.090987e+003, 7.393101e+001
1.091469e+003, 7.312318e+001
1.091951e+003, 7.245895e+001
1.092433e+003, 7.232676e+001
1.092916e+003, 7.232178e+001
1.093398e+003, 7.212048e+001
1.093880e+003, 7.182494e+001
1.094362e+003, 7.163056e+001
1.094844e+003, 7.156741e+001
1.095326e+003, 7.158376e+001
1.095808e+003, 7.174824e+001
1.096290e+003, 7.186520e+001
1.096772e+003, 7.189867e+001
1.097255e+003, 7.183486e+001
1.097737e+003, 7.147359e+001
1.098219e+003, 7.112670e+001
1.098701e+003, 7.137019e+001
1.099183e+003, 7.210384e+001
1.099665e+003, 7.236901e+001
1.100147e+003, 7.165354e+001
1.100629e+003, 7.106860e+001
1.101112e+003, 7.091432e+001
1.101594e+003, 7.093881e+001
1.102076e+003, 7.114423e+001
1.102558e+003, 7.136894e+001
1.103040e+003, 7.148206e+001
1.103522e+003, 7.146934e+001
1.104004e+003, 7.130138e+001
1.104486e+003, 7.087550e+001
1.104969e+003, 7.060977e+001
1.105451e+003, 7.064098e+001
1.105933e+003, 7.076273e+001
1.106415e+003, 7.116045e+001
1.106897e+003, 7.138618e+001
1.107379e+003, 7.087114e+001
1.107861e+003, 6.995228e+001
1.108343e+003, 6.944917e+001
1.108825e+003, 6.945251e+001
1.109307e+003, 6.968529e+001
1.109790e+003, 7.040894e+001
1.110272e+003, 7.095354e+001
1.110754e+003, 7.111010e+001
1.111236e+003, 7.112887e+001
1.111718e+003, 7.110867e+001
1.112200e+003, 7.107314e+001
1.112682e+003, 7.116369e+001
1.113164e+003, 7.141348e+001
1.113647e+003, 7.107401e+001
1.114129e+003, 6.911668e+001
1.114611e+003, 6.830608e+001
1.115093e+003, 6.981326e+001
1.115575e+003, 7.114465e+001
1.116057e+003, 7.107370e+001
1.116539e+003, 7.046739e+001
1.117021e+003, 7.034636e+001
1.117504e+003, 7.061024e+001
1.117986e+003, 7.050510e+001
1.118468e+003, 6.988103e+001
1.118950e+003, 6.922425e+001
1.119432e+003, 6.837766e+001
1.119914e+003, 6.782288e+001
1.120396e+003, 6.772118e+001
1.120878e+003, 6.796659e+001
1.121360e+003, 6.863569e+001
1.121843e+003, 6.946085e+001
1.122325e+003, 6.956365e+001
1.122807e+003, 6.871365e+001
1.123289e+003, 6.862671e+001
1.123771e+003, 6.962457e+001
1.124253e+003, 7.027245e+001
1.124735e+003, 7.020119e+001
1.125217e+003, 6.993209e+001
1.125699e+003, 6.980714e+001
1.126182e+003, 6.963673e+001
1.126664e+003, 6.898875e+001
1.127146e+003, 6.793147e+001
1.127628e+003, 6.787419e+001
1.128110e+003, 6.898046e+001
1.128592e+003, 6.956435e+001
1.129074e+003, 6.934575e+001
1.129556e+003, 6.904855e+001
1.130039e+003, 6.899059e+001
1.130521e+003, 6.904484e+001
1.131003e+003, 6.908303e+001
1.131485e+003, 6.909196e+001
1.131967e+003, 6.905300e+001
1.132449e+003, 6.895805e+001
1.132931e+003, 6.854359e+001
1.133413e+003, 6.781293e+001
1.133896e+003, 6.751625e+001
1.134378e+003, 6.788186e+001
1.134860e+003, 6.850034e+001
1.135342e+003, 6.907629e+001
1.135824e+003, 6.959978e+001
1.136306e+003, 7.016292e+001
1.136788e+003, 7.064577e+001
1.137270e+003, 7.041451e+001
1.137752e+003, 6.964244e+001
1.138234e+003, 6.923331e+001
1.138717e+003, 6.930136e+001
1.139199e+003, 6.929392e+001
1.139681e+003, 6.892625e+001
1.140163e+003, 6.858263e+001
1.140645e+003, 6.881615e+001
1.141127e+003, 6.924192e+001
1.141609e+003, 6.896606e+001
1.142091e+003, 6.840721e+001
1.142574e+003, 6.862331e+001
1.143056e+003, 6.945878e+001
1.143538e+003, 7.005490e+001
1.144020e+003, 7.013708e+001
1.144502e+003, 6.994808e+001
1.144984e+003, 6.960798e+001
1.145466e+003, 6.919103e+001
1.145948e+003, 6.852735e+001
1.146431e+003, 6.803090e+001
1.146913e+003, 6.845811e+001
1.147395e+003, 6.934657e+001
1.147877e+003, 6.990640e+001
1.148359e+003, 6.998842e+001
1.148841e+003, 6.966013e+001
1.149323e+003, 6.885515e+001
1.149805e+003, 6.824015e+001
1.150287e+003, 6.837016e+001
1.150770e+003, 6.868710e+001
1.151252e+003, 6.889198e+001
1.151734e+003, 6.898505e+001
1.152216e+003, 6.883388e+001
1.152698e+003, 6.862708e+001
1.153180e+003, 6.886109e+001
1.153662e+003, 6.963532e+001
1.154144e+003, 7.014233e+001
1.154626e+003, 6.996497e+001
1.155109e+003, 6.968993e+001
1.155591e+003, 6.955772e+001
1.156073e+003, 6.933601e+001
1.156555e+003, 6.862137e+001
1.157037e+003, 6.789796e+001
1.157519e+003, 6.794018e+001
1.158001e+003, 6.863660e+001
1.158483e+003, 6.892849e+001
1.158966e+003, 6.840607e+001
1.159448e+003, 6.814827e+001
1.159930e+003, 6.843087e+001
1.160412e+003, 6.869807e+001
1.160894e+003, 6.879237e+001
1.161376e+003, 6.883089e+001
1.161858e+003, 6.883067e+001
1.162340e+003, 6.888219e+001
1.162822e+003, 6.930468e+001
1.163305e+003, 7.022504e+001
1.163787e+003, 7.003649e+001
1.164269e+003, 6.805894e+001
1.164751e+003, 6.702071e+001
1.165233e+003, 6.753207e+001
1.165715e+003, 6.831007e+001
1.166197e+003, 6.886506e+001
1.166679e+003, 6.909422e+001
1.167161e+003, 6.875894e+001
1.167644e+003, 6.811903e+001
1.168126e+003, 6.839233e+001
1.168608e+003, 6.962720e+001
1.169090e+003, 7.023216e+001
1.169572e+003, 7.012556e+001
1.170054e+003, 6.982978e+001
1.170536e+003, 6.948018e+001
1.171018e+003, 6.925262e+001
1.171500e+003, 6.927043e+001
1.171983e+003, 6.946912e+001
1.172465e+003, 6.983276e+001
1.172947e+003, 7.025951e+001
1.173429e+003, 7.037206e+001
1.173911e+003, 7.024588e+001
1.174393e+003, 7.021777e+001
1.174875e+003, 7.027108e+001
1.175357e+003, 7.001498e+001
1.175840e+003, 6.933430e+001
1.176322e+003, 6.874601e+001
1.176804e+003, 6.870259e+001
1.177286e+003, 6.889506e+001
1.177768e+003, 6.890877e+001
1.178250e+003, 6.893607e+001
1.178732e+003, 6.948016e+001
1.179214e+003, 7.016515e+001
1.179697e+003, 7.001937e+001
1.180179e+003, 6.917283e+001
1.180661e+003, 6.891360e+001
1.181143e+003, 6.987926e+001
1.181625e+003, 7.059750e+001
1.182107e+003, 6.976399e+001
1.182589e+003, 6.888044e+001
1.183071e+003, 6.909732e+001
1.183553e+003, 6.958128e+001
1.184036e+003, 6.949422e+001
1.184518e+003, 6.906189e+001
1.185000e+003, 6.877917e+001
1.185482e+003, 6.872574e+001
1.185964e+003, 6.886136e+001
1.186446e+003, 6.912242e+001
1.186928e+003, 6.965921e+001
1.187410e+003, 7.125219e+001
1.187892e+003, 7.218569e+001
1.188375e+003, 7.115400e+001
1.188857e+003, 6.964735e+001
1.189339e+003, 6.900741e+001
1.189821e+003, 6.899321e+001
1.190303e+003, 6.895665e+001
1.190785e+003, 6.891758e+001
1.191267e+003, 6.871436e+001
1.191749e+003, 6.820267e+001
1.192232e+003, 6.795763e+001
1.192714e+003, 6.815670e+001
1.193196e+003, 6.836707e+001
1.193678e+003, 6.835126e+001
1.194160e+003, 6.829846e+001
1.194642e+003, 6.841992e+001
1.195124e+003, 6.872067e+001
1.195606e+003, 6.936958e+001
1.196089e+003, 7.033079e+001
1.196571e+003, 7.045834e+001
1.197053e+003, 6.975069e+001
1.197535e+003, 6.915054e+001
1.198017e+003, 6.892954e+001
1.198499e+003, 6.967464e+001
1.198981e+003, 7.183865e+001
1.199463e+003, 7.386083e+001
1.199945e+003, 7.336845e+001
1.200427e+003, 7.150843e+001
1.200910e+003, 7.020246e+001
1.201392e+003, 6.948315e+001
1.201874e+003, 6.973389e+001
1.202356e+003, 7.058321e+001
1.202838e+003, 7.097399e+001
1.203320e+003, 7.063040e+001
1.203802e+003, 6.989828e+001
1.204284e+003, 6.874053e+001
1.204767e+003, 6.798287e+001
1.205249e+003, 6.868496e+001
1.205731e+003, 6.958286e+001
1.206213e+003, 6.942377e+001
1.206695e+003, 6.899696e+001
1.207177e+003, 6.957868e+001
1.207659e+003, 7.071289e+001
1.208141e+003, 7.084931e+001
1.208624e+003, 6.961427e+001
1.209106e+003, 6.867322e+001
1.209588e+003, 6.853501e+001
1.210070e+003, 6.856493e+001
1.210552e+003, 6.870518e+001
1.211034e+003, 6.889364e+001
1.211516e+003, 6.919473e+001
1.211998e+003, 6.944139e+001
1.212480e+003, 6.934174e+001
1.212963e+003, 6.907235e+001
1.213445e+003, 6.936514e+001
1.213927e+003, 7.042598e+001
1.214409e+003, 7.101854e+001
1.214891e+003, 7.112076e+001
1.215373e+003, 7.074071e+001
1.215855e+003, 6.972843e+001
1.216337e+003, 6.901851e+001
1.216819e+003, 6.916919e+001
1.217302e+003, 6.950637e+001
1.217784e+003, 6.915079e+001
1.218266e+003, 6.842278e+001
1.218748e+003, 6.838750e+001
1.219230e+003, 6.888831e+001
1.219712e+003, 6.912367e+001
1.220194e+003, 6.910739e+001
1.220676e+003, 6.922947e+001
1.221159e+003, 6.952236e+001
1.221641e+003, 6.948734e+001
1.222123e+003, 6.883529e+001
1.222605e+003, 6.829055e+001
1.223087e+003, 6.878698e+001
1.223569e+003, 6.956681e+001
1.224051e+003, 6.966920e+001
1.224533e+003, 6.959692e+001
1.225016e+003, 7.028484e+001
1.225498e+003, 7.120974e+001
1.225980e+003, 7.105657e+001
1.226462e+003, 6.983200e+001
1.226944e+003, 6.901183e+001
1.227426e+003, 6.918326e+001
1.227908e+003, 6.957533e+001
1.228390e+003, 7.009800e+001
1.228872e+003, 7.055967e+001
1.229354e+003, 7.096496e+001
1.229837e+003, 7.119400e+001
1.230319e+003, 7.114536e+001
1.230801e+003, 7.085694e+001
1.231283e+003, 7.029804e+001
1.231765e+003, 6.948878e+001
1.232247e+003, 6.918413e+001
1.232729e+003, 6.954481e+001
1.233211e+003, 6.996765e+001
1.233694e+003, 7.054488e+001
1.234176e+003, 7.072207e+001
1.234658e+003, 7.024818e+001
1.235140e+003, 6.971643e+001
1.235622e+003, 6.955535e+001
1.236104e+003, 6.958345e+001
1.236586e+003, 6.947383e+001
1.237068e+003, 6.929507e+001
1.237551e+003, 6.934573e+001
1.238033e+003, 6.958911e+001
1.238515e+003, 6.996910e+001
1.238997e+003, 7.039292e+001
1.239479e+003, 7.047846e+001
1.239961e+003, 7.014641e+001
1.240443e+003, 6.968887e+001
1.240925e+003, 6.927004e+001
1.241407e+003, 6.889359e+001
1.241890e+003, 6.839497e+001
1.242372e+003, 6.811515e+001
1.242854e+003, 6.868307e+001
1.243336e+003, 6.943369e+001
1.243818e+003, 6.943100e+001
1.244300e+003, 6.898193e+001
1.244782e+003, 6.895146e+001
1.245264e+003, 6.944168e+001
1.245746e+003, 6.973157e+001
1.246229e+003, 6.980652e+001
1.246711e+003, 6.935004e+001
1.247193e+003, 6.704902e+001
1.247675e+003, 6.593995e+001
1.248157e+003, 6.806986e+001
1.248639e+003, 7.048563e+001
1.249121e+003, 7.120775e+001
1.249603e+003, 7.077971e+001
1.250085e+003, 7.001836e+001
1.250568e+003, 6.898389e+001
1.251050e+003, 6.878062e+001
1.251532e+003, 6.949252e+001
1.252014e+003, 7.019572e+001
1.252496e+003, 7.083449e+001
1.252978e+003, 7.108418e+001
1.253460e+003, 7.084837e+001
1.253942e+003, 7.025012e+001
1.254425e+003, 6.932993e+001
1.254907e+003, 6.858944e+001
1.255389e+003, 6.884526e+001
1.255871e+003, 6.968270e+001
1.256353e+003, 7.077111e+001
1.256835e+003, 7.160902e+001
1.257317e+003, 7.070093e+001
1.257799e+003, 6.885592e+001
1.258281e+003, 6.831175e+001
1.258764e+003, 6.933888e+001
1.259246e+003, 7.034877e+001
1.259728e+003, 7.072234e+001
1.260210e+003, 7.079753e+001
1.260692e+003, 7.041602e+001
1.261174e+003, 7.018872e+001
1.261656e+003, 7.066434e+001
1.262138e+003, 7.114109e+001
1.262620e+003, 7.095524e+001
1.263103e+003, 7.048417e+001
1.263585e+003, 7.031988e+001
1.264067e+003, 7.045023e+001
1.264549e+003, 7.078421e+001
1.265031e+003, 7.149053e+001
1.265513e+003, 7.176949e+001
1.265995e+003, 7.146732e+001
1.266477e+003, 7.146816e+001
1.266960e+003, 7.204009e+001
1.267442e+003, 7.239803e+001
1.267924e+003, 7.208097e+001
1.268406e+003, 7.157465e+001
1.268888e+003, 7.147660e+001
1.269370e+003, 7.156709e+001
1.269852e+003, 7.131074e+001
1.270334e+003, 7.084671e+001
1.270817e+003, 7.039185e+001
1.271299e+003, 7.007573e+001
1.271781e+003, 7.034376e+001
1.272263e+003, 7.105473e+001
1.272745e+003, 7.138281e+001
1.273227e+003, 7.101131e+001
1.273709e+003, 7.071306e+001
1.274191e+003, 7.117614e+001
1.274673e+003, 7.151257e+001
1.275156e+003, 7.098026e+001
1.275638e+003, 7.051107e+001
1.276120e+003, 7.085667e+001
1.276602e+003, 7.149888e+001
1.277084e+003, 7.183875e+001
1.277566e+003, 7.194904e+001
1.278048e+003, 7.215553e+001
1.278530e+003, 7.247521e+001
1.279012e+003, 7.278743e+001
1.279495e+003, 7.323059e+001
1.279977e+003, 7.304383e+001
1.280459e+003, 7.197263e+001
1.280941e+003, 7.123542e+001
1.281423e+003, 7.128745e+001
1.281905e+003, 7.169900e+001
1.282387e+003, 7.218867e+001
1.282869e+003, 7.250867e+001
1.283352e+003, 7.176582e+001
1.283834e+003, 7.078278e+001
1.284316e+003, 7.131929e+001
1.284798e+003, 7.338003e+001
##END=



