##NAMES=Serendibite
##RRUFFID=R120069
##IDEAL CHEMISTRY=Ca_4_(Mg_6_Al_6_)O_4_[Si_6_B_3_Al_3_O_36_]
##LOCALITY=Mogok, Burma
##OWNER=RRUFF
##SOURCE=William W. Pinch
##DESCRIPTION=Deep blue/purple fragment that almost appears black. Twinned by a 2-fold rotation around (010), according to single crystal X-ray diffraction.
##STATUS=The identification of this mineral has been confirmed by single-crystal X-ray diffraction.
##URL=rruff.info/R120069
8.936163e+001, 0.000000e+000
8.984375e+001, 9.795960e+001
9.032587e+001, 9.912288e+001
9.080798e+001, 9.934313e+001
9.129010e+001, 9.824067e+001
9.177222e+001, 9.663616e+001
9.225433e+001, 9.553394e+001
9.273645e+001, 9.489065e+001
9.321857e+001, 9.429270e+001
9.370068e+001, 9.337444e+001
9.418280e+001, 9.221836e+001
9.466492e+001, 9.110092e+001
9.514703e+001, 9.010123e+001
9.562915e+001, 8.920768e+001
9.611127e+001, 8.833755e+001
9.659338e+001, 8.748264e+001
9.707550e+001, 8.672156e+001
9.755762e+001, 8.615018e+001
9.803973e+001, 8.576852e+001
9.852185e+001, 8.549461e+001
9.900397e+001, 8.543754e+001
9.948608e+001, 8.560992e+001
9.996820e+001, 8.530064e+001
1.004503e+002, 8.443195e+001
1.009324e+002, 8.316117e+001
1.014146e+002, 8.171792e+001
1.018967e+002, 7.996652e+001
1.023788e+002, 7.839393e+001
1.028609e+002, 7.729402e+001
1.033430e+002, 7.684776e+001
1.038251e+002, 7.632598e+001
1.043073e+002, 7.568199e+001
1.047894e+002, 7.492746e+001
1.052715e+002, 7.411575e+001
1.057536e+002, 7.318092e+001
1.062357e+002, 7.225370e+001
1.067178e+002, 7.140115e+001
1.072000e+002, 7.055551e+001
1.076821e+002, 6.989981e+001
1.081642e+002, 6.957996e+001
1.086463e+002, 6.964145e+001
1.091284e+002, 6.940464e+001
1.096105e+002, 6.856612e+001
1.100927e+002, 6.755924e+001
1.105748e+002, 6.679590e+001
1.110569e+002, 6.668883e+001
1.115390e+002, 6.644349e+001
1.120211e+002, 6.581413e+001
1.125032e+002, 6.464470e+001
1.129854e+002, 6.363908e+001
1.134675e+002, 6.295311e+001
1.139496e+002, 6.247742e+001
1.144317e+002, 6.204471e+001
1.149138e+002, 6.163557e+001
1.153959e+002, 6.125269e+001
1.158781e+002, 6.093353e+001
1.163602e+002, 6.079666e+001
1.168423e+002, 6.047551e+001
1.173244e+002, 5.956530e+001
1.178065e+002, 5.833445e+001
1.182886e+002, 5.746611e+001
1.187708e+002, 5.760200e+001
1.192529e+002, 5.803513e+001
1.197350e+002, 5.822617e+001
1.202171e+002, 5.804457e+001
1.206992e+002, 5.757673e+001
1.211813e+002, 5.661298e+001
1.216635e+002, 5.527427e+001
1.221456e+002, 5.425734e+001
1.226277e+002, 5.434443e+001
1.231098e+002, 5.493318e+001
1.235919e+002, 5.522744e+001
1.240740e+002, 5.480341e+001
1.245562e+002, 5.404308e+001
1.250383e+002, 5.327448e+001
1.255204e+002, 5.249449e+001
1.260025e+002, 5.180166e+001
1.264846e+002, 5.127745e+001
1.269667e+002, 5.090625e+001
1.274489e+002, 5.064909e+001
1.279310e+002, 5.065189e+001
1.284131e+002, 5.073121e+001
1.288952e+002, 5.045413e+001
1.293773e+002, 4.974737e+001
1.298594e+002, 4.897842e+001
1.303416e+002, 4.861816e+001
1.308237e+002, 4.862593e+001
1.313058e+002, 4.868135e+001
1.317879e+002, 4.868013e+001
1.322700e+002, 4.860512e+001
1.327521e+002, 4.835432e+001
1.332343e+002, 4.788650e+001
1.337164e+002, 4.729580e+001
1.341985e+002, 4.670555e+001
1.346806e+002, 4.611180e+001
1.351627e+002, 4.556871e+001
1.356448e+002, 4.514200e+001
1.361270e+002, 4.483169e+001
1.366091e+002, 4.448493e+001
1.370912e+002, 4.404841e+001
1.375733e+002, 4.358140e+001
1.380554e+002, 4.330438e+001
1.385375e+002, 4.329341e+001
1.390197e+002, 4.324807e+001
1.395018e+002, 4.286162e+001
1.399839e+002, 4.201549e+001
1.404660e+002, 4.136701e+001
1.409481e+002, 4.105595e+001
1.414302e+002, 4.106207e+001
1.419124e+002, 4.112208e+001
1.423945e+002, 4.131543e+001
1.428766e+002, 4.145398e+001
1.433587e+002, 4.131988e+001
1.438408e+002, 4.075856e+001
1.443229e+002, 4.024426e+001
1.448051e+002, 3.990105e+001
1.452872e+002, 3.975647e+001
1.457693e+002, 3.953780e+001
1.462514e+002, 3.917015e+001
1.467335e+002, 3.877248e+001
1.472156e+002, 3.849720e+001
1.476978e+002, 3.846587e+001
1.481799e+002, 3.841006e+001
1.486620e+002, 3.824150e+001
1.491441e+002, 3.787929e+001
1.496262e+002, 3.762859e+001
1.501083e+002, 3.756973e+001
1.505905e+002, 3.761252e+001
1.510726e+002, 3.759897e+001
1.515547e+002, 3.763791e+001
1.520368e+002, 3.752866e+001
1.525189e+002, 3.716833e+001
1.530010e+002, 3.625199e+001
1.534832e+002, 3.562003e+001
1.539653e+002, 3.549050e+001
1.544474e+002, 3.569094e+001
1.549295e+002, 3.580735e+001
1.554116e+002, 3.563196e+001
1.558937e+002, 3.547454e+001
1.563759e+002, 3.548289e+001
1.568580e+002, 3.582403e+001
1.573401e+002, 3.613390e+001
1.578222e+002, 3.645344e+001
1.583043e+002, 3.671922e+001
1.587864e+002, 3.669735e+001
1.592686e+002, 3.588959e+001
1.597507e+002, 3.502757e+001
1.602328e+002, 3.457760e+001
1.607149e+002, 3.475720e+001
1.611970e+002, 3.525490e+001
1.616791e+002, 3.606606e+001
1.621613e+002, 3.714919e+001
1.626434e+002, 3.831128e+001
1.631255e+002, 3.967949e+001
1.636076e+002, 4.099478e+001
1.640897e+002, 4.202639e+001
1.645718e+002, 4.213249e+001
1.650540e+002, 4.240651e+001
1.655361e+002, 4.354083e+001
1.660182e+002, 4.551212e+001
1.665003e+002, 4.748263e+001
1.669824e+002, 4.891367e+001
1.674645e+002, 5.012978e+001
1.679467e+002, 5.151163e+001
1.684288e+002, 5.321708e+001
1.689109e+002, 5.514431e+001
1.693930e+002, 5.733945e+001
1.698751e+002, 5.982816e+001
1.703572e+002, 6.218022e+001
1.708394e+002, 6.386995e+001
1.713215e+002, 6.527188e+001
1.718036e+002, 6.698982e+001
1.722857e+002, 6.964051e+001
1.727678e+002, 7.256763e+001
1.732499e+002, 7.515493e+001
1.737321e+002, 7.737452e+001
1.742142e+002, 7.930447e+001
1.746963e+002, 8.079183e+001
1.751784e+002, 8.205654e+001
1.756605e+002, 8.362698e+001
1.761426e+002, 8.611402e+001
1.766248e+002, 8.893597e+001
1.771069e+002, 9.129721e+001
1.775890e+002, 9.310998e+001
1.780711e+002, 9.456866e+001
1.785532e+002, 9.567588e+001
1.790353e+002, 9.655322e+001
1.795175e+002, 9.759241e+001
1.799996e+002, 9.900867e+001
1.804817e+002, 1.007420e+002
1.809638e+002, 1.027899e+002
1.814459e+002, 1.052638e+002
1.819280e+002, 1.077630e+002
1.824102e+002, 1.096625e+002
1.828923e+002, 1.110327e+002
1.833744e+002, 1.125480e+002
1.838565e+002, 1.148054e+002
1.843386e+002, 1.175508e+002
1.848207e+002, 1.199537e+002
1.853029e+002, 1.218606e+002
1.857850e+002, 1.235034e+002
1.862671e+002, 1.252577e+002
1.867492e+002, 1.271152e+002
1.872313e+002, 1.290504e+002
1.877134e+002, 1.309938e+002
1.881956e+002, 1.329925e+002
1.886777e+002, 1.352028e+002
1.891598e+002, 1.377393e+002
1.896419e+002, 1.404307e+002
1.901240e+002, 1.429181e+002
1.906061e+002, 1.452265e+002
1.910883e+002, 1.474670e+002
1.915704e+002, 1.496722e+002
1.920525e+002, 1.518814e+002
1.925346e+002, 1.543501e+002
1.930167e+002, 1.572939e+002
1.934988e+002, 1.602916e+002
1.939810e+002, 1.617277e+002
1.944631e+002, 1.613526e+002
1.949452e+002, 1.608591e+002
1.954273e+002, 1.610542e+002
1.959094e+002, 1.619132e+002
1.963915e+002, 1.625628e+002
1.968737e+002, 1.628470e+002
1.973558e+002, 1.628142e+002
1.978379e+002, 1.626016e+002
1.983200e+002, 1.622156e+002
1.988021e+002, 1.616655e+002
1.992842e+002, 1.608811e+002
1.997664e+002, 1.598415e+002
2.002485e+002, 1.589920e+002
2.007306e+002, 1.584980e+002
2.012127e+002, 1.582693e+002
2.016948e+002, 1.576649e+002
2.021769e+002, 1.565249e+002
2.026591e+002, 1.555094e+002
2.031412e+002, 1.554609e+002
2.036233e+002, 1.565639e+002
2.041054e+002, 1.571815e+002
2.045875e+002, 1.567562e+002
2.050696e+002, 1.554523e+002
2.055518e+002, 1.548045e+002
2.060339e+002, 1.549550e+002
2.065160e+002, 1.554102e+002
2.069981e+002, 1.556205e+002
2.074802e+002, 1.554796e+002
2.079623e+002, 1.555786e+002
2.084445e+002, 1.561373e+002
2.089266e+002, 1.571296e+002
2.094087e+002, 1.578758e+002
2.098908e+002, 1.583177e+002
2.103729e+002, 1.586319e+002
2.108550e+002, 1.590148e+002
2.113372e+002, 1.594920e+002
2.118193e+002, 1.599319e+002
2.123014e+002, 1.602998e+002
2.127835e+002, 1.605926e+002
2.132656e+002, 1.608698e+002
2.137477e+002, 1.611284e+002
2.142299e+002, 1.613754e+002
2.147120e+002, 1.615917e+002
2.151941e+002, 1.617249e+002
2.156762e+002, 1.619775e+002
2.161583e+002, 1.624525e+002
2.166404e+002, 1.631642e+002
2.171226e+002, 1.637026e+002
2.176047e+002, 1.640070e+002
2.180868e+002, 1.642102e+002
2.185689e+002, 1.644659e+002
2.190510e+002, 1.647704e+002
2.195331e+002, 1.651461e+002
2.200153e+002, 1.656435e+002
2.204974e+002, 1.662911e+002
2.209795e+002, 1.667473e+002
2.214616e+002, 1.668535e+002
2.219437e+002, 1.669436e+002
2.224258e+002, 1.674886e+002
2.229080e+002, 1.687301e+002
2.233901e+002, 1.699038e+002
2.238722e+002, 1.707687e+002
2.243543e+002, 1.712953e+002
2.248364e+002, 1.718513e+002
2.253185e+002, 1.724031e+002
2.258007e+002, 1.730021e+002
2.262828e+002, 1.737718e+002
2.267649e+002, 1.749139e+002
2.272470e+002, 1.757979e+002
2.277291e+002, 1.761454e+002
2.282112e+002, 1.758509e+002
2.286934e+002, 1.758939e+002
2.291755e+002, 1.765207e+002
2.296576e+002, 1.772665e+002
2.301397e+002, 1.774789e+002
2.306218e+002, 1.768303e+002
2.311039e+002, 1.762563e+002
2.315861e+002, 1.760035e+002
2.320682e+002, 1.761047e+002
2.325503e+002, 1.763094e+002
2.330324e+002, 1.767370e+002
2.335145e+002, 1.771762e+002
2.339966e+002, 1.773308e+002
2.344788e+002, 1.769857e+002
2.349609e+002, 1.767495e+002
2.354430e+002, 1.768177e+002
2.359251e+002, 1.772510e+002
2.364072e+002, 1.775576e+002
2.368893e+002, 1.776555e+002
2.373715e+002, 1.776920e+002
2.378536e+002, 1.778691e+002
2.383357e+002, 1.783302e+002
2.388178e+002, 1.786735e+002
2.392999e+002, 1.787604e+002
2.397820e+002, 1.785433e+002
2.402642e+002, 1.784027e+002
2.407463e+002, 1.783366e+002
2.412284e+002, 1.783411e+002
2.417105e+002, 1.784521e+002
2.421926e+002, 1.788608e+002
2.426747e+002, 1.790076e+002
2.431569e+002, 1.786160e+002
2.436390e+002, 1.775549e+002
2.441211e+002, 1.770664e+002
2.446032e+002, 1.774809e+002
2.450853e+002, 1.781668e+002
2.455674e+002, 1.783797e+002
2.460496e+002, 1.778973e+002
2.465317e+002, 1.773592e+002
2.470138e+002, 1.769319e+002
2.474959e+002, 1.766411e+002
2.479780e+002, 1.761543e+002
2.484601e+002, 1.753591e+002
2.489423e+002, 1.744833e+002
2.494244e+002, 1.737517e+002
2.499065e+002, 1.731101e+002
2.503886e+002, 1.727535e+002
2.508707e+002, 1.729465e+002
2.513528e+002, 1.737522e+002
2.518350e+002, 1.735897e+002
2.523171e+002, 1.719117e+002
2.527992e+002, 1.698658e+002
2.532813e+002, 1.687041e+002
2.537634e+002, 1.689827e+002
2.542455e+002, 1.689399e+002
2.547277e+002, 1.680734e+002
2.552098e+002, 1.663561e+002
2.556919e+002, 1.651403e+002
2.561740e+002, 1.645738e+002
2.566561e+002, 1.643157e+002
2.571382e+002, 1.640732e+002
2.576204e+002, 1.638546e+002
2.581025e+002, 1.636207e+002
2.585846e+002, 1.633539e+002
2.590667e+002, 1.630562e+002
2.595488e+002, 1.628138e+002
2.600309e+002, 1.626644e+002
2.605131e+002, 1.625248e+002
2.609952e+002, 1.622961e+002
2.614773e+002, 1.618885e+002
2.619594e+002, 1.616668e+002
2.624415e+002, 1.618143e+002
2.629236e+002, 1.622625e+002
2.634058e+002, 1.621770e+002
2.638879e+002, 1.612022e+002
2.643700e+002, 1.602989e+002
2.648521e+002, 1.603385e+002
2.653342e+002, 1.616920e+002
2.658163e+002, 1.627175e+002
2.662985e+002, 1.630641e+002
2.667806e+002, 1.628728e+002
2.672627e+002, 1.629942e+002
2.677448e+002, 1.635604e+002
2.682269e+002, 1.641575e+002
2.687090e+002, 1.644280e+002
2.691912e+002, 1.642517e+002
2.696733e+002, 1.642781e+002
2.701554e+002, 1.646338e+002
2.706375e+002, 1.652359e+002
2.711196e+002, 1.657587e+002
2.716017e+002, 1.662035e+002
2.720839e+002, 1.665606e+002
2.725660e+002, 1.667466e+002
2.730481e+002, 1.667009e+002
2.735302e+002, 1.669134e+002
2.740123e+002, 1.675236e+002
2.744944e+002, 1.683666e+002
2.749766e+002, 1.689617e+002
2.754587e+002, 1.692711e+002
2.759408e+002, 1.694848e+002
2.764229e+002, 1.696958e+002
2.769050e+002, 1.699051e+002
2.773871e+002, 1.701226e+002
2.778693e+002, 1.703496e+002
2.783514e+002, 1.705876e+002
2.788335e+002, 1.708770e+002
2.793156e+002, 1.712491e+002
2.797977e+002, 1.715079e+002
2.802798e+002, 1.714736e+002
2.807620e+002, 1.711438e+002
2.812441e+002, 1.709915e+002
2.817262e+002, 1.710939e+002
2.822083e+002, 1.712794e+002
2.826904e+002, 1.711807e+002
2.831725e+002, 1.707696e+002
2.836547e+002, 1.704575e+002
2.841368e+002, 1.705261e+002
2.846189e+002, 1.709329e+002
2.851010e+002, 1.711484e+002
2.855831e+002, 1.711153e+002
2.860652e+002, 1.710188e+002
2.865474e+002, 1.711436e+002
2.870295e+002, 1.714856e+002
2.875116e+002, 1.718463e+002
2.879937e+002, 1.721001e+002
2.884758e+002, 1.722872e+002
2.889579e+002, 1.725861e+002
2.894401e+002, 1.729827e+002
2.899222e+002, 1.735687e+002
2.904043e+002, 1.745591e+002
2.908864e+002, 1.759046e+002
2.913685e+002, 1.772037e+002
2.918506e+002, 1.781633e+002
2.923328e+002, 1.789767e+002
2.928149e+002, 1.802669e+002
2.932970e+002, 1.820723e+002
2.937791e+002, 1.839475e+002
2.942612e+002, 1.852975e+002
2.947433e+002, 1.862774e+002
2.952255e+002, 1.875029e+002
2.957076e+002, 1.893087e+002
2.961897e+002, 1.914042e+002
2.966718e+002, 1.932383e+002
2.971539e+002, 1.948059e+002
2.976360e+002, 1.961425e+002
2.981182e+002, 1.971615e+002
2.986003e+002, 1.979571e+002
2.990824e+002, 1.987938e+002
2.995645e+002, 1.997630e+002
3.000466e+002, 2.007870e+002
3.005287e+002, 2.018169e+002
3.010109e+002, 2.028333e+002
3.014930e+002, 2.037294e+002
3.019751e+002, 2.043253e+002
3.024572e+002, 2.047614e+002
3.029393e+002, 2.053059e+002
3.034214e+002, 2.061506e+002
3.039036e+002, 2.068887e+002
3.043857e+002, 2.070174e+002
3.048678e+002, 2.066472e+002
3.053499e+002, 2.061760e+002
3.058320e+002, 2.060069e+002
3.063141e+002, 2.058147e+002
3.067963e+002, 2.051591e+002
3.072784e+002, 2.038540e+002
3.077605e+002, 2.023973e+002
3.082426e+002, 2.010586e+002
3.087247e+002, 1.998706e+002
3.092068e+002, 1.989142e+002
3.096890e+002, 1.985415e+002
3.101711e+002, 1.982323e+002
3.106532e+002, 1.974743e+002
3.111353e+002, 1.961297e+002
3.116174e+002, 1.947677e+002
3.120995e+002, 1.938072e+002
3.125817e+002, 1.930729e+002
3.130638e+002, 1.922690e+002
3.135459e+002, 1.911851e+002
3.140280e+002, 1.900528e+002
3.145101e+002, 1.890538e+002
3.149922e+002, 1.882199e+002
3.154744e+002, 1.872777e+002
3.159565e+002, 1.856953e+002
3.164386e+002, 1.840771e+002
3.169207e+002, 1.831275e+002
3.174028e+002, 1.840669e+002
3.178849e+002, 1.847929e+002
3.183671e+002, 1.842391e+002
3.188492e+002, 1.824552e+002
3.193313e+002, 1.808640e+002
3.198134e+002, 1.799739e+002
3.202955e+002, 1.794457e+002
3.207776e+002, 1.790172e+002
3.212598e+002, 1.786667e+002
3.217419e+002, 1.783596e+002
3.222240e+002, 1.781326e+002
3.227061e+002, 1.779579e+002
3.231882e+002, 1.776994e+002
3.236703e+002, 1.773708e+002
3.241525e+002, 1.769183e+002
3.246346e+002, 1.763036e+002
3.251167e+002, 1.752149e+002
3.255988e+002, 1.743793e+002
3.260809e+002, 1.740682e+002
3.265630e+002, 1.740763e+002
3.270452e+002, 1.738383e+002
3.275273e+002, 1.730343e+002
3.280094e+002, 1.722339e+002
3.284915e+002, 1.716573e+002
3.289736e+002, 1.714930e+002
3.294557e+002, 1.711466e+002
3.299379e+002, 1.704905e+002
3.304200e+002, 1.696898e+002
3.309021e+002, 1.690145e+002
3.313842e+002, 1.684819e+002
3.318663e+002, 1.680408e+002
3.323484e+002, 1.676843e+002
3.328306e+002, 1.674257e+002
3.333127e+002, 1.672010e+002
3.337948e+002, 1.670515e+002
3.342769e+002, 1.668959e+002
3.347590e+002, 1.666187e+002
3.352411e+002, 1.660946e+002
3.357233e+002, 1.657309e+002
3.362054e+002, 1.656405e+002
3.366875e+002, 1.658096e+002
3.371696e+002, 1.660104e+002
3.376517e+002, 1.662704e+002
3.381339e+002, 1.665154e+002
3.386160e+002, 1.666869e+002
3.390981e+002, 1.667865e+002
3.395802e+002, 1.667972e+002
3.400623e+002, 1.666526e+002
3.405444e+002, 1.664454e+002
3.410266e+002, 1.665172e+002
3.415087e+002, 1.669044e+002
3.419908e+002, 1.673821e+002
3.424729e+002, 1.678219e+002
3.429550e+002, 1.682178e+002
3.434371e+002, 1.686238e+002
3.439193e+002, 1.690271e+002
3.444014e+002, 1.694609e+002
3.448835e+002, 1.700190e+002
3.453656e+002, 1.707002e+002
3.458477e+002, 1.713238e+002
3.463298e+002, 1.717444e+002
3.468120e+002, 1.720246e+002
3.472941e+002, 1.724283e+002
3.477762e+002, 1.729828e+002
3.482583e+002, 1.735806e+002
3.487404e+002, 1.740561e+002
3.492225e+002, 1.744537e+002
3.497047e+002, 1.749651e+002
3.501868e+002, 1.758357e+002
3.506689e+002, 1.767869e+002
3.511510e+002, 1.772180e+002
3.516331e+002, 1.771371e+002
3.521152e+002, 1.770954e+002
3.525974e+002, 1.777047e+002
3.530795e+002, 1.786579e+002
3.535616e+002, 1.793624e+002
3.540437e+002, 1.794973e+002
3.545258e+002, 1.795201e+002
3.550079e+002, 1.800230e+002
3.554901e+002, 1.808775e+002
3.559722e+002, 1.815158e+002
3.564543e+002, 1.813501e+002
3.569364e+002, 1.809046e+002
3.574185e+002, 1.807510e+002
3.579006e+002, 1.811032e+002
3.583828e+002, 1.814551e+002
3.588649e+002, 1.815119e+002
3.593470e+002, 1.813403e+002
3.598291e+002, 1.810763e+002
3.603112e+002, 1.805963e+002
3.607933e+002, 1.801787e+002
3.612755e+002, 1.799695e+002
3.617576e+002, 1.799839e+002
3.622397e+002, 1.801889e+002
3.627218e+002, 1.808652e+002
3.632039e+002, 1.816194e+002
3.636860e+002, 1.820121e+002
3.641682e+002, 1.816342e+002
3.646503e+002, 1.811626e+002
3.651324e+002, 1.807339e+002
3.656145e+002, 1.803561e+002
3.660966e+002, 1.801741e+002
3.665787e+002, 1.803174e+002
3.670609e+002, 1.805988e+002
3.675430e+002, 1.808990e+002
3.680251e+002, 1.813285e+002
3.685072e+002, 1.816374e+002
3.689893e+002, 1.818656e+002
3.694714e+002, 1.819711e+002
3.699536e+002, 1.817735e+002
3.704357e+002, 1.808077e+002
3.709178e+002, 1.800308e+002
3.713999e+002, 1.798815e+002
3.718820e+002, 1.807049e+002
3.723641e+002, 1.812524e+002
3.728463e+002, 1.813953e+002
3.733284e+002, 1.813406e+002
3.738105e+002, 1.813973e+002
3.742926e+002, 1.815715e+002
3.747747e+002, 1.818507e+002
3.752568e+002, 1.822943e+002
3.757390e+002, 1.829066e+002
3.762211e+002, 1.832258e+002
3.767032e+002, 1.831358e+002
3.771853e+002, 1.829971e+002
3.776674e+002, 1.832347e+002
3.781495e+002, 1.839146e+002
3.786317e+002, 1.843608e+002
3.791138e+002, 1.843714e+002
3.795959e+002, 1.841115e+002
3.800780e+002, 1.841185e+002
3.805601e+002, 1.844162e+002
3.810422e+002, 1.847336e+002
3.815244e+002, 1.848376e+002
3.820065e+002, 1.847838e+002
3.824886e+002, 1.848915e+002
3.829707e+002, 1.852320e+002
3.834528e+002, 1.856375e+002
3.839349e+002, 1.858394e+002
3.844171e+002, 1.858801e+002
3.848992e+002, 1.859806e+002
3.853813e+002, 1.863063e+002
3.858634e+002, 1.867461e+002
3.863455e+002, 1.870957e+002
3.868276e+002, 1.873422e+002
3.873098e+002, 1.876138e+002
3.877919e+002, 1.880551e+002
3.882740e+002, 1.885956e+002
3.887561e+002, 1.891057e+002
3.892382e+002, 1.895237e+002
3.897203e+002, 1.899136e+002
3.902025e+002, 1.903650e+002
3.906846e+002, 1.908443e+002
3.911667e+002, 1.912103e+002
3.916488e+002, 1.911921e+002
3.921309e+002, 1.911254e+002
3.926130e+002, 1.913087e+002
3.930952e+002, 1.918797e+002
3.935773e+002, 1.925227e+002
3.940594e+002, 1.930834e+002
3.945415e+002, 1.936252e+002
3.950236e+002, 1.942653e+002
3.955057e+002, 1.952369e+002
3.959879e+002, 1.961446e+002
3.964700e+002, 1.968115e+002
3.969521e+002, 1.971945e+002
3.974342e+002, 1.975494e+002
3.979163e+002, 1.978885e+002
3.983984e+002, 1.982316e+002
3.988806e+002, 1.985964e+002
3.993627e+002, 1.989907e+002
3.998448e+002, 1.993998e+002
4.003269e+002, 1.998220e+002
4.008090e+002, 2.002586e+002
4.012911e+002, 2.007145e+002
4.017733e+002, 2.012828e+002
4.022554e+002, 2.017644e+002
4.027375e+002, 2.020504e+002
4.032196e+002, 2.020892e+002
4.037017e+002, 2.020489e+002
4.041838e+002, 2.018809e+002
4.046660e+002, 2.016756e+002
4.051481e+002, 2.016359e+002
4.056302e+002, 2.018220e+002
4.061123e+002, 2.019548e+002
4.065944e+002, 2.019311e+002
4.070765e+002, 2.017553e+002
4.075587e+002, 2.015175e+002
4.080408e+002, 2.011907e+002
4.085229e+002, 2.008933e+002
4.090050e+002, 2.008026e+002
4.094871e+002, 2.008968e+002
4.099692e+002, 2.008940e+002
4.104514e+002, 2.007634e+002
4.109335e+002, 2.004622e+002
4.114156e+002, 1.996991e+002
4.118977e+002, 1.985379e+002
4.123798e+002, 1.976518e+002
4.128619e+002, 1.977922e+002
4.133441e+002, 1.984775e+002
4.138262e+002, 1.987788e+002
4.143083e+002, 1.985713e+002
4.147904e+002, 1.980950e+002
4.152725e+002, 1.972860e+002
4.157546e+002, 1.963907e+002
4.162368e+002, 1.958996e+002
4.167189e+002, 1.964954e+002
4.172010e+002, 1.972630e+002
4.176831e+002, 1.975126e+002
4.181652e+002, 1.972423e+002
4.186473e+002, 1.967223e+002
4.191295e+002, 1.957539e+002
4.196116e+002, 1.947749e+002
4.200937e+002, 1.941919e+002
4.205758e+002, 1.942168e+002
4.210579e+002, 1.944697e+002
4.215400e+002, 1.949946e+002
4.220222e+002, 1.956608e+002
4.225043e+002, 1.961605e+002
4.229864e+002, 1.963378e+002
4.234685e+002, 1.964090e+002
4.239506e+002, 1.964581e+002
4.244327e+002, 1.965060e+002
4.249149e+002, 1.964810e+002
4.253970e+002, 1.963480e+002
4.258791e+002, 1.961617e+002
4.263612e+002, 1.959671e+002
4.268433e+002, 1.957144e+002
4.273254e+002, 1.955323e+002
4.278076e+002, 1.954522e+002
4.282897e+002, 1.954597e+002
4.287718e+002, 1.954989e+002
4.292539e+002, 1.956536e+002
4.297360e+002, 1.956625e+002
4.302181e+002, 1.952845e+002
4.307003e+002, 1.944245e+002
4.311824e+002, 1.938338e+002
4.316645e+002, 1.936263e+002
4.321466e+002, 1.935573e+002
4.326287e+002, 1.931800e+002
4.331108e+002, 1.924926e+002
4.335930e+002, 1.918609e+002
4.340751e+002, 1.914988e+002
4.345572e+002, 1.912944e+002
4.350393e+002, 1.908432e+002
4.355214e+002, 1.901449e+002
4.360035e+002, 1.893919e+002
4.364857e+002, 1.886403e+002
4.369678e+002, 1.879768e+002
4.374499e+002, 1.876310e+002
4.379320e+002, 1.877564e+002
4.384141e+002, 1.880076e+002
4.388962e+002, 1.878989e+002
4.393784e+002, 1.875827e+002
4.398605e+002, 1.875093e+002
4.403426e+002, 1.883736e+002
4.408247e+002, 1.892925e+002
4.413068e+002, 1.894407e+002
4.417889e+002, 1.886917e+002
4.422711e+002, 1.878681e+002
4.427532e+002, 1.872886e+002
4.432353e+002, 1.868855e+002
4.437174e+002, 1.865888e+002
4.441995e+002, 1.864282e+002
4.446816e+002, 1.863184e+002
4.451638e+002, 1.862119e+002
4.456459e+002, 1.861277e+002
4.461280e+002, 1.861502e+002
4.466101e+002, 1.862779e+002
4.470922e+002, 1.865262e+002
4.475743e+002, 1.869574e+002
4.480565e+002, 1.877791e+002
4.485386e+002, 1.882388e+002
4.490207e+002, 1.881531e+002
4.495028e+002, 1.878179e+002
4.499849e+002, 1.876100e+002
4.504670e+002, 1.875689e+002
4.509492e+002, 1.875490e+002
4.514313e+002, 1.874355e+002
4.519134e+002, 1.872957e+002
4.523955e+002, 1.877632e+002
4.528776e+002, 1.890301e+002
4.533597e+002, 1.902178e+002
4.538419e+002, 1.905522e+002
4.543240e+002, 1.900607e+002
4.548061e+002, 1.900091e+002
4.552882e+002, 1.905883e+002
4.557703e+002, 1.914098e+002
4.562524e+002, 1.918985e+002
4.567346e+002, 1.920930e+002
4.572167e+002, 1.922099e+002
4.576988e+002, 1.922737e+002
4.581809e+002, 1.923491e+002
4.586630e+002, 1.925119e+002
4.591451e+002, 1.927644e+002
4.596273e+002, 1.931967e+002
4.601094e+002, 1.940650e+002
4.605915e+002, 1.950823e+002
4.610736e+002, 1.958710e+002
4.615557e+002, 1.963158e+002
4.620378e+002, 1.966099e+002
4.625200e+002, 1.967640e+002
4.630021e+002, 1.968690e+002
4.634842e+002, 1.970983e+002
4.639663e+002, 1.979329e+002
4.644484e+002, 1.985557e+002
4.649305e+002, 1.984020e+002
4.654127e+002, 1.973952e+002
4.658948e+002, 1.966687e+002
4.663769e+002, 1.966770e+002
4.668590e+002, 1.969198e+002
4.673411e+002, 1.970371e+002
4.678232e+002, 1.969328e+002
4.683054e+002, 1.968029e+002
4.687875e+002, 1.966452e+002
4.692696e+002, 1.964673e+002
4.697517e+002, 1.962873e+002
4.702338e+002, 1.961062e+002
4.707159e+002, 1.959217e+002
4.711981e+002, 1.957670e+002
4.716802e+002, 1.956498e+002
4.721623e+002, 1.953211e+002
4.726444e+002, 1.947630e+002
4.731265e+002, 1.940545e+002
4.736086e+002, 1.932350e+002
4.740908e+002, 1.923065e+002
4.745729e+002, 1.914030e+002
4.750550e+002, 1.904946e+002
4.755371e+002, 1.897036e+002
4.760192e+002, 1.894346e+002
4.765013e+002, 1.896007e+002
4.769835e+002, 1.895482e+002
4.774656e+002, 1.887140e+002
4.779477e+002, 1.874973e+002
4.784298e+002, 1.865399e+002
4.789119e+002, 1.858733e+002
4.793940e+002, 1.853032e+002
4.798762e+002, 1.847415e+002
4.803583e+002, 1.841632e+002
4.808404e+002, 1.835297e+002
4.813225e+002, 1.827681e+002
4.818046e+002, 1.820312e+002
4.822867e+002, 1.813857e+002
4.827689e+002, 1.808285e+002
4.832510e+002, 1.803474e+002
4.837331e+002, 1.799526e+002
4.842152e+002, 1.796264e+002
4.846973e+002, 1.794102e+002
4.851794e+002, 1.793600e+002
4.856616e+002, 1.791433e+002
4.861437e+002, 1.785088e+002
4.866258e+002, 1.778332e+002
4.871079e+002, 1.774011e+002
4.875900e+002, 1.773154e+002
4.880721e+002, 1.773038e+002
4.885543e+002, 1.774269e+002
4.890364e+002, 1.775777e+002
4.895185e+002, 1.774006e+002
4.900006e+002, 1.767861e+002
4.904827e+002, 1.761796e+002
4.909648e+002, 1.757192e+002
4.914470e+002, 1.754079e+002
4.919291e+002, 1.754736e+002
4.924112e+002, 1.759748e+002
4.928933e+002, 1.765729e+002
4.933754e+002, 1.769698e+002
4.938575e+002, 1.771818e+002
4.943397e+002, 1.772308e+002
4.948218e+002, 1.770485e+002
4.953039e+002, 1.768504e+002
4.957860e+002, 1.768775e+002
4.962681e+002, 1.771297e+002
4.967502e+002, 1.776015e+002
4.972324e+002, 1.786958e+002
4.977145e+002, 1.797588e+002
4.981966e+002, 1.799543e+002
4.986787e+002, 1.792397e+002
4.991608e+002, 1.788532e+002
4.996429e+002, 1.798023e+002
5.001251e+002, 1.811817e+002
5.006072e+002, 1.822013e+002
5.010893e+002, 1.823251e+002
5.015714e+002, 1.825479e+002
5.020535e+002, 1.831855e+002
5.025356e+002, 1.840671e+002
5.030178e+002, 1.848065e+002
5.034999e+002, 1.852525e+002
5.039820e+002, 1.856985e+002
5.044641e+002, 1.861947e+002
5.049462e+002, 1.867403e+002
5.054283e+002, 1.873905e+002
5.059105e+002, 1.881502e+002
5.063926e+002, 1.890087e+002
5.068747e+002, 1.899853e+002
5.073568e+002, 1.911013e+002
5.078389e+002, 1.921715e+002
5.083210e+002, 1.931340e+002
5.088032e+002, 1.940906e+002
5.092853e+002, 1.952552e+002
5.097674e+002, 1.966118e+002
5.102495e+002, 1.979030e+002
5.107316e+002, 1.990014e+002
5.112137e+002, 1.999809e+002
5.116959e+002, 2.009855e+002
5.121780e+002, 2.020080e+002
5.126601e+002, 2.030983e+002
5.131422e+002, 2.042240e+002
5.136243e+002, 2.054612e+002
5.141064e+002, 2.070062e+002
5.145886e+002, 2.090369e+002
5.150707e+002, 2.108463e+002
5.155528e+002, 2.117425e+002
5.160349e+002, 2.122040e+002
5.165170e+002, 2.129368e+002
5.169991e+002, 2.143923e+002
5.174813e+002, 2.159280e+002
5.179634e+002, 2.174115e+002
5.184455e+002, 2.188277e+002
5.189276e+002, 2.200870e+002
5.194097e+002, 2.210182e+002
5.198918e+002, 2.219216e+002
5.203740e+002, 2.228911e+002
5.208561e+002, 2.239198e+002
5.213382e+002, 2.250540e+002
5.218203e+002, 2.263322e+002
5.223024e+002, 2.276646e+002
5.227845e+002, 2.290329e+002
5.232667e+002, 2.304973e+002
5.237488e+002, 2.316226e+002
5.242309e+002, 2.322611e+002
5.247130e+002, 2.325473e+002
5.251951e+002, 2.328580e+002
5.256772e+002, 2.331883e+002
5.261594e+002, 2.332978e+002
5.266415e+002, 2.329370e+002
5.271236e+002, 2.322821e+002
5.276057e+002, 2.317350e+002
5.280878e+002, 2.313150e+002
5.285699e+002, 2.308863e+002
5.290521e+002, 2.304044e+002
5.295342e+002, 2.298338e+002
5.300163e+002, 2.291118e+002
5.304984e+002, 2.281659e+002
5.309805e+002, 2.271849e+002
5.314626e+002, 2.262918e+002
5.319448e+002, 2.254416e+002
5.324269e+002, 2.245503e+002
5.329090e+002, 2.232648e+002
5.333911e+002, 2.222405e+002
5.338732e+002, 2.218814e+002
5.343553e+002, 2.222312e+002
5.348375e+002, 2.220848e+002
5.353196e+002, 2.209845e+002
5.358017e+002, 2.198072e+002
5.362838e+002, 2.190830e+002
5.367659e+002, 2.191006e+002
5.372480e+002, 2.186929e+002
5.377302e+002, 2.177021e+002
5.382123e+002, 2.164865e+002
5.386944e+002, 2.156255e+002
5.391765e+002, 2.151431e+002
5.396586e+002, 2.145716e+002
5.401407e+002, 2.137356e+002
5.406229e+002, 2.127856e+002
5.411050e+002, 2.121273e+002
5.415871e+002, 2.117414e+002
5.420692e+002, 2.114071e+002
5.425513e+002, 2.110345e+002
5.430334e+002, 2.106085e+002
5.435156e+002, 2.100571e+002
5.439977e+002, 2.093698e+002
5.444798e+002, 2.087719e+002
5.449619e+002, 2.083873e+002
5.454440e+002, 2.081988e+002
5.459261e+002, 2.081980e+002
5.464083e+002, 2.085095e+002
5.468904e+002, 2.088172e+002
5.473725e+002, 2.090148e+002
5.478546e+002, 2.091259e+002
5.483367e+002, 2.092101e+002
5.488188e+002, 2.092078e+002
5.493010e+002, 2.092410e+002
5.497831e+002, 2.093005e+002
5.502652e+002, 2.093872e+002
5.507473e+002, 2.096826e+002
5.512294e+002, 2.102712e+002
5.517115e+002, 2.109279e+002
5.521937e+002, 2.115265e+002
5.526758e+002, 2.120643e+002
5.531579e+002, 2.126126e+002
5.536400e+002, 2.131992e+002
5.541221e+002, 2.137420e+002
5.546042e+002, 2.140310e+002
5.550864e+002, 2.141313e+002
5.555685e+002, 2.144466e+002
5.560506e+002, 2.151246e+002
5.565327e+002, 2.160335e+002
5.570148e+002, 2.171119e+002
5.574969e+002, 2.182910e+002
5.579791e+002, 2.193207e+002
5.584612e+002, 2.199104e+002
5.589433e+002, 2.203796e+002
5.594254e+002, 2.209536e+002
5.599075e+002, 2.216496e+002
5.603896e+002, 2.224359e+002
5.608718e+002, 2.234844e+002
5.613539e+002, 2.244961e+002
5.618360e+002, 2.252395e+002
5.623181e+002, 2.254628e+002
5.628002e+002, 2.257593e+002
5.632823e+002, 2.263044e+002
5.637645e+002, 2.268876e+002
5.642466e+002, 2.271710e+002
5.647287e+002, 2.270429e+002
5.652108e+002, 2.268689e+002
5.656929e+002, 2.267194e+002
5.661750e+002, 2.265913e+002
5.666572e+002, 2.264736e+002
5.671393e+002, 2.263715e+002
5.676214e+002, 2.262346e+002
5.681035e+002, 2.259833e+002
5.685856e+002, 2.256633e+002
5.690677e+002, 2.255455e+002
5.695499e+002, 2.256628e+002
5.700320e+002, 2.255821e+002
5.705141e+002, 2.246745e+002
5.709962e+002, 2.233515e+002
5.714783e+002, 2.222829e+002
5.719604e+002, 2.216521e+002
5.724426e+002, 2.212483e+002
5.729247e+002, 2.212379e+002
5.734068e+002, 2.213138e+002
5.738889e+002, 2.209247e+002
5.743710e+002, 2.191555e+002
5.748531e+002, 2.176383e+002
5.753353e+002, 2.170982e+002
5.758174e+002, 2.174711e+002
5.762995e+002, 2.175448e+002
5.767816e+002, 2.171351e+002
5.772637e+002, 2.166088e+002
5.777458e+002, 2.160830e+002
5.782280e+002, 2.155265e+002
5.787101e+002, 2.151768e+002
5.791922e+002, 2.150929e+002
5.796743e+002, 2.150849e+002
5.801564e+002, 2.149978e+002
5.806385e+002, 2.148279e+002
5.811207e+002, 2.144565e+002
5.816028e+002, 2.138011e+002
5.820849e+002, 2.130784e+002
5.825670e+002, 2.125648e+002
5.830491e+002, 2.122540e+002
5.835313e+002, 2.121047e+002
5.840134e+002, 2.123293e+002
5.844955e+002, 2.125446e+002
5.849776e+002, 2.122810e+002
5.854597e+002, 2.116351e+002
5.859418e+002, 2.111576e+002
5.864240e+002, 2.113894e+002
5.869061e+002, 2.116494e+002
5.873882e+002, 2.114357e+002
5.878703e+002, 2.104680e+002
5.883524e+002, 2.099276e+002
5.888345e+002, 2.104297e+002
5.893167e+002, 2.111007e+002
5.897988e+002, 2.112856e+002
5.902809e+002, 2.109259e+002
5.907630e+002, 2.101505e+002
5.912451e+002, 2.087645e+002
5.917272e+002, 2.071710e+002
5.922094e+002, 2.061401e+002
5.926915e+002, 2.057036e+002
5.931736e+002, 2.054716e+002
5.936557e+002, 2.053771e+002
5.941378e+002, 2.053607e+002
5.946199e+002, 2.053397e+002
5.951021e+002, 2.052977e+002
5.955842e+002, 2.050938e+002
5.960663e+002, 2.045040e+002
5.965484e+002, 2.037726e+002
5.970305e+002, 2.031648e+002
5.975126e+002, 2.027037e+002
5.979948e+002, 2.023111e+002
5.984769e+002, 2.019632e+002
5.989590e+002, 2.016584e+002
5.994411e+002, 2.014002e+002
5.999232e+002, 2.012646e+002
6.004053e+002, 2.010520e+002
6.008875e+002, 2.004873e+002
6.013696e+002, 1.999194e+002
6.018517e+002, 1.999192e+002
6.023338e+002, 2.010571e+002
6.028159e+002, 2.016034e+002
6.032980e+002, 2.010436e+002
6.037802e+002, 1.997300e+002
6.042623e+002, 1.988869e+002
6.047444e+002, 1.985425e+002
6.052265e+002, 1.984775e+002
6.057086e+002, 1.987236e+002
6.061907e+002, 1.991610e+002
6.066729e+002, 1.992992e+002
6.071550e+002, 1.991436e+002
6.076371e+002, 1.990920e+002
6.081192e+002, 1.996557e+002
6.086013e+002, 2.004339e+002
6.090834e+002, 2.008325e+002
6.095656e+002, 2.006496e+002
6.100477e+002, 2.005552e+002
6.105298e+002, 2.008914e+002
6.110119e+002, 2.015271e+002
6.114940e+002, 2.023220e+002
6.119761e+002, 2.036661e+002
6.124583e+002, 2.046620e+002
6.129404e+002, 2.049284e+002
6.134225e+002, 2.048072e+002
6.139046e+002, 2.050441e+002
6.143867e+002, 2.056965e+002
6.148688e+002, 2.065912e+002
6.153510e+002, 2.077359e+002
6.158331e+002, 2.090908e+002
6.163152e+002, 2.104729e+002
6.167973e+002, 2.118857e+002
6.172794e+002, 2.132101e+002
6.177615e+002, 2.142016e+002
6.182437e+002, 2.150278e+002
6.187258e+002, 2.162502e+002
6.192079e+002, 2.179160e+002
6.196900e+002, 2.196348e+002
6.201721e+002, 2.211588e+002
6.206542e+002, 2.225091e+002
6.211364e+002, 2.237098e+002
6.216185e+002, 2.247860e+002
6.221006e+002, 2.257045e+002
6.225827e+002, 2.262845e+002
6.230648e+002, 2.267649e+002
6.235469e+002, 2.274792e+002
6.240291e+002, 2.289798e+002
6.245112e+002, 2.301227e+002
6.249933e+002, 2.305942e+002
6.254754e+002, 2.306158e+002
6.259575e+002, 2.309988e+002
6.264396e+002, 2.319969e+002
6.269218e+002, 2.326282e+002
6.274039e+002, 2.324052e+002
6.278860e+002, 2.314794e+002
6.283681e+002, 2.307567e+002
6.288502e+002, 2.302419e+002
6.293323e+002, 2.297730e+002
6.298145e+002, 2.293149e+002
6.302966e+002, 2.287951e+002
6.307787e+002, 2.280005e+002
6.312608e+002, 2.268871e+002
6.317429e+002, 2.258028e+002
6.322250e+002, 2.251373e+002
6.327072e+002, 2.245771e+002
6.331893e+002, 2.237574e+002
6.336714e+002, 2.224313e+002
6.341535e+002, 2.211211e+002
6.346356e+002, 2.201154e+002
6.351177e+002, 2.191665e+002
6.355999e+002, 2.178482e+002
6.360820e+002, 2.158670e+002
6.365641e+002, 2.139765e+002
6.370462e+002, 2.122458e+002
6.375283e+002, 2.107033e+002
6.380104e+002, 2.094924e+002
6.384926e+002, 2.086636e+002
6.389747e+002, 2.077854e+002
6.394568e+002, 2.065625e+002
6.399389e+002, 2.051484e+002
6.404210e+002, 2.041314e+002
6.409031e+002, 2.034857e+002
6.413853e+002, 2.028773e+002
6.418674e+002, 2.021886e+002
6.423495e+002, 2.013364e+002
6.428316e+002, 2.000804e+002
6.433137e+002, 1.983157e+002
6.437958e+002, 1.968989e+002
6.442780e+002, 1.965372e+002
6.447601e+002, 1.965423e+002
6.452422e+002, 1.963176e+002
6.457243e+002, 1.956344e+002
6.462064e+002, 1.948984e+002
6.466885e+002, 1.940067e+002
6.471707e+002, 1.931470e+002
6.476528e+002, 1.925955e+002
6.481349e+002, 1.924109e+002
6.486170e+002, 1.923396e+002
6.490991e+002, 1.923808e+002
6.495812e+002, 1.924584e+002
6.500634e+002, 1.923681e+002
6.505455e+002, 1.921213e+002
6.510276e+002, 1.918920e+002
6.515097e+002, 1.917454e+002
6.519918e+002, 1.916727e+002
6.524739e+002, 1.916382e+002
6.529561e+002, 1.916551e+002
6.534382e+002, 1.917902e+002
6.539203e+002, 1.922555e+002
6.544024e+002, 1.927204e+002
6.548845e+002, 1.929007e+002
6.553666e+002, 1.927337e+002
6.558488e+002, 1.927157e+002
6.563309e+002, 1.930855e+002
6.568130e+002, 1.935426e+002
6.572951e+002, 1.938989e+002
6.577772e+002, 1.940864e+002
6.582593e+002, 1.943904e+002
6.587415e+002, 1.949209e+002
6.592236e+002, 1.953911e+002
6.597057e+002, 1.953580e+002
6.601878e+002, 1.948370e+002
6.606699e+002, 1.945695e+002
6.611520e+002, 1.947344e+002
6.616342e+002, 1.950938e+002
6.621163e+002, 1.953309e+002
6.625984e+002, 1.954928e+002
6.630805e+002, 1.957086e+002
6.635626e+002, 1.961577e+002
6.640447e+002, 1.965451e+002
6.645269e+002, 1.965496e+002
6.650090e+002, 1.963117e+002
6.654911e+002, 1.962445e+002
6.659732e+002, 1.968893e+002
6.664553e+002, 1.973201e+002
6.669374e+002, 1.970549e+002
6.674196e+002, 1.961560e+002
6.679017e+002, 1.955315e+002
6.683838e+002, 1.952723e+002
6.688659e+002, 1.951161e+002
6.693480e+002, 1.949739e+002
6.698301e+002, 1.948447e+002
6.703123e+002, 1.945534e+002
6.707944e+002, 1.940845e+002
6.712765e+002, 1.935625e+002
6.717586e+002, 1.930219e+002
6.722407e+002, 1.925130e+002
6.727228e+002, 1.922377e+002
6.732050e+002, 1.922781e+002
6.736871e+002, 1.921553e+002
6.741692e+002, 1.912919e+002
6.746513e+002, 1.901466e+002
6.751334e+002, 1.892701e+002
6.756155e+002, 1.889660e+002
6.760977e+002, 1.886685e+002
6.765798e+002, 1.881862e+002
6.770619e+002, 1.876656e+002
6.775440e+002, 1.873501e+002
6.780261e+002, 1.874082e+002
6.785082e+002, 1.873208e+002
6.789904e+002, 1.869721e+002
6.794725e+002, 1.864491e+002
6.799546e+002, 1.859913e+002
6.804367e+002, 1.856101e+002
6.809188e+002, 1.850803e+002
6.814009e+002, 1.841536e+002
6.818831e+002, 1.831291e+002
6.823652e+002, 1.826631e+002
6.828473e+002, 1.826546e+002
6.833294e+002, 1.826163e+002
6.838115e+002, 1.822293e+002
6.842936e+002, 1.817294e+002
6.847758e+002, 1.812778e+002
6.852579e+002, 1.808884e+002
6.857400e+002, 1.804601e+002
6.862221e+002, 1.799308e+002
6.867042e+002, 1.793893e+002
6.871863e+002, 1.788607e+002
6.876685e+002, 1.783218e+002
6.881506e+002, 1.779155e+002
6.886327e+002, 1.776826e+002
6.891148e+002, 1.774810e+002
6.895969e+002, 1.771512e+002
6.900790e+002, 1.767033e+002
6.905612e+002, 1.763860e+002
6.910433e+002, 1.762446e+002
6.915254e+002, 1.761203e+002
6.920075e+002, 1.758029e+002
6.924896e+002, 1.753805e+002
6.929717e+002, 1.750324e+002
6.934539e+002, 1.748727e+002
6.939360e+002, 1.746674e+002
6.944181e+002, 1.741911e+002
6.949002e+002, 1.736086e+002
6.953823e+002, 1.731741e+002
6.958644e+002, 1.731066e+002
6.963466e+002, 1.730018e+002
6.968287e+002, 1.727644e+002
6.973108e+002, 1.724675e+002
6.977929e+002, 1.722714e+002
6.982750e+002, 1.721399e+002
6.987571e+002, 1.722969e+002
6.992393e+002, 1.729803e+002
6.997214e+002, 1.739138e+002
7.002035e+002, 1.741939e+002
7.006856e+002, 1.738778e+002
7.011677e+002, 1.734369e+002
7.016498e+002, 1.730151e+002
7.021320e+002, 1.726945e+002
7.026141e+002, 1.725564e+002
7.030962e+002, 1.726016e+002
7.035783e+002, 1.728224e+002
7.040604e+002, 1.734877e+002
7.045425e+002, 1.741007e+002
7.050247e+002, 1.743171e+002
7.055068e+002, 1.740091e+002
7.059889e+002, 1.738697e+002
7.064710e+002, 1.739588e+002
7.069531e+002, 1.741402e+002
7.074352e+002, 1.743329e+002
7.079174e+002, 1.745347e+002
7.083995e+002, 1.747843e+002
7.088816e+002, 1.750999e+002
7.093637e+002, 1.753862e+002
7.098458e+002, 1.754982e+002
7.103279e+002, 1.755083e+002
7.108101e+002, 1.755952e+002
7.112922e+002, 1.757932e+002
7.117743e+002, 1.760667e+002
7.122564e+002, 1.764107e+002
7.127385e+002, 1.768104e+002
7.132206e+002, 1.772527e+002
7.137028e+002, 1.778135e+002
7.141849e+002, 1.783048e+002
7.146670e+002, 1.787131e+002
7.151491e+002, 1.790198e+002
7.156312e+002, 1.791737e+002
7.161133e+002, 1.790960e+002
7.165955e+002, 1.790888e+002
7.170776e+002, 1.792320e+002
7.175597e+002, 1.794349e+002
7.180418e+002, 1.794491e+002
7.185239e+002, 1.793017e+002
7.190060e+002, 1.792834e+002
7.194882e+002, 1.796114e+002
7.199703e+002, 1.800064e+002
7.204524e+002, 1.799584e+002
7.209345e+002, 1.796675e+002
7.214166e+002, 1.797298e+002
7.218987e+002, 1.808828e+002
7.223809e+002, 1.820160e+002
7.228630e+002, 1.825078e+002
7.233451e+002, 1.824256e+002
7.238272e+002, 1.824938e+002
7.243093e+002, 1.827475e+002
7.247914e+002, 1.831586e+002
7.252736e+002, 1.838168e+002
7.257557e+002, 1.846767e+002
7.262378e+002, 1.850751e+002
7.267199e+002, 1.849704e+002
7.272020e+002, 1.848182e+002
7.276841e+002, 1.850103e+002
7.281663e+002, 1.853573e+002
7.286484e+002, 1.853380e+002
7.291305e+002, 1.849566e+002
7.296126e+002, 1.847231e+002
7.300947e+002, 1.851091e+002
7.305768e+002, 1.857009e+002
7.310590e+002, 1.861872e+002
7.315411e+002, 1.865247e+002
7.320232e+002, 1.867662e+002
7.325053e+002, 1.867690e+002
7.329874e+002, 1.867963e+002
7.334695e+002, 1.869966e+002
7.339517e+002, 1.873672e+002
7.344338e+002, 1.880089e+002
7.349159e+002, 1.890721e+002
7.353980e+002, 1.899854e+002
7.358801e+002, 1.898504e+002
7.363622e+002, 1.889819e+002
7.368444e+002, 1.887671e+002
7.373265e+002, 1.895075e+002
7.378086e+002, 1.904858e+002
7.382907e+002, 1.911084e+002
7.387728e+002, 1.915296e+002
7.392549e+002, 1.919547e+002
7.397371e+002, 1.925391e+002
7.402192e+002, 1.929650e+002
7.407013e+002, 1.929040e+002
7.411834e+002, 1.927394e+002
7.416655e+002, 1.929871e+002
7.421476e+002, 1.938059e+002
7.426298e+002, 1.946570e+002
7.431119e+002, 1.954915e+002
7.435940e+002, 1.963043e+002
7.440761e+002, 1.971512e+002
7.445582e+002, 1.979991e+002
7.450403e+002, 1.985780e+002
7.455225e+002, 1.986892e+002
7.460046e+002, 1.986922e+002
7.464867e+002, 1.989707e+002
7.469688e+002, 1.994824e+002
7.474509e+002, 2.001392e+002
7.479330e+002, 2.011930e+002
7.484152e+002, 2.020802e+002
7.488973e+002, 2.025085e+002
7.493794e+002, 2.025972e+002
7.498615e+002, 2.027307e+002
7.503436e+002, 2.028855e+002
7.508257e+002, 2.031897e+002
7.513079e+002, 2.038035e+002
7.517900e+002, 2.045456e+002
7.522721e+002, 2.045747e+002
7.527542e+002, 2.038943e+002
7.532363e+002, 2.034616e+002
7.537184e+002, 2.039740e+002
7.542006e+002, 2.048691e+002
7.546827e+002, 2.052535e+002
7.551648e+002, 2.052259e+002
7.556469e+002, 2.051779e+002
7.561290e+002, 2.052872e+002
7.566111e+002, 2.054533e+002
7.570933e+002, 2.057364e+002
7.575754e+002, 2.061009e+002
7.580575e+002, 2.060562e+002
7.585396e+002, 2.050987e+002
7.590217e+002, 2.044666e+002
7.595038e+002, 2.048168e+002
7.599860e+002, 2.060123e+002
7.604681e+002, 2.064319e+002
7.609502e+002, 2.060184e+002
7.614323e+002, 2.054566e+002
7.619144e+002, 2.051348e+002
7.623965e+002, 2.049952e+002
7.628787e+002, 2.050181e+002
7.633608e+002, 2.051765e+002
7.638429e+002, 2.052036e+002
7.643250e+002, 2.049502e+002
7.648071e+002, 2.044996e+002
7.652892e+002, 2.038845e+002
7.657714e+002, 2.030843e+002
7.662535e+002, 2.022433e+002
7.667356e+002, 2.011724e+002
7.672177e+002, 2.003224e+002
7.676998e+002, 2.000258e+002
7.681819e+002, 2.003255e+002
7.686641e+002, 2.004801e+002
7.691462e+002, 2.005160e+002
7.696283e+002, 2.002050e+002
7.701104e+002, 1.990055e+002
7.705925e+002, 1.974204e+002
7.710746e+002, 1.964359e+002
7.715568e+002, 1.961570e+002
7.720389e+002, 1.961328e+002
7.725210e+002, 1.964598e+002
7.730031e+002, 1.966716e+002
7.734852e+002, 1.963555e+002
7.739673e+002, 1.952586e+002
7.744495e+002, 1.942393e+002
7.749316e+002, 1.932442e+002
7.754137e+002, 1.924345e+002
7.758958e+002, 1.920168e+002
7.763779e+002, 1.920374e+002
7.768600e+002, 1.917660e+002
7.773422e+002, 1.911334e+002
7.778243e+002, 1.904824e+002
7.783064e+002, 1.902179e+002
7.787885e+002, 1.901684e+002
7.792706e+002, 1.899909e+002
7.797527e+002, 1.896101e+002
7.802349e+002, 1.892580e+002
7.807170e+002, 1.890808e+002
7.811991e+002, 1.889966e+002
7.816812e+002, 1.889410e+002
7.821633e+002, 1.889571e+002
7.826454e+002, 1.888994e+002
7.831276e+002, 1.887269e+002
7.836097e+002, 1.885310e+002
7.840918e+002, 1.884321e+002
7.845739e+002, 1.884341e+002
7.850560e+002, 1.882798e+002
7.855381e+002, 1.879191e+002
7.860203e+002, 1.875413e+002
7.865024e+002, 1.873350e+002
7.869845e+002, 1.872635e+002
7.874666e+002, 1.872659e+002
7.879487e+002, 1.873389e+002
7.884308e+002, 1.874516e+002
7.889130e+002, 1.875418e+002
7.893951e+002, 1.876871e+002
7.898772e+002, 1.879799e+002
7.903593e+002, 1.885640e+002
7.908414e+002, 1.890450e+002
7.913235e+002, 1.894473e+002
7.918057e+002, 1.896967e+002
7.922878e+002, 1.895651e+002
7.927699e+002, 1.890921e+002
7.932520e+002, 1.889917e+002
7.937341e+002, 1.894090e+002
7.942162e+002, 1.900069e+002
7.946984e+002, 1.905123e+002
7.951805e+002, 1.909315e+002
7.956626e+002, 1.912575e+002
7.961447e+002, 1.914416e+002
7.966268e+002, 1.916619e+002
7.971089e+002, 1.920772e+002
7.975911e+002, 1.925169e+002
7.980732e+002, 1.927920e+002
7.985553e+002, 1.928472e+002
7.990374e+002, 1.928476e+002
7.995195e+002, 1.927288e+002
8.000016e+002, 1.926980e+002
8.004838e+002, 1.931351e+002
8.009659e+002, 1.939430e+002
8.014480e+002, 1.945781e+002
8.019301e+002, 1.949450e+002
8.024122e+002, 1.951022e+002
8.028943e+002, 1.949695e+002
8.033765e+002, 1.947099e+002
8.038586e+002, 1.945230e+002
8.043407e+002, 1.943904e+002
8.048228e+002, 1.944565e+002
8.053049e+002, 1.949652e+002
8.057870e+002, 1.955588e+002
8.062692e+002, 1.958582e+002
8.067513e+002, 1.957551e+002
8.072334e+002, 1.958190e+002
8.077155e+002, 1.961697e+002
8.081976e+002, 1.964854e+002
8.086797e+002, 1.962558e+002
8.091619e+002, 1.956477e+002
8.096440e+002, 1.951373e+002
8.101261e+002, 1.948195e+002
8.106082e+002, 1.946336e+002
8.110903e+002, 1.947040e+002
8.115724e+002, 1.948058e+002
8.120546e+002, 1.946805e+002
8.125367e+002, 1.939828e+002
8.130188e+002, 1.935694e+002
8.135009e+002, 1.936787e+002
8.139830e+002, 1.938875e+002
8.144651e+002, 1.936887e+002
8.149473e+002, 1.930496e+002
8.154294e+002, 1.925674e+002
8.159115e+002, 1.923070e+002
8.163936e+002, 1.921898e+002
8.168757e+002, 1.922325e+002
8.173578e+002, 1.923264e+002
8.178400e+002, 1.922631e+002
8.183221e+002, 1.919549e+002
8.188042e+002, 1.916315e+002
8.192863e+002, 1.912946e+002
8.197684e+002, 1.910509e+002
8.202505e+002, 1.910273e+002
8.207327e+002, 1.913765e+002
8.212148e+002, 1.915936e+002
8.216969e+002, 1.916811e+002
8.221790e+002, 1.916191e+002
8.226611e+002, 1.913245e+002
8.231432e+002, 1.908349e+002
8.236254e+002, 1.903413e+002
8.241075e+002, 1.898239e+002
8.245896e+002, 1.896299e+002
8.250717e+002, 1.906324e+002
8.255538e+002, 1.918572e+002
8.260359e+002, 1.920679e+002
8.265181e+002, 1.907019e+002
8.270002e+002, 1.895704e+002
8.274823e+002, 1.892123e+002
8.279644e+002, 1.891305e+002
8.284465e+002, 1.889790e+002
8.289286e+002, 1.886666e+002
8.294108e+002, 1.888753e+002
8.298929e+002, 1.897413e+002
8.303750e+002, 1.905479e+002
8.308571e+002, 1.903646e+002
8.313392e+002, 1.896914e+002
8.318214e+002, 1.897533e+002
8.323035e+002, 1.907033e+002
8.327856e+002, 1.914438e+002
8.332677e+002, 1.909738e+002
8.337498e+002, 1.902384e+002
8.342319e+002, 1.899552e+002
8.347141e+002, 1.903257e+002
8.351962e+002, 1.906392e+002
8.356783e+002, 1.908420e+002
8.361604e+002, 1.910669e+002
8.366425e+002, 1.914238e+002
8.371246e+002, 1.918978e+002
8.376068e+002, 1.922796e+002
8.380889e+002, 1.925672e+002
8.385710e+002, 1.928328e+002
8.390531e+002, 1.932337e+002
8.395352e+002, 1.935807e+002
8.400173e+002, 1.935408e+002
8.404995e+002, 1.931092e+002
8.409816e+002, 1.929706e+002
8.414637e+002, 1.937834e+002
8.419458e+002, 1.945156e+002
8.424279e+002, 1.946361e+002
8.429100e+002, 1.941602e+002
8.433922e+002, 1.940193e+002
8.438743e+002, 1.942558e+002
8.443564e+002, 1.945854e+002
8.448385e+002, 1.949005e+002
8.453206e+002, 1.951678e+002
8.458027e+002, 1.951814e+002
8.462849e+002, 1.950175e+002
8.467670e+002, 1.951103e+002
8.472491e+002, 1.962404e+002
8.477312e+002, 1.972049e+002
8.482133e+002, 1.970740e+002
8.486954e+002, 1.959866e+002
8.491776e+002, 1.955327e+002
8.496597e+002, 1.960527e+002
8.501418e+002, 1.966249e+002
8.506239e+002, 1.970434e+002
8.511060e+002, 1.972447e+002
8.515881e+002, 1.967205e+002
8.520703e+002, 1.956005e+002
8.525524e+002, 1.949728e+002
8.530345e+002, 1.957100e+002
8.535166e+002, 1.968749e+002
8.539987e+002, 1.978125e+002
8.544808e+002, 1.985001e+002
8.549630e+002, 1.988835e+002
8.554451e+002, 1.985543e+002
8.559272e+002, 1.983890e+002
8.564093e+002, 1.986724e+002
8.568914e+002, 1.991667e+002
8.573735e+002, 1.992443e+002
8.578557e+002, 1.988430e+002
8.583378e+002, 1.988148e+002
8.588199e+002, 1.995050e+002
8.593020e+002, 2.004254e+002
8.597841e+002, 2.008644e+002
8.602662e+002, 2.009822e+002
8.607484e+002, 2.010877e+002
8.612305e+002, 2.011765e+002
8.617126e+002, 2.014429e+002
8.621947e+002, 2.021300e+002
8.626768e+002, 2.029698e+002
8.631589e+002, 2.035646e+002
8.636411e+002, 2.038182e+002
8.641232e+002, 2.041004e+002
8.646053e+002, 2.044192e+002
8.650874e+002, 2.048332e+002
8.655695e+002, 2.055056e+002
8.660516e+002, 2.063430e+002
8.665338e+002, 2.070038e+002
8.670159e+002, 2.073670e+002
8.674980e+002, 2.078735e+002
8.679801e+002, 2.091446e+002
8.684622e+002, 2.105416e+002
8.689443e+002, 2.113957e+002
8.694265e+002, 2.111643e+002
8.699086e+002, 2.115371e+002
8.703907e+002, 2.128224e+002
8.708728e+002, 2.142360e+002
8.713549e+002, 2.150494e+002
8.718370e+002, 2.153343e+002
8.723192e+002, 2.159139e+002
8.728013e+002, 2.168299e+002
8.732834e+002, 2.178427e+002
8.737655e+002, 2.188689e+002
8.742476e+002, 2.198205e+002
8.747297e+002, 2.205481e+002
8.752119e+002, 2.210373e+002
8.756940e+002, 2.216306e+002
8.761761e+002, 2.225957e+002
8.766582e+002, 2.234701e+002
8.771403e+002, 2.240111e+002
8.776224e+002, 2.242569e+002
8.781046e+002, 2.247626e+002
8.785867e+002, 2.255358e+002
8.790688e+002, 2.263715e+002
8.795509e+002, 2.272165e+002
8.800330e+002, 2.279972e+002
8.805151e+002, 2.285782e+002
8.809973e+002, 2.289942e+002
8.814794e+002, 2.293709e+002
8.819615e+002, 2.294853e+002
8.824436e+002, 2.298779e+002
8.829257e+002, 2.310633e+002
8.834078e+002, 2.326413e+002
8.838900e+002, 2.334764e+002
8.843721e+002, 2.334393e+002
8.848542e+002, 2.333313e+002
8.853363e+002, 2.333654e+002
8.858184e+002, 2.334730e+002
8.863005e+002, 2.333757e+002
8.867827e+002, 2.332560e+002
8.872648e+002, 2.336230e+002
8.877469e+002, 2.351928e+002
8.882290e+002, 2.364703e+002
8.887111e+002, 2.365434e+002
8.891932e+002, 2.360225e+002
8.896754e+002, 2.358191e+002
8.901575e+002, 2.361218e+002
8.906396e+002, 2.362980e+002
8.911217e+002, 2.362887e+002
8.916038e+002, 2.361667e+002
8.920859e+002, 2.359187e+002
8.925681e+002, 2.356328e+002
8.930502e+002, 2.356420e+002
8.935323e+002, 2.360470e+002
8.940144e+002, 2.363946e+002
8.944965e+002, 2.363398e+002
8.949786e+002, 2.361085e+002
8.954608e+002, 2.358757e+002
8.959429e+002, 2.356542e+002
8.964250e+002, 2.354659e+002
8.969071e+002, 2.353214e+002
8.973892e+002, 2.351877e+002
8.978713e+002, 2.350827e+002
8.983535e+002, 2.349790e+002
8.988356e+002, 2.347149e+002
8.993177e+002, 2.342940e+002
8.997998e+002, 2.337917e+002
9.002819e+002, 2.330612e+002
9.007640e+002, 2.324281e+002
9.012462e+002, 2.322294e+002
9.017283e+002, 2.324238e+002
9.022104e+002, 2.324514e+002
9.026925e+002, 2.321753e+002
9.031746e+002, 2.318722e+002
9.036567e+002, 2.316284e+002
9.041389e+002, 2.314122e+002
9.046210e+002, 2.310938e+002
9.051031e+002, 2.306863e+002
9.055852e+002, 2.302905e+002
9.060673e+002, 2.299191e+002
9.065494e+002, 2.296142e+002
9.070316e+002, 2.295234e+002
9.075137e+002, 2.295008e+002
9.079958e+002, 2.292876e+002
9.084779e+002, 2.286819e+002
9.089600e+002, 2.280436e+002
9.094421e+002, 2.273177e+002
9.099243e+002, 2.266683e+002
9.104064e+002, 2.263970e+002
9.108885e+002, 2.264736e+002
9.113706e+002, 2.262923e+002
9.118527e+002, 2.257330e+002
9.123348e+002, 2.251133e+002
9.128170e+002, 2.247879e+002
9.132991e+002, 2.245478e+002
9.137812e+002, 2.241194e+002
9.142633e+002, 2.233747e+002
9.147454e+002, 2.228139e+002
9.152275e+002, 2.226609e+002
9.157097e+002, 2.225301e+002
9.161918e+002, 2.221614e+002
9.166739e+002, 2.215617e+002
9.171560e+002, 2.211926e+002
9.176381e+002, 2.210585e+002
9.181202e+002, 2.209521e+002
9.186024e+002, 2.206597e+002
9.190845e+002, 2.203687e+002
9.195666e+002, 2.202862e+002
9.200487e+002, 2.203966e+002
9.205308e+002, 2.205707e+002
9.210129e+002, 2.211252e+002
9.214951e+002, 2.212771e+002
9.219772e+002, 2.206501e+002
9.224593e+002, 2.195632e+002
9.229414e+002, 2.190733e+002
9.234235e+002, 2.191673e+002
9.239056e+002, 2.189951e+002
9.243878e+002, 2.181601e+002
9.248699e+002, 2.171775e+002
9.253520e+002, 2.165231e+002
9.258341e+002, 2.161477e+002
9.263162e+002, 2.159712e+002
9.267983e+002, 2.162599e+002
9.272805e+002, 2.163081e+002
9.277626e+002, 2.160015e+002
9.282447e+002, 2.154846e+002
9.287268e+002, 2.148046e+002
9.292089e+002, 2.139637e+002
9.296910e+002, 2.135705e+002
9.301732e+002, 2.137132e+002
9.306553e+002, 2.138592e+002
9.311374e+002, 2.133778e+002
9.316195e+002, 2.127242e+002
9.321016e+002, 2.124152e+002
9.325837e+002, 2.125250e+002
9.330659e+002, 2.126900e+002
9.335480e+002, 2.129181e+002
9.340301e+002, 2.130695e+002
9.345122e+002, 2.130516e+002
9.349943e+002, 2.128957e+002
9.354764e+002, 2.129108e+002
9.359586e+002, 2.130816e+002
9.364407e+002, 2.130244e+002
9.369228e+002, 2.122807e+002
9.374049e+002, 2.114587e+002
9.378870e+002, 2.112000e+002
9.383691e+002, 2.113519e+002
9.388513e+002, 2.115688e+002
9.393334e+002, 2.120897e+002
9.398155e+002, 2.121942e+002
9.402976e+002, 2.116262e+002
9.407797e+002, 2.107911e+002
9.412618e+002, 2.103441e+002
9.417440e+002, 2.102598e+002
9.422261e+002, 2.101497e+002
9.427082e+002, 2.099466e+002
9.431903e+002, 2.097276e+002
9.436724e+002, 2.096008e+002
9.441545e+002, 2.094782e+002
9.446367e+002, 2.092071e+002
9.451188e+002, 2.086437e+002
9.456009e+002, 2.084713e+002
9.460830e+002, 2.090784e+002
9.465651e+002, 2.095204e+002
9.470472e+002, 2.090739e+002
9.475294e+002, 2.078938e+002
9.480115e+002, 2.075045e+002
9.484936e+002, 2.078254e+002
9.489757e+002, 2.079680e+002
9.494578e+002, 2.071668e+002
9.499399e+002, 2.061541e+002
9.504221e+002, 2.055478e+002
9.509042e+002, 2.052280e+002
9.513863e+002, 2.046601e+002
9.518684e+002, 2.035273e+002
9.523505e+002, 2.026803e+002
9.528326e+002, 2.023657e+002
9.533148e+002, 2.023007e+002
9.537969e+002, 2.019617e+002
9.542790e+002, 2.014021e+002
9.547611e+002, 2.008017e+002
9.552432e+002, 2.001597e+002
9.557253e+002, 1.996741e+002
9.562075e+002, 1.994917e+002
9.566896e+002, 1.995324e+002
9.571717e+002, 1.997827e+002
9.576538e+002, 2.004430e+002
9.581359e+002, 2.005732e+002
9.586180e+002, 2.000230e+002
9.591002e+002, 1.992973e+002
9.595823e+002, 1.987189e+002
9.600644e+002, 1.982609e+002
9.605465e+002, 1.978936e+002
9.610286e+002, 1.975982e+002
9.615107e+002, 1.972641e+002
9.619929e+002, 1.966804e+002
9.624750e+002, 1.961842e+002
9.629571e+002, 1.958978e+002
9.634392e+002, 1.958497e+002
9.639213e+002, 1.961860e+002
9.644034e+002, 1.970898e+002
9.648856e+002, 1.976180e+002
9.653677e+002, 1.974825e+002
9.658498e+002, 1.969900e+002
9.663319e+002, 1.963896e+002
9.668140e+002, 1.958474e+002
9.672961e+002, 1.958080e+002
9.677783e+002, 1.966814e+002
9.682604e+002, 1.972629e+002
9.687425e+002, 1.967779e+002
9.692246e+002, 1.960616e+002
9.697067e+002, 1.957751e+002
9.701888e+002, 1.959906e+002
9.706710e+002, 1.961503e+002
9.711531e+002, 1.962485e+002
9.716352e+002, 1.963235e+002
9.721173e+002, 1.963951e+002
9.725994e+002, 1.964622e+002
9.730815e+002, 1.965399e+002
9.735637e+002, 1.966170e+002
9.740458e+002, 1.966416e+002
9.745279e+002, 1.964696e+002
9.750100e+002, 1.964053e+002
9.754921e+002, 1.965777e+002
9.759742e+002, 1.968724e+002
9.764564e+002, 1.970333e+002
9.769385e+002, 1.970636e+002
9.774206e+002, 1.969339e+002
9.779027e+002, 1.965974e+002
9.783848e+002, 1.962441e+002
9.788669e+002, 1.959589e+002
9.793491e+002, 1.958122e+002
9.798312e+002, 1.959208e+002
9.803133e+002, 1.964883e+002
9.807954e+002, 1.968423e+002
9.812775e+002, 1.969415e+002
9.817596e+002, 1.968676e+002
9.822418e+002, 1.966018e+002
9.827239e+002, 1.961966e+002
9.832060e+002, 1.959233e+002
9.836881e+002, 1.957798e+002
9.841702e+002, 1.957542e+002
9.846523e+002, 1.960153e+002
9.851345e+002, 1.962150e+002
9.856166e+002, 1.961743e+002
9.860987e+002, 1.958872e+002
9.865808e+002, 1.953686e+002
9.870629e+002, 1.944574e+002
9.875450e+002, 1.938511e+002
9.880272e+002, 1.937362e+002
9.885093e+002, 1.938604e+002
9.889914e+002, 1.939702e+002
9.894735e+002, 1.940067e+002
9.899556e+002, 1.938182e+002
9.904377e+002, 1.933274e+002
9.909199e+002, 1.928154e+002
9.914020e+002, 1.923779e+002
9.918841e+002, 1.919806e+002
9.923662e+002, 1.915870e+002
9.928483e+002, 1.912012e+002
9.933304e+002, 1.909295e+002
9.938126e+002, 1.907793e+002
9.942947e+002, 1.906098e+002
9.947768e+002, 1.902586e+002
9.952589e+002, 1.898909e+002
9.957410e+002, 1.898847e+002
9.962231e+002, 1.900301e+002
9.967053e+002, 1.897245e+002
9.971874e+002, 1.881936e+002
9.976695e+002, 1.870172e+002
9.981516e+002, 1.864955e+002
9.986337e+002, 1.863108e+002
9.991158e+002, 1.859685e+002
9.995980e+002, 1.855024e+002
1.000080e+003, 1.852259e+002
1.000562e+003, 1.852104e+002
1.001044e+003, 1.851143e+002
1.001526e+003, 1.846786e+002
1.002009e+003, 1.840470e+002
1.002491e+003, 1.832461e+002
1.002973e+003, 1.822366e+002
1.003455e+003, 1.816865e+002
1.003937e+003, 1.817710e+002
1.004419e+003, 1.817594e+002
1.004901e+003, 1.812177e+002
1.005383e+003, 1.804509e+002
1.005865e+003, 1.801639e+002
1.006348e+003, 1.802095e+002
1.006830e+003, 1.801586e+002
1.007312e+003, 1.798094e+002
1.007794e+003, 1.793563e+002
1.008276e+003, 1.786740e+002
1.008758e+003, 1.780263e+002
1.009240e+003, 1.777927e+002
1.009722e+003, 1.780563e+002
1.010205e+003, 1.777851e+002
1.010687e+003, 1.768624e+002
1.011169e+003, 1.758567e+002
1.011651e+003, 1.751967e+002
1.012133e+003, 1.747646e+002
1.012615e+003, 1.744941e+002
1.013097e+003, 1.743669e+002
1.013579e+003, 1.741576e+002
1.014061e+003, 1.737091e+002
1.014544e+003, 1.733884e+002
1.015026e+003, 1.733587e+002
1.015508e+003, 1.734732e+002
1.015990e+003, 1.733873e+002
1.016472e+003, 1.731245e+002
1.016954e+003, 1.727657e+002
1.017436e+003, 1.722841e+002
1.017918e+003, 1.718347e+002
1.018401e+003, 1.716431e+002
1.018883e+003, 1.714463e+002
1.019365e+003, 1.709212e+002
1.019847e+003, 1.699219e+002
1.020329e+003, 1.693513e+002
1.020811e+003, 1.692800e+002
1.021293e+003, 1.692585e+002
1.021775e+003, 1.688791e+002
1.022257e+003, 1.683943e+002
1.022740e+003, 1.682565e+002
1.023222e+003, 1.683760e+002
1.023704e+003, 1.683885e+002
1.024186e+003, 1.679444e+002
1.024668e+003, 1.676800e+002
1.025150e+003, 1.678505e+002
1.025632e+003, 1.681415e+002
1.026114e+003, 1.679220e+002
1.026596e+003, 1.672742e+002
1.027079e+003, 1.669937e+002
1.027561e+003, 1.672545e+002
1.028043e+003, 1.674824e+002
1.028525e+003, 1.671292e+002
1.029007e+003, 1.665981e+002
1.029489e+003, 1.662062e+002
1.029971e+003, 1.659885e+002
1.030453e+003, 1.659187e+002
1.030936e+003, 1.660374e+002
1.031418e+003, 1.661792e+002
1.031900e+003, 1.662966e+002
1.032382e+003, 1.663710e+002
1.032864e+003, 1.663341e+002
1.033346e+003, 1.662263e+002
1.033828e+003, 1.661494e+002
1.034310e+003, 1.662432e+002
1.034792e+003, 1.662089e+002
1.035275e+003, 1.658725e+002
1.035757e+003, 1.654704e+002
1.036239e+003, 1.652132e+002
1.036721e+003, 1.651039e+002
1.037203e+003, 1.649397e+002
1.037685e+003, 1.647185e+002
1.038167e+003, 1.644863e+002
1.038649e+003, 1.641925e+002
1.039132e+003, 1.639773e+002
1.039614e+003, 1.640215e+002
1.040096e+003, 1.642646e+002
1.040578e+003, 1.643817e+002
1.041060e+003, 1.643603e+002
1.041542e+003, 1.641718e+002
1.042024e+003, 1.637269e+002
1.042506e+003, 1.632932e+002
1.042989e+003, 1.634112e+002
1.043471e+003, 1.638049e+002
1.043953e+003, 1.638354e+002
1.044435e+003, 1.632939e+002
1.044917e+003, 1.629094e+002
1.045399e+003, 1.632837e+002
1.045881e+003, 1.635428e+002
1.046363e+003, 1.631336e+002
1.046845e+003, 1.621916e+002
1.047328e+003, 1.619339e+002
1.047810e+003, 1.623087e+002
1.048292e+003, 1.624484e+002
1.048774e+003, 1.618041e+002
1.049256e+003, 1.609840e+002
1.049738e+003, 1.603649e+002
1.050220e+003, 1.599285e+002
1.050702e+003, 1.596707e+002
1.051184e+003, 1.597657e+002
1.051667e+003, 1.595300e+002
1.052149e+003, 1.588213e+002
1.052631e+003, 1.581981e+002
1.053113e+003, 1.582938e+002
1.053595e+003, 1.587530e+002
1.054077e+003, 1.588808e+002
1.054559e+003, 1.586858e+002
1.055041e+003, 1.584589e+002
1.055523e+003, 1.583498e+002
1.056006e+003, 1.581780e+002
1.056488e+003, 1.578484e+002
1.056970e+003, 1.574696e+002
1.057452e+003, 1.573318e+002
1.057934e+003, 1.573916e+002
1.058416e+003, 1.571802e+002
1.058898e+003, 1.565597e+002
1.059380e+003, 1.559834e+002
1.059863e+003, 1.558905e+002
1.060345e+003, 1.559566e+002
1.060827e+003, 1.558617e+002
1.061309e+003, 1.555769e+002
1.061791e+003, 1.557151e+002
1.062273e+003, 1.564301e+002
1.062755e+003, 1.568165e+002
1.063237e+003, 1.563731e+002
1.063719e+003, 1.555164e+002
1.064202e+003, 1.546069e+002
1.064684e+003, 1.538230e+002
1.065166e+003, 1.535300e+002
1.065648e+003, 1.542821e+002
1.066130e+003, 1.547486e+002
1.066612e+003, 1.547157e+002
1.067094e+003, 1.544977e+002
1.067576e+003, 1.543589e+002
1.068059e+003, 1.542636e+002
1.068541e+003, 1.539560e+002
1.069023e+003, 1.534647e+002
1.069505e+003, 1.530535e+002
1.069987e+003, 1.529321e+002
1.070469e+003, 1.528777e+002
1.070951e+003, 1.528463e+002
1.071433e+003, 1.527807e+002
1.071916e+003, 1.525150e+002
1.072398e+003, 1.519965e+002
1.072880e+003, 1.518235e+002
1.073362e+003, 1.521259e+002
1.073844e+003, 1.524640e+002
1.074326e+003, 1.523119e+002
1.074808e+003, 1.520152e+002
1.075290e+003, 1.519528e+002
1.075772e+003, 1.521626e+002
1.076255e+003, 1.523486e+002
1.076737e+003, 1.525094e+002
1.077219e+003, 1.525952e+002
1.077701e+003, 1.525773e+002
1.078183e+003, 1.524928e+002
1.078665e+003, 1.524006e+002
1.079147e+003, 1.523010e+002
1.079629e+003, 1.522073e+002
1.080111e+003, 1.521567e+002
1.080594e+003, 1.520030e+002
1.081076e+003, 1.514860e+002
1.081558e+003, 1.510501e+002
1.082040e+003, 1.509740e+002
1.082522e+003, 1.512253e+002
1.083004e+003, 1.515819e+002
1.083486e+003, 1.520161e+002
1.083968e+003, 1.522417e+002
1.084450e+003, 1.518827e+002
1.084933e+003, 1.515063e+002
1.085415e+003, 1.515518e+002
1.085897e+003, 1.517802e+002
1.086379e+003, 1.517766e+002
1.086861e+003, 1.514174e+002
1.087343e+003, 1.513574e+002
1.087825e+003, 1.516794e+002
1.088307e+003, 1.519511e+002
1.088790e+003, 1.517154e+002
1.089272e+003, 1.512703e+002
1.089754e+003, 1.509089e+002
1.090236e+003, 1.506578e+002
1.090718e+003, 1.505696e+002
1.091200e+003, 1.507734e+002
1.091682e+003, 1.508938e+002
1.092164e+003, 1.507922e+002
1.092646e+003, 1.507201e+002
1.093129e+003, 1.512866e+002
1.093611e+003, 1.521466e+002
1.094093e+003, 1.523770e+002
1.094575e+003, 1.517970e+002
1.095057e+003, 1.512300e+002
1.095539e+003, 1.509648e+002
1.096021e+003, 1.508997e+002
1.096503e+003, 1.510401e+002
1.096986e+003, 1.513194e+002
1.097468e+003, 1.514920e+002
1.097950e+003, 1.515675e+002
1.098432e+003, 1.516045e+002
1.098914e+003, 1.515762e+002
1.099396e+003, 1.516417e+002
1.099878e+003, 1.521672e+002
1.100360e+003, 1.526718e+002
1.100843e+003, 1.525801e+002
1.101325e+003, 1.517831e+002
1.101807e+003, 1.515619e+002
1.102289e+003, 1.519733e+002
1.102771e+003, 1.523367e+002
1.103253e+003, 1.521974e+002
1.103735e+003, 1.518754e+002
1.104217e+003, 1.516604e+002
1.104699e+003, 1.515619e+002
1.105182e+003, 1.516055e+002
1.105664e+003, 1.519652e+002
1.106146e+003, 1.521314e+002
1.106628e+003, 1.520340e+002
1.107110e+003, 1.518983e+002
1.107592e+003, 1.519479e+002
1.108074e+003, 1.520954e+002
1.108556e+003, 1.520929e+002
1.109038e+003, 1.519912e+002
1.109521e+003, 1.520941e+002
1.110003e+003, 1.527701e+002
1.110485e+003, 1.533341e+002
1.110967e+003, 1.536510e+002
1.111449e+003, 1.537881e+002
1.111931e+003, 1.537904e+002
1.112413e+003, 1.536964e+002
1.112895e+003, 1.537201e+002
1.113377e+003, 1.538902e+002
1.113860e+003, 1.539648e+002
1.114342e+003, 1.535611e+002
1.114824e+003, 1.532676e+002
1.115306e+003, 1.534784e+002
1.115788e+003, 1.540353e+002
1.116270e+003, 1.544301e+002
1.116752e+003, 1.546694e+002
1.117234e+003, 1.549530e+002
1.117717e+003, 1.553704e+002
1.118199e+003, 1.556823e+002
1.118681e+003, 1.555769e+002
1.119163e+003, 1.553318e+002
1.119645e+003, 1.551998e+002
1.120127e+003, 1.551984e+002
1.120609e+003, 1.552246e+002
1.121091e+003, 1.552807e+002
1.121573e+003, 1.553371e+002
1.122056e+003, 1.553672e+002
1.122538e+003, 1.554114e+002
1.123020e+003, 1.555749e+002
1.123502e+003, 1.557701e+002
1.123984e+003, 1.558501e+002
1.124466e+003, 1.556763e+002
1.124948e+003, 1.556762e+002
1.125430e+003, 1.559549e+002
1.125913e+003, 1.561536e+002
1.126395e+003, 1.559211e+002
1.126877e+003, 1.554969e+002
1.127359e+003, 1.554581e+002
1.127841e+003, 1.556869e+002
1.128323e+003, 1.558539e+002
1.128805e+003, 1.557621e+002
1.129287e+003, 1.557152e+002
1.129770e+003, 1.558026e+002
1.130252e+003, 1.558721e+002
1.130734e+003, 1.556929e+002
1.131216e+003, 1.553652e+002
1.131698e+003, 1.553269e+002
1.132180e+003, 1.555612e+002
1.132662e+003, 1.558263e+002
1.133144e+003, 1.560285e+002
1.133626e+003, 1.561879e+002
1.134109e+003, 1.562814e+002
1.134591e+003, 1.563615e+002
1.135073e+003, 1.565498e+002
1.135555e+003, 1.568247e+002
1.136037e+003, 1.569264e+002
1.136519e+003, 1.568228e+002
1.137001e+003, 1.566914e+002
1.137483e+003, 1.566500e+002
1.137965e+003, 1.566364e+002
1.138448e+003, 1.566256e+002
1.138930e+003, 1.566132e+002
1.139412e+003, 1.565727e+002
1.139894e+003, 1.565028e+002
1.140376e+003, 1.564821e+002
1.140858e+003, 1.565277e+002
1.141340e+003, 1.566336e+002
1.141822e+003, 1.569165e+002
1.142304e+003, 1.571690e+002
1.142787e+003, 1.571317e+002
1.143269e+003, 1.567972e+002
1.143751e+003, 1.566818e+002
1.144233e+003, 1.568064e+002
1.144715e+003, 1.570382e+002
1.145197e+003, 1.573542e+002
1.145679e+003, 1.576891e+002
1.146161e+003, 1.580536e+002
1.146644e+003, 1.583296e+002
1.147126e+003, 1.583323e+002
1.147608e+003, 1.579297e+002
1.148090e+003, 1.576154e+002
1.148572e+003, 1.573915e+002
1.149054e+003, 1.572810e+002
1.149536e+003, 1.573433e+002
1.150018e+003, 1.574730e+002
1.150500e+003, 1.574568e+002
1.150983e+003, 1.573760e+002
1.151465e+003, 1.573937e+002
1.151947e+003, 1.576069e+002
1.152429e+003, 1.578479e+002
1.152911e+003, 1.582158e+002
1.153393e+003, 1.583792e+002
1.153875e+003, 1.579032e+002
1.154357e+003, 1.571282e+002
1.154840e+003, 1.570773e+002
1.155322e+003, 1.575433e+002
1.155804e+003, 1.578681e+002
1.156286e+003, 1.577509e+002
1.156768e+003, 1.574959e+002
1.157250e+003, 1.569877e+002
1.157732e+003, 1.566089e+002
1.158214e+003, 1.568627e+002
1.158697e+003, 1.575556e+002
1.159179e+003, 1.578616e+002
1.159661e+003, 1.577960e+002
1.160143e+003, 1.575806e+002
1.160625e+003, 1.572378e+002
1.161107e+003, 1.568622e+002
1.161589e+003, 1.564140e+002
1.162071e+003, 1.560125e+002
1.162553e+003, 1.558595e+002
1.163036e+003, 1.559114e+002
1.163518e+003, 1.558233e+002
1.164000e+003, 1.555819e+002
1.164482e+003, 1.554072e+002
1.164964e+003, 1.555909e+002
1.165446e+003, 1.556942e+002
1.165928e+003, 1.553547e+002
1.166410e+003, 1.548909e+002
1.166892e+003, 1.550106e+002
1.167375e+003, 1.556556e+002
1.167857e+003, 1.559033e+002
1.168339e+003, 1.556222e+002
1.168821e+003, 1.552480e+002
1.169303e+003, 1.549720e+002
1.169785e+003, 1.548227e+002
1.170267e+003, 1.549308e+002
1.170749e+003, 1.551568e+002
1.171231e+003, 1.550740e+002
1.171714e+003, 1.546835e+002
1.172196e+003, 1.543577e+002
1.172678e+003, 1.541674e+002
1.173160e+003, 1.540975e+002
1.173642e+003, 1.542858e+002
1.174124e+003, 1.544696e+002
1.174606e+003, 1.543704e+002
1.175088e+003, 1.540521e+002
1.175571e+003, 1.539438e+002
1.176053e+003, 1.540631e+002
1.176535e+003, 1.540361e+002
1.177017e+003, 1.537325e+002
1.177499e+003, 1.533379e+002
1.177981e+003, 1.529372e+002
1.178463e+003, 1.525994e+002
1.178945e+003, 1.523946e+002
1.179427e+003, 1.523231e+002
1.179910e+003, 1.523912e+002
1.180392e+003, 1.526287e+002
1.180874e+003, 1.526914e+002
1.181356e+003, 1.524068e+002
1.181838e+003, 1.519976e+002
1.182320e+003, 1.515850e+002
1.182802e+003, 1.512500e+002
1.183284e+003, 1.511204e+002
1.183767e+003, 1.512380e+002
1.184249e+003, 1.513259e+002
1.184731e+003, 1.514174e+002
1.185213e+003, 1.512333e+002
1.185695e+003, 1.504579e+002
1.186177e+003, 1.496358e+002
1.186659e+003, 1.494235e+002
1.187141e+003, 1.495678e+002
1.187624e+003, 1.497756e+002
1.188106e+003, 1.501542e+002
1.188588e+003, 1.498708e+002
1.189070e+003, 1.487593e+002
1.189552e+003, 1.479769e+002
1.190034e+003, 1.484906e+002
1.190516e+003, 1.493695e+002
1.190998e+003, 1.494701e+002
1.191480e+003, 1.490987e+002
1.191963e+003, 1.487691e+002
1.192445e+003, 1.485799e+002
1.192927e+003, 1.483678e+002
1.193409e+003, 1.480903e+002
1.193891e+003, 1.479741e+002
1.194373e+003, 1.483750e+002
1.194855e+003, 1.488699e+002
1.195337e+003, 1.487865e+002
1.195819e+003, 1.483821e+002
1.196302e+003, 1.482463e+002
1.196784e+003, 1.486873e+002
1.197266e+003, 1.488730e+002
1.197748e+003, 1.487514e+002
1.198230e+003, 1.485296e+002
1.198712e+003, 1.483672e+002
1.199194e+003, 1.482095e+002
1.199676e+003, 1.480042e+002
1.200158e+003, 1.477450e+002
1.200641e+003, 1.474034e+002
1.201123e+003, 1.468809e+002
1.201605e+003, 1.465156e+002
1.202087e+003, 1.463333e+002
1.202569e+003, 1.462838e+002
1.203051e+003, 1.463550e+002
1.203533e+003, 1.465098e+002
1.204015e+003, 1.468582e+002
1.204498e+003, 1.472577e+002
1.204980e+003, 1.471834e+002
1.205462e+003, 1.462395e+002
1.205944e+003, 1.456204e+002
1.206426e+003, 1.454332e+002
1.206908e+003, 1.455361e+002
1.207390e+003, 1.460203e+002
1.207872e+003, 1.465498e+002
1.208354e+003, 1.465919e+002
1.208837e+003, 1.462554e+002
1.209319e+003, 1.461534e+002
1.209801e+003, 1.465012e+002
1.210283e+003, 1.466953e+002
1.210765e+003, 1.466599e+002
1.211247e+003, 1.464744e+002
1.211729e+003, 1.461048e+002
1.212211e+003, 1.457127e+002
1.212694e+003, 1.455063e+002
1.213176e+003, 1.454787e+002
1.213658e+003, 1.455386e+002
1.214140e+003, 1.457268e+002
1.214622e+003, 1.458327e+002
1.215104e+003, 1.458194e+002
1.215586e+003, 1.457573e+002
1.216068e+003, 1.458021e+002
1.216551e+003, 1.457905e+002
1.217033e+003, 1.454879e+002
1.217515e+003, 1.449126e+002
1.217997e+003, 1.443066e+002
1.218479e+003, 1.435570e+002
1.218961e+003, 1.432769e+002
1.219443e+003, 1.436546e+002
1.219925e+003, 1.441502e+002
1.220407e+003, 1.441061e+002
1.220890e+003, 1.438769e+002
1.221372e+003, 1.439203e+002
1.221854e+003, 1.442125e+002
1.222336e+003, 1.441870e+002
1.222818e+003, 1.436734e+002
1.223300e+003, 1.435195e+002
1.223782e+003, 1.439725e+002
1.224264e+003, 1.444376e+002
1.224746e+003, 1.441016e+002
1.225229e+003, 1.435477e+002
1.225711e+003, 1.434286e+002
1.226193e+003, 1.437488e+002
1.226675e+003, 1.438331e+002
1.227157e+003, 1.435856e+002
1.227639e+003, 1.436611e+002
1.228121e+003, 1.442716e+002
1.228603e+003, 1.448876e+002
1.229085e+003, 1.449448e+002
1.229568e+003, 1.447333e+002
1.230050e+003, 1.444950e+002
1.230532e+003, 1.442439e+002
1.231014e+003, 1.439155e+002
1.231496e+003, 1.434777e+002
1.231978e+003, 1.432298e+002
1.232460e+003, 1.432505e+002
1.232942e+003, 1.434251e+002
1.233425e+003, 1.438115e+002
1.233907e+003, 1.441669e+002
1.234389e+003, 1.442130e+002
1.234871e+003, 1.440104e+002
1.235353e+003, 1.439905e+002
1.235835e+003, 1.441655e+002
1.236317e+003, 1.442508e+002
1.236799e+003, 1.441680e+002
1.237281e+003, 1.440444e+002
1.237764e+003, 1.439729e+002
1.238246e+003, 1.439177e+002
1.238728e+003, 1.438379e+002
1.239210e+003, 1.437489e+002
1.239692e+003, 1.437057e+002
1.240174e+003, 1.437112e+002
1.240656e+003, 1.438699e+002
1.241138e+003, 1.442425e+002
1.241621e+003, 1.445420e+002
1.242103e+003, 1.445429e+002
1.242585e+003, 1.443923e+002
1.243067e+003, 1.440995e+002
1.243549e+003, 1.437630e+002
1.244031e+003, 1.438279e+002
1.244513e+003, 1.442259e+002
1.244995e+003, 1.443615e+002
1.245478e+003, 1.440354e+002
1.245960e+003, 1.438244e+002
1.246442e+003, 1.444310e+002
1.246924e+003, 1.448484e+002
1.247406e+003, 1.444214e+002
1.247888e+003, 1.434969e+002
1.248370e+003, 1.431171e+002
1.248852e+003, 1.432054e+002
1.249334e+003, 1.434870e+002
1.249817e+003, 1.439395e+002
1.250299e+003, 1.443086e+002
1.250781e+003, 1.446009e+002
1.251263e+003, 1.445921e+002
1.251745e+003, 1.440738e+002
1.252227e+003, 1.433288e+002
1.252709e+003, 1.430112e+002
1.253191e+003, 1.430485e+002
1.253673e+003, 1.432506e+002
1.254156e+003, 1.435961e+002
1.254638e+003, 1.439791e+002
1.255120e+003, 1.445258e+002
1.255602e+003, 1.448544e+002
1.256084e+003, 1.447851e+002
1.256566e+003, 1.444893e+002
1.257048e+003, 1.442031e+002
1.257530e+003, 1.439821e+002
1.258012e+003, 1.440033e+002
1.258495e+003, 1.443331e+002
1.258977e+003, 1.444524e+002
1.259459e+003, 1.441274e+002
1.259941e+003, 1.439656e+002
1.260423e+003, 1.441973e+002
1.260905e+003, 1.446037e+002
1.261387e+003, 1.449644e+002
1.261869e+003, 1.452071e+002
1.262352e+003, 1.451838e+002
1.262834e+003, 1.448545e+002
1.263316e+003, 1.445798e+002
1.263798e+003, 1.443351e+002
1.264280e+003, 1.443322e+002
1.264762e+003, 1.446899e+002
1.265244e+003, 1.451409e+002
1.265726e+003, 1.454965e+002
1.266208e+003, 1.456783e+002
1.266691e+003, 1.455184e+002
1.267173e+003, 1.450137e+002
1.267655e+003, 1.446469e+002
1.268137e+003, 1.444038e+002
1.268619e+003, 1.444391e+002
1.269101e+003, 1.448563e+002
1.269583e+003, 1.452772e+002
1.270065e+003, 1.452986e+002
1.270548e+003, 1.452012e+002
1.271030e+003, 1.451652e+002
1.271512e+003, 1.452282e+002
1.271994e+003, 1.457256e+002
1.272476e+003, 1.466328e+002
1.272958e+003, 1.467508e+002
1.273440e+003, 1.456945e+002
1.273922e+003, 1.447496e+002
1.274405e+003, 1.449826e+002
1.274887e+003, 1.454948e+002
1.275369e+003, 1.458712e+002
1.275851e+003, 1.460448e+002
1.276333e+003, 1.456640e+002
1.276815e+003, 1.448835e+002
1.277297e+003, 1.444971e+002
1.277779e+003, 1.446654e+002
1.278261e+003, 1.450457e+002
1.278744e+003, 1.458535e+002
1.279226e+003, 1.463202e+002
1.279708e+003, 1.460822e+002
1.280190e+003, 1.454746e+002
1.280672e+003, 1.449753e+002
1.281154e+003, 1.446584e+002
1.281636e+003, 1.448668e+002
1.282118e+003, 1.456450e+002
1.282600e+003, 1.460250e+002
1.283083e+003, 1.453121e+002
1.283565e+003, 1.449237e+002
1.284047e+003, 1.452878e+002
1.284529e+003, 1.458428e+002
1.285011e+003, 1.456879e+002
1.285493e+003, 1.452478e+002
1.285975e+003, 1.452025e+002
1.286457e+003, 1.455899e+002
1.286939e+003, 1.459212e+002
1.287422e+003, 1.461895e+002
1.287904e+003, 1.462528e+002
1.288386e+003, 1.460497e+002
1.288868e+003, 1.458001e+002
1.289350e+003, 1.456937e+002
1.289832e+003, 1.456987e+002
1.290314e+003, 1.459235e+002
1.290796e+003, 1.462386e+002
1.291279e+003, 1.459953e+002
1.291761e+003, 1.450827e+002
1.292243e+003, 1.448262e+002
1.292725e+003, 1.454429e+002
1.293207e+003, 1.461687e+002
1.293689e+003, 1.464471e+002
1.294171e+003, 1.465641e+002
1.294653e+003, 1.466059e+002
1.295135e+003, 1.466640e+002
1.295618e+003, 1.470215e+002
1.296100e+003, 1.476021e+002
1.296582e+003, 1.475366e+002
1.297064e+003, 1.467978e+002
1.297546e+003, 1.461768e+002
1.298028e+003, 1.462166e+002
1.298510e+003, 1.462823e+002
1.298992e+003, 1.461422e+002
1.299475e+003, 1.459947e+002
1.299957e+003, 1.461556e+002
1.300439e+003, 1.465122e+002
1.300921e+003, 1.466597e+002
1.301403e+003, 1.466396e+002
1.301885e+003, 1.467985e+002
##END=



