##NAMES=Shattuckite
##RRUFFID=R050133
##IDEAL CHEMISTRY=Cu^2+^_5_(SiO_3_)_4_(OH)_2_
##LOCALITY=Ajo, Pima County, Arizona, USA
##OWNER=RRUFF
##SOURCE=University of Arizona Mineral Museum
##DESCRIPTION=Aggregate of blue flattened grains
##STATUS=The identification of this mineral has been confirmed by X-ray diffraction and chemical analysis
##URL=rruff.info/R050133
##MEASURED CHEMISTRY=Cu_5.00_(Si_0.99_Al_0.01_O_3_)_4_((OH)_0.97_(H_2_O)_0.03_)_2_
93.40265, 0.0000000E+00
93.88477, 23.30268
94.36688, 22.37774
94.84900, 22.65061
95.33112, 23.99476
95.81323, 25.81193
96.29535, 27.94977
96.77747, 30.34381
97.25958, 32.70143
97.74170, 34.91941
98.22382, 37.29888
98.70593, 40.39123
99.18805, 44.23338
99.67017, 48.46842
100.1523, 52.95160
100.6344, 57.67694
101.1165, 62.28868
101.5986, 66.64067
102.0807, 70.84920
102.5629, 75.27710
103.0450, 80.07185
103.5271, 84.84866
104.0092, 89.25480
104.4913, 93.36893
104.9734, 97.00764
105.4556, 100.0678
105.9377, 102.4847
106.4198, 105.1504
106.9019, 108.1156
107.3840, 111.2772
107.8661, 114.4398
108.3483, 117.4792
108.8304, 120.7266
109.3125, 124.2112
109.7946, 127.8149
110.2767, 132.0551
110.7588, 137.1485
111.2410, 142.8801
111.7231, 148.8942
112.2052, 155.0943
112.6873, 161.7139
113.1694, 168.9129
113.6515, 177.2836
114.1337, 185.4359
114.6158, 193.1866
115.0979, 200.5553
115.5800, 207.7630
116.0621, 214.7693
116.5442, 221.6486
117.0264, 228.3362
117.5085, 234.8076
117.9906, 241.2701
118.4727, 247.8584
118.9548, 254.5399
119.4369, 261.0674
119.9191, 267.3128
120.4012, 273.4437
120.8833, 279.5771
121.3654, 286.5587
121.8475, 293.0326
122.3296, 298.2032
122.8118, 302.0526
123.2939, 304.8370
123.7760, 306.2285
124.2581, 306.7108
124.7402, 307.0932
125.2223, 307.0911
125.7045, 307.4546
126.1866, 309.0344
126.6687, 311.9243
127.1508, 315.7760
127.6329, 320.6624
128.1150, 326.3156
128.5972, 332.0342
129.0793, 337.5132
129.5614, 342.7328
130.0435, 347.8203
130.5256, 353.0626
131.0077, 357.4963
131.4899, 359.1578
131.9720, 358.2202
132.4541, 356.8606
132.9362, 355.3478
133.4183, 353.1982
133.9004, 351.1887
134.3826, 349.0074
134.8647, 347.0005
135.3468, 346.1011
135.8289, 346.3379
136.3110, 347.1635
136.7931, 348.1982
137.2753, 349.4320
137.7574, 350.8824
138.2395, 352.5199
138.7216, 354.3565
139.2037, 356.6804
139.6858, 359.6344
140.1680, 362.6944
140.6501, 365.5566
141.1322, 368.4292
141.6143, 370.3355
142.0964, 370.9930
142.5785, 370.3799
143.0607, 369.3681
143.5428, 367.9338
144.0249, 366.1348
144.5070, 363.9588
144.9891, 361.2408
145.4712, 358.5052
145.9534, 355.9084
146.4355, 353.3612
146.9176, 351.1754
147.3997, 349.4229
147.8818, 347.9852
148.3639, 346.5958
148.8461, 344.9311
149.3282, 343.6900
149.8103, 343.1076
150.2924, 343.2140
150.7745, 343.8759
151.2566, 345.6575
151.7388, 348.0186
152.2209, 349.4913
152.7030, 349.5656
153.1851, 349.1831
153.6672, 348.7067
154.1493, 348.6860
154.6315, 347.8697
155.1136, 345.4085
155.5957, 341.9027
156.0778, 339.5214
156.5599, 339.4008
157.0420, 339.8561
157.5242, 339.9821
158.0063, 339.1710
158.4884, 338.5253
158.9705, 338.2725
159.4526, 338.3673
159.9347, 338.5226
160.4169, 338.3121
160.8990, 338.3130
161.3811, 338.9406
161.8632, 341.0336
162.3453, 343.0659
162.8274, 344.3909
163.3096, 345.0613
163.7917, 345.8734
164.2738, 347.0373
164.7559, 348.5379
165.2380, 350.3605
165.7201, 352.5764
166.2023, 355.0497
166.6844, 357.7907
167.1665, 360.7986
167.6486, 363.8774
168.1307, 367.6662
168.6128, 371.3023
169.0949, 373.6564
169.5771, 373.5610
170.0592, 372.4897
170.5413, 371.3542
171.0234, 370.1790
171.5055, 369.2112
171.9876, 368.5279
172.4698, 368.1728
172.9519, 368.2254
173.4340, 368.6645
173.9161, 369.5590
174.3982, 371.0750
174.8803, 373.2895
175.3625, 375.7367
175.8446, 377.9205
176.3267, 379.9937
176.8088, 382.3072
177.2909, 386.2350
177.7730, 390.1354
178.2552, 391.3815
178.7373, 389.3158
179.2194, 386.2055
179.7015, 384.3144
180.1836, 383.3917
180.6657, 382.5194
181.1479, 380.7838
181.6300, 378.7537
182.1121, 377.6528
182.5942, 377.7421
183.0763, 378.4751
183.5584, 379.1640
184.0406, 379.8563
184.5227, 380.8376
185.0048, 382.0593
185.4869, 383.6857
185.9690, 386.3278
186.4511, 390.2153
186.9333, 394.8660
187.4154, 399.4223
187.8975, 403.9490
188.3796, 408.8740
188.8617, 414.9879
189.3438, 421.9500
189.8260, 428.3455
190.3081, 434.2841
190.7902, 439.2368
191.2723, 442.3784
191.7544, 443.7306
192.2365, 442.9289
192.7187, 439.1210
193.2008, 432.5443
193.6829, 425.3709
194.1650, 417.6312
194.6471, 409.6719
195.1292, 402.2150
195.6114, 395.1623
196.0935, 389.2950
196.5756, 385.9669
197.0577, 385.1289
197.5398, 383.5176
198.0219, 380.2821
198.5041, 375.9118
198.9862, 372.4445
199.4683, 369.9655
199.9504, 367.8284
200.4325, 365.5318
200.9146, 363.0758
201.3968, 360.5379
201.8789, 357.8902
202.3610, 355.1884
202.8431, 352.6894
203.3252, 350.4201
203.8073, 348.3600
204.2895, 346.5394
204.7716, 344.9886
205.2537, 343.5257
205.7358, 342.1772
206.2179, 340.9102
206.7000, 339.3510
207.1822, 337.3502
207.6643, 335.4829
208.1464, 334.3524
208.6285, 334.0918
209.1106, 333.9657
209.5927, 333.9055
210.0749, 333.8833
210.5570, 333.5057
211.0391, 332.5971
211.5212, 331.6551
212.0033, 331.1185
212.4854, 330.9952
212.9676, 331.2571
213.4497, 332.0799
213.9318, 333.4170
214.4139, 334.0971
214.8960, 333.9009
215.3781, 333.3961
215.8603, 333.1198
216.3424, 333.1087
216.8245, 333.2065
217.3066, 333.3095
217.7887, 333.4255
218.2708, 334.1307
218.7529, 335.7989
219.2351, 337.5759
219.7172, 338.4975
220.1993, 338.2822
220.6814, 337.9763
221.1635, 337.7671
221.6456, 337.6533
222.1278, 337.6263
222.6099, 337.6523
223.0920, 337.8040
223.5741, 338.1763
224.0562, 338.8791
224.5383, 339.5603
225.0205, 340.1505
225.5026, 340.6425
225.9847, 341.1585
226.4668, 341.7780
226.9489, 342.3315
227.4310, 342.6253
227.9132, 342.6033
228.3953, 342.4309
228.8774, 341.9737
229.3595, 341.1995
229.8416, 341.2838
230.3237, 342.8936
230.8059, 344.6758
231.2880, 345.1663
231.7701, 343.5172
232.2522, 342.2982
232.7343, 342.1572
233.2164, 343.1440
233.6986, 343.6386
234.1807, 343.3546
234.6628, 342.8667
235.1449, 342.7607
235.6270, 343.2457
236.1091, 343.6960
236.5913, 344.0210
237.0734, 344.2166
237.5555, 344.2475
238.0376, 343.9938
238.5197, 343.6934
239.0018, 343.5524
239.4840, 343.5182
239.9661, 343.7643
240.4482, 344.4886
240.9303, 345.6832
241.4124, 346.2765
241.8945, 345.8369
242.3767, 345.2610
242.8588, 345.4051
243.3409, 346.7793
243.8230, 347.9001
244.3051, 348.5005
244.7872, 348.5938
245.2694, 348.5804
245.7515, 348.0605
246.2336, 347.8779
246.7157, 348.8677
247.1978, 351.8893
247.6799, 354.3905
248.1621, 356.0460
248.6442, 356.8780
249.1263, 356.8274
249.6084, 355.1494
250.0905, 353.5185
250.5726, 353.3522
251.0548, 355.5376
251.5369, 357.2849
252.0190, 358.0597
252.5011, 358.0040
252.9832, 358.3099
253.4653, 359.0680
253.9475, 360.0588
254.4296, 361.1703
254.9117, 362.5374
255.3938, 363.6985
255.8759, 364.5403
256.3580, 365.1179
256.8401, 365.7305
257.3223, 366.3872
257.8044, 367.0597
258.2865, 367.7831
258.7686, 368.7022
259.2507, 369.2443
259.7328, 369.1851
260.2150, 368.7199
260.6971, 368.7760
261.1792, 369.8119
261.6613, 370.5641
262.1434, 370.1015
262.6255, 367.8368
263.1077, 366.2556
263.5898, 365.8291
264.0719, 366.1208
264.5540, 365.6869
265.0361, 364.2534
265.5182, 362.6726
266.0004, 361.2785
266.4825, 359.9714
266.9646, 359.3210
267.4467, 359.6029
267.9288, 360.4064
268.4109, 360.6281
268.8931, 360.0760
269.3752, 359.4361
269.8573, 358.9860
270.3394, 358.6970
270.8215, 358.7177
271.3036, 359.1034
271.7858, 359.7476
272.2679, 360.5443
272.7500, 361.6554
273.2321, 362.3507
273.7142, 361.9839
274.1964, 360.3112
274.6785, 359.9255
275.1606, 361.3102
275.6427, 363.3325
276.1248, 363.9855
276.6069, 363.0090
277.0891, 362.0018
277.5712, 361.6284
278.0533, 361.8984
278.5354, 362.0414
279.0175, 362.0552
279.4996, 361.9455
279.9818, 361.6265
280.4639, 361.0556
280.9460, 360.6858
281.4281, 360.7514
281.9102, 361.1976
282.3923, 361.5048
282.8745, 361.6874
283.3566, 361.6765
283.8387, 361.2974
284.3208, 360.5372
284.8029, 359.8624
285.2850, 359.4071
285.7672, 359.1449
286.2493, 358.9355
286.7314, 358.7677
287.2135, 358.7347
287.6956, 359.0265
288.1777, 359.6175
288.6599, 360.0454
289.1420, 360.0602
289.6241, 359.9170
290.1062, 360.4803
290.5883, 361.8020
291.0704, 363.1069
291.5526, 363.6673
292.0347, 363.6067
292.5168, 363.6236
292.9989, 363.8752
293.4810, 364.2494
293.9631, 364.4234
294.4453, 364.4134
294.9274, 364.6632
295.4095, 365.7071
295.8916, 367.2872
296.3737, 368.6177
296.8558, 369.5675
297.3380, 370.2029
297.8201, 370.4922
298.3022, 370.4903
298.7843, 370.5432
299.2664, 371.0957
299.7485, 371.8384
300.2307, 372.0180
300.7128, 371.4671
301.1949, 370.7307
301.6770, 370.3310
302.1591, 370.2469
302.6412, 370.3938
303.1234, 370.9679
303.6055, 371.6697
304.0876, 371.9102
304.5697, 371.5627
305.0518, 371.4606
305.5339, 372.6186
306.0161, 374.5895
306.4982, 376.4179
306.9803, 377.6432
307.4624, 378.5356
307.9445, 379.2283
308.4266, 379.7193
308.9088, 380.3421
309.3909, 381.3389
309.8730, 382.6191
310.3551, 384.0527
310.8372, 385.8037
311.3193, 387.5450
311.8015, 388.8485
312.2836, 389.8114
312.7657, 391.1268
313.2478, 393.7828
313.7299, 396.7453
314.2120, 399.0072
314.6942, 399.8224
315.1763, 400.3926
315.6584, 401.2729
316.1405, 402.4288
316.6226, 403.6694
317.1047, 405.2206
317.5869, 406.6498
318.0690, 407.6069
318.5511, 407.7433
319.0332, 407.9138
319.5153, 408.4912
319.9974, 409.3290
320.4796, 410.0857
320.9617, 410.3950
321.4438, 410.8017
321.9259, 411.6939
322.4080, 413.4341
322.8901, 414.6915
323.3723, 414.5450
323.8544, 413.8882
324.3365, 413.9970
324.8186, 415.5514
325.3007, 417.4942
325.7828, 419.5890
326.2650, 421.8539
326.7471, 424.1094
327.2292, 426.0665
327.7113, 428.1364
328.1934, 430.7217
328.6755, 434.0599
329.1577, 437.6703
329.6398, 441.6090
330.1219, 445.8856
330.6040, 449.8382
331.0861, 453.5856
331.5682, 456.9025
332.0504, 459.6620
332.5325, 461.9445
333.0146, 463.4850
333.4967, 464.3329
333.9788, 464.4327
334.4609, 463.5746
334.9431, 461.7992
335.4252, 458.9963
335.9073, 455.0059
336.3894, 449.2866
336.8715, 443.7812
337.3536, 438.6374
337.8358, 433.6315
338.3179, 428.0058
338.8000, 421.4580
339.2821, 415.2924
339.7642, 409.9355
340.2463, 405.4295
340.7284, 401.9335
341.2105, 399.8015
341.6927, 398.1490
342.1748, 395.6763
342.6569, 392.1991
343.1390, 389.3138
343.6211, 387.6005
344.1032, 386.9072
344.5854, 386.5878
345.0675, 386.7224
345.5496, 386.7519
346.0317, 386.0663
346.5138, 384.7094
346.9959, 383.3057
347.4781, 381.9156
347.9602, 380.6088
348.4423, 379.4889
348.9244, 378.5609
349.4065, 377.9122
349.8886, 377.8582
350.3708, 378.1573
350.8529, 378.0450
351.3350, 377.3380
351.8171, 376.4638
352.2992, 375.9135
352.7813, 375.6703
353.2635, 375.6343
353.7456, 376.1379
354.2277, 376.6767
354.7098, 376.2739
355.1919, 374.7684
355.6740, 373.4411
356.1562, 373.6047
356.6383, 374.7032
357.1204, 375.7593
357.6025, 376.2984
358.0846, 376.6781
358.5667, 377.2589
359.0489, 378.0100
359.5310, 378.5170
360.0131, 378.2643
360.4952, 377.7615
360.9773, 377.5390
361.4594, 377.9899
361.9416, 378.4333
362.4237, 378.6113
362.9058, 378.5461
363.3879, 378.3018
363.8700, 377.5129
364.3521, 376.8322
364.8343, 376.6529
365.3164, 377.1320
365.7985, 377.8656
366.2806, 379.0058
366.7627, 380.3084
367.2448, 381.3649
367.7270, 381.8959
368.2091, 382.3954
368.6912, 383.1284
369.1733, 384.2357
369.6554, 384.8003
370.1375, 384.0785
370.6197, 383.1926
371.1018, 383.1071
371.5839, 384.5190
372.0660, 385.7564
372.5481, 386.5164
373.0302, 386.8703
373.5124, 387.4289
373.9945, 388.3599
374.4766, 389.2567
374.9587, 389.9273
375.4408, 390.4287
375.9229, 390.4432
376.4051, 389.6288
376.8872, 388.5621
377.3693, 388.6320
377.8514, 390.1383
378.3335, 391.6997
378.8156, 392.6699
379.2978, 393.0514
379.7799, 393.7608
380.2620, 394.8929
380.7441, 396.1263
381.2262, 397.0029
381.7083, 397.5349
382.1905, 398.2127
382.6726, 399.1577
383.1547, 400.3495
383.6368, 401.7525
384.1189, 403.3752
384.6010, 405.0543
385.0832, 406.6758
385.5653, 408.2401
386.0474, 409.7476
386.5295, 411.1094
387.0116, 412.5712
387.4937, 414.5976
387.9759, 417.0462
388.4580, 419.4221
388.9401, 421.4133
389.4222, 423.2014
389.9043, 424.9318
390.3864, 426.6156
390.8686, 428.4380
391.3507, 430.3766
391.8328, 432.5883
392.3149, 435.2812
392.7970, 438.8972
393.2791, 442.6810
393.7613, 446.3376
394.2434, 449.8651
394.7255, 453.0336
395.2076, 455.3497
395.6897, 457.5128
396.1718, 460.0678
396.6540, 463.5763
397.1361, 466.7730
397.6182, 469.3578
398.1003, 471.4156
398.5824, 473.1404
399.0645, 474.8161
399.5467, 475.9321
400.0288, 476.3523
400.5109, 476.0999
400.9930, 474.9910
401.4751, 472.7602
401.9572, 469.8322
402.4394, 466.6266
402.9215, 463.1568
403.4036, 459.4008
403.8857, 455.3686
404.3678, 451.0414
404.8499, 446.3481
405.3321, 441.0412
405.8142, 435.7662
406.2963, 430.8275
406.7784, 426.0628
407.2605, 422.4981
407.7426, 420.5013
408.2248, 419.3312
408.7069, 417.5400
409.1890, 415.1060
409.6711, 412.6537
410.1532, 410.3392
410.6353, 408.2007
411.1175, 406.4958
411.5996, 405.2516
412.0817, 404.3075
412.5638, 403.5727
413.0459, 403.0269
413.5280, 402.5647
414.0102, 402.2126
414.4923, 401.8682
414.9744, 401.2918
415.4565, 400.5441
415.9386, 399.9487
416.4207, 399.6238
416.9029, 399.6059
417.3850, 400.0658
417.8671, 401.1625
418.3492, 402.1273
418.8313, 402.2833
419.3134, 401.9734
419.7956, 401.7500
420.2777, 401.8204
420.7598, 402.0434
421.2419, 402.2397
421.7240, 402.4261
422.2061, 403.0284
422.6883, 404.4306
423.1704, 406.1429
423.6525, 407.8305
424.1346, 409.1163
424.6167, 410.7703
425.0988, 413.3027
425.5810, 416.2632
426.0631, 418.5325
426.5452, 419.4630
427.0273, 420.3192
427.5094, 421.4780
427.9915, 422.9908
428.4737, 424.5680
428.9558, 426.2603
429.4379, 427.9854
429.9200, 429.6693
430.4021, 431.3200
430.8842, 432.9566
431.3664, 434.6833
431.8485, 436.3751
432.3306, 437.4423
432.8127, 437.7882
433.2948, 437.9653
433.7769, 438.1578
434.2591, 438.3911
434.7412, 439.1028
435.2233, 440.3281
435.7054, 441.9598
436.1875, 444.0641
436.6696, 446.5485
437.1518, 448.8750
437.6339, 450.7300
438.1160, 452.3770
438.5981, 454.1862
439.0802, 456.1634
439.5623, 458.3932
440.0444, 461.0624
440.5266, 463.9764
441.0087, 466.9132
441.4908, 469.8057
441.9729, 472.7829
442.4550, 476.0182
442.9371, 479.4056
443.4193, 482.7464
443.9014, 485.8203
444.3835, 488.9149
444.8656, 492.3797
445.3477, 496.2933
445.8298, 499.4273
446.3120, 501.0366
446.7941, 501.9652
447.2762, 502.8532
447.7583, 504.5276
448.2404, 505.2807
448.7225, 504.5685
449.2047, 502.7969
449.6868, 501.1772
450.1689, 500.0687
450.6510, 498.6132
451.1331, 496.5238
451.6152, 493.7504
452.0974, 490.5995
452.5795, 486.9749
453.0616, 483.1053
453.5437, 478.9297
454.0258, 474.3405
454.5079, 470.4672
454.9901, 467.6630
455.4722, 465.6333
455.9543, 463.3707
456.4364, 460.8604
456.9185, 458.7163
457.4006, 457.4427
457.8828, 456.8383
458.3649, 456.2718
458.8470, 455.7254
459.3291, 455.0682
459.8112, 454.0584
460.2933, 452.8389
460.7755, 451.7393
461.2576, 450.9492
461.7397, 450.2653
462.2218, 449.5670
462.7039, 448.8344
463.1860, 447.9863
463.6682, 446.9077
464.1503, 445.7339
464.6324, 444.5409
465.1145, 443.2503
465.5966, 442.1778
466.0787, 441.6301
466.5609, 441.2965
467.0430, 440.7853
467.5251, 439.8283
468.0072, 438.8842
468.4893, 438.0196
468.9714, 437.2351
469.4536, 436.5657
469.9357, 435.8093
470.4178, 435.3744
470.8999, 435.5571
471.3820, 436.7250
471.8641, 437.5471
472.3463, 437.9547
472.8284, 438.0793
473.3105, 438.1462
473.7926, 438.1817
474.2747, 437.9918
474.7568, 437.4760
475.2390, 436.6939
475.7211, 435.8587
476.2032, 434.9589
476.6853, 434.1003
477.1674, 433.4822
477.6495, 432.9679
478.1317, 432.1107
478.6138, 430.8047
479.0959, 429.3312
479.5780, 427.8198
480.0601, 426.3708
480.5422, 425.2430
481.0244, 424.7981
481.5065, 424.5255
481.9886, 423.8943
482.4707, 422.9777
482.9528, 422.4009
483.4349, 422.8880
483.9171, 423.5630
484.3992, 423.7188
484.8813, 422.8731
485.3634, 422.3084
485.8455, 422.4322
486.3276, 422.9815
486.8098, 423.5659
487.2919, 424.0628
487.7740, 424.6911
488.2561, 425.4429
488.7382, 426.3269
489.2203, 427.4809
489.7025, 428.9727
490.1846, 430.5997
490.6667, 432.2704
491.1488, 433.9915
491.6309, 435.5597
492.1130, 436.8116
492.5952, 438.1986
493.0773, 440.5205
493.5594, 443.7862
494.0415, 447.3075
494.5236, 451.0311
495.0057, 454.7820
495.4879, 458.1721
495.9700, 461.2135
496.4521, 464.2694
496.9342, 467.5352
497.4163, 471.0131
497.8984, 474.6342
498.3806, 478.4207
498.8627, 482.3652
499.3448, 486.2952
499.8269, 490.4615
500.3090, 495.2599
500.7911, 501.7860
501.2733, 508.0282
501.7554, 512.6986
502.2375, 516.1511
502.7196, 520.5137
503.2017, 527.0869
503.6838, 534.1139
504.1660, 540.5881
504.6481, 546.1255
505.1302, 552.3678
505.6123, 559.6868
506.0944, 567.4368
506.5765, 574.8252
507.0587, 581.7719
507.5408, 588.5785
508.0229, 595.5641
508.5050, 602.3864
508.9871, 608.1816
509.4692, 612.9241
509.9514, 616.8640
510.4335, 620.4259
510.9156, 623.4276
511.3977, 624.6185
511.8798, 623.9508
512.3619, 621.7039
512.8441, 618.1840
513.3262, 613.2932
513.8083, 606.6448
514.2904, 597.5386
514.7725, 587.6652
515.2546, 578.2898
515.7368, 569.4071
516.2189, 560.7698
516.7010, 552.5508
517.1831, 544.3168
517.6652, 535.5763
518.1473, 526.2593
518.6295, 517.6411
519.1116, 509.7097
519.5937, 502.7983
520.0758, 497.2274
520.5579, 494.4012
521.0400, 491.0165
521.5222, 486.6303
522.0043, 481.8517
522.4864, 477.7668
522.9685, 474.4567
523.4506, 471.6815
523.9327, 469.5724
524.4149, 468.0121
524.8970, 466.1392
525.3791, 463.8242
525.8612, 461.8553
526.3433, 461.2504
526.8254, 461.6447
527.3076, 460.7920
527.7897, 458.2839
528.2718, 455.4288
528.7539, 453.5437
529.2360, 452.4716
529.7181, 451.8385
530.2003, 452.0470
530.6824, 452.0813
531.1645, 450.9590
531.6466, 448.8874
532.1287, 446.5659
532.6108, 443.9232
533.0930, 441.4436
533.5751, 439.5172
534.0572, 438.3682
534.5393, 436.8783
535.0214, 434.1758
535.5035, 431.4037
535.9857, 429.6516
536.4678, 429.7849
536.9499, 429.5432
537.4320, 428.6997
537.9141, 427.4351
538.3962, 426.1573
538.8784, 424.7953
539.3605, 423.5909
539.8426, 422.6473
540.3247, 421.9329
540.8068, 421.3546
541.2889, 420.9166
541.7711, 420.5691
542.2532, 420.3062
542.7353, 420.1086
543.2174, 419.9269
543.6995, 419.7634
544.1816, 419.5877
544.6638, 419.3249
545.1459, 419.0349
545.6280, 418.8304
546.1101, 418.7462
546.5922, 418.7702
547.0743, 418.9150
547.5565, 419.1634
548.0386, 419.4569
548.5207, 419.7289
549.0028, 420.0715
549.4849, 420.5455
549.9670, 421.1927
550.4492, 421.7903
550.9313, 422.1582
551.4134, 422.6177
551.8955, 423.5094
552.3776, 425.1315
552.8597, 426.3331
553.3419, 426.9064
553.8240, 427.1358
554.3061, 427.5209
554.7882, 428.0593
555.2703, 428.8720
555.7524, 430.0992
556.2346, 431.5811
556.7167, 432.8558
557.1988, 433.9387
557.6809, 435.0442
558.1630, 436.2290
558.6451, 437.5703
559.1273, 439.3590
559.6094, 441.7838
560.0915, 443.6964
560.5736, 443.5772
561.0557, 442.8505
561.5378, 443.1632
562.0200, 446.0973
562.5021, 448.8966
562.9842, 451.0659
563.4663, 452.5938
563.9484, 453.4930
564.4305, 453.3476
564.9127, 453.1069
565.3948, 453.0280
565.8769, 453.1152
566.3590, 453.2534
566.8411, 453.7177
567.3232, 453.6156
567.8054, 452.0788
568.2875, 449.1080
568.7696, 446.3857
569.2517, 444.0328
569.7338, 441.8708
570.2159, 439.6614
570.6981, 437.4476
571.1802, 435.2270
571.6623, 432.9948
572.1444, 430.7726
572.6265, 428.3009
573.1086, 425.7902
573.5908, 423.8701
574.0729, 423.3410
574.5550, 423.0719
575.0371, 422.3488
575.5192, 421.1066
576.0013, 419.9663
576.4835, 418.9330
576.9656, 418.1540
577.4477, 417.7438
577.9298, 418.0453
578.4119, 418.0500
578.8940, 417.7434
579.3762, 417.1444
579.8583, 416.0732
580.3404, 414.2788
580.8225, 413.3514
581.3046, 412.9153
581.7867, 414.0904
582.2689, 414.7224
582.7510, 414.8405
583.2331, 412.9053
583.7152, 413.6215
584.1973, 413.2751
584.6794, 412.8852
585.1616, 413.9745
585.6437, 412.3380
586.1258, 413.4038
586.6079, 413.3910
587.0900, 413.8718
587.5721, 413.2836
588.0542, 413.0255
588.5363, 413.8369
589.0184, 414.0562
589.5005, 413.3448
589.9827, 413.8571
590.4648, 412.1832
590.9469, 412.4276
591.4290, 413.4998
591.9111, 412.8423
592.3932, 413.3740
592.8754, 413.4528
593.3575, 411.4731
593.8396, 413.0734
594.3217, 413.1254
594.8038, 411.5878
595.2859, 413.0654
595.7681, 411.7469
596.2502, 411.4264
596.7323, 411.8571
597.2144, 411.5047
597.6965, 412.3869
598.1786, 412.0797
598.6608, 411.4181
599.1429, 411.2328
599.6250, 410.8564
600.1071, 410.6963
600.5892, 411.0220
601.0714, 411.6685
601.5535, 412.2583
602.0356, 412.9826
602.5177, 413.3368
602.9998, 413.0401
603.4819, 412.1474
603.9641, 411.6944
604.4462, 411.8392
604.9283, 412.0463
605.4104, 411.9703
605.8925, 411.6126
606.3746, 411.4108
606.8568, 411.3757
607.3389, 411.4583
607.8210, 411.6872
608.3031, 411.9981
608.7852, 412.1919
609.2673, 412.1793
609.7495, 412.1807
610.2316, 412.4519
610.7137, 412.8728
611.1958, 413.2343
611.6779, 413.7328
612.1600, 413.8744
612.6422, 413.1364
613.1243, 411.7598
613.6064, 410.9404
614.0885, 411.2884
614.5706, 411.7379
615.0527, 411.9751
615.5349, 411.9873
616.0170, 411.8494
616.4991, 411.3641
616.9812, 411.1824
617.4633, 412.1268
617.9454, 414.1198
618.4276, 415.1077
618.9097, 414.8125
619.3918, 414.1352
619.8739, 414.1088
620.3560, 414.5139
620.8381, 414.8014
621.3203, 414.7141
621.8024, 414.6147
622.2845, 414.8553
622.7666, 415.2886
623.2487, 415.6050
623.7308, 415.4107
624.2130, 415.3609
624.6951, 415.8214
625.1772, 416.7451
625.6593, 417.4274
626.1414, 418.0530
626.6235, 418.1701
627.1057, 417.3154
627.5878, 415.3043
628.0699, 414.6307
628.5520, 415.5839
629.0341, 416.9574
629.5162, 417.6782
629.9984, 417.8526
630.4805, 418.1009
630.9626, 418.5411
631.4447, 418.8640
631.9268, 418.4524
632.4089, 417.7217
632.8911, 417.4579
633.3732, 418.2283
633.8553, 419.1376
634.3374, 419.8904
634.8195, 420.3958
635.3016, 420.4438
635.7838, 419.2003
636.2659, 418.3130
636.7480, 418.5187
637.2301, 419.6437
637.7122, 420.1287
638.1943, 419.7016
638.6765, 419.1911
639.1586, 419.0437
639.6407, 419.2531
640.1228, 419.0970
640.6049, 418.5121
641.0870, 418.0405
641.5692, 418.2912
642.0513, 419.0280
642.5334, 419.6985
643.0155, 420.2190
643.4976, 420.6560
643.9797, 421.0470
644.4619, 421.3885
644.9440, 421.6800
645.4261, 421.7898
645.9082, 421.9990
646.3903, 422.3668
646.8724, 422.8900
647.3546, 423.5910
647.8367, 425.0358
648.3188, 425.7817
648.8009, 425.1012
649.2830, 423.4800
649.7651, 423.5354
650.2473, 425.6553
650.7294, 427.4258
651.2115, 427.1693
651.6936, 425.5468
652.1757, 425.4948
652.6578, 426.9879
653.1400, 428.3335
653.6221, 427.6982
654.1042, 426.4191
654.5863, 426.2796
655.0684, 427.6686
655.5505, 429.1102
656.0327, 430.2230
656.5148, 430.8358
656.9969, 430.7603
657.4790, 428.9688
657.9611, 427.9575
658.4432, 428.2989
658.9254, 429.1806
659.4075, 429.3717
659.8896, 428.6186
660.3717, 428.1137
660.8538, 428.1443
661.3359, 428.5004
661.8181, 428.8014
662.3002, 429.0301
662.7823, 429.0181
663.2644, 428.6302
663.7465, 427.9892
664.2286, 427.0907
664.7108, 426.0272
665.1929, 425.2284
665.6750, 425.1021
666.1571, 425.1732
666.6392, 425.1171
667.1213, 424.8820
667.6035, 424.8390
668.0856, 425.1888
668.5677, 425.6355
669.0498, 426.1011
669.5319, 426.7452
670.0140, 426.7658
670.4962, 425.9655
670.9783, 424.9985
671.4604, 424.5953
671.9425, 424.7065
672.4246, 424.8621
672.9067, 425.0103
673.3889, 425.0985
673.8710, 425.0963
674.3531, 424.9799
674.8352, 424.6845
675.3173, 423.8553
675.7994, 423.2380
676.2816, 423.5170
676.7637, 424.2870
677.2458, 424.6489
677.7279, 423.7553
678.2100, 423.1762
678.6921, 423.4460
679.1743, 424.3583
679.6564, 424.6748
680.1385, 424.1722
680.6206, 423.7687
681.1027, 423.9485
681.5848, 424.5829
682.0670, 425.0509
682.5491, 425.3578
683.0312, 425.4308
683.5133, 424.8620
683.9954, 424.1924
684.4775, 424.3567
684.9597, 425.4866
685.4418, 426.3494
685.9239, 426.0051
686.4060, 425.2472
686.8881, 424.7008
687.3702, 424.5390
687.8524, 424.4232
688.3345, 424.1660
688.8166, 424.0645
689.2987, 424.5380
689.7808, 425.8310
690.2629, 426.6426
690.7451, 426.7948
691.2272, 426.4921
691.7093, 425.8410
692.1914, 424.9647
692.6735, 424.4735
693.1556, 424.7688
693.6378, 425.2446
694.1199, 425.0842
694.6020, 424.5835
695.0841, 424.4460
695.5662, 425.5547
696.0483, 426.5049
696.5305, 426.6454
697.0126, 426.0745
697.4947, 425.4771
697.9768, 424.6874
698.4589, 424.1750
698.9410, 424.1965
699.4232, 424.6947
699.9053, 424.8905
700.3874, 424.7475
700.8695, 424.5920
701.3516, 424.6220
701.8337, 424.8081
702.3159, 425.0673
702.7980, 425.3993
703.2801, 425.8294
703.7622, 426.5353
704.2443, 427.2592
704.7264, 427.8184
705.2086, 428.2511
705.6907, 428.2127
706.1728, 426.9652
706.6549, 425.6161
707.1370, 425.1053
707.6191, 425.9787
708.1013, 426.3777
708.5834, 425.9796
709.0655, 425.5404
709.5476, 426.3786
710.0297, 428.3806
710.5118, 429.4298
710.9940, 428.9372
711.4761, 427.8218
711.9582, 427.0322
712.4403, 426.5524
712.9224, 426.3666
713.4045, 426.6777
713.8867, 427.0466
714.3688, 427.3579
714.8509, 427.5611
715.3330, 427.5527
715.8151, 426.8613
716.2972, 426.5317
716.7794, 426.9534
717.2615, 427.8595
717.7436, 428.1702
718.2257, 427.7448
718.7078, 427.4260
719.1899, 427.6828
719.6721, 428.2460
720.1542, 428.2624
720.6363, 427.8084
721.1184, 427.4970
721.6005, 427.8614
722.0826, 428.4482
722.5648, 428.8613
723.0469, 429.0830
723.5290, 429.2143
724.0111, 429.2652
724.4932, 429.2553
724.9753, 429.2040
725.4575, 429.1273
725.9396, 428.9256
726.4217, 428.4991
726.9038, 428.1658
727.3859, 428.2624
727.8680, 428.7481
728.3502, 428.8748
728.8323, 428.5826
729.3144, 428.2323
729.7965, 428.1085
730.2786, 428.1731
730.7607, 428.4033
731.2429, 428.8415
731.7250, 429.2294
732.2071, 429.3408
732.6892, 429.3770
733.1713, 429.5329
733.6534, 430.1660
734.1356, 430.3940
734.6177, 429.8755
735.0998, 429.2646
735.5819, 429.6410
736.0640, 431.1616
736.5461, 431.7558
737.0283, 430.8132
737.5104, 429.4785
737.9925, 429.7485
738.4746, 431.0313
738.9567, 431.7211
739.4388, 430.7164
739.9210, 429.7519
740.4031, 430.2632
740.8852, 431.6100
741.3673, 432.5749
741.8494, 432.7396
742.3315, 432.5873
742.8137, 431.9040
743.2958, 431.0460
743.7779, 431.1226
744.2600, 432.4088
744.7421, 433.4136
745.2242, 433.5931
745.7064, 433.2291
746.1885, 432.9465
746.6706, 432.7486
747.1527, 432.6580
747.6348, 432.6950
748.1169, 432.8417
748.5991, 433.0816
749.0812, 433.4185
749.5633, 433.8620
750.0454, 434.6848
750.5275, 435.3314
751.0096, 435.4423
751.4918, 435.0830
751.9739, 435.2041
752.4560, 435.9932
752.9381, 436.7236
753.4202, 436.9631
753.9023, 436.8209
754.3845, 436.8332
754.8666, 436.9976
755.3487, 437.3446
755.8308, 438.1248
756.3129, 438.9597
756.7950, 439.4720
757.2772, 439.6351
757.7593, 439.4902
758.2414, 438.5155
758.7235, 437.6940
759.2056, 437.7138
759.6877, 438.7679
760.1699, 439.4042
760.6520, 439.4213
761.1341, 439.4533
761.6162, 440.0701
762.0983, 441.1879
762.5804, 441.9814
763.0626, 442.4106
763.5447, 442.8104
764.0268, 443.4648
764.5089, 444.2784
764.9910, 445.1006
765.4731, 445.8972
765.9553, 446.7833
766.4374, 448.0213
766.9195, 449.2260
767.4016, 450.0666
767.8837, 450.3826
768.3658, 450.6599
768.8480, 450.6607
769.3301, 451.0176
769.8122, 452.7959
770.2943, 455.7766
770.7764, 457.5075
771.2585, 457.5794
771.7407, 457.2753
772.2228, 457.7984
772.7049, 458.8177
773.1870, 459.8876
773.6691, 460.9451
774.1512, 461.9538
774.6334, 463.1489
775.1155, 464.1631
775.5976, 464.5780
776.0797, 464.0702
776.5618, 463.6719
777.0439, 463.4580
777.5261, 463.3153
778.0082, 463.1656
778.4903, 462.9861
778.9724, 462.5675
779.4545, 461.8846
779.9366, 460.9008
780.4188, 459.3761
780.9009, 457.5844
781.3830, 455.9821
781.8651, 454.7535
782.3472, 453.6208
782.8293, 452.4754
783.3115, 451.3902
783.7936, 450.4821
784.2757, 449.8715
784.7578, 449.1223
785.2399, 448.1102
785.7220, 447.0833
786.2041, 446.5329
786.6862, 446.3762
787.1683, 446.0457
787.6505, 445.2836
788.1326, 444.5485
788.6147, 444.2541
789.0968, 444.2897
789.5789, 444.4815
790.0610, 445.0288
790.5432, 445.3955
791.0253, 445.4208
791.5074, 445.1944
791.9895, 444.8610
792.4716, 444.4366
792.9537, 443.8249
793.4359, 442.9563
793.9180, 441.9954
794.4001, 441.0240
794.8822, 440.1585
795.3643, 439.9381
795.8464, 440.7845
796.3286, 441.8552
796.8107, 442.7026
797.2928, 443.2301
797.7749, 443.2791
798.2570, 442.3825
798.7391, 441.5228
799.2213, 440.6738
799.7034, 440.0415
800.1855, 440.0884
800.6676, 440.9624
801.1497, 441.6283
801.6318, 441.8045
802.1140, 441.7875
802.5961, 442.1362
803.0782, 442.7150
803.5603, 443.1318
804.0424, 443.2597
804.5245, 443.1702
805.0067, 442.8672
805.4888, 442.3934
805.9709, 441.8130
806.4530, 440.8528
806.9351, 440.1524
807.4172, 439.6592
807.8994, 439.5491
808.3815, 440.3723
808.8636, 442.1719
809.3457, 443.6138
809.8278, 444.3763
810.3099, 444.6449
810.7921, 444.4472
811.2742, 443.9740
811.7563, 443.6274
812.2384, 443.7100
812.7205, 443.7221
813.2026, 443.1666
813.6848, 442.4941
814.1669, 442.5265
814.6490, 443.9422
815.1311, 444.6505
815.6132, 444.1794
816.0953, 443.2300
816.5775, 442.9754
817.0596, 443.3493
817.5417, 443.9055
818.0238, 444.6785
818.5059, 445.2362
818.9880, 444.9364
819.4702, 444.1881
819.9523, 443.6005
820.4344, 443.1219
820.9165, 443.1396
821.3986, 444.1699
821.8807, 445.5197
822.3629, 446.3060
822.8450, 446.4176
823.3271, 446.4880
823.8092, 446.5807
824.2913, 446.6873
824.7734, 446.7594
825.2556, 446.8301
825.7377, 447.0099
826.2198, 447.3407
826.7019, 447.7176
827.1840, 448.2588
827.6661, 448.7182
828.1483, 448.8195
828.6304, 447.8924
829.1125, 447.5245
829.5946, 448.0288
830.0767, 448.7684
830.5588, 448.8538
831.0410, 448.3121
831.5231, 448.4507
832.0052, 449.5679
832.4873, 450.7319
832.9694, 450.6182
833.4515, 449.9912
833.9337, 450.0525
834.4158, 451.3177
834.8979, 452.4616
835.3800, 452.8609
835.8621, 453.0459
836.3442, 453.4633
836.8264, 454.1224
837.3085, 455.0606
837.7906, 456.4036
838.2727, 457.6023
838.7548, 457.9061
839.2369, 457.6082
839.7191, 457.6846
840.2012, 458.2498
840.6833, 459.0366
841.1654, 460.0782
841.6475, 461.1149
842.1296, 461.8976
842.6118, 462.2971
843.0939, 462.8647
843.5760, 463.8268
844.0581, 464.7241
844.5402, 465.1430
845.0223, 465.0717
845.5045, 465.6991
845.9866, 467.0721
846.4687, 468.3299
846.9508, 468.5081
847.4329, 468.3137
847.9150, 468.8015
848.3972, 470.0237
848.8793, 470.8904
849.3614, 470.6096
849.8435, 470.2008
850.3256, 470.2659
850.8077, 470.8077
851.2899, 470.7825
851.7720, 470.0205
852.2541, 469.3419
852.7362, 469.4271
853.2183, 469.8943
853.7004, 469.7328
854.1826, 468.9945
854.6647, 467.9909
855.1468, 466.5616
855.6289, 465.2545
856.1110, 464.6055
856.5931, 464.5059
857.0753, 463.8860
857.5574, 462.2547
858.0395, 460.8966
858.5216, 460.2354
859.0037, 460.1199
859.4858, 460.2458
859.9680, 460.5578
860.4501, 460.4754
860.9322, 459.4386
861.4143, 458.1884
861.8964, 457.3166
862.3785, 456.8082
862.8607, 456.6082
863.3428, 457.0217
863.8249, 457.3526
864.3070, 457.4351
864.7891, 457.3680
865.2712, 457.3664
865.7534, 457.4501
866.2355, 457.3963
866.7176, 457.1401
867.1997, 456.7665
867.6818, 456.1404
868.1639, 455.5306
868.6461, 455.5308
869.1282, 456.9096
869.6103, 457.8540
870.0924, 457.1515
870.5745, 455.9088
871.0566, 455.5801
871.5388, 456.7290
872.0209, 457.0167
872.5030, 456.0585
872.9851, 454.9159
873.4672, 454.8913
873.9493, 455.6860
874.4315, 456.5254
874.9136, 457.3466
875.3957, 457.7856
875.8778, 457.0393
876.3599, 456.1845
876.8420, 456.2683
877.3242, 457.9034
877.8063, 458.7361
878.2884, 458.4434
878.7705, 457.9180
879.2526, 457.7676
879.7347, 457.9458
880.2169, 458.1199
880.6990, 458.2797
881.1811, 458.3347
881.6632, 457.9890
882.1453, 457.6725
882.6274, 457.8565
883.1096, 458.5288
883.5917, 459.0745
884.0738, 459.2837
884.5559, 459.4682
885.0380, 459.7371
885.5201, 460.0669
886.0023, 460.3441
886.4844, 460.5719
886.9665, 460.6596
887.4486, 460.4623
887.9307, 460.2029
888.4128, 460.1501
888.8950, 460.2549
889.3771, 460.3857
889.8592, 460.8417
890.3413, 460.8712
890.8234, 459.7453
891.3055, 458.3549
891.7877, 458.7298
892.2698, 461.1411
892.7519, 462.7717
893.2340, 462.9355
893.7161, 462.3174
894.1982, 461.3508
894.6804, 460.3869
895.1625, 460.0797
895.6446, 460.8642
896.1267, 461.7437
896.6088, 462.5461
897.0909, 463.1512
897.5731, 463.4429
898.0552, 463.3200
898.5373, 463.1795
899.0194, 462.9713
899.5015, 462.9602
899.9836, 463.6616
900.4658, 464.6740
900.9479, 465.0450
901.4300, 464.6773
901.9121, 464.4490
902.3942, 465.3200
902.8763, 466.0872
903.3585, 465.6231
903.8406, 463.8988
904.3227, 463.5268
904.8048, 464.9319
905.2869, 466.3509
905.7690, 467.0041
906.2512, 466.9781
906.7333, 466.1964
907.2154, 464.8675
907.6975, 463.9664
908.1796, 464.5226
908.6617, 465.1383
909.1439, 464.8712
909.6260, 464.0540
910.1081, 463.8152
910.5902, 464.4171
911.0723, 464.9830
911.5544, 465.3270
912.0366, 465.5692
912.5187, 466.1057
913.0008, 466.7503
913.4829, 466.7238
913.9650, 465.4639
914.4471, 464.4305
914.9293, 464.8535
915.4114, 465.9066
915.8935, 466.6623
916.3756, 467.0104
916.8577, 467.0276
917.3398, 466.5479
917.8220, 466.0804
918.3041, 466.0571
918.7862, 466.4456
919.2683, 467.1957
919.7504, 468.2982
920.2325, 469.4612
920.7147, 470.8069
921.1968, 471.8710
921.6789, 472.1732
922.1610, 471.6382
922.6431, 471.4109
923.1252, 471.6380
923.6074, 471.9160
924.0895, 472.0562
924.5716, 472.1389
925.0537, 472.4535
925.5358, 472.9708
926.0179, 473.5309
926.5001, 474.0084
926.9822, 474.5541
927.4643, 475.2936
927.9464, 476.1819
928.4285, 477.1209
928.9106, 478.2328
929.3928, 479.1116
929.8749, 479.6392
930.3570, 480.0349
930.8391, 480.6445
931.3212, 481.4206
931.8033, 482.0915
932.2855, 482.5475
932.7676, 483.2072
933.2497, 484.7488
933.7318, 486.3970
934.2139, 487.3354
934.6960, 487.0521
935.1782, 487.6244
935.6603, 489.5124
936.1424, 491.2872
936.6245, 491.9227
937.1066, 491.6654
937.5887, 491.4870
938.0709, 491.4192
938.5530, 491.6891
939.0351, 492.7075
939.5172, 493.8782
939.9993, 495.1101
940.4814, 496.2233
940.9636, 496.2819
941.4457, 494.4908
941.9278, 493.6648
942.4099, 494.7447
942.8920, 496.7773
943.3741, 497.9619
943.8563, 498.4999
944.3384, 499.1122
944.8205, 500.0129
945.3026, 501.0201
945.7847, 502.1068
946.2668, 503.1828
946.7490, 504.1044
947.2311, 504.5971
947.7132, 505.7608
948.1953, 507.8691
948.6774, 509.8401
949.1595, 510.5031
949.6417, 510.3185
950.1238, 510.3192
950.6059, 510.5871
951.0880, 511.2879
951.5701, 513.0988
952.0522, 514.8333
952.5344, 515.8757
953.0165, 516.2635
953.4986, 516.1915
953.9807, 515.6473
954.4628, 514.6554
954.9449, 513.1033
955.4271, 511.2884
955.9092, 509.7224
956.3913, 508.3253
956.8734, 506.9069
957.3555, 505.2889
957.8376, 503.7885
958.3198, 502.6879
958.8019, 501.6573
959.2840, 500.3087
959.7661, 498.6035
960.2482, 496.7769
960.7303, 494.8206
961.2125, 492.8423
961.6946, 490.6217
962.1767, 488.5851
962.6588, 487.4387
963.1409, 487.2486
963.6230, 487.1369
964.1052, 486.9839
964.5873, 486.6493
965.0694, 486.0187
965.5515, 485.1588
966.0336, 484.3748
966.5157, 483.6680
966.9979, 483.4354
967.4800, 484.1824
967.9621, 485.0211
968.4442, 484.7335
968.9263, 483.8359
969.4084, 483.2737
969.8906, 483.5012
970.3727, 483.8558
970.8548, 484.4476
971.3369, 484.9383
971.8190, 484.8712
972.3011, 484.3062
972.7833, 483.7753
973.2654, 483.3186
973.7475, 483.0869
974.2296, 483.0914
974.7117, 483.4498
975.1938, 484.5720
975.6760, 486.4937
976.1581, 487.3205
976.6402, 486.3301
977.1223, 485.6451
977.6044, 486.3039
978.0865, 487.6473
978.5687, 487.6260
979.0508, 486.6155
979.5329, 486.0316
980.0150, 486.8155
980.4971, 487.7213
980.9792, 488.1541
981.4614, 488.2778
981.9435, 488.2804
982.4255, 487.9918
982.9077, 488.3080
983.3898, 489.4819
983.8719, 490.4938
984.3540, 489.9382
984.8361, 488.6063
985.3182, 487.9118
985.8004, 487.9570
986.2825, 488.3386
986.7646, 489.2897
987.2467, 490.0713
987.7288, 490.2803
988.2109, 490.0341
988.6931, 489.9523
989.1752, 490.0307
989.6573, 490.2852
990.1394, 490.9546
990.6215, 491.4131
991.1036, 490.4984
991.5858, 488.9922
992.0679, 488.1720
992.5500, 488.8383
993.0321, 489.5962
993.5142, 490.6230
993.9963, 491.3644
994.4785, 491.1281
994.9606, 490.0632
995.4427, 489.2915
995.9248, 488.8679
996.4069, 488.6735
996.8890, 488.8952
997.3712, 489.0787
997.8533, 488.7653
998.3354, 488.0236
998.8175, 487.6334
999.2996, 487.7260
999.7817, 487.7947
1000.264, 487.6713
1000.746, 487.4751
1001.228, 487.4833
1001.710, 487.5868
1002.192, 487.4908
1002.674, 486.9669
1003.157, 486.6256
1003.639, 486.8952
1004.121, 487.3508
1004.603, 487.7771
1005.085, 488.2781
1005.567, 487.7488
1006.049, 486.1043
1006.531, 484.5908
1007.013, 484.2740
1007.496, 484.4394
1007.978, 484.3687
1008.460, 484.0432
1008.942, 483.4633
1009.424, 482.4565
1009.906, 481.3746
1010.388, 480.0629
1010.870, 478.9113
1011.353, 478.7549
1011.835, 479.4161
1012.317, 480.0668
1012.799, 480.5976
1013.281, 480.7403
1013.763, 480.0202
1014.245, 479.0041
1014.727, 478.1142
1015.209, 477.3492
1015.692, 477.0616
1016.174, 477.4189
1016.656, 477.6240
1017.138, 477.1061
1017.620, 476.3193
1018.102, 476.2576
1018.584, 476.6949
1019.066, 477.0045
1019.549, 476.6324
1020.031, 476.5049
1020.513, 477.0720
1020.995, 477.7890
1021.477, 478.0133
1021.959, 477.7328
1022.441, 477.4072
1022.923, 477.0547
1023.405, 476.8177
1023.888, 476.8642
1024.370, 477.0400
1024.852, 477.2299
1025.334, 477.4218
1025.816, 477.6099
1026.298, 477.8755
1026.780, 477.9501
1027.262, 477.7041
1027.745, 477.2974
1028.227, 476.9493
1028.709, 476.7264
1029.191, 476.8820
1029.673, 477.8004
1030.155, 478.3241
1030.637, 477.4762
1031.119, 476.3697
1031.601, 475.8773
1032.084, 476.0428
1032.566, 476.5030
1033.048, 477.2834
1033.530, 477.8190
1034.012, 477.4311
1034.494, 476.8195
1034.976, 476.7403
1035.458, 477.0774
1035.941, 477.4086
1036.423, 477.6043
1036.905, 477.9063
1037.387, 478.4504
1037.869, 478.9396
1038.351, 478.7436
1038.833, 478.1283
1039.315, 478.1248
1039.797, 478.9278
1040.280, 479.4698
1040.762, 478.7687
1041.244, 477.9171
1041.726, 477.4037
1042.208, 477.2719
1042.690, 478.1780
1043.172, 480.2340
1043.654, 481.8227
1044.136, 482.2321
1044.619, 482.0568
1045.101, 481.7699
1045.583, 481.4940
1046.065, 481.4395
1046.547, 481.9322
1047.029, 482.0840
1047.511, 481.6152
1047.993, 481.2637
1048.476, 481.9253
1048.958, 483.2042
1049.440, 483.3009
1049.922, 482.3760
1050.404, 481.6825
1050.886, 482.0259
1051.368, 482.6540
1051.850, 483.3286
1052.333, 484.0064
1052.815, 484.6103
1053.297, 485.1292
1053.779, 485.7952
1054.261, 486.6993
1054.743, 487.4514
1055.225, 487.4054
1055.707, 487.1391
1056.189, 487.2993
1056.672, 487.9921
1057.154, 488.7780
1057.636, 489.6276
1058.118, 490.5587
1058.600, 491.6736
1059.082, 492.7781
1059.564, 493.3574
1060.046, 493.5181
1060.528, 493.5631
1061.011, 493.4469
1061.493, 493.5094
1061.975, 494.0863
1062.457, 494.7320
1062.939, 495.0762
1063.421, 495.0921
1063.903, 495.1234
1064.385, 495.1695
1064.868, 495.2921
1065.350, 495.6217
1065.832, 495.9748
1066.314, 496.3505
1066.796, 496.6218
1067.278, 496.3991
1067.760, 495.4793
1068.242, 494.5765
1068.724, 493.7422
1069.207, 493.0851
1069.689, 492.7696
1070.171, 492.7227
1070.653, 492.9336
1071.135, 493.3928
1071.617, 493.4975
1072.099, 492.3882
1072.581, 491.6475
1073.063, 492.0401
1073.546, 493.0603
1074.028, 492.8888
1074.510, 491.7645
1074.992, 491.3394
1075.474, 492.3929
1075.956, 493.4135
1076.438, 493.1560
1076.920, 492.4673
1077.403, 492.2217
1077.885, 492.5509
1078.367, 492.4139
1078.849, 491.7690
1079.331, 491.0645
1079.813, 490.5098
1080.295, 490.1123
1080.777, 489.9206
1081.259, 489.8875
1081.742, 489.8999
1082.224, 490.2589
1082.706, 490.0792
1083.188, 489.0670
1083.670, 488.0089
1084.152, 487.6798
1084.634, 487.9520
1085.116, 488.6103
1085.599, 489.5754
1086.081, 490.3105
1086.563, 490.8087
1087.045, 490.6774
1087.527, 489.3909
1088.009, 487.6295
1088.491, 487.0836
1088.973, 487.6661
1089.455, 487.3667
1089.938, 485.6206
1090.420, 484.2028
1090.902, 484.9515
1091.384, 486.4157
1091.866, 487.5045
1092.348, 488.1366
1092.830, 488.2142
1093.312, 487.6735
1093.794, 486.9079
1094.277, 485.9286
1094.759, 485.0436
1095.241, 484.7341
1095.723, 484.8129
1096.205, 484.9728
1096.687, 485.0924
1097.169, 485.4767
1097.651, 486.4274
1098.134, 487.0587
1098.616, 486.4424
1099.098, 485.0881
1099.580, 484.7219
1100.062, 485.2128
1100.544, 486.0047
1101.026, 487.5045
1101.508, 488.4310
1101.990, 488.0472
1102.473, 487.1829
1102.955, 486.7718
1103.437, 486.7946
1103.919, 486.6149
1104.401, 486.1968
1104.883, 485.8369
1105.365, 485.7563
1105.847, 485.7977
1106.329, 485.8700
1106.812, 485.9746
1107.294, 486.1283
1107.776, 486.3314
1108.258, 486.5773
1108.740, 486.8894
1109.222, 487.1172
1109.704, 486.9479
1110.186, 486.6885
1110.669, 486.6985
1111.151, 487.0352
1111.633, 487.4615
1112.115, 488.0721
1112.597, 488.4540
1113.079, 488.3929
1113.561, 488.1410
1114.043, 488.2873
1114.526, 488.5896
1115.008, 488.4606
1115.490, 487.4991
1115.972, 486.9264
1116.454, 487.3554
1116.936, 487.7701
1117.418, 487.5238
1117.900, 486.8039
1118.382, 486.5506
1118.865, 486.6786
1119.347, 486.7834
1119.829, 486.5456
1120.311, 486.4176
1120.793, 486.5738
1121.275, 486.9527
1121.757, 487.5645
1122.239, 488.4278
1122.721, 489.2050
1123.204, 489.8773
1123.686, 489.8889
1124.168, 487.8253
1124.650, 485.9478
1125.132, 486.4419
1125.614, 488.3014
1126.096, 488.6245
1126.578, 486.8529
1127.061, 486.3019
1127.543, 487.4767
1128.025, 488.8473
1128.507, 488.7532
1128.989, 488.1554
1129.471, 488.2036
1129.953, 488.8825
1130.435, 489.1357
1130.917, 488.7629
1131.400, 488.3261
1131.882, 487.9489
1132.364, 487.5677
1132.846, 486.8581
1133.328, 486.1767
1133.810, 486.1519
1134.292, 486.9300
1134.774, 487.8804
1135.256, 489.1989
1135.739, 490.0707
1136.221, 489.9670
1136.703, 489.4515
1137.185, 490.3364
1137.667, 491.9652
1138.149, 492.2754
1138.631, 490.0688
1139.113, 488.4980
1139.596, 489.2377
1140.078, 490.5363
1140.560, 491.6511
1141.042, 492.5130
1141.524, 492.7543
1142.006, 492.4275
1142.488, 491.8107
1142.970, 490.6601
1143.453, 489.8379
1143.935, 490.1000
1144.417, 490.7137
1144.899, 490.8956
1145.381, 490.5807
1145.863, 490.9726
1146.345, 492.3365
1146.827, 493.1574
1147.309, 493.4643
1147.792, 491.7182
1148.274, 492.6232
1148.756, 492.4656
1149.238, 492.2645
1149.720, 493.5427
1150.202, 492.0950
1150.684, 493.3497
1151.166, 493.5257
1151.648, 494.1953
1152.131, 493.7961
1152.613, 493.7269
1153.095, 494.7271
1153.577, 495.1353
1154.059, 494.6127
1154.541, 495.3138
1155.023, 494.0285
1155.505, 494.8590
1155.988, 495.2250
1156.470, 495.2360
1156.952, 494.8062
1157.434, 494.0030
1157.916, 493.8354
1158.398, 494.6208
1158.880, 495.4831
1159.362, 496.3333
1159.844, 496.8961
1160.327, 496.3289
1160.809, 495.3632
1161.291, 495.4202
1161.773, 496.8246
1162.255, 497.5722
1162.737, 496.8904
1163.219, 496.2360
1163.701, 496.0444
1164.183, 496.2089
1164.666, 496.6522
1165.148, 497.2511
1165.630, 497.7732
1166.112, 498.2205
1166.594, 498.3310
1167.076, 497.8062
1167.558, 497.2527
1168.040, 496.8900
1168.523, 496.7269
1169.005, 496.9025
1169.487, 497.3067
1169.969, 497.5739
1170.451, 497.5230
1170.933, 497.4780
1171.415, 497.5277
1171.897, 497.6440
1172.380, 497.8573
1172.862, 498.1256
1173.344, 498.2319
1173.826, 498.1808
1174.308, 497.9889
1174.790, 497.3458
1175.272, 497.0350
1175.754, 497.7000
1176.236, 498.5590
1176.719, 498.9733
1177.201, 498.9618
1177.683, 499.1519
1178.165, 499.5024
1178.647, 499.6903
1179.129, 499.2529
1179.611, 498.9286
1180.093, 499.1074
1180.575, 499.5622
1181.058, 500.1652
1181.540, 500.9073
1182.022, 501.0869
1182.504, 500.7011
1182.986, 500.1884
1183.468, 499.6852
1183.950, 499.3062
1184.432, 499.2029
1184.915, 499.2439
1185.397, 499.1958
1185.879, 499.0536
1186.361, 499.0714
1186.843, 499.2710
1187.325, 499.6094
1187.807, 500.2127
1188.289, 500.7967
1188.771, 501.2035
1189.254, 501.4227
1189.736, 501.3268
1190.218, 500.8716
1190.700, 501.0318
1191.182, 501.9902
1191.664, 502.7381
1192.146, 502.1387
1192.628, 501.2563
1193.110, 500.6393
1193.593, 500.4417
1194.075, 501.4009
1194.557, 503.7151
1195.039, 504.3734
1195.521, 502.6420
1196.003, 500.6258
1196.485, 499.8390
1196.967, 499.8982
1197.450, 500.7615
1197.932, 502.2372
1198.414, 503.4710
1198.896, 504.4679
1199.378, 505.0551
1199.860, 505.1228
1200.342, 505.0471
1200.824, 505.2277
1201.307, 505.3916
1201.789, 505.1872
1202.271, 504.6619
1202.753, 504.5251
1203.235, 504.8154
1203.717, 504.9935
1204.199, 504.8800
1204.681, 504.6972
1205.163, 504.7393
1205.646, 504.7718
1206.128, 504.3708
1206.610, 503.5612
1207.092, 503.7706
1207.574, 505.0957
1208.056, 506.0230
1208.538, 505.9922
1209.020, 505.4471
1209.502, 504.1676
1209.985, 503.0202
1210.467, 503.3956
1210.949, 505.3214
1211.431, 505.4125
1211.913, 503.5169
1212.395, 502.3495
1212.877, 503.2634
1213.359, 504.7271
1213.842, 505.7856
1214.324, 506.2813
1214.806, 505.7741
1215.288, 504.1856
1215.770, 503.7484
1216.252, 504.5042
1216.734, 505.2914
1217.216, 505.5365
1217.698, 505.6781
1218.181, 506.1190
1218.663, 506.6704
1219.145, 507.1708
1219.627, 507.6489
1220.109, 507.5289
1220.591, 506.7911
1221.073, 506.0485
1221.555, 505.3762
1222.037, 505.1704
1222.520, 506.3064
1223.002, 507.7437
1223.484, 508.1074
1223.966, 507.2130
1224.448, 507.2159
1224.930, 508.1115
1225.412, 508.6162
1225.894, 507.5114
1226.377, 506.4739
1226.859, 507.0381
1227.341, 508.1344
1227.823, 508.3270
1228.305, 507.4718
1228.787, 507.6779
1229.269, 508.8807
1229.751, 509.8182
1230.234, 509.5442
1230.716, 509.0201
1231.198, 508.6442
1231.680, 508.4406
1232.162, 508.5043
1232.644, 508.8587
1233.126, 508.6776
1233.608, 508.0105
1234.090, 507.5066
1234.573, 507.7113
1235.055, 507.9899
1235.537, 507.8051
1236.019, 507.7049
1236.501, 508.3944
1236.983, 509.8463
1237.465, 510.8279
1237.947, 511.3389
1238.429, 511.4260
1238.912, 510.5435
1239.394, 509.9507
1239.876, 510.7430
1240.358, 511.5844
1240.840, 510.8237
1241.322, 508.7984
1241.804, 508.4625
1242.286, 509.6532
1242.769, 510.8659
1243.251, 511.6908
1243.733, 511.8662
1244.215, 510.9354
1244.697, 509.8332
1245.179, 509.4760
1245.661, 509.7268
1246.143, 510.0489
1246.625, 510.3988
1247.108, 510.6720
1247.590, 510.6107
1248.072, 510.7945
1248.554, 511.4552
1249.036, 512.1595
1249.518, 512.4355
1250.000, 512.4174
1250.482, 512.3538
1250.964, 512.3295
1251.447, 512.6391
1251.929, 514.1871
1252.411, 514.7835
1252.893, 513.9413
1253.375, 512.7525
1253.857, 512.2672
1254.339, 512.2100
1254.821, 511.8999
1255.304, 511.5093
1255.786, 511.7216
1256.268, 513.5732
1256.750, 514.3726
1257.232, 513.6794
1257.714, 512.8489
1258.196, 513.2163
1258.678, 514.1448
1259.161, 514.7629
1259.643, 515.1776
1260.125, 515.8855
1260.607, 517.3847
1261.089, 517.7697
1261.571, 516.7762
1262.053, 515.5837
1262.535, 515.0481
1263.017, 514.9166
1263.500, 514.9540
1263.982, 515.1972
1264.464, 515.8272
1264.946, 517.0609
1265.428, 517.5069
1265.910, 517.0598
1266.392, 516.5069
1266.874, 516.4083
1267.356, 516.4763
1267.839, 516.4853
1268.321, 516.5245
1268.803, 516.7672
1269.285, 517.2233
1269.767, 517.7527
1270.249, 518.3365
1270.731, 518.5858
1271.213, 517.6385
1271.696, 517.0011
1272.178, 518.0316
1272.660, 519.4351
1273.142, 519.7628
1273.624, 519.1227
1274.106, 518.3095
1274.588, 517.4543
1275.070, 517.2799
1275.552, 518.9337
1276.035, 520.3129
1276.517, 521.0062
1276.999, 521.0129
1277.481, 519.8387
1277.963, 518.0240
1278.445, 517.5062
1278.927, 518.1489
1279.409, 519.1077
1279.891, 520.5971
1280.374, 521.4709
1280.856, 521.4215
1281.338, 521.1729
1281.820, 521.4647
1282.302, 521.9524
1282.784, 521.7026
1283.266, 521.0897
1283.748, 521.2406
1284.230, 523.2124
1284.713, 524.2947
1285.195, 524.3011
1285.677, 523.9356
1286.159, 523.6458
1286.641, 523.3596
1287.123, 522.8198
1287.605, 522.2670
1288.087, 522.2435
1288.570, 522.9933
1289.052, 523.2005
1289.534, 522.8113
1290.016, 522.6078
1290.498, 523.2933
1290.980, 524.1535
1291.462, 524.8823
1291.944, 525.3292
1292.427, 525.2086
1292.909, 524.4598
1293.391, 524.5685
1293.873, 525.4249
1294.355, 526.0009
1294.837, 525.4420
1295.319, 524.9277
1295.801, 525.1882
1296.283, 525.5018
1296.766, 525.3995
1297.248, 524.9023
1297.730, 523.7026
1298.212, 522.1673
1298.694, 521.5963
1299.176, 523.1363
1299.658, 524.4821
1300.140, 525.3853
1300.622, 525.8342
1301.105, 525.6334
1301.587, 525.1656
1302.069, 525.3780
1302.551, 525.8771
1303.033, 525.7932
1303.515, 524.2985
1303.997, 524.0022
1304.479, 525.1671
1304.962, 526.3733
1305.444, 527.1362
1305.926, 527.4731
##END=



