##NAMES=Siegenite
##RRUFFID=R060502
##IDEAL CHEMISTRY=Co^2+^Ni^3+^_2_S^2-^_4_
##LOCALITY=Magmont mine, Viburnum Trend Lead Belt, southeastern Missouri, USA
##OWNER=RRUFF
##SOURCE=Michael Scott
##DESCRIPTION=Black octahedra covering a surface
##STATUS=The identification of this mineral is confirmed by single-crystal X-ray diffraction and chemical analysis.
##URL=rruff.info/R060502
##MEASURED CHEMISTRY=Co_1.00_(Ni_1.53_Co_0.32_Fe_0.15_)_Î£=2_S_4.00_ ; trace amounts of Cr
9.059570e+001, 2.920044e+003
9.107782e+001, 2.875412e+003
9.155994e+001, 2.859685e+003
9.204205e+001, 2.894358e+003
9.252417e+001, 2.943341e+003
9.300629e+001, 2.994376e+003
9.348840e+001, 3.027818e+003
9.397052e+001, 3.025386e+003
9.445264e+001, 2.982449e+003
9.493475e+001, 2.939660e+003
9.541687e+001, 2.897118e+003
9.589898e+001, 2.856627e+003
9.638110e+001, 2.818579e+003
9.686321e+001, 2.783073e+003
9.734533e+001, 2.748137e+003
9.782745e+001, 2.708891e+003
9.830956e+001, 2.674987e+003
9.879168e+001, 2.646175e+003
9.927380e+001, 2.621855e+003
9.975591e+001, 2.602835e+003
1.002380e+002, 2.587543e+003
1.007201e+002, 2.572750e+003
1.012023e+002, 2.556421e+003
1.016844e+002, 2.538925e+003
1.021665e+002, 2.522300e+003
1.026486e+002, 2.505709e+003
1.031307e+002, 2.489997e+003
1.036128e+002, 2.475672e+003
1.040950e+002, 2.462321e+003
1.045771e+002, 2.451164e+003
1.050592e+002, 2.442800e+003
1.055413e+002, 2.436312e+003
1.060234e+002, 2.430941e+003
1.065055e+002, 2.426281e+003
1.069877e+002, 2.422314e+003
1.074698e+002, 2.419698e+003
1.079519e+002, 2.422166e+003
1.084340e+002, 2.420714e+003
1.089161e+002, 2.410869e+003
1.093982e+002, 2.394216e+003
1.098804e+002, 2.374836e+003
1.103625e+002, 2.355366e+003
1.108446e+002, 2.335062e+003
1.113267e+002, 2.318993e+003
1.118088e+002, 2.308270e+003
1.122909e+002, 2.300297e+003
1.127731e+002, 2.295071e+003
1.132552e+002, 2.292024e+003
1.137373e+002, 2.289423e+003
1.142194e+002, 2.284684e+003
1.147015e+002, 2.274911e+003
1.151836e+002, 2.268270e+003
1.156658e+002, 2.267930e+003
1.161479e+002, 2.269102e+003
1.166300e+002, 2.266854e+003
1.171121e+002, 2.259324e+003
1.175942e+002, 2.248634e+003
1.180763e+002, 2.239743e+003
1.185584e+002, 2.233363e+003
1.190406e+002, 2.226777e+003
1.195227e+002, 2.218585e+003
1.200048e+002, 2.209484e+003
1.204869e+002, 2.201358e+003
1.209690e+002, 2.195164e+003
1.214511e+002, 2.190530e+003
1.219333e+002, 2.186057e+003
1.224154e+002, 2.181264e+003
1.228975e+002, 2.177393e+003
1.233796e+002, 2.176774e+003
1.238617e+002, 2.180038e+003
1.243438e+002, 2.181066e+003
1.248260e+002, 2.175056e+003
1.253081e+002, 2.165880e+003
1.257902e+002, 2.156327e+003
1.262723e+002, 2.146981e+003
1.267544e+002, 2.138335e+003
1.272365e+002, 2.131814e+003
1.277187e+002, 2.128595e+003
1.282008e+002, 2.125659e+003
1.286829e+002, 2.121831e+003
1.291650e+002, 2.117704e+003
1.296471e+002, 2.114150e+003
1.301292e+002, 2.111812e+003
1.306114e+002, 2.110587e+003
1.310935e+002, 2.108864e+003
1.315756e+002, 2.107498e+003
1.320577e+002, 2.104765e+003
1.325398e+002, 2.099401e+003
1.330219e+002, 2.092152e+003
1.335041e+002, 2.084800e+003
1.339862e+002, 2.078903e+003
1.344683e+002, 2.074724e+003
1.349504e+002, 2.070245e+003
1.354325e+002, 2.064757e+003
1.359146e+002, 2.059566e+003
1.363968e+002, 2.055239e+003
1.368789e+002, 2.051897e+003
1.373610e+002, 2.049608e+003
1.378431e+002, 2.048617e+003
1.383252e+002, 2.049177e+003
1.388073e+002, 2.050075e+003
1.392895e+002, 2.052338e+003
1.397716e+002, 2.054485e+003
1.402537e+002, 2.054892e+003
1.407358e+002, 2.053230e+003
1.412179e+002, 2.049680e+003
1.417000e+002, 2.043660e+003
1.421821e+002, 2.035421e+003
1.426643e+002, 2.027453e+003
1.431464e+002, 2.020525e+003
1.436285e+002, 2.014631e+003
1.441106e+002, 2.009698e+003
1.445927e+002, 2.005775e+003
1.450748e+002, 2.002920e+003
1.455570e+002, 2.001317e+003
1.460391e+002, 2.000944e+003
1.465212e+002, 2.000536e+003
1.470033e+002, 1.999061e+003
1.474854e+002, 1.996455e+003
1.479675e+002, 1.993349e+003
1.484497e+002, 1.988641e+003
1.489318e+002, 1.984203e+003
1.494139e+002, 1.981275e+003
1.498960e+002, 1.980084e+003
1.503781e+002, 1.979652e+003
1.508602e+002, 1.978584e+003
1.513424e+002, 1.976612e+003
1.518245e+002, 1.974512e+003
1.523066e+002, 1.972600e+003
1.527887e+002, 1.970502e+003
1.532708e+002, 1.967680e+003
1.537529e+002, 1.963987e+003
1.542351e+002, 1.959980e+003
1.547172e+002, 1.957094e+003
1.551993e+002, 1.957448e+003
1.556814e+002, 1.956393e+003
1.561635e+002, 1.952879e+003
1.566456e+002, 1.948099e+003
1.571278e+002, 1.943346e+003
1.576099e+002, 1.939224e+003
1.580920e+002, 1.935738e+003
1.585741e+002, 1.933003e+003
1.590562e+002, 1.931836e+003
1.595383e+002, 1.930376e+003
1.600205e+002, 1.927835e+003
1.605026e+002, 1.924635e+003
1.609847e+002, 1.921805e+003
1.614668e+002, 1.920049e+003
1.619489e+002, 1.919069e+003
1.624310e+002, 1.917511e+003
1.629131e+002, 1.914708e+003
1.633953e+002, 1.912014e+003
1.638774e+002, 1.910671e+003
1.643595e+002, 1.910496e+003
1.648416e+002, 1.909587e+003
1.653237e+002, 1.906153e+003
1.658058e+002, 1.901281e+003
1.662880e+002, 1.897567e+003
1.667701e+002, 1.895974e+003
1.672522e+002, 1.895084e+003
1.677343e+002, 1.893230e+003
1.682164e+002, 1.890204e+003
1.686985e+002, 1.887213e+003
1.691807e+002, 1.884747e+003
1.696628e+002, 1.882789e+003
1.701449e+002, 1.881472e+003
1.706270e+002, 1.881147e+003
1.711091e+002, 1.881326e+003
1.715912e+002, 1.880893e+003
1.720734e+002, 1.879706e+003
1.725555e+002, 1.878101e+003
1.730376e+002, 1.876524e+003
1.735197e+002, 1.874654e+003
1.740018e+002, 1.871811e+003
1.744839e+002, 1.867158e+003
1.749661e+002, 1.861273e+003
1.754482e+002, 1.857815e+003
1.759303e+002, 1.859131e+003
1.764124e+002, 1.860466e+003
1.768945e+002, 1.860609e+003
1.773766e+002, 1.859862e+003
1.778588e+002, 1.858908e+003
1.783409e+002, 1.858257e+003
1.788230e+002, 1.857910e+003
1.793051e+002, 1.857187e+003
1.797872e+002, 1.855906e+003
1.802693e+002, 1.854424e+003
1.807515e+002, 1.852841e+003
1.812336e+002, 1.851133e+003
1.817157e+002, 1.849208e+003
1.821978e+002, 1.846944e+003
1.826799e+002, 1.844268e+003
1.831620e+002, 1.841913e+003
1.836441e+002, 1.839444e+003
1.841263e+002, 1.837557e+003
1.846084e+002, 1.837026e+003
1.850905e+002, 1.837618e+003
1.855726e+002, 1.838163e+003
1.860547e+002, 1.837575e+003
1.865368e+002, 1.835662e+003
1.870190e+002, 1.833785e+003
1.875011e+002, 1.831766e+003
1.879832e+002, 1.829927e+003
1.884653e+002, 1.828521e+003
1.889474e+002, 1.827579e+003
1.894296e+002, 1.826967e+003
1.899117e+002, 1.826767e+003
1.903938e+002, 1.826947e+003
1.908759e+002, 1.826557e+003
1.913580e+002, 1.824934e+003
1.918401e+002, 1.822958e+003
1.923223e+002, 1.821733e+003
1.928044e+002, 1.821497e+003
1.932865e+002, 1.821393e+003
1.937686e+002, 1.820555e+003
1.942507e+002, 1.819167e+003
1.947328e+002, 1.817666e+003
1.952150e+002, 1.815672e+003
1.956971e+002, 1.813721e+003
1.961792e+002, 1.813172e+003
1.966613e+002, 1.814847e+003
1.971434e+002, 1.816321e+003
1.976255e+002, 1.815495e+003
1.981077e+002, 1.813042e+003
1.985898e+002, 1.810625e+003
1.990719e+002, 1.809051e+003
1.995540e+002, 1.808191e+003
2.000361e+002, 1.807536e+003
2.005182e+002, 1.807148e+003
2.010004e+002, 1.806888e+003
2.014825e+002, 1.806752e+003
2.019646e+002, 1.806684e+003
2.024467e+002, 1.806565e+003
2.029288e+002, 1.806391e+003
2.034109e+002, 1.806150e+003
2.038930e+002, 1.805530e+003
2.043752e+002, 1.804349e+003
2.048573e+002, 1.802951e+003
2.053394e+002, 1.801308e+003
2.058215e+002, 1.799556e+003
2.063036e+002, 1.797965e+003
2.067857e+002, 1.796830e+003
2.072679e+002, 1.796189e+003
2.077500e+002, 1.795288e+003
2.082321e+002, 1.793978e+003
2.087142e+002, 1.792519e+003
2.091963e+002, 1.790712e+003
2.096784e+002, 1.788773e+003
2.101606e+002, 1.787166e+003
2.106427e+002, 1.786302e+003
2.111248e+002, 1.786220e+003
2.116069e+002, 1.786572e+003
2.120890e+002, 1.788531e+003
2.125711e+002, 1.789803e+003
2.130533e+002, 1.788964e+003
2.135354e+002, 1.786455e+003
2.140175e+002, 1.783858e+003
2.144996e+002, 1.782659e+003
2.149817e+002, 1.783121e+003
2.154638e+002, 1.783185e+003
2.159460e+002, 1.782276e+003
2.164281e+002, 1.781566e+003
2.169102e+002, 1.782008e+003
2.173923e+002, 1.783363e+003
2.178744e+002, 1.784402e+003
2.183565e+002, 1.783882e+003
2.188387e+002, 1.781528e+003
2.193208e+002, 1.780127e+003
2.198029e+002, 1.780671e+003
2.202850e+002, 1.781238e+003
2.207671e+002, 1.780402e+003
2.212492e+002, 1.778245e+003
2.217314e+002, 1.776105e+003
2.222135e+002, 1.775146e+003
2.226956e+002, 1.775481e+003
2.231777e+002, 1.775667e+003
2.236598e+002, 1.776039e+003
2.241419e+002, 1.776027e+003
2.246240e+002, 1.774698e+003
2.251062e+002, 1.772120e+003
2.255883e+002, 1.770135e+003
2.260704e+002, 1.770755e+003
2.265525e+002, 1.773553e+003
2.270346e+002, 1.774870e+003
2.275167e+002, 1.773210e+003
2.279989e+002, 1.770775e+003
2.284810e+002, 1.769476e+003
2.289631e+002, 1.769418e+003
2.294452e+002, 1.770032e+003
2.299273e+002, 1.771272e+003
2.304094e+002, 1.772888e+003
2.308916e+002, 1.774179e+003
2.313737e+002, 1.774933e+003
2.318558e+002, 1.775360e+003
2.323379e+002, 1.775880e+003
2.328200e+002, 1.776607e+003
2.333021e+002, 1.776603e+003
2.337843e+002, 1.774364e+003
2.342664e+002, 1.771140e+003
2.347485e+002, 1.768856e+003
2.352306e+002, 1.768224e+003
2.357127e+002, 1.768539e+003
2.361948e+002, 1.768880e+003
2.366770e+002, 1.769213e+003
2.371591e+002, 1.769735e+003
2.376412e+002, 1.771294e+003
2.381233e+002, 1.772881e+003
2.386054e+002, 1.773145e+003
2.390875e+002, 1.771203e+003
2.395697e+002, 1.768439e+003
2.400518e+002, 1.767321e+003
2.405339e+002, 1.768563e+003
2.410160e+002, 1.769137e+003
2.414981e+002, 1.767339e+003
2.419802e+002, 1.764557e+003
2.424624e+002, 1.761912e+003
2.429445e+002, 1.759710e+003
2.434266e+002, 1.758049e+003
2.439087e+002, 1.757280e+003
2.443908e+002, 1.757838e+003
2.448729e+002, 1.758082e+003
2.453550e+002, 1.757441e+003
2.458372e+002, 1.756377e+003
2.463193e+002, 1.755202e+003
2.468014e+002, 1.754005e+003
2.472835e+002, 1.752845e+003
2.477656e+002, 1.751837e+003
2.482477e+002, 1.751105e+003
2.487299e+002, 1.750218e+003
2.492120e+002, 1.749033e+003
2.496941e+002, 1.747730e+003
2.501762e+002, 1.746433e+003
2.506583e+002, 1.745179e+003
2.511404e+002, 1.743963e+003
2.516226e+002, 1.742832e+003
2.521047e+002, 1.742063e+003
2.525868e+002, 1.740743e+003
2.530689e+002, 1.738268e+003
2.535510e+002, 1.735660e+003
2.540331e+002, 1.733600e+003
2.545153e+002, 1.732277e+003
2.549974e+002, 1.731459e+003
2.554795e+002, 1.730881e+003
2.559616e+002, 1.730920e+003
2.564437e+002, 1.730360e+003
2.569258e+002, 1.728584e+003
2.574080e+002, 1.726757e+003
2.578901e+002, 1.725677e+003
2.583722e+002, 1.725467e+003
2.588543e+002, 1.725674e+003
2.593364e+002, 1.725767e+003
2.598185e+002, 1.726011e+003
2.603007e+002, 1.725383e+003
2.607828e+002, 1.722817e+003
2.612649e+002, 1.720365e+003
2.617470e+002, 1.719590e+003
2.622291e+002, 1.720467e+003
2.627112e+002, 1.721648e+003
2.631934e+002, 1.721588e+003
2.636755e+002, 1.719957e+003
2.641576e+002, 1.718154e+003
2.646397e+002, 1.716507e+003
2.651218e+002, 1.714462e+003
2.656039e+002, 1.711049e+003
2.660861e+002, 1.706675e+003
2.665682e+002, 1.703033e+003
2.670503e+002, 1.701941e+003
2.675324e+002, 1.703941e+003
2.680145e+002, 1.705100e+003
2.684966e+002, 1.705615e+003
2.689788e+002, 1.705322e+003
2.694609e+002, 1.703883e+003
2.699430e+002, 1.701491e+003
2.704251e+002, 1.698664e+003
2.709072e+002, 1.695708e+003
2.713893e+002, 1.692610e+003
2.718715e+002, 1.690513e+003
2.723536e+002, 1.689930e+003
2.728357e+002, 1.689608e+003
2.733178e+002, 1.689057e+003
2.737999e+002, 1.688329e+003
2.742820e+002, 1.687732e+003
2.747642e+002, 1.687540e+003
2.752463e+002, 1.687668e+003
2.757284e+002, 1.687062e+003
2.762105e+002, 1.685430e+003
2.766926e+002, 1.683568e+003
2.771747e+002, 1.681475e+003
2.776568e+002, 1.679335e+003
2.781389e+002, 1.677537e+003
2.786211e+002, 1.676300e+003
2.791032e+002, 1.675548e+003
2.795853e+002, 1.674977e+003
2.800674e+002, 1.674654e+003
2.805495e+002, 1.674396e+003
2.810316e+002, 1.674240e+003
2.815138e+002, 1.674113e+003
2.819959e+002, 1.673929e+003
2.824780e+002, 1.673680e+003
2.829601e+002, 1.673276e+003
2.834422e+002, 1.672430e+003
2.839243e+002, 1.670902e+003
2.844065e+002, 1.669478e+003
2.848886e+002, 1.668497e+003
2.853707e+002, 1.667674e+003
2.858528e+002, 1.666516e+003
2.863349e+002, 1.664828e+003
2.868170e+002, 1.662970e+003
2.872992e+002, 1.661480e+003
2.877813e+002, 1.660249e+003
2.882634e+002, 1.659683e+003
2.887455e+002, 1.660544e+003
2.892276e+002, 1.661835e+003
2.897097e+002, 1.662263e+003
2.901919e+002, 1.661516e+003
2.906740e+002, 1.660316e+003
2.911561e+002, 1.659443e+003
2.916382e+002, 1.658908e+003
2.921203e+002, 1.658691e+003
2.926024e+002, 1.659165e+003
2.930846e+002, 1.659741e+003
2.935667e+002, 1.659668e+003
2.940488e+002, 1.658866e+003
2.945309e+002, 1.658188e+003
2.950130e+002, 1.658543e+003
2.954951e+002, 1.659949e+003
2.959773e+002, 1.660893e+003
2.964594e+002, 1.661215e+003
2.969415e+002, 1.661127e+003
2.974236e+002, 1.660591e+003
2.979057e+002, 1.659668e+003
2.983878e+002, 1.658850e+003
2.988700e+002, 1.658464e+003
2.993521e+002, 1.658499e+003
2.998342e+002, 1.658653e+003
3.003163e+002, 1.658989e+003
3.007984e+002, 1.659374e+003
3.012805e+002, 1.659906e+003
3.017627e+002, 1.660485e+003
3.022448e+002, 1.660650e+003
3.027269e+002, 1.660085e+003
3.032090e+002, 1.658980e+003
3.036911e+002, 1.657922e+003
3.041732e+002, 1.656642e+003
3.046554e+002, 1.655819e+003
3.051375e+002, 1.655976e+003
3.056196e+002, 1.656847e+003
3.061017e+002, 1.657790e+003
3.065838e+002, 1.658652e+003
3.070659e+002, 1.659336e+003
3.075481e+002, 1.659619e+003
3.080302e+002, 1.659511e+003
3.085123e+002, 1.659189e+003
3.089944e+002, 1.658625e+003
3.094765e+002, 1.657905e+003
3.099586e+002, 1.657307e+003
3.104408e+002, 1.657000e+003
3.109229e+002, 1.656402e+003
3.114050e+002, 1.654349e+003
3.118871e+002, 1.650748e+003
3.123692e+002, 1.647986e+003
3.128513e+002, 1.646839e+003
3.133335e+002, 1.646622e+003
3.138156e+002, 1.646785e+003
3.142977e+002, 1.647275e+003
3.147798e+002, 1.647446e+003
3.152619e+002, 1.646602e+003
3.157440e+002, 1.644768e+003
3.162262e+002, 1.642859e+003
3.167083e+002, 1.641264e+003
3.171904e+002, 1.639389e+003
3.176725e+002, 1.636380e+003
3.181546e+002, 1.632323e+003
3.186367e+002, 1.628647e+003
3.191188e+002, 1.626310e+003
3.196010e+002, 1.625200e+003
3.200831e+002, 1.624258e+003
3.205652e+002, 1.623974e+003
3.210473e+002, 1.623372e+003
3.215294e+002, 1.621270e+003
3.220115e+002, 1.618245e+003
3.224937e+002, 1.616534e+003
3.229758e+002, 1.617634e+003
3.234579e+002, 1.620159e+003
3.239400e+002, 1.620528e+003
3.244221e+002, 1.618198e+003
3.249042e+002, 1.615418e+003
3.253864e+002, 1.612496e+003
3.258685e+002, 1.609732e+003
3.263506e+002, 1.607751e+003
3.268327e+002, 1.606830e+003
3.273148e+002, 1.606457e+003
3.277969e+002, 1.605899e+003
3.282791e+002, 1.605149e+003
3.287612e+002, 1.604337e+003
3.292433e+002, 1.603569e+003
3.297254e+002, 1.602718e+003
3.302075e+002, 1.601452e+003
3.306896e+002, 1.599716e+003
3.311718e+002, 1.598213e+003
3.316539e+002, 1.597825e+003
3.321360e+002, 1.598661e+003
3.326181e+002, 1.598779e+003
3.331002e+002, 1.597653e+003
3.335823e+002, 1.596147e+003
3.340645e+002, 1.594553e+003
3.345466e+002, 1.593023e+003
3.350287e+002, 1.592221e+003
3.355108e+002, 1.592851e+003
3.359929e+002, 1.594621e+003
3.364750e+002, 1.595342e+003
3.369572e+002, 1.594181e+003
3.374393e+002, 1.592970e+003
3.379214e+002, 1.592510e+003
3.384035e+002, 1.592582e+003
3.388856e+002, 1.592703e+003
3.393677e+002, 1.592689e+003
3.398499e+002, 1.592485e+003
3.403320e+002, 1.591855e+003
3.408141e+002, 1.590325e+003
3.412962e+002, 1.589271e+003
3.417783e+002, 1.589429e+003
3.422604e+002, 1.590033e+003
3.427426e+002, 1.590012e+003
3.432247e+002, 1.589063e+003
3.437068e+002, 1.587798e+003
3.441889e+002, 1.587065e+003
3.446710e+002, 1.587090e+003
3.451531e+002, 1.587092e+003
3.456353e+002, 1.586983e+003
3.461174e+002, 1.586921e+003
3.465995e+002, 1.587179e+003
3.470816e+002, 1.587700e+003
3.475637e+002, 1.588050e+003
3.480458e+002, 1.587859e+003
3.485280e+002, 1.587106e+003
3.490101e+002, 1.585941e+003
3.494922e+002, 1.583596e+003
3.499743e+002, 1.581683e+003
3.504564e+002, 1.581103e+003
3.509385e+002, 1.581521e+003
3.514207e+002, 1.582140e+003
3.519028e+002, 1.582522e+003
3.523849e+002, 1.582698e+003
3.528670e+002, 1.582779e+003
3.533491e+002, 1.582537e+003
3.538312e+002, 1.582486e+003
3.543134e+002, 1.582478e+003
3.547955e+002, 1.582777e+003
3.552776e+002, 1.584174e+003
3.557597e+002, 1.586869e+003
3.562418e+002, 1.589425e+003
3.567239e+002, 1.589298e+003
3.572061e+002, 1.584522e+003
3.576882e+002, 1.580953e+003
3.581703e+002, 1.579303e+003
3.586524e+002, 1.578190e+003
3.591345e+002, 1.576658e+003
3.596166e+002, 1.574645e+003
3.600987e+002, 1.572723e+003
3.605808e+002, 1.571484e+003
3.610630e+002, 1.571026e+003
3.615451e+002, 1.570245e+003
3.620272e+002, 1.568477e+003
3.625093e+002, 1.567086e+003
3.629914e+002, 1.567310e+003
3.634735e+002, 1.568185e+003
3.639557e+002, 1.567743e+003
3.644378e+002, 1.564682e+003
3.649199e+002, 1.559736e+003
3.654020e+002, 1.556003e+003
3.658841e+002, 1.553900e+003
3.663662e+002, 1.552614e+003
3.668484e+002, 1.552627e+003
3.673305e+002, 1.553078e+003
3.678126e+002, 1.553114e+003
3.682947e+002, 1.552475e+003
3.687768e+002, 1.551563e+003
3.692589e+002, 1.551019e+003
3.697411e+002, 1.551042e+003
3.702232e+002, 1.550899e+003
3.707053e+002, 1.550499e+003
3.711874e+002, 1.549989e+003
3.716695e+002, 1.549407e+003
3.721516e+002, 1.548776e+003
3.726338e+002, 1.548111e+003
3.731159e+002, 1.547407e+003
3.735980e+002, 1.546667e+003
3.740801e+002, 1.546028e+003
3.745622e+002, 1.545410e+003
3.750443e+002, 1.545005e+003
3.755265e+002, 1.545117e+003
3.760086e+002, 1.545415e+003
3.764907e+002, 1.545383e+003
3.769728e+002, 1.544742e+003
3.774549e+002, 1.543697e+003
3.779370e+002, 1.542521e+003
3.784192e+002, 1.540862e+003
3.789013e+002, 1.540101e+003
3.793834e+002, 1.541652e+003
3.798655e+002, 1.543616e+003
3.803476e+002, 1.544344e+003
3.808297e+002, 1.543529e+003
3.813119e+002, 1.542537e+003
3.817940e+002, 1.542974e+003
3.822761e+002, 1.544804e+003
3.827582e+002, 1.545922e+003
3.832403e+002, 1.545380e+003
3.837224e+002, 1.544890e+003
3.842046e+002, 1.545905e+003
3.846867e+002, 1.548012e+003
3.851688e+002, 1.549715e+003
3.856509e+002, 1.549820e+003
3.861330e+002, 1.549018e+003
3.866151e+002, 1.548758e+003
3.870973e+002, 1.548985e+003
3.875794e+002, 1.549951e+003
3.880615e+002, 1.552642e+003
3.885436e+002, 1.555944e+003
3.890257e+002, 1.558240e+003
3.895078e+002, 1.559010e+003
3.899900e+002, 1.559088e+003
3.904721e+002, 1.559352e+003
3.909542e+002, 1.559676e+003
3.914363e+002, 1.559013e+003
3.919184e+002, 1.556686e+003
3.924005e+002, 1.553604e+003
3.928827e+002, 1.551345e+003
3.933648e+002, 1.550085e+003
3.938469e+002, 1.547696e+003
3.943290e+002, 1.542553e+003
3.948111e+002, 1.536037e+003
3.952932e+002, 1.530195e+003
3.957754e+002, 1.525252e+003
3.962575e+002, 1.521299e+003
3.967396e+002, 1.518956e+003
3.972217e+002, 1.517977e+003
3.977038e+002, 1.515504e+003
3.981859e+002, 1.509766e+003
3.986681e+002, 1.503926e+003
3.991501e+002, 1.500085e+003
3.996323e+002, 1.497923e+003
4.001144e+002, 1.496080e+003
4.005965e+002, 1.493852e+003
4.010786e+002, 1.491543e+003
4.015607e+002, 1.490157e+003
4.020428e+002, 1.490264e+003
4.025250e+002, 1.490117e+003
4.030071e+002, 1.489130e+003
4.034892e+002, 1.487850e+003
4.039713e+002, 1.486994e+003
4.044534e+002, 1.486698e+003
4.049355e+002, 1.486454e+003
4.054177e+002, 1.485646e+003
4.058998e+002, 1.484138e+003
4.063819e+002, 1.482742e+003
4.068640e+002, 1.481582e+003
4.073461e+002, 1.480414e+003
4.078282e+002, 1.479073e+003
4.083104e+002, 1.477620e+003
4.087925e+002, 1.476174e+003
4.092746e+002, 1.474770e+003
4.097567e+002, 1.473487e+003
4.102388e+002, 1.472650e+003
4.107209e+002, 1.472666e+003
4.112031e+002, 1.472639e+003
4.116852e+002, 1.472423e+003
4.121673e+002, 1.472171e+003
4.126494e+002, 1.472252e+003
4.131315e+002, 1.472668e+003
4.136136e+002, 1.472762e+003
4.140958e+002, 1.471397e+003
4.145779e+002, 1.467908e+003
4.150600e+002, 1.465615e+003
4.155421e+002, 1.465618e+003
4.160242e+002, 1.465844e+003
4.165063e+002, 1.465858e+003
4.169885e+002, 1.465462e+003
4.174706e+002, 1.464275e+003
4.179527e+002, 1.461718e+003
4.184348e+002, 1.458503e+003
4.189169e+002, 1.457209e+003
4.193990e+002, 1.458690e+003
4.198812e+002, 1.460241e+003
4.203633e+002, 1.461584e+003
4.208454e+002, 1.462319e+003
4.213275e+002, 1.461707e+003
4.218096e+002, 1.459524e+003
4.222917e+002, 1.457229e+003
4.227739e+002, 1.456375e+003
4.232560e+002, 1.456896e+003
4.237381e+002, 1.457540e+003
4.242202e+002, 1.458384e+003
4.247023e+002, 1.458917e+003
4.251844e+002, 1.458650e+003
4.256666e+002, 1.457753e+003
4.261487e+002, 1.456842e+003
4.266308e+002, 1.456219e+003
4.271129e+002, 1.455705e+003
4.275950e+002, 1.454884e+003
4.280771e+002, 1.453706e+003
4.285593e+002, 1.453045e+003
4.290414e+002, 1.453821e+003
4.295235e+002, 1.455196e+003
4.300056e+002, 1.455337e+003
4.304877e+002, 1.453859e+003
4.309698e+002, 1.452034e+003
4.314520e+002, 1.450219e+003
4.319341e+002, 1.448556e+003
4.324162e+002, 1.447320e+003
4.328983e+002, 1.446595e+003
4.333804e+002, 1.446274e+003
4.338625e+002, 1.446413e+003
4.343447e+002, 1.447133e+003
4.348268e+002, 1.447103e+003
4.353089e+002, 1.445451e+003
4.357910e+002, 1.443737e+003
4.362731e+002, 1.443237e+003
4.367552e+002, 1.443634e+003
4.372374e+002, 1.443643e+003
4.377195e+002, 1.442457e+003
4.382016e+002, 1.440441e+003
4.386837e+002, 1.439018e+003
4.391658e+002, 1.439113e+003
4.396479e+002, 1.438613e+003
4.401301e+002, 1.436691e+003
4.406122e+002, 1.434513e+003
4.410943e+002, 1.433257e+003
4.415764e+002, 1.433122e+003
4.420585e+002, 1.433436e+003
4.425406e+002, 1.433467e+003
4.430227e+002, 1.433186e+003
4.435049e+002, 1.432853e+003
4.439870e+002, 1.432307e+003
4.444691e+002, 1.431887e+003
4.449512e+002, 1.431760e+003
4.454333e+002, 1.431824e+003
4.459154e+002, 1.432018e+003
4.463976e+002, 1.432363e+003
4.468797e+002, 1.432527e+003
4.473618e+002, 1.431556e+003
4.478439e+002, 1.428824e+003
4.483260e+002, 1.426817e+003
4.488081e+002, 1.426488e+003
4.492903e+002, 1.426655e+003
4.497724e+002, 1.426728e+003
4.502545e+002, 1.426616e+003
4.507366e+002, 1.426354e+003
4.512187e+002, 1.425822e+003
4.517008e+002, 1.425130e+003
4.521830e+002, 1.424939e+003
4.526651e+002, 1.425632e+003
4.531472e+002, 1.425882e+003
4.536293e+002, 1.423932e+003
4.541114e+002, 1.421269e+003
4.545935e+002, 1.420211e+003
4.550757e+002, 1.421884e+003
4.555578e+002, 1.424005e+003
4.560399e+002, 1.424835e+003
4.565220e+002, 1.424532e+003
4.570041e+002, 1.423621e+003
4.574862e+002, 1.421935e+003
4.579684e+002, 1.420365e+003
4.584505e+002, 1.420592e+003
4.589326e+002, 1.422646e+003
4.594147e+002, 1.423393e+003
4.598968e+002, 1.421110e+003
4.603789e+002, 1.418144e+003
4.608611e+002, 1.416550e+003
4.613432e+002, 1.416272e+003
4.618253e+002, 1.416223e+003
4.623074e+002, 1.415775e+003
4.627895e+002, 1.415014e+003
4.632716e+002, 1.414277e+003
4.637538e+002, 1.413871e+003
4.642359e+002, 1.413092e+003
4.647180e+002, 1.411298e+003
4.652001e+002, 1.409386e+003
4.656822e+002, 1.408313e+003
4.661643e+002, 1.408234e+003
4.666465e+002, 1.408667e+003
4.671286e+002, 1.409173e+003
4.676107e+002, 1.409818e+003
4.680928e+002, 1.409844e+003
4.685749e+002, 1.408919e+003
4.690570e+002, 1.407691e+003
4.695392e+002, 1.405649e+003
4.700213e+002, 1.403591e+003
4.705034e+002, 1.402971e+003
4.709855e+002, 1.404501e+003
4.714676e+002, 1.406625e+003
4.719497e+002, 1.406346e+003
4.724319e+002, 1.402991e+003
4.729140e+002, 1.400210e+003
4.733961e+002, 1.398533e+003
4.738782e+002, 1.397630e+003
4.743603e+002, 1.397951e+003
4.748424e+002, 1.399069e+003
4.753246e+002, 1.399409e+003
4.758067e+002, 1.397476e+003
4.762888e+002, 1.394342e+003
4.767709e+002, 1.392419e+003
4.772530e+002, 1.391904e+003
4.777351e+002, 1.391410e+003
4.782173e+002, 1.389950e+003
4.786994e+002, 1.388352e+003
4.791815e+002, 1.388022e+003
4.796636e+002, 1.389376e+003
4.801457e+002, 1.390662e+003
4.806278e+002, 1.391278e+003
4.811100e+002, 1.391158e+003
4.815920e+002, 1.389824e+003
4.820742e+002, 1.387129e+003
4.825563e+002, 1.384558e+003
4.830384e+002, 1.383527e+003
4.835205e+002, 1.384027e+003
4.840026e+002, 1.384061e+003
4.844847e+002, 1.383205e+003
4.849669e+002, 1.382365e+003
4.854490e+002, 1.381738e+003
4.859311e+002, 1.381404e+003
4.864132e+002, 1.381698e+003
4.868953e+002, 1.382731e+003
4.873774e+002, 1.383775e+003
4.878596e+002, 1.383595e+003
4.883417e+002, 1.381717e+003
4.888238e+002, 1.379861e+003
4.893059e+002, 1.377607e+003
4.897880e+002, 1.375778e+003
4.902701e+002, 1.375083e+003
4.907523e+002, 1.375139e+003
4.912344e+002, 1.375048e+003
4.917165e+002, 1.374245e+003
4.921986e+002, 1.373023e+003
4.926807e+002, 1.372297e+003
4.931628e+002, 1.372484e+003
4.936450e+002, 1.372027e+003
4.941271e+002, 1.369078e+003
4.946092e+002, 1.366495e+003
4.950913e+002, 1.366798e+003
4.955734e+002, 1.369815e+003
4.960555e+002, 1.372609e+003
4.965377e+002, 1.373333e+003
4.970198e+002, 1.372270e+003
4.975019e+002, 1.369754e+003
4.979840e+002, 1.365381e+003
4.984661e+002, 1.361495e+003
4.989482e+002, 1.359602e+003
4.994304e+002, 1.358937e+003
4.999125e+002, 1.357877e+003
5.003946e+002, 1.355902e+003
5.008767e+002, 1.354602e+003
5.013588e+002, 1.355431e+003
5.018409e+002, 1.357287e+003
5.023231e+002, 1.358294e+003
5.028052e+002, 1.358069e+003
5.032873e+002, 1.356980e+003
5.037694e+002, 1.355214e+003
5.042515e+002, 1.352727e+003
5.047336e+002, 1.350734e+003
5.052158e+002, 1.349361e+003
5.056979e+002, 1.348284e+003
5.061800e+002, 1.347152e+003
5.066621e+002, 1.346308e+003
5.071442e+002, 1.346586e+003
5.076263e+002, 1.348217e+003
5.081085e+002, 1.350081e+003
5.085906e+002, 1.350297e+003
5.090727e+002, 1.348158e+003
5.095548e+002, 1.346916e+003
5.100369e+002, 1.347393e+003
5.105190e+002, 1.347938e+003
5.110012e+002, 1.348324e+003
5.114833e+002, 1.348258e+003
5.119654e+002, 1.347106e+003
5.124475e+002, 1.344299e+003
5.129296e+002, 1.341074e+003
5.134117e+002, 1.339791e+003
5.138939e+002, 1.340677e+003
5.143760e+002, 1.341815e+003
5.148581e+002, 1.343755e+003
5.153402e+002, 1.344788e+003
5.158223e+002, 1.342947e+003
5.163044e+002, 1.338702e+003
5.167866e+002, 1.335184e+003
5.172687e+002, 1.334167e+003
5.177508e+002, 1.334313e+003
5.182329e+002, 1.334191e+003
5.187150e+002, 1.333747e+003
5.191971e+002, 1.332573e+003
5.196793e+002, 1.330108e+003
5.201614e+002, 1.327229e+003
5.206435e+002, 1.326253e+003
5.211256e+002, 1.328067e+003
5.216077e+002, 1.328775e+003
5.220898e+002, 1.326577e+003
5.225720e+002, 1.323812e+003
5.230541e+002, 1.322757e+003
5.235362e+002, 1.323306e+003
5.240183e+002, 1.323673e+003
5.245004e+002, 1.322458e+003
5.249825e+002, 1.320161e+003
5.254647e+002, 1.319437e+003
5.259468e+002, 1.322457e+003
5.264289e+002, 1.323945e+003
5.269110e+002, 1.322296e+003
5.273931e+002, 1.319827e+003
5.278752e+002, 1.318539e+003
5.283574e+002, 1.318567e+003
5.288395e+002, 1.318566e+003
5.293216e+002, 1.316959e+003
5.298037e+002, 1.314233e+003
5.302858e+002, 1.313607e+003
5.307679e+002, 1.316053e+003
5.312501e+002, 1.318347e+003
5.317322e+002, 1.319210e+003
5.322143e+002, 1.319151e+003
5.326964e+002, 1.318593e+003
5.331785e+002, 1.317587e+003
5.336606e+002, 1.316121e+003
5.341428e+002, 1.313784e+003
5.346249e+002, 1.311052e+003
5.351070e+002, 1.308916e+003
5.355891e+002, 1.307508e+003
5.360712e+002, 1.306611e+003
5.365533e+002, 1.306213e+003
5.370355e+002, 1.306212e+003
5.375176e+002, 1.305961e+003
5.379997e+002, 1.305708e+003
5.384818e+002, 1.304933e+003
5.389639e+002, 1.302754e+003
5.394460e+002, 1.300305e+003
5.399282e+002, 1.299122e+003
5.404103e+002, 1.299455e+003
5.408924e+002, 1.300351e+003
5.413745e+002, 1.300905e+003
5.418566e+002, 1.301126e+003
5.423387e+002, 1.300700e+003
5.428209e+002, 1.298764e+003
5.433029e+002, 1.297202e+003
5.437850e+002, 1.296829e+003
5.442672e+002, 1.296816e+003
5.447493e+002, 1.296026e+003
5.452314e+002, 1.294207e+003
5.457135e+002, 1.292465e+003
5.461956e+002, 1.292455e+003
5.466777e+002, 1.293945e+003
5.471599e+002, 1.293835e+003
5.476420e+002, 1.290958e+003
5.481241e+002, 1.288622e+003
5.486062e+002, 1.289942e+003
5.490883e+002, 1.292949e+003
5.495704e+002, 1.294462e+003
5.500526e+002, 1.293580e+003
5.505347e+002, 1.291952e+003
5.510168e+002, 1.290100e+003
5.514989e+002, 1.288331e+003
5.519810e+002, 1.287512e+003
5.524631e+002, 1.287850e+003
5.529453e+002, 1.288136e+003
5.534274e+002, 1.287110e+003
5.539095e+002, 1.284757e+003
5.543916e+002, 1.283308e+003
5.548737e+002, 1.283261e+003
5.553558e+002, 1.283363e+003
5.558380e+002, 1.283493e+003
5.563201e+002, 1.283475e+003
5.568022e+002, 1.283003e+003
5.572843e+002, 1.282053e+003
5.577664e+002, 1.281083e+003
5.582485e+002, 1.280768e+003
5.587307e+002, 1.281163e+003
5.592128e+002, 1.280576e+003
5.596949e+002, 1.278021e+003
5.601770e+002, 1.275909e+003
5.606591e+002, 1.275584e+003
5.611412e+002, 1.275862e+003
5.616234e+002, 1.275061e+003
5.621055e+002, 1.272646e+003
5.625876e+002, 1.270460e+003
5.630697e+002, 1.270507e+003
5.635518e+002, 1.272104e+003
5.640339e+002, 1.272927e+003
5.645161e+002, 1.272621e+003
5.649982e+002, 1.271990e+003
5.654803e+002, 1.271566e+003
5.659624e+002, 1.271279e+003
5.664445e+002, 1.270825e+003
5.669266e+002, 1.270240e+003
5.674088e+002, 1.269441e+003
5.678909e+002, 1.267908e+003
5.683730e+002, 1.266379e+003
5.688551e+002, 1.266100e+003
5.693372e+002, 1.267111e+003
5.698193e+002, 1.267959e+003
5.703015e+002, 1.267143e+003
5.707836e+002, 1.264802e+003
5.712657e+002, 1.263718e+003
5.717478e+002, 1.265690e+003
5.722299e+002, 1.266483e+003
5.727120e+002, 1.264086e+003
5.731942e+002, 1.261117e+003
5.736763e+002, 1.260335e+003
5.741584e+002, 1.261979e+003
5.746405e+002, 1.263753e+003
5.751226e+002, 1.263314e+003
5.756047e+002, 1.261295e+003
5.760869e+002, 1.260613e+003
5.765690e+002, 1.261738e+003
5.770511e+002, 1.262128e+003
5.775332e+002, 1.259627e+003
5.780153e+002, 1.256245e+003
5.784974e+002, 1.255531e+003
5.789796e+002, 1.258305e+003
5.794617e+002, 1.260282e+003
5.799438e+002, 1.259192e+003
5.804259e+002, 1.256859e+003
5.809080e+002, 1.255312e+003
5.813901e+002, 1.254658e+003
5.818723e+002, 1.254092e+003
5.823544e+002, 1.253122e+003
5.828365e+002, 1.251851e+003
5.833186e+002, 1.250615e+003
5.838007e+002, 1.249269e+003
5.842828e+002, 1.248208e+003
5.847650e+002, 1.247600e+003
5.852471e+002, 1.247129e+003
5.857292e+002, 1.246633e+003
5.862113e+002, 1.246090e+003
5.866934e+002, 1.245501e+003
5.871755e+002, 1.244840e+003
5.876577e+002, 1.244190e+003
5.881398e+002, 1.243811e+003
5.886219e+002, 1.243769e+003
5.891040e+002, 1.243487e+003
5.895861e+002, 1.242484e+003
5.900682e+002, 1.241570e+003
5.905504e+002, 1.241700e+003
5.910325e+002, 1.242682e+003
5.915146e+002, 1.243282e+003
5.919967e+002, 1.243078e+003
5.924788e+002, 1.242378e+003
5.929609e+002, 1.241197e+003
5.934431e+002, 1.239720e+003
5.939252e+002, 1.238525e+003
5.944073e+002, 1.237847e+003
5.948894e+002, 1.237246e+003
5.953715e+002, 1.235957e+003
5.958536e+002, 1.233498e+003
5.963358e+002, 1.232600e+003
5.968179e+002, 1.234817e+003
5.973000e+002, 1.236631e+003
5.977821e+002, 1.236472e+003
5.982642e+002, 1.235259e+003
5.987463e+002, 1.234378e+003
5.992285e+002, 1.234299e+003
5.997106e+002, 1.234487e+003
6.001927e+002, 1.234395e+003
6.006748e+002, 1.234014e+003
6.011569e+002, 1.233189e+003
6.016390e+002, 1.231697e+003
6.021212e+002, 1.230203e+003
6.026033e+002, 1.228810e+003
6.030854e+002, 1.227744e+003
6.035675e+002, 1.227610e+003
6.040496e+002, 1.228947e+003
6.045317e+002, 1.229818e+003
6.050139e+002, 1.228790e+003
6.054960e+002, 1.226899e+003
6.059781e+002, 1.225585e+003
6.064602e+002, 1.225027e+003
6.069423e+002, 1.224836e+003
6.074244e+002, 1.224746e+003
6.079066e+002, 1.224792e+003
6.083887e+002, 1.225153e+003
6.088708e+002, 1.227191e+003
6.093529e+002, 1.227530e+003
6.098350e+002, 1.224489e+003
6.103171e+002, 1.221047e+003
6.107993e+002, 1.219489e+003
6.112814e+002, 1.219532e+003
6.117635e+002, 1.219347e+003
6.122456e+002, 1.217590e+003
6.127277e+002, 1.215212e+003
6.132098e+002, 1.214385e+003
6.136920e+002, 1.215260e+003
6.141741e+002, 1.215778e+003
6.146562e+002, 1.215222e+003
6.151383e+002, 1.214425e+003
6.156204e+002, 1.214207e+003
6.161025e+002, 1.214485e+003
6.165847e+002, 1.214849e+003
6.170668e+002, 1.215660e+003
6.175489e+002, 1.216089e+003
6.180310e+002, 1.215296e+003
6.185131e+002, 1.213793e+003
6.189952e+002, 1.212798e+003
6.194774e+002, 1.212641e+003
6.199595e+002, 1.212213e+003
6.204416e+002, 1.209881e+003
6.209237e+002, 1.205337e+003
6.214058e+002, 1.203592e+003
6.218879e+002, 1.208084e+003
6.223701e+002, 1.211215e+003
6.228522e+002, 1.210538e+003
6.233343e+002, 1.208270e+003
6.238164e+002, 1.206555e+003
6.242985e+002, 1.205856e+003
6.247806e+002, 1.205576e+003
6.252628e+002, 1.205401e+003
6.257448e+002, 1.205261e+003
6.262269e+002, 1.204901e+003
6.267090e+002, 1.204286e+003
6.271912e+002, 1.203828e+003
6.276733e+002, 1.203790e+003
6.281554e+002, 1.203941e+003
6.286375e+002, 1.203967e+003
6.291196e+002, 1.204067e+003
6.296017e+002, 1.203271e+003
6.300839e+002, 1.200066e+003
6.305660e+002, 1.197130e+003
6.310481e+002, 1.196764e+003
6.315302e+002, 1.198146e+003
6.320123e+002, 1.199094e+003
6.324944e+002, 1.198602e+003
6.329766e+002, 1.197370e+003
6.334587e+002, 1.196670e+003
6.339408e+002, 1.196743e+003
6.344229e+002, 1.196010e+003
6.349050e+002, 1.193396e+003
6.353871e+002, 1.191379e+003
6.358693e+002, 1.191299e+003
6.363514e+002, 1.192354e+003
6.368335e+002, 1.193477e+003
6.373156e+002, 1.194549e+003
6.377977e+002, 1.195061e+003
6.382798e+002, 1.194023e+003
6.387620e+002, 1.192366e+003
6.392441e+002, 1.192172e+003
6.397262e+002, 1.193609e+003
6.402083e+002, 1.194642e+003
6.406904e+002, 1.193859e+003
6.411725e+002, 1.191799e+003
6.416547e+002, 1.190250e+003
6.421368e+002, 1.189718e+003
6.426189e+002, 1.188969e+003
6.431010e+002, 1.187549e+003
6.435831e+002, 1.186311e+003
6.440652e+002, 1.185983e+003
6.445474e+002, 1.186281e+003
6.450295e+002, 1.186425e+003
6.455116e+002, 1.186010e+003
6.459937e+002, 1.185229e+003
6.464758e+002, 1.184328e+003
6.469579e+002, 1.183311e+003
6.474401e+002, 1.182277e+003
6.479222e+002, 1.181160e+003
6.484043e+002, 1.180226e+003
6.488864e+002, 1.179851e+003
6.493685e+002, 1.179837e+003
6.498506e+002, 1.179576e+003
6.503328e+002, 1.178961e+003
6.508149e+002, 1.178205e+003
6.512970e+002, 1.176893e+003
6.517791e+002, 1.175768e+003
6.522612e+002, 1.176247e+003
6.527433e+002, 1.178113e+003
6.532255e+002, 1.179274e+003
6.537076e+002, 1.178022e+003
6.541897e+002, 1.175200e+003
6.546718e+002, 1.174057e+003
6.551539e+002, 1.175401e+003
6.556360e+002, 1.176450e+003
6.561182e+002, 1.176794e+003
6.566003e+002, 1.176743e+003
6.570824e+002, 1.176246e+003
6.575645e+002, 1.175456e+003
6.580466e+002, 1.174798e+003
6.585287e+002, 1.174450e+003
6.590109e+002, 1.174239e+003
6.594930e+002, 1.174272e+003
6.599751e+002, 1.174303e+003
6.604572e+002, 1.173384e+003
6.609393e+002, 1.171277e+003
6.614214e+002, 1.169377e+003
6.619036e+002, 1.169012e+003
6.623857e+002, 1.170003e+003
6.628678e+002, 1.170380e+003
6.633499e+002, 1.169846e+003
6.638320e+002, 1.169100e+003
6.643141e+002, 1.167976e+003
6.647963e+002, 1.166849e+003
6.652784e+002, 1.166011e+003
6.657605e+002, 1.165464e+003
6.662426e+002, 1.165125e+003
6.667247e+002, 1.165149e+003
6.672068e+002, 1.165008e+003
6.676890e+002, 1.163239e+003
6.681711e+002, 1.159926e+003
6.686532e+002, 1.157974e+003
6.691353e+002, 1.158289e+003
6.696174e+002, 1.159520e+003
6.700995e+002, 1.160780e+003
6.705817e+002, 1.161959e+003
6.710638e+002, 1.162245e+003
6.715459e+002, 1.161099e+003
6.720280e+002, 1.159694e+003
6.725101e+002, 1.157969e+003
6.729922e+002, 1.156427e+003
6.734744e+002, 1.155881e+003
6.739565e+002, 1.156209e+003
6.744386e+002, 1.156319e+003
6.749207e+002, 1.155319e+003
6.754028e+002, 1.153582e+003
6.758849e+002, 1.152283e+003
6.763671e+002, 1.151463e+003
6.768492e+002, 1.150914e+003
6.773313e+002, 1.150675e+003
6.778134e+002, 1.150613e+003
6.782955e+002, 1.150678e+003
6.787776e+002, 1.150831e+003
6.792598e+002, 1.150929e+003
6.797419e+002, 1.151112e+003
6.802240e+002, 1.151016e+003
6.807061e+002, 1.150100e+003
6.811882e+002, 1.148896e+003
6.816703e+002, 1.148429e+003
6.821525e+002, 1.148768e+003
6.826346e+002, 1.148882e+003
6.831167e+002, 1.147860e+003
6.835988e+002, 1.145993e+003
6.840809e+002, 1.144727e+003
6.845630e+002, 1.144359e+003
6.850452e+002, 1.143951e+003
6.855273e+002, 1.143205e+003
6.860094e+002, 1.142543e+003
6.864915e+002, 1.142164e+003
6.869736e+002, 1.142067e+003
6.874557e+002, 1.142259e+003
6.879379e+002, 1.143047e+003
6.884200e+002, 1.143574e+003
6.889021e+002, 1.142658e+003
6.893842e+002, 1.140959e+003
6.898663e+002, 1.140279e+003
6.903484e+002, 1.140901e+003
6.908306e+002, 1.141168e+003
6.913127e+002, 1.139646e+003
6.917948e+002, 1.136794e+003
6.922769e+002, 1.134906e+003
6.927590e+002, 1.134575e+003
6.932411e+002, 1.134318e+003
6.937233e+002, 1.133923e+003
6.942054e+002, 1.133724e+003
6.946875e+002, 1.134273e+003
6.951696e+002, 1.135179e+003
6.956517e+002, 1.135437e+003
6.961339e+002, 1.134496e+003
6.966160e+002, 1.133127e+003
6.970981e+002, 1.132089e+003
6.975802e+002, 1.131330e+003
6.980623e+002, 1.130555e+003
6.985444e+002, 1.129696e+003
6.990266e+002, 1.129255e+003
6.995087e+002, 1.129688e+003
6.999908e+002, 1.130739e+003
7.004729e+002, 1.131449e+003
7.009550e+002, 1.132048e+003
7.014371e+002, 1.131886e+003
7.019193e+002, 1.130196e+003
7.024014e+002, 1.128434e+003
7.028835e+002, 1.127654e+003
7.033656e+002, 1.127483e+003
7.038477e+002, 1.126879e+003
7.043298e+002, 1.125347e+003
7.048120e+002, 1.123772e+003
7.052941e+002, 1.123320e+003
7.057762e+002, 1.123810e+003
7.062583e+002, 1.124502e+003
7.067404e+002, 1.125426e+003
7.072225e+002, 1.125829e+003
7.077046e+002, 1.125028e+003
7.081867e+002, 1.123592e+003
7.086688e+002, 1.123025e+003
7.091509e+002, 1.123784e+003
7.096331e+002, 1.124182e+003
7.101152e+002, 1.123681e+003
7.105973e+002, 1.123194e+003
7.110794e+002, 1.123424e+003
7.115615e+002, 1.124004e+003
7.120436e+002, 1.124213e+003
7.125258e+002, 1.123792e+003
7.130079e+002, 1.123114e+003
7.134900e+002, 1.122547e+003
7.139721e+002, 1.122089e+003
7.144542e+002, 1.121736e+003
7.149363e+002, 1.121509e+003
7.154185e+002, 1.121281e+003
7.159006e+002, 1.121002e+003
7.163827e+002, 1.120691e+003
7.168648e+002, 1.120317e+003
7.173469e+002, 1.119822e+003
7.178290e+002, 1.119629e+003
7.183112e+002, 1.120398e+003
7.187933e+002, 1.120815e+003
7.192754e+002, 1.119902e+003
7.197575e+002, 1.118363e+003
7.202396e+002, 1.117196e+003
7.207217e+002, 1.116668e+003
7.212039e+002, 1.116446e+003
7.216860e+002, 1.116383e+003
7.221681e+002, 1.116323e+003
7.226502e+002, 1.115561e+003
7.231323e+002, 1.114016e+003
7.236144e+002, 1.112367e+003
7.240966e+002, 1.110630e+003
7.245787e+002, 1.109186e+003
7.250608e+002, 1.108588e+003
7.255429e+002, 1.108823e+003
7.260250e+002, 1.109106e+003
7.265071e+002, 1.109372e+003
7.269893e+002, 1.109726e+003
7.274714e+002, 1.110280e+003
7.279535e+002, 1.110906e+003
7.284356e+002, 1.111663e+003
7.289177e+002, 1.112401e+003
7.293998e+002, 1.112438e+003
7.298820e+002, 1.110971e+003
7.303641e+002, 1.109023e+003
7.308462e+002, 1.109492e+003
7.313283e+002, 1.112506e+003
7.318104e+002, 1.113787e+003
7.322925e+002, 1.112004e+003
7.327747e+002, 1.109467e+003
7.332568e+002, 1.107777e+003
7.337389e+002, 1.106907e+003
7.342210e+002, 1.106536e+003
7.347031e+002, 1.107040e+003
7.351852e+002, 1.107439e+003
7.356674e+002, 1.107658e+003
7.361495e+002, 1.107591e+003
7.366316e+002, 1.106888e+003
7.371137e+002, 1.105829e+003
7.375958e+002, 1.105172e+003
7.380779e+002, 1.105308e+003
7.385601e+002, 1.105787e+003
7.390422e+002, 1.106010e+003
7.395243e+002, 1.105989e+003
7.400064e+002, 1.105844e+003
7.404885e+002, 1.105639e+003
7.409706e+002, 1.105032e+003
7.414528e+002, 1.103528e+003
7.419349e+002, 1.101731e+003
7.424170e+002, 1.101155e+003
7.428991e+002, 1.102373e+003
7.433812e+002, 1.102760e+003
7.438633e+002, 1.101550e+003
7.443455e+002, 1.100057e+003
7.448276e+002, 1.098999e+003
7.453097e+002, 1.098115e+003
7.457918e+002, 1.096741e+003
7.462739e+002, 1.094782e+003
7.467560e+002, 1.093141e+003
7.472382e+002, 1.092911e+003
7.477203e+002, 1.093654e+003
7.482024e+002, 1.094067e+003
7.486845e+002, 1.094147e+003
7.491666e+002, 1.094046e+003
7.496487e+002, 1.093749e+003
7.501309e+002, 1.093447e+003
7.506130e+002, 1.093307e+003
7.510951e+002, 1.093322e+003
7.515772e+002, 1.093729e+003
7.520593e+002, 1.095462e+003
7.525414e+002, 1.096319e+003
7.530236e+002, 1.094822e+003
7.535057e+002, 1.092941e+003
7.539878e+002, 1.092626e+003
7.544699e+002, 1.093731e+003
7.549520e+002, 1.094764e+003
7.554341e+002, 1.094911e+003
7.559163e+002, 1.094503e+003
7.563984e+002, 1.093873e+003
7.568805e+002, 1.093070e+003
7.573626e+002, 1.092463e+003
7.578447e+002, 1.092151e+003
7.583268e+002, 1.091296e+003
7.588090e+002, 1.088982e+003
7.592911e+002, 1.086006e+003
7.597732e+002, 1.085094e+003
7.602553e+002, 1.088288e+003
7.607374e+002, 1.089868e+003
7.612195e+002, 1.088797e+003
7.617017e+002, 1.087362e+003
7.621838e+002, 1.086518e+003
7.626659e+002, 1.086088e+003
7.631480e+002, 1.085748e+003
7.636301e+002, 1.085430e+003
7.641122e+002, 1.084917e+003
7.645944e+002, 1.083588e+003
7.650765e+002, 1.082205e+003
7.655586e+002, 1.082341e+003
7.660407e+002, 1.083702e+003
7.665228e+002, 1.084365e+003
7.670049e+002, 1.083554e+003
7.674871e+002, 1.082193e+003
7.679692e+002, 1.081472e+003
7.684513e+002, 1.081395e+003
7.689334e+002, 1.081459e+003
7.694155e+002, 1.081808e+003
7.698976e+002, 1.082030e+003
7.703798e+002, 1.081948e+003
7.708619e+002, 1.081767e+003
7.713440e+002, 1.081584e+003
7.718261e+002, 1.081430e+003
7.723082e+002, 1.081420e+003
7.727903e+002, 1.081853e+003
7.732725e+002, 1.082093e+003
7.737546e+002, 1.081528e+003
7.742367e+002, 1.080561e+003
7.747188e+002, 1.079807e+003
7.752009e+002, 1.079338e+003
7.756830e+002, 1.078893e+003
7.761652e+002, 1.078284e+003
7.766473e+002, 1.077660e+003
7.771294e+002, 1.077481e+003
7.776115e+002, 1.077896e+003
7.780936e+002, 1.077690e+003
7.785757e+002, 1.076273e+003
7.790579e+002, 1.075204e+003
7.795400e+002, 1.075986e+003
7.800221e+002, 1.077361e+003
7.805042e+002, 1.076965e+003
7.809863e+002, 1.074192e+003
7.814684e+002, 1.072339e+003
7.819506e+002, 1.073005e+003
7.824327e+002, 1.074026e+003
7.829148e+002, 1.074020e+003
7.833969e+002, 1.073396e+003
7.838790e+002, 1.072823e+003
7.843611e+002, 1.072541e+003
7.848433e+002, 1.072702e+003
7.853254e+002, 1.073720e+003
7.858075e+002, 1.075119e+003
7.862896e+002, 1.075307e+003
7.867717e+002, 1.074265e+003
7.872538e+002, 1.073276e+003
7.877360e+002, 1.072597e+003
7.882181e+002, 1.072256e+003
7.887002e+002, 1.072387e+003
7.891823e+002, 1.072916e+003
7.896644e+002, 1.073192e+003
7.901465e+002, 1.072836e+003
7.906286e+002, 1.072794e+003
7.911107e+002, 1.073859e+003
7.915928e+002, 1.074594e+003
7.920750e+002, 1.073771e+003
7.925571e+002, 1.071951e+003
7.930392e+002, 1.070399e+003
7.935213e+002, 1.069578e+003
7.940034e+002, 1.069034e+003
7.944855e+002, 1.068273e+003
7.949677e+002, 1.067553e+003
7.954498e+002, 1.067521e+003
7.959319e+002, 1.068087e+003
7.964140e+002, 1.068464e+003
7.968961e+002, 1.068316e+003
7.973782e+002, 1.067933e+003
7.978604e+002, 1.067762e+003
7.983425e+002, 1.067830e+003
7.988246e+002, 1.067198e+003
7.993067e+002, 1.065074e+003
7.997888e+002, 1.063667e+003
8.002709e+002, 1.064015e+003
8.007531e+002, 1.064893e+003
8.012352e+002, 1.065427e+003
8.017173e+002, 1.065685e+003
8.021994e+002, 1.066201e+003
8.026815e+002, 1.067620e+003
8.031636e+002, 1.068591e+003
8.036458e+002, 1.067973e+003
8.041279e+002, 1.066797e+003
8.046100e+002, 1.066237e+003
8.050921e+002, 1.066329e+003
8.055742e+002, 1.066647e+003
8.060563e+002, 1.066981e+003
8.065385e+002, 1.067179e+003
8.070206e+002, 1.067035e+003
8.075027e+002, 1.066549e+003
8.079848e+002, 1.065522e+003
8.084669e+002, 1.063776e+003
8.089490e+002, 1.062350e+003
8.094312e+002, 1.061697e+003
8.099133e+002, 1.061624e+003
8.103954e+002, 1.061995e+003
8.108775e+002, 1.062954e+003
8.113596e+002, 1.063349e+003
8.118417e+002, 1.063245e+003
8.123239e+002, 1.062509e+003
8.128060e+002, 1.060001e+003
8.132881e+002, 1.057639e+003
8.137702e+002, 1.057744e+003
8.142523e+002, 1.059889e+003
8.147344e+002, 1.061405e+003
8.152166e+002, 1.060639e+003
8.156987e+002, 1.059426e+003
8.161808e+002, 1.060000e+003
8.166629e+002, 1.061484e+003
8.171450e+002, 1.061773e+003
8.176271e+002, 1.060739e+003
8.181093e+002, 1.059783e+003
8.185914e+002, 1.059732e+003
8.190735e+002, 1.060018e+003
8.195556e+002, 1.059444e+003
8.200377e+002, 1.057759e+003
8.205198e+002, 1.056740e+003
8.210020e+002, 1.056557e+003
8.214841e+002, 1.056689e+003
8.219662e+002, 1.057269e+003
8.224483e+002, 1.057833e+003
8.229304e+002, 1.057885e+003
8.234125e+002, 1.057428e+003
8.238947e+002, 1.056734e+003
8.243768e+002, 1.055673e+003
8.248589e+002, 1.054623e+003
8.253410e+002, 1.053493e+003
8.258231e+002, 1.052639e+003
8.263052e+002, 1.052902e+003
8.267874e+002, 1.053909e+003
8.272695e+002, 1.054029e+003
8.277516e+002, 1.052175e+003
8.282337e+002, 1.049883e+003
8.287158e+002, 1.049542e+003
8.291979e+002, 1.050666e+003
8.296801e+002, 1.051191e+003
8.301622e+002, 1.050929e+003
8.306443e+002, 1.050636e+003
8.311264e+002, 1.050704e+003
8.316085e+002, 1.050867e+003
8.320906e+002, 1.050705e+003
8.325728e+002, 1.050202e+003
8.330549e+002, 1.049397e+003
8.335370e+002, 1.047469e+003
8.340191e+002, 1.046435e+003
8.345012e+002, 1.047795e+003
8.349833e+002, 1.049333e+003
8.354655e+002, 1.048840e+003
8.359476e+002, 1.046734e+003
8.364297e+002, 1.045547e+003
8.369118e+002, 1.046723e+003
8.373939e+002, 1.047885e+003
8.378760e+002, 1.047581e+003
8.383582e+002, 1.046685e+003
8.388403e+002, 1.046218e+003
8.393224e+002, 1.046143e+003
8.398045e+002, 1.045886e+003
8.402866e+002, 1.045179e+003
8.407687e+002, 1.044351e+003
8.412509e+002, 1.043568e+003
8.417330e+002, 1.043000e+003
8.422151e+002, 1.043983e+003
8.426972e+002, 1.046657e+003
8.431793e+002, 1.048831e+003
8.436614e+002, 1.049803e+003
8.441436e+002, 1.049647e+003
8.446257e+002, 1.048216e+003
8.451078e+002, 1.045542e+003
8.455899e+002, 1.043449e+003
8.460720e+002, 1.041866e+003
8.465541e+002, 1.040997e+003
8.470363e+002, 1.041533e+003
8.475184e+002, 1.042109e+003
8.480005e+002, 1.041789e+003
8.484826e+002, 1.040858e+003
8.489647e+002, 1.040019e+003
8.494468e+002, 1.039423e+003
8.499290e+002, 1.039057e+003
8.504111e+002, 1.038739e+003
8.508932e+002, 1.038796e+003
8.513753e+002, 1.040412e+003
8.518574e+002, 1.042532e+003
8.523395e+002, 1.042301e+003
8.528217e+002, 1.039104e+003
8.533038e+002, 1.035678e+003
8.537859e+002, 1.034768e+003
8.542680e+002, 1.035680e+003
8.547501e+002, 1.036463e+003
8.552322e+002, 1.037123e+003
8.557144e+002, 1.037281e+003
8.561965e+002, 1.036825e+003
8.566786e+002, 1.035993e+003
8.571607e+002, 1.034868e+003
8.576428e+002, 1.033567e+003
8.581249e+002, 1.032481e+003
8.586071e+002, 1.031835e+003
8.590892e+002, 1.030902e+003
8.595713e+002, 1.029153e+003
8.600534e+002, 1.027727e+003
8.605355e+002, 1.027312e+003
8.610176e+002, 1.027260e+003
8.614998e+002, 1.026542e+003
8.619819e+002, 1.025123e+003
8.624640e+002, 1.024510e+003
8.629461e+002, 1.026333e+003
8.634282e+002, 1.028049e+003
8.639103e+002, 1.027826e+003
8.643925e+002, 1.026466e+003
8.648746e+002, 1.024697e+003
8.653567e+002, 1.022902e+003
8.658388e+002, 1.021927e+003
8.663209e+002, 1.022340e+003
8.668030e+002, 1.023186e+003
8.672852e+002, 1.022822e+003
8.677673e+002, 1.021549e+003
8.682494e+002, 1.021144e+003
8.687315e+002, 1.021748e+003
8.692136e+002, 1.021894e+003
8.696957e+002, 1.020895e+003
8.701779e+002, 1.019446e+003
8.706600e+002, 1.018466e+003
8.711421e+002, 1.017954e+003
8.716242e+002, 1.017454e+003
8.721063e+002, 1.016957e+003
8.725884e+002, 1.016479e+003
8.730705e+002, 1.016230e+003
8.735526e+002, 1.015799e+003
8.740347e+002, 1.014692e+003
8.745168e+002, 1.013242e+003
8.749990e+002, 1.012233e+003
8.754811e+002, 1.011807e+003
8.759632e+002, 1.011803e+003
8.764453e+002, 1.012715e+003
8.769274e+002, 1.013502e+003
8.774095e+002, 1.013430e+003
8.778917e+002, 1.012668e+003
8.783738e+002, 1.011318e+003
8.788559e+002, 1.009566e+003
8.793380e+002, 1.008280e+003
8.798201e+002, 1.008535e+003
8.803022e+002, 1.009171e+003
8.807844e+002, 1.007826e+003
8.812665e+002, 1.005187e+003
8.817486e+002, 1.003992e+003
8.822307e+002, 1.004599e+003
8.827128e+002, 1.005310e+003
8.831949e+002, 1.005105e+003
8.836771e+002, 1.004098e+003
8.841592e+002, 1.002156e+003
8.846413e+002, 9.988533e+002
8.851234e+002, 9.980703e+002
8.856055e+002, 1.001196e+003
8.860876e+002, 1.003377e+003
8.865698e+002, 1.002594e+003
8.870519e+002, 1.000487e+003
8.875340e+002, 9.985333e+002
8.880161e+002, 9.967722e+002
8.884982e+002, 9.957008e+002
8.889803e+002, 9.961035e+002
8.894625e+002, 9.961093e+002
8.899446e+002, 9.951056e+002
8.904267e+002, 9.938834e+002
8.909088e+002, 9.926857e+002
8.913909e+002, 9.917786e+002
8.918730e+002, 9.916869e+002
8.923552e+002, 9.925876e+002
8.928373e+002, 9.935270e+002
8.933194e+002, 9.943514e+002
8.938015e+002, 9.945423e+002
8.942836e+002, 9.931565e+002
8.947657e+002, 9.908176e+002
8.952479e+002, 9.887312e+002
8.957300e+002, 9.872018e+002
8.962121e+002, 9.860427e+002
8.966942e+002, 9.851378e+002
8.971763e+002, 9.844650e+002
8.976584e+002, 9.840463e+002
8.981406e+002, 9.838516e+002
8.986227e+002, 9.836298e+002
8.991048e+002, 9.833646e+002
8.995869e+002, 9.829528e+002
9.000690e+002, 9.823590e+002
9.005511e+002, 9.815021e+002
9.010333e+002, 9.801152e+002
9.015154e+002, 9.781238e+002
9.019975e+002, 9.773280e+002
9.024796e+002, 9.787115e+002
9.029617e+002, 9.794584e+002
9.034438e+002, 9.785361e+002
9.039260e+002, 9.773272e+002
9.044081e+002, 9.768937e+002
9.048902e+002, 9.768925e+002
9.053723e+002, 9.763358e+002
9.058544e+002, 9.747136e+002
9.063365e+002, 9.737192e+002
9.068187e+002, 9.740936e+002
9.073008e+002, 9.748611e+002
9.077829e+002, 9.759592e+002
9.082650e+002, 9.768079e+002
9.087471e+002, 9.765788e+002
9.092292e+002, 9.752394e+002
9.097114e+002, 9.735473e+002
9.101935e+002, 9.716730e+002
9.106756e+002, 9.700729e+002
9.111577e+002, 9.696047e+002
9.116398e+002, 9.695704e+002
9.121219e+002, 9.681950e+002
9.126041e+002, 9.658076e+002
9.130862e+002, 9.649122e+002
9.135683e+002, 9.667019e+002
9.140504e+002, 9.691003e+002
9.145325e+002, 9.692973e+002
9.150146e+002, 9.676423e+002
9.154968e+002, 9.659061e+002
9.159789e+002, 9.640667e+002
9.164610e+002, 9.630240e+002
9.169431e+002, 9.630822e+002
9.174252e+002, 9.635970e+002
9.179073e+002, 9.639975e+002
9.183895e+002, 9.644656e+002
9.188716e+002, 9.658350e+002
9.193537e+002, 9.692719e+002
9.198358e+002, 9.706024e+002
9.203179e+002, 9.688692e+002
9.208000e+002, 9.663589e+002
9.212822e+002, 9.629156e+002
9.217643e+002, 9.598018e+002
9.222464e+002, 9.587135e+002
9.227285e+002, 9.595704e+002
9.232106e+002, 9.601565e+002
9.236927e+002, 9.597502e+002
9.241749e+002, 9.595920e+002
9.246570e+002, 9.607137e+002
9.251391e+002, 9.616002e+002
9.256212e+002, 9.606975e+002
9.261033e+002, 9.587186e+002
9.265854e+002, 9.571615e+002
9.270676e+002, 9.564608e+002
9.275497e+002, 9.564963e+002
9.280318e+002, 9.576166e+002
9.285139e+002, 9.590696e+002
9.289960e+002, 9.606935e+002
9.294781e+002, 9.618768e+002
9.299603e+002, 9.610994e+002
9.304424e+002, 9.584843e+002
9.309245e+002, 9.559954e+002
9.314066e+002, 9.548842e+002
9.318887e+002, 9.545211e+002
9.323708e+002, 9.540242e+002
9.328530e+002, 9.534286e+002
9.333351e+002, 9.528470e+002
9.338172e+002, 9.522912e+002
9.342993e+002, 9.519314e+002
9.347814e+002, 9.518438e+002
9.352635e+002, 9.518187e+002
9.357457e+002, 9.516315e+002
9.362278e+002, 9.513010e+002
9.367099e+002, 9.508922e+002
9.371920e+002, 9.502699e+002
9.376741e+002, 9.502479e+002
9.381563e+002, 9.513755e+002
9.386384e+002, 9.520697e+002
9.391205e+002, 9.512758e+002
9.396026e+002, 9.496592e+002
9.400847e+002, 9.482844e+002
9.405668e+002, 9.470714e+002
9.410490e+002, 9.465988e+002
9.415311e+002, 9.478314e+002
9.420132e+002, 9.484664e+002
9.424953e+002, 9.475387e+002
9.429774e+002, 9.463616e+002
9.434595e+002, 9.459747e+002
9.439417e+002, 9.461125e+002
9.444238e+002, 9.459357e+002
9.449059e+002, 9.451656e+002
9.453880e+002, 9.445421e+002
9.458701e+002, 9.444315e+002
9.463522e+002, 9.444422e+002
9.468344e+002, 9.444275e+002
9.473165e+002, 9.443156e+002
9.477986e+002, 9.441058e+002
9.482807e+002, 9.437414e+002
9.487628e+002, 9.429473e+002
9.492449e+002, 9.413475e+002
9.497271e+002, 9.398641e+002
9.502092e+002, 9.394323e+002
9.506913e+002, 9.396458e+002
9.511734e+002, 9.401453e+002
9.516555e+002, 9.406927e+002
9.521376e+002, 9.405856e+002
9.526198e+002, 9.396584e+002
9.531019e+002, 9.388770e+002
9.535840e+002, 9.393079e+002
9.540661e+002, 9.403624e+002
9.545482e+002, 9.405312e+002
9.550303e+002, 9.399584e+002
9.555124e+002, 9.396146e+002
9.559945e+002, 9.396335e+002
9.564766e+002, 9.396973e+002
9.569587e+002, 9.396462e+002
9.574409e+002, 9.394661e+002
9.579230e+002, 9.390785e+002
9.584051e+002, 9.384890e+002
9.588872e+002, 9.383692e+002
9.593693e+002, 9.389075e+002
9.598514e+002, 9.390215e+002
9.603336e+002, 9.382039e+002
9.608157e+002, 9.375811e+002
9.612978e+002, 9.382498e+002
9.617799e+002, 9.395873e+002
9.622620e+002, 9.398110e+002
9.627441e+002, 9.385410e+002
9.632263e+002, 9.373342e+002
9.637084e+002, 9.361464e+002
9.641905e+002, 9.350979e+002
9.646726e+002, 9.337880e+002
9.651547e+002, 9.329814e+002
9.656368e+002, 9.338252e+002
9.661190e+002, 9.358488e+002
9.666011e+002, 9.368817e+002
9.670832e+002, 9.363525e+002
9.675653e+002, 9.354536e+002
9.680474e+002, 9.338141e+002
9.685295e+002, 9.325420e+002
9.690117e+002, 9.326217e+002
9.694938e+002, 9.332589e+002
9.699759e+002, 9.333293e+002
9.704580e+002, 9.327640e+002
9.709401e+002, 9.324166e+002
9.714222e+002, 9.331810e+002
9.719044e+002, 9.334150e+002
9.723865e+002, 9.312338e+002
9.728686e+002, 9.286663e+002
9.733507e+002, 9.280656e+002
9.738328e+002, 9.288797e+002
9.743149e+002, 9.294966e+002
9.747971e+002, 9.294211e+002
9.752792e+002, 9.291552e+002
9.757613e+002, 9.291296e+002
9.762434e+002, 9.290905e+002
9.767255e+002, 9.283186e+002
9.772076e+002, 9.273969e+002
9.776898e+002, 9.279453e+002
9.781719e+002, 9.297737e+002
9.786540e+002, 9.310099e+002
9.791361e+002, 9.307704e+002
9.796182e+002, 9.298277e+002
9.801003e+002, 9.291058e+002
9.805825e+002, 9.284683e+002
9.810646e+002, 9.271656e+002
9.815467e+002, 9.253912e+002
9.820288e+002, 9.249564e+002
9.825109e+002, 9.262173e+002
9.829930e+002, 9.273719e+002
9.834752e+002, 9.271830e+002
9.839573e+002, 9.265103e+002
9.844394e+002, 9.272556e+002
9.849215e+002, 9.294404e+002
9.854036e+002, 9.297860e+002
9.858857e+002, 9.279102e+002
9.863679e+002, 9.264766e+002
9.868500e+002, 9.262625e+002
9.873321e+002, 9.263644e+002
9.878142e+002, 9.260264e+002
9.882963e+002, 9.254630e+002
9.887784e+002, 9.254162e+002
9.892606e+002, 9.261827e+002
9.897427e+002, 9.263837e+002
9.902248e+002, 9.257993e+002
9.907069e+002, 9.250447e+002
9.911890e+002, 9.241187e+002
9.916711e+002, 9.232953e+002
9.921533e+002, 9.227118e+002
9.926354e+002, 9.224305e+002
9.931175e+002, 9.228441e+002
9.935996e+002, 9.242121e+002
9.940817e+002, 9.258068e+002
9.945638e+002, 9.290092e+002
9.950460e+002, 9.307862e+002
9.955281e+002, 9.288152e+002
9.960102e+002, 9.256393e+002
9.964923e+002, 9.239678e+002
9.969744e+002, 9.237538e+002
9.974565e+002, 9.234822e+002
9.979387e+002, 9.226301e+002
9.984208e+002, 9.221075e+002
9.989029e+002, 9.225328e+002
9.993850e+002, 9.229460e+002
9.998671e+002, 9.222358e+002
1.000349e+003, 9.214002e+002
1.000831e+003, 9.223138e+002
1.001313e+003, 9.249355e+002
1.001796e+003, 9.266331e+002
1.002278e+003, 9.259172e+002
1.002760e+003, 9.246376e+002
1.003242e+003, 9.236129e+002
1.003724e+003, 9.226484e+002
1.004206e+003, 9.213138e+002
1.004688e+003, 9.199716e+002
1.005170e+003, 9.194052e+002
1.005653e+003, 9.197439e+002
1.006135e+003, 9.202126e+002
1.006617e+003, 9.203953e+002
1.007099e+003, 9.204066e+002
1.007581e+003, 9.201775e+002
1.008063e+003, 9.199550e+002
1.008545e+003, 9.201884e+002
1.009027e+003, 9.207473e+002
1.009509e+003, 9.211448e+002
1.009992e+003, 9.212206e+002
1.010474e+003, 9.212828e+002
1.010956e+003, 9.217681e+002
1.011438e+003, 9.222133e+002
1.011920e+003, 9.219170e+002
1.012402e+003, 9.210324e+002
1.012884e+003, 9.195400e+002
1.013366e+003, 9.177455e+002
1.013849e+003, 9.169794e+002
1.014331e+003, 9.177977e+002
1.014813e+003, 9.190090e+002
1.015295e+003, 9.193594e+002
1.015777e+003, 9.190479e+002
1.016259e+003, 9.184008e+002
1.016741e+003, 9.175193e+002
1.017223e+003, 9.169233e+002
1.017705e+003, 9.166700e+002
1.018188e+003, 9.164156e+002
1.018670e+003, 9.159739e+002
1.019152e+003, 9.156160e+002
1.019634e+003, 9.157930e+002
1.020116e+003, 9.163538e+002
1.020598e+003, 9.165161e+002
1.021080e+003, 9.162971e+002
1.021562e+003, 9.161935e+002
1.022044e+003, 9.162938e+002
1.022527e+003, 9.164789e+002
1.023009e+003, 9.167001e+002
1.023491e+003, 9.168788e+002
1.023973e+003, 9.169332e+002
1.024455e+003, 9.168444e+002
1.024937e+003, 9.161811e+002
1.025419e+003, 9.148480e+002
1.025901e+003, 9.137601e+002
1.026384e+003, 9.130502e+002
1.026866e+003, 9.127981e+002
1.027348e+003, 9.131466e+002
1.027830e+003, 9.137841e+002
1.028312e+003, 9.141110e+002
1.028794e+003, 9.141118e+002
1.029276e+003, 9.144086e+002
1.029758e+003, 9.152625e+002
1.030240e+003, 9.153997e+002
1.030723e+003, 9.141589e+002
1.031205e+003, 9.132050e+002
1.031687e+003, 9.138561e+002
1.032169e+003, 9.152490e+002
1.032651e+003, 9.156046e+002
1.033133e+003, 9.147814e+002
1.033615e+003, 9.140261e+002
1.034097e+003, 9.130615e+002
1.034579e+003, 9.127836e+002
1.035062e+003, 9.136922e+002
1.035544e+003, 9.148167e+002
1.036026e+003, 9.156410e+002
1.036508e+003, 9.161595e+002
1.036990e+003, 9.163234e+002
1.037472e+003, 9.160587e+002
1.037954e+003, 9.158311e+002
1.038436e+003, 9.158268e+002
1.038919e+003, 9.155569e+002
1.039401e+003, 9.149464e+002
1.039883e+003, 9.140439e+002
1.040365e+003, 9.124041e+002
1.040847e+003, 9.106480e+002
1.041329e+003, 9.101622e+002
1.041811e+003, 9.111780e+002
1.042293e+003, 9.122556e+002
1.042776e+003, 9.137366e+002
1.043258e+003, 9.147800e+002
1.043740e+003, 9.156451e+002
1.044222e+003, 9.156297e+002
1.044704e+003, 9.133699e+002
1.045186e+003, 9.102117e+002
1.045668e+003, 9.090176e+002
1.046150e+003, 9.103722e+002
1.046632e+003, 9.107921e+002
1.047115e+003, 9.086971e+002
1.047597e+003, 9.072966e+002
1.048079e+003, 9.079314e+002
1.048561e+003, 9.089627e+002
1.049043e+003, 9.090703e+002
1.049525e+003, 9.088202e+002
1.050007e+003, 9.095463e+002
1.050489e+003, 9.115184e+002
1.050971e+003, 9.128719e+002
1.051454e+003, 9.129764e+002
1.051936e+003, 9.127757e+002
1.052418e+003, 9.124014e+002
1.052900e+003, 9.119568e+002
1.053382e+003, 9.115467e+002
1.053864e+003, 9.111032e+002
1.054346e+003, 9.105588e+002
1.054828e+003, 9.099085e+002
1.055311e+003, 9.088775e+002
1.055793e+003, 9.064806e+002
1.056275e+003, 9.049332e+002
1.056757e+003, 9.057889e+002
1.057239e+003, 9.070007e+002
1.057721e+003, 9.069486e+002
1.058203e+003, 9.061946e+002
1.058685e+003, 9.059124e+002
1.059167e+003, 9.062778e+002
1.059650e+003, 9.065491e+002
1.060132e+003, 9.062912e+002
1.060614e+003, 9.061617e+002
1.061096e+003, 9.062723e+002
1.061578e+003, 9.067360e+002
1.062060e+003, 9.083060e+002
1.062542e+003, 9.099775e+002
1.063024e+003, 9.097645e+002
1.063506e+003, 9.075438e+002
1.063989e+003, 9.060084e+002
1.064471e+003, 9.066694e+002
1.064953e+003, 9.074134e+002
1.065435e+003, 9.077963e+002
1.065917e+003, 9.075090e+002
1.066399e+003, 9.056008e+002
1.066881e+003, 9.032211e+002
1.067363e+003, 9.023347e+002
1.067846e+003, 9.030419e+002
1.068328e+003, 9.033959e+002
1.068810e+003, 9.022111e+002
1.069292e+003, 9.013691e+002
1.069774e+003, 9.022376e+002
1.070256e+003, 9.032405e+002
1.070738e+003, 9.033027e+002
1.071220e+003, 9.026832e+002
1.071703e+003, 9.014611e+002
1.072185e+003, 8.999433e+002
1.072667e+003, 8.994667e+002
1.073149e+003, 9.010576e+002
1.073631e+003, 9.025121e+002
1.074113e+003, 9.028585e+002
1.074595e+003, 9.026407e+002
1.075077e+003, 9.021496e+002
1.075559e+003, 9.014016e+002
1.076042e+003, 9.001535e+002
1.076524e+003, 8.985883e+002
1.077006e+003, 8.974678e+002
1.077488e+003, 8.970224e+002
1.077970e+003, 8.971240e+002
1.078452e+003, 8.982433e+002
1.078934e+003, 8.993102e+002
1.079416e+003, 8.997587e+002
1.079898e+003, 8.996418e+002
1.080380e+003, 8.988317e+002
1.080863e+003, 8.975700e+002
1.081345e+003, 8.965303e+002
1.081827e+003, 8.959175e+002
1.082309e+003, 8.955603e+002
1.082791e+003, 8.952722e+002
1.083273e+003, 8.953321e+002
1.083755e+003, 8.964643e+002
1.084237e+003, 8.975967e+002
1.084720e+003, 8.972914e+002
1.085202e+003, 8.960229e+002
1.085684e+003, 8.953527e+002
1.086166e+003, 8.957379e+002
1.086648e+003, 8.961789e+002
1.087130e+003, 8.962117e+002
1.087612e+003, 8.962390e+002
1.088094e+003, 8.966511e+002
1.088577e+003, 8.969967e+002
1.089059e+003, 8.966671e+002
1.089541e+003, 8.959943e+002
1.090023e+003, 8.958416e+002
1.090505e+003, 8.963918e+002
1.090987e+003, 8.965735e+002
1.091469e+003, 8.957917e+002
1.091951e+003, 8.948388e+002
1.092433e+003, 8.938070e+002
1.092916e+003, 8.929893e+002
1.093398e+003, 8.927878e+002
1.093880e+003, 8.928963e+002
1.094362e+003, 8.926346e+002
1.094844e+003, 8.919838e+002
1.095326e+003, 8.919990e+002
1.095808e+003, 8.942108e+002
1.096290e+003, 8.953659e+002
1.096772e+003, 8.926871e+002
1.097255e+003, 8.904654e+002
1.097737e+003, 8.922300e+002
1.098219e+003, 8.956147e+002
1.098701e+003, 8.976190e+002
1.099183e+003, 8.979442e+002
1.099665e+003, 8.972822e+002
1.100147e+003, 8.952802e+002
1.100629e+003, 8.933488e+002
1.101112e+003, 8.915222e+002
1.101594e+003, 8.902371e+002
1.102076e+003, 8.898329e+002
1.102558e+003, 8.899725e+002
1.103040e+003, 8.905007e+002
1.103522e+003, 8.912540e+002
1.104004e+003, 8.918023e+002
1.104486e+003, 8.921500e+002
1.104969e+003, 8.920726e+002
1.105451e+003, 8.908474e+002
1.105933e+003, 8.900785e+002
1.106415e+003, 8.905409e+002
1.106897e+003, 8.914747e+002
1.107379e+003, 8.926933e+002
1.107861e+003, 8.938024e+002
1.108343e+003, 8.938034e+002
1.108825e+003, 8.923672e+002
1.109307e+003, 8.913287e+002
1.109790e+003, 8.905589e+002
1.110272e+003, 8.906085e+002
1.110754e+003, 8.930177e+002
1.111236e+003, 8.947717e+002
1.111718e+003, 8.933795e+002
1.112200e+003, 8.905029e+002
1.112682e+003, 8.887572e+002
1.113164e+003, 8.882081e+002
1.113647e+003, 8.882469e+002
1.114129e+003, 8.898716e+002
1.114611e+003, 8.904158e+002
1.115093e+003, 8.887315e+002
1.115575e+003, 8.872822e+002
1.116057e+003, 8.873446e+002
1.116539e+003, 8.879404e+002
1.117021e+003, 8.878884e+002
1.117504e+003, 8.873221e+002
1.117986e+003, 8.872841e+002
1.118468e+003, 8.883091e+002
1.118950e+003, 8.885202e+002
1.119432e+003, 8.873134e+002
1.119914e+003, 8.864600e+002
1.120396e+003, 8.865219e+002
1.120878e+003, 8.871132e+002
1.121360e+003, 8.880355e+002
1.121843e+003, 8.891465e+002
1.122325e+003, 8.900482e+002
1.122807e+003, 8.907668e+002
1.123289e+003, 8.910953e+002
1.123771e+003, 8.909294e+002
1.124253e+003, 8.907916e+002
1.124735e+003, 8.909300e+002
1.125217e+003, 8.906139e+002
1.125699e+003, 8.891316e+002
1.126182e+003, 8.874836e+002
1.126664e+003, 8.875551e+002
1.127146e+003, 8.892070e+002
1.127628e+003, 8.897317e+002
1.128110e+003, 8.889415e+002
1.128592e+003, 8.887930e+002
1.129074e+003, 8.896556e+002
1.129556e+003, 8.901472e+002
1.130039e+003, 8.895478e+002
1.130521e+003, 8.889120e+002
1.131003e+003, 8.895908e+002
1.131485e+003, 8.909727e+002
1.131967e+003, 8.906097e+002
1.132449e+003, 8.886497e+002
1.132931e+003, 8.877542e+002
1.133413e+003, 8.880635e+002
1.133896e+003, 8.891213e+002
1.134378e+003, 8.907849e+002
1.134860e+003, 8.919620e+002
1.135342e+003, 8.917736e+002
1.135824e+003, 8.907640e+002
1.136306e+003, 8.896224e+002
1.136788e+003, 8.885410e+002
1.137270e+003, 8.882465e+002
1.137752e+003, 8.887077e+002
1.138234e+003, 8.900356e+002
1.138717e+003, 8.920457e+002
1.139199e+003, 8.934836e+002
1.139681e+003, 8.937133e+002
1.140163e+003, 8.930137e+002
1.140645e+003, 8.910331e+002
1.141127e+003, 8.889557e+002
1.141609e+003, 8.892564e+002
1.142091e+003, 8.910144e+002
1.142574e+003, 8.925553e+002
1.143056e+003, 8.935593e+002
1.143538e+003, 8.936575e+002
1.144020e+003, 8.928606e+002
1.144502e+003, 8.921104e+002
1.144984e+003, 8.918893e+002
1.145466e+003, 8.924298e+002
1.145948e+003, 8.947593e+002
1.146431e+003, 8.973538e+002
1.146913e+003, 8.982568e+002
1.147395e+003, 8.979592e+002
1.147877e+003, 8.971857e+002
1.148359e+003, 8.963622e+002
1.148841e+003, 8.965355e+002
1.149323e+003, 8.984412e+002
1.149805e+003, 8.995268e+002
1.150287e+003, 8.969764e+002
1.150770e+003, 8.944000e+002
1.151252e+003, 8.949114e+002
1.151734e+003, 8.963671e+002
1.152216e+003, 8.961783e+002
1.152698e+003, 8.949837e+002
1.153180e+003, 8.947571e+002
1.153662e+003, 8.959139e+002
1.154144e+003, 8.974895e+002
1.154626e+003, 9.003487e+002
1.155109e+003, 9.019026e+002
1.155591e+003, 9.000814e+002
1.156073e+003, 8.980452e+002
1.156555e+003, 8.978242e+002
1.157037e+003, 8.985031e+002
1.157519e+003, 8.987264e+002
1.158001e+003, 8.985443e+002
1.158483e+003, 8.989812e+002
1.158966e+003, 9.008448e+002
1.159448e+003, 9.018005e+002
1.159930e+003, 9.009464e+002
1.160412e+003, 9.002008e+002
1.160894e+003, 8.999461e+002
1.161376e+003, 9.001166e+002
1.161858e+003, 9.009676e+002
1.162340e+003, 9.020321e+002
1.162822e+003, 9.021640e+002
1.163305e+003, 9.011960e+002
1.163787e+003, 9.011544e+002
1.164269e+003, 9.024354e+002
1.164751e+003, 9.035226e+002
1.165233e+003, 9.042950e+002
1.165715e+003, 9.045902e+002
1.166197e+003, 9.042206e+002
1.166679e+003, 9.035978e+002
1.167161e+003, 9.031288e+002
1.167644e+003, 9.028953e+002
1.168126e+003, 9.034294e+002
1.168608e+003, 9.047811e+002
1.169090e+003, 9.050793e+002
1.169572e+003, 9.041990e+002
1.170054e+003, 9.040896e+002
1.170536e+003, 9.052996e+002
1.171018e+003, 9.064677e+002
1.171500e+003, 9.066410e+002
1.171983e+003, 9.063747e+002
1.172465e+003, 9.066588e+002
1.172947e+003, 9.071986e+002
1.173429e+003, 9.067779e+002
1.173911e+003, 9.057399e+002
1.174393e+003, 9.053185e+002
1.174875e+003, 9.056522e+002
1.175357e+003, 9.066511e+002
1.175840e+003, 9.082050e+002
1.176322e+003, 9.094013e+002
1.176804e+003, 9.093632e+002
1.177286e+003, 9.088997e+002
1.177768e+003, 9.092713e+002
1.178250e+003, 9.096702e+002
1.178732e+003, 9.083538e+002
1.179214e+003, 9.063703e+002
1.179697e+003, 9.060824e+002
1.180179e+003, 9.074794e+002
1.180661e+003, 9.086323e+002
1.181143e+003, 9.086755e+002
1.181625e+003, 9.089454e+002
1.182107e+003, 9.109372e+002
1.182589e+003, 9.125886e+002
1.183071e+003, 9.118607e+002
1.183553e+003, 9.107574e+002
1.184036e+003, 9.116482e+002
1.184518e+003, 9.134482e+002
1.185000e+003, 9.137665e+002
1.185482e+003, 9.123404e+002
1.185964e+003, 9.111171e+002
1.186446e+003, 9.105429e+002
1.186928e+003, 9.101986e+002
1.187410e+003, 9.095186e+002
1.187892e+003, 9.096874e+002
1.188375e+003, 9.122111e+002
1.188857e+003, 9.149404e+002
1.189339e+003, 9.160001e+002
1.189821e+003, 9.156874e+002
1.190303e+003, 9.146314e+002
1.190785e+003, 9.124971e+002
1.191267e+003, 9.116895e+002
1.191749e+003, 9.127247e+002
1.192232e+003, 9.136984e+002
1.192714e+003, 9.144671e+002
1.193196e+003, 9.145094e+002
1.193678e+003, 9.131902e+002
1.194160e+003, 9.121534e+002
1.194642e+003, 9.136349e+002
1.195124e+003, 9.168031e+002
1.195606e+003, 9.182455e+002
1.196089e+003, 9.180382e+002
1.196571e+003, 9.184991e+002
1.197053e+003, 9.196620e+002
1.197535e+003, 9.199876e+002
1.198017e+003, 9.191258e+002
1.198499e+003, 9.179861e+002
1.198981e+003, 9.171063e+002
1.199463e+003, 9.166134e+002
1.199945e+003, 9.167155e+002
1.200427e+003, 9.172966e+002
1.200910e+003, 9.184258e+002
1.201392e+003, 9.197321e+002
1.201874e+003, 9.205473e+002
1.202356e+003, 9.207444e+002
1.202838e+003, 9.198652e+002
1.203320e+003, 9.180584e+002
1.203802e+003, 9.171232e+002
1.204284e+003, 9.183843e+002
1.204767e+003, 9.199670e+002
1.205249e+003, 9.208534e+002
1.205731e+003, 9.210410e+002
1.206213e+003, 9.196868e+002
1.206695e+003, 9.182579e+002
1.207177e+003, 9.189157e+002
1.207659e+003, 9.209202e+002
1.208141e+003, 9.218606e+002
1.208624e+003, 9.211973e+002
1.209106e+003, 9.207045e+002
1.209588e+003, 9.209874e+002
1.210070e+003, 9.212084e+002
1.210552e+003, 9.211426e+002
1.211034e+003, 9.210331e+002
1.211516e+003, 9.208878e+002
1.211998e+003, 9.208331e+002
1.212480e+003, 9.207748e+002
1.212963e+003, 9.209529e+002
1.213445e+003, 9.225207e+002
1.213927e+003, 9.261464e+002
1.214409e+003, 9.275402e+002
1.214891e+003, 9.260179e+002
1.215373e+003, 9.250302e+002
1.215855e+003, 9.253778e+002
1.216337e+003, 9.255297e+002
1.216819e+003, 9.246597e+002
1.217302e+003, 9.233019e+002
1.217784e+003, 9.219745e+002
1.218266e+003, 9.209160e+002
1.218748e+003, 9.211143e+002
1.219230e+003, 9.222696e+002
1.219712e+003, 9.228544e+002
1.220194e+003, 9.228645e+002
1.220676e+003, 9.227059e+002
1.221159e+003, 9.224893e+002
1.221641e+003, 9.220329e+002
1.222123e+003, 9.212063e+002
1.222605e+003, 9.209186e+002
1.223087e+003, 9.226038e+002
1.223569e+003, 9.247697e+002
1.224051e+003, 9.259584e+002
1.224533e+003, 9.263770e+002
1.225016e+003, 9.254424e+002
1.225498e+003, 9.243028e+002
1.225980e+003, 9.257631e+002
1.226462e+003, 9.295742e+002
1.226944e+003, 9.314393e+002
1.227426e+003, 9.290704e+002
1.227908e+003, 9.269626e+002
1.228390e+003, 9.267979e+002
1.228872e+003, 9.269980e+002
1.229354e+003, 9.270582e+002
1.229837e+003, 9.270751e+002
1.230319e+003, 9.269831e+002
1.230801e+003, 9.270072e+002
1.231283e+003, 9.277330e+002
1.231765e+003, 9.291210e+002
1.232247e+003, 9.294431e+002
1.232729e+003, 9.281910e+002
1.233211e+003, 9.273607e+002
1.233694e+003, 9.268136e+002
1.234176e+003, 9.277887e+002
1.234658e+003, 9.311248e+002
1.235140e+003, 9.339975e+002
1.235622e+003, 9.343496e+002
1.236104e+003, 9.331066e+002
1.236586e+003, 9.314697e+002
1.237068e+003, 9.297902e+002
1.237551e+003, 9.297426e+002
1.238033e+003, 9.309844e+002
1.238515e+003, 9.322697e+002
1.238997e+003, 9.333154e+002
1.239479e+003, 9.336985e+002
1.239961e+003, 9.332834e+002
1.240443e+003, 9.318907e+002
1.240925e+003, 9.291083e+002
1.241407e+003, 9.268962e+002
1.241890e+003, 9.275940e+002
1.242372e+003, 9.292949e+002
1.242854e+003, 9.304338e+002
1.243336e+003, 9.312263e+002
1.243818e+003, 9.321903e+002
1.244300e+003, 9.330342e+002
1.244782e+003, 9.326438e+002
1.245264e+003, 9.310483e+002
1.245746e+003, 9.309219e+002
1.246229e+003, 9.344303e+002
1.246711e+003, 9.367197e+002
1.247193e+003, 9.366618e+002
1.247675e+003, 9.356518e+002
1.248157e+003, 9.330214e+002
1.248639e+003, 9.310049e+002
1.249121e+003, 9.315198e+002
1.249603e+003, 9.333077e+002
1.250085e+003, 9.340889e+002
1.250568e+003, 9.339320e+002
1.251050e+003, 9.342398e+002
1.251532e+003, 9.351146e+002
1.252014e+003, 9.350505e+002
1.252496e+003, 9.338738e+002
1.252978e+003, 9.335539e+002
1.253460e+003, 9.346766e+002
1.253942e+003, 9.360460e+002
1.254425e+003, 9.368824e+002
1.254907e+003, 9.370536e+002
1.255389e+003, 9.359125e+002
1.255871e+003, 9.343182e+002
1.256353e+003, 9.339020e+002
1.256835e+003, 9.342357e+002
1.257317e+003, 9.345657e+002
1.257799e+003, 9.349313e+002
1.258281e+003, 9.357859e+002
1.258764e+003, 9.370947e+002
1.259246e+003, 9.381892e+002
1.259728e+003, 9.388840e+002
1.260210e+003, 9.389609e+002
1.260692e+003, 9.375093e+002
1.261174e+003, 9.364879e+002
1.261656e+003, 9.368668e+002
1.262138e+003, 9.379844e+002
1.262620e+003, 9.400809e+002
1.263103e+003, 9.421198e+002
1.263585e+003, 9.421990e+002
1.264067e+003, 9.406270e+002
1.264549e+003, 9.400714e+002
1.265031e+003, 9.408661e+002
1.265513e+003, 9.415063e+002
1.265995e+003, 9.419363e+002
1.266477e+003, 9.424412e+002
1.266960e+003, 9.431439e+002
1.267442e+003, 9.434302e+002
1.267924e+003, 9.429261e+002
1.268406e+003, 9.421240e+002
1.268888e+003, 9.415334e+002
1.269370e+003, 9.412135e+002
1.269852e+003, 9.413408e+002
1.270334e+003, 9.418217e+002
1.270817e+003, 9.426663e+002
1.271299e+003, 9.435885e+002
1.271781e+003, 9.438100e+002
1.272263e+003, 9.433495e+002
1.272745e+003, 9.426738e+002
1.273227e+003, 9.419630e+002
1.273709e+003, 9.418704e+002
1.274191e+003, 9.436204e+002
1.274673e+003, 9.449334e+002
1.275156e+003, 9.439192e+002
1.275638e+003, 9.429415e+002
1.276120e+003, 9.440756e+002
1.276602e+003, 9.457011e+002
1.277084e+003, 9.457444e+002
1.277566e+003, 9.446697e+002
1.278048e+003, 9.442162e+002
1.278530e+003, 9.444219e+002
1.279012e+003, 9.449808e+002
1.279495e+003, 9.458475e+002
1.279977e+003, 9.471513e+002
1.280459e+003, 9.490907e+002
1.280941e+003, 9.508000e+002
1.281423e+003, 9.520091e+002
1.281905e+003, 9.524005e+002
1.282387e+003, 9.516697e+002
1.282869e+003, 9.503325e+002
1.283352e+003, 9.487100e+002
1.283834e+003, 9.473397e+002
1.284316e+003, 9.473097e+002
1.284798e+003, 9.486663e+002
##END=



