##NAMES=Simonkolleite
##RRUFFID=R130616
##IDEAL CHEMISTRY=Zn^2+^_5_(OH)_8_Cl_2_&#183;H_2_O
##LOCALITY=Rowley mine, Maricopa County, Arizona, USA
##OWNER=RRUFF
##SOURCE=Danielle Sotomayor and Keith Wentz
##DESCRIPTION=Colorless hexagonal tabular crystals, associated with blue platy crystals with chemistry CuZnCl(OH)<sub>3</sub> (R140401). Crystals are on a metallic mining artifact of copper composition.
##STATUS=The identification of this mineral has been confirmed only by single crystal X-ray diffraction.
##URL=rruff.info/R130616
9.059570e+001, 1.842598e+002
9.107782e+001, 1.788891e+002
9.155994e+001, 1.769882e+002
9.204205e+001, 1.809815e+002
9.252417e+001, 1.868073e+002
9.300629e+001, 1.933046e+002
9.348840e+001, 1.989403e+002
9.397052e+001, 2.020807e+002
9.445264e+001, 2.016522e+002
9.493475e+001, 1.997317e+002
9.541687e+001, 1.979565e+002
9.589898e+001, 1.967009e+002
9.638110e+001, 1.956243e+002
9.686321e+001, 1.945168e+002
9.734533e+001, 1.931750e+002
9.782745e+001, 1.911468e+002
9.830956e+001, 1.885684e+002
9.879168e+001, 1.852377e+002
9.927380e+001, 1.818615e+002
9.975591e+001, 1.783927e+002
1.002380e+002, 1.749123e+002
1.007201e+002, 1.716795e+002
1.012023e+002, 1.686476e+002
1.016844e+002, 1.660903e+002
1.021665e+002, 1.645642e+002
1.026486e+002, 1.645237e+002
1.031307e+002, 1.651405e+002
1.036128e+002, 1.657836e+002
1.040950e+002, 1.664847e+002
1.045771e+002, 1.670270e+002
1.050592e+002, 1.670168e+002
1.055413e+002, 1.667285e+002
1.060234e+002, 1.665822e+002
1.065055e+002, 1.667912e+002
1.069877e+002, 1.672807e+002
1.074698e+002, 1.677646e+002
1.079519e+002, 1.682061e+002
1.084340e+002, 1.686707e+002
1.089161e+002, 1.693350e+002
1.093982e+002, 1.700665e+002
1.098804e+002, 1.705466e+002
1.103625e+002, 1.703773e+002
1.108446e+002, 1.693470e+002
1.113267e+002, 1.687761e+002
1.118088e+002, 1.689408e+002
1.122909e+002, 1.692880e+002
1.127731e+002, 1.697049e+002
1.132552e+002, 1.701032e+002
1.137373e+002, 1.703335e+002
1.142194e+002, 1.701670e+002
1.147015e+002, 1.693112e+002
1.151836e+002, 1.685313e+002
1.156658e+002, 1.678545e+002
1.161479e+002, 1.672329e+002
1.166300e+002, 1.666730e+002
1.171121e+002, 1.661863e+002
1.175942e+002, 1.656562e+002
1.180763e+002, 1.647505e+002
1.185584e+002, 1.632925e+002
1.190406e+002, 1.619164e+002
1.195227e+002, 1.609575e+002
1.200048e+002, 1.602479e+002
1.204869e+002, 1.592990e+002
1.209690e+002, 1.578317e+002
1.214511e+002, 1.560230e+002
1.219333e+002, 1.543126e+002
1.224154e+002, 1.527597e+002
1.228975e+002, 1.512014e+002
1.233796e+002, 1.494671e+002
1.238617e+002, 1.475213e+002
1.243438e+002, 1.456578e+002
1.248260e+002, 1.440798e+002
1.253081e+002, 1.426452e+002
1.257902e+002, 1.412359e+002
1.262723e+002, 1.398213e+002
1.267544e+002, 1.384168e+002
1.272365e+002, 1.371048e+002
1.277187e+002, 1.360300e+002
1.282008e+002, 1.347807e+002
1.286829e+002, 1.330869e+002
1.291650e+002, 1.311986e+002
1.296471e+002, 1.294565e+002
1.301292e+002, 1.280858e+002
1.306114e+002, 1.270621e+002
1.310935e+002, 1.260244e+002
1.315756e+002, 1.249958e+002
1.320577e+002, 1.239237e+002
1.325398e+002, 1.227422e+002
1.330219e+002, 1.214976e+002
1.335041e+002, 1.202952e+002
1.339862e+002, 1.192149e+002
1.344683e+002, 1.182537e+002
1.349504e+002, 1.174640e+002
1.354325e+002, 1.169334e+002
1.359146e+002, 1.164656e+002
1.363968e+002, 1.159567e+002
1.368789e+002, 1.153947e+002
1.373610e+002, 1.148205e+002
1.378431e+002, 1.142782e+002
1.383252e+002, 1.137630e+002
1.388073e+002, 1.133236e+002
1.392895e+002, 1.130559e+002
1.397716e+002, 1.128276e+002
1.402537e+002, 1.124921e+002
1.407358e+002, 1.120203e+002
1.412179e+002, 1.114330e+002
1.417000e+002, 1.106661e+002
1.421821e+002, 1.097326e+002
1.426643e+002, 1.089469e+002
1.431464e+002, 1.085071e+002
1.436285e+002, 1.083360e+002
1.441106e+002, 1.081459e+002
1.445927e+002, 1.078408e+002
1.450748e+002, 1.075437e+002
1.455570e+002, 1.074136e+002
1.460391e+002, 1.074485e+002
1.465212e+002, 1.074123e+002
1.470033e+002, 1.070567e+002
1.474854e+002, 1.063439e+002
1.479675e+002, 1.056753e+002
1.484497e+002, 1.050099e+002
1.489318e+002, 1.044863e+002
1.494139e+002, 1.042749e+002
1.498960e+002, 1.043937e+002
1.503781e+002, 1.046003e+002
1.508602e+002, 1.045023e+002
1.513424e+002, 1.038762e+002
1.518245e+002, 1.034317e+002
1.523066e+002, 1.033056e+002
1.527887e+002, 1.033082e+002
1.532708e+002, 1.033058e+002
1.537529e+002, 1.032462e+002
1.542351e+002, 1.031455e+002
1.547172e+002, 1.030444e+002
1.551993e+002, 1.029735e+002
1.556814e+002, 1.028617e+002
1.561635e+002, 1.027074e+002
1.566456e+002, 1.025109e+002
1.571278e+002, 1.022516e+002
1.576099e+002, 1.019127e+002
1.580920e+002, 1.015343e+002
1.585741e+002, 1.012968e+002
1.590562e+002, 1.011568e+002
1.595383e+002, 1.011750e+002
1.600205e+002, 1.015103e+002
1.605026e+002, 1.020296e+002
1.609847e+002, 1.024474e+002
1.614668e+002, 1.026213e+002
1.619489e+002, 1.025364e+002
1.624310e+002, 1.022266e+002
1.629131e+002, 1.012958e+002
1.633953e+002, 1.005273e+002
1.638774e+002, 1.004630e+002
1.643595e+002, 1.010471e+002
1.648416e+002, 1.017552e+002
1.653237e+002, 1.023879e+002
1.658058e+002, 1.028818e+002
1.662880e+002, 1.031194e+002
1.667701e+002, 1.029223e+002
1.672522e+002, 1.025951e+002
1.677343e+002, 1.024633e+002
1.682164e+002, 1.025420e+002
1.686985e+002, 1.027465e+002
1.691807e+002, 1.032141e+002
1.696628e+002, 1.037368e+002
1.701449e+002, 1.040197e+002
1.706270e+002, 1.038166e+002
1.711091e+002, 1.033845e+002
1.715912e+002, 1.033601e+002
1.720734e+002, 1.040051e+002
1.725555e+002, 1.045872e+002
1.730376e+002, 1.047526e+002
1.735197e+002, 1.046997e+002
1.740018e+002, 1.047019e+002
1.744839e+002, 1.049093e+002
1.749661e+002, 1.053036e+002
1.754482e+002, 1.057827e+002
1.759303e+002, 1.065074e+002
1.764124e+002, 1.071344e+002
1.768945e+002, 1.075083e+002
1.773766e+002, 1.077251e+002
1.778588e+002, 1.079548e+002
1.783409e+002, 1.083298e+002
1.788230e+002, 1.088527e+002
1.793051e+002, 1.093035e+002
1.797872e+002, 1.095071e+002
1.802693e+002, 1.098098e+002
1.807515e+002, 1.103485e+002
1.812336e+002, 1.110822e+002
1.817157e+002, 1.118863e+002
1.821978e+002, 1.126616e+002
1.826799e+002, 1.134066e+002
1.831620e+002, 1.141250e+002
1.836441e+002, 1.147509e+002
1.841263e+002, 1.154114e+002
1.846084e+002, 1.161845e+002
1.850905e+002, 1.170597e+002
1.855726e+002, 1.179560e+002
1.860547e+002, 1.187839e+002
1.865368e+002, 1.195275e+002
1.870190e+002, 1.203897e+002
1.875011e+002, 1.214148e+002
1.879832e+002, 1.225131e+002
1.884653e+002, 1.235860e+002
1.889474e+002, 1.246248e+002
1.894296e+002, 1.257725e+002
1.899117e+002, 1.272387e+002
1.903938e+002, 1.290075e+002
1.908759e+002, 1.306263e+002
1.913580e+002, 1.317369e+002
1.918401e+002, 1.328093e+002
1.923223e+002, 1.344600e+002
1.928044e+002, 1.368381e+002
1.932865e+002, 1.393934e+002
1.937686e+002, 1.415271e+002
1.942507e+002, 1.433852e+002
1.947328e+002, 1.454321e+002
1.952150e+002, 1.478760e+002
1.956971e+002, 1.505993e+002
1.961792e+002, 1.533686e+002
1.966613e+002, 1.561270e+002
1.971434e+002, 1.590267e+002
1.976255e+002, 1.621793e+002
1.981077e+002, 1.655553e+002
1.985898e+002, 1.690473e+002
1.990719e+002, 1.725906e+002
1.995540e+002, 1.762191e+002
2.000361e+002, 1.800289e+002
2.005182e+002, 1.840129e+002
2.010004e+002, 1.882495e+002
2.014825e+002, 1.926530e+002
2.019646e+002, 1.972717e+002
2.024467e+002, 2.021794e+002
2.029288e+002, 2.075316e+002
2.034109e+002, 2.133050e+002
2.038930e+002, 2.189251e+002
2.043752e+002, 2.242265e+002
2.048573e+002, 2.295107e+002
2.053394e+002, 2.349882e+002
2.058215e+002, 2.405289e+002
2.063036e+002, 2.458867e+002
2.067857e+002, 2.508940e+002
2.072679e+002, 2.555655e+002
2.077500e+002, 2.596020e+002
2.082321e+002, 2.626391e+002
2.087142e+002, 2.653314e+002
2.091963e+002, 2.682440e+002
2.096784e+002, 2.710323e+002
2.101606e+002, 2.728125e+002
2.106427e+002, 2.727203e+002
2.111248e+002, 2.705828e+002
2.116069e+002, 2.680690e+002
2.120890e+002, 2.654480e+002
2.125711e+002, 2.622651e+002
2.130533e+002, 2.582545e+002
2.135354e+002, 2.534861e+002
2.140175e+002, 2.481745e+002
2.144996e+002, 2.425109e+002
2.149817e+002, 2.364844e+002
2.154638e+002, 2.300337e+002
2.159460e+002, 2.228812e+002
2.164281e+002, 2.156406e+002
2.169102e+002, 2.084652e+002
2.173923e+002, 2.014432e+002
2.178744e+002, 1.946102e+002
2.183565e+002, 1.880328e+002
2.188387e+002, 1.817352e+002
2.193208e+002, 1.757225e+002
2.198029e+002, 1.700554e+002
2.202850e+002, 1.645573e+002
2.207671e+002, 1.589394e+002
2.212492e+002, 1.532711e+002
2.217314e+002, 1.480844e+002
2.222135e+002, 1.439118e+002
2.226956e+002, 1.408568e+002
2.231777e+002, 1.377422e+002
2.236598e+002, 1.343186e+002
2.241419e+002, 1.310106e+002
2.246240e+002, 1.282357e+002
2.251062e+002, 1.259878e+002
2.255883e+002, 1.238335e+002
2.260704e+002, 1.213800e+002
2.265525e+002, 1.186984e+002
2.270346e+002, 1.162704e+002
2.275167e+002, 1.140749e+002
2.279989e+002, 1.121823e+002
2.284810e+002, 1.107886e+002
2.289631e+002, 1.099169e+002
2.294452e+002, 1.091386e+002
2.299273e+002, 1.081068e+002
2.304094e+002, 1.069394e+002
2.308916e+002, 1.059587e+002
2.313737e+002, 1.052138e+002
2.318558e+002, 1.046850e+002
2.323379e+002, 1.044182e+002
2.328200e+002, 1.044491e+002
2.333021e+002, 1.044864e+002
2.337843e+002, 1.041603e+002
2.342664e+002, 1.037567e+002
2.347485e+002, 1.037555e+002
2.352306e+002, 1.044402e+002
2.357127e+002, 1.054415e+002
2.361948e+002, 1.062847e+002
2.366770e+002, 1.069541e+002
2.371591e+002, 1.075481e+002
2.376412e+002, 1.078994e+002
2.381233e+002, 1.082737e+002
2.386054e+002, 1.090140e+002
2.390875e+002, 1.102909e+002
2.395697e+002, 1.118855e+002
2.400518e+002, 1.134207e+002
2.405339e+002, 1.148275e+002
2.410160e+002, 1.164271e+002
2.414981e+002, 1.182346e+002
2.419802e+002, 1.203290e+002
2.424624e+002, 1.228615e+002
2.429445e+002, 1.259161e+002
2.434266e+002, 1.293033e+002
2.439087e+002, 1.326829e+002
2.443908e+002, 1.359612e+002
2.448729e+002, 1.394878e+002
2.453550e+002, 1.433089e+002
2.458372e+002, 1.474037e+002
2.463193e+002, 1.518049e+002
2.468014e+002, 1.565393e+002
2.472835e+002, 1.614803e+002
2.477656e+002, 1.664210e+002
2.482477e+002, 1.711173e+002
2.487299e+002, 1.764213e+002
2.492120e+002, 1.826119e+002
2.496941e+002, 1.892759e+002
2.501762e+002, 1.962992e+002
2.506583e+002, 2.036288e+002
2.511404e+002, 2.108526e+002
2.516226e+002, 2.173062e+002
2.521047e+002, 2.226387e+002
2.525868e+002, 2.278851e+002
2.530689e+002, 2.333135e+002
2.535510e+002, 2.386039e+002
2.540331e+002, 2.438423e+002
2.545153e+002, 2.489302e+002
2.549974e+002, 2.532979e+002
2.554795e+002, 2.560593e+002
2.559616e+002, 2.568004e+002
2.564437e+002, 2.566361e+002
2.569258e+002, 2.556019e+002
2.574080e+002, 2.538859e+002
2.578901e+002, 2.513731e+002
2.583722e+002, 2.481600e+002
2.588543e+002, 2.446999e+002
2.593364e+002, 2.416004e+002
2.598185e+002, 2.389966e+002
2.603007e+002, 2.364361e+002
2.607828e+002, 2.336672e+002
2.612649e+002, 2.310932e+002
2.617470e+002, 2.289103e+002
2.622291e+002, 2.271611e+002
2.627112e+002, 2.258655e+002
2.631934e+002, 2.250762e+002
2.636755e+002, 2.249528e+002
2.641576e+002, 2.247839e+002
2.646397e+002, 2.246037e+002
2.651218e+002, 2.243604e+002
2.656039e+002, 2.241674e+002
2.660861e+002, 2.239399e+002
2.665682e+002, 2.233977e+002
2.670503e+002, 2.222822e+002
2.675324e+002, 2.205883e+002
2.680145e+002, 2.182194e+002
2.684966e+002, 2.152230e+002
2.689788e+002, 2.116771e+002
2.694609e+002, 2.075325e+002
2.699430e+002, 2.028568e+002
2.704251e+002, 1.978113e+002
2.709072e+002, 1.924857e+002
2.713893e+002, 1.869034e+002
2.718715e+002, 1.812980e+002
2.723536e+002, 1.755550e+002
2.728357e+002, 1.699150e+002
2.733178e+002, 1.645444e+002
2.737999e+002, 1.593822e+002
2.742820e+002, 1.542634e+002
2.747642e+002, 1.490571e+002
2.752463e+002, 1.437839e+002
2.757284e+002, 1.388359e+002
2.762105e+002, 1.341461e+002
2.766926e+002, 1.297423e+002
2.771747e+002, 1.256695e+002
2.776568e+002, 1.218693e+002
2.781389e+002, 1.182293e+002
2.786211e+002, 1.146723e+002
2.791032e+002, 1.112485e+002
2.795853e+002, 1.081802e+002
2.800674e+002, 1.055783e+002
2.805495e+002, 1.031056e+002
2.810316e+002, 1.006710e+002
2.815138e+002, 9.830937e+001
2.819959e+002, 9.609975e+001
2.824780e+002, 9.409171e+001
2.829601e+002, 9.220950e+001
2.834422e+002, 9.029281e+001
2.839243e+002, 8.820171e+001
2.844065e+002, 8.631850e+001
2.848886e+002, 8.475530e+001
2.853707e+002, 8.343782e+001
2.858528e+002, 8.230485e+001
2.863349e+002, 8.135323e+001
2.868170e+002, 8.046612e+001
2.872992e+002, 7.941483e+001
2.877813e+002, 7.813142e+001
2.882634e+002, 7.694348e+001
2.887455e+002, 7.594424e+001
2.892276e+002, 7.505636e+001
2.897097e+002, 7.421128e+001
2.901919e+002, 7.339500e+001
2.906740e+002, 7.258366e+001
2.911561e+002, 7.172065e+001
2.916382e+002, 7.079234e+001
2.921203e+002, 6.995506e+001
2.926024e+002, 6.921367e+001
2.930846e+002, 6.857616e+001
2.935667e+002, 6.808614e+001
2.940488e+002, 6.774378e+001
2.945309e+002, 6.743472e+001
2.950130e+002, 6.705408e+001
2.954951e+002, 6.659930e+001
2.959773e+002, 6.616337e+001
2.964594e+002, 6.579391e+001
2.969415e+002, 6.541177e+001
2.974236e+002, 6.494044e+001
2.979057e+002, 6.438534e+001
2.983878e+002, 6.380542e+001
2.988700e+002, 6.318752e+001
2.993521e+002, 6.258807e+001
2.998342e+002, 6.224745e+001
3.003163e+002, 6.235765e+001
3.007984e+002, 6.254717e+001
3.012805e+002, 6.264957e+001
3.017627e+002, 6.266064e+001
3.022448e+002, 6.257466e+001
3.027269e+002, 6.238233e+001
3.032090e+002, 6.208804e+001
3.036911e+002, 6.170335e+001
3.041732e+002, 6.107647e+001
3.046554e+002, 6.060327e+001
3.051375e+002, 6.055701e+001
3.056196e+002, 6.080585e+001
3.061017e+002, 6.103150e+001
3.065838e+002, 6.114217e+001
3.070659e+002, 6.112308e+001
3.075481e+002, 6.089640e+001
3.080302e+002, 6.040234e+001
3.085123e+002, 5.998294e+001
3.089944e+002, 5.984010e+001
3.094765e+002, 5.982528e+001
3.099586e+002, 5.968887e+001
3.104408e+002, 5.936566e+001
3.109229e+002, 5.892207e+001
3.114050e+002, 5.840221e+001
3.118871e+002, 5.779695e+001
3.123692e+002, 5.727112e+001
3.128513e+002, 5.695149e+001
3.133335e+002, 5.668464e+001
3.138156e+002, 5.626167e+001
3.142977e+002, 5.564859e+001
3.147798e+002, 5.500552e+001
3.152619e+002, 5.445359e+001
3.157440e+002, 5.399743e+001
3.162262e+002, 5.364262e+001
3.167083e+002, 5.352865e+001
3.171904e+002, 5.341817e+001
3.176725e+002, 5.309059e+001
3.181546e+002, 5.255037e+001
3.186367e+002, 5.196575e+001
3.191188e+002, 5.138474e+001
3.196010e+002, 5.086821e+001
3.200831e+002, 5.060347e+001
3.205652e+002, 5.083303e+001
3.210473e+002, 5.106398e+001
3.215294e+002, 5.096298e+001
3.220115e+002, 5.062204e+001
3.224937e+002, 5.038244e+001
3.229758e+002, 5.043938e+001
3.234579e+002, 5.065199e+001
3.239400e+002, 5.065388e+001
3.244221e+002, 5.037500e+001
3.249042e+002, 5.008428e+001
3.253864e+002, 4.984302e+001
3.258685e+002, 4.965866e+001
3.263506e+002, 4.955711e+001
3.268327e+002, 4.955774e+001
3.273148e+002, 4.960288e+001
3.277969e+002, 4.961243e+001
3.282791e+002, 4.959218e+001
3.287612e+002, 4.952393e+001
3.292433e+002, 4.937748e+001
3.297254e+002, 4.919359e+001
3.302075e+002, 4.899567e+001
3.306896e+002, 4.878768e+001
3.311718e+002, 4.863114e+001
3.316539e+002, 4.859574e+001
3.321360e+002, 4.869405e+001
3.326181e+002, 4.880772e+001
3.331002e+002, 4.892262e+001
3.335823e+002, 4.905898e+001
3.340645e+002, 4.930211e+001
3.345466e+002, 4.961877e+001
3.350287e+002, 4.978628e+001
3.355108e+002, 4.960022e+001
3.359929e+002, 4.912659e+001
3.364750e+002, 4.887645e+001
3.369572e+002, 4.906324e+001
3.374393e+002, 4.921918e+001
3.379214e+002, 4.906363e+001
3.384035e+002, 4.872334e+001
3.388856e+002, 4.852750e+001
3.393677e+002, 4.865149e+001
3.398499e+002, 4.895766e+001
3.403320e+002, 4.906156e+001
3.408141e+002, 4.882014e+001
3.412962e+002, 4.866687e+001
3.417783e+002, 4.876415e+001
3.422604e+002, 4.896550e+001
3.427426e+002, 4.908099e+001
3.432247e+002, 4.905611e+001
3.437068e+002, 4.896067e+001
3.441889e+002, 4.888612e+001
3.446710e+002, 4.883778e+001
3.451531e+002, 4.880221e+001
3.456353e+002, 4.878547e+001
3.461174e+002, 4.877796e+001
3.465995e+002, 4.876435e+001
3.470816e+002, 4.874780e+001
3.475637e+002, 4.874906e+001
3.480458e+002, 4.877882e+001
3.485280e+002, 4.883648e+001
3.490101e+002, 4.899857e+001
3.494922e+002, 4.949756e+001
3.499743e+002, 4.985242e+001
3.504564e+002, 4.974014e+001
3.509385e+002, 4.931652e+001
3.514207e+002, 4.892825e+001
3.519028e+002, 4.876536e+001
3.523849e+002, 4.882013e+001
3.528670e+002, 4.907349e+001
3.533491e+002, 4.982481e+001
3.538312e+002, 5.040223e+001
3.543134e+002, 5.070728e+001
3.547955e+002, 5.080334e+001
3.552776e+002, 5.067971e+001
3.557597e+002, 5.034604e+001
3.562418e+002, 5.001392e+001
3.567239e+002, 5.005796e+001
3.572061e+002, 5.075574e+001
3.576882e+002, 5.127884e+001
3.581703e+002, 5.154895e+001
3.586524e+002, 5.172167e+001
3.591345e+002, 5.186283e+001
3.596166e+002, 5.200138e+001
3.600987e+002, 5.217039e+001
3.605808e+002, 5.240236e+001
3.610630e+002, 5.269905e+001
3.615451e+002, 5.304439e+001
3.620272e+002, 5.343560e+001
3.625093e+002, 5.387280e+001
3.629914e+002, 5.441030e+001
3.634735e+002, 5.499187e+001
3.639557e+002, 5.548475e+001
3.644378e+002, 5.579533e+001
3.649199e+002, 5.599965e+001
3.654020e+002, 5.642360e+001
3.658841e+002, 5.718374e+001
3.663662e+002, 5.802679e+001
3.668484e+002, 5.896864e+001
3.673305e+002, 5.994759e+001
3.678126e+002, 6.087941e+001
3.682947e+002, 6.174126e+001
3.687768e+002, 6.263057e+001
3.692589e+002, 6.372608e+001
3.697411e+002, 6.512868e+001
3.702232e+002, 6.646038e+001
3.707053e+002, 6.756768e+001
3.711874e+002, 6.872534e+001
3.716695e+002, 7.013451e+001
3.721516e+002, 7.175815e+001
3.726338e+002, 7.340125e+001
3.731159e+002, 7.479129e+001
3.735980e+002, 7.594781e+001
3.740801e+002, 7.768671e+001
3.745622e+002, 8.047446e+001
3.750443e+002, 8.331255e+001
3.755265e+002, 8.581929e+001
3.760086e+002, 8.816926e+001
3.764907e+002, 9.056577e+001
3.769728e+002, 9.306359e+001
3.774549e+002, 9.580918e+001
3.779370e+002, 9.919948e+001
3.784192e+002, 1.034223e+002
3.789013e+002, 1.077653e+002
3.793834e+002, 1.119460e+002
3.798655e+002, 1.162239e+002
3.803476e+002, 1.207624e+002
3.808297e+002, 1.255977e+002
3.813119e+002, 1.308074e+002
3.817940e+002, 1.364438e+002
3.822761e+002, 1.425155e+002
3.827582e+002, 1.489329e+002
3.832403e+002, 1.555467e+002
3.837224e+002, 1.627444e+002
3.842046e+002, 1.708243e+002
3.846867e+002, 1.796284e+002
3.851688e+002, 1.888125e+002
3.856509e+002, 1.981871e+002
3.861330e+002, 2.077289e+002
3.866151e+002, 2.173833e+002
3.870973e+002, 2.270264e+002
3.875794e+002, 2.371275e+002
3.880615e+002, 2.482021e+002
3.885436e+002, 2.598999e+002
3.890257e+002, 2.718931e+002
3.895078e+002, 2.844326e+002
3.899900e+002, 2.966815e+002
3.904721e+002, 3.080116e+002
3.909542e+002, 3.184644e+002
3.914363e+002, 3.280785e+002
3.919184e+002, 3.370702e+002
3.924005e+002, 3.448930e+002
3.928827e+002, 3.511108e+002
3.933648e+002, 3.558569e+002
3.938469e+002, 3.586802e+002
3.943290e+002, 3.592456e+002
3.948111e+002, 3.578214e+002
3.952932e+002, 3.548029e+002
3.957754e+002, 3.502162e+002
3.962575e+002, 3.440470e+002
3.967396e+002, 3.358804e+002
3.972217e+002, 3.257932e+002
3.977038e+002, 3.155835e+002
3.981859e+002, 3.055087e+002
3.986681e+002, 2.950646e+002
3.991501e+002, 2.836656e+002
3.996323e+002, 2.715369e+002
4.001144e+002, 2.594057e+002
4.005965e+002, 2.475549e+002
4.010786e+002, 2.360738e+002
4.015607e+002, 2.254683e+002
4.020428e+002, 2.160176e+002
4.025250e+002, 2.067637e+002
4.030071e+002, 1.972788e+002
4.034892e+002, 1.880142e+002
4.039713e+002, 1.795717e+002
4.044534e+002, 1.721062e+002
4.049355e+002, 1.652608e+002
4.054177e+002, 1.586347e+002
4.058998e+002, 1.522436e+002
4.063819e+002, 1.462875e+002
4.068640e+002, 1.407761e+002
4.073461e+002, 1.356490e+002
4.078282e+002, 1.308724e+002
4.083104e+002, 1.264382e+002
4.087925e+002, 1.223582e+002
4.092746e+002, 1.186158e+002
4.097567e+002, 1.151711e+002
4.102388e+002, 1.117635e+002
4.107209e+002, 1.081260e+002
4.112031e+002, 1.049152e+002
4.116852e+002, 1.023736e+002
4.121673e+002, 1.001670e+002
4.126494e+002, 9.799278e+001
4.131315e+002, 9.576479e+001
4.136136e+002, 9.356529e+001
4.140958e+002, 9.150620e+001
4.145779e+002, 8.959404e+001
4.150600e+002, 8.776095e+001
4.155421e+002, 8.611536e+001
4.160242e+002, 8.445789e+001
4.165063e+002, 8.261057e+001
4.169885e+002, 8.067934e+001
4.174706e+002, 7.895393e+001
4.179527e+002, 7.763221e+001
4.184348e+002, 7.662208e+001
4.189169e+002, 7.557410e+001
4.193990e+002, 7.441715e+001
4.198812e+002, 7.339771e+001
4.203633e+002, 7.278771e+001
4.208454e+002, 7.224185e+001
4.213275e+002, 7.141342e+001
4.218096e+002, 7.021513e+001
4.222917e+002, 6.891566e+001
4.227739e+002, 6.775230e+001
4.232560e+002, 6.672565e+001
4.237381e+002, 6.581223e+001
4.242202e+002, 6.506159e+001
4.247023e+002, 6.435639e+001
4.251844e+002, 6.357061e+001
4.256666e+002, 6.273956e+001
4.261487e+002, 6.198967e+001
4.266308e+002, 6.144251e+001
4.271129e+002, 6.097466e+001
4.275950e+002, 6.041143e+001
4.280771e+002, 5.974568e+001
4.285593e+002, 5.902725e+001
4.290414e+002, 5.822687e+001
4.295235e+002, 5.742443e+001
4.300056e+002, 5.678011e+001
4.304877e+002, 5.632625e+001
4.309698e+002, 5.595788e+001
4.314520e+002, 5.572696e+001
4.319341e+002, 5.553203e+001
4.324162e+002, 5.512901e+001
4.328983e+002, 5.443953e+001
4.333804e+002, 5.368110e+001
4.338625e+002, 5.311006e+001
4.343447e+002, 5.275783e+001
4.348268e+002, 5.236865e+001
4.353089e+002, 5.190097e+001
4.357910e+002, 5.142190e+001
4.362731e+002, 5.093826e+001
4.367552e+002, 5.047659e+001
4.372374e+002, 5.012351e+001
4.377195e+002, 4.994469e+001
4.382016e+002, 4.988160e+001
4.386837e+002, 4.971413e+001
4.391658e+002, 4.932860e+001
4.396479e+002, 4.898215e+001
4.401301e+002, 4.872015e+001
4.406122e+002, 4.848961e+001
4.410943e+002, 4.821712e+001
4.415764e+002, 4.790226e+001
4.420585e+002, 4.764142e+001
4.425406e+002, 4.757878e+001
4.430227e+002, 4.777318e+001
4.435049e+002, 4.773418e+001
4.439870e+002, 4.720713e+001
4.444691e+002, 4.670823e+001
4.449512e+002, 4.640170e+001
4.454333e+002, 4.623096e+001
4.459154e+002, 4.607284e+001
4.463976e+002, 4.586129e+001
4.468797e+002, 4.565615e+001
4.473618e+002, 4.564121e+001
4.478439e+002, 4.595716e+001
4.483260e+002, 4.604094e+001
4.488081e+002, 4.549729e+001
4.492903e+002, 4.490055e+001
4.497724e+002, 4.462293e+001
4.502545e+002, 4.467513e+001
4.507366e+002, 4.481083e+001
4.512187e+002, 4.485723e+001
4.517008e+002, 4.483400e+001
4.521830e+002, 4.483063e+001
4.526651e+002, 4.486790e+001
4.531472e+002, 4.487639e+001
4.536293e+002, 4.476865e+001
4.541114e+002, 4.461700e+001
4.545935e+002, 4.453017e+001
4.550757e+002, 4.455460e+001
4.555578e+002, 4.460241e+001
4.560399e+002, 4.458299e+001
4.565220e+002, 4.451924e+001
4.570041e+002, 4.452071e+001
4.574862e+002, 4.463693e+001
4.579684e+002, 4.478941e+001
4.584505e+002, 4.487624e+001
4.589326e+002, 4.489984e+001
4.594147e+002, 4.491364e+001
4.598968e+002, 4.490999e+001
4.603789e+002, 4.491282e+001
4.608611e+002, 4.494330e+001
4.613432e+002, 4.500086e+001
4.618253e+002, 4.506464e+001
4.623074e+002, 4.511021e+001
4.627895e+002, 4.516490e+001
4.632716e+002, 4.534826e+001
4.637538e+002, 4.581641e+001
4.642359e+002, 4.620016e+001
4.647180e+002, 4.647517e+001
4.652001e+002, 4.663995e+001
4.656822e+002, 4.662895e+001
4.661643e+002, 4.646164e+001
4.666465e+002, 4.631463e+001
4.671286e+002, 4.638728e+001
4.676107e+002, 4.670313e+001
4.680928e+002, 4.701878e+001
4.685749e+002, 4.738149e+001
4.690570e+002, 4.769185e+001
4.695392e+002, 4.788506e+001
4.700213e+002, 4.801766e+001
4.705034e+002, 4.815442e+001
4.709855e+002, 4.832089e+001
4.714676e+002, 4.854757e+001
4.719497e+002, 4.894817e+001
4.724319e+002, 4.961535e+001
4.729140e+002, 5.004327e+001
4.733961e+002, 4.988456e+001
4.738782e+002, 4.969645e+001
4.743603e+002, 4.976825e+001
4.748424e+002, 5.009108e+001
4.753246e+002, 5.054736e+001
4.758067e+002, 5.117633e+001
4.762888e+002, 5.185239e+001
4.767709e+002, 5.227592e+001
4.772530e+002, 5.240845e+001
4.777351e+002, 5.251958e+001
4.782173e+002, 5.272028e+001
4.786994e+002, 5.298240e+001
4.791815e+002, 5.325218e+001
4.796636e+002, 5.352006e+001
4.801457e+002, 5.382114e+001
4.806278e+002, 5.429350e+001
4.811100e+002, 5.478025e+001
4.815920e+002, 5.493873e+001
4.820742e+002, 5.469698e+001
4.825563e+002, 5.439250e+001
4.830384e+002, 5.432438e+001
4.835205e+002, 5.449322e+001
4.840026e+002, 5.461798e+001
4.844847e+002, 5.477615e+001
4.849669e+002, 5.481034e+001
4.854490e+002, 5.462599e+001
4.859311e+002, 5.427972e+001
4.864132e+002, 5.383990e+001
4.868953e+002, 5.333277e+001
4.873774e+002, 5.283044e+001
4.878596e+002, 5.246881e+001
4.883417e+002, 5.234560e+001
4.888238e+002, 5.208497e+001
4.893059e+002, 5.169576e+001
4.897880e+002, 5.118780e+001
4.902701e+002, 5.043874e+001
4.907523e+002, 4.958040e+001
4.912344e+002, 4.889552e+001
4.917165e+002, 4.857194e+001
4.921986e+002, 4.849021e+001
4.926807e+002, 4.836261e+001
4.931628e+002, 4.826224e+001
4.936450e+002, 4.791459e+001
4.941271e+002, 4.691318e+001
4.946092e+002, 4.589918e+001
4.950913e+002, 4.534884e+001
4.955734e+002, 4.525977e+001
4.960555e+002, 4.522979e+001
4.965377e+002, 4.500301e+001
4.970198e+002, 4.462494e+001
4.975019e+002, 4.420590e+001
4.979840e+002, 4.373817e+001
4.984661e+002, 4.327234e+001
4.989482e+002, 4.281200e+001
4.994304e+002, 4.237762e+001
4.999125e+002, 4.200541e+001
5.003946e+002, 4.170221e+001
5.008767e+002, 4.144576e+001
5.013588e+002, 4.124557e+001
5.018409e+002, 4.107747e+001
5.023231e+002, 4.091288e+001
5.028052e+002, 4.074731e+001
5.032873e+002, 4.052424e+001
5.037694e+002, 4.016346e+001
5.042515e+002, 3.965579e+001
5.047336e+002, 3.930544e+001
5.052158e+002, 3.916167e+001
5.056979e+002, 3.910006e+001
5.061800e+002, 3.912196e+001
5.066621e+002, 3.918378e+001
5.071442e+002, 3.924615e+001
5.076263e+002, 3.929076e+001
5.081085e+002, 3.927591e+001
5.085906e+002, 3.912026e+001
5.090727e+002, 3.876294e+001
5.095548e+002, 3.848408e+001
5.100369e+002, 3.829993e+001
5.105190e+002, 3.817914e+001
5.110012e+002, 3.818053e+001
5.114833e+002, 3.822712e+001
5.119654e+002, 3.816456e+001
5.124475e+002, 3.789341e+001
5.129296e+002, 3.755111e+001
5.134117e+002, 3.739754e+001
5.138939e+002, 3.745656e+001
5.143760e+002, 3.751991e+001
5.148581e+002, 3.756728e+001
5.153402e+002, 3.757887e+001
5.158223e+002, 3.751805e+001
5.163044e+002, 3.739904e+001
5.167866e+002, 3.731393e+001
5.172687e+002, 3.730853e+001
5.177508e+002, 3.735364e+001
5.182329e+002, 3.743384e+001
5.187150e+002, 3.754335e+001
5.191971e+002, 3.761197e+001
5.196793e+002, 3.759084e+001
5.201614e+002, 3.752781e+001
5.206435e+002, 3.754657e+001
5.211256e+002, 3.770050e+001
5.216077e+002, 3.776626e+001
5.220898e+002, 3.759320e+001
5.225720e+002, 3.739571e+001
5.230541e+002, 3.740680e+001
5.235362e+002, 3.760048e+001
5.240183e+002, 3.774170e+001
5.245004e+002, 3.764210e+001
5.249825e+002, 3.737547e+001
5.254647e+002, 3.732962e+001
5.259468e+002, 3.769795e+001
5.264289e+002, 3.802123e+001
5.269110e+002, 3.827860e+001
5.273931e+002, 3.846608e+001
5.278752e+002, 3.850581e+001
5.283574e+002, 3.843710e+001
5.288395e+002, 3.847235e+001
5.293216e+002, 3.885938e+001
5.298037e+002, 3.952200e+001
5.302858e+002, 3.998175e+001
5.307679e+002, 4.015400e+001
5.312501e+002, 4.031633e+001
5.317322e+002, 4.059950e+001
5.322143e+002, 4.092747e+001
5.326964e+002, 4.121836e+001
5.331785e+002, 4.145109e+001
5.336606e+002, 4.170840e+001
5.341428e+002, 4.207814e+001
5.346249e+002, 4.250526e+001
5.351070e+002, 4.284562e+001
5.355891e+002, 4.307040e+001
5.360712e+002, 4.335462e+001
5.365533e+002, 4.385365e+001
5.370355e+002, 4.452934e+001
5.375176e+002, 4.511609e+001
5.379997e+002, 4.552642e+001
5.384818e+002, 4.596534e+001
5.389639e+002, 4.649366e+001
5.394460e+002, 4.708326e+001
5.399282e+002, 4.776352e+001
5.404103e+002, 4.851015e+001
5.408924e+002, 4.914977e+001
5.413745e+002, 4.948281e+001
5.418566e+002, 4.950061e+001
5.423387e+002, 4.951341e+001
5.428209e+002, 4.946520e+001
5.433029e+002, 4.948220e+001
5.437850e+002, 4.970898e+001
5.442672e+002, 4.995617e+001
5.447493e+002, 4.998017e+001
5.452314e+002, 4.972510e+001
5.457135e+002, 4.939797e+001
5.461956e+002, 4.931891e+001
5.466777e+002, 4.943975e+001
5.471599e+002, 4.914003e+001
5.476420e+002, 4.821299e+001
5.481241e+002, 4.723826e+001
5.486062e+002, 4.652411e+001
5.490883e+002, 4.601357e+001
5.495704e+002, 4.567481e+001
5.500526e+002, 4.564519e+001
5.505347e+002, 4.548557e+001
5.510168e+002, 4.478654e+001
5.514989e+002, 4.378160e+001
5.519810e+002, 4.294199e+001
5.524631e+002, 4.236603e+001
5.529453e+002, 4.195064e+001
5.534274e+002, 4.164133e+001
5.539095e+002, 4.143712e+001
5.543916e+002, 4.105311e+001
5.548737e+002, 4.030450e+001
5.553558e+002, 3.962525e+001
5.558380e+002, 3.916183e+001
5.563201e+002, 3.881719e+001
5.568022e+002, 3.848933e+001
5.572843e+002, 3.814322e+001
5.577664e+002, 3.778213e+001
5.582485e+002, 3.738950e+001
5.587307e+002, 3.696237e+001
5.592128e+002, 3.664540e+001
5.596949e+002, 3.649434e+001
5.601770e+002, 3.638308e+001
5.606591e+002, 3.632373e+001
5.611412e+002, 3.625084e+001
5.616234e+002, 3.607210e+001
5.621055e+002, 3.575840e+001
5.625876e+002, 3.540889e+001
5.630697e+002, 3.509467e+001
5.635518e+002, 3.481340e+001
5.640339e+002, 3.454391e+001
5.645161e+002, 3.427062e+001
5.649982e+002, 3.407522e+001
5.654803e+002, 3.404656e+001
5.659624e+002, 3.414769e+001
5.664445e+002, 3.419352e+001
5.669266e+002, 3.411715e+001
5.674088e+002, 3.408073e+001
5.678909e+002, 3.423609e+001
5.683730e+002, 3.441617e+001
5.688551e+002, 3.438700e+001
5.693372e+002, 3.412270e+001
5.698193e+002, 3.377309e+001
5.703015e+002, 3.345649e+001
5.707836e+002, 3.317995e+001
5.712657e+002, 3.311149e+001
5.717478e+002, 3.358969e+001
5.722299e+002, 3.381554e+001
5.727120e+002, 3.345819e+001
5.731942e+002, 3.293594e+001
5.736763e+002, 3.264230e+001
5.741584e+002, 3.263199e+001
5.746405e+002, 3.268748e+001
5.751226e+002, 3.260404e+001
5.756047e+002, 3.242662e+001
5.760869e+002, 3.235947e+001
5.765690e+002, 3.243270e+001
5.770511e+002, 3.249046e+001
5.775332e+002, 3.246231e+001
5.780153e+002, 3.237139e+001
5.784974e+002, 3.224689e+001
5.789796e+002, 3.207183e+001
5.794617e+002, 3.194294e+001
5.799438e+002, 3.194233e+001
5.804259e+002, 3.198007e+001
5.809080e+002, 3.193611e+001
5.813901e+002, 3.181638e+001
5.818723e+002, 3.172762e+001
5.823544e+002, 3.174445e+001
5.828365e+002, 3.182813e+001
5.833186e+002, 3.184726e+001
5.838007e+002, 3.177647e+001
5.842828e+002, 3.167483e+001
5.847650e+002, 3.150282e+001
5.852471e+002, 3.133618e+001
5.857292e+002, 3.121861e+001
5.862113e+002, 3.115145e+001
5.866934e+002, 3.111899e+001
5.871755e+002, 3.111217e+001
5.876577e+002, 3.113235e+001
5.881398e+002, 3.120695e+001
5.886219e+002, 3.135639e+001
5.891040e+002, 3.140969e+001
5.895861e+002, 3.124080e+001
5.900682e+002, 3.105601e+001
5.905504e+002, 3.109830e+001
5.910325e+002, 3.132228e+001
5.915146e+002, 3.142774e+001
5.919967e+002, 3.126460e+001
5.924788e+002, 3.099676e+001
5.929609e+002, 3.065311e+001
5.934431e+002, 3.031368e+001
5.939252e+002, 3.027686e+001
5.944073e+002, 3.067600e+001
5.948894e+002, 3.115100e+001
5.953715e+002, 3.117557e+001
5.958536e+002, 3.061207e+001
5.963358e+002, 3.021630e+001
5.968179e+002, 2.996616e+001
5.973000e+002, 2.988044e+001
5.977821e+002, 3.015623e+001
5.982642e+002, 3.053118e+001
5.987463e+002, 3.059257e+001
5.992285e+002, 3.021000e+001
5.997106e+002, 2.972617e+001
6.001927e+002, 2.958077e+001
6.006748e+002, 2.975911e+001
6.011569e+002, 2.986928e+001
6.016390e+002, 2.988899e+001
6.021212e+002, 2.985200e+001
6.026033e+002, 2.971555e+001
6.030854e+002, 2.955261e+001
6.035675e+002, 2.949647e+001
6.040496e+002, 2.961325e+001
6.045317e+002, 2.968509e+001
6.050139e+002, 2.953974e+001
6.054960e+002, 2.930929e+001
6.059781e+002, 2.919450e+001
6.064602e+002, 2.921265e+001
6.069423e+002, 2.925343e+001
6.074244e+002, 2.923350e+001
6.079066e+002, 2.917755e+001
6.083887e+002, 2.920159e+001
6.088708e+002, 2.949022e+001
6.093529e+002, 2.958846e+001
6.098350e+002, 2.936930e+001
6.103171e+002, 2.905131e+001
6.107993e+002, 2.872148e+001
6.112814e+002, 2.842875e+001
6.117635e+002, 2.825356e+001
6.122456e+002, 2.826555e+001
6.127277e+002, 2.839473e+001
6.132098e+002, 2.850656e+001
6.136920e+002, 2.860198e+001
6.141741e+002, 2.867657e+001
6.146562e+002, 2.874033e+001
6.151383e+002, 2.876783e+001
6.156204e+002, 2.871367e+001
6.161025e+002, 2.859246e+001
6.165847e+002, 2.849142e+001
6.170668e+002, 2.845167e+001
6.175489e+002, 2.841404e+001
6.180310e+002, 2.829598e+001
6.185131e+002, 2.816081e+001
6.189952e+002, 2.816504e+001
6.194774e+002, 2.834974e+001
6.199595e+002, 2.856216e+001
6.204416e+002, 2.860927e+001
6.209237e+002, 2.847326e+001
6.214058e+002, 2.844903e+001
6.218879e+002, 2.867111e+001
6.223701e+002, 2.884202e+001
6.228522e+002, 2.893678e+001
6.233343e+002, 2.893130e+001
6.238164e+002, 2.874789e+001
6.242985e+002, 2.839295e+001
6.247806e+002, 2.806878e+001
6.252628e+002, 2.794729e+001
6.257448e+002, 2.798136e+001
6.262269e+002, 2.809227e+001
6.267090e+002, 2.829374e+001
6.271912e+002, 2.836554e+001
6.276733e+002, 2.813615e+001
6.281554e+002, 2.778717e+001
6.286375e+002, 2.769138e+001
6.291196e+002, 2.790649e+001
6.296017e+002, 2.804287e+001
6.300839e+002, 2.796527e+001
6.305660e+002, 2.786109e+001
6.310481e+002, 2.788598e+001
6.315302e+002, 2.798888e+001
6.320123e+002, 2.802167e+001
6.324944e+002, 2.791619e+001
6.329766e+002, 2.774966e+001
6.334587e+002, 2.766136e+001
6.339408e+002, 2.767640e+001
6.344229e+002, 2.763489e+001
6.349050e+002, 2.747719e+001
6.353871e+002, 2.733873e+001
6.358693e+002, 2.730475e+001
6.363514e+002, 2.731714e+001
6.368335e+002, 2.726389e+001
6.373156e+002, 2.708826e+001
6.377977e+002, 2.698693e+001
6.382798e+002, 2.718790e+001
6.387620e+002, 2.753276e+001
6.392441e+002, 2.772702e+001
6.397262e+002, 2.773725e+001
6.402083e+002, 2.764373e+001
6.406904e+002, 2.745344e+001
6.411725e+002, 2.724878e+001
6.416547e+002, 2.731256e+001
6.421368e+002, 2.811948e+001
6.426189e+002, 2.848377e+001
6.431010e+002, 2.804272e+001
6.435831e+002, 2.748408e+001
6.440652e+002, 2.722033e+001
6.445474e+002, 2.720993e+001
6.450295e+002, 2.723393e+001
6.455116e+002, 2.718016e+001
6.459937e+002, 2.709797e+001
6.464758e+002, 2.707098e+001
6.469579e+002, 2.709868e+001
6.474401e+002, 2.711025e+001
6.479222e+002, 2.707335e+001
6.484043e+002, 2.706809e+001
6.488864e+002, 2.723438e+001
6.493685e+002, 2.748201e+001
6.498506e+002, 2.751290e+001
6.503328e+002, 2.713506e+001
6.508149e+002, 2.680149e+001
6.512970e+002, 2.670688e+001
6.517791e+002, 2.674345e+001
6.522612e+002, 2.681450e+001
6.527433e+002, 2.689079e+001
6.532255e+002, 2.693789e+001
6.537076e+002, 2.692546e+001
6.541897e+002, 2.687442e+001
6.546718e+002, 2.686652e+001
6.551539e+002, 2.692546e+001
6.556360e+002, 2.696962e+001
6.561182e+002, 2.694070e+001
6.566003e+002, 2.693552e+001
6.570824e+002, 2.704944e+001
6.575645e+002, 2.723540e+001
6.580466e+002, 2.734609e+001
6.585287e+002, 2.730737e+001
6.590109e+002, 2.720368e+001
6.594930e+002, 2.709826e+001
6.599751e+002, 2.699208e+001
6.604572e+002, 2.686411e+001
6.609393e+002, 2.670744e+001
6.614214e+002, 2.662966e+001
6.619036e+002, 2.675882e+001
6.623857e+002, 2.706112e+001
6.628678e+002, 2.716803e+001
6.633499e+002, 2.687119e+001
6.638320e+002, 2.665288e+001
6.643141e+002, 2.658317e+001
6.647963e+002, 2.658419e+001
6.652784e+002, 2.662902e+001
6.657605e+002, 2.668967e+001
6.662426e+002, 2.670223e+001
6.667247e+002, 2.660822e+001
6.672068e+002, 2.647614e+001
6.676890e+002, 2.643168e+001
6.681711e+002, 2.647285e+001
6.686532e+002, 2.653468e+001
6.691353e+002, 2.661465e+001
6.696174e+002, 2.668334e+001
6.700995e+002, 2.671480e+001
6.705817e+002, 2.670828e+001
6.710638e+002, 2.667524e+001
6.715459e+002, 2.650385e+001
6.720280e+002, 2.644349e+001
6.725101e+002, 2.670169e+001
6.729922e+002, 2.703476e+001
6.734744e+002, 2.718698e+001
6.739565e+002, 2.712744e+001
6.744386e+002, 2.694969e+001
6.749207e+002, 2.669938e+001
6.754028e+002, 2.642536e+001
6.758849e+002, 2.629539e+001
6.763671e+002, 2.633620e+001
6.768492e+002, 2.641226e+001
6.773313e+002, 2.658926e+001
6.778134e+002, 2.668756e+001
6.782955e+002, 2.646338e+001
6.787776e+002, 2.603168e+001
6.792598e+002, 2.581651e+001
6.797419e+002, 2.608302e+001
6.802240e+002, 2.637195e+001
6.807061e+002, 2.640906e+001
6.811882e+002, 2.629579e+001
6.816703e+002, 2.615680e+001
6.821525e+002, 2.603033e+001
6.826346e+002, 2.597013e+001
6.831167e+002, 2.602969e+001
6.835988e+002, 2.618132e+001
6.840809e+002, 2.629438e+001
6.845630e+002, 2.638395e+001
6.850452e+002, 2.640151e+001
6.855273e+002, 2.622697e+001
6.860094e+002, 2.607858e+001
6.864915e+002, 2.612572e+001
6.869736e+002, 2.630703e+001
6.874557e+002, 2.642462e+001
6.879379e+002, 2.638016e+001
6.884200e+002, 2.629118e+001
6.889021e+002, 2.623478e+001
6.893842e+002, 2.621746e+001
6.898663e+002, 2.626078e+001
6.903484e+002, 2.636822e+001
6.908306e+002, 2.652338e+001
6.913127e+002, 2.673711e+001
6.917948e+002, 2.697141e+001
6.922769e+002, 2.702851e+001
6.927590e+002, 2.668223e+001
6.932411e+002, 2.652290e+001
6.937233e+002, 2.676806e+001
6.942054e+002, 2.702246e+001
6.946875e+002, 2.703870e+001
6.951696e+002, 2.686589e+001
6.956517e+002, 2.666045e+001
6.961339e+002, 2.646597e+001
6.966160e+002, 2.634081e+001
6.970981e+002, 2.639033e+001
6.975802e+002, 2.656601e+001
6.980623e+002, 2.670930e+001
6.985444e+002, 2.679803e+001
6.990266e+002, 2.681732e+001
6.995087e+002, 2.674025e+001
6.999908e+002, 2.659508e+001
7.004729e+002, 2.649033e+001
7.009550e+002, 2.642202e+001
7.014371e+002, 2.640351e+001
7.019193e+002, 2.643372e+001
7.024014e+002, 2.651470e+001
7.028835e+002, 2.668175e+001
7.033656e+002, 2.689498e+001
7.038477e+002, 2.706982e+001
7.043298e+002, 2.716460e+001
7.048120e+002, 2.725143e+001
7.052941e+002, 2.746682e+001
7.057762e+002, 2.776172e+001
7.062583e+002, 2.787652e+001
7.067404e+002, 2.776808e+001
7.072225e+002, 2.760493e+001
7.077046e+002, 2.745729e+001
7.081867e+002, 2.734005e+001
7.086688e+002, 2.729150e+001
7.091509e+002, 2.731296e+001
7.096331e+002, 2.739441e+001
7.101152e+002, 2.762210e+001
7.105973e+002, 2.782530e+001
7.110794e+002, 2.787240e+001
7.115615e+002, 2.783038e+001
7.120436e+002, 2.782781e+001
7.125258e+002, 2.791116e+001
7.130079e+002, 2.802429e+001
7.134900e+002, 2.812077e+001
7.139721e+002, 2.819456e+001
7.144542e+002, 2.820695e+001
7.149363e+002, 2.814987e+001
7.154185e+002, 2.807026e+001
7.159006e+002, 2.796500e+001
7.163827e+002, 2.787433e+001
7.168648e+002, 2.787124e+001
7.173469e+002, 2.796261e+001
7.178290e+002, 2.808541e+001
7.183112e+002, 2.831043e+001
7.187933e+002, 2.848460e+001
7.192754e+002, 2.849976e+001
7.197575e+002, 2.842940e+001
7.202396e+002, 2.838421e+001
7.207217e+002, 2.839105e+001
7.212039e+002, 2.839289e+001
7.216860e+002, 2.831287e+001
7.221681e+002, 2.818732e+001
7.226502e+002, 2.819006e+001
7.231323e+002, 2.834640e+001
7.236144e+002, 2.840895e+001
7.240966e+002, 2.824922e+001
7.245787e+002, 2.804097e+001
7.250608e+002, 2.802078e+001
7.255429e+002, 2.818255e+001
7.260250e+002, 2.821149e+001
7.265071e+002, 2.794177e+001
7.269893e+002, 2.771608e+001
7.274714e+002, 2.768744e+001
7.279535e+002, 2.775020e+001
7.284356e+002, 2.779473e+001
7.289177e+002, 2.780177e+001
7.293998e+002, 2.780242e+001
7.298820e+002, 2.782294e+001
7.303641e+002, 2.784533e+001
7.308462e+002, 2.781565e+001
7.313283e+002, 2.773089e+001
7.318104e+002, 2.768369e+001
7.322925e+002, 2.770299e+001
7.327747e+002, 2.773789e+001
7.332568e+002, 2.776058e+001
7.337389e+002, 2.776426e+001
7.342210e+002, 2.772052e+001
7.347031e+002, 2.755021e+001
7.351852e+002, 2.745479e+001
7.356674e+002, 2.755240e+001
7.361495e+002, 2.767774e+001
7.366316e+002, 2.773585e+001
7.371137e+002, 2.769825e+001
7.375958e+002, 2.750296e+001
7.380779e+002, 2.710089e+001
7.385601e+002, 2.669244e+001
7.390422e+002, 2.661611e+001
7.395243e+002, 2.683309e+001
7.400064e+002, 2.696901e+001
7.404885e+002, 2.698749e+001
7.409706e+002, 2.695504e+001
7.414528e+002, 2.689746e+001
7.419349e+002, 2.681985e+001
7.424170e+002, 2.671468e+001
7.428991e+002, 2.653289e+001
7.433812e+002, 2.649021e+001
7.438633e+002, 2.677602e+001
7.443455e+002, 2.702633e+001
7.448276e+002, 2.704763e+001
7.453097e+002, 2.690771e+001
7.457918e+002, 2.668680e+001
7.462739e+002, 2.642447e+001
7.467560e+002, 2.621631e+001
7.472382e+002, 2.622609e+001
7.477203e+002, 2.635111e+001
7.482024e+002, 2.622996e+001
7.486845e+002, 2.585464e+001
7.491666e+002, 2.555824e+001
7.496487e+002, 2.545696e+001
7.501309e+002, 2.546487e+001
7.506130e+002, 2.550034e+001
7.510951e+002, 2.556650e+001
7.515772e+002, 2.558897e+001
7.520593e+002, 2.552958e+001
7.525414e+002, 2.547921e+001
7.530236e+002, 2.543778e+001
7.535057e+002, 2.542755e+001
7.539878e+002, 2.553990e+001
7.544699e+002, 2.571507e+001
7.549520e+002, 2.571111e+001
7.554341e+002, 2.531205e+001
7.559163e+002, 2.483652e+001
7.563984e+002, 2.480040e+001
7.568805e+002, 2.509110e+001
7.573626e+002, 2.519784e+001
7.578447e+002, 2.502916e+001
7.583268e+002, 2.482077e+001
7.588090e+002, 2.473446e+001
7.592911e+002, 2.473829e+001
7.597732e+002, 2.472458e+001
7.602553e+002, 2.468006e+001
7.607374e+002, 2.464292e+001
7.612195e+002, 2.462906e+001
7.617017e+002, 2.460642e+001
7.621838e+002, 2.454862e+001
7.626659e+002, 2.447660e+001
7.631480e+002, 2.443324e+001
7.636301e+002, 2.443258e+001
7.641122e+002, 2.440866e+001
7.645944e+002, 2.429187e+001
7.650765e+002, 2.413177e+001
7.655586e+002, 2.397690e+001
7.660407e+002, 2.384368e+001
7.665228e+002, 2.381976e+001
7.670049e+002, 2.394448e+001
7.674871e+002, 2.411173e+001
7.679692e+002, 2.417614e+001
7.684513e+002, 2.413175e+001
7.689334e+002, 2.415108e+001
7.694155e+002, 2.435520e+001
7.698976e+002, 2.442209e+001
7.703798e+002, 2.414214e+001
7.708619e+002, 2.381432e+001
7.713440e+002, 2.365505e+001
7.718261e+002, 2.366269e+001
7.723082e+002, 2.375494e+001
7.727903e+002, 2.403231e+001
7.732725e+002, 2.421243e+001
7.737546e+002, 2.395446e+001
7.742367e+002, 2.353435e+001
7.747188e+002, 2.343910e+001
7.752009e+002, 2.367945e+001
7.756830e+002, 2.386645e+001
7.761652e+002, 2.373406e+001
7.766473e+002, 2.343355e+001
7.771294e+002, 2.334219e+001
7.776115e+002, 2.350368e+001
7.780936e+002, 2.357421e+001
7.785757e+002, 2.348529e+001
7.790579e+002, 2.339098e+001
7.795400e+002, 2.338518e+001
7.800221e+002, 2.342158e+001
7.805042e+002, 2.341473e+001
7.809863e+002, 2.334503e+001
7.814684e+002, 2.331797e+001
7.819506e+002, 2.340660e+001
7.824327e+002, 2.349784e+001
7.829148e+002, 2.352500e+001
7.833969e+002, 2.350236e+001
7.838790e+002, 2.344112e+001
7.843611e+002, 2.335446e+001
7.848433e+002, 2.329907e+001
7.853254e+002, 2.334604e+001
7.858075e+002, 2.345233e+001
7.862896e+002, 2.346088e+001
7.867717e+002, 2.336888e+001
7.872538e+002, 2.339075e+001
7.877360e+002, 2.361740e+001
7.882181e+002, 2.385806e+001
7.887002e+002, 2.394078e+001
7.891823e+002, 2.387951e+001
7.896644e+002, 2.378932e+001
7.901465e+002, 2.363702e+001
7.906286e+002, 2.350448e+001
7.911107e+002, 2.338289e+001
7.915928e+002, 2.329669e+001
7.920750e+002, 2.327409e+001
7.925571e+002, 2.329633e+001
7.930392e+002, 2.332911e+001
7.935213e+002, 2.336284e+001
7.940034e+002, 2.338156e+001
7.944855e+002, 2.334122e+001
7.949677e+002, 2.328864e+001
7.954498e+002, 2.335178e+001
7.959319e+002, 2.350871e+001
7.964140e+002, 2.355111e+001
7.968961e+002, 2.338314e+001
7.973782e+002, 2.317317e+001
7.978604e+002, 2.317167e+001
7.983425e+002, 2.339313e+001
7.988246e+002, 2.345135e+001
7.993067e+002, 2.319354e+001
7.997888e+002, 2.304898e+001
8.002709e+002, 2.325810e+001
8.007531e+002, 2.351287e+001
8.012352e+002, 2.360061e+001
8.017173e+002, 2.353083e+001
8.021994e+002, 2.338518e+001
8.026815e+002, 2.307001e+001
8.031636e+002, 2.285144e+001
8.036458e+002, 2.293101e+001
8.041279e+002, 2.314513e+001
8.046100e+002, 2.337356e+001
8.050921e+002, 2.355280e+001
8.055742e+002, 2.353689e+001
8.060563e+002, 2.323419e+001
8.065385e+002, 2.286435e+001
8.070206e+002, 2.280634e+001
8.075027e+002, 2.303465e+001
8.079848e+002, 2.321249e+001
8.084669e+002, 2.333482e+001
8.089490e+002, 2.334553e+001
8.094312e+002, 2.314414e+001
8.099133e+002, 2.292387e+001
8.103954e+002, 2.302988e+001
8.108775e+002, 2.355767e+001
8.113596e+002, 2.376405e+001
8.118417e+002, 2.330219e+001
8.123239e+002, 2.296485e+001
8.128060e+002, 2.307642e+001
8.132881e+002, 2.333001e+001
8.137702e+002, 2.345322e+001
8.142523e+002, 2.342977e+001
8.147344e+002, 2.336913e+001
8.152166e+002, 2.332280e+001
8.156987e+002, 2.326684e+001
8.161808e+002, 2.313613e+001
8.166629e+002, 2.298782e+001
8.171450e+002, 2.299241e+001
8.176271e+002, 2.314478e+001
8.181093e+002, 2.321257e+001
8.185914e+002, 2.305066e+001
8.190735e+002, 2.280248e+001
8.195556e+002, 2.276140e+001
8.200377e+002, 2.297190e+001
8.205198e+002, 2.311194e+001
8.210020e+002, 2.318614e+001
8.214841e+002, 2.317939e+001
8.219662e+002, 2.298176e+001
8.224483e+002, 2.277370e+001
8.229304e+002, 2.278680e+001
8.234125e+002, 2.301358e+001
8.238947e+002, 2.317823e+001
8.243768e+002, 2.318248e+001
8.248589e+002, 2.316682e+001
8.253410e+002, 2.316547e+001
8.258231e+002, 2.319431e+001
8.263052e+002, 2.332324e+001
8.267874e+002, 2.350601e+001
8.272695e+002, 2.355485e+001
8.277516e+002, 2.333795e+001
8.282337e+002, 2.307047e+001
8.287158e+002, 2.307354e+001
8.291979e+002, 2.329072e+001
8.296801e+002, 2.353119e+001
8.301622e+002, 2.377795e+001
8.306443e+002, 2.385435e+001
8.311264e+002, 2.363247e+001
8.316085e+002, 2.331025e+001
8.320906e+002, 2.322135e+001
8.325728e+002, 2.340591e+001
8.330549e+002, 2.353237e+001
8.335370e+002, 2.356444e+001
8.340191e+002, 2.358785e+001
8.345012e+002, 2.362474e+001
8.349833e+002, 2.365826e+001
8.354655e+002, 2.366125e+001
8.359476e+002, 2.364472e+001
8.364297e+002, 2.366112e+001
8.369118e+002, 2.371083e+001
8.373939e+002, 2.382104e+001
8.378760e+002, 2.411368e+001
8.383582e+002, 2.440448e+001
8.388403e+002, 2.446249e+001
8.393224e+002, 2.431285e+001
8.398045e+002, 2.408428e+001
8.402866e+002, 2.383655e+001
8.407687e+002, 2.364862e+001
8.412509e+002, 2.364926e+001
8.417330e+002, 2.381212e+001
8.422151e+002, 2.400972e+001
8.426972e+002, 2.424472e+001
8.431793e+002, 2.442121e+001
8.436614e+002, 2.450358e+001
8.441436e+002, 2.450900e+001
8.446257e+002, 2.443352e+001
8.451078e+002, 2.428089e+001
8.455899e+002, 2.423191e+001
8.460720e+002, 2.438925e+001
8.465541e+002, 2.450046e+001
8.470363e+002, 2.452726e+001
8.475184e+002, 2.451826e+001
8.480005e+002, 2.449536e+001
8.484826e+002, 2.446196e+001
8.489647e+002, 2.440272e+001
8.494468e+002, 2.428795e+001
8.499290e+002, 2.426380e+001
8.504111e+002, 2.449749e+001
8.508932e+002, 2.478974e+001
8.513753e+002, 2.495489e+001
8.518574e+002, 2.500828e+001
8.523395e+002, 2.499299e+001
8.528217e+002, 2.493368e+001
8.533038e+002, 2.489621e+001
8.537859e+002, 2.494635e+001
8.542680e+002, 2.506754e+001
8.547501e+002, 2.522909e+001
8.552322e+002, 2.543134e+001
8.557144e+002, 2.558119e+001
8.561965e+002, 2.567001e+001
8.566786e+002, 2.564568e+001
8.571607e+002, 2.542019e+001
8.576428e+002, 2.508735e+001
8.581249e+002, 2.495417e+001
8.586071e+002, 2.512995e+001
8.590892e+002, 2.527009e+001
8.595713e+002, 2.533579e+001
8.600534e+002, 2.541179e+001
8.605355e+002, 2.555274e+001
8.610176e+002, 2.570629e+001
8.614998e+002, 2.581218e+001
8.619819e+002, 2.586344e+001
8.624640e+002, 2.588218e+001
8.629461e+002, 2.591393e+001
8.634282e+002, 2.587711e+001
8.639103e+002, 2.558582e+001
8.643925e+002, 2.526058e+001
8.648746e+002, 2.526151e+001
8.653567e+002, 2.556771e+001
8.658388e+002, 2.586556e+001
8.663209e+002, 2.596799e+001
8.668030e+002, 2.601100e+001
8.672852e+002, 2.627786e+001
8.677673e+002, 2.668666e+001
8.682494e+002, 2.671405e+001
8.687315e+002, 2.631460e+001
8.692136e+002, 2.609241e+001
8.696957e+002, 2.633164e+001
8.701779e+002, 2.673657e+001
8.706600e+002, 2.691166e+001
8.711421e+002, 2.685504e+001
8.716242e+002, 2.684415e+001
8.721063e+002, 2.690804e+001
8.725884e+002, 2.696640e+001
8.730705e+002, 2.700558e+001
8.735526e+002, 2.703557e+001
8.740347e+002, 2.702347e+001
8.745168e+002, 2.701138e+001
8.749990e+002, 2.712442e+001
8.754811e+002, 2.745855e+001
8.759632e+002, 2.768114e+001
8.764453e+002, 2.752379e+001
8.769274e+002, 2.735920e+001
8.774095e+002, 2.748943e+001
8.778917e+002, 2.779851e+001
8.783738e+002, 2.808442e+001
8.788559e+002, 2.828987e+001
8.793380e+002, 2.844243e+001
8.798201e+002, 2.854931e+001
8.803022e+002, 2.863198e+001
8.807844e+002, 2.872001e+001
8.812665e+002, 2.881460e+001
8.817486e+002, 2.889904e+001
8.822307e+002, 2.897605e+001
8.827128e+002, 2.914731e+001
8.831949e+002, 2.949101e+001
8.836771e+002, 2.990536e+001
8.841592e+002, 3.015760e+001
8.846413e+002, 3.021278e+001
8.851234e+002, 3.038515e+001
8.856055e+002, 3.074069e+001
8.860876e+002, 3.104174e+001
8.865698e+002, 3.111773e+001
8.870519e+002, 3.119630e+001
8.875340e+002, 3.161679e+001
8.880161e+002, 3.234241e+001
8.884982e+002, 3.281479e+001
8.889803e+002, 3.274662e+001
8.894625e+002, 3.280785e+001
8.899446e+002, 3.315891e+001
8.904267e+002, 3.363308e+001
8.909088e+002, 3.424896e+001
8.913909e+002, 3.486228e+001
8.918730e+002, 3.515629e+001
8.923552e+002, 3.503006e+001
8.928373e+002, 3.499511e+001
8.933194e+002, 3.545632e+001
8.938015e+002, 3.610662e+001
8.942836e+002, 3.665904e+001
8.947657e+002, 3.713285e+001
8.952479e+002, 3.756004e+001
8.957300e+002, 3.796216e+001
8.962121e+002, 3.841828e+001
8.966942e+002, 3.899654e+001
8.971763e+002, 3.962011e+001
8.976584e+002, 4.011436e+001
8.981406e+002, 4.049429e+001
8.986227e+002, 4.093739e+001
8.991048e+002, 4.146287e+001
8.995869e+002, 4.199815e+001
9.000690e+002, 4.251658e+001
9.005511e+002, 4.301615e+001
9.010333e+002, 4.350954e+001
9.015154e+002, 4.400319e+001
9.019975e+002, 4.431707e+001
9.024796e+002, 4.419717e+001
9.029617e+002, 4.437671e+001
9.034438e+002, 4.526910e+001
9.039260e+002, 4.623275e+001
9.044081e+002, 4.681630e+001
9.048902e+002, 4.713657e+001
9.053723e+002, 4.749397e+001
9.058544e+002, 4.795603e+001
9.063365e+002, 4.834790e+001
9.068187e+002, 4.865760e+001
9.073008e+002, 4.885114e+001
9.077829e+002, 4.884208e+001
9.082650e+002, 4.873485e+001
9.087471e+002, 4.868354e+001
9.092292e+002, 4.869928e+001
9.097114e+002, 4.864243e+001
9.101935e+002, 4.832587e+001
9.106756e+002, 4.807027e+001
9.111577e+002, 4.833617e+001
9.116398e+002, 4.884110e+001
9.121219e+002, 4.905227e+001
9.126041e+002, 4.895820e+001
9.130862e+002, 4.885680e+001
9.135683e+002, 4.888929e+001
9.140504e+002, 4.885999e+001
9.145325e+002, 4.846105e+001
9.150146e+002, 4.776477e+001
9.154968e+002, 4.715061e+001
9.159789e+002, 4.661668e+001
9.164610e+002, 4.624283e+001
9.169431e+002, 4.608695e+001
9.174252e+002, 4.590910e+001
9.179073e+002, 4.551382e+001
9.183895e+002, 4.493385e+001
9.188716e+002, 4.425528e+001
9.193537e+002, 4.328143e+001
9.198358e+002, 4.271601e+001
9.203179e+002, 4.291368e+001
9.208000e+002, 4.301122e+001
9.212822e+002, 4.266624e+001
9.217643e+002, 4.205080e+001
9.222464e+002, 4.125222e+001
9.227285e+002, 4.029138e+001
9.232106e+002, 3.952536e+001
9.236927e+002, 3.904779e+001
9.241749e+002, 3.871008e+001
9.246570e+002, 3.861937e+001
9.251391e+002, 3.852320e+001
9.256212e+002, 3.818003e+001
9.261033e+002, 3.768795e+001
9.265854e+002, 3.730074e+001
9.270676e+002, 3.709703e+001
9.275497e+002, 3.684061e+001
9.280318e+002, 3.627295e+001
9.285139e+002, 3.567266e+001
9.289960e+002, 3.537988e+001
9.294781e+002, 3.524292e+001
9.299603e+002, 3.491288e+001
9.304424e+002, 3.437579e+001
9.309245e+002, 3.395492e+001
9.314066e+002, 3.388068e+001
9.318887e+002, 3.388363e+001
9.323708e+002, 3.345953e+001
9.328530e+002, 3.274284e+001
9.333351e+002, 3.233366e+001
9.338172e+002, 3.224509e+001
9.342993e+002, 3.209575e+001
9.347814e+002, 3.173709e+001
9.352635e+002, 3.137209e+001
9.357457e+002, 3.123681e+001
9.362278e+002, 3.128046e+001
9.367099e+002, 3.119778e+001
9.371920e+002, 3.095789e+001
9.376741e+002, 3.071673e+001
9.381563e+002, 3.046397e+001
9.386384e+002, 3.027869e+001
9.391205e+002, 3.026034e+001
9.396026e+002, 3.028823e+001
9.400847e+002, 3.013082e+001
9.405668e+002, 2.974549e+001
9.410490e+002, 2.942968e+001
9.415311e+002, 2.922775e+001
9.420132e+002, 2.903100e+001
9.424953e+002, 2.878505e+001
9.429774e+002, 2.856830e+001
9.434595e+002, 2.846590e+001
9.439417e+002, 2.843549e+001
9.444238e+002, 2.837284e+001
9.449059e+002, 2.826644e+001
9.453880e+002, 2.809398e+001
9.458701e+002, 2.774625e+001
9.463522e+002, 2.743622e+001
9.468344e+002, 2.733038e+001
9.473165e+002, 2.733776e+001
9.477986e+002, 2.735420e+001
9.482807e+002, 2.734933e+001
9.487628e+002, 2.730182e+001
9.492449e+002, 2.718426e+001
9.497271e+002, 2.706168e+001
9.502092e+002, 2.704265e+001
9.506913e+002, 2.703158e+001
9.511734e+002, 2.681481e+001
9.516555e+002, 2.646661e+001
9.521376e+002, 2.628379e+001
9.526198e+002, 2.635507e+001
9.531019e+002, 2.646582e+001
9.535840e+002, 2.641905e+001
9.540661e+002, 2.625434e+001
9.545482e+002, 2.602604e+001
9.550303e+002, 2.575550e+001
9.555124e+002, 2.559801e+001
9.559945e+002, 2.557438e+001
9.564766e+002, 2.558944e+001
9.569587e+002, 2.560231e+001
9.574409e+002, 2.556366e+001
9.579230e+002, 2.536486e+001
9.584051e+002, 2.501060e+001
9.588872e+002, 2.487196e+001
9.593693e+002, 2.501289e+001
9.598514e+002, 2.509499e+001
9.603336e+002, 2.504457e+001
9.608157e+002, 2.491489e+001
9.612978e+002, 2.469661e+001
9.617799e+002, 2.445935e+001
9.622620e+002, 2.441859e+001
9.627441e+002, 2.469561e+001
9.632263e+002, 2.479242e+001
9.637084e+002, 2.454230e+001
9.641905e+002, 2.433747e+001
9.646726e+002, 2.431385e+001
9.651547e+002, 2.435077e+001
9.656368e+002, 2.434929e+001
9.661190e+002, 2.431712e+001
9.666011e+002, 2.430706e+001
9.670832e+002, 2.436848e+001
9.675653e+002, 2.436484e+001
9.680474e+002, 2.422786e+001
9.685295e+002, 2.406042e+001
9.690117e+002, 2.388796e+001
9.694938e+002, 2.373994e+001
9.699759e+002, 2.364850e+001
9.704580e+002, 2.361692e+001
9.709401e+002, 2.363700e+001
9.714222e+002, 2.377551e+001
9.719044e+002, 2.385060e+001
9.723865e+002, 2.365803e+001
9.728686e+002, 2.341430e+001
9.733507e+002, 2.340441e+001
9.738328e+002, 2.352723e+001
9.743149e+002, 2.346659e+001
9.747971e+002, 2.315283e+001
9.752792e+002, 2.291937e+001
9.757613e+002, 2.314368e+001
9.762434e+002, 2.346702e+001
9.767255e+002, 2.335943e+001
9.772076e+002, 2.300036e+001
9.776898e+002, 2.273567e+001
9.781719e+002, 2.261663e+001
9.786540e+002, 2.264046e+001
9.791361e+002, 2.280464e+001
9.796182e+002, 2.298046e+001
9.801003e+002, 2.301918e+001
9.805825e+002, 2.293722e+001
9.810646e+002, 2.272575e+001
9.815467e+002, 2.241713e+001
9.820288e+002, 2.231570e+001
9.825109e+002, 2.248116e+001
9.829930e+002, 2.261168e+001
9.834752e+002, 2.250380e+001
9.839573e+002, 2.227792e+001
9.844394e+002, 2.216620e+001
9.849215e+002, 2.216980e+001
9.854036e+002, 2.212327e+001
9.858857e+002, 2.200757e+001
9.863679e+002, 2.195999e+001
9.868500e+002, 2.202671e+001
9.873321e+002, 2.214304e+001
9.878142e+002, 2.227955e+001
9.882963e+002, 2.240392e+001
9.887784e+002, 2.240296e+001
9.892606e+002, 2.222196e+001
9.897427e+002, 2.211259e+001
9.902248e+002, 2.211686e+001
9.907069e+002, 2.211086e+001
9.911890e+002, 2.204403e+001
9.916711e+002, 2.196392e+001
9.921533e+002, 2.190016e+001
9.926354e+002, 2.185938e+001
9.931175e+002, 2.188685e+001
9.935996e+002, 2.209625e+001
9.940817e+002, 2.216916e+001
9.945638e+002, 2.192289e+001
9.950460e+002, 2.175332e+001
9.955281e+002, 2.191340e+001
9.960102e+002, 2.215624e+001
9.964923e+002, 2.220050e+001
9.969744e+002, 2.206063e+001
9.974565e+002, 2.195316e+001
9.979387e+002, 2.193741e+001
9.984208e+002, 2.192534e+001
9.989029e+002, 2.187057e+001
9.993850e+002, 2.183853e+001
9.998671e+002, 2.189636e+001
1.000349e+003, 2.198948e+001
1.000831e+003, 2.205427e+001
1.001313e+003, 2.207546e+001
1.001796e+003, 2.203057e+001
1.002278e+003, 2.185996e+001
1.002760e+003, 2.169792e+001
1.003242e+003, 2.161734e+001
1.003724e+003, 2.157891e+001
1.004206e+003, 2.156086e+001
1.004688e+003, 2.155040e+001
1.005170e+003, 2.152377e+001
1.005653e+003, 2.147920e+001
1.006135e+003, 2.145790e+001
1.006617e+003, 2.151146e+001
1.007099e+003, 2.156446e+001
1.007581e+003, 2.152981e+001
1.008063e+003, 2.146036e+001
1.008545e+003, 2.143794e+001
1.009027e+003, 2.145002e+001
1.009509e+003, 2.141589e+001
1.009992e+003, 2.131599e+001
1.010474e+003, 2.127193e+001
1.010956e+003, 2.144445e+001
1.011438e+003, 2.167525e+001
1.011920e+003, 2.172210e+001
1.012402e+003, 2.164088e+001
1.012884e+003, 2.154325e+001
1.013366e+003, 2.145073e+001
1.013849e+003, 2.136012e+001
1.014331e+003, 2.127152e+001
1.014813e+003, 2.124339e+001
1.015295e+003, 2.135774e+001
1.015777e+003, 2.156768e+001
1.016259e+003, 2.181469e+001
1.016741e+003, 2.205933e+001
1.017223e+003, 2.204045e+001
1.017705e+003, 2.175318e+001
1.018188e+003, 2.160902e+001
1.018670e+003, 2.182881e+001
1.019152e+003, 2.211807e+001
1.019634e+003, 2.202907e+001
1.020116e+003, 2.167076e+001
1.020598e+003, 2.161270e+001
1.021080e+003, 2.184123e+001
1.021562e+003, 2.197916e+001
1.022044e+003, 2.195812e+001
1.022527e+003, 2.190098e+001
1.023009e+003, 2.187311e+001
1.023491e+003, 2.187429e+001
1.023973e+003, 2.190563e+001
1.024455e+003, 2.196653e+001
1.024937e+003, 2.204379e+001
1.025419e+003, 2.213618e+001
1.025901e+003, 2.227678e+001
1.026384e+003, 2.250599e+001
1.026866e+003, 2.260236e+001
1.027348e+003, 2.236101e+001
1.027830e+003, 2.205390e+001
1.028312e+003, 2.222550e+001
1.028794e+003, 2.290662e+001
1.029276e+003, 2.332403e+001
1.029758e+003, 2.342996e+001
1.030240e+003, 2.342250e+001
1.030723e+003, 2.326106e+001
1.031205e+003, 2.318300e+001
1.031687e+003, 2.338270e+001
1.032169e+003, 2.372506e+001
1.032651e+003, 2.393867e+001
1.033133e+003, 2.401085e+001
1.033615e+003, 2.405380e+001
1.034097e+003, 2.404105e+001
1.034579e+003, 2.406051e+001
1.035062e+003, 2.416958e+001
1.035544e+003, 2.425087e+001
1.036026e+003, 2.420948e+001
1.036508e+003, 2.409704e+001
1.036990e+003, 2.401521e+001
1.037472e+003, 2.396032e+001
1.037954e+003, 2.395631e+001
1.038436e+003, 2.401365e+001
1.038919e+003, 2.410772e+001
1.039401e+003, 2.434510e+001
1.039883e+003, 2.449665e+001
1.040365e+003, 2.435120e+001
1.040847e+003, 2.403598e+001
1.041329e+003, 2.380693e+001
1.041811e+003, 2.366306e+001
1.042293e+003, 2.360617e+001
1.042776e+003, 2.372471e+001
1.043258e+003, 2.380566e+001
1.043740e+003, 2.378791e+001
1.044222e+003, 2.374325e+001
1.044704e+003, 2.372505e+001
1.045186e+003, 2.371058e+001
1.045668e+003, 2.365707e+001
1.046150e+003, 2.356268e+001
1.046632e+003, 2.342428e+001
1.047115e+003, 2.319859e+001
1.047597e+003, 2.298821e+001
1.048079e+003, 2.281538e+001
1.048561e+003, 2.266924e+001
1.049043e+003, 2.252003e+001
1.049525e+003, 2.239906e+001
1.050007e+003, 2.237864e+001
1.050489e+003, 2.247733e+001
1.050971e+003, 2.254970e+001
1.051454e+003, 2.253663e+001
1.051936e+003, 2.253588e+001
1.052418e+003, 2.263986e+001
1.052900e+003, 2.270461e+001
1.053382e+003, 2.257834e+001
1.053864e+003, 2.235629e+001
1.054346e+003, 2.223719e+001
1.054828e+003, 2.225244e+001
1.055311e+003, 2.219290e+001
1.055793e+003, 2.185260e+001
1.056275e+003, 2.163335e+001
1.056757e+003, 2.181005e+001
1.057239e+003, 2.202426e+001
1.057721e+003, 2.200436e+001
1.058203e+003, 2.183080e+001
1.058685e+003, 2.165227e+001
1.059167e+003, 2.149526e+001
1.059650e+003, 2.139051e+001
1.060132e+003, 2.134706e+001
1.060614e+003, 2.135900e+001
1.061096e+003, 2.144282e+001
1.061578e+003, 2.156266e+001
1.062060e+003, 2.176928e+001
1.062542e+003, 2.195741e+001
1.063024e+003, 2.193818e+001
1.063506e+003, 2.169599e+001
1.063989e+003, 2.144345e+001
1.064471e+003, 2.120754e+001
1.064953e+003, 2.104478e+001
1.065435e+003, 2.100907e+001
1.065917e+003, 2.102457e+001
1.066399e+003, 2.103490e+001
1.066881e+003, 2.105619e+001
1.067363e+003, 2.114711e+001
1.067846e+003, 2.129846e+001
1.068328e+003, 2.137919e+001
1.068810e+003, 2.132219e+001
1.069292e+003, 2.121835e+001
1.069774e+003, 2.110089e+001
1.070256e+003, 2.095952e+001
1.070738e+003, 2.071262e+001
1.071220e+003, 2.047842e+001
1.071703e+003, 2.044179e+001
1.072185e+003, 2.059962e+001
1.072667e+003, 2.077015e+001
1.073149e+003, 2.089996e+001
1.073631e+003, 2.100274e+001
1.074113e+003, 2.109360e+001
1.074595e+003, 2.115030e+001
1.075077e+003, 2.117034e+001
1.075559e+003, 2.113814e+001
1.076042e+003, 2.098845e+001
1.076524e+003, 2.075912e+001
1.077006e+003, 2.062739e+001
1.077488e+003, 2.067430e+001
1.077970e+003, 2.075537e+001
1.078452e+003, 2.086897e+001
1.078934e+003, 2.092221e+001
1.079416e+003, 2.068252e+001
1.079898e+003, 2.046540e+001
1.080380e+003, 2.082016e+001
1.080863e+003, 2.155413e+001
1.081345e+003, 2.184799e+001
1.081827e+003, 2.135701e+001
1.082309e+003, 2.088683e+001
1.082791e+003, 2.082527e+001
1.083273e+003, 2.086192e+001
1.083755e+003, 2.084248e+001
1.084237e+003, 2.079586e+001
1.084720e+003, 2.081777e+001
1.085202e+003, 2.083872e+001
1.085684e+003, 2.060689e+001
1.086166e+003, 2.001093e+001
1.086648e+003, 1.963711e+001
1.087130e+003, 1.989715e+001
1.087612e+003, 2.023742e+001
1.088094e+003, 2.039201e+001
1.088577e+003, 2.047722e+001
1.089059e+003, 2.066720e+001
1.089541e+003, 2.086234e+001
1.090023e+003, 2.078378e+001
1.090505e+003, 2.037316e+001
1.090987e+003, 2.007755e+001
1.091469e+003, 2.010348e+001
1.091951e+003, 2.022452e+001
1.092433e+003, 2.046362e+001
1.092916e+003, 2.064461e+001
1.093398e+003, 2.058150e+001
1.093880e+003, 2.038374e+001
1.094362e+003, 2.022128e+001
1.094844e+003, 2.012513e+001
1.095326e+003, 2.010121e+001
1.095808e+003, 2.020251e+001
1.096290e+003, 2.030142e+001
1.096772e+003, 2.037228e+001
1.097255e+003, 2.041054e+001
1.097737e+003, 2.036642e+001
1.098219e+003, 2.031719e+001
1.098701e+003, 2.042502e+001
1.099183e+003, 2.065264e+001
1.099665e+003, 2.067645e+001
1.100147e+003, 2.026185e+001
1.100629e+003, 1.997539e+001
1.101112e+003, 2.005593e+001
1.101594e+003, 2.018766e+001
1.102076e+003, 2.030110e+001
1.102558e+003, 2.032176e+001
1.103040e+003, 2.004538e+001
1.103522e+003, 1.960821e+001
1.104004e+003, 1.955115e+001
1.104486e+003, 2.013104e+001
1.104969e+003, 2.051666e+001
1.105451e+003, 2.043439e+001
1.105933e+003, 2.030043e+001
1.106415e+003, 2.023955e+001
1.106897e+003, 2.020178e+001
1.107379e+003, 2.013753e+001
1.107861e+003, 2.006311e+001
1.108343e+003, 2.001500e+001
1.108825e+003, 1.998877e+001
1.109307e+003, 2.002937e+001
1.109790e+003, 2.031955e+001
1.110272e+003, 2.042175e+001
1.110754e+003, 2.005564e+001
1.111236e+003, 1.968125e+001
1.111718e+003, 1.957613e+001
1.112200e+003, 1.963839e+001
1.112682e+003, 1.971786e+001
1.113164e+003, 1.981484e+001
1.113647e+003, 1.987817e+001
1.114129e+003, 1.987580e+001
1.114611e+003, 1.989388e+001
1.115093e+003, 1.997492e+001
1.115575e+003, 2.002607e+001
1.116057e+003, 1.998275e+001
1.116539e+003, 1.991529e+001
1.117021e+003, 1.993708e+001
1.117504e+003, 2.001775e+001
1.117986e+003, 1.991712e+001
1.118468e+003, 1.947606e+001
1.118950e+003, 1.923743e+001
1.119432e+003, 1.926759e+001
1.119914e+003, 1.938943e+001
1.120396e+003, 1.962841e+001
1.120878e+003, 1.980164e+001
1.121360e+003, 1.970083e+001
1.121843e+003, 1.945201e+001
1.122325e+003, 1.944361e+001
1.122807e+003, 1.973363e+001
1.123289e+003, 1.992087e+001
1.123771e+003, 2.001703e+001
1.124253e+003, 1.994010e+001
1.124735e+003, 1.958663e+001
1.125217e+003, 1.933135e+001
1.125699e+003, 1.944884e+001
1.126182e+003, 1.972675e+001
1.126664e+003, 1.979980e+001
1.127146e+003, 1.967932e+001
1.127628e+003, 1.955993e+001
1.128110e+003, 1.943543e+001
1.128592e+003, 1.937032e+001
1.129074e+003, 1.937284e+001
1.129556e+003, 1.946191e+001
1.130039e+003, 1.966782e+001
1.130521e+003, 1.982739e+001
1.131003e+003, 1.973134e+001
1.131485e+003, 1.947364e+001
1.131967e+003, 1.940878e+001
1.132449e+003, 1.952166e+001
1.132931e+003, 1.951829e+001
1.133413e+003, 1.938665e+001
1.133896e+003, 1.935022e+001
1.134378e+003, 1.947701e+001
1.134860e+003, 1.959694e+001
1.135342e+003, 1.957225e+001
1.135824e+003, 1.949296e+001
1.136306e+003, 1.953118e+001
1.136788e+003, 1.965359e+001
1.137270e+003, 1.976678e+001
1.137752e+003, 1.984767e+001
1.138234e+003, 1.968930e+001
1.138717e+003, 1.932748e+001
1.139199e+003, 1.937345e+001
1.139681e+003, 2.014375e+001
1.140163e+003, 2.082713e+001
1.140645e+003, 2.031923e+001
1.141127e+003, 1.930858e+001
1.141609e+003, 1.909465e+001
1.142091e+003, 1.934780e+001
1.142574e+003, 1.932980e+001
1.143056e+003, 1.906954e+001
1.143538e+003, 1.898127e+001
1.144020e+003, 1.918078e+001
1.144502e+003, 1.943647e+001
1.144984e+003, 1.961060e+001
1.145466e+003, 1.971223e+001
1.145948e+003, 1.978321e+001
1.146431e+003, 1.976170e+001
1.146913e+003, 1.945113e+001
1.147395e+003, 1.904235e+001
1.147877e+003, 1.889775e+001
1.148359e+003, 1.903118e+001
1.148841e+003, 1.922949e+001
1.149323e+003, 1.943622e+001
1.149805e+003, 1.949024e+001
1.150287e+003, 1.910717e+001
1.150770e+003, 1.874268e+001
1.151252e+003, 1.874801e+001
1.151734e+003, 1.892782e+001
1.152216e+003, 1.913051e+001
1.152698e+003, 1.930213e+001
1.153180e+003, 1.936093e+001
1.153662e+003, 1.929108e+001
1.154144e+003, 1.928298e+001
1.154626e+003, 1.950595e+001
1.155109e+003, 1.965086e+001
1.155591e+003, 1.957818e+001
1.156073e+003, 1.943844e+001
1.156555e+003, 1.923578e+001
1.157037e+003, 1.907949e+001
1.157519e+003, 1.919410e+001
1.158001e+003, 1.951624e+001
1.158483e+003, 1.954299e+001
1.158966e+003, 1.894976e+001
1.159448e+003, 1.865720e+001
1.159930e+003, 1.895104e+001
1.160412e+003, 1.923885e+001
1.160894e+003, 1.940973e+001
1.161376e+003, 1.946906e+001
1.161858e+003, 1.935698e+001
1.162340e+003, 1.917147e+001
1.162822e+003, 1.913855e+001
1.163305e+003, 1.927892e+001
1.163787e+003, 1.934987e+001
1.164269e+003, 1.934818e+001
1.164751e+003, 1.927106e+001
1.165233e+003, 1.907250e+001
1.165715e+003, 1.893954e+001
1.166197e+003, 1.897994e+001
1.166679e+003, 1.907108e+001
1.167161e+003, 1.906064e+001
1.167644e+003, 1.898711e+001
1.168126e+003, 1.902409e+001
1.168608e+003, 1.917696e+001
1.169090e+003, 1.928952e+001
1.169572e+003, 1.935695e+001
1.170054e+003, 1.925991e+001
1.170536e+003, 1.896020e+001
1.171018e+003, 1.876689e+001
1.171500e+003, 1.890608e+001
1.171983e+003, 1.917764e+001
1.172465e+003, 1.929161e+001
1.172947e+003, 1.926406e+001
1.173429e+003, 1.904813e+001
1.173911e+003, 1.874221e+001
1.174393e+003, 1.880523e+001
1.174875e+003, 1.919741e+001
1.175357e+003, 1.939237e+001
1.175840e+003, 1.920817e+001
1.176322e+003, 1.900455e+001
1.176804e+003, 1.908828e+001
1.177286e+003, 1.927643e+001
1.177768e+003, 1.939728e+001
1.178250e+003, 1.943656e+001
1.178732e+003, 1.930451e+001
1.179214e+003, 1.910361e+001
1.179697e+003, 1.904859e+001
1.180179e+003, 1.913908e+001
1.180661e+003, 1.920915e+001
1.181143e+003, 1.918986e+001
1.181625e+003, 1.914707e+001
1.182107e+003, 1.911261e+001
1.182589e+003, 1.907754e+001
1.183071e+003, 1.902234e+001
1.183553e+003, 1.897622e+001
1.184036e+003, 1.896414e+001
1.184518e+003, 1.898345e+001
1.185000e+003, 1.905516e+001
1.185482e+003, 1.917219e+001
1.185964e+003, 1.917996e+001
1.186446e+003, 1.888688e+001
1.186928e+003, 1.873633e+001
1.187410e+003, 1.892159e+001
1.187892e+003, 1.911434e+001
1.188375e+003, 1.920795e+001
1.188857e+003, 1.921927e+001
1.189339e+003, 1.912836e+001
1.189821e+003, 1.898081e+001
1.190303e+003, 1.891003e+001
1.190785e+003, 1.892518e+001
1.191267e+003, 1.896955e+001
1.191749e+003, 1.907258e+001
1.192232e+003, 1.911591e+001
1.192714e+003, 1.906037e+001
1.193196e+003, 1.900105e+001
1.193678e+003, 1.898115e+001
1.194160e+003, 1.899603e+001
1.194642e+003, 1.905289e+001
1.195124e+003, 1.912437e+001
1.195606e+003, 1.908694e+001
1.196089e+003, 1.894596e+001
1.196571e+003, 1.883453e+001
1.197053e+003, 1.876130e+001
1.197535e+003, 1.877881e+001
1.198017e+003, 1.889376e+001
1.198499e+003, 1.898321e+001
1.198981e+003, 1.897011e+001
1.199463e+003, 1.890531e+001
1.199945e+003, 1.879899e+001
1.200427e+003, 1.873250e+001
1.200910e+003, 1.898188e+001
1.201392e+003, 1.935202e+001
1.201874e+003, 1.937058e+001
1.202356e+003, 1.910553e+001
1.202838e+003, 1.887743e+001
1.203320e+003, 1.878757e+001
1.203802e+003, 1.882289e+001
1.204284e+003, 1.902040e+001
1.204767e+003, 1.920369e+001
1.205249e+003, 1.924982e+001
1.205731e+003, 1.921458e+001
1.206213e+003, 1.905174e+001
1.206695e+003, 1.890359e+001
1.207177e+003, 1.900710e+001
1.207659e+003, 1.925347e+001
1.208141e+003, 1.929838e+001
1.208624e+003, 1.905876e+001
1.209106e+003, 1.890595e+001
1.209588e+003, 1.901466e+001
1.210070e+003, 1.908985e+001
1.210552e+003, 1.904924e+001
1.211034e+003, 1.898609e+001
1.211516e+003, 1.892159e+001
1.211998e+003, 1.887943e+001
1.212480e+003, 1.890263e+001
1.212963e+003, 1.896385e+001
1.213445e+003, 1.895454e+001
1.213927e+003, 1.885464e+001
1.214409e+003, 1.877250e+001
1.214891e+003, 1.868238e+001
1.215373e+003, 1.874319e+001
1.215855e+003, 1.903449e+001
1.216337e+003, 1.922313e+001
1.216819e+003, 1.911537e+001
1.217302e+003, 1.891701e+001
1.217784e+003, 1.888468e+001
1.218266e+003, 1.895280e+001
1.218748e+003, 1.888166e+001
1.219230e+003, 1.872374e+001
1.219712e+003, 1.880497e+001
1.220194e+003, 1.907309e+001
1.220676e+003, 1.914726e+001
1.221159e+003, 1.897070e+001
1.221641e+003, 1.880242e+001
1.222123e+003, 1.878235e+001
1.222605e+003, 1.879463e+001
1.223087e+003, 1.869536e+001
1.223569e+003, 1.859381e+001
1.224051e+003, 1.863512e+001
1.224533e+003, 1.873483e+001
1.225016e+003, 1.878636e+001
1.225498e+003, 1.880438e+001
1.225980e+003, 1.880546e+001
1.226462e+003, 1.881713e+001
1.226944e+003, 1.898080e+001
1.227426e+003, 1.947912e+001
1.227908e+003, 1.973071e+001
1.228390e+003, 1.924614e+001
1.228872e+003, 1.885472e+001
1.229354e+003, 1.907682e+001
1.229837e+003, 1.935737e+001
1.230319e+003, 1.914315e+001
1.230801e+003, 1.874534e+001
1.231283e+003, 1.879453e+001
1.231765e+003, 1.926965e+001
1.232247e+003, 1.940790e+001
1.232729e+003, 1.903193e+001
1.233211e+003, 1.888799e+001
1.233694e+003, 1.909930e+001
1.234176e+003, 1.918900e+001
1.234658e+003, 1.896974e+001
1.235140e+003, 1.881276e+001
1.235622e+003, 1.900998e+001
1.236104e+003, 1.932978e+001
1.236586e+003, 1.937548e+001
1.237068e+003, 1.920357e+001
1.237551e+003, 1.899756e+001
1.238033e+003, 1.879051e+001
1.238515e+003, 1.875568e+001
1.238997e+003, 1.887347e+001
1.239479e+003, 1.896729e+001
1.239961e+003, 1.898808e+001
1.240443e+003, 1.901018e+001
1.240925e+003, 1.908701e+001
1.241407e+003, 1.914682e+001
1.241890e+003, 1.911601e+001
1.242372e+003, 1.904002e+001
1.242854e+003, 1.892787e+001
1.243336e+003, 1.882488e+001
1.243818e+003, 1.879497e+001
1.244300e+003, 1.881324e+001
1.244782e+003, 1.882300e+001
1.245264e+003, 1.881370e+001
1.245746e+003, 1.879042e+001
1.246229e+003, 1.870745e+001
1.246711e+003, 1.869791e+001
1.247193e+003, 1.885019e+001
1.247675e+003, 1.899085e+001
1.248157e+003, 1.910019e+001
1.248639e+003, 1.912769e+001
1.249121e+003, 1.898665e+001
1.249603e+003, 1.879061e+001
1.250085e+003, 1.875217e+001
1.250568e+003, 1.886099e+001
1.251050e+003, 1.893089e+001
1.251532e+003, 1.895548e+001
1.252014e+003, 1.902076e+001
1.252496e+003, 1.913622e+001
1.252978e+003, 1.923156e+001
1.253460e+003, 1.928503e+001
1.253942e+003, 1.914826e+001
1.254425e+003, 1.869357e+001
1.254907e+003, 1.828040e+001
1.255389e+003, 1.855346e+001
1.255871e+003, 1.910676e+001
1.256353e+003, 1.916438e+001
1.256835e+003, 1.893962e+001
1.257317e+003, 1.874921e+001
1.257799e+003, 1.865386e+001
1.258281e+003, 1.871619e+001
1.258764e+003, 1.891699e+001
1.259246e+003, 1.910089e+001
1.259728e+003, 1.921345e+001
1.260210e+003, 1.925660e+001
1.260692e+003, 1.919752e+001
1.261174e+003, 1.911378e+001
1.261656e+003, 1.898988e+001
1.262138e+003, 1.890821e+001
1.262620e+003, 1.896901e+001
1.263103e+003, 1.909034e+001
1.263585e+003, 1.912456e+001
1.264067e+003, 1.908861e+001
1.264549e+003, 1.914152e+001
1.265031e+003, 1.934543e+001
1.265513e+003, 1.941718e+001
1.265995e+003, 1.932534e+001
1.266477e+003, 1.923029e+001
1.266960e+003, 1.916490e+001
1.267442e+003, 1.911786e+001
1.267924e+003, 1.908306e+001
1.268406e+003, 1.905924e+001
1.268888e+003, 1.903817e+001
1.269370e+003, 1.903972e+001
1.269852e+003, 1.915724e+001
1.270334e+003, 1.931359e+001
1.270817e+003, 1.929849e+001
1.271299e+003, 1.915338e+001
1.271781e+003, 1.896897e+001
1.272263e+003, 1.880493e+001
1.272745e+003, 1.880784e+001
1.273227e+003, 1.903449e+001
1.273709e+003, 1.922629e+001
1.274191e+003, 1.916727e+001
1.274673e+003, 1.912175e+001
1.275156e+003, 1.930461e+001
1.275638e+003, 1.945197e+001
1.276120e+003, 1.933022e+001
1.276602e+003, 1.912315e+001
1.277084e+003, 1.899623e+001
1.277566e+003, 1.897713e+001
1.278048e+003, 1.915404e+001
1.278530e+003, 1.957804e+001
1.279012e+003, 1.969952e+001
1.279495e+003, 1.940250e+001
1.279977e+003, 1.922802e+001
1.280459e+003, 1.925594e+001
1.280941e+003, 1.927449e+001
1.281423e+003, 1.919787e+001
1.281905e+003, 1.919533e+001
1.282387e+003, 1.941986e+001
1.282869e+003, 1.969120e+001
1.283352e+003, 1.966858e+001
1.283834e+003, 1.947912e+001
1.284316e+003, 1.939323e+001
1.284798e+003, 1.941185e+001
##END=



