##NAMES=Simonkolleite
##RRUFFID=R130117
##IDEAL CHEMISTRY=Zn^2+^_5_(OH)_8_Cl_2_&#183;H_2_O
##LOCALITY=Richelsdorf, Richelsdorf Mountains, Hesse, Germany
##OWNER=RRUFF
##SOURCE=Rock Currier
##DESCRIPTION=Colorless hexagonal tabular crystals.
##STATUS=The identification of this mineral has been confirmed by single-crystal X-ray diffraction.
##URL=rruff.info/R130117
8.975323e+001, 0.000000e+000
9.023535e+001, 3.277412e+002
9.071747e+001, 3.280988e+002
9.119958e+001, 3.269752e+002
9.168170e+001, 3.293161e+002
9.216382e+001, 3.295044e+002
9.264594e+001, 3.271270e+002
9.312805e+001, 3.234354e+002
9.361017e+001, 3.194283e+002
9.409229e+001, 3.147094e+002
9.457440e+001, 3.083128e+002
9.505651e+001, 3.028300e+002
9.553863e+001, 2.984977e+002
9.602074e+001, 2.950512e+002
9.650286e+001, 2.924170e+002
9.698498e+001, 2.903790e+002
9.746709e+001, 2.881420e+002
9.794921e+001, 2.855554e+002
9.843133e+001, 2.823151e+002
9.891344e+001, 2.792497e+002
9.939556e+001, 2.763153e+002
9.987768e+001, 2.735752e+002
1.003598e+002, 2.713601e+002
1.008419e+002, 2.699226e+002
1.013240e+002, 2.691809e+002
1.018061e+002, 2.684863e+002
1.022883e+002, 2.675148e+002
1.027704e+002, 2.667468e+002
1.032525e+002, 2.668059e+002
1.037346e+002, 2.678455e+002
1.042167e+002, 2.688310e+002
1.046988e+002, 2.689642e+002
1.051810e+002, 2.685275e+002
1.056631e+002, 2.678673e+002
1.061452e+002, 2.669983e+002
1.066273e+002, 2.659913e+002
1.071094e+002, 2.651609e+002
1.075915e+002, 2.646045e+002
1.080737e+002, 2.641016e+002
1.085558e+002, 2.635532e+002
1.090379e+002, 2.629707e+002
1.095200e+002, 2.623966e+002
1.100021e+002, 2.618212e+002
1.104842e+002, 2.611856e+002
1.109664e+002, 2.608838e+002
1.114485e+002, 2.612549e+002
1.119306e+002, 2.616569e+002
1.124127e+002, 2.618250e+002
1.128948e+002, 2.617048e+002
1.133769e+002, 2.613761e+002
1.138591e+002, 2.609482e+002
1.143412e+002, 2.603567e+002
1.148233e+002, 2.597532e+002
1.153054e+002, 2.593135e+002
1.157875e+002, 2.587831e+002
1.162696e+002, 2.578500e+002
1.167517e+002, 2.563836e+002
1.172339e+002, 2.546136e+002
1.177160e+002, 2.530600e+002
1.181981e+002, 2.516287e+002
1.186802e+002, 2.504884e+002
1.191623e+002, 2.498551e+002
1.196444e+002, 2.495777e+002
1.201266e+002, 2.492796e+002
1.206087e+002, 2.489190e+002
1.210908e+002, 2.482943e+002
1.215729e+002, 2.471109e+002
1.220550e+002, 2.451152e+002
1.225371e+002, 2.429940e+002
1.230193e+002, 2.413713e+002
1.235014e+002, 2.402890e+002
1.239835e+002, 2.393080e+002
1.244656e+002, 2.381747e+002
1.249477e+002, 2.370625e+002
1.254298e+002, 2.362132e+002
1.259120e+002, 2.358703e+002
1.263941e+002, 2.356508e+002
1.268762e+002, 2.347637e+002
1.273583e+002, 2.333240e+002
1.278404e+002, 2.308512e+002
1.283225e+002, 2.271677e+002
1.288047e+002, 2.225760e+002
1.292868e+002, 2.173767e+002
1.297689e+002, 2.116200e+002
1.302510e+002, 2.053923e+002
1.307331e+002, 1.999870e+002
1.312152e+002, 1.957664e+002
1.316974e+002, 1.920479e+002
1.321795e+002, 1.886737e+002
1.326616e+002, 1.856802e+002
1.331437e+002, 1.832441e+002
1.336258e+002, 1.815465e+002
1.341079e+002, 1.807044e+002
1.345901e+002, 1.798948e+002
1.350722e+002, 1.790958e+002
1.355543e+002, 1.783370e+002
1.360364e+002, 1.776494e+002
1.365185e+002, 1.770315e+002
1.370006e+002, 1.764420e+002
1.374828e+002, 1.758252e+002
1.379649e+002, 1.751524e+002
1.384470e+002, 1.746413e+002
1.389291e+002, 1.744429e+002
1.394112e+002, 1.743574e+002
1.398933e+002, 1.741279e+002
1.403755e+002, 1.736743e+002
1.408576e+002, 1.731759e+002
1.413397e+002, 1.729772e+002
1.418218e+002, 1.730604e+002
1.423039e+002, 1.728864e+002
1.427860e+002, 1.720791e+002
1.432681e+002, 1.707995e+002
1.437503e+002, 1.696227e+002
1.442324e+002, 1.686870e+002
1.447145e+002, 1.678883e+002
1.451966e+002, 1.671237e+002
1.456787e+002, 1.663918e+002
1.461608e+002, 1.656733e+002
1.466430e+002, 1.649496e+002
1.471251e+002, 1.642169e+002
1.476072e+002, 1.635016e+002
1.480893e+002, 1.628419e+002
1.485714e+002, 1.621724e+002
1.490535e+002, 1.614810e+002
1.495357e+002, 1.607623e+002
1.500178e+002, 1.599624e+002
1.504999e+002, 1.590157e+002
1.509820e+002, 1.579110e+002
1.514641e+002, 1.566387e+002
1.519462e+002, 1.550671e+002
1.524284e+002, 1.534348e+002
1.529105e+002, 1.519082e+002
1.533926e+002, 1.505594e+002
1.538747e+002, 1.493455e+002
1.543568e+002, 1.481686e+002
1.548389e+002, 1.471507e+002
1.553211e+002, 1.460223e+002
1.558032e+002, 1.445573e+002
1.562853e+002, 1.430359e+002
1.567674e+002, 1.418224e+002
1.572495e+002, 1.411066e+002
1.577316e+002, 1.407782e+002
1.582138e+002, 1.403835e+002
1.586959e+002, 1.398078e+002
1.591780e+002, 1.393015e+002
1.596601e+002, 1.389953e+002
1.601422e+002, 1.388114e+002
1.606243e+002, 1.385619e+002
1.611065e+002, 1.381274e+002
1.615886e+002, 1.375515e+002
1.620707e+002, 1.370562e+002
1.625528e+002, 1.366386e+002
1.630349e+002, 1.362953e+002
1.635170e+002, 1.360567e+002
1.639991e+002, 1.359133e+002
1.644813e+002, 1.357824e+002
1.649634e+002, 1.356499e+002
1.654455e+002, 1.354802e+002
1.659276e+002, 1.351813e+002
1.664097e+002, 1.344649e+002
1.668918e+002, 1.338342e+002
1.673740e+002, 1.340430e+002
1.678561e+002, 1.353014e+002
1.683382e+002, 1.363976e+002
1.688203e+002, 1.363999e+002
1.693024e+002, 1.358667e+002
1.697845e+002, 1.354457e+002
1.702667e+002, 1.354392e+002
1.707488e+002, 1.356573e+002
1.712309e+002, 1.356154e+002
1.717130e+002, 1.350693e+002
1.721951e+002, 1.347247e+002
1.726772e+002, 1.349674e+002
1.731594e+002, 1.355262e+002
1.736415e+002, 1.360196e+002
1.741236e+002, 1.362106e+002
1.746057e+002, 1.361544e+002
1.750878e+002, 1.361785e+002
1.755699e+002, 1.363087e+002
1.760521e+002, 1.365060e+002
1.765342e+002, 1.367971e+002
1.770163e+002, 1.371438e+002
1.774984e+002, 1.374844e+002
1.779805e+002, 1.377782e+002
1.784626e+002, 1.380258e+002
1.789448e+002, 1.382369e+002
1.794269e+002, 1.382107e+002
1.799090e+002, 1.383431e+002
1.803911e+002, 1.388139e+002
1.808732e+002, 1.395579e+002
1.813553e+002, 1.403946e+002
1.818375e+002, 1.411794e+002
1.823196e+002, 1.419087e+002
1.828017e+002, 1.426002e+002
1.832838e+002, 1.431042e+002
1.837659e+002, 1.437046e+002
1.842480e+002, 1.445697e+002
1.847301e+002, 1.456811e+002
1.852123e+002, 1.468981e+002
1.856944e+002, 1.481099e+002
1.861765e+002, 1.493205e+002
1.866586e+002, 1.503986e+002
1.871407e+002, 1.512285e+002
1.876228e+002, 1.520049e+002
1.881050e+002, 1.527833e+002
1.885871e+002, 1.535810e+002
1.890692e+002, 1.545844e+002
1.895513e+002, 1.560260e+002
1.900334e+002, 1.579024e+002
1.905155e+002, 1.598615e+002
1.909977e+002, 1.621012e+002
1.914798e+002, 1.642909e+002
1.919619e+002, 1.659807e+002
1.924440e+002, 1.670516e+002
1.929261e+002, 1.679999e+002
1.934082e+002, 1.692366e+002
1.938904e+002, 1.707161e+002
1.943725e+002, 1.724096e+002
1.948546e+002, 1.746227e+002
1.953367e+002, 1.770009e+002
1.958188e+002, 1.787095e+002
1.963009e+002, 1.793296e+002
1.967831e+002, 1.800655e+002
1.972652e+002, 1.818498e+002
1.977473e+002, 1.844354e+002
1.982294e+002, 1.872335e+002
1.987115e+002, 1.901111e+002
1.991936e+002, 1.930094e+002
1.996758e+002, 1.955833e+002
2.001579e+002, 1.974893e+002
2.006400e+002, 1.995639e+002
2.011221e+002, 2.022795e+002
2.016042e+002, 2.054855e+002
2.020863e+002, 2.087767e+002
2.025685e+002, 2.119283e+002
2.030506e+002, 2.149446e+002
2.035327e+002, 2.177995e+002
2.040148e+002, 2.204620e+002
2.044969e+002, 2.229511e+002
2.049790e+002, 2.251915e+002
2.054612e+002, 2.272471e+002
2.059433e+002, 2.292869e+002
2.064254e+002, 2.314863e+002
2.069075e+002, 2.338702e+002
2.073896e+002, 2.359137e+002
2.078717e+002, 2.378295e+002
2.083539e+002, 2.391757e+002
2.088360e+002, 2.396382e+002
2.093181e+002, 2.393548e+002
2.098002e+002, 2.387310e+002
2.102823e+002, 2.381931e+002
2.107644e+002, 2.378726e+002
2.112466e+002, 2.364582e+002
2.117287e+002, 2.330905e+002
2.122108e+002, 2.295554e+002
2.126929e+002, 2.267032e+002
2.131750e+002, 2.243749e+002
2.136571e+002, 2.217924e+002
2.141393e+002, 2.182139e+002
2.146214e+002, 2.134681e+002
2.151035e+002, 2.088301e+002
2.155856e+002, 2.041759e+002
2.160677e+002, 1.996961e+002
2.165498e+002, 1.954284e+002
2.170320e+002, 1.914058e+002
2.175141e+002, 1.876317e+002
2.179962e+002, 1.841413e+002
2.184783e+002, 1.809667e+002
2.189604e+002, 1.779689e+002
2.194425e+002, 1.749999e+002
2.199247e+002, 1.722832e+002
2.204068e+002, 1.700817e+002
2.208889e+002, 1.683433e+002
2.213710e+002, 1.666377e+002
2.218531e+002, 1.645290e+002
2.223352e+002, 1.620008e+002
2.228174e+002, 1.599822e+002
2.232995e+002, 1.584907e+002
2.237816e+002, 1.574758e+002
2.242637e+002, 1.571301e+002
2.247458e+002, 1.574118e+002
2.252279e+002, 1.576539e+002
2.257100e+002, 1.572185e+002
2.261922e+002, 1.562113e+002
2.266743e+002, 1.555543e+002
2.271564e+002, 1.552247e+002
2.276385e+002, 1.553186e+002
2.281206e+002, 1.561476e+002
2.286027e+002, 1.577485e+002
2.290849e+002, 1.592749e+002
2.295670e+002, 1.598420e+002
2.300491e+002, 1.598560e+002
2.305312e+002, 1.604591e+002
2.310133e+002, 1.620417e+002
2.314954e+002, 1.641821e+002
2.319776e+002, 1.665052e+002
2.324597e+002, 1.690386e+002
2.329418e+002, 1.715546e+002
2.334239e+002, 1.737410e+002
2.339060e+002, 1.758590e+002
2.343881e+002, 1.783413e+002
2.348703e+002, 1.813853e+002
2.353524e+002, 1.847653e+002
2.358345e+002, 1.880924e+002
2.363166e+002, 1.912561e+002
2.367987e+002, 1.949193e+002
2.372808e+002, 2.000733e+002
2.377630e+002, 2.057379e+002
2.382451e+002, 2.108195e+002
2.387272e+002, 2.147852e+002
2.392093e+002, 2.183151e+002
2.396914e+002, 2.224656e+002
2.401735e+002, 2.273957e+002
2.406557e+002, 2.325108e+002
2.411378e+002, 2.375891e+002
2.416199e+002, 2.427294e+002
2.421020e+002, 2.479560e+002
2.425841e+002, 2.531901e+002
2.430662e+002, 2.587364e+002
2.435484e+002, 2.652079e+002
2.440305e+002, 2.728817e+002
2.445126e+002, 2.807289e+002
2.449947e+002, 2.883630e+002
2.454768e+002, 2.960586e+002
2.459589e+002, 3.040537e+002
2.464410e+002, 3.124460e+002
2.469232e+002, 3.211159e+002
2.474053e+002, 3.299779e+002
2.478874e+002, 3.389460e+002
2.483695e+002, 3.483051e+002
2.488516e+002, 3.583237e+002
2.493337e+002, 3.685333e+002
2.498159e+002, 3.786722e+002
2.502980e+002, 3.886621e+002
2.507801e+002, 3.983358e+002
2.512622e+002, 4.075716e+002
2.517443e+002, 4.165022e+002
2.522264e+002, 4.244887e+002
2.527086e+002, 4.320602e+002
2.531907e+002, 4.384962e+002
2.536728e+002, 4.435190e+002
2.541549e+002, 4.469633e+002
2.546370e+002, 4.485724e+002
2.551191e+002, 4.478653e+002
2.556013e+002, 4.443122e+002
2.560834e+002, 4.393243e+002
2.565655e+002, 4.327266e+002
2.570476e+002, 4.252024e+002
2.575297e+002, 4.170250e+002
2.580118e+002, 4.083270e+002
2.584940e+002, 3.991799e+002
2.589761e+002, 3.895611e+002
2.594582e+002, 3.789062e+002
2.599403e+002, 3.692704e+002
2.604224e+002, 3.605572e+002
2.609045e+002, 3.526034e+002
2.613867e+002, 3.453860e+002
2.618688e+002, 3.388434e+002
2.623509e+002, 3.329602e+002
2.628330e+002, 3.277082e+002
2.633151e+002, 3.232044e+002
2.637972e+002, 3.189803e+002
2.642794e+002, 3.152169e+002
2.647615e+002, 3.115362e+002
2.652436e+002, 3.079111e+002
2.657257e+002, 3.042468e+002
2.662078e+002, 3.002833e+002
2.666899e+002, 2.957422e+002
2.671721e+002, 2.905521e+002
2.676542e+002, 2.852503e+002
2.681363e+002, 2.801478e+002
2.686184e+002, 2.746909e+002
2.691005e+002, 2.685011e+002
2.695826e+002, 2.616877e+002
2.700648e+002, 2.546570e+002
2.705469e+002, 2.476880e+002
2.710290e+002, 2.408183e+002
2.715111e+002, 2.342070e+002
2.719932e+002, 2.280054e+002
2.724753e+002, 2.218652e+002
2.729575e+002, 2.157475e+002
2.734396e+002, 2.095962e+002
2.739217e+002, 2.032515e+002
2.744038e+002, 1.965103e+002
2.748859e+002, 1.894629e+002
2.753680e+002, 1.834445e+002
2.758501e+002, 1.788801e+002
2.763322e+002, 1.745875e+002
2.768144e+002, 1.702002e+002
2.772965e+002, 1.657622e+002
2.777786e+002, 1.614197e+002
2.782607e+002, 1.572318e+002
2.787428e+002, 1.532248e+002
2.792249e+002, 1.495086e+002
2.797071e+002, 1.459776e+002
2.801892e+002, 1.427698e+002
2.806713e+002, 1.400873e+002
2.811534e+002, 1.377312e+002
2.816355e+002, 1.353223e+002
2.821176e+002, 1.326806e+002
2.825998e+002, 1.299559e+002
2.830819e+002, 1.276014e+002
2.835640e+002, 1.256423e+002
2.840461e+002, 1.239014e+002
2.845282e+002, 1.225016e+002
2.850103e+002, 1.212595e+002
2.854925e+002, 1.198888e+002
2.859746e+002, 1.182833e+002
2.864567e+002, 1.165884e+002
2.869388e+002, 1.150157e+002
2.874209e+002, 1.135488e+002
2.879030e+002, 1.122561e+002
2.883852e+002, 1.112271e+002
2.888673e+002, 1.103558e+002
2.893494e+002, 1.095684e+002
2.898315e+002, 1.088533e+002
2.903136e+002, 1.080982e+002
2.907957e+002, 1.070715e+002
2.912779e+002, 1.056995e+002
2.917600e+002, 1.047067e+002
2.922421e+002, 1.044485e+002
2.927242e+002, 1.044406e+002
2.932063e+002, 1.042665e+002
2.936884e+002, 1.038669e+002
2.941706e+002, 1.032763e+002
2.946527e+002, 1.024520e+002
2.951348e+002, 1.013953e+002
2.956169e+002, 1.005326e+002
2.960990e+002, 9.989998e+001
2.965811e+002, 9.945137e+001
2.970633e+002, 9.923147e+001
2.975454e+002, 9.921616e+001
2.980275e+002, 9.918962e+001
2.985096e+002, 9.902269e+001
2.989917e+002, 9.870493e+001
2.994738e+002, 9.828430e+001
2.999560e+002, 9.768147e+001
3.004381e+002, 9.705424e+001
3.009202e+002, 9.639077e+001
3.014023e+002, 9.574265e+001
3.018844e+002, 9.534133e+001
3.023665e+002, 9.535487e+001
3.028487e+002, 9.567298e+001
3.033308e+002, 9.594878e+001
3.038129e+002, 9.626331e+001
3.042950e+002, 9.642129e+001
3.047771e+002, 9.620663e+001
3.052592e+002, 9.575959e+001
3.057414e+002, 9.546069e+001
3.062235e+002, 9.548336e+001
3.067056e+002, 9.566440e+001
3.071877e+002, 9.571485e+001
3.076698e+002, 9.566565e+001
3.081519e+002, 9.545188e+001
3.086341e+002, 9.489571e+001
3.091162e+002, 9.419325e+001
3.095983e+002, 9.376156e+001
3.100804e+002, 9.376802e+001
3.105625e+002, 9.379783e+001
3.110446e+002, 9.319358e+001
3.115268e+002, 9.193343e+001
3.120089e+002, 9.086300e+001
3.124910e+002, 9.023837e+001
3.129731e+002, 8.984742e+001
3.134552e+002, 8.947242e+001
3.139373e+002, 8.908669e+001
3.144195e+002, 8.865322e+001
3.149016e+002, 8.810682e+001
3.153837e+002, 8.745645e+001
3.158658e+002, 8.687387e+001
3.163479e+002, 8.643692e+001
3.168300e+002, 8.602713e+001
3.173121e+002, 8.551661e+001
3.177943e+002, 8.491135e+001
3.182764e+002, 8.436549e+001
3.187585e+002, 8.399446e+001
3.192406e+002, 8.377238e+001
3.197227e+002, 8.352171e+001
3.202048e+002, 8.312798e+001
3.206870e+002, 8.281787e+001
3.211691e+002, 8.280753e+001
3.216512e+002, 8.300840e+001
3.221333e+002, 8.308857e+001
3.226154e+002, 8.285869e+001
3.230975e+002, 8.245583e+001
3.235797e+002, 8.224731e+001
3.240618e+002, 8.232853e+001
3.245439e+002, 8.236015e+001
3.250260e+002, 8.215394e+001
3.255081e+002, 8.182620e+001
3.259902e+002, 8.158292e+001
3.264724e+002, 8.148279e+001
3.269545e+002, 8.150682e+001
3.274366e+002, 8.165939e+001
3.279187e+002, 8.195895e+001
3.284008e+002, 8.224390e+001
3.288829e+002, 8.261880e+001
3.293651e+002, 8.290053e+001
3.298472e+002, 8.277715e+001
3.303293e+002, 8.219438e+001
3.308114e+002, 8.157515e+001
3.312935e+002, 8.135387e+001
3.317756e+002, 8.157082e+001
3.322578e+002, 8.173289e+001
3.327399e+002, 8.184474e+001
3.332220e+002, 8.188103e+001
3.337041e+002, 8.171692e+001
3.341862e+002, 8.140156e+001
3.346683e+002, 8.126507e+001
3.351505e+002, 8.159414e+001
3.356326e+002, 8.230579e+001
3.361147e+002, 8.274960e+001
3.365968e+002, 8.274004e+001
3.370789e+002, 8.269805e+001
3.375610e+002, 8.284348e+001
3.380432e+002, 8.309408e+001
3.385253e+002, 8.323190e+001
3.390074e+002, 8.314002e+001
3.394895e+002, 8.291320e+001
3.399716e+002, 8.279908e+001
3.404537e+002, 8.275573e+001
3.409359e+002, 8.287271e+001
3.414180e+002, 8.332890e+001
3.419001e+002, 8.389771e+001
3.423822e+002, 8.430709e+001
3.428643e+002, 8.447853e+001
3.433464e+002, 8.444381e+001
3.438286e+002, 8.421323e+001
3.443107e+002, 8.366242e+001
3.447928e+002, 8.328572e+001
3.452749e+002, 8.311065e+001
3.457570e+002, 8.309599e+001
3.462391e+002, 8.327280e+001
3.467213e+002, 8.361101e+001
3.472034e+002, 8.396960e+001
3.476855e+002, 8.421986e+001
3.481676e+002, 8.435622e+001
3.486497e+002, 8.450236e+001
3.491318e+002, 8.477707e+001
3.496140e+002, 8.494397e+001
3.500961e+002, 8.484805e+001
3.505782e+002, 8.456226e+001
3.510603e+002, 8.420842e+001
3.515424e+002, 8.382597e+001
3.520245e+002, 8.350157e+001
3.525067e+002, 8.362641e+001
3.529888e+002, 8.473302e+001
3.534709e+002, 8.562613e+001
3.539530e+002, 8.600502e+001
3.544351e+002, 8.615659e+001
3.549172e+002, 8.645680e+001
3.553994e+002, 8.702950e+001
3.558815e+002, 8.765708e+001
3.563636e+002, 8.796021e+001
3.568457e+002, 8.769138e+001
3.573278e+002, 8.758934e+001
3.578099e+002, 8.765798e+001
3.582920e+002, 8.787102e+001
3.587741e+002, 8.820557e+001
3.592563e+002, 8.866370e+001
3.597384e+002, 8.928085e+001
3.602205e+002, 9.013213e+001
3.607026e+002, 9.126882e+001
3.611847e+002, 9.213515e+001
3.616668e+002, 9.242461e+001
3.621490e+002, 9.277827e+001
3.626311e+002, 9.341047e+001
3.631132e+002, 9.426730e+001
3.635953e+002, 9.521191e+001
3.640774e+002, 9.616688e+001
3.645595e+002, 9.713432e+001
3.650417e+002, 9.812293e+001
3.655238e+002, 9.912682e+001
3.660059e+002, 1.001631e+002
3.664880e+002, 1.011056e+002
3.669701e+002, 1.021376e+002
3.674522e+002, 1.034320e+002
3.679344e+002, 1.050394e+002
3.684165e+002, 1.069060e+002
3.688986e+002, 1.089974e+002
3.693807e+002, 1.114199e+002
3.698628e+002, 1.137717e+002
3.703449e+002, 1.158950e+002
3.708271e+002, 1.180747e+002
3.713092e+002, 1.204450e+002
3.717913e+002, 1.230206e+002
3.722734e+002, 1.258143e+002
3.727555e+002, 1.288242e+002
3.732376e+002, 1.320441e+002
3.737198e+002, 1.354873e+002
3.742019e+002, 1.392972e+002
3.746840e+002, 1.431836e+002
3.751661e+002, 1.469835e+002
3.756482e+002, 1.508101e+002
3.761303e+002, 1.548013e+002
3.766125e+002, 1.590495e+002
3.770946e+002, 1.635051e+002
3.775767e+002, 1.680535e+002
3.780588e+002, 1.726351e+002
3.785409e+002, 1.774864e+002
3.790230e+002, 1.828651e+002
3.795052e+002, 1.884220e+002
3.799873e+002, 1.938018e+002
3.804694e+002, 1.989414e+002
3.809515e+002, 2.043121e+002
3.814336e+002, 2.104295e+002
3.819157e+002, 2.172910e+002
3.823979e+002, 2.242211e+002
3.828800e+002, 2.310704e+002
3.833621e+002, 2.380688e+002
3.838442e+002, 2.453156e+002
3.843263e+002, 2.527901e+002
3.848084e+002, 2.606200e+002
3.852906e+002, 2.688908e+002
3.857727e+002, 2.774844e+002
3.862548e+002, 2.862611e+002
3.867369e+002, 2.952636e+002
3.872190e+002, 3.041967e+002
3.877011e+002, 3.128818e+002
3.881833e+002, 3.214288e+002
3.886654e+002, 3.300814e+002
3.891475e+002, 3.391825e+002
3.896296e+002, 3.478543e+002
3.901117e+002, 3.552110e+002
3.905938e+002, 3.613864e+002
3.910760e+002, 3.673385e+002
3.915581e+002, 3.738945e+002
3.920402e+002, 3.796506e+002
3.925223e+002, 3.828703e+002
3.930044e+002, 3.836193e+002
3.934865e+002, 3.826341e+002
3.939687e+002, 3.799898e+002
3.944508e+002, 3.758527e+002
3.949329e+002, 3.704003e+002
3.954150e+002, 3.635723e+002
3.958971e+002, 3.558153e+002
3.963792e+002, 3.473818e+002
3.968614e+002, 3.382265e+002
3.973435e+002, 3.284504e+002
3.978256e+002, 3.174357e+002
3.983077e+002, 3.062350e+002
3.987898e+002, 2.954341e+002
3.992719e+002, 2.849980e+002
3.997540e+002, 2.746764e+002
4.002361e+002, 2.642928e+002
4.007183e+002, 2.540343e+002
4.012004e+002, 2.446474e+002
4.016825e+002, 2.363283e+002
4.021646e+002, 2.283491e+002
4.026467e+002, 2.205334e+002
4.031288e+002, 2.130098e+002
4.036110e+002, 2.060134e+002
4.040931e+002, 1.996099e+002
4.045752e+002, 1.935538e+002
4.050573e+002, 1.875356e+002
4.055394e+002, 1.814982e+002
4.060215e+002, 1.760747e+002
4.065037e+002, 1.713599e+002
4.069858e+002, 1.670988e+002
4.074679e+002, 1.632679e+002
4.079500e+002, 1.597752e+002
4.084321e+002, 1.564118e+002
4.089142e+002, 1.529919e+002
4.093964e+002, 1.496317e+002
4.098785e+002, 1.468190e+002
4.103606e+002, 1.453173e+002
4.108427e+002, 1.433892e+002
4.113248e+002, 1.404250e+002
4.118069e+002, 1.372318e+002
4.122891e+002, 1.345759e+002
4.127712e+002, 1.326522e+002
4.132533e+002, 1.311292e+002
4.137354e+002, 1.295910e+002
4.142175e+002, 1.280083e+002
4.146996e+002, 1.265002e+002
4.151818e+002, 1.250697e+002
4.156639e+002, 1.237221e+002
4.161460e+002, 1.225065e+002
4.166281e+002, 1.213756e+002
4.171102e+002, 1.202231e+002
4.175923e+002, 1.189190e+002
4.180745e+002, 1.175896e+002
4.185566e+002, 1.167270e+002
4.190387e+002, 1.166544e+002
4.195208e+002, 1.163360e+002
4.200029e+002, 1.152599e+002
4.204850e+002, 1.139190e+002
4.209672e+002, 1.127271e+002
4.214493e+002, 1.117821e+002
4.219314e+002, 1.110136e+002
4.224135e+002, 1.104402e+002
4.228956e+002, 1.100468e+002
4.233777e+002, 1.094818e+002
4.238599e+002, 1.086071e+002
4.243420e+002, 1.076667e+002
4.248241e+002, 1.068169e+002
4.253062e+002, 1.060529e+002
4.257883e+002, 1.053559e+002
4.262704e+002, 1.047577e+002
4.267526e+002, 1.042032e+002
4.272347e+002, 1.035951e+002
4.277168e+002, 1.029232e+002
4.281989e+002, 1.023110e+002
4.286810e+002, 1.018319e+002
4.291631e+002, 1.014598e+002
4.296453e+002, 1.011167e+002
4.301274e+002, 1.008045e+002
4.306095e+002, 1.005154e+002
4.310916e+002, 1.003221e+002
4.315737e+002, 1.001390e+002
4.320558e+002, 9.975774e+001
4.325380e+002, 9.911001e+001
4.330201e+002, 9.838843e+001
4.335022e+002, 9.781900e+001
4.339843e+002, 9.742765e+001
4.344664e+002, 9.699587e+001
4.349485e+002, 9.640852e+001
4.354307e+002, 9.586931e+001
4.359128e+002, 9.556658e+001
4.363949e+002, 9.544316e+001
4.368770e+002, 9.527632e+001
4.373591e+002, 9.492361e+001
4.378412e+002, 9.445713e+001
4.383234e+002, 9.415904e+001
4.388055e+002, 9.414394e+001
4.392876e+002, 9.415540e+001
4.397697e+002, 9.429787e+001
4.402518e+002, 9.439243e+001
4.407339e+002, 9.424358e+001
4.412160e+002, 9.382809e+001
4.416982e+002, 9.329253e+001
4.421803e+002, 9.280969e+001
4.426624e+002, 9.239912e+001
4.431445e+002, 9.189167e+001
4.436266e+002, 9.089957e+001
4.441087e+002, 9.021812e+001
4.445909e+002, 9.030686e+001
4.450730e+002, 9.083619e+001
4.455551e+002, 9.127737e+001
4.460372e+002, 9.136255e+001
4.465193e+002, 9.119130e+001
4.470014e+002, 9.094962e+001
4.474836e+002, 9.058322e+001
4.479657e+002, 9.030972e+001
4.484478e+002, 9.028272e+001
4.489299e+002, 9.027703e+001
4.494120e+002, 9.009931e+001
4.498941e+002, 8.976601e+001
4.503763e+002, 8.951103e+001
4.508584e+002, 8.963456e+001
4.513405e+002, 9.000855e+001
4.518226e+002, 9.005603e+001
4.523047e+002, 8.967397e+001
4.527868e+002, 8.919640e+001
4.532690e+002, 8.867269e+001
4.537511e+002, 8.821278e+001
4.542332e+002, 8.802294e+001
4.547153e+002, 8.824489e+001
4.551974e+002, 8.855401e+001
4.556795e+002, 8.867995e+001
4.561617e+002, 8.866155e+001
4.566438e+002, 8.868552e+001
4.571259e+002, 8.883196e+001
4.576080e+002, 8.897951e+001
4.580901e+002, 8.895110e+001
4.585722e+002, 8.875270e+001
4.590544e+002, 8.854208e+001
4.595365e+002, 8.823938e+001
4.600186e+002, 8.801469e+001
4.605007e+002, 8.809113e+001
4.609828e+002, 8.842104e+001
4.614649e+002, 8.870650e+001
4.619471e+002, 8.875648e+001
4.624292e+002, 8.863280e+001
4.629113e+002, 8.859256e+001
4.633934e+002, 8.868279e+001
4.638755e+002, 8.878841e+001
4.643576e+002, 8.898838e+001
4.648398e+002, 8.914836e+001
4.653219e+002, 8.906897e+001
4.658040e+002, 8.874312e+001
4.662861e+002, 8.839751e+001
4.667682e+002, 8.826758e+001
4.672503e+002, 8.835676e+001
4.677325e+002, 8.862402e+001
4.682146e+002, 8.942575e+001
4.686967e+002, 9.002239e+001
4.691788e+002, 9.006462e+001
4.696609e+002, 8.981384e+001
4.701430e+002, 8.968677e+001
4.706252e+002, 8.987298e+001
4.711073e+002, 9.015646e+001
4.715894e+002, 9.006982e+001
4.720715e+002, 8.944567e+001
4.725536e+002, 8.919775e+001
4.730357e+002, 8.996278e+001
4.735179e+002, 9.070982e+001
4.740000e+002, 9.072411e+001
4.744821e+002, 9.014927e+001
4.749642e+002, 8.969381e+001
4.754463e+002, 8.990170e+001
4.759284e+002, 9.046858e+001
4.764106e+002, 9.070946e+001
4.768927e+002, 9.057499e+001
4.773748e+002, 9.041875e+001
4.778569e+002, 9.040508e+001
4.783390e+002, 9.046606e+001
4.788211e+002, 9.046909e+001
4.793033e+002, 9.036544e+001
4.797854e+002, 9.036266e+001
4.802675e+002, 9.068665e+001
4.807496e+002, 9.115083e+001
4.812317e+002, 9.138380e+001
4.817138e+002, 9.131252e+001
4.821959e+002, 9.119903e+001
4.826780e+002, 9.131462e+001
4.831602e+002, 9.164543e+001
4.836423e+002, 9.170272e+001
4.841244e+002, 9.132413e+001
4.846065e+002, 9.086781e+001
4.850886e+002, 9.041645e+001
4.855707e+002, 8.999766e+001
4.860529e+002, 8.968477e+001
4.865350e+002, 8.950202e+001
4.870171e+002, 8.932246e+001
4.874992e+002, 8.891157e+001
4.879813e+002, 8.806828e+001
4.884634e+002, 8.754778e+001
4.889456e+002, 8.766999e+001
4.894277e+002, 8.775510e+001
4.899098e+002, 8.738660e+001
4.903919e+002, 8.671632e+001
4.908740e+002, 8.615688e+001
4.913561e+002, 8.597903e+001
4.918383e+002, 8.601527e+001
4.923204e+002, 8.578676e+001
4.928025e+002, 8.518875e+001
4.932846e+002, 8.461820e+001
4.937667e+002, 8.412739e+001
4.942488e+002, 8.371811e+001
4.947310e+002, 8.340428e+001
4.952131e+002, 8.318318e+001
4.956952e+002, 8.302555e+001
4.961773e+002, 8.298802e+001
4.966594e+002, 8.299410e+001
4.971415e+002, 8.282341e+001
4.976237e+002, 8.245002e+001
4.981058e+002, 8.198934e+001
4.985879e+002, 8.137846e+001
4.990700e+002, 8.076741e+001
4.995521e+002, 8.045847e+001
5.000342e+002, 8.058595e+001
5.005164e+002, 8.071975e+001
5.009985e+002, 8.064439e+001
5.014806e+002, 8.043230e+001
5.019627e+002, 8.021794e+001
5.024448e+002, 8.002968e+001
5.029269e+002, 7.979372e+001
5.034091e+002, 7.942906e+001
5.038912e+002, 7.892712e+001
5.043733e+002, 7.846735e+001
5.048554e+002, 7.790303e+001
5.053375e+002, 7.753724e+001
5.058196e+002, 7.765400e+001
5.063018e+002, 7.798554e+001
5.067839e+002, 7.809055e+001
5.072660e+002, 7.781944e+001
5.077481e+002, 7.743662e+001
5.082302e+002, 7.738452e+001
5.087123e+002, 7.782737e+001
5.091945e+002, 7.800527e+001
5.096766e+002, 7.768246e+001
5.101587e+002, 7.732886e+001
5.106408e+002, 7.705158e+001
5.111229e+002, 7.688338e+001
5.116050e+002, 7.688612e+001
5.120872e+002, 7.712727e+001
5.125693e+002, 7.743288e+001
5.130514e+002, 7.748376e+001
5.135335e+002, 7.725591e+001
5.140156e+002, 7.694848e+001
5.144977e+002, 7.650309e+001
5.149799e+002, 7.609288e+001
5.154620e+002, 7.583786e+001
5.159441e+002, 7.573550e+001
5.164262e+002, 7.575591e+001
5.169083e+002, 7.598287e+001
5.173904e+002, 7.627044e+001
5.178726e+002, 7.645634e+001
5.183547e+002, 7.653657e+001
5.188368e+002, 7.649319e+001
5.193189e+002, 7.628333e+001
5.198010e+002, 7.598464e+001
5.202831e+002, 7.575742e+001
5.207653e+002, 7.555284e+001
5.212474e+002, 7.552725e+001
5.217295e+002, 7.589115e+001
5.222116e+002, 7.631633e+001
5.226937e+002, 7.651559e+001
5.231758e+002, 7.648222e+001
5.236580e+002, 7.634673e+001
5.241401e+002, 7.618558e+001
5.246222e+002, 7.602368e+001
5.251043e+002, 7.598747e+001
5.255864e+002, 7.607175e+001
5.260685e+002, 7.630816e+001
5.265507e+002, 7.685861e+001
5.270328e+002, 7.744381e+001
5.275149e+002, 7.782059e+001
5.279970e+002, 7.797486e+001
5.284791e+002, 7.807359e+001
5.289612e+002, 7.827897e+001
5.294434e+002, 7.855884e+001
5.299255e+002, 7.870654e+001
5.304076e+002, 7.867490e+001
5.308897e+002, 7.861997e+001
5.313718e+002, 7.859782e+001
5.318539e+002, 7.859199e+001
5.323361e+002, 7.854443e+001
5.328182e+002, 7.841879e+001
5.333003e+002, 7.845409e+001
5.337824e+002, 7.895677e+001
5.342645e+002, 7.970285e+001
5.347466e+002, 8.016747e+001
5.352288e+002, 8.026306e+001
5.357109e+002, 8.037325e+001
5.361930e+002, 8.083336e+001
5.366751e+002, 8.155954e+001
5.371572e+002, 8.201574e+001
5.376393e+002, 8.190079e+001
5.381215e+002, 8.191058e+001
5.386036e+002, 8.230234e+001
5.390857e+002, 8.289962e+001
5.395678e+002, 8.358741e+001
5.400499e+002, 8.429358e+001
5.405320e+002, 8.479140e+001
5.410142e+002, 8.479386e+001
5.414963e+002, 8.428014e+001
5.419784e+002, 8.398133e+001
5.424604e+002, 8.422176e+001
5.429426e+002, 8.429340e+001
5.434247e+002, 8.390121e+001
5.439068e+002, 8.334168e+001
5.443889e+002, 8.297871e+001
5.448710e+002, 8.290174e+001
5.453531e+002, 8.286761e+001
5.458353e+002, 8.264746e+001
5.463174e+002, 8.224278e+001
5.467995e+002, 8.164648e+001
5.472816e+002, 8.075364e+001
5.477637e+002, 7.989439e+001
5.482458e+002, 7.927377e+001
5.487280e+002, 7.882514e+001
5.492101e+002, 7.847815e+001
5.496922e+002, 7.830064e+001
5.501743e+002, 7.805788e+001
5.506564e+002, 7.752051e+001
5.511385e+002, 7.682560e+001
5.516207e+002, 7.627152e+001
5.521028e+002, 7.592292e+001
5.525849e+002, 7.563095e+001
5.530670e+002, 7.528088e+001
5.535491e+002, 7.487064e+001
5.540313e+002, 7.431031e+001
5.545134e+002, 7.334615e+001
5.549955e+002, 7.255846e+001
5.554776e+002, 7.217879e+001
5.559597e+002, 7.202639e+001
5.564418e+002, 7.187784e+001
5.569240e+002, 7.167606e+001
5.574061e+002, 7.153141e+001
5.578882e+002, 7.163509e+001
5.583703e+002, 7.200827e+001
5.588524e+002, 7.199642e+001
5.593345e+002, 7.127408e+001
5.598167e+002, 7.062591e+001
5.602988e+002, 7.034330e+001
5.607809e+002, 7.025859e+001
5.612630e+002, 7.019838e+001
5.617451e+002, 7.012823e+001
5.622272e+002, 6.998303e+001
5.627094e+002, 6.960580e+001
5.631915e+002, 6.910098e+001
5.636736e+002, 6.887807e+001
5.641557e+002, 6.904353e+001
5.646378e+002, 6.916936e+001
5.651199e+002, 6.885777e+001
5.656021e+002, 6.825641e+001
5.660842e+002, 6.802665e+001
5.665663e+002, 6.855706e+001
5.670484e+002, 6.890434e+001
5.675305e+002, 6.861494e+001
5.680126e+002, 6.802922e+001
5.684948e+002, 6.750119e+001
5.689769e+002, 6.712746e+001
5.694590e+002, 6.694894e+001
5.699411e+002, 6.704057e+001
5.704232e+002, 6.738115e+001
5.709053e+002, 6.755501e+001
5.713875e+002, 6.748617e+001
5.718696e+002, 6.734100e+001
5.723517e+002, 6.703071e+001
5.728338e+002, 6.672999e+001
5.733159e+002, 6.662640e+001
5.737980e+002, 6.673299e+001
5.742802e+002, 6.687840e+001
5.747623e+002, 6.691537e+001
5.752444e+002, 6.686730e+001
5.757265e+002, 6.685084e+001
5.762086e+002, 6.689513e+001
5.766907e+002, 6.683752e+001
5.771729e+002, 6.646883e+001
5.776550e+002, 6.603218e+001
5.781371e+002, 6.596006e+001
5.786192e+002, 6.636408e+001
5.791013e+002, 6.665809e+001
5.795834e+002, 6.651107e+001
5.800656e+002, 6.620370e+001
5.805477e+002, 6.607111e+001
5.810298e+002, 6.611674e+001
5.815119e+002, 6.614359e+001
5.819940e+002, 6.602542e+001
5.824761e+002, 6.579946e+001
5.829583e+002, 6.558798e+001
5.834404e+002, 6.529701e+001
5.839225e+002, 6.517245e+001
5.844046e+002, 6.540308e+001
5.848867e+002, 6.563506e+001
5.853688e+002, 6.558597e+001
5.858510e+002, 6.531898e+001
5.863331e+002, 6.510065e+001
5.868152e+002, 6.510983e+001
5.872973e+002, 6.524857e+001
5.877794e+002, 6.531377e+001
5.882615e+002, 6.530900e+001
5.887437e+002, 6.518781e+001
5.892258e+002, 6.481591e+001
5.897079e+002, 6.446003e+001
5.901900e+002, 6.441616e+001
5.906721e+002, 6.463258e+001
5.911542e+002, 6.477515e+001
5.916364e+002, 6.471821e+001
5.921185e+002, 6.456911e+001
5.926006e+002, 6.436235e+001
5.930827e+002, 6.413599e+001
5.935648e+002, 6.400407e+001
5.940469e+002, 6.401231e+001
5.945291e+002, 6.409056e+001
5.950112e+002, 6.414324e+001
5.954933e+002, 6.416331e+001
5.959754e+002, 6.419252e+001
5.964575e+002, 6.431995e+001
5.969396e+002, 6.435822e+001
5.974218e+002, 6.417119e+001
5.979039e+002, 6.387955e+001
5.983860e+002, 6.362685e+001
5.988681e+002, 6.346637e+001
5.993502e+002, 6.342724e+001
5.998323e+002, 6.366231e+001
6.003145e+002, 6.414999e+001
6.007966e+002, 6.420808e+001
6.012787e+002, 6.359210e+001
6.017608e+002, 6.300367e+001
6.022429e+002, 6.287277e+001
6.027250e+002, 6.301785e+001
6.032072e+002, 6.323347e+001
6.036893e+002, 6.359162e+001
6.041714e+002, 6.373379e+001
6.046535e+002, 6.324059e+001
6.051356e+002, 6.252491e+001
6.056177e+002, 6.223869e+001
6.060999e+002, 6.242805e+001
6.065820e+002, 6.267597e+001
6.070641e+002, 6.267966e+001
6.075462e+002, 6.250536e+001
6.080283e+002, 6.245274e+001
6.085104e+002, 6.257897e+001
6.089926e+002, 6.275595e+001
6.094747e+002, 6.317763e+001
6.099568e+002, 6.348649e+001
6.104389e+002, 6.332232e+001
6.109210e+002, 6.279442e+001
6.114031e+002, 6.232856e+001
6.118853e+002, 6.219729e+001
6.123674e+002, 6.228585e+001
6.128495e+002, 6.234953e+001
6.133316e+002, 6.237945e+001
6.138137e+002, 6.252216e+001
6.142958e+002, 6.293828e+001
6.147780e+002, 6.331408e+001
6.152601e+002, 6.327307e+001
6.157422e+002, 6.288565e+001
6.162243e+002, 6.255479e+001
6.167064e+002, 6.241011e+001
6.171885e+002, 6.229845e+001
6.176707e+002, 6.214487e+001
6.181528e+002, 6.194896e+001
6.186349e+002, 6.166289e+001
6.191170e+002, 6.128138e+001
6.195991e+002, 6.098518e+001
6.200812e+002, 6.101042e+001
6.205634e+002, 6.138451e+001
6.210455e+002, 6.166496e+001
6.215276e+002, 6.182717e+001
6.220097e+002, 6.191793e+001
6.224918e+002, 6.189466e+001
6.229739e+002, 6.183496e+001
6.234561e+002, 6.180039e+001
6.239382e+002, 6.180851e+001
6.244203e+002, 6.187816e+001
6.249023e+002, 6.212260e+001
6.253845e+002, 6.242682e+001
6.258666e+002, 6.242480e+001
6.263487e+002, 6.208108e+001
6.268308e+002, 6.177239e+001
6.273129e+002, 6.166942e+001
6.277950e+002, 6.170034e+001
6.282772e+002, 6.176222e+001
6.287593e+002, 6.188905e+001
6.292414e+002, 6.189431e+001
6.297235e+002, 6.168302e+001
6.302056e+002, 6.140209e+001
6.306877e+002, 6.099931e+001
6.311699e+002, 6.062189e+001
6.316520e+002, 6.065778e+001
6.321341e+002, 6.128591e+001
6.326162e+002, 6.209038e+001
6.330983e+002, 6.229319e+001
6.335804e+002, 6.171740e+001
6.340626e+002, 6.146324e+001
6.345447e+002, 6.174884e+001
6.350268e+002, 6.210088e+001
6.355089e+002, 6.242254e+001
6.359910e+002, 6.263610e+001
6.364731e+002, 6.257843e+001
6.369553e+002, 6.215279e+001
6.374374e+002, 6.172274e+001
6.379195e+002, 6.154992e+001
6.384016e+002, 6.155156e+001
6.388837e+002, 6.160666e+001
6.393658e+002, 6.169536e+001
6.398480e+002, 6.173534e+001
6.403301e+002, 6.167022e+001
6.408122e+002, 6.151949e+001
6.412943e+002, 6.134420e+001
6.417764e+002, 6.095335e+001
6.422585e+002, 6.083439e+001
6.427407e+002, 6.128358e+001
6.432228e+002, 6.173973e+001
6.437049e+002, 6.181219e+001
6.441870e+002, 6.159098e+001
6.446691e+002, 6.139479e+001
6.451512e+002, 6.140243e+001
6.456334e+002, 6.145786e+001
6.461155e+002, 6.123333e+001
6.465976e+002, 6.073333e+001
6.470797e+002, 6.051179e+001
6.475618e+002, 6.074263e+001
6.480439e+002, 6.106935e+001
6.485261e+002, 6.119078e+001
6.490082e+002, 6.119267e+001
6.494903e+002, 6.135494e+001
6.499724e+002, 6.192926e+001
6.504545e+002, 6.230909e+001
6.509366e+002, 6.206088e+001
6.514188e+002, 6.159574e+001
6.519009e+002, 6.143303e+001
6.523830e+002, 6.160118e+001
6.528651e+002, 6.179028e+001
6.533472e+002, 6.177486e+001
6.538293e+002, 6.159375e+001
6.543115e+002, 6.135475e+001
6.547936e+002, 6.092635e+001
6.552757e+002, 6.076136e+001
6.557578e+002, 6.124850e+001
6.562399e+002, 6.173667e+001
6.567220e+002, 6.179758e+001
6.572042e+002, 6.155495e+001
6.576863e+002, 6.143438e+001
6.581684e+002, 6.165007e+001
6.586505e+002, 6.195882e+001
6.591326e+002, 6.222731e+001
6.596147e+002, 6.240276e+001
6.600969e+002, 6.226598e+001
6.605790e+002, 6.176048e+001
6.610611e+002, 6.124539e+001
6.615432e+002, 6.102692e+001
6.620253e+002, 6.108600e+001
6.625074e+002, 6.121622e+001
6.629896e+002, 6.155641e+001
6.634717e+002, 6.178331e+001
6.639538e+002, 6.176171e+001
6.644359e+002, 6.170046e+001
6.649180e+002, 6.180791e+001
6.654001e+002, 6.204447e+001
6.658823e+002, 6.216352e+001
6.663644e+002, 6.191879e+001
6.668465e+002, 6.163080e+001
6.673286e+002, 6.209690e+001
6.678107e+002, 6.327976e+001
6.682928e+002, 6.378915e+001
6.687750e+002, 6.313099e+001
6.692571e+002, 6.216463e+001
6.697392e+002, 6.161139e+001
6.702213e+002, 6.146444e+001
6.707034e+002, 6.150084e+001
6.711855e+002, 6.199279e+001
6.716677e+002, 6.232729e+001
6.721498e+002, 6.220304e+001
6.726319e+002, 6.188484e+001
6.731140e+002, 6.166020e+001
6.735961e+002, 6.155758e+001
6.740782e+002, 6.141150e+001
6.745604e+002, 6.105749e+001
6.750425e+002, 6.062924e+001
6.755246e+002, 6.060648e+001
6.760067e+002, 6.109165e+001
6.764888e+002, 6.152763e+001
6.769709e+002, 6.178289e+001
6.774531e+002, 6.198760e+001
6.779352e+002, 6.230178e+001
6.784173e+002, 6.266457e+001
6.788994e+002, 6.284381e+001
6.793815e+002, 6.265938e+001
6.798636e+002, 6.244363e+001
6.803458e+002, 6.235317e+001
6.808279e+002, 6.237264e+001
6.813100e+002, 6.249047e+001
6.817921e+002, 6.269772e+001
6.822742e+002, 6.298744e+001
6.827563e+002, 6.338812e+001
6.832385e+002, 6.382470e+001
6.837206e+002, 6.387666e+001
6.842027e+002, 6.320072e+001
6.846848e+002, 6.289085e+001
6.851669e+002, 6.345906e+001
6.856490e+002, 6.411089e+001
6.861312e+002, 6.429688e+001
6.866133e+002, 6.417944e+001
6.870954e+002, 6.433499e+001
6.875775e+002, 6.516246e+001
6.880596e+002, 6.600198e+001
6.885417e+002, 6.621757e+001
6.890239e+002, 6.600544e+001
6.895060e+002, 6.575466e+001
6.899881e+002, 6.554257e+001
6.904702e+002, 6.548342e+001
6.909523e+002, 6.569484e+001
6.914344e+002, 6.611146e+001
6.919166e+002, 6.640440e+001
6.923987e+002, 6.646670e+001
6.928808e+002, 6.657459e+001
6.933629e+002, 6.673173e+001
6.938450e+002, 6.694231e+001
6.943271e+002, 6.721779e+001
6.948093e+002, 6.754905e+001
6.952914e+002, 6.792641e+001
6.957735e+002, 6.836813e+001
6.962556e+002, 6.878275e+001
6.967377e+002, 6.902041e+001
6.972198e+002, 6.914259e+001
6.977020e+002, 6.937947e+001
6.981841e+002, 6.976769e+001
6.986662e+002, 7.020900e+001
6.991483e+002, 7.063509e+001
6.996304e+002, 7.106104e+001
7.001125e+002, 7.154271e+001
7.005947e+002, 7.233406e+001
7.010768e+002, 7.277923e+001
7.015589e+002, 7.247895e+001
7.020410e+002, 7.219424e+001
7.025231e+002, 7.247490e+001
7.030052e+002, 7.312599e+001
7.034874e+002, 7.367066e+001
7.039695e+002, 7.390112e+001
7.044516e+002, 7.397924e+001
7.049337e+002, 7.403972e+001
7.054158e+002, 7.410435e+001
7.058979e+002, 7.431680e+001
7.063801e+002, 7.471702e+001
7.068622e+002, 7.507334e+001
7.073442e+002, 7.524812e+001
7.078264e+002, 7.529110e+001
7.083085e+002, 7.530978e+001
7.087906e+002, 7.522800e+001
7.092727e+002, 7.531383e+001
7.097548e+002, 7.560127e+001
7.102369e+002, 7.604536e+001
7.107191e+002, 7.684781e+001
7.112012e+002, 7.772375e+001
7.116833e+002, 7.810799e+001
7.121654e+002, 7.781027e+001
7.126475e+002, 7.738596e+001
7.131296e+002, 7.752042e+001
7.136118e+002, 7.810710e+001
7.140939e+002, 7.853635e+001
7.145760e+002, 7.875649e+001
7.150581e+002, 7.903859e+001
7.155402e+002, 7.954580e+001
7.160223e+002, 8.013760e+001
7.165045e+002, 8.057929e+001
7.169866e+002, 8.085632e+001
7.174687e+002, 8.109102e+001
7.179508e+002, 8.133361e+001
7.184329e+002, 8.149158e+001
7.189150e+002, 8.142384e+001
7.193972e+002, 8.128159e+001
7.198793e+002, 8.128663e+001
7.203614e+002, 8.149040e+001
7.208435e+002, 8.176975e+001
7.213256e+002, 8.201441e+001
7.218077e+002, 8.223510e+001
7.222899e+002, 8.251027e+001
7.227720e+002, 8.286848e+001
7.232541e+002, 8.303383e+001
7.237362e+002, 8.282951e+001
7.242183e+002, 8.252915e+001
7.247004e+002, 8.243919e+001
7.251826e+002, 8.255688e+001
7.256647e+002, 8.274817e+001
7.261468e+002, 8.311674e+001
7.266289e+002, 8.342707e+001
7.271110e+002, 8.357146e+001
7.275931e+002, 8.362777e+001
7.280753e+002, 8.366599e+001
7.285574e+002, 8.370611e+001
7.290395e+002, 8.375371e+001
7.295216e+002, 8.381373e+001
7.300037e+002, 8.388215e+001
7.304858e+002, 8.397867e+001
7.309680e+002, 8.410809e+001
7.314501e+002, 8.410293e+001
7.319322e+002, 8.390182e+001
7.324143e+002, 8.362421e+001
7.328964e+002, 8.333488e+001
7.333785e+002, 8.304717e+001
7.338607e+002, 8.282812e+001
7.343428e+002, 8.285123e+001
7.348249e+002, 8.267696e+001
7.353070e+002, 8.199655e+001
7.357891e+002, 8.125982e+001
7.362712e+002, 8.086473e+001
7.367534e+002, 8.074282e+001
7.372355e+002, 8.063503e+001
7.377176e+002, 8.042419e+001
7.381997e+002, 8.004629e+001
7.386818e+002, 7.927618e+001
7.391639e+002, 7.818224e+001
7.396461e+002, 7.746404e+001
7.401282e+002, 7.725549e+001
7.406103e+002, 7.708138e+001
7.410924e+002, 7.671995e+001
7.415745e+002, 7.619812e+001
7.420566e+002, 7.552182e+001
7.425388e+002, 7.456762e+001
7.430209e+002, 7.388940e+001
7.435030e+002, 7.376326e+001
7.439851e+002, 7.368304e+001
7.444672e+002, 7.348014e+001
7.449493e+002, 7.310950e+001
7.454315e+002, 7.244712e+001
7.459136e+002, 7.149731e+001
7.463957e+002, 7.059538e+001
7.468778e+002, 7.011479e+001
7.473599e+002, 6.992992e+001
7.478420e+002, 6.963636e+001
7.483242e+002, 6.922829e+001
7.488063e+002, 6.897536e+001
7.492884e+002, 6.904179e+001
7.497705e+002, 6.911166e+001
7.502526e+002, 6.877663e+001
7.507347e+002, 6.800753e+001
7.512169e+002, 6.739388e+001
7.516990e+002, 6.701407e+001
7.521811e+002, 6.667498e+001
7.526632e+002, 6.635144e+001
7.531453e+002, 6.603670e+001
7.536274e+002, 6.572397e+001
7.541096e+002, 6.541556e+001
7.545917e+002, 6.511589e+001
7.550738e+002, 6.482084e+001
7.555559e+002, 6.454704e+001
7.560380e+002, 6.432676e+001
7.565201e+002, 6.414962e+001
7.570023e+002, 6.398477e+001
7.574844e+002, 6.382961e+001
7.579665e+002, 6.363881e+001
7.584486e+002, 6.336851e+001
7.589307e+002, 6.304905e+001
7.594128e+002, 6.277802e+001
7.598950e+002, 6.252433e+001
7.603771e+002, 6.237886e+001
7.608592e+002, 6.252741e+001
7.613413e+002, 6.258164e+001
7.618234e+002, 6.231024e+001
7.623055e+002, 6.184032e+001
7.627877e+002, 6.132793e+001
7.632698e+002, 6.080807e+001
7.637519e+002, 6.046281e+001
7.642340e+002, 6.059762e+001
7.647161e+002, 6.090337e+001
7.651982e+002, 6.085398e+001
7.656804e+002, 6.049104e+001
7.661625e+002, 6.013462e+001
7.666446e+002, 5.989939e+001
7.671267e+002, 5.982195e+001
7.676088e+002, 6.000858e+001
7.680909e+002, 6.048659e+001
7.685731e+002, 6.051353e+001
7.690552e+002, 5.966372e+001
7.695373e+002, 5.905914e+001
7.700194e+002, 5.910478e+001
7.705015e+002, 5.934751e+001
7.709836e+002, 5.952143e+001
7.714658e+002, 5.958934e+001
7.719479e+002, 5.949290e+001
7.724300e+002, 5.903100e+001
7.729121e+002, 5.864234e+001
7.733942e+002, 5.878192e+001
7.738763e+002, 5.912825e+001
7.743585e+002, 5.908698e+001
7.748406e+002, 5.866150e+001
7.753227e+002, 5.841945e+001
7.758048e+002, 5.876444e+001
7.762869e+002, 5.938653e+001
7.767690e+002, 5.951180e+001
7.772512e+002, 5.904983e+001
7.777333e+002, 5.870905e+001
7.782154e+002, 5.859614e+001
7.786975e+002, 5.849026e+001
7.791796e+002, 5.820819e+001
7.796617e+002, 5.788776e+001
7.801439e+002, 5.780242e+001
7.806260e+002, 5.803588e+001
7.811081e+002, 5.811750e+001
7.815902e+002, 5.767241e+001
7.820723e+002, 5.730109e+001
7.825544e+002, 5.752211e+001
7.830366e+002, 5.803587e+001
7.835187e+002, 5.831030e+001
7.840008e+002, 5.821812e+001
7.844829e+002, 5.802803e+001
7.849650e+002, 5.795708e+001
7.854471e+002, 5.799559e+001
7.859293e+002, 5.820619e+001
7.864114e+002, 5.859480e+001
7.868935e+002, 5.862238e+001
7.873756e+002, 5.802949e+001
7.878577e+002, 5.742888e+001
7.883398e+002, 5.743226e+001
7.888220e+002, 5.795261e+001
7.893040e+002, 5.824844e+001
7.897861e+002, 5.817651e+001
7.902682e+002, 5.809943e+001
7.907504e+002, 5.802917e+001
7.912325e+002, 5.797532e+001
7.917146e+002, 5.796836e+001
7.921967e+002, 5.797741e+001
7.926788e+002, 5.792355e+001
7.931609e+002, 5.776834e+001
7.936431e+002, 5.763818e+001
7.941252e+002, 5.771123e+001
7.946073e+002, 5.785682e+001
7.950894e+002, 5.778632e+001
7.955715e+002, 5.752294e+001
7.960536e+002, 5.732099e+001
7.965358e+002, 5.728239e+001
7.970179e+002, 5.737806e+001
7.975000e+002, 5.759800e+001
7.979821e+002, 5.795536e+001
7.984642e+002, 5.812508e+001
7.989464e+002, 5.802771e+001
7.994285e+002, 5.788746e+001
7.999106e+002, 5.760551e+001
8.003927e+002, 5.742336e+001
8.008748e+002, 5.769782e+001
8.013569e+002, 5.828676e+001
8.018391e+002, 5.848443e+001
8.023212e+002, 5.781689e+001
8.028033e+002, 5.714771e+001
8.032854e+002, 5.689828e+001
8.037675e+002, 5.691173e+001
8.042496e+002, 5.711101e+001
8.047318e+002, 5.740132e+001
8.052139e+002, 5.754140e+001
8.056960e+002, 5.738940e+001
8.061781e+002, 5.716917e+001
8.066602e+002, 5.728942e+001
8.071423e+002, 5.771598e+001
8.076245e+002, 5.795415e+001
8.081066e+002, 5.795303e+001
8.085887e+002, 5.792407e+001
8.090708e+002, 5.795357e+001
8.095529e+002, 5.801283e+001
8.100350e+002, 5.806850e+001
8.105172e+002, 5.812734e+001
8.109993e+002, 5.812956e+001
8.114814e+002, 5.804490e+001
8.119635e+002, 5.794342e+001
8.124456e+002, 5.781539e+001
8.129277e+002, 5.769980e+001
8.134099e+002, 5.755499e+001
8.138920e+002, 5.744453e+001
8.143741e+002, 5.763002e+001
8.148562e+002, 5.842119e+001
8.153383e+002, 5.917375e+001
8.158204e+002, 5.908550e+001
8.163026e+002, 5.847852e+001
8.167847e+002, 5.800786e+001
8.172668e+002, 5.776537e+001
8.177489e+002, 5.771690e+001
8.182310e+002, 5.785790e+001
8.187131e+002, 5.809311e+001
8.191953e+002, 5.824148e+001
8.196774e+002, 5.829296e+001
8.201595e+002, 5.832156e+001
8.206416e+002, 5.834446e+001
8.211237e+002, 5.830863e+001
8.216058e+002, 5.809314e+001
8.220880e+002, 5.788090e+001
8.225701e+002, 5.790173e+001
8.230522e+002, 5.814885e+001
8.235343e+002, 5.836407e+001
8.240164e+002, 5.846956e+001
8.244985e+002, 5.856507e+001
8.249807e+002, 5.875515e+001
8.254628e+002, 5.891911e+001
8.259449e+002, 5.882735e+001
8.264270e+002, 5.855971e+001
8.269091e+002, 5.849984e+001
8.273912e+002, 5.890563e+001
8.278734e+002, 5.940621e+001
8.283555e+002, 5.943155e+001
8.288376e+002, 5.909352e+001
8.293197e+002, 5.885608e+001
8.298018e+002, 5.876139e+001
8.302839e+002, 5.868154e+001
8.307661e+002, 5.854274e+001
8.312482e+002, 5.842237e+001
8.317303e+002, 5.846603e+001
8.322124e+002, 5.871294e+001
8.326945e+002, 5.882991e+001
8.331766e+002, 5.863062e+001
8.336588e+002, 5.857129e+001
8.341409e+002, 5.885146e+001
8.346230e+002, 5.922314e+001
8.351051e+002, 5.952122e+001
8.355872e+002, 5.973157e+001
8.360693e+002, 5.986419e+001
8.365515e+002, 5.991277e+001
8.370336e+002, 5.989928e+001
8.375157e+002, 5.982207e+001
8.379978e+002, 5.969843e+001
8.384799e+002, 5.945970e+001
8.389620e+002, 5.919037e+001
8.394442e+002, 5.919289e+001
8.399263e+002, 5.961248e+001
8.404084e+002, 6.007685e+001
8.408905e+002, 5.996425e+001
8.413726e+002, 5.941419e+001
8.418547e+002, 5.931173e+001
8.423369e+002, 5.970667e+001
8.428190e+002, 5.994378e+001
8.433011e+002, 5.975868e+001
8.437832e+002, 5.940406e+001
8.442653e+002, 5.913435e+001
8.447474e+002, 5.895094e+001
8.452296e+002, 5.895626e+001
8.457117e+002, 5.939359e+001
8.461938e+002, 5.966097e+001
8.466759e+002, 5.956559e+001
8.471580e+002, 5.942323e+001
8.476401e+002, 5.939814e+001
8.481223e+002, 5.948531e+001
8.486044e+002, 5.964251e+001
8.490865e+002, 5.985808e+001
8.495686e+002, 6.014734e+001
8.500507e+002, 6.067836e+001
8.505328e+002, 6.116089e+001
8.510150e+002, 6.125685e+001
8.514971e+002, 6.107032e+001
8.519792e+002, 6.082901e+001
8.524613e+002, 6.062466e+001
8.529434e+002, 6.053148e+001
8.534255e+002, 6.064705e+001
8.539077e+002, 6.091129e+001
8.543898e+002, 6.117257e+001
8.548719e+002, 6.143137e+001
8.553540e+002, 6.152494e+001
8.558361e+002, 6.139013e+001
8.563182e+002, 6.121037e+001
8.568004e+002, 6.109851e+001
8.572825e+002, 6.106378e+001
8.577646e+002, 6.115825e+001
8.582467e+002, 6.160577e+001
8.587288e+002, 6.168970e+001
8.592109e+002, 6.100256e+001
8.596931e+002, 6.043806e+001
8.601752e+002, 6.039227e+001
8.606573e+002, 6.059231e+001
8.611394e+002, 6.070808e+001
8.616215e+002, 6.070382e+001
8.621036e+002, 6.073011e+001
8.625858e+002, 6.093927e+001
8.630679e+002, 6.110152e+001
8.635500e+002, 6.099506e+001
8.640321e+002, 6.077884e+001
8.645142e+002, 6.070272e+001
8.649963e+002, 6.075989e+001
8.654785e+002, 6.073890e+001
8.659606e+002, 6.050356e+001
8.664427e+002, 6.023482e+001
8.669248e+002, 6.025269e+001
8.674069e+002, 6.049472e+001
8.678890e+002, 6.065104e+001
8.683712e+002, 6.070449e+001
8.688533e+002, 6.059900e+001
8.693354e+002, 6.027308e+001
8.698175e+002, 5.990234e+001
8.702996e+002, 5.970455e+001
8.707817e+002, 5.967875e+001
8.712639e+002, 5.987052e+001
8.717459e+002, 6.055322e+001
8.722280e+002, 6.097152e+001
8.727101e+002, 6.087568e+001
8.731923e+002, 6.059242e+001
8.736744e+002, 6.016084e+001
8.741565e+002, 5.971004e+001
8.746386e+002, 5.954903e+001
8.751207e+002, 5.981079e+001
8.756028e+002, 6.011150e+001
8.760850e+002, 6.036719e+001
8.765671e+002, 6.056586e+001
8.770492e+002, 6.066135e+001
8.775313e+002, 6.070719e+001
8.780134e+002, 6.080352e+001
8.784955e+002, 6.096476e+001
8.789777e+002, 6.110600e+001
8.794598e+002, 6.117015e+001
8.799419e+002, 6.116526e+001
8.804240e+002, 6.103192e+001
8.809061e+002, 6.083775e+001
8.813882e+002, 6.084256e+001
8.818704e+002, 6.108235e+001
8.823525e+002, 6.141817e+001
8.828346e+002, 6.175780e+001
8.833167e+002, 6.215932e+001
8.837988e+002, 6.280694e+001
8.842809e+002, 6.378666e+001
8.847631e+002, 6.435207e+001
8.852452e+002, 6.437542e+001
8.857273e+002, 6.428328e+001
8.862094e+002, 6.409101e+001
8.866915e+002, 6.398303e+001
8.871736e+002, 6.419680e+001
8.876558e+002, 6.471519e+001
8.881379e+002, 6.526730e+001
8.886200e+002, 6.592416e+001
8.891021e+002, 6.650241e+001
8.895842e+002, 6.691456e+001
8.900663e+002, 6.729402e+001
8.905485e+002, 6.778721e+001
8.910306e+002, 6.830139e+001
8.915127e+002, 6.855631e+001
8.919948e+002, 6.845684e+001
8.924769e+002, 6.859402e+001
8.929590e+002, 6.962064e+001
8.934412e+002, 7.084226e+001
8.939233e+002, 7.145749e+001
8.944054e+002, 7.170421e+001
8.948875e+002, 7.213828e+001
8.953696e+002, 7.284915e+001
8.958517e+002, 7.352054e+001
8.963339e+002, 7.390413e+001
8.968160e+002, 7.413828e+001
8.972981e+002, 7.445055e+001
8.977802e+002, 7.484963e+001
8.982623e+002, 7.550109e+001
8.987444e+002, 7.644736e+001
8.992266e+002, 7.728358e+001
8.997087e+002, 7.781788e+001
9.001908e+002, 7.815672e+001
9.006729e+002, 7.845666e+001
9.011550e+002, 7.872032e+001
9.016371e+002, 7.885523e+001
9.021193e+002, 7.861685e+001
9.026014e+002, 7.871146e+001
9.030835e+002, 7.964922e+001
9.035656e+002, 8.058800e+001
9.040477e+002, 8.086271e+001
9.045298e+002, 8.070987e+001
9.050120e+002, 8.075732e+001
9.054941e+002, 8.119108e+001
9.059762e+002, 8.147960e+001
9.064583e+002, 8.133240e+001
9.069404e+002, 8.117577e+001
9.074225e+002, 8.135791e+001
9.079047e+002, 8.164022e+001
9.083868e+002, 8.162520e+001
9.088689e+002, 8.129847e+001
9.093510e+002, 8.106644e+001
9.098331e+002, 8.133765e+001
9.103152e+002, 8.153410e+001
9.107974e+002, 8.086179e+001
9.112795e+002, 7.977654e+001
9.117616e+002, 7.919614e+001
9.122437e+002, 7.909731e+001
9.127258e+002, 7.880055e+001
9.132079e+002, 7.798367e+001
9.136901e+002, 7.707930e+001
9.141722e+002, 7.671669e+001
9.146543e+002, 7.678349e+001
9.151364e+002, 7.662622e+001
9.156185e+002, 7.623991e+001
9.161006e+002, 7.571575e+001
9.165828e+002, 7.504121e+001
9.170649e+002, 7.439189e+001
9.175470e+002, 7.395480e+001
9.180291e+002, 7.361496e+001
9.185112e+002, 7.291983e+001
9.189933e+002, 7.161174e+001
9.194755e+002, 7.059743e+001
9.199576e+002, 7.003438e+001
9.204397e+002, 6.954396e+001
9.209218e+002, 6.903457e+001
9.214039e+002, 6.848778e+001
9.218860e+002, 6.783699e+001
9.223682e+002, 6.709383e+001
9.228503e+002, 6.650573e+001
9.233324e+002, 6.624413e+001
9.238145e+002, 6.595573e+001
9.242966e+002, 6.550089e+001
9.247787e+002, 6.502038e+001
9.252609e+002, 6.469272e+001
9.257430e+002, 6.441163e+001
9.262251e+002, 6.387550e+001
9.267072e+002, 6.298452e+001
9.271893e+002, 6.225497e+001
9.276714e+002, 6.229589e+001
9.281536e+002, 6.242757e+001
9.286357e+002, 6.179103e+001
9.291178e+002, 6.078198e+001
9.295999e+002, 6.023067e+001
9.300820e+002, 6.021093e+001
9.305641e+002, 6.019722e+001
9.310463e+002, 5.984885e+001
9.315284e+002, 5.937090e+001
9.320105e+002, 5.912901e+001
9.324926e+002, 5.904071e+001
9.329747e+002, 5.874077e+001
9.334568e+002, 5.822172e+001
9.339390e+002, 5.766389e+001
9.344211e+002, 5.712698e+001
9.349032e+002, 5.669853e+001
9.353853e+002, 5.651367e+001
9.358674e+002, 5.649812e+001
9.363495e+002, 5.612843e+001
9.368317e+002, 5.520840e+001
9.373138e+002, 5.485868e+001
9.377959e+002, 5.550173e+001
9.382780e+002, 5.606467e+001
9.387601e+002, 5.593200e+001
9.392422e+002, 5.537976e+001
9.397244e+002, 5.486036e+001
9.402065e+002, 5.435356e+001
9.406886e+002, 5.400163e+001
9.411707e+002, 5.386066e+001
9.416528e+002, 5.378910e+001
9.421349e+002, 5.385158e+001
9.426171e+002, 5.389203e+001
9.430992e+002, 5.380602e+001
9.435813e+002, 5.360519e+001
9.440634e+002, 5.332412e+001
9.445455e+002, 5.294480e+001
9.450276e+002, 5.258026e+001
9.455098e+002, 5.220556e+001
9.459919e+002, 5.192556e+001
9.464740e+002, 5.188861e+001
9.469561e+002, 5.194899e+001
9.474382e+002, 5.189196e+001
9.479203e+002, 5.171372e+001
9.484025e+002, 5.159460e+001
9.488846e+002, 5.167167e+001
9.493667e+002, 5.173428e+001
9.498488e+002, 5.155047e+001
9.503309e+002, 5.123962e+001
9.508130e+002, 5.090109e+001
9.512952e+002, 5.060835e+001
9.517773e+002, 5.057788e+001
9.522594e+002, 5.086177e+001
9.527415e+002, 5.119070e+001
9.532236e+002, 5.133080e+001
9.537057e+002, 5.130324e+001
9.541878e+002, 5.112180e+001
9.546699e+002, 5.080899e+001
9.551520e+002, 5.048390e+001
9.556342e+002, 5.016288e+001
9.561163e+002, 4.997730e+001
9.565984e+002, 5.001500e+001
9.570805e+002, 5.012226e+001
9.575626e+002, 5.003946e+001
9.580447e+002, 4.977132e+001
9.585269e+002, 4.960860e+001
9.590090e+002, 4.956506e+001
9.594911e+002, 4.956843e+001
9.599732e+002, 4.960637e+001
9.604553e+002, 4.968447e+001
9.609374e+002, 4.982869e+001
9.614196e+002, 5.000315e+001
9.619017e+002, 5.011623e+001
9.623838e+002, 5.020152e+001
9.628659e+002, 5.011769e+001
9.633480e+002, 4.970365e+001
9.638301e+002, 4.933741e+001
9.643123e+002, 4.907155e+001
9.647944e+002, 4.893080e+001
9.652765e+002, 4.900103e+001
9.657586e+002, 4.922717e+001
9.662407e+002, 4.936787e+001
9.667228e+002, 4.940247e+001
9.672050e+002, 4.933302e+001
9.676871e+002, 4.906103e+001
9.681692e+002, 4.879197e+001
9.686513e+002, 4.865470e+001
9.691334e+002, 4.858642e+001
9.696155e+002, 4.846049e+001
9.700977e+002, 4.828827e+001
9.705798e+002, 4.827863e+001
9.710619e+002, 4.872823e+001
9.715440e+002, 4.903102e+001
9.720261e+002, 4.866280e+001
9.725082e+002, 4.806687e+001
9.729904e+002, 4.760330e+001
9.734725e+002, 4.734046e+001
9.739546e+002, 4.739396e+001
9.744367e+002, 4.775795e+001
9.749188e+002, 4.804659e+001
9.754009e+002, 4.784603e+001
9.758831e+002, 4.752187e+001
9.763652e+002, 4.760824e+001
9.768473e+002, 4.792987e+001
9.773294e+002, 4.814649e+001
9.778115e+002, 4.820938e+001
9.782936e+002, 4.812995e+001
9.787758e+002, 4.791438e+001
9.792579e+002, 4.768949e+001
9.797400e+002, 4.764138e+001
9.802221e+002, 4.770045e+001
9.807042e+002, 4.762009e+001
9.811863e+002, 4.741921e+001
9.816685e+002, 4.724879e+001
9.821506e+002, 4.713952e+001
9.826327e+002, 4.702538e+001
9.831148e+002, 4.685120e+001
9.835969e+002, 4.671009e+001
9.840790e+002, 4.681533e+001
9.845612e+002, 4.716942e+001
9.850433e+002, 4.740563e+001
9.855254e+002, 4.753627e+001
9.860075e+002, 4.741743e+001
9.864896e+002, 4.690644e+001
9.869717e+002, 4.647939e+001
9.874539e+002, 4.656318e+001
9.879360e+002, 4.698925e+001
9.884181e+002, 4.722888e+001
9.889002e+002, 4.723342e+001
9.893823e+002, 4.721345e+001
9.898644e+002, 4.713538e+001
9.903466e+002, 4.709364e+001
9.908287e+002, 4.707762e+001
9.913108e+002, 4.715915e+001
9.917929e+002, 4.755051e+001
9.922750e+002, 4.813728e+001
9.927571e+002, 4.821540e+001
9.932393e+002, 4.732870e+001
9.937214e+002, 4.675850e+001
9.942035e+002, 4.672949e+001
9.946856e+002, 4.676948e+001
9.951677e+002, 4.666660e+001
9.956498e+002, 4.656449e+001
9.961320e+002, 4.662979e+001
9.966141e+002, 4.685435e+001
9.970962e+002, 4.711518e+001
9.975783e+002, 4.746643e+001
9.980604e+002, 4.772206e+001
9.985425e+002, 4.780256e+001
9.990247e+002, 4.780577e+001
9.995068e+002, 4.776173e+001
9.999889e+002, 4.769376e+001
1.000471e+003, 4.761754e+001
1.000953e+003, 4.753988e+001
1.001435e+003, 4.748701e+001
1.001917e+003, 4.747545e+001
1.002399e+003, 4.748261e+001
1.002882e+003, 4.750191e+001
1.003364e+003, 4.752938e+001
1.003846e+003, 4.756518e+001
1.004328e+003, 4.760527e+001
1.004810e+003, 4.764355e+001
1.005292e+003, 4.767871e+001
1.005774e+003, 4.771002e+001
1.006256e+003, 4.768425e+001
1.006739e+003, 4.772676e+001
1.007221e+003, 4.813134e+001
1.007703e+003, 4.856793e+001
1.008185e+003, 4.836896e+001
1.008667e+003, 4.778215e+001
1.009149e+003, 4.774295e+001
1.009631e+003, 4.852787e+001
1.010113e+003, 4.926997e+001
1.010595e+003, 4.915069e+001
1.011078e+003, 4.860818e+001
1.011560e+003, 4.817870e+001
1.012042e+003, 4.787848e+001
1.012524e+003, 4.780747e+001
1.013006e+003, 4.791867e+001
1.013488e+003, 4.794678e+001
1.013970e+003, 4.777912e+001
1.014452e+003, 4.762183e+001
1.014935e+003, 4.773056e+001
1.015417e+003, 4.800139e+001
1.015899e+003, 4.814820e+001
1.016381e+003, 4.821608e+001
1.016863e+003, 4.846895e+001
1.017345e+003, 4.891858e+001
1.017827e+003, 4.924112e+001
1.018309e+003, 4.926583e+001
1.018791e+003, 4.916212e+001
1.019274e+003, 4.914497e+001
1.019756e+003, 4.920675e+001
1.020238e+003, 4.932082e+001
1.020720e+003, 4.948507e+001
1.021202e+003, 4.964717e+001
1.021684e+003, 4.979807e+001
1.022166e+003, 4.994252e+001
1.022648e+003, 5.007245e+001
1.023130e+003, 5.025734e+001
1.023613e+003, 5.066009e+001
1.024095e+003, 5.125075e+001
1.024577e+003, 5.145349e+001
1.025059e+003, 5.119756e+001
1.025541e+003, 5.115475e+001
1.026023e+003, 5.147750e+001
1.026505e+003, 5.190821e+001
1.026987e+003, 5.231683e+001
1.027469e+003, 5.266735e+001
1.027952e+003, 5.286837e+001
1.028434e+003, 5.290953e+001
1.028916e+003, 5.312530e+001
1.029398e+003, 5.362847e+001
1.029880e+003, 5.387199e+001
1.030362e+003, 5.359829e+001
1.030844e+003, 5.343486e+001
1.031326e+003, 5.389171e+001
1.031809e+003, 5.461375e+001
1.032291e+003, 5.484637e+001
1.032773e+003, 5.450189e+001
1.033255e+003, 5.443445e+001
1.033737e+003, 5.485905e+001
1.034219e+003, 5.507568e+001
1.034701e+003, 5.478061e+001
1.035183e+003, 5.451625e+001
1.035666e+003, 5.469775e+001
1.036148e+003, 5.511734e+001
1.036630e+003, 5.531999e+001
1.037112e+003, 5.523553e+001
1.037594e+003, 5.532956e+001
1.038076e+003, 5.578590e+001
1.038558e+003, 5.612416e+001
1.039040e+003, 5.627573e+001
1.039522e+003, 5.626851e+001
1.040005e+003, 5.602634e+001
1.040487e+003, 5.566460e+001
1.040969e+003, 5.543516e+001
1.041451e+003, 5.536559e+001
1.041933e+003, 5.527576e+001
1.042415e+003, 5.510831e+001
1.042897e+003, 5.499570e+001
1.043379e+003, 5.499675e+001
1.043861e+003, 5.502626e+001
1.044344e+003, 5.514554e+001
1.044826e+003, 5.521702e+001
1.045308e+003, 5.488817e+001
1.045790e+003, 5.403435e+001
1.046272e+003, 5.353739e+001
1.046754e+003, 5.387299e+001
1.047236e+003, 5.404801e+001
1.047718e+003, 5.365879e+001
1.048201e+003, 5.319033e+001
1.048683e+003, 5.289779e+001
1.049165e+003, 5.279578e+001
1.049647e+003, 5.293063e+001
1.050129e+003, 5.333718e+001
1.050611e+003, 5.360857e+001
1.051093e+003, 5.357196e+001
1.051575e+003, 5.351638e+001
1.052057e+003, 5.348130e+001
1.052540e+003, 5.350010e+001
1.053022e+003, 5.365789e+001
1.053504e+003, 5.386079e+001
1.053986e+003, 5.394099e+001
1.054468e+003, 5.387331e+001
1.054950e+003, 5.375665e+001
1.055432e+003, 5.370053e+001
1.055914e+003, 5.348673e+001
1.056396e+003, 5.286316e+001
1.056879e+003, 5.222749e+001
1.057361e+003, 5.188712e+001
1.057843e+003, 5.174615e+001
1.058325e+003, 5.162803e+001
1.058807e+003, 5.150157e+001
1.059289e+003, 5.132895e+001
1.059771e+003, 5.107524e+001
1.060253e+003, 5.080419e+001
1.060736e+003, 5.049347e+001
1.061218e+003, 5.021875e+001
1.061700e+003, 5.010030e+001
1.062182e+003, 5.002713e+001
1.062664e+003, 4.976426e+001
1.063146e+003, 4.930030e+001
1.063628e+003, 4.898278e+001
1.064110e+003, 4.895321e+001
1.064593e+003, 4.906855e+001
1.065075e+003, 4.935851e+001
1.065557e+003, 4.968356e+001
1.066039e+003, 5.000847e+001
1.066521e+003, 5.026041e+001
1.067003e+003, 5.033575e+001
1.067485e+003, 5.022685e+001
1.067967e+003, 5.000842e+001
1.068449e+003, 4.955104e+001
1.068932e+003, 4.926438e+001
1.069414e+003, 4.948138e+001
1.069896e+003, 4.978610e+001
1.070378e+003, 4.991133e+001
1.070860e+003, 4.989720e+001
1.071342e+003, 4.977833e+001
1.071824e+003, 4.959876e+001
1.072306e+003, 4.953462e+001
1.072788e+003, 4.973721e+001
1.073271e+003, 4.986328e+001
1.073753e+003, 4.957561e+001
1.074235e+003, 4.933932e+001
1.074717e+003, 4.970023e+001
1.075199e+003, 5.018836e+001
1.075681e+003, 5.002119e+001
1.076163e+003, 4.930811e+001
1.076645e+003, 4.898344e+001
1.077127e+003, 4.949831e+001
1.077610e+003, 4.999753e+001
1.078092e+003, 5.005109e+001
1.078574e+003, 4.999157e+001
1.079056e+003, 5.002753e+001
1.079538e+003, 5.009228e+001
1.080020e+003, 5.007617e+001
1.080502e+003, 4.999895e+001
1.080984e+003, 4.996962e+001
1.081467e+003, 5.003081e+001
1.081949e+003, 5.009533e+001
1.082431e+003, 5.006333e+001
1.082913e+003, 5.009357e+001
1.083395e+003, 5.039426e+001
1.083877e+003, 5.072142e+001
1.084359e+003, 5.076972e+001
1.084841e+003, 5.061965e+001
1.085323e+003, 5.054623e+001
1.085806e+003, 5.062311e+001
1.086288e+003, 5.075592e+001
1.086770e+003, 5.096959e+001
1.087252e+003, 5.114837e+001
1.087734e+003, 5.126615e+001
1.088216e+003, 5.129352e+001
1.088698e+003, 5.113589e+001
1.089180e+003, 5.088906e+001
1.089662e+003, 5.073784e+001
1.090145e+003, 5.071944e+001
1.090627e+003, 5.078800e+001
1.091109e+003, 5.094174e+001
1.091591e+003, 5.115870e+001
1.092073e+003, 5.140456e+001
1.092555e+003, 5.173408e+001
1.093037e+003, 5.236178e+001
1.093519e+003, 5.302159e+001
1.094002e+003, 5.320806e+001
1.094484e+003, 5.288862e+001
1.094966e+003, 5.266520e+001
1.095448e+003, 5.293201e+001
1.095930e+003, 5.301819e+001
1.096412e+003, 5.239843e+001
1.096894e+003, 5.185936e+001
1.097376e+003, 5.202106e+001
1.097859e+003, 5.249248e+001
1.098341e+003, 5.272627e+001
1.098823e+003, 5.270398e+001
1.099305e+003, 5.275134e+001
1.099787e+003, 5.305536e+001
1.100269e+003, 5.319636e+001
1.100751e+003, 5.284467e+001
1.101233e+003, 5.256888e+001
1.101715e+003, 5.274346e+001
1.102198e+003, 5.306172e+001
1.102680e+003, 5.312572e+001
1.103162e+003, 5.302997e+001
1.103644e+003, 5.326510e+001
1.104126e+003, 5.413364e+001
1.104608e+003, 5.459071e+001
1.105090e+003, 5.404228e+001
1.105572e+003, 5.358805e+001
1.106054e+003, 5.366399e+001
1.106537e+003, 5.393200e+001
1.107019e+003, 5.418318e+001
1.107501e+003, 5.439178e+001
1.107983e+003, 5.451817e+001
1.108465e+003, 5.454058e+001
1.108947e+003, 5.459297e+001
1.109429e+003, 5.483080e+001
1.109911e+003, 5.489376e+001
1.110394e+003, 5.444983e+001
1.110876e+003, 5.408467e+001
1.111358e+003, 5.426379e+001
1.111840e+003, 5.469310e+001
1.112322e+003, 5.487159e+001
1.112804e+003, 5.477742e+001
1.113286e+003, 5.476891e+001
1.113768e+003, 5.493112e+001
1.114250e+003, 5.503513e+001
1.114733e+003, 5.496059e+001
1.115215e+003, 5.496675e+001
1.115697e+003, 5.511827e+001
1.116179e+003, 5.545535e+001
1.116661e+003, 5.618288e+001
1.117143e+003, 5.718212e+001
1.117625e+003, 5.754060e+001
1.118107e+003, 5.688761e+001
1.118589e+003, 5.647005e+001
1.119072e+003, 5.631792e+001
1.119554e+003, 5.639240e+001
1.120036e+003, 5.687830e+001
1.120518e+003, 5.724647e+001
1.121000e+003, 5.691413e+001
1.121482e+003, 5.620999e+001
1.121964e+003, 5.613935e+001
1.122446e+003, 5.683587e+001
1.122929e+003, 5.735409e+001
1.123411e+003, 5.766054e+001
1.123893e+003, 5.792326e+001
1.124375e+003, 5.822263e+001
1.124857e+003, 5.831618e+001
1.125339e+003, 5.796907e+001
1.125821e+003, 5.749907e+001
1.126303e+003, 5.746957e+001
1.126786e+003, 5.785535e+001
1.127268e+003, 5.821833e+001
1.127750e+003, 5.856642e+001
1.128232e+003, 5.879215e+001
1.128714e+003, 5.886829e+001
1.129196e+003, 5.888593e+001
1.129678e+003, 5.886246e+001
1.130160e+003, 5.895152e+001
1.130642e+003, 5.937658e+001
1.131125e+003, 5.998203e+001
1.131607e+003, 6.016003e+001
1.132089e+003, 5.994268e+001
1.132571e+003, 5.990852e+001
1.133053e+003, 6.008715e+001
1.133535e+003, 6.026891e+001
1.134017e+003, 6.038972e+001
1.134499e+003, 6.048592e+001
1.134981e+003, 6.058010e+001
1.135464e+003, 6.069550e+001
1.135946e+003, 6.088349e+001
1.136428e+003, 6.112758e+001
1.136910e+003, 6.138869e+001
1.137392e+003, 6.164924e+001
1.137874e+003, 6.182296e+001
1.138356e+003, 6.190216e+001
1.138838e+003, 6.196280e+001
1.139321e+003, 6.204425e+001
1.139803e+003, 6.207639e+001
1.140285e+003, 6.184230e+001
1.140767e+003, 6.163804e+001
1.141249e+003, 6.218630e+001
1.141731e+003, 6.311321e+001
1.142213e+003, 6.358278e+001
1.142695e+003, 6.362236e+001
1.143177e+003, 6.365190e+001
1.143660e+003, 6.380910e+001
1.144142e+003, 6.399211e+001
1.144624e+003, 6.413493e+001
1.145106e+003, 6.426212e+001
1.145588e+003, 6.438213e+001
1.146070e+003, 6.451616e+001
1.146552e+003, 6.474963e+001
1.147034e+003, 6.499081e+001
1.147516e+003, 6.499501e+001
1.147999e+003, 6.481570e+001
1.148481e+003, 6.484322e+001
1.148963e+003, 6.527294e+001
1.149445e+003, 6.573100e+001
1.149927e+003, 6.591474e+001
1.150409e+003, 6.611850e+001
1.150891e+003, 6.668399e+001
1.151373e+003, 6.727710e+001
1.151856e+003, 6.744054e+001
1.152338e+003, 6.734959e+001
1.152820e+003, 6.749644e+001
1.153302e+003, 6.798301e+001
1.153784e+003, 6.842982e+001
1.154266e+003, 6.870033e+001
1.154748e+003, 6.892673e+001
1.155230e+003, 6.913639e+001
1.155713e+003, 6.933318e+001
1.156195e+003, 6.951855e+001
1.156677e+003, 6.969426e+001
1.157159e+003, 6.985121e+001
1.157641e+003, 6.999818e+001
1.158123e+003, 7.018677e+001
1.158605e+003, 7.042928e+001
1.159087e+003, 7.070190e+001
1.159569e+003, 7.103634e+001
1.160052e+003, 7.135439e+001
1.160534e+003, 7.149182e+001
1.161016e+003, 7.178233e+001
1.161498e+003, 7.272202e+001
1.161980e+003, 7.384056e+001
1.162462e+003, 7.400566e+001
1.162944e+003, 7.307186e+001
1.163426e+003, 7.279528e+001
1.163908e+003, 7.345881e+001
1.164391e+003, 7.393115e+001
1.164873e+003, 7.395960e+001
1.165355e+003, 7.412043e+001
1.165837e+003, 7.476560e+001
1.166319e+003, 7.544360e+001
1.166801e+003, 7.557789e+001
1.167283e+003, 7.534376e+001
1.167765e+003, 7.551271e+001
1.168247e+003, 7.610417e+001
1.168730e+003, 7.647623e+001
1.169212e+003, 7.659497e+001
1.169694e+003, 7.669762e+001
1.170176e+003, 7.684559e+001
1.170658e+003, 7.710702e+001
1.171140e+003, 7.754235e+001
1.171622e+003, 7.802322e+001
1.172104e+003, 7.830756e+001
1.172587e+003, 7.848270e+001
1.173069e+003, 7.886049e+001
1.173551e+003, 7.939193e+001
1.174033e+003, 7.990263e+001
1.174515e+003, 8.037223e+001
1.174997e+003, 8.086048e+001
1.175479e+003, 8.138388e+001
1.175961e+003, 8.182600e+001
1.176443e+003, 8.209319e+001
1.176926e+003, 8.223421e+001
1.177408e+003, 8.219738e+001
1.177890e+003, 8.215567e+001
1.178372e+003, 8.240370e+001
1.178854e+003, 8.282907e+001
1.179336e+003, 8.318443e+001
1.179818e+003, 8.344913e+001
1.180300e+003, 8.375499e+001
1.180782e+003, 8.416769e+001
1.181265e+003, 8.453616e+001
1.181747e+003, 8.468932e+001
1.182229e+003, 8.486237e+001
1.182711e+003, 8.522855e+001
1.183193e+003, 8.566947e+001
1.183675e+003, 8.611343e+001
1.184157e+003, 8.652400e+001
1.184639e+003, 8.684783e+001
1.185122e+003, 8.708198e+001
1.185604e+003, 8.731495e+001
1.186086e+003, 8.752094e+001
1.186568e+003, 8.780285e+001
1.187050e+003, 8.830104e+001
1.187532e+003, 8.872511e+001
1.188014e+003, 8.886816e+001
1.188496e+003, 8.895503e+001
1.188979e+003, 8.919476e+001
1.189461e+003, 8.954102e+001
1.189943e+003, 8.985329e+001
1.190425e+003, 9.011874e+001
1.190907e+003, 9.042301e+001
1.191389e+003, 9.077400e+001
1.191871e+003, 9.112990e+001
1.192353e+003, 9.145570e+001
1.192835e+003, 9.188683e+001
1.193318e+003, 9.253638e+001
1.193800e+003, 9.318000e+001
1.194282e+003, 9.350938e+001
1.194764e+003, 9.364009e+001
1.195246e+003, 9.408993e+001
1.195728e+003, 9.483677e+001
1.196210e+003, 9.521780e+001
1.196692e+003, 9.522237e+001
1.197174e+003, 9.531587e+001
1.197657e+003, 9.561131e+001
1.198139e+003, 9.595541e+001
1.198621e+003, 9.625538e+001
1.199103e+003, 9.651944e+001
1.199585e+003, 9.667014e+001
1.200067e+003, 9.685708e+001
1.200549e+003, 9.746658e+001
1.201031e+003, 9.831710e+001
1.201514e+003, 9.902774e+001
1.201996e+003, 9.959760e+001
1.202478e+003, 1.001637e+002
1.202960e+003, 1.007681e+002
1.203442e+003, 1.013940e+002
1.203924e+003, 1.020923e+002
1.204406e+003, 1.026294e+002
1.204888e+003, 1.027683e+002
1.205370e+003, 1.027359e+002
1.205853e+003, 1.026631e+002
1.206335e+003, 1.025712e+002
1.206817e+003, 1.022379e+002
1.207299e+003, 1.019463e+002
1.207781e+003, 1.025902e+002
1.208263e+003, 1.044298e+002
1.208745e+003, 1.056185e+002
1.209227e+003, 1.050963e+002
1.209709e+003, 1.048040e+002
1.210192e+003, 1.053354e+002
1.210674e+003, 1.059621e+002
1.211156e+003, 1.063079e+002
1.211638e+003, 1.065844e+002
1.212120e+003, 1.070044e+002
1.212602e+003, 1.075338e+002
1.213084e+003, 1.080409e+002
1.213566e+003, 1.085189e+002
1.214049e+003, 1.090095e+002
1.214531e+003, 1.095229e+002
1.215013e+003, 1.100011e+002
1.215495e+003, 1.104230e+002
1.215977e+003, 1.108866e+002
1.216459e+003, 1.114714e+002
1.216941e+003, 1.119498e+002
1.217423e+003, 1.119855e+002
1.217906e+003, 1.117876e+002
1.218388e+003, 1.120142e+002
1.218870e+003, 1.125968e+002
1.219352e+003, 1.132446e+002
1.219834e+003, 1.139183e+002
1.220316e+003, 1.145639e+002
1.220798e+003, 1.151433e+002
1.221280e+003, 1.154894e+002
1.221762e+003, 1.155047e+002
1.222245e+003, 1.154768e+002
1.222727e+003, 1.157034e+002
1.223209e+003, 1.160300e+002
1.223691e+003, 1.161200e+002
1.224173e+003, 1.163252e+002
1.224655e+003, 1.173607e+002
1.225137e+003, 1.187693e+002
1.225619e+003, 1.196003e+002
1.226101e+003, 1.197492e+002
1.226584e+003, 1.197684e+002
1.227066e+003, 1.197270e+002
1.227548e+003, 1.199252e+002
1.228030e+003, 1.208653e+002
1.228512e+003, 1.215408e+002
1.228994e+003, 1.212467e+002
1.229476e+003, 1.208046e+002
1.229958e+003, 1.206771e+002
1.230441e+003, 1.209447e+002
1.230923e+003, 1.217846e+002
1.231405e+003, 1.231787e+002
1.231887e+003, 1.244287e+002
1.232369e+003, 1.256416e+002
1.232851e+003, 1.263486e+002
1.233333e+003, 1.264310e+002
1.233815e+003, 1.262779e+002
1.234297e+003, 1.258781e+002
1.234780e+003, 1.259182e+002
1.235262e+003, 1.270052e+002
1.235744e+003, 1.283607e+002
1.236226e+003, 1.285318e+002
1.236708e+003, 1.278863e+002
1.237190e+003, 1.279436e+002
1.237672e+003, 1.286012e+002
1.238154e+003, 1.296340e+002
1.238636e+003, 1.308375e+002
1.239119e+003, 1.314442e+002
1.239601e+003, 1.312868e+002
1.240083e+003, 1.308397e+002
1.240565e+003, 1.302757e+002
1.241047e+003, 1.302042e+002
1.241529e+003, 1.317548e+002
1.242011e+003, 1.335106e+002
1.242493e+003, 1.340795e+002
1.242975e+003, 1.340430e+002
1.243458e+003, 1.340920e+002
1.243940e+003, 1.341968e+002
1.244422e+003, 1.339924e+002
1.244904e+003, 1.334745e+002
1.245386e+003, 1.333717e+002
1.245868e+003, 1.340646e+002
1.246350e+003, 1.348289e+002
1.246832e+003, 1.357499e+002
1.247315e+003, 1.364413e+002
1.247797e+003, 1.366129e+002
1.248279e+003, 1.367085e+002
1.248761e+003, 1.370545e+002
1.249243e+003, 1.375050e+002
1.249725e+003, 1.377857e+002
1.250207e+003, 1.379100e+002
1.250689e+003, 1.381291e+002
1.251172e+003, 1.384329e+002
1.251654e+003, 1.389847e+002
1.252136e+003, 1.398116e+002
1.252618e+003, 1.404790e+002
1.253100e+003, 1.408565e+002
1.253582e+003, 1.409898e+002
1.254064e+003, 1.408798e+002
1.254546e+003, 1.408596e+002
1.255028e+003, 1.415796e+002
1.255510e+003, 1.425655e+002
1.255993e+003, 1.428286e+002
1.256475e+003, 1.427440e+002
1.256957e+003, 1.429845e+002
1.257439e+003, 1.435020e+002
1.257921e+003, 1.440136e+002
1.258403e+003, 1.444544e+002
1.258885e+003, 1.449406e+002
1.259367e+003, 1.456165e+002
1.259850e+003, 1.459698e+002
1.260332e+003, 1.452204e+002
1.260814e+003, 1.448068e+002
1.261296e+003, 1.458391e+002
1.261778e+003, 1.470320e+002
1.262260e+003, 1.472982e+002
1.262742e+003, 1.471278e+002
1.263224e+003, 1.474355e+002
1.263707e+003, 1.481274e+002
1.264189e+003, 1.483059e+002
1.264671e+003, 1.476974e+002
1.265153e+003, 1.475289e+002
1.265635e+003, 1.478979e+002
1.266117e+003, 1.482527e+002
1.266599e+003, 1.484245e+002
1.267081e+003, 1.489962e+002
1.267563e+003, 1.503561e+002
1.268046e+003, 1.516682e+002
1.268528e+003, 1.518433e+002
1.269010e+003, 1.514456e+002
1.269492e+003, 1.518174e+002
1.269974e+003, 1.526513e+002
1.270456e+003, 1.532393e+002
1.270938e+003, 1.535841e+002
1.271420e+003, 1.537351e+002
1.271902e+003, 1.537953e+002
1.272385e+003, 1.540730e+002
1.272867e+003, 1.546873e+002
1.273349e+003, 1.553003e+002
1.273831e+003, 1.559123e+002
1.274313e+003, 1.561960e+002
1.274795e+003, 1.555102e+002
1.275277e+003, 1.549881e+002
1.275759e+003, 1.554652e+002
1.276242e+003, 1.564511e+002
1.276724e+003, 1.576836e+002
1.277206e+003, 1.588709e+002
1.277688e+003, 1.590762e+002
1.278170e+003, 1.581193e+002
1.278652e+003, 1.578892e+002
1.279134e+003, 1.586223e+002
1.279616e+003, 1.592365e+002
1.280099e+003, 1.596180e+002
1.280581e+003, 1.598404e+002
1.281063e+003, 1.599027e+002
1.281545e+003, 1.600657e+002
1.282027e+003, 1.605533e+002
1.282509e+003, 1.611756e+002
1.282991e+003, 1.616298e+002
1.283473e+003, 1.619612e+002
1.283955e+003, 1.622993e+002
##END=



