##NAMES=Simonellite
##RRUFFID=R130116
##IDEAL CHEMISTRY=C_19_H_24_
##LOCALITY=Fognano, Montepulliano, Tuscany, Italy
##OWNER=RRUFF
##SOURCE=Rock Currier
##DESCRIPTION=Aggregates of colorless irregular crystals. Note: quickly dissolves in acetone
##STATUS=The identification of this mineral has been confirmed by single-crystal X-ray diffraction.
##URL=rruff.info/R130116
8.936163e+001, 0.000000e+000
8.984375e+001, 1.698170e+002
9.032587e+001, 1.664028e+002
9.080798e+001, 1.659682e+002
9.129010e+001, 1.703630e+002
9.177222e+001, 1.755664e+002
9.225433e+001, 1.766297e+002
9.273645e+001, 1.737716e+002
9.321857e+001, 1.691480e+002
9.370068e+001, 1.635426e+002
9.418280e+001, 1.574177e+002
9.466492e+001, 1.523728e+002
9.514703e+001, 1.491470e+002
9.562915e+001, 1.473377e+002
9.611127e+001, 1.458394e+002
9.659338e+001, 1.446956e+002
9.707550e+001, 1.436941e+002
9.755762e+001, 1.424458e+002
9.803973e+001, 1.409358e+002
9.852185e+001, 1.397941e+002
9.900397e+001, 1.393490e+002
9.948608e+001, 1.396143e+002
9.996820e+001, 1.400193e+002
1.004503e+002, 1.406640e+002
1.009324e+002, 1.413353e+002
1.014146e+002, 1.418279e+002
1.018967e+002, 1.424651e+002
1.023788e+002, 1.420145e+002
1.028609e+002, 1.393704e+002
1.033430e+002, 1.334722e+002
1.038251e+002, 1.289068e+002
1.043073e+002, 1.263181e+002
1.047894e+002, 1.253718e+002
1.052715e+002, 1.243438e+002
1.057536e+002, 1.231047e+002
1.062357e+002, 1.219165e+002
1.067178e+002, 1.209511e+002
1.072000e+002, 1.203471e+002
1.076821e+002, 1.197840e+002
1.081642e+002, 1.193473e+002
1.086463e+002, 1.190791e+002
1.091284e+002, 1.183543e+002
1.096105e+002, 1.169038e+002
1.100927e+002, 1.151092e+002
1.105748e+002, 1.133419e+002
1.110569e+002, 1.109704e+002
1.115390e+002, 1.092252e+002
1.120211e+002, 1.086742e+002
1.125032e+002, 1.098245e+002
1.129854e+002, 1.103372e+002
1.134675e+002, 1.095455e+002
1.139496e+002, 1.080011e+002
1.144317e+002, 1.064882e+002
1.149138e+002, 1.048309e+002
1.153959e+002, 1.035190e+002
1.158781e+002, 1.029073e+002
1.163602e+002, 1.035279e+002
1.168423e+002, 1.038247e+002
1.173244e+002, 1.026550e+002
1.178065e+002, 1.006687e+002
1.182886e+002, 9.951936e+001
1.187708e+002, 1.013779e+002
1.192529e+002, 1.036070e+002
1.197350e+002, 1.040131e+002
1.202171e+002, 1.007316e+002
1.206992e+002, 9.705832e+001
1.211813e+002, 9.513926e+001
1.216635e+002, 9.473257e+001
1.221456e+002, 9.457148e+001
1.226277e+002, 9.381481e+001
1.231098e+002, 9.284450e+001
1.235919e+002, 9.217485e+001
1.240740e+002, 9.244962e+001
1.245562e+002, 9.282528e+001
1.250383e+002, 9.224881e+001
1.255204e+002, 9.072495e+001
1.260025e+002, 8.914870e+001
1.264846e+002, 8.830946e+001
1.269667e+002, 8.802206e+001
1.274489e+002, 8.782336e+001
1.279310e+002, 8.755762e+001
1.284131e+002, 8.723855e+001
1.288952e+002, 8.690747e+001
1.293773e+002, 8.657392e+001
1.298594e+002, 8.617989e+001
1.303416e+002, 8.557348e+001
1.308237e+002, 8.479416e+001
1.313058e+002, 8.408887e+001
1.317879e+002, 8.361418e+001
1.322700e+002, 8.333460e+001
1.327521e+002, 8.309275e+001
1.332343e+002, 8.289461e+001
1.337164e+002, 8.269679e+001
1.341985e+002, 8.246116e+001
1.346806e+002, 8.219860e+001
1.351627e+002, 8.175082e+001
1.356448e+002, 8.087264e+001
1.361270e+002, 7.954932e+001
1.366091e+002, 7.855305e+001
1.370912e+002, 7.801938e+001
1.375733e+002, 7.785909e+001
1.380554e+002, 7.779427e+001
1.385375e+002, 7.787795e+001
1.390197e+002, 7.790117e+001
1.395018e+002, 7.767185e+001
1.399839e+002, 7.713315e+001
1.404660e+002, 7.658930e+001
1.409481e+002, 7.604090e+001
1.414302e+002, 7.550731e+001
1.419124e+002, 7.526693e+001
1.423945e+002, 7.552773e+001
1.428766e+002, 7.579665e+001
1.433587e+002, 7.550451e+001
1.438408e+002, 7.424262e+001
1.443229e+002, 7.327161e+001
1.448051e+002, 7.297681e+001
1.452872e+002, 7.349170e+001
1.457693e+002, 7.362105e+001
1.462514e+002, 7.305456e+001
1.467335e+002, 7.229869e+001
1.472156e+002, 7.201661e+001
1.476978e+002, 7.266956e+001
1.481799e+002, 7.323219e+001
1.486620e+002, 7.346387e+001
1.491441e+002, 7.331957e+001
1.496262e+002, 7.295426e+001
1.501083e+002, 7.216003e+001
1.505905e+002, 7.118399e+001
1.510726e+002, 7.045625e+001
1.515547e+002, 7.015976e+001
1.520368e+002, 6.995921e+001
1.525189e+002, 6.969918e+001
1.530010e+002, 6.899200e+001
1.534832e+002, 6.890892e+001
1.539653e+002, 7.035184e+001
1.544474e+002, 7.251446e+001
1.549295e+002, 7.346104e+001
1.554116e+002, 7.181996e+001
1.558937e+002, 6.973127e+001
1.563759e+002, 6.815393e+001
1.568580e+002, 6.735690e+001
1.573401e+002, 6.689314e+001
1.578222e+002, 6.686143e+001
1.583043e+002, 6.714956e+001
1.587864e+002, 6.734367e+001
1.592686e+002, 6.733650e+001
1.597507e+002, 6.719743e+001
1.602328e+002, 6.696756e+001
1.607149e+002, 6.639558e+001
1.611970e+002, 6.599683e+001
1.616791e+002, 6.601395e+001
1.621613e+002, 6.639421e+001
1.626434e+002, 6.679193e+001
1.631255e+002, 6.709077e+001
1.636076e+002, 6.733348e+001
1.640897e+002, 6.755818e+001
1.645718e+002, 6.764137e+001
1.650540e+002, 6.782153e+001
1.655361e+002, 6.827847e+001
1.660182e+002, 6.900381e+001
1.665003e+002, 6.971512e+001
1.669824e+002, 7.004906e+001
1.674645e+002, 7.034469e+001
1.679467e+002, 7.101313e+001
1.684288e+002, 7.228879e+001
1.689109e+002, 7.394257e+001
1.693930e+002, 7.585547e+001
1.698751e+002, 7.803581e+001
1.703572e+002, 8.038384e+001
1.708394e+002, 8.285069e+001
1.713215e+002, 8.546770e+001
1.718036e+002, 8.824601e+001
1.722857e+002, 9.097743e+001
1.727678e+002, 9.400777e+001
1.732499e+002, 9.761990e+001
1.737321e+002, 1.018552e+002
1.742142e+002, 1.067536e+002
1.746963e+002, 1.123948e+002
1.751784e+002, 1.187994e+002
1.756605e+002, 1.260481e+002
1.761426e+002, 1.340161e+002
1.766248e+002, 1.428397e+002
1.771069e+002, 1.527104e+002
1.775890e+002, 1.637353e+002
1.780711e+002, 1.756328e+002
1.785532e+002, 1.885649e+002
1.790353e+002, 2.023568e+002
1.795175e+002, 2.158740e+002
1.799996e+002, 2.283314e+002
1.804817e+002, 2.401670e+002
1.809638e+002, 2.526026e+002
1.814459e+002, 2.660028e+002
1.819280e+002, 2.794991e+002
1.824102e+002, 2.923315e+002
1.828923e+002, 3.043249e+002
1.833744e+002, 3.159144e+002
1.838565e+002, 3.272440e+002
1.843386e+002, 3.383085e+002
1.848207e+002, 3.486505e+002
1.853029e+002, 3.581824e+002
1.857850e+002, 3.672133e+002
1.862671e+002, 3.761919e+002
1.867492e+002, 3.851103e+002
1.872313e+002, 3.945535e+002
1.877134e+002, 4.046309e+002
1.881956e+002, 4.155363e+002
1.886777e+002, 4.277803e+002
1.891598e+002, 4.418029e+002
1.896419e+002, 4.569883e+002
1.901240e+002, 4.718730e+002
1.906061e+002, 4.866023e+002
1.910883e+002, 5.021407e+002
1.915704e+002, 5.193152e+002
1.920525e+002, 5.382284e+002
1.925346e+002, 5.584578e+002
1.930167e+002, 5.801442e+002
1.934988e+002, 6.025364e+002
1.939810e+002, 6.221273e+002
1.944631e+002, 6.381570e+002
1.949452e+002, 6.538358e+002
1.954273e+002, 6.693531e+002
1.959094e+002, 6.847079e+002
1.963915e+002, 6.997560e+002
1.968737e+002, 7.146198e+002
1.973558e+002, 7.290798e+002
1.978379e+002, 7.422812e+002
1.983200e+002, 7.538792e+002
1.988021e+002, 7.656544e+002
1.992842e+002, 7.796428e+002
1.997664e+002, 7.961149e+002
2.002485e+002, 8.108877e+002
2.007306e+002, 8.227393e+002
2.012127e+002, 8.323223e+002
2.016948e+002, 8.435551e+002
2.021769e+002, 8.567637e+002
2.026591e+002, 8.706729e+002
2.031412e+002, 8.838151e+002
2.036233e+002, 8.961056e+002
2.041054e+002, 9.089152e+002
2.045875e+002, 9.227138e+002
2.050696e+002, 9.373663e+002
2.055518e+002, 9.515502e+002
2.060339e+002, 9.650755e+002
2.065160e+002, 9.785647e+002
2.069981e+002, 9.929091e+002
2.074802e+002, 1.008270e+003
2.079623e+002, 1.023037e+003
2.084445e+002, 1.036554e+003
2.089266e+002, 1.048956e+003
2.094087e+002, 1.062205e+003
2.098908e+002, 1.076606e+003
2.103729e+002, 1.091416e+003
2.108550e+002, 1.105963e+003
2.113372e+002, 1.120141e+003
2.118193e+002, 1.133967e+003
2.123014e+002, 1.147531e+003
2.127835e+002, 1.160722e+003
2.132656e+002, 1.173373e+003
2.137477e+002, 1.185490e+003
2.142299e+002, 1.197117e+003
2.147120e+002, 1.207964e+003
2.151941e+002, 1.217686e+003
2.156762e+002, 1.227819e+003
2.161583e+002, 1.238898e+003
2.166404e+002, 1.250846e+003
2.171226e+002, 1.263098e+003
2.176047e+002, 1.276043e+003
2.180868e+002, 1.288830e+003
2.185689e+002, 1.300377e+003
2.190510e+002, 1.309905e+003
2.195331e+002, 1.320198e+003
2.200153e+002, 1.332279e+003
2.204974e+002, 1.346399e+003
2.209795e+002, 1.360095e+003
2.214616e+002, 1.372921e+003
2.219437e+002, 1.385957e+003
2.224258e+002, 1.401041e+003
2.229080e+002, 1.419132e+003
2.233901e+002, 1.437053e+003
2.238722e+002, 1.453524e+003
2.243543e+002, 1.468514e+003
2.248364e+002, 1.483848e+003
2.253185e+002, 1.499593e+003
2.258007e+002, 1.515393e+003
2.262828e+002, 1.531161e+003
2.267649e+002, 1.547258e+003
2.272470e+002, 1.562333e+003
2.277291e+002, 1.575844e+003
2.282112e+002, 1.588007e+003
2.286934e+002, 1.598247e+003
2.291755e+002, 1.606444e+003
2.296576e+002, 1.612834e+003
2.301397e+002, 1.617659e+003
2.306218e+002, 1.621324e+003
2.311039e+002, 1.622806e+003
2.315861e+002, 1.621656e+003
2.320682e+002, 1.617632e+003
2.325503e+002, 1.612802e+003
2.330324e+002, 1.606872e+003
2.335145e+002, 1.600494e+003
2.339966e+002, 1.594395e+003
2.344788e+002, 1.588788e+003
2.349609e+002, 1.583226e+003
2.354430e+002, 1.577652e+003
2.359251e+002, 1.572107e+003
2.364072e+002, 1.566252e+003
2.368893e+002, 1.559773e+003
2.373715e+002, 1.553213e+003
2.378536e+002, 1.547277e+003
2.383357e+002, 1.542073e+003
2.388178e+002, 1.537104e+003
2.392999e+002, 1.532076e+003
2.397820e+002, 1.526879e+003
2.402642e+002, 1.522613e+003
2.407463e+002, 1.519465e+003
2.412284e+002, 1.517025e+003
2.417105e+002, 1.514949e+003
2.421926e+002, 1.513871e+003
2.426747e+002, 1.511925e+003
2.431569e+002, 1.508396e+003
2.436390e+002, 1.502993e+003
2.441211e+002, 1.498235e+003
2.446032e+002, 1.494332e+003
2.450853e+002, 1.490842e+003
2.455674e+002, 1.487176e+003
2.460496e+002, 1.482806e+003
2.465317e+002, 1.479304e+003
2.470138e+002, 1.477400e+003
2.474959e+002, 1.477354e+003
2.479780e+002, 1.475916e+003
2.484601e+002, 1.472144e+003
2.489423e+002, 1.467965e+003
2.494244e+002, 1.465609e+003
2.499065e+002, 1.466044e+003
2.503886e+002, 1.466455e+003
2.508707e+002, 1.466128e+003
2.513528e+002, 1.465018e+003
2.518350e+002, 1.464545e+003
2.523171e+002, 1.464882e+003
2.527992e+002, 1.465662e+003
2.532813e+002, 1.466588e+003
2.537634e+002, 1.467831e+003
2.542455e+002, 1.468751e+003
2.547277e+002, 1.469048e+003
2.552098e+002, 1.468686e+003
2.556919e+002, 1.468738e+003
2.561740e+002, 1.469079e+003
2.566561e+002, 1.469926e+003
2.571382e+002, 1.471655e+003
2.576204e+002, 1.474891e+003
2.581025e+002, 1.477466e+003
2.585846e+002, 1.478808e+003
2.590667e+002, 1.478983e+003
2.595488e+002, 1.479200e+003
2.600309e+002, 1.479207e+003
2.605131e+002, 1.479635e+003
2.609952e+002, 1.481193e+003
2.614773e+002, 1.484408e+003
2.619594e+002, 1.487354e+003
2.624415e+002, 1.489604e+003
2.629236e+002, 1.491279e+003
2.634058e+002, 1.493250e+003
2.638879e+002, 1.495572e+003
2.643700e+002, 1.498170e+003
2.648521e+002, 1.501166e+003
2.653342e+002, 1.504753e+003
2.658163e+002, 1.507947e+003
2.662985e+002, 1.510272e+003
2.667806e+002, 1.512018e+003
2.672627e+002, 1.515248e+003
2.677448e+002, 1.520678e+003
2.682269e+002, 1.526021e+003
2.687090e+002, 1.529121e+003
2.691912e+002, 1.529078e+003
2.696733e+002, 1.531015e+003
2.701554e+002, 1.536675e+003
2.706375e+002, 1.544499e+003
2.711196e+002, 1.547490e+003
2.716017e+002, 1.544225e+003
2.720839e+002, 1.540034e+003
2.725660e+002, 1.538781e+003
2.730481e+002, 1.541028e+003
2.735302e+002, 1.542422e+003
2.740123e+002, 1.542395e+003
2.744944e+002, 1.541383e+003
2.749766e+002, 1.540557e+003
2.754587e+002, 1.539914e+003
2.759408e+002, 1.539535e+003
2.764229e+002, 1.539646e+003
2.769050e+002, 1.540329e+003
2.773871e+002, 1.540585e+003
2.778693e+002, 1.540254e+003
2.783514e+002, 1.539590e+003
2.788335e+002, 1.539108e+003
2.793156e+002, 1.538806e+003
2.797977e+002, 1.538684e+003
2.802798e+002, 1.538761e+003
2.807620e+002, 1.539034e+003
2.812441e+002, 1.539427e+003
2.817262e+002, 1.540005e+003
2.822083e+002, 1.540544e+003
2.826904e+002, 1.540541e+003
2.831725e+002, 1.539940e+003
2.836547e+002, 1.539409e+003
2.841368e+002, 1.539661e+003
2.846189e+002, 1.540534e+003
2.851010e+002, 1.539841e+003
2.855831e+002, 1.537167e+003
2.860652e+002, 1.533950e+003
2.865474e+002, 1.532528e+003
2.870295e+002, 1.532859e+003
2.875116e+002, 1.532941e+003
2.879937e+002, 1.531970e+003
2.884758e+002, 1.530011e+003
2.889579e+002, 1.527363e+003
2.894401e+002, 1.523894e+003
2.899222e+002, 1.520323e+003
2.904043e+002, 1.517498e+003
2.908864e+002, 1.515371e+003
2.913685e+002, 1.513527e+003
2.918506e+002, 1.511957e+003
2.923328e+002, 1.510544e+003
2.928149e+002, 1.509021e+003
2.932970e+002, 1.507383e+003
2.937791e+002, 1.505594e+003
2.942612e+002, 1.503251e+003
2.947433e+002, 1.500620e+003
2.952255e+002, 1.498760e+003
2.957076e+002, 1.497655e+003
2.961897e+002, 1.497756e+003
2.966718e+002, 1.500919e+003
2.971539e+002, 1.507040e+003
2.976360e+002, 1.512770e+003
2.981182e+002, 1.515323e+003
2.986003e+002, 1.515259e+003
2.990824e+002, 1.513839e+003
2.995645e+002, 1.510513e+003
3.000466e+002, 1.506954e+003
3.005287e+002, 1.505722e+003
3.010109e+002, 1.506593e+003
3.014930e+002, 1.507969e+003
3.019751e+002, 1.508609e+003
3.024572e+002, 1.509002e+003
3.029393e+002, 1.509969e+003
3.034214e+002, 1.511773e+003
3.039036e+002, 1.514086e+003
3.043857e+002, 1.516797e+003
3.048678e+002, 1.519795e+003
3.053499e+002, 1.522714e+003
3.058320e+002, 1.525106e+003
3.063141e+002, 1.527375e+003
3.067963e+002, 1.529860e+003
3.072784e+002, 1.532514e+003
3.077605e+002, 1.535784e+003
3.082426e+002, 1.540365e+003
3.087247e+002, 1.545868e+003
3.092068e+002, 1.551372e+003
3.096890e+002, 1.556037e+003
3.101711e+002, 1.560672e+003
3.106532e+002, 1.566135e+003
3.111353e+002, 1.572698e+003
3.116174e+002, 1.578891e+003
3.120995e+002, 1.583590e+003
3.125817e+002, 1.587223e+003
3.130638e+002, 1.590567e+003
3.135459e+002, 1.594823e+003
3.140280e+002, 1.598258e+003
3.145101e+002, 1.599666e+003
3.149922e+002, 1.598913e+003
3.154744e+002, 1.597386e+003
3.159565e+002, 1.595790e+003
3.164386e+002, 1.593801e+003
3.169207e+002, 1.591077e+003
3.174028e+002, 1.587844e+003
3.178849e+002, 1.583596e+003
3.183671e+002, 1.577458e+003
3.188492e+002, 1.569535e+003
3.193313e+002, 1.562613e+003
3.198134e+002, 1.557840e+003
3.202955e+002, 1.554300e+003
3.207776e+002, 1.551303e+003
3.212598e+002, 1.548592e+003
3.217419e+002, 1.546438e+003
3.222240e+002, 1.544998e+003
3.227061e+002, 1.544182e+003
3.231882e+002, 1.543600e+003
3.236703e+002, 1.542973e+003
3.241525e+002, 1.542669e+003
3.246346e+002, 1.542922e+003
3.251167e+002, 1.544460e+003
3.255988e+002, 1.545589e+003
3.260809e+002, 1.545795e+003
3.265630e+002, 1.545466e+003
3.270452e+002, 1.545650e+003
3.275273e+002, 1.546648e+003
3.280094e+002, 1.547990e+003
3.284915e+002, 1.549584e+003
3.289736e+002, 1.551647e+003
3.294557e+002, 1.553452e+003
3.299379e+002, 1.554650e+003
3.304200e+002, 1.555703e+003
3.309021e+002, 1.557315e+003
3.313842e+002, 1.559515e+003
3.318663e+002, 1.562218e+003
3.323484e+002, 1.565588e+003
3.328306e+002, 1.569726e+003
3.333127e+002, 1.573275e+003
3.337948e+002, 1.575599e+003
3.342769e+002, 1.577893e+003
3.347590e+002, 1.581539e+003
3.352411e+002, 1.587182e+003
3.357233e+002, 1.592830e+003
3.362054e+002, 1.598073e+003
3.366875e+002, 1.602986e+003
3.371696e+002, 1.607760e+003
3.376517e+002, 1.612226e+003
3.381339e+002, 1.616921e+003
3.386160e+002, 1.622485e+003
3.390981e+002, 1.629327e+003
3.395802e+002, 1.635182e+003
3.400623e+002, 1.639503e+003
3.405444e+002, 1.642693e+003
3.410266e+002, 1.645716e+003
3.415087e+002, 1.648507e+003
3.419908e+002, 1.651519e+003
3.424729e+002, 1.655554e+003
3.429550e+002, 1.660541e+003
3.434371e+002, 1.663643e+003
3.439193e+002, 1.664044e+003
3.444014e+002, 1.663476e+003
3.448835e+002, 1.665339e+003
3.453656e+002, 1.669615e+003
3.458477e+002, 1.673747e+003
3.463298e+002, 1.675921e+003
3.468120e+002, 1.676800e+003
3.472941e+002, 1.679212e+003
3.477762e+002, 1.683385e+003
3.482583e+002, 1.688473e+003
3.487404e+002, 1.694017e+003
3.492225e+002, 1.699809e+003
3.497047e+002, 1.704908e+003
3.501868e+002, 1.708721e+003
3.506689e+002, 1.711711e+003
3.511510e+002, 1.714879e+003
3.516331e+002, 1.718186e+003
3.521152e+002, 1.720894e+003
3.525974e+002, 1.723751e+003
3.530795e+002, 1.725400e+003
3.535616e+002, 1.723047e+003
3.540437e+002, 1.714287e+003
3.545258e+002, 1.703361e+003
3.550079e+002, 1.694470e+003
3.554901e+002, 1.687169e+003
3.559722e+002, 1.679280e+003
3.564543e+002, 1.667420e+003
3.569364e+002, 1.655293e+003
3.574185e+002, 1.646843e+003
3.579006e+002, 1.643671e+003
3.583828e+002, 1.641866e+003
3.588649e+002, 1.639733e+003
3.593470e+002, 1.637164e+003
3.598291e+002, 1.633926e+003
3.603112e+002, 1.628348e+003
3.607933e+002, 1.623246e+003
3.612755e+002, 1.620596e+003
3.617576e+002, 1.620911e+003
3.622397e+002, 1.621132e+003
3.627218e+002, 1.619394e+003
3.632039e+002, 1.617179e+003
3.636860e+002, 1.616143e+003
3.641682e+002, 1.617496e+003
3.646503e+002, 1.619328e+003
3.651324e+002, 1.621050e+003
3.656145e+002, 1.622672e+003
3.660966e+002, 1.624559e+003
3.665787e+002, 1.626648e+003
3.670609e+002, 1.629108e+003
3.675430e+002, 1.632049e+003
3.680251e+002, 1.636703e+003
3.685072e+002, 1.640422e+003
3.689893e+002, 1.641891e+003
3.694714e+002, 1.642109e+003
3.699536e+002, 1.644383e+003
3.704357e+002, 1.650373e+003
3.709178e+002, 1.656707e+003
3.713999e+002, 1.662091e+003
3.718820e+002, 1.666526e+003
3.723641e+002, 1.670115e+003
3.728463e+002, 1.672750e+003
3.733284e+002, 1.674568e+003
3.738105e+002, 1.675919e+003
3.742926e+002, 1.677227e+003
3.747747e+002, 1.677053e+003
3.752568e+002, 1.674717e+003
3.757390e+002, 1.670171e+003
3.762211e+002, 1.665627e+003
3.767032e+002, 1.661139e+003
3.771853e+002, 1.656396e+003
3.776674e+002, 1.650429e+003
3.781495e+002, 1.642870e+003
3.786317e+002, 1.637353e+003
3.791138e+002, 1.635134e+003
3.795959e+002, 1.635031e+003
3.800780e+002, 1.633088e+003
3.805601e+002, 1.629154e+003
3.810422e+002, 1.625269e+003
3.815244e+002, 1.622885e+003
3.820065e+002, 1.621802e+003
3.824886e+002, 1.621115e+003
3.829707e+002, 1.620887e+003
3.834528e+002, 1.620625e+003
3.839349e+002, 1.619125e+003
3.844171e+002, 1.616729e+003
3.848992e+002, 1.615236e+003
3.853813e+002, 1.616164e+003
3.858634e+002, 1.618343e+003
3.863455e+002, 1.619697e+003
3.868276e+002, 1.620121e+003
3.873098e+002, 1.620504e+003
3.877919e+002, 1.621696e+003
3.882740e+002, 1.623356e+003
3.887561e+002, 1.624874e+003
3.892382e+002, 1.625959e+003
3.897203e+002, 1.626880e+003
3.902025e+002, 1.627854e+003
3.906846e+002, 1.628829e+003
3.911667e+002, 1.629645e+003
3.916488e+002, 1.629952e+003
3.921309e+002, 1.630177e+003
3.926130e+002, 1.630645e+003
3.930952e+002, 1.631338e+003
3.935773e+002, 1.632457e+003
3.940594e+002, 1.634595e+003
3.945415e+002, 1.637182e+003
3.950236e+002, 1.639152e+003
3.955057e+002, 1.640005e+003
3.959879e+002, 1.640375e+003
3.964700e+002, 1.640057e+003
3.969521e+002, 1.638711e+003
3.974342e+002, 1.638998e+003
3.979163e+002, 1.642640e+003
3.983984e+002, 1.647483e+003
3.988806e+002, 1.651556e+003
3.993627e+002, 1.654468e+003
3.998448e+002, 1.656887e+003
4.003269e+002, 1.658485e+003
4.008090e+002, 1.659461e+003
4.012911e+002, 1.661309e+003
4.017733e+002, 1.664592e+003
4.022554e+002, 1.668086e+003
4.027375e+002, 1.671009e+003
4.032196e+002, 1.672581e+003
4.037017e+002, 1.675726e+003
4.041838e+002, 1.681224e+003
4.046660e+002, 1.687719e+003
4.051481e+002, 1.692181e+003
4.056302e+002, 1.693879e+003
4.061123e+002, 1.696343e+003
4.065944e+002, 1.701002e+003
4.070765e+002, 1.707782e+003
4.075587e+002, 1.714385e+003
4.080408e+002, 1.720706e+003
4.085229e+002, 1.727340e+003
4.090050e+002, 1.734623e+003
4.094871e+002, 1.742576e+003
4.099692e+002, 1.752132e+003
4.104514e+002, 1.763977e+003
4.109335e+002, 1.777044e+003
4.114156e+002, 1.789031e+003
4.118977e+002, 1.799952e+003
4.123798e+002, 1.811348e+003
4.128619e+002, 1.824940e+003
4.133441e+002, 1.839443e+003
4.138262e+002, 1.852813e+003
4.143083e+002, 1.865032e+003
4.147904e+002, 1.875297e+003
4.152725e+002, 1.884083e+003
4.157546e+002, 1.890420e+003
4.162368e+002, 1.892479e+003
4.167189e+002, 1.886976e+003
4.172010e+002, 1.878600e+003
4.176831e+002, 1.870851e+003
4.181652e+002, 1.863790e+003
4.186473e+002, 1.855924e+003
4.191295e+002, 1.847059e+003
4.196116e+002, 1.836767e+003
4.200937e+002, 1.824784e+003
4.205758e+002, 1.810481e+003
4.210579e+002, 1.795107e+003
4.215400e+002, 1.777260e+003
4.220222e+002, 1.758480e+003
4.225043e+002, 1.742056e+003
4.229864e+002, 1.729378e+003
4.234685e+002, 1.718887e+003
4.239506e+002, 1.709969e+003
4.244327e+002, 1.702702e+003
4.249149e+002, 1.696925e+003
4.253970e+002, 1.692683e+003
4.258791e+002, 1.689874e+003
4.263612e+002, 1.688473e+003
4.268433e+002, 1.689455e+003
4.273254e+002, 1.690291e+003
4.278076e+002, 1.690639e+003
4.282897e+002, 1.690514e+003
4.287718e+002, 1.689995e+003
4.292539e+002, 1.688760e+003
4.297360e+002, 1.687720e+003
4.302181e+002, 1.687615e+003
4.307003e+002, 1.688665e+003
4.311824e+002, 1.688914e+003
4.316645e+002, 1.687946e+003
4.321466e+002, 1.686716e+003
4.326287e+002, 1.687122e+003
4.331108e+002, 1.689211e+003
4.335930e+002, 1.691064e+003
4.340751e+002, 1.691879e+003
4.345572e+002, 1.691942e+003
4.350393e+002, 1.691986e+003
4.355214e+002, 1.692018e+003
4.360035e+002, 1.692437e+003
4.364857e+002, 1.693961e+003
4.369678e+002, 1.696143e+003
4.374499e+002, 1.697861e+003
4.379320e+002, 1.698695e+003
4.384141e+002, 1.699327e+003
4.388962e+002, 1.700416e+003
4.393784e+002, 1.701889e+003
4.398605e+002, 1.703554e+003
4.403426e+002, 1.704902e+003
4.408247e+002, 1.706622e+003
4.413068e+002, 1.709558e+003
4.417889e+002, 1.713847e+003
4.422711e+002, 1.718036e+003
4.427532e+002, 1.721271e+003
4.432353e+002, 1.724060e+003
4.437174e+002, 1.726927e+003
4.441995e+002, 1.730106e+003
4.446816e+002, 1.733280e+003
4.451638e+002, 1.736554e+003
4.456459e+002, 1.739806e+003
4.461280e+002, 1.742628e+003
4.466101e+002, 1.744842e+003
4.470922e+002, 1.746711e+003
4.475743e+002, 1.748425e+003
4.480565e+002, 1.750300e+003
4.485386e+002, 1.751228e+003
4.490207e+002, 1.751252e+003
4.495028e+002, 1.750299e+003
4.499849e+002, 1.748178e+003
4.504670e+002, 1.744415e+003
4.509492e+002, 1.740484e+003
4.514313e+002, 1.736457e+003
4.519134e+002, 1.732497e+003
4.523955e+002, 1.730051e+003
4.528776e+002, 1.729501e+003
4.533597e+002, 1.729375e+003
4.538419e+002, 1.728577e+003
4.543240e+002, 1.727147e+003
4.548061e+002, 1.726197e+003
4.552882e+002, 1.725798e+003
4.557703e+002, 1.725972e+003
4.562524e+002, 1.727265e+003
4.567346e+002, 1.729435e+003
4.572167e+002, 1.730773e+003
4.576988e+002, 1.729957e+003
4.581809e+002, 1.728117e+003
4.586630e+002, 1.727241e+003
4.591451e+002, 1.727267e+003
4.596273e+002, 1.727358e+003
4.601094e+002, 1.726622e+003
4.605915e+002, 1.725647e+003
4.610736e+002, 1.725163e+003
4.615557e+002, 1.725278e+003
4.620378e+002, 1.726029e+003
4.625200e+002, 1.728161e+003
4.630021e+002, 1.730928e+003
4.634842e+002, 1.732824e+003
4.639663e+002, 1.732773e+003
4.644484e+002, 1.732196e+003
4.649305e+002, 1.731596e+003
4.654127e+002, 1.731001e+003
4.658948e+002, 1.730761e+003
4.663769e+002, 1.731010e+003
4.668590e+002, 1.731623e+003
4.673411e+002, 1.732516e+003
4.678232e+002, 1.734268e+003
4.683054e+002, 1.735503e+003
4.687875e+002, 1.735342e+003
4.692696e+002, 1.734758e+003
4.697517e+002, 1.736387e+003
4.702338e+002, 1.741452e+003
4.707159e+002, 1.746386e+003
4.711981e+002, 1.749559e+003
4.716802e+002, 1.750826e+003
4.721623e+002, 1.754066e+003
4.726444e+002, 1.759503e+003
4.731265e+002, 1.766145e+003
4.736086e+002, 1.773137e+003
4.740908e+002, 1.780467e+003
4.745729e+002, 1.787818e+003
4.750550e+002, 1.795080e+003
4.755371e+002, 1.802382e+003
4.760192e+002, 1.810188e+003
4.765013e+002, 1.818413e+003
4.769835e+002, 1.826185e+003
4.774656e+002, 1.833530e+003
4.779477e+002, 1.840004e+003
4.784298e+002, 1.845630e+003
4.789119e+002, 1.850463e+003
4.793940e+002, 1.851874e+003
4.798762e+002, 1.846670e+003
4.803583e+002, 1.837131e+003
4.808404e+002, 1.826142e+003
4.813225e+002, 1.813162e+003
4.818046e+002, 1.800743e+003
4.822867e+002, 1.789717e+003
4.827689e+002, 1.780267e+003
4.832510e+002, 1.772833e+003
4.837331e+002, 1.768264e+003
4.842152e+002, 1.765189e+003
4.846973e+002, 1.763278e+003
4.851794e+002, 1.762732e+003
4.856616e+002, 1.762165e+003
4.861437e+002, 1.760787e+003
4.866258e+002, 1.759763e+003
4.871079e+002, 1.759984e+003
4.875900e+002, 1.761739e+003
4.880721e+002, 1.764267e+003
4.885543e+002, 1.767825e+003
4.890364e+002, 1.771964e+003
4.895185e+002, 1.775456e+003
4.900006e+002, 1.778253e+003
4.904827e+002, 1.780328e+003
4.909648e+002, 1.781311e+003
4.914470e+002, 1.781275e+003
4.919291e+002, 1.782275e+003
4.924112e+002, 1.784566e+003
4.928933e+002, 1.786630e+003
4.933754e+002, 1.786955e+003
4.938575e+002, 1.785753e+003
4.943397e+002, 1.783822e+003
4.948218e+002, 1.781306e+003
4.953039e+002, 1.778290e+003
4.957860e+002, 1.774529e+003
4.962681e+002, 1.770313e+003
4.967502e+002, 1.766597e+003
4.972324e+002, 1.763519e+003
4.977145e+002, 1.761381e+003
4.981966e+002, 1.760877e+003
4.986787e+002, 1.762025e+003
4.991608e+002, 1.762901e+003
4.996429e+002, 1.761897e+003
5.001251e+002, 1.760440e+003
5.006072e+002, 1.759781e+003
5.010893e+002, 1.760744e+003
5.015714e+002, 1.761724e+003
5.020535e+002, 1.762611e+003
5.025356e+002, 1.763245e+003
5.030178e+002, 1.763281e+003
5.034999e+002, 1.761350e+003
5.039820e+002, 1.760334e+003
5.044641e+002, 1.761538e+003
5.049462e+002, 1.765142e+003
5.054283e+002, 1.766548e+003
5.059105e+002, 1.764397e+003
5.063926e+002, 1.762213e+003
5.068747e+002, 1.763098e+003
5.073568e+002, 1.767696e+003
5.078389e+002, 1.770862e+003
5.083210e+002, 1.771649e+003
5.088032e+002, 1.771590e+003
5.092853e+002, 1.773470e+003
5.097674e+002, 1.777174e+003
5.102495e+002, 1.780913e+003
5.107316e+002, 1.783857e+003
5.112137e+002, 1.786380e+003
5.116959e+002, 1.789585e+003
5.121780e+002, 1.793341e+003
5.126601e+002, 1.796587e+003
5.131422e+002, 1.797589e+003
5.136243e+002, 1.797971e+003
5.141064e+002, 1.800069e+003
5.145886e+002, 1.804756e+003
5.150707e+002, 1.809475e+003
5.155528e+002, 1.811961e+003
5.160349e+002, 1.813671e+003
5.165170e+002, 1.816741e+003
5.169991e+002, 1.821688e+003
5.174813e+002, 1.828317e+003
5.179634e+002, 1.837531e+003
5.184455e+002, 1.848931e+003
5.189276e+002, 1.859246e+003
5.194097e+002, 1.866025e+003
5.198918e+002, 1.873427e+003
5.203740e+002, 1.883181e+003
5.208561e+002, 1.896209e+003
5.213382e+002, 1.908667e+003
5.218203e+002, 1.920357e+003
5.223024e+002, 1.931650e+003
5.227845e+002, 1.943547e+003
5.232667e+002, 1.956504e+003
5.237488e+002, 1.967396e+003
5.242309e+002, 1.975621e+003
5.247130e+002, 1.981227e+003
5.251951e+002, 1.984798e+003
5.256772e+002, 1.986300e+003
5.261594e+002, 1.984318e+003
5.266415e+002, 1.975812e+003
5.271236e+002, 1.963659e+003
5.276057e+002, 1.953853e+003
5.280878e+002, 1.946629e+003
5.285699e+002, 1.942087e+003
5.290521e+002, 1.940966e+003
5.295342e+002, 1.942457e+003
5.300163e+002, 1.945770e+003
5.304984e+002, 1.951701e+003
5.309805e+002, 1.957544e+003
5.314626e+002, 1.960942e+003
5.319448e+002, 1.963231e+003
5.324269e+002, 1.966983e+003
5.329090e+002, 1.973382e+003
5.333911e+002, 1.980917e+003
5.338732e+002, 1.989858e+003
5.343553e+002, 2.000170e+003
5.348375e+002, 2.008641e+003
5.353196e+002, 2.012947e+003
5.358017e+002, 2.017496e+003
5.362838e+002, 2.024239e+003
5.367659e+002, 2.032307e+003
5.372480e+002, 2.045153e+003
5.377302e+002, 2.062887e+003
5.382123e+002, 2.085192e+003
5.386944e+002, 2.111874e+003
5.391765e+002, 2.143370e+003
5.396586e+002, 2.176542e+003
5.401407e+002, 2.210307e+003
5.406229e+002, 2.245087e+003
5.411050e+002, 2.281035e+003
5.415871e+002, 2.318089e+003
5.420692e+002, 2.355175e+003
5.425513e+002, 2.393086e+003
5.430334e+002, 2.430640e+003
5.435156e+002, 2.469261e+003
5.439977e+002, 2.509684e+003
5.444798e+002, 2.537932e+003
5.449619e+002, 2.549761e+003
5.454440e+002, 2.541333e+003
5.459261e+002, 2.507489e+003
5.464083e+002, 2.435266e+003
5.468904e+002, 2.354219e+003
5.473725e+002, 2.265833e+003
5.478546e+002, 2.176657e+003
5.483367e+002, 2.098792e+003
5.488188e+002, 2.034287e+003
5.493010e+002, 1.981358e+003
5.497831e+002, 1.940867e+003
5.502652e+002, 1.912702e+003
5.507473e+002, 1.889923e+003
5.512294e+002, 1.873637e+003
5.517115e+002, 1.860845e+003
5.521937e+002, 1.849668e+003
5.526758e+002, 1.840074e+003
5.531579e+002, 1.833000e+003
5.536400e+002, 1.828980e+003
5.541221e+002, 1.826225e+003
5.546042e+002, 1.821805e+003
5.550864e+002, 1.816226e+003
5.555685e+002, 1.812771e+003
5.560506e+002, 1.813383e+003
5.565327e+002, 1.815389e+003
5.570148e+002, 1.814792e+003
5.574969e+002, 1.812205e+003
5.579791e+002, 1.809976e+003
5.584612e+002, 1.809952e+003
5.589433e+002, 1.810464e+003
5.594254e+002, 1.810109e+003
5.599075e+002, 1.808763e+003
5.603896e+002, 1.807403e+003
5.608718e+002, 1.806046e+003
5.613539e+002, 1.805072e+003
5.618360e+002, 1.804822e+003
5.623181e+002, 1.806332e+003
5.628002e+002, 1.807100e+003
5.632823e+002, 1.806706e+003
5.637645e+002, 1.805694e+003
5.642466e+002, 1.804819e+003
5.647287e+002, 1.803997e+003
5.652108e+002, 1.803629e+003
5.656929e+002, 1.803993e+003
5.661750e+002, 1.804871e+003
5.666572e+002, 1.805066e+003
5.671393e+002, 1.804412e+003
5.676214e+002, 1.804213e+003
5.681035e+002, 1.805561e+003
5.685856e+002, 1.808012e+003
5.690677e+002, 1.809681e+003
5.695499e+002, 1.810393e+003
5.700320e+002, 1.811604e+003
5.705141e+002, 1.816017e+003
5.709962e+002, 1.821484e+003
5.714783e+002, 1.824305e+003
5.719604e+002, 1.822674e+003
5.724426e+002, 1.820152e+003
5.729247e+002, 1.818357e+003
5.734068e+002, 1.817369e+003
5.738889e+002, 1.817283e+003
5.743710e+002, 1.818903e+003
5.748531e+002, 1.820713e+003
5.753353e+002, 1.822429e+003
5.758174e+002, 1.824009e+003
5.762995e+002, 1.825050e+003
5.767816e+002, 1.825082e+003
5.772637e+002, 1.825122e+003
5.777458e+002, 1.825461e+003
5.782280e+002, 1.825938e+003
5.787101e+002, 1.827778e+003
5.791922e+002, 1.831410e+003
5.796743e+002, 1.835453e+003
5.801564e+002, 1.838508e+003
5.806385e+002, 1.840594e+003
5.811207e+002, 1.842171e+003
5.816028e+002, 1.843027e+003
5.820849e+002, 1.844021e+003
5.825670e+002, 1.846518e+003
5.830491e+002, 1.850234e+003
5.835313e+002, 1.854414e+003
5.840134e+002, 1.858741e+003
5.844955e+002, 1.863290e+003
5.849776e+002, 1.867900e+003
5.854597e+002, 1.872693e+003
5.859418e+002, 1.878337e+003
5.864240e+002, 1.887847e+003
5.869061e+002, 1.896189e+003
5.873882e+002, 1.899442e+003
5.878703e+002, 1.894888e+003
5.883524e+002, 1.894214e+003
5.888345e+002, 1.901787e+003
5.893167e+002, 1.911826e+003
5.897988e+002, 1.920049e+003
5.902809e+002, 1.926207e+003
5.907630e+002, 1.931119e+003
5.912451e+002, 1.934809e+003
5.917272e+002, 1.937380e+003
5.922094e+002, 1.938868e+003
5.926915e+002, 1.939222e+003
5.931736e+002, 1.939139e+003
5.936557e+002, 1.938567e+003
5.941378e+002, 1.937914e+003
5.946199e+002, 1.937903e+003
5.951021e+002, 1.938594e+003
5.955842e+002, 1.940444e+003
5.960663e+002, 1.943072e+003
5.965484e+002, 1.947380e+003
5.970305e+002, 1.954354e+003
5.975126e+002, 1.964070e+003
5.979948e+002, 1.976493e+003
5.984769e+002, 1.993424e+003
5.989590e+002, 2.011873e+003
5.994411e+002, 2.029353e+003
5.999232e+002, 2.044379e+003
6.004053e+002, 2.060159e+003
6.008875e+002, 2.077459e+003
6.013696e+002, 2.095570e+003
6.018517e+002, 2.113433e+003
6.023338e+002, 2.130584e+003
6.028159e+002, 2.148453e+003
6.032980e+002, 2.168961e+003
6.037802e+002, 2.189938e+003
6.042623e+002, 2.205767e+003
6.047444e+002, 2.216920e+003
6.052265e+002, 2.217802e+003
6.057086e+002, 2.203490e+003
6.061907e+002, 2.176452e+003
6.066729e+002, 2.142506e+003
6.071550e+002, 2.101933e+003
6.076371e+002, 2.062252e+003
6.081192e+002, 2.028510e+003
6.086013e+002, 2.000028e+003
6.090834e+002, 1.976873e+003
6.095656e+002, 1.959207e+003
6.100477e+002, 1.945096e+003
6.105298e+002, 1.933145e+003
6.110119e+002, 1.924321e+003
6.114940e+002, 1.919599e+003
6.119761e+002, 1.922200e+003
6.124583e+002, 1.925558e+003
6.129404e+002, 1.929170e+003
6.134225e+002, 1.932899e+003
6.139046e+002, 1.936437e+003
6.143867e+002, 1.939297e+003
6.148688e+002, 1.942899e+003
6.153510e+002, 1.947642e+003
6.158331e+002, 1.953473e+003
6.163152e+002, 1.959959e+003
6.167973e+002, 1.966936e+003
6.172794e+002, 1.975520e+003
6.177615e+002, 1.986428e+003
6.182437e+002, 1.999352e+003
6.187258e+002, 2.013751e+003
6.192079e+002, 2.029673e+003
6.196900e+002, 2.047092e+003
6.201721e+002, 2.066689e+003
6.206542e+002, 2.087497e+003
6.211364e+002, 2.108297e+003
6.216185e+002, 2.129225e+003
6.221006e+002, 2.149787e+003
6.225827e+002, 2.170066e+003
6.230648e+002, 2.190013e+003
6.235469e+002, 2.209558e+003
6.240291e+002, 2.228288e+003
6.245112e+002, 2.247352e+003
6.249933e+002, 2.269080e+003
6.254754e+002, 2.291308e+003
6.259575e+002, 2.307056e+003
6.264396e+002, 2.317662e+003
6.269218e+002, 2.318569e+003
6.274039e+002, 2.308366e+003
6.278860e+002, 2.287061e+003
6.283681e+002, 2.251657e+003
6.288502e+002, 2.201715e+003
6.293323e+002, 2.149116e+003
6.298145e+002, 2.099632e+003
6.302966e+002, 2.054638e+003
6.307787e+002, 2.015609e+003
6.312608e+002, 1.982651e+003
6.317429e+002, 1.956064e+003
6.322250e+002, 1.937671e+003
6.327072e+002, 1.925075e+003
6.331893e+002, 1.915659e+003
6.336714e+002, 1.910655e+003
6.341535e+002, 1.905794e+003
6.346356e+002, 1.899252e+003
6.351177e+002, 1.892407e+003
6.355999e+002, 1.887385e+003
6.360820e+002, 1.885402e+003
6.365641e+002, 1.883271e+003
6.370462e+002, 1.880172e+003
6.375283e+002, 1.876664e+003
6.380104e+002, 1.874804e+003
6.384926e+002, 1.874855e+003
6.389747e+002, 1.874866e+003
6.394568e+002, 1.873953e+003
6.399389e+002, 1.872352e+003
6.404210e+002, 1.870637e+003
6.409031e+002, 1.868844e+003
6.413853e+002, 1.867518e+003
6.418674e+002, 1.867325e+003
6.423495e+002, 1.867700e+003
6.428316e+002, 1.867883e+003
6.433137e+002, 1.867737e+003
6.437958e+002, 1.868012e+003
6.442780e+002, 1.869367e+003
6.447601e+002, 1.871143e+003
6.452422e+002, 1.872761e+003
6.457243e+002, 1.874136e+003
6.462064e+002, 1.875295e+003
6.466885e+002, 1.876485e+003
6.471707e+002, 1.877290e+003
6.476528e+002, 1.877009e+003
6.481349e+002, 1.875202e+003
6.486170e+002, 1.873573e+003
6.490991e+002, 1.872224e+003
6.495812e+002, 1.871400e+003
6.500634e+002, 1.871857e+003
6.505455e+002, 1.873527e+003
6.510276e+002, 1.875370e+003
6.515097e+002, 1.877021e+003
6.519918e+002, 1.878521e+003
6.524739e+002, 1.880002e+003
6.529561e+002, 1.881417e+003
6.534382e+002, 1.882604e+003
6.539203e+002, 1.883709e+003
6.544024e+002, 1.884347e+003
6.548845e+002, 1.884033e+003
6.553666e+002, 1.882620e+003
6.558488e+002, 1.881539e+003
6.563309e+002, 1.881629e+003
6.568130e+002, 1.881757e+003
6.572951e+002, 1.881023e+003
6.577772e+002, 1.878261e+003
6.582593e+002, 1.878148e+003
6.587415e+002, 1.881943e+003
6.592236e+002, 1.886363e+003
6.597057e+002, 1.887002e+003
6.601878e+002, 1.883967e+003
6.606699e+002, 1.882534e+003
6.611520e+002, 1.884042e+003
6.616342e+002, 1.886538e+003
6.621163e+002, 1.887353e+003
6.625984e+002, 1.886932e+003
6.630805e+002, 1.886439e+003
6.635626e+002, 1.886208e+003
6.640447e+002, 1.886191e+003
6.645269e+002, 1.886587e+003
6.650090e+002, 1.887185e+003
6.654911e+002, 1.887390e+003
6.659732e+002, 1.886112e+003
6.664553e+002, 1.885316e+003
6.669374e+002, 1.886029e+003
6.674196e+002, 1.888138e+003
6.679017e+002, 1.889727e+003
6.683838e+002, 1.890433e+003
6.688659e+002, 1.891417e+003
6.693480e+002, 1.893912e+003
6.698301e+002, 1.897875e+003
6.703123e+002, 1.898303e+003
6.707944e+002, 1.894728e+003
6.712765e+002, 1.891215e+003
6.717586e+002, 1.892024e+003
6.722407e+002, 1.895434e+003
6.727228e+002, 1.897516e+003
6.732050e+002, 1.897590e+003
6.736871e+002, 1.897248e+003
6.741692e+002, 1.897058e+003
6.746513e+002, 1.897351e+003
6.751334e+002, 1.898585e+003
6.756155e+002, 1.901912e+003
6.760977e+002, 1.904577e+003
6.765798e+002, 1.905653e+003
6.770619e+002, 1.905749e+003
6.775440e+002, 1.905708e+003
6.780261e+002, 1.905346e+003
6.785082e+002, 1.905280e+003
6.789904e+002, 1.905654e+003
6.794725e+002, 1.906408e+003
6.799546e+002, 1.907538e+003
6.804367e+002, 1.909050e+003
6.809188e+002, 1.910340e+003
6.814009e+002, 1.911080e+003
6.818831e+002, 1.911503e+003
6.823652e+002, 1.911700e+003
6.828473e+002, 1.911838e+003
6.833294e+002, 1.912681e+003
6.838115e+002, 1.915094e+003
6.842936e+002, 1.918071e+003
6.847758e+002, 1.921228e+003
6.852579e+002, 1.924489e+003
6.857400e+002, 1.926978e+003
6.862221e+002, 1.927007e+003
6.867042e+002, 1.927398e+003
6.871863e+002, 1.929771e+003
6.876685e+002, 1.934756e+003
6.881506e+002, 1.938817e+003
6.886327e+002, 1.941555e+003
6.891148e+002, 1.944261e+003
6.895969e+002, 1.948315e+003
6.900790e+002, 1.953611e+003
6.905612e+002, 1.958242e+003
6.910433e+002, 1.961938e+003
6.915254e+002, 1.965164e+003
6.920075e+002, 1.968530e+003
6.924896e+002, 1.971697e+003
6.929717e+002, 1.973829e+003
6.934539e+002, 1.973814e+003
6.939360e+002, 1.974467e+003
6.944181e+002, 1.976607e+003
6.949002e+002, 1.980661e+003
6.953823e+002, 1.987326e+003
6.958644e+002, 1.997059e+003
6.963466e+002, 2.009165e+003
6.968287e+002, 2.024069e+003
6.973108e+002, 2.041163e+003
6.977929e+002, 2.058495e+003
6.982750e+002, 2.076074e+003
6.987571e+002, 2.094131e+003
6.992393e+002, 2.112964e+003
6.997214e+002, 2.132335e+003
7.002035e+002, 2.150927e+003
7.006856e+002, 2.168925e+003
7.011677e+002, 2.187214e+003
7.016498e+002, 2.205342e+003
7.021320e+002, 2.224615e+003
7.026141e+002, 2.245121e+003
7.030962e+002, 2.267480e+003
7.035783e+002, 2.295563e+003
7.040604e+002, 2.331785e+003
7.045425e+002, 2.374067e+003
7.050247e+002, 2.421258e+003
7.055068e+002, 2.473922e+003
7.059889e+002, 2.529466e+003
7.064710e+002, 2.587837e+003
7.069531e+002, 2.649209e+003
7.074352e+002, 2.713577e+003
7.079174e+002, 2.780814e+003
7.083995e+002, 2.848749e+003
7.088816e+002, 2.916913e+003
7.093637e+002, 2.987878e+003
7.098458e+002, 3.068339e+003
7.103279e+002, 3.153143e+003
7.108101e+002, 3.238130e+003
7.112922e+002, 3.328952e+003
7.117743e+002, 3.388197e+003
7.122564e+002, 3.397132e+003
7.127385e+002, 3.355090e+003
7.132206e+002, 3.259312e+003
7.137028e+002, 3.070753e+003
7.141849e+002, 2.882612e+003
7.146670e+002, 2.699633e+003
7.151491e+002, 2.533018e+003
7.156312e+002, 2.397974e+003
7.161133e+002, 2.300007e+003
7.165955e+002, 2.222145e+003
7.170776e+002, 2.164748e+003
7.175597e+002, 2.123155e+003
7.180418e+002, 2.090753e+003
7.185239e+002, 2.066901e+003
7.190060e+002, 2.048277e+003
7.194882e+002, 2.034522e+003
7.199703e+002, 2.024217e+003
7.204524e+002, 2.016401e+003
7.209345e+002, 2.010600e+003
7.214166e+002, 2.005216e+003
7.218987e+002, 1.999334e+003
7.223809e+002, 1.993897e+003
7.228630e+002, 1.989517e+003
7.233451e+002, 1.986141e+003
7.238272e+002, 1.983124e+003
7.243093e+002, 1.980405e+003
7.247914e+002, 1.978152e+003
7.252736e+002, 1.976492e+003
7.257557e+002, 1.975426e+003
7.262378e+002, 1.974828e+003
7.267199e+002, 1.974761e+003
7.272020e+002, 1.974810e+003
7.276841e+002, 1.975005e+003
7.281663e+002, 1.975074e+003
7.286484e+002, 1.974078e+003
7.291305e+002, 1.972056e+003
7.296126e+002, 1.970401e+003
7.300947e+002, 1.970125e+003
7.305768e+002, 1.970550e+003
7.310590e+002, 1.971116e+003
7.315411e+002, 1.971689e+003
7.320232e+002, 1.972643e+003
7.325053e+002, 1.973915e+003
7.329874e+002, 1.975642e+003
7.334695e+002, 1.978075e+003
7.339517e+002, 1.981597e+003
7.344338e+002, 1.984322e+003
7.349159e+002, 1.986175e+003
7.353980e+002, 1.987436e+003
7.358801e+002, 1.987644e+003
7.363622e+002, 1.987376e+003
7.368444e+002, 1.989373e+003
7.373265e+002, 1.994407e+003
7.378086e+002, 2.000072e+003
7.382907e+002, 2.005162e+003
7.387728e+002, 2.009127e+003
7.392549e+002, 2.011139e+003
7.397371e+002, 2.010331e+003
7.402192e+002, 2.008740e+003
7.407013e+002, 2.006612e+003
7.411834e+002, 2.004146e+003
7.416655e+002, 2.001612e+003
7.421476e+002, 1.999216e+003
7.426298e+002, 1.996155e+003
7.431119e+002, 1.991918e+003
7.435940e+002, 1.987451e+003
7.440761e+002, 1.984427e+003
7.445582e+002, 1.982776e+003
7.450403e+002, 1.981895e+003
7.455225e+002, 1.981831e+003
7.460046e+002, 1.981982e+003
7.464867e+002, 1.981517e+003
7.469688e+002, 1.980683e+003
7.474509e+002, 1.980041e+003
7.479330e+002, 1.980291e+003
7.484152e+002, 1.980276e+003
7.488973e+002, 1.979445e+003
7.493794e+002, 1.977990e+003
7.498615e+002, 1.976562e+003
7.503436e+002, 1.974978e+003
7.508257e+002, 1.973885e+003
7.513079e+002, 1.973697e+003
7.517900e+002, 1.974079e+003
7.522721e+002, 1.973759e+003
7.527542e+002, 1.972760e+003
7.532363e+002, 1.971565e+003
7.537184e+002, 1.969940e+003
7.542006e+002, 1.968604e+003
7.546827e+002, 1.969416e+003
7.551648e+002, 1.971759e+003
7.556469e+002, 1.972999e+003
7.561290e+002, 1.970303e+003
7.566111e+002, 1.967495e+003
7.570933e+002, 1.966564e+003
7.575754e+002, 1.967552e+003
7.580575e+002, 1.969079e+003
7.585396e+002, 1.971709e+003
7.590217e+002, 1.973800e+003
7.595038e+002, 1.974528e+003
7.599860e+002, 1.974028e+003
7.604681e+002, 1.974034e+003
7.609502e+002, 1.974553e+003
7.614323e+002, 1.975377e+003
7.619144e+002, 1.976500e+003
7.623965e+002, 1.977776e+003
7.628787e+002, 1.979068e+003
7.633608e+002, 1.980332e+003
7.638429e+002, 1.981238e+003
7.643250e+002, 1.980768e+003
7.648071e+002, 1.980497e+003
7.652892e+002, 1.981844e+003
7.657714e+002, 1.985269e+003
7.662535e+002, 1.987546e+003
7.667356e+002, 1.988149e+003
7.672177e+002, 1.988079e+003
7.676998e+002, 1.987697e+003
7.681819e+002, 1.986957e+003
7.686641e+002, 1.987010e+003
7.691462e+002, 1.987983e+003
7.696283e+002, 1.988831e+003
7.701104e+002, 1.987856e+003
7.705925e+002, 1.986361e+003
7.710746e+002, 1.987301e+003
7.715568e+002, 1.991040e+003
7.720389e+002, 1.994521e+003
7.725210e+002, 1.995423e+003
7.730031e+002, 1.995548e+003
7.734852e+002, 1.996342e+003
7.739673e+002, 1.998275e+003
7.744495e+002, 1.999846e+003
7.749316e+002, 2.000676e+003
7.754137e+002, 2.001476e+003
7.758958e+002, 2.002871e+003
7.763779e+002, 2.004937e+003
7.768600e+002, 2.006753e+003
7.773422e+002, 2.008374e+003
7.778243e+002, 2.009343e+003
7.783064e+002, 2.008701e+003
7.787885e+002, 2.007234e+003
7.792706e+002, 2.006544e+003
7.797527e+002, 2.007059e+003
7.802349e+002, 2.007408e+003
7.807170e+002, 2.006869e+003
7.811991e+002, 2.005783e+003
7.816812e+002, 2.004385e+003
7.821633e+002, 2.002245e+003
7.826454e+002, 2.000856e+003
7.831276e+002, 2.000660e+003
7.836097e+002, 2.000703e+003
7.840918e+002, 1.999769e+003
7.845739e+002, 1.997820e+003
7.850560e+002, 1.997291e+003
7.855381e+002, 1.998670e+003
7.860203e+002, 2.000107e+003
7.865024e+002, 1.999113e+003
7.869845e+002, 1.996875e+003
7.874666e+002, 1.995248e+003
7.879487e+002, 1.994379e+003
7.884308e+002, 1.994996e+003
7.889130e+002, 1.998990e+003
7.893951e+002, 2.003807e+003
7.898772e+002, 2.006780e+003
7.903593e+002, 2.005905e+003
7.908414e+002, 2.006431e+003
7.913235e+002, 2.008811e+003
7.918057e+002, 2.011975e+003
7.922878e+002, 2.014664e+003
7.927699e+002, 2.016918e+003
7.932520e+002, 2.019258e+003
7.937341e+002, 2.021967e+003
7.942162e+002, 2.023817e+003
7.946984e+002, 2.022757e+003
7.951805e+002, 2.020182e+003
7.956626e+002, 2.018182e+003
7.961447e+002, 2.016906e+003
7.966268e+002, 2.017056e+003
7.971089e+002, 2.020406e+003
7.975911e+002, 2.024560e+003
7.980732e+002, 2.026716e+003
7.985553e+002, 2.025439e+003
7.990374e+002, 2.025759e+003
7.995195e+002, 2.028476e+003
8.000016e+002, 2.031896e+003
8.004838e+002, 2.033864e+003
8.009659e+002, 2.034608e+003
8.014480e+002, 2.035332e+003
8.019301e+002, 2.036192e+003
8.024122e+002, 2.037418e+003
8.028943e+002, 2.040330e+003
8.033765e+002, 2.043307e+003
8.038586e+002, 2.044024e+003
8.043407e+002, 2.039741e+003
8.048228e+002, 2.037095e+003
8.053049e+002, 2.038662e+003
8.057870e+002, 2.041768e+003
8.062692e+002, 2.043811e+003
8.067513e+002, 2.044427e+003
8.072334e+002, 2.045391e+003
8.077155e+002, 2.046965e+003
8.081976e+002, 2.048478e+003
8.086797e+002, 2.048671e+003
8.091619e+002, 2.048068e+003
8.096440e+002, 2.048152e+003
8.101261e+002, 2.049155e+003
8.106082e+002, 2.051181e+003
8.110903e+002, 2.055778e+003
8.115724e+002, 2.060738e+003
8.120546e+002, 2.063570e+003
8.125367e+002, 2.062096e+003
8.130188e+002, 2.061298e+003
8.135009e+002, 2.061619e+003
8.139830e+002, 2.062568e+003
8.144651e+002, 2.063858e+003
8.149473e+002, 2.065591e+003
8.154294e+002, 2.066637e+003
8.159115e+002, 2.067005e+003
8.163936e+002, 2.066246e+003
8.168757e+002, 2.061983e+003
8.173578e+002, 2.056744e+003
8.178400e+002, 2.055310e+003
8.183221e+002, 2.059745e+003
8.188042e+002, 2.064292e+003
8.192863e+002, 2.066198e+003
8.197684e+002, 2.066840e+003
8.202505e+002, 2.067596e+003
8.207327e+002, 2.069610e+003
8.212148e+002, 2.068983e+003
8.216969e+002, 2.064637e+003
8.221790e+002, 2.059461e+003
8.226611e+002, 2.056869e+003
8.231432e+002, 2.056353e+003
8.236254e+002, 2.054657e+003
8.241075e+002, 2.051194e+003
8.245896e+002, 2.048461e+003
8.250717e+002, 2.049724e+003
8.255538e+002, 2.052527e+003
8.260359e+002, 2.054167e+003
8.265181e+002, 2.054100e+003
8.270002e+002, 2.053208e+003
8.274823e+002, 2.050868e+003
8.279644e+002, 2.048517e+003
8.284465e+002, 2.047107e+003
8.289286e+002, 2.046869e+003
8.294108e+002, 2.046732e+003
8.298929e+002, 2.046673e+003
8.303750e+002, 2.047042e+003
8.308571e+002, 2.048875e+003
8.313392e+002, 2.051234e+003
8.318214e+002, 2.051761e+003
8.323035e+002, 2.050155e+003
8.327856e+002, 2.048656e+003
8.332677e+002, 2.048145e+003
8.337498e+002, 2.048630e+003
8.342319e+002, 2.050375e+003
8.347141e+002, 2.053875e+003
8.351962e+002, 2.056454e+003
8.356783e+002, 2.057901e+003
8.361604e+002, 2.058665e+003
8.366425e+002, 2.058781e+003
8.371246e+002, 2.058297e+003
8.376068e+002, 2.057973e+003
8.380889e+002, 2.057803e+003
8.385710e+002, 2.058577e+003
8.390531e+002, 2.062014e+003
8.395352e+002, 2.066044e+003
8.400173e+002, 2.068317e+003
8.404995e+002, 2.068721e+003
8.409816e+002, 2.068922e+003
8.414637e+002, 2.069043e+003
8.419458e+002, 2.069528e+003
8.424279e+002, 2.070540e+003
8.429100e+002, 2.072069e+003
8.433922e+002, 2.074160e+003
8.438743e+002, 2.076956e+003
8.443564e+002, 2.079407e+003
8.448385e+002, 2.080356e+003
8.453206e+002, 2.080634e+003
8.458027e+002, 2.082342e+003
8.462849e+002, 2.085260e+003
8.467670e+002, 2.088164e+003
8.472491e+002, 2.089999e+003
8.477312e+002, 2.091985e+003
8.482133e+002, 2.094734e+003
8.486954e+002, 2.098324e+003
8.491776e+002, 2.102719e+003
8.496597e+002, 2.108684e+003
8.501418e+002, 2.113915e+003
8.506239e+002, 2.116815e+003
8.511060e+002, 2.118854e+003
8.515881e+002, 2.125572e+003
8.520703e+002, 2.136491e+003
8.525524e+002, 2.147491e+003
8.530345e+002, 2.155406e+003
8.535166e+002, 2.163381e+003
8.539987e+002, 2.174935e+003
8.544808e+002, 2.188864e+003
8.549630e+002, 2.202193e+003
8.554451e+002, 2.213124e+003
8.559272e+002, 2.224248e+003
8.564093e+002, 2.236701e+003
8.568914e+002, 2.249257e+003
8.573735e+002, 2.259806e+003
8.578557e+002, 2.268346e+003
8.583378e+002, 2.275223e+003
8.588199e+002, 2.281159e+003
8.593020e+002, 2.284341e+003
8.597841e+002, 2.281608e+003
8.602662e+002, 2.274140e+003
8.607484e+002, 2.264229e+003
8.612305e+002, 2.250683e+003
8.617126e+002, 2.237887e+003
8.621947e+002, 2.227022e+003
8.626768e+002, 2.218246e+003
8.631589e+002, 2.211664e+003
8.636411e+002, 2.207334e+003
8.641232e+002, 2.204770e+003
8.646053e+002, 2.203641e+003
8.650874e+002, 2.204930e+003
8.655695e+002, 2.211284e+003
8.660516e+002, 2.221185e+003
8.665338e+002, 2.229822e+003
8.670159e+002, 2.236184e+003
8.674980e+002, 2.242175e+003
8.679801e+002, 2.249304e+003
8.684622e+002, 2.256719e+003
8.689443e+002, 2.263897e+003
8.694265e+002, 2.271845e+003
8.699086e+002, 2.277163e+003
8.703907e+002, 2.280871e+003
8.708728e+002, 2.280365e+003
8.713549e+002, 2.272627e+003
8.718370e+002, 2.258085e+003
8.723192e+002, 2.241572e+003
8.728013e+002, 2.223004e+003
8.732834e+002, 2.205594e+003
8.737655e+002, 2.192338e+003
8.742476e+002, 2.181228e+003
8.747297e+002, 2.170120e+003
8.752119e+002, 2.158665e+003
8.756940e+002, 2.148945e+003
8.761761e+002, 2.142341e+003
8.766582e+002, 2.136796e+003
8.771403e+002, 2.131575e+003
8.776224e+002, 2.126710e+003
8.781046e+002, 2.122784e+003
8.785867e+002, 2.119840e+003
8.790688e+002, 2.117295e+003
8.795509e+002, 2.114285e+003
8.800330e+002, 2.111873e+003
8.805151e+002, 2.112261e+003
8.809973e+002, 2.114787e+003
8.814794e+002, 2.116835e+003
8.819615e+002, 2.115904e+003
8.824436e+002, 2.115871e+003
8.829257e+002, 2.118469e+003
8.834078e+002, 2.123010e+003
8.838900e+002, 2.127913e+003
8.843721e+002, 2.133231e+003
8.848542e+002, 2.138879e+003
8.853363e+002, 2.145547e+003
8.858184e+002, 2.151317e+003
8.863005e+002, 2.152607e+003
8.867827e+002, 2.150257e+003
8.872648e+002, 2.146328e+003
8.877469e+002, 2.140340e+003
8.882290e+002, 2.134779e+003
8.887111e+002, 2.131028e+003
8.891932e+002, 2.128251e+003
8.896754e+002, 2.125027e+003
8.901575e+002, 2.120384e+003
8.906396e+002, 2.118085e+003
8.911217e+002, 2.119022e+003
8.916038e+002, 2.120994e+003
8.920859e+002, 2.120904e+003
8.925681e+002, 2.119605e+003
8.930502e+002, 2.119480e+003
8.935323e+002, 2.120823e+003
8.940144e+002, 2.124091e+003
8.944965e+002, 2.131742e+003
8.949786e+002, 2.140005e+003
8.954608e+002, 2.145339e+003
8.959429e+002, 2.146016e+003
8.964250e+002, 2.148867e+003
8.969071e+002, 2.154742e+003
8.973892e+002, 2.161000e+003
8.978713e+002, 2.165473e+003
8.983535e+002, 2.168631e+003
8.988356e+002, 2.173617e+003
8.993177e+002, 2.180259e+003
8.997998e+002, 2.185743e+003
9.002819e+002, 2.189352e+003
9.007640e+002, 2.190167e+003
9.012462e+002, 2.186516e+003
9.017283e+002, 2.178865e+003
9.022104e+002, 2.171705e+003
9.026925e+002, 2.166467e+003
9.031746e+002, 2.160295e+003
9.036567e+002, 2.151382e+003
9.041389e+002, 2.141470e+003
9.046210e+002, 2.136425e+003
9.051031e+002, 2.135819e+003
9.055852e+002, 2.135598e+003
9.060673e+002, 2.134007e+003
9.065494e+002, 2.132238e+003
9.070316e+002, 2.131096e+003
9.075137e+002, 2.130583e+003
9.079958e+002, 2.130707e+003
9.084779e+002, 2.132392e+003
9.089600e+002, 2.133397e+003
9.094421e+002, 2.133241e+003
9.099243e+002, 2.132629e+003
9.104064e+002, 2.132524e+003
9.108885e+002, 2.132898e+003
9.113706e+002, 2.133252e+003
9.118527e+002, 2.133525e+003
9.123348e+002, 2.133760e+003
9.128170e+002, 2.133662e+003
9.132991e+002, 2.133750e+003
9.137812e+002, 2.134956e+003
9.142633e+002, 2.138074e+003
9.147454e+002, 2.139499e+003
9.152275e+002, 2.137101e+003
9.157097e+002, 2.134844e+003
9.161918e+002, 2.135197e+003
9.166739e+002, 2.138114e+003
9.171560e+002, 2.140565e+003
9.176381e+002, 2.142523e+003
9.181202e+002, 2.144629e+003
9.186024e+002, 2.147397e+003
9.190845e+002, 2.150482e+003
9.195666e+002, 2.153615e+003
9.200487e+002, 2.156728e+003
9.205308e+002, 2.159724e+003
9.210129e+002, 2.161717e+003
9.214951e+002, 2.164639e+003
9.219772e+002, 2.169253e+003
9.224593e+002, 2.174990e+003
9.229414e+002, 2.180469e+003
9.234235e+002, 2.185613e+003
9.239056e+002, 2.189556e+003
9.243878e+002, 2.191604e+003
9.248699e+002, 2.193097e+003
9.253520e+002, 2.195208e+003
9.258341e+002, 2.197939e+003
9.263162e+002, 2.201318e+003
9.267983e+002, 2.205067e+003
9.272805e+002, 2.210007e+003
9.277626e+002, 2.216369e+003
9.282447e+002, 2.223833e+003
9.287268e+002, 2.231912e+003
9.292089e+002, 2.240595e+003
9.296910e+002, 2.251166e+003
9.301732e+002, 2.263757e+003
9.306553e+002, 2.277118e+003
9.311374e+002, 2.290160e+003
9.316195e+002, 2.303286e+003
9.321016e+002, 2.317595e+003
9.325837e+002, 2.333041e+003
9.330659e+002, 2.347466e+003
9.335480e+002, 2.362938e+003
9.340301e+002, 2.374014e+003
9.345122e+002, 2.378796e+003
9.349943e+002, 2.377205e+003
9.354764e+002, 2.367725e+003
9.359586e+002, 2.350300e+003
9.364407e+002, 2.330027e+003
9.369228e+002, 2.306967e+003
9.374049e+002, 2.284120e+003
9.378870e+002, 2.264108e+003
9.383691e+002, 2.246624e+003
9.388513e+002, 2.231477e+003
9.393334e+002, 2.218081e+003
9.398155e+002, 2.207804e+003
9.402976e+002, 2.201426e+003
9.407797e+002, 2.197699e+003
9.412618e+002, 2.195017e+003
9.417440e+002, 2.193422e+003
9.422261e+002, 2.193159e+003
9.427082e+002, 2.194450e+003
9.431903e+002, 2.196219e+003
9.436724e+002, 2.196990e+003
9.441545e+002, 2.197911e+003
9.446367e+002, 2.200360e+003
9.451188e+002, 2.204971e+003
9.456009e+002, 2.209131e+003
9.460830e+002, 2.212212e+003
9.465651e+002, 2.215253e+003
9.470472e+002, 2.218589e+003
9.475294e+002, 2.222317e+003
9.480115e+002, 2.227111e+003
9.484936e+002, 2.232957e+003
9.489757e+002, 2.239804e+003
9.494578e+002, 2.247504e+003
9.499399e+002, 2.256319e+003
9.504221e+002, 2.266972e+003
9.509042e+002, 2.279100e+003
9.513863e+002, 2.290941e+003
9.518684e+002, 2.302033e+003
9.523505e+002, 2.314071e+003
9.528326e+002, 2.328563e+003
9.533148e+002, 2.342738e+003
9.537969e+002, 2.352130e+003
9.542790e+002, 2.356746e+003
9.547611e+002, 2.356048e+003
9.552432e+002, 2.349300e+003
9.557253e+002, 2.339505e+003
9.562075e+002, 2.325605e+003
9.566896e+002, 2.311566e+003
9.571717e+002, 2.301281e+003
9.576538e+002, 2.295575e+003
9.581359e+002, 2.291685e+003
9.586180e+002, 2.289448e+003
9.591002e+002, 2.289268e+003
9.595823e+002, 2.292483e+003
9.600644e+002, 2.297797e+003
9.605465e+002, 2.300800e+003
9.610286e+002, 2.301801e+003
9.615107e+002, 2.303766e+003
9.619929e+002, 2.309896e+003
9.624750e+002, 2.315962e+003
9.629571e+002, 2.319238e+003
9.634392e+002, 2.320583e+003
9.639213e+002, 2.323913e+003
9.644034e+002, 2.330434e+003
9.648856e+002, 2.333902e+003
9.653677e+002, 2.332363e+003
9.658498e+002, 2.328000e+003
9.663319e+002, 2.321281e+003
9.668140e+002, 2.314929e+003
9.672961e+002, 2.315134e+003
9.677783e+002, 2.325131e+003
9.682604e+002, 2.337441e+003
9.687425e+002, 2.348681e+003
9.692246e+002, 2.361753e+003
9.697067e+002, 2.378681e+003
9.701888e+002, 2.398957e+003
9.706710e+002, 2.425260e+003
9.711531e+002, 2.457697e+003
9.716352e+002, 2.493016e+003
9.721173e+002, 2.529238e+003
9.725994e+002, 2.565948e+003
9.730815e+002, 2.604838e+003
9.735637e+002, 2.644665e+003
9.740458e+002, 2.679586e+003
9.745279e+002, 2.713837e+003
9.750100e+002, 2.734682e+003
9.754921e+002, 2.740050e+003
9.759742e+002, 2.730162e+003
9.764564e+002, 2.703385e+003
9.769385e+002, 2.660146e+003
9.774206e+002, 2.610394e+003
9.779027e+002, 2.554906e+003
9.783848e+002, 2.501270e+003
9.788669e+002, 2.455432e+003
9.793491e+002, 2.415974e+003
9.798312e+002, 2.380980e+003
9.803133e+002, 2.350357e+003
9.807954e+002, 2.324360e+003
9.812775e+002, 2.302722e+003
9.817596e+002, 2.285435e+003
9.822418e+002, 2.272983e+003
9.827239e+002, 2.264730e+003
9.832060e+002, 2.257841e+003
9.836881e+002, 2.252180e+003
9.841702e+002, 2.247051e+003
9.846523e+002, 2.242352e+003
9.851345e+002, 2.237666e+003
9.856166e+002, 2.231885e+003
9.860987e+002, 2.225842e+003
9.865808e+002, 2.222621e+003
9.870629e+002, 2.223578e+003
9.875450e+002, 2.222765e+003
9.880272e+002, 2.218400e+003
9.885093e+002, 2.213359e+003
9.889914e+002, 2.212485e+003
9.894735e+002, 2.214152e+003
9.899556e+002, 2.215026e+003
9.904377e+002, 2.214234e+003
9.909199e+002, 2.213398e+003
9.914020e+002, 2.213166e+003
9.918841e+002, 2.213175e+003
9.923662e+002, 2.212924e+003
9.928483e+002, 2.212364e+003
9.933304e+002, 2.213906e+003
9.938126e+002, 2.217667e+003
9.942947e+002, 2.221469e+003
9.947768e+002, 2.223709e+003
9.952589e+002, 2.225384e+003
9.957410e+002, 2.227737e+003
9.962231e+002, 2.230527e+003
9.967053e+002, 2.233127e+003
9.971874e+002, 2.235607e+003
9.976695e+002, 2.237390e+003
9.981516e+002, 2.238190e+003
9.986337e+002, 2.238472e+003
9.991158e+002, 2.239560e+003
9.995980e+002, 2.241035e+003
1.000080e+003, 2.239643e+003
1.000562e+003, 2.234655e+003
1.001044e+003, 2.229055e+003
1.001526e+003, 2.225175e+003
1.002009e+003, 2.221598e+003
1.002491e+003, 2.216555e+003
1.002973e+003, 2.209536e+003
1.003455e+003, 2.206476e+003
1.003937e+003, 2.208693e+003
1.004419e+003, 2.210749e+003
1.004901e+003, 2.209741e+003
1.005383e+003, 2.207349e+003
1.005865e+003, 2.207393e+003
1.006348e+003, 2.209138e+003
1.006830e+003, 2.210485e+003
1.007312e+003, 2.209813e+003
1.007794e+003, 2.209446e+003
1.008276e+003, 2.210274e+003
1.008758e+003, 2.211608e+003
1.009240e+003, 2.212604e+003
1.009722e+003, 2.213110e+003
1.010205e+003, 2.215046e+003
1.010687e+003, 2.218751e+003
1.011169e+003, 2.221872e+003
1.011651e+003, 2.220964e+003
1.012133e+003, 2.219328e+003
1.012615e+003, 2.221280e+003
1.013097e+003, 2.226820e+003
1.013579e+003, 2.230151e+003
1.014061e+003, 2.228947e+003
1.014544e+003, 2.227769e+003
1.015026e+003, 2.227631e+003
1.015508e+003, 2.228615e+003
1.015990e+003, 2.231732e+003
1.016472e+003, 2.236301e+003
1.016954e+003, 2.239412e+003
1.017436e+003, 2.239750e+003
1.017918e+003, 2.239593e+003
1.018401e+003, 2.240535e+003
1.018883e+003, 2.241573e+003
1.019365e+003, 2.241501e+003
1.019847e+003, 2.239772e+003
1.020329e+003, 2.239700e+003
1.020811e+003, 2.241477e+003
1.021293e+003, 2.243948e+003
1.021775e+003, 2.246392e+003
1.022257e+003, 2.248949e+003
1.022740e+003, 2.251891e+003
1.023222e+003, 2.255171e+003
1.023704e+003, 2.258599e+003
1.024186e+003, 2.261884e+003
1.024668e+003, 2.265569e+003
1.025150e+003, 2.269589e+003
1.025632e+003, 2.274140e+003
1.026114e+003, 2.279386e+003
1.026596e+003, 2.285313e+003
1.027079e+003, 2.293152e+003
1.027561e+003, 2.303329e+003
1.028043e+003, 2.313331e+003
1.028525e+003, 2.321984e+003
1.029007e+003, 2.328975e+003
1.029489e+003, 2.334101e+003
1.029971e+003, 2.337317e+003
1.030453e+003, 2.337634e+003
1.030936e+003, 2.334390e+003
1.031418e+003, 2.330430e+003
1.031900e+003, 2.326602e+003
1.032382e+003, 2.323163e+003
1.032864e+003, 2.320029e+003
1.033346e+003, 2.317754e+003
1.033828e+003, 2.317746e+003
1.034310e+003, 2.320972e+003
1.034792e+003, 2.325802e+003
1.035275e+003, 2.332163e+003
1.035757e+003, 2.339702e+003
1.036239e+003, 2.348417e+003
1.036721e+003, 2.358253e+003
1.037203e+003, 2.369148e+003
1.037685e+003, 2.380934e+003
1.038167e+003, 2.391612e+003
1.038649e+003, 2.402059e+003
1.039132e+003, 2.408738e+003
1.039614e+003, 2.408276e+003
1.040096e+003, 2.401247e+003
1.040578e+003, 2.391526e+003
1.041060e+003, 2.378160e+003
1.041542e+003, 2.364789e+003
1.042024e+003, 2.351010e+003
1.042506e+003, 2.339421e+003
1.042989e+003, 2.335428e+003
1.043471e+003, 2.335999e+003
1.043953e+003, 2.334649e+003
1.044435e+003, 2.329735e+003
1.044917e+003, 2.325040e+003
1.045399e+003, 2.322218e+003
1.045881e+003, 2.319744e+003
1.046363e+003, 2.317058e+003
1.046845e+003, 2.314124e+003
1.047328e+003, 2.310493e+003
1.047810e+003, 2.306176e+003
1.048292e+003, 2.301785e+003
1.048774e+003, 2.297465e+003
1.049256e+003, 2.293386e+003
1.049738e+003, 2.289914e+003
1.050220e+003, 2.286688e+003
1.050702e+003, 2.283010e+003
1.051184e+003, 2.278139e+003
1.051667e+003, 2.274471e+003
1.052149e+003, 2.272129e+003
1.052631e+003, 2.270683e+003
1.053113e+003, 2.270054e+003
1.053595e+003, 2.269857e+003
1.054077e+003, 2.269249e+003
1.054559e+003, 2.268284e+003
1.055041e+003, 2.267638e+003
1.055523e+003, 2.267713e+003
1.056006e+003, 2.268062e+003
1.056488e+003, 2.268834e+003
1.056970e+003, 2.269605e+003
1.057452e+003, 2.269455e+003
1.057934e+003, 2.268469e+003
1.058416e+003, 2.267091e+003
1.058898e+003, 2.265294e+003
1.059380e+003, 2.263969e+003
1.059863e+003, 2.263983e+003
1.060345e+003, 2.264704e+003
1.060827e+003, 2.265581e+003
1.061309e+003, 2.266551e+003
1.061791e+003, 2.268205e+003
1.062273e+003, 2.270476e+003
1.062755e+003, 2.273804e+003
1.063237e+003, 2.279182e+003
1.063719e+003, 2.284546e+003
1.064202e+003, 2.286534e+003
1.064684e+003, 2.286190e+003
1.065166e+003, 2.285417e+003
1.065648e+003, 2.283387e+003
1.066130e+003, 2.283665e+003
1.066612e+003, 2.287774e+003
1.067094e+003, 2.292368e+003
1.067576e+003, 2.294002e+003
1.068059e+003, 2.293567e+003
1.068541e+003, 2.296782e+003
1.069023e+003, 2.303247e+003
1.069505e+003, 2.309011e+003
1.069987e+003, 2.310765e+003
1.070469e+003, 2.312188e+003
1.070951e+003, 2.315266e+003
1.071433e+003, 2.319238e+003
1.071916e+003, 2.322573e+003
1.072398e+003, 2.325139e+003
1.072880e+003, 2.327903e+003
1.073362e+003, 2.330910e+003
1.073844e+003, 2.334551e+003
1.074326e+003, 2.339918e+003
1.074808e+003, 2.345642e+003
1.075290e+003, 2.349960e+003
1.075772e+003, 2.352723e+003
1.076255e+003, 2.356945e+003
1.076737e+003, 2.364529e+003
1.077219e+003, 2.369500e+003
1.077701e+003, 2.369637e+003
1.078183e+003, 2.366435e+003
1.078665e+003, 2.361758e+003
1.079147e+003, 2.356204e+003
1.079629e+003, 2.351254e+003
1.080111e+003, 2.347504e+003
1.080594e+003, 2.343549e+003
1.081076e+003, 2.337828e+003
1.081558e+003, 2.332748e+003
1.082040e+003, 2.329842e+003
1.082522e+003, 2.328928e+003
1.083004e+003, 2.328912e+003
1.083486e+003, 2.329647e+003
1.083968e+003, 2.329857e+003
1.084450e+003, 2.327792e+003
1.084933e+003, 2.326120e+003
1.085415e+003, 2.327652e+003
1.085897e+003, 2.330208e+003
1.086379e+003, 2.330138e+003
1.086861e+003, 2.326440e+003
1.087343e+003, 2.324041e+003
1.087825e+003, 2.323262e+003
1.088307e+003, 2.323226e+003
1.088790e+003, 2.323356e+003
1.089272e+003, 2.323693e+003
1.089754e+003, 2.324033e+003
1.090236e+003, 2.324552e+003
1.090718e+003, 2.326229e+003
1.091200e+003, 2.330506e+003
1.091682e+003, 2.333441e+003
1.092164e+003, 2.333702e+003
1.092646e+003, 2.333567e+003
1.093129e+003, 2.337091e+003
1.093611e+003, 2.342865e+003
1.094093e+003, 2.347500e+003
1.094575e+003, 2.350416e+003
1.095057e+003, 2.352996e+003
1.095539e+003, 2.353450e+003
1.096021e+003, 2.356510e+003
1.096503e+003, 2.365292e+003
1.096986e+003, 2.377746e+003
1.097468e+003, 2.385694e+003
1.097950e+003, 2.389807e+003
1.098432e+003, 2.395444e+003
1.098914e+003, 2.404478e+003
1.099396e+003, 2.415188e+003
1.099878e+003, 2.427097e+003
1.100360e+003, 2.439618e+003
1.100843e+003, 2.452149e+003
1.101325e+003, 2.464694e+003
1.101807e+003, 2.477859e+003
1.102289e+003, 2.491738e+003
1.102771e+003, 2.505961e+003
1.103253e+003, 2.521888e+003
1.103735e+003, 2.536360e+003
1.104217e+003, 2.546954e+003
1.104699e+003, 2.552826e+003
1.105182e+003, 2.552298e+003
1.105664e+003, 2.544889e+003
1.106146e+003, 2.530407e+003
1.106628e+003, 2.506767e+003
1.107110e+003, 2.481407e+003
1.107592e+003, 2.459474e+003
1.108074e+003, 2.441029e+003
1.108556e+003, 2.425448e+003
1.109038e+003, 2.412702e+003
1.109521e+003, 2.402406e+003
1.110003e+003, 2.393574e+003
1.110485e+003, 2.388596e+003
1.110967e+003, 2.389110e+003
1.111449e+003, 2.391897e+003
1.111931e+003, 2.391832e+003
1.112413e+003, 2.389691e+003
1.112895e+003, 2.388611e+003
1.113377e+003, 2.388942e+003
1.113860e+003, 2.391583e+003
1.114342e+003, 2.398078e+003
1.114824e+003, 2.406145e+003
1.115306e+003, 2.414760e+003
1.115788e+003, 2.423774e+003
1.116270e+003, 2.433304e+003
1.116752e+003, 2.443376e+003
1.117234e+003, 2.451039e+003
1.117717e+003, 2.455707e+003
1.118199e+003, 2.457164e+003
1.118681e+003, 2.455125e+003
1.119163e+003, 2.449823e+003
1.119645e+003, 2.439964e+003
1.120127e+003, 2.425337e+003
1.120609e+003, 2.415074e+003
1.121091e+003, 2.409599e+003
1.121573e+003, 2.405751e+003
1.122056e+003, 2.402558e+003
1.122538e+003, 2.399712e+003
1.123020e+003, 2.395792e+003
1.123502e+003, 2.392233e+003
1.123984e+003, 2.391317e+003
1.124466e+003, 2.394479e+003
1.124948e+003, 2.398452e+003
1.125430e+003, 2.403237e+003
1.125913e+003, 2.408779e+003
1.126395e+003, 2.415491e+003
1.126877e+003, 2.422785e+003
1.127359e+003, 2.429483e+003
1.127841e+003, 2.435683e+003
1.128323e+003, 2.441523e+003
1.128805e+003, 2.448565e+003
1.129287e+003, 2.453004e+003
1.129770e+003, 2.454448e+003
1.130252e+003, 2.453347e+003
1.130734e+003, 2.449459e+003
1.131216e+003, 2.443372e+003
1.131698e+003, 2.437152e+003
1.132180e+003, 2.430890e+003
1.132662e+003, 2.424780e+003
1.133144e+003, 2.418362e+003
1.133626e+003, 2.412719e+003
1.134109e+003, 2.408198e+003
1.134591e+003, 2.404455e+003
1.135073e+003, 2.401016e+003
1.135555e+003, 2.397915e+003
1.136037e+003, 2.395399e+003
1.136519e+003, 2.393509e+003
1.137001e+003, 2.391833e+003
1.137483e+003, 2.390107e+003
1.137965e+003, 2.388531e+003
1.138448e+003, 2.387069e+003
1.138930e+003, 2.385928e+003
1.139412e+003, 2.385728e+003
1.139894e+003, 2.386509e+003
1.140376e+003, 2.388138e+003
1.140858e+003, 2.390547e+003
1.141340e+003, 2.394186e+003
1.141822e+003, 2.400595e+003
1.142304e+003, 2.407655e+003
1.142787e+003, 2.413346e+003
1.143269e+003, 2.417496e+003
1.143751e+003, 2.421970e+003
1.144233e+003, 2.426510e+003
1.144715e+003, 2.432882e+003
1.145197e+003, 2.442765e+003
1.145679e+003, 2.451755e+003
1.146161e+003, 2.453000e+003
1.146644e+003, 2.450227e+003
1.147126e+003, 2.448562e+003
1.147608e+003, 2.449796e+003
1.148090e+003, 2.447784e+003
1.148572e+003, 2.441762e+003
1.149054e+003, 2.434527e+003
1.149536e+003, 2.426775e+003
1.150018e+003, 2.419461e+003
1.150500e+003, 2.413902e+003
1.150983e+003, 2.410082e+003
1.151465e+003, 2.408006e+003
1.151947e+003, 2.408852e+003
1.152429e+003, 2.409067e+003
1.152911e+003, 2.408108e+003
1.153393e+003, 2.407165e+003
1.153875e+003, 2.406726e+003
1.154357e+003, 2.407049e+003
1.154840e+003, 2.409569e+003
1.155322e+003, 2.413537e+003
1.155804e+003, 2.416449e+003
1.156286e+003, 2.415475e+003
1.156768e+003, 2.416146e+003
1.157250e+003, 2.419886e+003
1.157732e+003, 2.424391e+003
1.158214e+003, 2.427074e+003
1.158697e+003, 2.428685e+003
1.159179e+003, 2.432360e+003
1.159661e+003, 2.438038e+003
1.160143e+003, 2.444800e+003
1.160625e+003, 2.452628e+003
1.161107e+003, 2.460922e+003
1.161589e+003, 2.469470e+003
1.162071e+003, 2.478359e+003
1.162553e+003, 2.488550e+003
1.163036e+003, 2.499467e+003
1.163518e+003, 2.507161e+003
1.164000e+003, 2.511486e+003
1.164482e+003, 2.514289e+003
1.164964e+003, 2.515535e+003
1.165446e+003, 2.516829e+003
1.165928e+003, 2.518644e+003
1.166410e+003, 2.521207e+003
1.166892e+003, 2.524857e+003
1.167375e+003, 2.529647e+003
1.167857e+003, 2.535487e+003
1.168339e+003, 2.542362e+003
1.168821e+003, 2.551094e+003
1.169303e+003, 2.561893e+003
1.169785e+003, 2.575121e+003
1.170267e+003, 2.593463e+003
1.170749e+003, 2.614098e+003
1.171231e+003, 2.629846e+003
1.171714e+003, 2.640762e+003
1.172196e+003, 2.646668e+003
1.172678e+003, 2.647016e+003
1.173160e+003, 2.645206e+003
1.173642e+003, 2.641275e+003
1.174124e+003, 2.638657e+003
1.174606e+003, 2.638733e+003
1.175088e+003, 2.642288e+003
1.175571e+003, 2.655086e+003
1.176053e+003, 2.677374e+003
1.176535e+003, 2.706392e+003
1.177017e+003, 2.741506e+003
1.177499e+003, 2.783727e+003
1.177981e+003, 2.838219e+003
1.178463e+003, 2.897272e+003
1.178945e+003, 2.957108e+003
1.179427e+003, 3.017074e+003
1.179910e+003, 3.064566e+003
1.180392e+003, 3.101240e+003
1.180874e+003, 3.111295e+003
1.181356e+003, 3.086173e+003
1.181838e+003, 3.038495e+003
1.182320e+003, 2.970650e+003
1.182802e+003, 2.894526e+003
1.183284e+003, 2.821359e+003
1.183767e+003, 2.751362e+003
1.184249e+003, 2.695648e+003
1.184731e+003, 2.654907e+003
1.185213e+003, 2.620659e+003
1.185695e+003, 2.588888e+003
1.186177e+003, 2.562203e+003
1.186659e+003, 2.545407e+003
1.187141e+003, 2.535035e+003
1.187624e+003, 2.526988e+003
1.188106e+003, 2.521570e+003
1.188588e+003, 2.514314e+003
1.189070e+003, 2.504603e+003
1.189552e+003, 2.497113e+003
1.190034e+003, 2.495423e+003
1.190516e+003, 2.496497e+003
1.190998e+003, 2.496705e+003
1.191480e+003, 2.496906e+003
1.191963e+003, 2.498614e+003
1.192445e+003, 2.502022e+003
1.192927e+003, 2.507093e+003
1.193409e+003, 2.514090e+003
1.193891e+003, 2.521449e+003
1.194373e+003, 2.527929e+003
1.194855e+003, 2.534286e+003
1.195337e+003, 2.540900e+003
1.195819e+003, 2.548272e+003
1.196302e+003, 2.557489e+003
1.196784e+003, 2.568815e+003
1.197266e+003, 2.581535e+003
1.197748e+003, 2.595454e+003
1.198230e+003, 2.611564e+003
1.198712e+003, 2.629642e+003
1.199194e+003, 2.650973e+003
1.199676e+003, 2.678735e+003
1.200158e+003, 2.710874e+003
1.200641e+003, 2.741873e+003
1.201123e+003, 2.772502e+003
1.201605e+003, 2.798250e+003
1.202087e+003, 2.819464e+003
1.202569e+003, 2.833559e+003
1.203051e+003, 2.838447e+003
1.203533e+003, 2.834491e+003
1.204015e+003, 2.818874e+003
1.204498e+003, 2.794617e+003
1.204980e+003, 2.771585e+003
1.205462e+003, 2.751962e+003
1.205944e+003, 2.730953e+003
1.206426e+003, 2.706925e+003
1.206908e+003, 2.685512e+003
1.207390e+003, 2.672481e+003
1.207872e+003, 2.665127e+003
1.208354e+003, 2.661989e+003
1.208837e+003, 2.661610e+003
1.209319e+003, 2.658423e+003
1.209801e+003, 2.651922e+003
1.210283e+003, 2.642460e+003
1.210765e+003, 2.629780e+003
1.211247e+003, 2.614700e+003
1.211729e+003, 2.596437e+003
1.212211e+003, 2.577109e+003
1.212694e+003, 2.559621e+003
1.213176e+003, 2.543820e+003
1.213658e+003, 2.528327e+003
1.214140e+003, 2.511809e+003
1.214622e+003, 2.499106e+003
1.215104e+003, 2.491280e+003
1.215586e+003, 2.486028e+003
1.216068e+003, 2.481743e+003
1.216551e+003, 2.477971e+003
1.217033e+003, 2.473732e+003
1.217515e+003, 2.469276e+003
1.217997e+003, 2.466936e+003
1.218479e+003, 2.467289e+003
1.218961e+003, 2.467823e+003
1.219443e+003, 2.468000e+003
1.219925e+003, 2.468714e+003
1.220407e+003, 2.471401e+003
1.220890e+003, 2.474834e+003
1.221372e+003, 2.477832e+003
1.221854e+003, 2.480177e+003
1.222336e+003, 2.481536e+003
1.222818e+003, 2.481105e+003
1.223300e+003, 2.482941e+003
1.223782e+003, 2.488081e+003
1.224264e+003, 2.494445e+003
1.224746e+003, 2.500396e+003
1.225229e+003, 2.505908e+003
1.225711e+003, 2.510888e+003
1.226193e+003, 2.515399e+003
1.226675e+003, 2.519944e+003
1.227157e+003, 2.524298e+003
1.227639e+003, 2.530073e+003
1.228121e+003, 2.537708e+003
1.228603e+003, 2.546462e+003
1.229085e+003, 2.554538e+003
1.229568e+003, 2.563992e+003
1.230050e+003, 2.577627e+003
1.230532e+003, 2.595117e+003
1.231014e+003, 2.610745e+003
1.231496e+003, 2.624137e+003
1.231978e+003, 2.639764e+003
1.232460e+003, 2.659162e+003
1.232942e+003, 2.678643e+003
1.233425e+003, 2.696118e+003
1.233907e+003, 2.711189e+003
1.234389e+003, 2.723244e+003
1.234871e+003, 2.732618e+003
1.235353e+003, 2.741149e+003
1.235835e+003, 2.748869e+003
1.236317e+003, 2.754083e+003
1.236799e+003, 2.756505e+003
1.237281e+003, 2.755538e+003
1.237764e+003, 2.750988e+003
1.238246e+003, 2.742553e+003
1.238728e+003, 2.729940e+003
1.239210e+003, 2.713359e+003
1.239692e+003, 2.690515e+003
1.240174e+003, 2.662079e+003
1.240656e+003, 2.636440e+003
1.241138e+003, 2.615919e+003
1.241621e+003, 2.597931e+003
1.242103e+003, 2.581463e+003
1.242585e+003, 2.566360e+003
1.243067e+003, 2.552017e+003
1.243549e+003, 2.539065e+003
1.244031e+003, 2.530772e+003
1.244513e+003, 2.526577e+003
1.244995e+003, 2.522271e+003
1.245478e+003, 2.516386e+003
1.245960e+003, 2.513023e+003
1.246442e+003, 2.517363e+003
1.246924e+003, 2.522043e+003
1.247406e+003, 2.522752e+003
1.247888e+003, 2.520954e+003
1.248370e+003, 2.521752e+003
1.248852e+003, 2.524151e+003
1.249334e+003, 2.523441e+003
1.249817e+003, 2.518105e+003
1.250299e+003, 2.512963e+003
1.250781e+003, 2.511368e+003
1.251263e+003, 2.509140e+003
1.251745e+003, 2.503961e+003
1.252227e+003, 2.497760e+003
1.252709e+003, 2.495750e+003
1.253191e+003, 2.496600e+003
1.253673e+003, 2.496382e+003
1.254156e+003, 2.494187e+003
1.254638e+003, 2.491814e+003
1.255120e+003, 2.489037e+003
1.255602e+003, 2.487340e+003
1.256084e+003, 2.487277e+003
1.256566e+003, 2.488506e+003
1.257048e+003, 2.490737e+003
1.257530e+003, 2.493616e+003
1.258012e+003, 2.496583e+003
1.258495e+003, 2.499615e+003
1.258977e+003, 2.501659e+003
1.259459e+003, 2.501902e+003
1.259941e+003, 2.502685e+003
1.260423e+003, 2.504767e+003
1.260905e+003, 2.507678e+003
1.261387e+003, 2.511309e+003
1.261869e+003, 2.514972e+003
1.262352e+003, 2.517542e+003
1.262834e+003, 2.518781e+003
1.263316e+003, 2.520491e+003
1.263798e+003, 2.522926e+003
1.264280e+003, 2.525231e+003
1.264762e+003, 2.526974e+003
1.265244e+003, 2.529077e+003
1.265726e+003, 2.532929e+003
1.266208e+003, 2.537624e+003
1.266691e+003, 2.541514e+003
1.267173e+003, 2.544719e+003
1.267655e+003, 2.552274e+003
1.268137e+003, 2.565023e+003
1.268619e+003, 2.575439e+003
1.269101e+003, 2.581420e+003
1.269583e+003, 2.584772e+003
1.270065e+003, 2.586763e+003
1.270548e+003, 2.587303e+003
1.271030e+003, 2.586032e+003
1.271512e+003, 2.583216e+003
1.271994e+003, 2.579068e+003
1.272476e+003, 2.573664e+003
1.272958e+003, 2.569539e+003
1.273440e+003, 2.567548e+003
1.273922e+003, 2.564964e+003
1.274405e+003, 2.558191e+003
1.274887e+003, 2.552003e+003
1.275369e+003, 2.549000e+003
1.275851e+003, 2.548688e+003
1.276333e+003, 2.550521e+003
1.276815e+003, 2.553929e+003
1.277297e+003, 2.555964e+003
1.277779e+003, 2.556009e+003
1.278261e+003, 2.555409e+003
1.278744e+003, 2.553548e+003
1.279226e+003, 2.552731e+003
1.279708e+003, 2.553686e+003
1.280190e+003, 2.556093e+003
1.280672e+003, 2.559674e+003
1.281154e+003, 2.564181e+003
1.281636e+003, 2.568850e+003
1.282118e+003, 2.573594e+003
1.282600e+003, 2.579735e+003
1.283083e+003, 2.589009e+003
1.283565e+003, 2.597281e+003
1.284047e+003, 2.603318e+003
1.284529e+003, 2.608765e+003
1.285011e+003, 2.617184e+003
1.285493e+003, 2.625965e+003
1.285975e+003, 2.631113e+003
1.286457e+003, 2.632304e+003
1.286939e+003, 2.631042e+003
1.287422e+003, 2.627685e+003
1.287904e+003, 2.622017e+003
1.288386e+003, 2.613617e+003
1.288868e+003, 2.604933e+003
1.289350e+003, 2.598753e+003
1.289832e+003, 2.593508e+003
1.290314e+003, 2.587207e+003
1.290796e+003, 2.580358e+003
1.291279e+003, 2.575379e+003
1.291761e+003, 2.572291e+003
1.292243e+003, 2.570651e+003
1.292725e+003, 2.570478e+003
1.293207e+003, 2.569968e+003
1.293689e+003, 2.566148e+003
1.294171e+003, 2.562948e+003
1.294653e+003, 2.563451e+003
1.295135e+003, 2.566191e+003
1.295618e+003, 2.569205e+003
1.296100e+003, 2.572435e+003
1.296582e+003, 2.575385e+003
1.297064e+003, 2.578273e+003
1.297546e+003, 2.581317e+003
1.298028e+003, 2.583819e+003
1.298510e+003, 2.586416e+003
1.298992e+003, 2.589221e+003
1.299475e+003, 2.592773e+003
1.299957e+003, 2.597845e+003
1.300439e+003, 2.604289e+003
1.300921e+003, 2.611705e+003
1.301403e+003, 2.619901e+003
1.301885e+003, 2.627903e+003
##END=



