##NAMES=Sincosite
##RRUFFID=R141155
##IDEAL CHEMISTRY=Ca(V^4+^O)_2_(P^5+^O_4_)_2_&#183;4H_2_O
##LOCALITY=Ross Hannibal mine, Lawrence County, South Dakota, USA
##OWNER=RRUFF
##SOURCE=Tom Loomis
##DESCRIPTION=Green platy crystals. Crystal exhibits a 2-fold rotation twin around [1 -1 0].
##STATUS=The identification of this mineral has been confirmed by single-crystal X-ray diffraction.
##URL=rruff.info/R141155
9.059570e+001, 5.338538e+002
9.107782e+001, 5.310312e+002
9.155994e+001, 5.300536e+002
9.204205e+001, 5.320192e+002
9.252417e+001, 5.350982e+002
9.300629e+001, 5.388503e+002
9.348840e+001, 5.402383e+002
9.397052e+001, 5.357103e+002
9.445264e+001, 5.240288e+002
9.493475e+001, 5.124637e+002
9.541687e+001, 5.010667e+002
9.589898e+001, 4.899548e+002
9.638110e+001, 4.794464e+002
9.686321e+001, 4.697584e+002
9.734533e+001, 4.606241e+002
9.782745e+001, 4.511948e+002
9.830956e+001, 4.430867e+002
9.879168e+001, 4.362820e+002
9.927380e+001, 4.304294e+002
9.975591e+001, 4.256781e+002
1.002380e+002, 4.217042e+002
1.007201e+002, 4.178261e+002
1.012023e+002, 4.136157e+002
1.016844e+002, 4.091480e+002
1.021665e+002, 4.048652e+002
1.026486e+002, 4.006613e+002
1.031307e+002, 3.966120e+002
1.036128e+002, 3.927836e+002
1.040950e+002, 3.891223e+002
1.045771e+002, 3.857111e+002
1.050592e+002, 3.823871e+002
1.055413e+002, 3.792298e+002
1.060234e+002, 3.764772e+002
1.065055e+002, 3.741234e+002
1.069877e+002, 3.722035e+002
1.074698e+002, 3.710451e+002
1.079519e+002, 3.718182e+002
1.084340e+002, 3.718228e+002
1.089161e+002, 3.698434e+002
1.093982e+002, 3.662230e+002
1.098804e+002, 3.618823e+002
1.103625e+002, 3.574350e+002
1.108446e+002, 3.527417e+002
1.113267e+002, 3.487683e+002
1.118088e+002, 3.456284e+002
1.122909e+002, 3.430114e+002
1.127731e+002, 3.408619e+002
1.132552e+002, 3.391403e+002
1.137373e+002, 3.377563e+002
1.142194e+002, 3.366120e+002
1.147015e+002, 3.358385e+002
1.151836e+002, 3.350840e+002
1.156658e+002, 3.344990e+002
1.161479e+002, 3.338641e+002
1.166300e+002, 3.330604e+002
1.171121e+002, 3.320617e+002
1.175942e+002, 3.307016e+002
1.180763e+002, 3.283282e+002
1.185584e+002, 3.240389e+002
1.190406e+002, 3.207397e+002
1.195227e+002, 3.202331e+002
1.200048e+002, 3.215257e+002
1.204869e+002, 3.217545e+002
1.209690e+002, 3.191915e+002
1.214511e+002, 3.151035e+002
1.219333e+002, 3.122292e+002
1.224154e+002, 3.108542e+002
1.228975e+002, 3.101844e+002
1.233796e+002, 3.097834e+002
1.238617e+002, 3.097117e+002
1.243438e+002, 3.093699e+002
1.248260e+002, 3.084887e+002
1.253081e+002, 3.071723e+002
1.257902e+002, 3.053180e+002
1.262723e+002, 3.026927e+002
1.267544e+002, 2.997726e+002
1.272365e+002, 2.977133e+002
1.277187e+002, 2.970010e+002
1.282008e+002, 2.963899e+002
1.286829e+002, 2.955844e+002
1.291650e+002, 2.946107e+002
1.296471e+002, 2.935016e+002
1.301292e+002, 2.922610e+002
1.306114e+002, 2.909005e+002
1.310935e+002, 2.895792e+002
1.315756e+002, 2.882645e+002
1.320577e+002, 2.870199e+002
1.325398e+002, 2.860155e+002
1.330219e+002, 2.851211e+002
1.335041e+002, 2.840128e+002
1.339862e+002, 2.823339e+002
1.344683e+002, 2.798844e+002
1.349504e+002, 2.782477e+002
1.354325e+002, 2.778446e+002
1.359146e+002, 2.777383e+002
1.363968e+002, 2.774478e+002
1.368789e+002, 2.769084e+002
1.373610e+002, 2.762873e+002
1.378431e+002, 2.757982e+002
1.383252e+002, 2.754904e+002
1.388073e+002, 2.750001e+002
1.392895e+002, 2.739813e+002
1.397716e+002, 2.728931e+002
1.402537e+002, 2.724616e+002
1.407358e+002, 2.730080e+002
1.412179e+002, 2.735812e+002
1.417000e+002, 2.726932e+002
1.421821e+002, 2.704871e+002
1.426643e+002, 2.684448e+002
1.431464e+002, 2.674081e+002
1.436285e+002, 2.670790e+002
1.441106e+002, 2.663361e+002
1.445927e+002, 2.647092e+002
1.450748e+002, 2.628388e+002
1.455570e+002, 2.611581e+002
1.460391e+002, 2.596869e+002
1.465212e+002, 2.586286e+002
1.470033e+002, 2.584564e+002
1.474854e+002, 2.593228e+002
1.479675e+002, 2.595710e+002
1.484497e+002, 2.582396e+002
1.489318e+002, 2.565763e+002
1.494139e+002, 2.552146e+002
1.498960e+002, 2.542953e+002
1.503781e+002, 2.535553e+002
1.508602e+002, 2.525826e+002
1.513424e+002, 2.511373e+002
1.518245e+002, 2.499802e+002
1.523066e+002, 2.492708e+002
1.527887e+002, 2.487610e+002
1.532708e+002, 2.482635e+002
1.537529e+002, 2.477097e+002
1.542351e+002, 2.471379e+002
1.547172e+002, 2.466514e+002
1.551993e+002, 2.465258e+002
1.556814e+002, 2.461422e+002
1.561635e+002, 2.453427e+002
1.566456e+002, 2.443116e+002
1.571278e+002, 2.432699e+002
1.576099e+002, 2.423278e+002
1.580920e+002, 2.414479e+002
1.585741e+002, 2.404680e+002
1.590562e+002, 2.391532e+002
1.595383e+002, 2.380079e+002
1.600205e+002, 2.372124e+002
1.605026e+002, 2.366854e+002
1.609847e+002, 2.362590e+002
1.614668e+002, 2.358774e+002
1.619489e+002, 2.355002e+002
1.624310e+002, 2.349839e+002
1.629131e+002, 2.342044e+002
1.633953e+002, 2.334187e+002
1.638774e+002, 2.327794e+002
1.643595e+002, 2.322760e+002
1.648416e+002, 2.318279e+002
1.653237e+002, 2.314840e+002
1.658058e+002, 2.311295e+002
1.662880e+002, 2.304978e+002
1.667701e+002, 2.292189e+002
1.672522e+002, 2.279181e+002
1.677343e+002, 2.274654e+002
1.682164e+002, 2.280643e+002
1.686985e+002, 2.285471e+002
1.691807e+002, 2.280421e+002
1.696628e+002, 2.270577e+002
1.701449e+002, 2.261691e+002
1.706270e+002, 2.255926e+002
1.711091e+002, 2.252446e+002
1.715912e+002, 2.249668e+002
1.720734e+002, 2.248545e+002
1.725555e+002, 2.246280e+002
1.730376e+002, 2.241423e+002
1.735197e+002, 2.235018e+002
1.740018e+002, 2.228358e+002
1.744839e+002, 2.221940e+002
1.749661e+002, 2.215944e+002
1.754482e+002, 2.211631e+002
1.759303e+002, 2.211075e+002
1.764124e+002, 2.209977e+002
1.768945e+002, 2.207281e+002
1.773766e+002, 2.203250e+002
1.778588e+002, 2.198251e+002
1.783409e+002, 2.192192e+002
1.788230e+002, 2.185032e+002
1.793051e+002, 2.180975e+002
1.797872e+002, 2.184524e+002
1.802693e+002, 2.186728e+002
1.807515e+002, 2.183834e+002
1.812336e+002, 2.177095e+002
1.817157e+002, 2.170411e+002
1.821978e+002, 2.167382e+002
1.826799e+002, 2.168745e+002
1.831620e+002, 2.166110e+002
1.836441e+002, 2.155401e+002
1.841263e+002, 2.145205e+002
1.846084e+002, 2.141303e+002
1.850905e+002, 2.142825e+002
1.855726e+002, 2.143314e+002
1.860547e+002, 2.135777e+002
1.865368e+002, 2.118516e+002
1.870190e+002, 2.110094e+002
1.875011e+002, 2.119286e+002
1.879832e+002, 2.130804e+002
1.884653e+002, 2.132418e+002
1.889474e+002, 2.123053e+002
1.894296e+002, 2.111456e+002
1.899117e+002, 2.105994e+002
1.903938e+002, 2.106618e+002
1.908759e+002, 2.106900e+002
1.913580e+002, 2.105565e+002
1.918401e+002, 2.103867e+002
1.923223e+002, 2.103807e+002
1.928044e+002, 2.106044e+002
1.932865e+002, 2.107602e+002
1.937686e+002, 2.103290e+002
1.942507e+002, 2.095236e+002
1.947328e+002, 2.090667e+002
1.952150e+002, 2.093788e+002
1.956971e+002, 2.101539e+002
1.961792e+002, 2.108621e+002
1.966613e+002, 2.115679e+002
1.971434e+002, 2.119480e+002
1.976255e+002, 2.115573e+002
1.981077e+002, 2.106520e+002
1.985898e+002, 2.098872e+002
1.990719e+002, 2.096884e+002
1.995540e+002, 2.099272e+002
2.000361e+002, 2.100442e+002
2.005182e+002, 2.099281e+002
2.010004e+002, 2.098275e+002
2.014825e+002, 2.098690e+002
2.019646e+002, 2.100275e+002
2.024467e+002, 2.102387e+002
2.029288e+002, 2.104761e+002
2.034109e+002, 2.107378e+002
2.038930e+002, 2.109816e+002
2.043752e+002, 2.112748e+002
2.048573e+002, 2.114695e+002
2.053394e+002, 2.114380e+002
2.058215e+002, 2.112569e+002
2.063036e+002, 2.111108e+002
2.067857e+002, 2.111829e+002
2.072679e+002, 2.114931e+002
2.077500e+002, 2.116346e+002
2.082321e+002, 2.113765e+002
2.087142e+002, 2.111511e+002
2.091963e+002, 2.110706e+002
2.096784e+002, 2.111384e+002
2.101606e+002, 2.113237e+002
2.106427e+002, 2.116194e+002
2.111248e+002, 2.120465e+002
2.116069e+002, 2.123746e+002
2.120890e+002, 2.126879e+002
2.125711e+002, 2.128381e+002
2.130533e+002, 2.127181e+002
2.135354e+002, 2.123662e+002
2.140175e+002, 2.118902e+002
2.144996e+002, 2.113577e+002
2.149817e+002, 2.107205e+002
2.154638e+002, 2.104054e+002
2.159460e+002, 2.106497e+002
2.164281e+002, 2.109284e+002
2.169102e+002, 2.109640e+002
2.173923e+002, 2.107730e+002
2.178744e+002, 2.105631e+002
2.183565e+002, 2.105473e+002
2.188387e+002, 2.107680e+002
2.193208e+002, 2.107172e+002
2.198029e+002, 2.101212e+002
2.202850e+002, 2.095088e+002
2.207671e+002, 2.092954e+002
2.212492e+002, 2.094478e+002
2.217314e+002, 2.095175e+002
2.222135e+002, 2.090478e+002
2.226956e+002, 2.080037e+002
2.231777e+002, 2.073908e+002
2.236598e+002, 2.075995e+002
2.241419e+002, 2.079466e+002
2.246240e+002, 2.078946e+002
2.251062e+002, 2.074261e+002
2.255883e+002, 2.068994e+002
2.260704e+002, 2.065787e+002
2.265525e+002, 2.064624e+002
2.270346e+002, 2.064120e+002
2.275167e+002, 2.064772e+002
2.279989e+002, 2.065706e+002
2.284810e+002, 2.066324e+002
2.289631e+002, 2.066616e+002
2.294452e+002, 2.066152e+002
2.299273e+002, 2.063457e+002
2.304094e+002, 2.059788e+002
2.308916e+002, 2.058649e+002
2.313737e+002, 2.062523e+002
2.318558e+002, 2.068135e+002
2.323379e+002, 2.072205e+002
2.328200e+002, 2.074741e+002
2.333021e+002, 2.075642e+002
2.337843e+002, 2.073766e+002
2.342664e+002, 2.070337e+002
2.347485e+002, 2.066988e+002
2.352306e+002, 2.063295e+002
2.357127e+002, 2.060558e+002
2.361948e+002, 2.060942e+002
2.366770e+002, 2.065081e+002
2.371591e+002, 2.069757e+002
2.376412e+002, 2.073746e+002
2.381233e+002, 2.077235e+002
2.386054e+002, 2.080558e+002
2.390875e+002, 2.084254e+002
2.395697e+002, 2.087197e+002
2.400518e+002, 2.086645e+002
2.405339e+002, 2.080811e+002
2.410160e+002, 2.077281e+002
2.414981e+002, 2.080659e+002
2.419802e+002, 2.086956e+002
2.424624e+002, 2.092601e+002
2.429445e+002, 2.096284e+002
2.434266e+002, 2.099109e+002
2.439087e+002, 2.103221e+002
2.443908e+002, 2.109473e+002
2.448729e+002, 2.114596e+002
2.453550e+002, 2.115004e+002
2.458372e+002, 2.115301e+002
2.463193e+002, 2.120046e+002
2.468014e+002, 2.130957e+002
2.472835e+002, 2.144712e+002
2.477656e+002, 2.155754e+002
2.482477e+002, 2.163005e+002
2.487299e+002, 2.169910e+002
2.492120e+002, 2.177634e+002
2.496941e+002, 2.184973e+002
2.501762e+002, 2.190432e+002
2.506583e+002, 2.193659e+002
2.511404e+002, 2.196428e+002
2.516226e+002, 2.201890e+002
2.521047e+002, 2.211227e+002
2.525868e+002, 2.220663e+002
2.530689e+002, 2.231135e+002
2.535510e+002, 2.240777e+002
2.540331e+002, 2.247713e+002
2.545153e+002, 2.251688e+002
2.549974e+002, 2.254693e+002
2.554795e+002, 2.260455e+002
2.559616e+002, 2.272831e+002
2.564437e+002, 2.279221e+002
2.569258e+002, 2.275349e+002
2.574080e+002, 2.269570e+002
2.578901e+002, 2.267793e+002
2.583722e+002, 2.270835e+002
2.588543e+002, 2.274976e+002
2.593364e+002, 2.275001e+002
2.598185e+002, 2.268711e+002
2.603007e+002, 2.263732e+002
2.607828e+002, 2.262581e+002
2.612649e+002, 2.260517e+002
2.617470e+002, 2.254993e+002
2.622291e+002, 2.245548e+002
2.627112e+002, 2.232829e+002
2.631934e+002, 2.216975e+002
2.636755e+002, 2.196102e+002
2.641576e+002, 2.179140e+002
2.646397e+002, 2.168130e+002
2.651218e+002, 2.158520e+002
2.656039e+002, 2.148671e+002
2.660861e+002, 2.138077e+002
2.665682e+002, 2.126236e+002
2.670503e+002, 2.112389e+002
2.675324e+002, 2.095967e+002
2.680145e+002, 2.081540e+002
2.684966e+002, 2.068880e+002
2.689788e+002, 2.057928e+002
2.694609e+002, 2.049355e+002
2.699430e+002, 2.042695e+002
2.704251e+002, 2.036483e+002
2.709072e+002, 2.029406e+002
2.713893e+002, 2.021428e+002
2.718715e+002, 2.015235e+002
2.723536e+002, 2.009781e+002
2.728357e+002, 2.006666e+002
2.733178e+002, 2.009487e+002
2.737999e+002, 2.015654e+002
2.742820e+002, 2.017955e+002
2.747642e+002, 2.010761e+002
2.752463e+002, 1.995206e+002
2.757284e+002, 1.985658e+002
2.762105e+002, 1.987014e+002
2.766926e+002, 1.987514e+002
2.771747e+002, 1.980964e+002
2.776568e+002, 1.970486e+002
2.781389e+002, 1.963738e+002
2.786211e+002, 1.965427e+002
2.791032e+002, 1.973183e+002
2.795853e+002, 1.976776e+002
2.800674e+002, 1.974051e+002
2.805495e+002, 1.970679e+002
2.810316e+002, 1.968587e+002
2.815138e+002, 1.966742e+002
2.819959e+002, 1.962890e+002
2.824780e+002, 1.955779e+002
2.829601e+002, 1.947053e+002
2.834422e+002, 1.941253e+002
2.839243e+002, 1.939861e+002
2.844065e+002, 1.938043e+002
2.848886e+002, 1.935237e+002
2.853707e+002, 1.931325e+002
2.858528e+002, 1.925675e+002
2.863349e+002, 1.917874e+002
2.868170e+002, 1.909496e+002
2.872992e+002, 1.903263e+002
2.877813e+002, 1.899711e+002
2.882634e+002, 1.896301e+002
2.887455e+002, 1.893484e+002
2.892276e+002, 1.890292e+002
2.897097e+002, 1.885047e+002
2.901919e+002, 1.877285e+002
2.906740e+002, 1.869189e+002
2.911561e+002, 1.863369e+002
2.916382e+002, 1.860097e+002
2.921203e+002, 1.857388e+002
2.926024e+002, 1.855182e+002
2.930846e+002, 1.853385e+002
2.935667e+002, 1.852755e+002
2.940488e+002, 1.853302e+002
2.945309e+002, 1.852174e+002
2.950130e+002, 1.845592e+002
2.954951e+002, 1.833563e+002
2.959773e+002, 1.825677e+002
2.964594e+002, 1.824866e+002
2.969415e+002, 1.826421e+002
2.974236e+002, 1.827532e+002
2.979057e+002, 1.827896e+002
2.983878e+002, 1.826872e+002
2.988700e+002, 1.823688e+002
2.993521e+002, 1.818569e+002
2.998342e+002, 1.813773e+002
3.003163e+002, 1.807734e+002
3.007984e+002, 1.803430e+002
3.012805e+002, 1.804285e+002
3.017627e+002, 1.809035e+002
3.022448e+002, 1.811868e+002
3.027269e+002, 1.809530e+002
3.032090e+002, 1.803249e+002
3.036911e+002, 1.797041e+002
3.041732e+002, 1.790397e+002
3.046554e+002, 1.784568e+002
3.051375e+002, 1.780458e+002
3.056196e+002, 1.777621e+002
3.061017e+002, 1.774843e+002
3.065838e+002, 1.771602e+002
3.070659e+002, 1.768372e+002
3.075481e+002, 1.766296e+002
3.080302e+002, 1.765719e+002
3.085123e+002, 1.764720e+002
3.089944e+002, 1.762194e+002
3.094765e+002, 1.758950e+002
3.099586e+002, 1.756199e+002
3.104408e+002, 1.754148e+002
3.109229e+002, 1.753124e+002
3.114050e+002, 1.754336e+002
3.118871e+002, 1.757932e+002
3.123692e+002, 1.759975e+002
3.128513e+002, 1.758201e+002
3.133335e+002, 1.755148e+002
3.138156e+002, 1.753697e+002
3.142977e+002, 1.754268e+002
3.147798e+002, 1.756092e+002
3.152619e+002, 1.759071e+002
3.157440e+002, 1.763035e+002
3.162262e+002, 1.765616e+002
3.167083e+002, 1.765773e+002
3.171904e+002, 1.765069e+002
3.176725e+002, 1.765381e+002
3.181546e+002, 1.766555e+002
3.186367e+002, 1.765845e+002
3.191188e+002, 1.760594e+002
3.196010e+002, 1.751961e+002
3.200831e+002, 1.745873e+002
3.205652e+002, 1.744039e+002
3.210473e+002, 1.742928e+002
3.215294e+002, 1.741446e+002
3.220115e+002, 1.739298e+002
3.224937e+002, 1.735082e+002
3.229758e+002, 1.727582e+002
3.234579e+002, 1.718304e+002
3.239400e+002, 1.711079e+002
3.244221e+002, 1.705581e+002
3.249042e+002, 1.702156e+002
3.253864e+002, 1.702977e+002
3.258685e+002, 1.705673e+002
3.263506e+002, 1.705335e+002
3.268327e+002, 1.700026e+002
3.273148e+002, 1.692757e+002
3.277969e+002, 1.688155e+002
3.282791e+002, 1.686440e+002
3.287612e+002, 1.685264e+002
3.292433e+002, 1.685266e+002
3.297254e+002, 1.685116e+002
3.302075e+002, 1.682483e+002
3.306896e+002, 1.676966e+002
3.311718e+002, 1.671890e+002
3.316539e+002, 1.670876e+002
3.321360e+002, 1.674333e+002
3.326181e+002, 1.676963e+002
3.331002e+002, 1.677563e+002
3.335823e+002, 1.678058e+002
3.340645e+002, 1.679990e+002
3.345466e+002, 1.683275e+002
3.350287e+002, 1.686849e+002
3.355108e+002, 1.690152e+002
3.359929e+002, 1.693069e+002
3.364750e+002, 1.695006e+002
3.369572e+002, 1.695826e+002
3.374393e+002, 1.695956e+002
3.379214e+002, 1.695682e+002
3.384035e+002, 1.694856e+002
3.388856e+002, 1.692875e+002
3.393677e+002, 1.689238e+002
3.398499e+002, 1.684796e+002
3.403320e+002, 1.681920e+002
3.408141e+002, 1.680756e+002
3.412962e+002, 1.680552e+002
3.417783e+002, 1.682788e+002
3.422604e+002, 1.685332e+002
3.427426e+002, 1.685368e+002
3.432247e+002, 1.682097e+002
3.437068e+002, 1.676638e+002
3.441889e+002, 1.670340e+002
3.446710e+002, 1.662733e+002
3.451531e+002, 1.655657e+002
3.456353e+002, 1.649674e+002
3.461174e+002, 1.643909e+002
3.465995e+002, 1.638049e+002
3.470816e+002, 1.631937e+002
3.475637e+002, 1.624933e+002
3.480458e+002, 1.616541e+002
3.485280e+002, 1.606669e+002
3.490101e+002, 1.595969e+002
3.494922e+002, 1.583546e+002
3.499743e+002, 1.571353e+002
3.504564e+002, 1.559724e+002
3.509385e+002, 1.549067e+002
3.514207e+002, 1.540549e+002
3.519028e+002, 1.535237e+002
3.523849e+002, 1.531869e+002
3.528670e+002, 1.524824e+002
3.533491e+002, 1.508004e+002
3.538312e+002, 1.495108e+002
3.543134e+002, 1.490990e+002
3.547955e+002, 1.490408e+002
3.552776e+002, 1.487667e+002
3.557597e+002, 1.480721e+002
3.562418e+002, 1.470410e+002
3.567239e+002, 1.457533e+002
3.572061e+002, 1.437392e+002
3.576882e+002, 1.424901e+002
3.581703e+002, 1.425849e+002
3.586524e+002, 1.429330e+002
3.591345e+002, 1.428000e+002
3.596166e+002, 1.421305e+002
3.600987e+002, 1.413006e+002
3.605808e+002, 1.406664e+002
3.610630e+002, 1.402467e+002
3.615451e+002, 1.398398e+002
3.620272e+002, 1.395890e+002
3.625093e+002, 1.392039e+002
3.629914e+002, 1.385155e+002
3.634735e+002, 1.376233e+002
3.639557e+002, 1.367047e+002
3.644378e+002, 1.358530e+002
3.649199e+002, 1.350943e+002
3.654020e+002, 1.345478e+002
3.658841e+002, 1.343994e+002
3.663662e+002, 1.342220e+002
3.668484e+002, 1.338966e+002
3.673305e+002, 1.335555e+002
3.678126e+002, 1.333331e+002
3.682947e+002, 1.332719e+002
3.687768e+002, 1.333089e+002
3.692589e+002, 1.334122e+002
3.697411e+002, 1.337648e+002
3.702232e+002, 1.336601e+002
3.707053e+002, 1.325253e+002
3.711874e+002, 1.314167e+002
3.716695e+002, 1.309399e+002
3.721516e+002, 1.310546e+002
3.726338e+002, 1.313039e+002
3.731159e+002, 1.313155e+002
3.735980e+002, 1.310943e+002
3.740801e+002, 1.307899e+002
3.745622e+002, 1.302451e+002
3.750443e+002, 1.298159e+002
3.755265e+002, 1.297413e+002
3.760086e+002, 1.298239e+002
3.764907e+002, 1.297119e+002
3.769728e+002, 1.291678e+002
3.774549e+002, 1.284902e+002
3.779370e+002, 1.284040e+002
3.784192e+002, 1.291410e+002
3.789013e+002, 1.298161e+002
3.793834e+002, 1.303584e+002
3.798655e+002, 1.306434e+002
3.803476e+002, 1.303782e+002
3.808297e+002, 1.295188e+002
3.813119e+002, 1.287352e+002
3.817940e+002, 1.288984e+002
3.822761e+002, 1.299818e+002
3.827582e+002, 1.305740e+002
3.832403e+002, 1.301121e+002
3.837224e+002, 1.295688e+002
3.842046e+002, 1.296607e+002
3.846867e+002, 1.302458e+002
3.851688e+002, 1.307938e+002
3.856509e+002, 1.311133e+002
3.861330e+002, 1.311797e+002
3.866151e+002, 1.307701e+002
3.870973e+002, 1.296640e+002
3.875794e+002, 1.288850e+002
3.880615e+002, 1.293752e+002
3.885436e+002, 1.304711e+002
3.890257e+002, 1.312453e+002
3.895078e+002, 1.314228e+002
3.899900e+002, 1.314293e+002
3.904721e+002, 1.316376e+002
3.909542e+002, 1.320196e+002
3.914363e+002, 1.323617e+002
3.919184e+002, 1.326299e+002
3.924005e+002, 1.327774e+002
3.928827e+002, 1.326890e+002
3.933648e+002, 1.323395e+002
3.938469e+002, 1.321044e+002
3.943290e+002, 1.322552e+002
3.948111e+002, 1.325726e+002
3.952932e+002, 1.326497e+002
3.957754e+002, 1.324034e+002
3.962575e+002, 1.322134e+002
3.967396e+002, 1.325025e+002
3.972217e+002, 1.332123e+002
3.977038e+002, 1.336147e+002
3.981859e+002, 1.334850e+002
3.986681e+002, 1.332139e+002
3.991501e+002, 1.330032e+002
3.996323e+002, 1.328587e+002
4.001144e+002, 1.327836e+002
4.005965e+002, 1.327951e+002
4.010786e+002, 1.328514e+002
4.015607e+002, 1.328318e+002
4.020428e+002, 1.327412e+002
4.025250e+002, 1.325812e+002
4.030071e+002, 1.322821e+002
4.034892e+002, 1.319442e+002
4.039713e+002, 1.317304e+002
4.044534e+002, 1.316655e+002
4.049355e+002, 1.315567e+002
4.054177e+002, 1.311513e+002
4.058998e+002, 1.303521e+002
4.063819e+002, 1.297584e+002
4.068640e+002, 1.294433e+002
4.073461e+002, 1.292364e+002
4.078282e+002, 1.291147e+002
4.083104e+002, 1.290331e+002
4.087925e+002, 1.289265e+002
4.092746e+002, 1.287607e+002
4.097567e+002, 1.285179e+002
4.102388e+002, 1.281113e+002
4.107209e+002, 1.273325e+002
4.112031e+002, 1.266568e+002
4.116852e+002, 1.261530e+002
4.121673e+002, 1.257503e+002
4.126494e+002, 1.253537e+002
4.131315e+002, 1.249488e+002
4.136136e+002, 1.246351e+002
4.140958e+002, 1.246375e+002
4.145779e+002, 1.251617e+002
4.150600e+002, 1.251695e+002
4.155421e+002, 1.239778e+002
4.160242e+002, 1.228957e+002
4.165063e+002, 1.225837e+002
4.169885e+002, 1.228021e+002
4.174706e+002, 1.228891e+002
4.179527e+002, 1.223594e+002
4.184348e+002, 1.214458e+002
4.189169e+002, 1.209895e+002
4.193990e+002, 1.212539e+002
4.198812e+002, 1.213972e+002
4.203633e+002, 1.210926e+002
4.208454e+002, 1.205953e+002
4.213275e+002, 1.201022e+002
4.218096e+002, 1.196582e+002
4.222917e+002, 1.192783e+002
4.227739e+002, 1.189982e+002
4.232560e+002, 1.188135e+002
4.237381e+002, 1.186247e+002
4.242202e+002, 1.184045e+002
4.247023e+002, 1.181946e+002
4.251844e+002, 1.180623e+002
4.256666e+002, 1.179744e+002
4.261487e+002, 1.178061e+002
4.266308e+002, 1.174785e+002
4.271129e+002, 1.170516e+002
4.275950e+002, 1.165770e+002
4.280771e+002, 1.160447e+002
4.285593e+002, 1.155996e+002
4.290414e+002, 1.153197e+002
4.295235e+002, 1.151895e+002
4.300056e+002, 1.151474e+002
4.304877e+002, 1.152318e+002
4.309698e+002, 1.153191e+002
4.314520e+002, 1.154593e+002
4.319341e+002, 1.155441e+002
4.324162e+002, 1.152592e+002
4.328983e+002, 1.144810e+002
4.333804e+002, 1.136700e+002
4.338625e+002, 1.134137e+002
4.343447e+002, 1.138124e+002
4.348268e+002, 1.139720e+002
4.353089e+002, 1.136492e+002
4.357910e+002, 1.132612e+002
4.362731e+002, 1.131028e+002
4.367552e+002, 1.131271e+002
4.372374e+002, 1.131183e+002
4.377195e+002, 1.129483e+002
4.382016e+002, 1.126577e+002
4.386837e+002, 1.124035e+002
4.391658e+002, 1.121311e+002
4.396479e+002, 1.119680e+002
4.401301e+002, 1.119243e+002
4.406122e+002, 1.119939e+002
4.410943e+002, 1.122704e+002
4.415764e+002, 1.127215e+002
4.420585e+002, 1.130858e+002
4.425406e+002, 1.130349e+002
4.430227e+002, 1.124986e+002
4.435049e+002, 1.120630e+002
4.439870e+002, 1.116420e+002
4.444691e+002, 1.114175e+002
4.449512e+002, 1.115658e+002
4.454333e+002, 1.119296e+002
4.459154e+002, 1.122771e+002
4.463976e+002, 1.124954e+002
4.468797e+002, 1.125943e+002
4.473618e+002, 1.125509e+002
4.478439e+002, 1.122608e+002
4.483260e+002, 1.121415e+002
4.488081e+002, 1.125297e+002
4.492903e+002, 1.129224e+002
4.497724e+002, 1.129225e+002
4.502545e+002, 1.125502e+002
4.507366e+002, 1.122222e+002
4.512187e+002, 1.123945e+002
4.517008e+002, 1.129023e+002
4.521830e+002, 1.129878e+002
4.526651e+002, 1.124837e+002
4.531472e+002, 1.119402e+002
4.536293e+002, 1.117730e+002
4.541114e+002, 1.117485e+002
4.545935e+002, 1.114965e+002
4.550757e+002, 1.108039e+002
4.555578e+002, 1.101360e+002
4.560399e+002, 1.100088e+002
4.565220e+002, 1.102747e+002
4.570041e+002, 1.102509e+002
4.574862e+002, 1.096729e+002
4.579684e+002, 1.088925e+002
4.584505e+002, 1.083487e+002
4.589326e+002, 1.080321e+002
4.594147e+002, 1.077784e+002
4.598968e+002, 1.076171e+002
4.603789e+002, 1.074679e+002
4.608611e+002, 1.072776e+002
4.613432e+002, 1.070388e+002
4.618253e+002, 1.067342e+002
4.623074e+002, 1.063375e+002
4.627895e+002, 1.058802e+002
4.632716e+002, 1.054829e+002
4.637538e+002, 1.052180e+002
4.642359e+002, 1.049147e+002
4.647180e+002, 1.044410e+002
4.652001e+002, 1.039778e+002
4.656822e+002, 1.037791e+002
4.661643e+002, 1.038577e+002
4.666465e+002, 1.039365e+002
4.671286e+002, 1.036952e+002
4.676107e+002, 1.030864e+002
4.680928e+002, 1.025904e+002
4.685749e+002, 1.022972e+002
4.690570e+002, 1.020215e+002
4.695392e+002, 1.016768e+002
4.700213e+002, 1.013295e+002
4.705034e+002, 1.011018e+002
4.709855e+002, 1.010514e+002
4.714676e+002, 1.010753e+002
4.719497e+002, 1.009912e+002
4.724319e+002, 1.007788e+002
4.729140e+002, 1.005491e+002
4.733961e+002, 1.002683e+002
4.738782e+002, 1.000198e+002
4.743603e+002, 9.988535e+001
4.748424e+002, 9.983765e+001
4.753246e+002, 9.975394e+001
4.758067e+002, 9.950141e+001
4.762888e+002, 9.918655e+001
4.767709e+002, 9.906468e+001
4.772530e+002, 9.916678e+001
4.777351e+002, 9.927832e+001
4.782173e+002, 9.937189e+001
4.786994e+002, 9.936874e+001
4.791815e+002, 9.911598e+001
4.796636e+002, 9.851714e+001
4.801457e+002, 9.800243e+001
4.806278e+002, 9.787739e+001
4.811100e+002, 9.795908e+001
4.815920e+002, 9.785676e+001
4.820742e+002, 9.748997e+001
4.825563e+002, 9.722343e+001
4.830384e+002, 9.746134e+001
4.835205e+002, 9.818639e+001
4.840026e+002, 9.852499e+001
4.844847e+002, 9.832043e+001
4.849669e+002, 9.792691e+001
4.854490e+002, 9.733938e+001
4.859311e+002, 9.668996e+001
4.864132e+002, 9.621562e+001
4.868953e+002, 9.600171e+001
4.873774e+002, 9.590617e+001
4.878596e+002, 9.567576e+001
4.883417e+002, 9.514443e+001
4.888238e+002, 9.494402e+001
4.893059e+002, 9.529975e+001
4.897880e+002, 9.571329e+001
4.902701e+002, 9.606370e+001
4.907523e+002, 9.627132e+001
4.912344e+002, 9.618446e+001
4.917165e+002, 9.566705e+001
4.921986e+002, 9.492382e+001
4.926807e+002, 9.455315e+001
4.931628e+002, 9.472395e+001
4.936450e+002, 9.480323e+001
4.941271e+002, 9.459019e+001
4.946092e+002, 9.429121e+001
4.950913e+002, 9.400835e+001
4.955734e+002, 9.376060e+001
4.960555e+002, 9.356358e+001
4.965377e+002, 9.343487e+001
4.970198e+002, 9.336610e+001
4.975019e+002, 9.326808e+001
4.979840e+002, 9.306992e+001
4.984661e+002, 9.321277e+001
4.989482e+002, 9.446463e+001
4.994304e+002, 9.600311e+001
4.999125e+002, 9.618090e+001
5.003946e+002, 9.436985e+001
5.008767e+002, 9.254185e+001
5.013588e+002, 9.170036e+001
5.018409e+002, 9.148605e+001
5.023231e+002, 9.126209e+001
5.028052e+002, 9.090017e+001
5.032873e+002, 9.058330e+001
5.037694e+002, 9.050636e+001
5.042515e+002, 9.068010e+001
5.047336e+002, 9.075298e+001
5.052158e+002, 9.071863e+001
5.056979e+002, 9.060421e+001
5.061800e+002, 9.036191e+001
5.066621e+002, 9.006272e+001
5.071442e+002, 8.979795e+001
5.076263e+002, 8.960275e+001
5.081085e+002, 8.948262e+001
5.085906e+002, 8.948064e+001
5.090727e+002, 8.969551e+001
5.095548e+002, 8.966899e+001
5.100369e+002, 8.911976e+001
5.105190e+002, 8.860930e+001
5.110012e+002, 8.838025e+001
5.114833e+002, 8.834167e+001
5.119654e+002, 8.829662e+001
5.124475e+002, 8.814558e+001
5.129296e+002, 8.794612e+001
5.134117e+002, 8.779632e+001
5.138939e+002, 8.769808e+001
5.143760e+002, 8.763241e+001
5.148581e+002, 8.760656e+001
5.153402e+002, 8.760286e+001
5.158223e+002, 8.765730e+001
5.163044e+002, 8.774411e+001
5.167866e+002, 8.769876e+001
5.172687e+002, 8.728960e+001
5.177508e+002, 8.680407e+001
5.182329e+002, 8.663235e+001
5.187150e+002, 8.676161e+001
5.191971e+002, 8.696093e+001
5.196793e+002, 8.717099e+001
5.201614e+002, 8.732780e+001
5.206435e+002, 8.723706e+001
5.211256e+002, 8.678226e+001
5.216077e+002, 8.647032e+001
5.220898e+002, 8.648557e+001
5.225720e+002, 8.660831e+001
5.230541e+002, 8.670566e+001
5.235362e+002, 8.673544e+001
5.240183e+002, 8.660966e+001
5.245004e+002, 8.623078e+001
5.249825e+002, 8.569143e+001
5.254647e+002, 8.548344e+001
5.259468e+002, 8.604833e+001
5.264289e+002, 8.631452e+001
5.269110e+002, 8.595601e+001
5.273931e+002, 8.544172e+001
5.278752e+002, 8.508135e+001
5.283574e+002, 8.495164e+001
5.288395e+002, 8.506082e+001
5.293216e+002, 8.554929e+001
5.298037e+002, 8.630444e+001
5.302858e+002, 8.658255e+001
5.307679e+002, 8.616644e+001
5.312501e+002, 8.577475e+001
5.317322e+002, 8.571056e+001
5.322143e+002, 8.583247e+001
5.326964e+002, 8.605190e+001
5.331785e+002, 8.638029e+001
5.336606e+002, 8.663360e+001
5.341428e+002, 8.664910e+001
5.346249e+002, 8.651260e+001
5.351070e+002, 8.638237e+001
5.355891e+002, 8.627296e+001
5.360712e+002, 8.624670e+001
5.365533e+002, 8.637950e+001
5.370355e+002, 8.664048e+001
5.375176e+002, 8.682442e+001
5.379997e+002, 8.689866e+001
5.384818e+002, 8.694444e+001
5.389639e+002, 8.700462e+001
5.394460e+002, 8.704030e+001
5.399282e+002, 8.692725e+001
5.404103e+002, 8.667554e+001
5.408924e+002, 8.654825e+001
5.413745e+002, 8.687154e+001
5.418566e+002, 8.766790e+001
5.423387e+002, 8.813248e+001
5.428209e+002, 8.799515e+001
5.433029e+002, 8.782627e+001
5.437850e+002, 8.764664e+001
5.442672e+002, 8.753873e+001
5.447493e+002, 8.764061e+001
5.452314e+002, 8.797540e+001
5.457135e+002, 8.831969e+001
5.461956e+002, 8.843754e+001
5.466777e+002, 8.833983e+001
5.471599e+002, 8.810218e+001
5.476420e+002, 8.759577e+001
5.481241e+002, 8.723272e+001
5.486062e+002, 8.742564e+001
5.490883e+002, 8.790087e+001
5.495704e+002, 8.823429e+001
5.500526e+002, 8.833640e+001
5.505347e+002, 8.832954e+001
5.510168e+002, 8.824185e+001
5.514989e+002, 8.810903e+001
5.519810e+002, 8.799603e+001
5.524631e+002, 8.791566e+001
5.529453e+002, 8.788976e+001
5.534274e+002, 8.797704e+001
5.539095e+002, 8.817748e+001
5.543916e+002, 8.812125e+001
5.548737e+002, 8.755978e+001
5.553558e+002, 8.707890e+001
5.558380e+002, 8.686005e+001
5.563201e+002, 8.679874e+001
5.568022e+002, 8.677292e+001
5.572843e+002, 8.674638e+001
5.577664e+002, 8.675121e+001
5.582485e+002, 8.686262e+001
5.587307e+002, 8.709206e+001
5.592128e+002, 8.707552e+001
5.596949e+002, 8.656055e+001
5.601770e+002, 8.616333e+001
5.606591e+002, 8.619724e+001
5.611412e+002, 8.640147e+001
5.616234e+002, 8.645241e+001
5.621055e+002, 8.626051e+001
5.625876e+002, 8.600807e+001
5.630697e+002, 8.581526e+001
5.635518e+002, 8.568765e+001
5.640339e+002, 8.567801e+001
5.645161e+002, 8.582265e+001
5.649982e+002, 8.592526e+001
5.654803e+002, 8.581232e+001
5.659624e+002, 8.553915e+001
5.664445e+002, 8.536699e+001
5.669266e+002, 8.533230e+001
5.674088e+002, 8.534510e+001
5.678909e+002, 8.543047e+001
5.683730e+002, 8.552013e+001
5.688551e+002, 8.550330e+001
5.693372e+002, 8.537444e+001
5.698193e+002, 8.524648e+001
5.703015e+002, 8.522677e+001
5.707836e+002, 8.530981e+001
5.712657e+002, 8.539730e+001
5.717478e+002, 8.561271e+001
5.722299e+002, 8.565632e+001
5.727120e+002, 8.538442e+001
5.731942e+002, 8.498965e+001
5.736763e+002, 8.459530e+001
5.741584e+002, 8.424551e+001
5.746405e+002, 8.401995e+001
5.751226e+002, 8.407722e+001
5.756047e+002, 8.432713e+001
5.760869e+002, 8.434822e+001
5.765690e+002, 8.406368e+001
5.770511e+002, 8.388364e+001
5.775332e+002, 8.414976e+001
5.780153e+002, 8.454694e+001
5.784974e+002, 8.455528e+001
5.789796e+002, 8.409184e+001
5.794617e+002, 8.357839e+001
5.799438e+002, 8.308488e+001
5.804259e+002, 8.267746e+001
5.809080e+002, 8.242867e+001
5.813901e+002, 8.234180e+001
5.818723e+002, 8.240314e+001
5.823544e+002, 8.262793e+001
5.828365e+002, 8.294997e+001
5.833186e+002, 8.314567e+001
5.838007e+002, 8.317578e+001
5.842828e+002, 8.313003e+001
5.847650e+002, 8.293737e+001
5.852471e+002, 8.273598e+001
5.857292e+002, 8.261652e+001
5.862113e+002, 8.257176e+001
5.866934e+002, 8.254928e+001
5.871755e+002, 8.252097e+001
5.876577e+002, 8.248562e+001
5.881398e+002, 8.243191e+001
5.886219e+002, 8.235220e+001
5.891040e+002, 8.231177e+001
5.895861e+002, 8.237759e+001
5.900682e+002, 8.242933e+001
5.905504e+002, 8.225767e+001
5.910325e+002, 8.192467e+001
5.915146e+002, 8.185459e+001
5.919967e+002, 8.258020e+001
5.924788e+002, 8.327843e+001
5.929609e+002, 8.304849e+001
5.934431e+002, 8.219364e+001
5.939252e+002, 8.166993e+001
5.944073e+002, 8.183985e+001
5.948894e+002, 8.228172e+001
5.953715e+002, 8.237655e+001
5.958536e+002, 8.195811e+001
5.963358e+002, 8.196113e+001
5.968179e+002, 8.296903e+001
5.973000e+002, 8.368852e+001
5.977821e+002, 8.338540e+001
5.982642e+002, 8.261150e+001
5.987463e+002, 8.220615e+001
5.992285e+002, 8.244743e+001
5.997106e+002, 8.288292e+001
6.001927e+002, 8.294194e+001
6.006748e+002, 8.264106e+001
6.011569e+002, 8.245145e+001
6.016390e+002, 8.243021e+001
6.021212e+002, 8.243998e+001
6.026033e+002, 8.230888e+001
6.030854e+002, 8.218965e+001
6.035675e+002, 8.237895e+001
6.040496e+002, 8.305062e+001
6.045317e+002, 8.361691e+001
6.050139e+002, 8.369343e+001
6.054960e+002, 8.352328e+001
6.059781e+002, 8.350237e+001
6.064602e+002, 8.365379e+001
6.069423e+002, 8.363637e+001
6.074244e+002, 8.313243e+001
6.079066e+002, 8.234160e+001
6.083887e+002, 8.217983e+001
6.088708e+002, 8.338353e+001
6.093529e+002, 8.417645e+001
6.098350e+002, 8.429590e+001
6.103171e+002, 8.415857e+001
6.107993e+002, 8.391232e+001
6.112814e+002, 8.366688e+001
6.117635e+002, 8.363206e+001
6.122456e+002, 8.399970e+001
6.127277e+002, 8.456042e+001
6.132098e+002, 8.490096e+001
6.136920e+002, 8.501737e+001
6.141741e+002, 8.495081e+001
6.146562e+002, 8.461275e+001
6.151383e+002, 8.422232e+001
6.156204e+002, 8.396024e+001
6.161025e+002, 8.382124e+001
6.165847e+002, 8.382520e+001
6.170668e+002, 8.418375e+001
6.175489e+002, 8.448080e+001
6.180310e+002, 8.439250e+001
6.185131e+002, 8.405938e+001
6.189952e+002, 8.374487e+001
6.194774e+002, 8.353188e+001
6.199595e+002, 8.340611e+001
6.204416e+002, 8.334828e+001
6.209237e+002, 8.335582e+001
6.214058e+002, 8.347445e+001
6.218879e+002, 8.391666e+001
6.223701e+002, 8.420621e+001
6.228522e+002, 8.421909e+001
6.233343e+002, 8.404953e+001
6.238164e+002, 8.373609e+001
6.242985e+002, 8.330896e+001
6.247806e+002, 8.292613e+001
6.252628e+002, 8.270466e+001
6.257448e+002, 8.262798e+001
6.262269e+002, 8.272636e+001
6.267090e+002, 8.302761e+001
6.271912e+002, 8.314558e+001
6.276733e+002, 8.280824e+001
6.281554e+002, 8.227787e+001
6.286375e+002, 8.208456e+001
6.291196e+002, 8.230305e+001
6.296017e+002, 8.242601e+001
6.300839e+002, 8.227967e+001
6.305660e+002, 8.210313e+001
6.310481e+002, 8.208521e+001
6.315302e+002, 8.217091e+001
6.320123e+002, 8.219404e+001
6.324944e+002, 8.207809e+001
6.329766e+002, 8.191115e+001
6.334587e+002, 8.184725e+001
6.339408e+002, 8.190817e+001
6.344229e+002, 8.196622e+001
6.349050e+002, 8.209582e+001
6.353871e+002, 8.211613e+001
6.358693e+002, 8.187991e+001
6.363514e+002, 8.151931e+001
6.368335e+002, 8.122390e+001
6.373156e+002, 8.103419e+001
6.377977e+002, 8.093667e+001
6.382798e+002, 8.094018e+001
6.387620e+002, 8.102459e+001
6.392441e+002, 8.119895e+001
6.397262e+002, 8.145523e+001
6.402083e+002, 8.162122e+001
6.406904e+002, 8.157040e+001
6.411725e+002, 8.136345e+001
6.416547e+002, 8.120268e+001
6.421368e+002, 8.117200e+001
6.426189e+002, 8.106197e+001
6.431010e+002, 8.076497e+001
6.435831e+002, 8.048443e+001
6.440652e+002, 8.035349e+001
6.445474e+002, 8.034776e+001
6.450295e+002, 8.039030e+001
6.455116e+002, 8.045340e+001
6.459937e+002, 8.048648e+001
6.464758e+002, 8.032744e+001
6.469579e+002, 7.998001e+001
6.474401e+002, 7.996107e+001
6.479222e+002, 8.053508e+001
6.484043e+002, 8.104430e+001
6.488864e+002, 8.077177e+001
6.493685e+002, 8.002982e+001
6.498506e+002, 7.983077e+001
6.503328e+002, 8.073242e+001
6.508149e+002, 8.143897e+001
6.512970e+002, 8.127333e+001
6.517791e+002, 8.073139e+001
6.522612e+002, 8.035505e+001
6.527433e+002, 8.022623e+001
6.532255e+002, 8.021703e+001
6.537076e+002, 8.024016e+001
6.541897e+002, 8.029277e+001
6.546718e+002, 8.036136e+001
6.551539e+002, 8.042861e+001
6.556360e+002, 8.055244e+001
6.561182e+002, 8.094734e+001
6.566003e+002, 8.121752e+001
6.570824e+002, 8.100349e+001
6.575645e+002, 8.046703e+001
6.580466e+002, 8.012423e+001
6.585287e+002, 8.024370e+001
6.590109e+002, 8.050497e+001
6.594930e+002, 8.063852e+001
6.599751e+002, 8.067056e+001
6.604572e+002, 8.068564e+001
6.609393e+002, 8.070287e+001
6.614214e+002, 8.065765e+001
6.619036e+002, 8.048417e+001
6.623857e+002, 8.019383e+001
6.628678e+002, 7.991246e+001
6.633499e+002, 7.944027e+001
6.638320e+002, 7.925048e+001
6.643141e+002, 7.966013e+001
6.647963e+002, 8.015636e+001
6.652784e+002, 8.027651e+001
6.657605e+002, 8.007950e+001
6.662426e+002, 7.999245e+001
6.667247e+002, 8.036489e+001
6.672068e+002, 8.085213e+001
6.676890e+002, 8.069881e+001
6.681711e+002, 7.993168e+001
6.686532e+002, 7.950982e+001
6.691353e+002, 7.971915e+001
6.696174e+002, 8.015515e+001
6.700995e+002, 8.053690e+001
6.705817e+002, 8.083796e+001
6.710638e+002, 8.088187e+001
6.715459e+002, 8.035549e+001
6.720280e+002, 7.995342e+001
6.725101e+002, 8.003217e+001
6.729922e+002, 8.026614e+001
6.734744e+002, 8.027361e+001
6.739565e+002, 8.003690e+001
6.744386e+002, 7.981617e+001
6.749207e+002, 7.982166e+001
6.754028e+002, 7.996862e+001
6.758849e+002, 7.994718e+001
6.763671e+002, 7.968659e+001
6.768492e+002, 7.958598e+001
6.773313e+002, 7.988744e+001
6.778134e+002, 8.018447e+001
6.782955e+002, 8.004500e+001
6.787776e+002, 7.961749e+001
6.792598e+002, 7.944855e+001
6.797419e+002, 7.990702e+001
6.802240e+002, 8.033939e+001
6.807061e+002, 8.027869e+001
6.811882e+002, 7.997543e+001
6.816703e+002, 7.980366e+001
6.821525e+002, 7.983411e+001
6.826346e+002, 7.997295e+001
6.831167e+002, 8.015394e+001
6.835988e+002, 8.036808e+001
6.840809e+002, 8.059917e+001
6.845630e+002, 8.098862e+001
6.850452e+002, 8.108448e+001
6.855273e+002, 8.043739e+001
6.860094e+002, 7.982239e+001
6.864915e+002, 7.981063e+001
6.869736e+002, 8.021204e+001
6.874557e+002, 8.038007e+001
6.879379e+002, 7.989892e+001
6.884200e+002, 7.941796e+001
6.889021e+002, 7.972929e+001
6.893842e+002, 8.044669e+001
6.898663e+002, 8.057085e+001
6.903484e+002, 7.993526e+001
6.908306e+002, 7.924993e+001
6.913127e+002, 7.905989e+001
6.917948e+002, 7.928857e+001
6.922769e+002, 7.956046e+001
6.927590e+002, 8.007524e+001
6.932411e+002, 8.030383e+001
6.937233e+002, 7.991826e+001
6.942054e+002, 7.953772e+001
6.946875e+002, 7.965413e+001
6.951696e+002, 8.008181e+001
6.956517e+002, 8.025890e+001
6.961339e+002, 7.986223e+001
6.966160e+002, 7.937704e+001
6.970981e+002, 7.942123e+001
6.975802e+002, 7.983353e+001
6.980623e+002, 8.003065e+001
6.985444e+002, 7.991576e+001
6.990266e+002, 7.970584e+001
6.995087e+002, 7.951828e+001
6.999908e+002, 7.937294e+001
7.004729e+002, 7.935172e+001
7.009550e+002, 7.956725e+001
7.014371e+002, 7.973533e+001
7.019193e+002, 7.982772e+001
7.024014e+002, 7.989399e+001
7.028835e+002, 7.995043e+001
7.033656e+002, 8.000681e+001
7.038477e+002, 8.007243e+001
7.043298e+002, 8.014955e+001
7.048120e+002, 8.025099e+001
7.052941e+002, 8.048744e+001
7.057762e+002, 8.078365e+001
7.062583e+002, 8.066822e+001
7.067404e+002, 8.001948e+001
7.072225e+002, 7.949390e+001
7.077046e+002, 7.941616e+001
7.081867e+002, 7.976111e+001
7.086688e+002, 8.059470e+001
7.091509e+002, 8.250098e+001
7.096331e+002, 8.338396e+001
7.101152e+002, 8.225734e+001
7.105973e+002, 8.089948e+001
7.110794e+002, 8.024930e+001
7.115615e+002, 8.015440e+001
7.120436e+002, 8.025798e+001
7.125258e+002, 8.042207e+001
7.130079e+002, 8.055952e+001
7.134900e+002, 8.048800e+001
7.139721e+002, 8.027991e+001
7.144542e+002, 8.043441e+001
7.149363e+002, 8.105759e+001
7.154185e+002, 8.142110e+001
7.159006e+002, 8.103342e+001
7.163827e+002, 8.036634e+001
7.168648e+002, 8.028103e+001
7.173469e+002, 8.090410e+001
7.178290e+002, 8.128078e+001
7.183112e+002, 8.118759e+001
7.187933e+002, 8.098476e+001
7.192754e+002, 8.075856e+001
7.197575e+002, 8.057475e+001
7.202396e+002, 8.053405e+001
7.207217e+002, 8.064809e+001
7.212039e+002, 8.079218e+001
7.216860e+002, 8.086522e+001
7.221681e+002, 8.086529e+001
7.226502e+002, 8.074617e+001
7.231323e+002, 8.048039e+001
7.236144e+002, 8.032661e+001
7.240966e+002, 8.040461e+001
7.245787e+002, 8.057182e+001
7.250608e+002, 8.068262e+001
7.255429e+002, 8.073805e+001
7.260250e+002, 8.073653e+001
7.265071e+002, 8.063819e+001
7.269893e+002, 8.053181e+001
7.274714e+002, 8.042504e+001
7.279535e+002, 8.034187e+001
7.284356e+002, 8.033196e+001
7.289177e+002, 8.038297e+001
7.293998e+002, 8.039780e+001
7.298820e+002, 8.027080e+001
7.303641e+002, 8.012412e+001
7.308462e+002, 8.031812e+001
7.313283e+002, 8.087104e+001
7.318104e+002, 8.118423e+001
7.322925e+002, 8.105567e+001
7.327747e+002, 8.086690e+001
7.332568e+002, 8.093655e+001
7.337389e+002, 8.121440e+001
7.342210e+002, 8.141808e+001
7.347031e+002, 8.157018e+001
7.351852e+002, 8.161154e+001
7.356674e+002, 8.138091e+001
7.361495e+002, 8.115388e+001
7.366316e+002, 8.118938e+001
7.371137e+002, 8.143098e+001
7.375958e+002, 8.169292e+001
7.380779e+002, 8.189613e+001
7.385601e+002, 8.197356e+001
7.390422e+002, 8.171021e+001
7.395243e+002, 8.116793e+001
7.400064e+002, 8.099474e+001
7.404885e+002, 8.132027e+001
7.409706e+002, 8.165543e+001
7.414528e+002, 8.171850e+001
7.419349e+002, 8.162601e+001
7.424170e+002, 8.161932e+001
7.428991e+002, 8.168153e+001
7.433812e+002, 8.187409e+001
7.438633e+002, 8.246202e+001
7.443455e+002, 8.291232e+001
7.448276e+002, 8.285832e+001
7.453097e+002, 8.251479e+001
7.457918e+002, 8.218736e+001
7.462739e+002, 8.197787e+001
7.467560e+002, 8.187943e+001
7.472382e+002, 8.195462e+001
7.477203e+002, 8.212541e+001
7.482024e+002, 8.212357e+001
7.486845e+002, 8.194412e+001
7.491666e+002, 8.180310e+001
7.496487e+002, 8.177542e+001
7.501309e+002, 8.180711e+001
7.506130e+002, 8.185043e+001
7.510951e+002, 8.190788e+001
7.515772e+002, 8.190427e+001
7.520593e+002, 8.173636e+001
7.525414e+002, 8.164433e+001
7.530236e+002, 8.167667e+001
7.535057e+002, 8.180828e+001
7.539878e+002, 8.208877e+001
7.544699e+002, 8.245593e+001
7.549520e+002, 8.269379e+001
7.554341e+002, 8.261848e+001
7.559163e+002, 8.248808e+001
7.563984e+002, 8.276266e+001
7.568805e+002, 8.331666e+001
7.573626e+002, 8.354662e+001
7.578447e+002, 8.333726e+001
7.583268e+002, 8.310668e+001
7.588090e+002, 8.316920e+001
7.592911e+002, 8.341534e+001
7.597732e+002, 8.347105e+001
7.602553e+002, 8.315765e+001
7.607374e+002, 8.298274e+001
7.612195e+002, 8.306055e+001
7.617017e+002, 8.314980e+001
7.621838e+002, 8.312111e+001
7.626659e+002, 8.303555e+001
7.631480e+002, 8.298545e+001
7.636301e+002, 8.299494e+001
7.641122e+002, 8.307908e+001
7.645944e+002, 8.327440e+001
7.650765e+002, 8.353819e+001
7.655586e+002, 8.388703e+001
7.660407e+002, 8.426804e+001
7.665228e+002, 8.435670e+001
7.670049e+002, 8.400901e+001
7.674871e+002, 8.357225e+001
7.679692e+002, 8.351258e+001
7.684513e+002, 8.384554e+001
7.689334e+002, 8.414195e+001
7.694155e+002, 8.443899e+001
7.698976e+002, 8.463536e+001
7.703798e+002, 8.469242e+001
7.708619e+002, 8.465788e+001
7.713440e+002, 8.449351e+001
7.718261e+002, 8.424864e+001
7.723082e+002, 8.415015e+001
7.727903e+002, 8.446097e+001
7.732725e+002, 8.469405e+001
7.737546e+002, 8.430608e+001
7.742367e+002, 8.371038e+001
7.747188e+002, 8.361679e+001
7.752009e+002, 8.405273e+001
7.756830e+002, 8.451914e+001
7.761652e+002, 8.468784e+001
7.766473e+002, 8.468314e+001
7.771294e+002, 8.482764e+001
7.776115e+002, 8.517239e+001
7.780936e+002, 8.529231e+001
7.785757e+002, 8.495773e+001
7.790579e+002, 8.477800e+001
7.795400e+002, 8.532655e+001
7.800221e+002, 8.613242e+001
7.805042e+002, 8.637174e+001
7.809863e+002, 8.591115e+001
7.814684e+002, 8.544793e+001
7.819506e+002, 8.501505e+001
7.824327e+002, 8.476576e+001
7.829148e+002, 8.492934e+001
7.833969e+002, 8.529652e+001
7.838790e+002, 8.548235e+001
7.843611e+002, 8.541212e+001
7.848433e+002, 8.539255e+001
7.853254e+002, 8.577626e+001
7.858075e+002, 8.638247e+001
7.862896e+002, 8.660371e+001
7.867717e+002, 8.643166e+001
7.872538e+002, 8.643790e+001
7.877360e+002, 8.685046e+001
7.882181e+002, 8.720123e+001
7.887002e+002, 8.697435e+001
7.891823e+002, 8.627082e+001
7.896644e+002, 8.595853e+001
7.901465e+002, 8.632838e+001
7.906286e+002, 8.665086e+001
7.911107e+002, 8.696548e+001
7.915928e+002, 8.713158e+001
7.920750e+002, 8.675990e+001
7.925571e+002, 8.622935e+001
7.930392e+002, 8.647121e+001
7.935213e+002, 8.792629e+001
7.940034e+002, 8.924258e+001
7.944855e+002, 8.890881e+001
7.949677e+002, 8.776319e+001
7.954498e+002, 8.740451e+001
7.959319e+002, 8.782028e+001
7.964140e+002, 8.828606e+001
7.968961e+002, 8.851521e+001
7.973782e+002, 8.853455e+001
7.978604e+002, 8.833965e+001
7.983425e+002, 8.791149e+001
7.988246e+002, 8.770844e+001
7.993067e+002, 8.782375e+001
7.997888e+002, 8.799293e+001
8.002709e+002, 8.831299e+001
8.007531e+002, 8.853413e+001
8.012352e+002, 8.829858e+001
8.017173e+002, 8.774498e+001
8.021994e+002, 8.756554e+001
8.026815e+002, 8.824313e+001
8.031636e+002, 8.888863e+001
8.036458e+002, 8.894835e+001
8.041279e+002, 8.877994e+001
8.046100e+002, 8.875072e+001
8.050921e+002, 8.890706e+001
8.055742e+002, 8.924000e+001
8.060563e+002, 8.975801e+001
8.065385e+002, 9.025352e+001
8.070206e+002, 9.032126e+001
8.075027e+002, 9.000263e+001
8.079848e+002, 8.990367e+001
8.084669e+002, 9.010766e+001
8.089490e+002, 9.020944e+001
8.094312e+002, 8.995676e+001
8.099133e+002, 8.961057e+001
8.103954e+002, 8.958694e+001
8.108775e+002, 8.995683e+001
8.113596e+002, 9.018996e+001
8.118417e+002, 9.027760e+001
8.123239e+002, 9.024245e+001
8.128060e+002, 8.984665e+001
8.132881e+002, 8.950553e+001
8.137702e+002, 8.971664e+001
8.142523e+002, 9.039009e+001
8.147344e+002, 9.096574e+001
8.152166e+002, 9.112327e+001
8.156987e+002, 9.116441e+001
8.161808e+002, 9.144314e+001
8.166629e+002, 9.182885e+001
8.171450e+002, 9.199035e+001
8.176271e+002, 9.191580e+001
8.181093e+002, 9.187543e+001
8.185914e+002, 9.202561e+001
8.190735e+002, 9.228293e+001
8.195556e+002, 9.250685e+001
8.200377e+002, 9.271379e+001
8.205198e+002, 9.275896e+001
8.210020e+002, 9.251718e+001
8.214841e+002, 9.234750e+001
8.219662e+002, 9.237517e+001
8.224483e+002, 9.254949e+001
8.229304e+002, 9.283923e+001
8.234125e+002, 9.323989e+001
8.238947e+002, 9.364693e+001
8.243768e+002, 9.422796e+001
8.248589e+002, 9.458520e+001
8.253410e+002, 9.432662e+001
8.258231e+002, 9.389946e+001
8.263052e+002, 9.379018e+001
8.267874e+002, 9.401596e+001
8.272695e+002, 9.435971e+001
8.277516e+002, 9.472208e+001
8.282337e+002, 9.505120e+001
8.287158e+002, 9.527328e+001
8.291979e+002, 9.539921e+001
8.296801e+002, 9.548293e+001
8.301622e+002, 9.552905e+001
8.306443e+002, 9.546223e+001
8.311264e+002, 9.521700e+001
8.316085e+002, 9.491764e+001
8.320906e+002, 9.476023e+001
8.325728e+002, 9.474973e+001
8.330549e+002, 9.484286e+001
8.335370e+002, 9.503901e+001
8.340191e+002, 9.534220e+001
8.345012e+002, 9.595821e+001
8.349833e+002, 9.650957e+001
8.354655e+002, 9.653995e+001
8.359476e+002, 9.618152e+001
8.364297e+002, 9.616017e+001
8.369118e+002, 9.701955e+001
8.373939e+002, 9.774003e+001
8.378760e+002, 9.753465e+001
8.383582e+002, 9.704868e+001
8.388403e+002, 9.699641e+001
8.393224e+002, 9.738377e+001
8.398045e+002, 9.797400e+001
8.402866e+002, 9.865688e+001
8.407687e+002, 9.929278e+001
8.412509e+002, 9.967823e+001
8.417330e+002, 9.983977e+001
8.422151e+002, 9.984874e+001
8.426972e+002, 9.968334e+001
8.431793e+002, 9.977254e+001
8.436614e+002, 1.003326e+002
8.441436e+002, 1.010282e+002
8.446257e+002, 1.014823e+002
8.451078e+002, 1.016992e+002
8.455899e+002, 1.018538e+002
8.460720e+002, 1.018531e+002
8.465541e+002, 1.019239e+002
8.470363e+002, 1.021286e+002
8.475184e+002, 1.023666e+002
8.480005e+002, 1.025288e+002
8.484826e+002, 1.026838e+002
8.489647e+002, 1.029817e+002
8.494468e+002, 1.034583e+002
8.499290e+002, 1.040895e+002
8.504111e+002, 1.051015e+002
8.508932e+002, 1.060741e+002
8.513753e+002, 1.064404e+002
8.518574e+002, 1.064450e+002
8.523395e+002, 1.067461e+002
8.528217e+002, 1.075146e+002
8.533038e+002, 1.083240e+002
8.537859e+002, 1.087517e+002
8.542680e+002, 1.088944e+002
8.547501e+002, 1.090088e+002
8.552322e+002, 1.090954e+002
8.557144e+002, 1.092441e+002
8.561965e+002, 1.094591e+002
8.566786e+002, 1.098021e+002
8.571607e+002, 1.103489e+002
8.576428e+002, 1.110330e+002
8.581249e+002, 1.116383e+002
8.586071e+002, 1.120483e+002
8.590892e+002, 1.126293e+002
8.595713e+002, 1.135358e+002
8.600534e+002, 1.144260e+002
8.605355e+002, 1.152054e+002
8.610176e+002, 1.158913e+002
8.614998e+002, 1.164375e+002
8.619819e+002, 1.168627e+002
8.624640e+002, 1.174770e+002
8.629461e+002, 1.185946e+002
8.634282e+002, 1.197472e+002
8.639103e+002, 1.206190e+002
8.643925e+002, 1.213226e+002
8.648746e+002, 1.219601e+002
8.653567e+002, 1.225856e+002
8.658388e+002, 1.232825e+002
8.663209e+002, 1.241034e+002
8.668030e+002, 1.249856e+002
8.672852e+002, 1.258193e+002
8.677673e+002, 1.266201e+002
8.682494e+002, 1.275105e+002
8.687315e+002, 1.285007e+002
8.692136e+002, 1.293682e+002
8.696957e+002, 1.299662e+002
8.701779e+002, 1.306211e+002
8.706600e+002, 1.318376e+002
8.711421e+002, 1.336274e+002
8.716242e+002, 1.348369e+002
8.721063e+002, 1.349425e+002
8.725884e+002, 1.353893e+002
8.730705e+002, 1.366712e+002
8.735526e+002, 1.381154e+002
8.740347e+002, 1.393805e+002
8.745168e+002, 1.404874e+002
8.749990e+002, 1.415383e+002
8.754811e+002, 1.425441e+002
8.759632e+002, 1.434852e+002
8.764453e+002, 1.442051e+002
8.769274e+002, 1.449952e+002
8.774095e+002, 1.461821e+002
8.778917e+002, 1.475496e+002
8.783738e+002, 1.487086e+002
8.788559e+002, 1.495816e+002
8.793380e+002, 1.504073e+002
8.798201e+002, 1.513821e+002
8.803022e+002, 1.524028e+002
8.807844e+002, 1.532463e+002
8.812665e+002, 1.539898e+002
8.817486e+002, 1.549463e+002
8.822307e+002, 1.561533e+002
8.827128e+002, 1.573524e+002
8.831949e+002, 1.583789e+002
8.836771e+002, 1.592852e+002
8.841592e+002, 1.601617e+002
8.846413e+002, 1.610027e+002
8.851234e+002, 1.618683e+002
8.856055e+002, 1.627690e+002
8.860876e+002, 1.636768e+002
8.865698e+002, 1.646747e+002
8.870519e+002, 1.655812e+002
8.875340e+002, 1.661397e+002
8.880161e+002, 1.663750e+002
8.884982e+002, 1.667116e+002
8.889803e+002, 1.671427e+002
8.894625e+002, 1.677004e+002
8.899446e+002, 1.685407e+002
8.904267e+002, 1.693713e+002
8.909088e+002, 1.699988e+002
8.913909e+002, 1.704616e+002
8.918730e+002, 1.708736e+002
8.923552e+002, 1.712728e+002
8.928373e+002, 1.715513e+002
8.933194e+002, 1.716818e+002
8.938015e+002, 1.716246e+002
8.942836e+002, 1.711988e+002
8.947657e+002, 1.705910e+002
8.952479e+002, 1.703096e+002
8.957300e+002, 1.703736e+002
8.962121e+002, 1.701347e+002
8.966942e+002, 1.690544e+002
8.971763e+002, 1.675854e+002
8.976584e+002, 1.667466e+002
8.981406e+002, 1.664434e+002
8.986227e+002, 1.656250e+002
8.991048e+002, 1.641562e+002
8.995869e+002, 1.627089e+002
9.000690e+002, 1.616196e+002
9.005511e+002, 1.606326e+002
9.010333e+002, 1.593512e+002
9.015154e+002, 1.577578e+002
9.019975e+002, 1.562741e+002
9.024796e+002, 1.550102e+002
9.029617e+002, 1.536436e+002
9.034438e+002, 1.522323e+002
9.039260e+002, 1.505774e+002
9.044081e+002, 1.482085e+002
9.048902e+002, 1.455368e+002
9.053723e+002, 1.437296e+002
9.058544e+002, 1.432973e+002
9.063365e+002, 1.426373e+002
9.068187e+002, 1.412411e+002
9.073008e+002, 1.396418e+002
9.077829e+002, 1.380605e+002
9.082650e+002, 1.365378e+002
9.087471e+002, 1.351015e+002
9.092292e+002, 1.337506e+002
9.097114e+002, 1.324072e+002
9.101935e+002, 1.309728e+002
9.106756e+002, 1.296251e+002
9.111577e+002, 1.286906e+002
9.116398e+002, 1.279047e+002
9.121219e+002, 1.267399e+002
9.126041e+002, 1.252150e+002
9.130862e+002, 1.236714e+002
9.135683e+002, 1.222720e+002
9.140504e+002, 1.209762e+002
9.145325e+002, 1.196970e+002
9.150146e+002, 1.184701e+002
9.154968e+002, 1.175220e+002
9.159789e+002, 1.168662e+002
9.164610e+002, 1.160602e+002
9.169431e+002, 1.149679e+002
9.174252e+002, 1.137710e+002
9.179073e+002, 1.125690e+002
9.183895e+002, 1.114121e+002
9.188716e+002, 1.104873e+002
9.193537e+002, 1.098722e+002
9.198358e+002, 1.092787e+002
9.203179e+002, 1.087982e+002
9.208000e+002, 1.082034e+002
9.212822e+002, 1.073073e+002
9.217643e+002, 1.063118e+002
9.222464e+002, 1.054190e+002
9.227285e+002, 1.046319e+002
9.232106e+002, 1.039261e+002
9.236927e+002, 1.034477e+002
9.241749e+002, 1.028474e+002
9.246570e+002, 1.019432e+002
9.251391e+002, 1.009581e+002
9.256212e+002, 1.000713e+002
9.261033e+002, 9.924682e+001
9.265854e+002, 9.830943e+001
9.270676e+002, 9.719849e+001
9.275497e+002, 9.634725e+001
9.280318e+002, 9.615177e+001
9.285139e+002, 9.626080e+001
9.289960e+002, 9.651315e+001
9.294781e+002, 9.673177e+001
9.299603e+002, 9.656551e+001
9.304424e+002, 9.600014e+001
9.309245e+002, 9.530093e+001
9.314066e+002, 9.461797e+001
9.318887e+002, 9.399858e+001
9.323708e+002, 9.357320e+001
9.328530e+002, 9.328230e+001
9.333351e+002, 9.287012e+001
9.338172e+002, 9.232935e+001
9.342993e+002, 9.174956e+001
9.347814e+002, 9.115603e+001
9.352635e+002, 9.065479e+001
9.357457e+002, 9.037399e+001
9.362278e+002, 9.028053e+001
9.367099e+002, 9.019056e+001
9.371920e+002, 9.011034e+001
9.376741e+002, 9.002475e+001
9.381563e+002, 9.001573e+001
9.386384e+002, 8.979410e+001
9.391205e+002, 8.902949e+001
9.396026e+002, 8.809013e+001
9.400847e+002, 8.766523e+001
9.405668e+002, 8.786758e+001
9.410490e+002, 8.792130e+001
9.415311e+002, 8.768867e+001
9.420132e+002, 8.750305e+001
9.424953e+002, 8.755177e+001
9.429774e+002, 8.755702e+001
9.434595e+002, 8.723855e+001
9.439417e+002, 8.672224e+001
9.444238e+002, 8.633898e+001
9.449059e+002, 8.614758e+001
9.453880e+002, 8.610928e+001
9.458701e+002, 8.648951e+001
9.463522e+002, 8.672265e+001
9.468344e+002, 8.624760e+001
9.473165e+002, 8.549722e+001
9.477986e+002, 8.505744e+001
9.482807e+002, 8.499112e+001
9.487628e+002, 8.502409e+001
9.492449e+002, 8.504236e+001
9.497271e+002, 8.502669e+001
9.502092e+002, 8.497395e+001
9.506913e+002, 8.486665e+001
9.511734e+002, 8.460001e+001
9.516555e+002, 8.425294e+001
9.521376e+002, 8.410143e+001
9.526198e+002, 8.422623e+001
9.531019e+002, 8.440407e+001
9.535840e+002, 8.439648e+001
9.540661e+002, 8.432121e+001
9.545482e+002, 8.454082e+001
9.550303e+002, 8.498618e+001
9.555124e+002, 8.518394e+001
9.559945e+002, 8.506810e+001
9.564766e+002, 8.482713e+001
9.569587e+002, 8.454111e+001
9.574409e+002, 8.430236e+001
9.579230e+002, 8.429301e+001
9.584051e+002, 8.450557e+001
9.588872e+002, 8.446859e+001
9.593693e+002, 8.405750e+001
9.598514e+002, 8.397288e+001
9.603336e+002, 8.451909e+001
9.608157e+002, 8.506747e+001
9.612978e+002, 8.512138e+001
9.617799e+002, 8.484261e+001
9.622620e+002, 8.467848e+001
9.627441e+002, 8.464619e+001
9.632263e+002, 8.467740e+001
9.637084e+002, 8.484122e+001
9.641905e+002, 8.497519e+001
9.646726e+002, 8.498158e+001
9.651547e+002, 8.498608e+001
9.656368e+002, 8.507346e+001
9.661190e+002, 8.525107e+001
9.666011e+002, 8.555074e+001
9.670832e+002, 8.614075e+001
9.675653e+002, 8.651938e+001
9.680474e+002, 8.630296e+001
9.685295e+002, 8.614672e+001
9.690117e+002, 8.643996e+001
9.694938e+002, 8.701244e+001
9.699759e+002, 8.768230e+001
9.704580e+002, 8.838858e+001
9.709401e+002, 8.899223e+001
9.714222e+002, 8.935519e+001
9.719044e+002, 8.972208e+001
9.723865e+002, 9.019492e+001
9.728686e+002, 9.079070e+001
9.733507e+002, 9.156731e+001
9.738328e+002, 9.247039e+001
9.743149e+002, 9.337505e+001
9.747971e+002, 9.424699e+001
9.752792e+002, 9.518259e+001
9.757613e+002, 9.636059e+001
9.762434e+002, 9.752258e+001
9.767255e+002, 9.805627e+001
9.772076e+002, 9.839612e+001
9.776898e+002, 9.959617e+001
9.781719e+002, 1.016371e+002
9.786540e+002, 1.037709e+002
9.791361e+002, 1.056510e+002
9.796182e+002, 1.071890e+002
9.801003e+002, 1.080872e+002
9.805825e+002, 1.086292e+002
9.810646e+002, 1.097671e+002
9.815467e+002, 1.114423e+002
9.820288e+002, 1.132866e+002
9.825109e+002, 1.152188e+002
9.829930e+002, 1.169695e+002
9.834752e+002, 1.183616e+002
9.839573e+002, 1.194386e+002
9.844394e+002, 1.202527e+002
9.849215e+002, 1.208018e+002
9.854036e+002, 1.213066e+002
9.858857e+002, 1.217997e+002
9.863679e+002, 1.220303e+002
9.868500e+002, 1.218947e+002
9.873321e+002, 1.216122e+002
9.878142e+002, 1.213851e+002
9.882963e+002, 1.211226e+002
9.887784e+002, 1.205014e+002
9.892606e+002, 1.193531e+002
9.897427e+002, 1.184708e+002
9.902248e+002, 1.180657e+002
9.907069e+002, 1.175137e+002
9.911890e+002, 1.165613e+002
9.916711e+002, 1.154432e+002
9.921533e+002, 1.143506e+002
9.926354e+002, 1.132822e+002
9.931175e+002, 1.122342e+002
9.935996e+002, 1.110499e+002
9.940817e+002, 1.101734e+002
9.945638e+002, 1.098709e+002
9.950460e+002, 1.095606e+002
9.955281e+002, 1.091702e+002
9.960102e+002, 1.085588e+002
9.964923e+002, 1.073456e+002
9.969744e+002, 1.056722e+002
9.974565e+002, 1.046091e+002
9.979387e+002, 1.048813e+002
9.984208e+002, 1.049063e+002
9.989029e+002, 1.042083e+002
9.993850e+002, 1.032290e+002
9.998671e+002, 1.020358e+002
1.000349e+003, 1.008516e+002
1.000831e+003, 1.000628e+002
1.001313e+003, 9.965207e+001
1.001796e+003, 9.903201e+001
1.002278e+003, 9.785702e+001
1.002760e+003, 9.657932e+001
1.003242e+003, 9.529854e+001
1.003724e+003, 9.415758e+001
1.004206e+003, 9.330966e+001
1.004688e+003, 9.269189e+001
1.005170e+003, 9.219301e+001
1.005653e+003, 9.176578e+001
1.006135e+003, 9.130273e+001
1.006617e+003, 9.075491e+001
1.007099e+003, 9.011214e+001
1.007581e+003, 8.917910e+001
1.008063e+003, 8.826348e+001
1.008545e+003, 8.795299e+001
1.009027e+003, 8.805637e+001
1.009509e+003, 8.790553e+001
1.009992e+003, 8.727596e+001
1.010474e+003, 8.648625e+001
1.010956e+003, 8.571420e+001
1.011438e+003, 8.506212e+001
1.011920e+003, 8.478262e+001
1.012402e+003, 8.471826e+001
1.012884e+003, 8.444922e+001
1.013366e+003, 8.399462e+001
1.013849e+003, 8.374781e+001
1.014331e+003, 8.387238e+001
1.014813e+003, 8.398901e+001
1.015295e+003, 8.360017e+001
1.015777e+003, 8.294479e+001
1.016259e+003, 8.266169e+001
1.016741e+003, 8.266349e+001
1.017223e+003, 8.254270e+001
1.017705e+003, 8.224651e+001
1.018188e+003, 8.192258e+001
1.018670e+003, 8.164561e+001
1.019152e+003, 8.139779e+001
1.019634e+003, 8.117232e+001
1.020116e+003, 8.094998e+001
1.020598e+003, 8.056067e+001
1.021080e+003, 8.002113e+001
1.021562e+003, 7.981179e+001
1.022044e+003, 8.003477e+001
1.022527e+003, 8.022408e+001
1.023009e+003, 8.010877e+001
1.023491e+003, 7.982067e+001
1.023973e+003, 7.953067e+001
1.024455e+003, 7.925260e+001
1.024937e+003, 7.927608e+001
1.025419e+003, 7.965453e+001
1.025901e+003, 7.989267e+001
1.026384e+003, 7.990679e+001
1.026866e+003, 7.972352e+001
1.027348e+003, 7.931513e+001
1.027830e+003, 7.880990e+001
1.028312e+003, 7.841961e+001
1.028794e+003, 7.813517e+001
1.029276e+003, 7.821059e+001
1.029758e+003, 7.884429e+001
1.030240e+003, 7.910130e+001
1.030723e+003, 7.864040e+001
1.031205e+003, 7.816368e+001
1.031687e+003, 7.812402e+001
1.032169e+003, 7.837292e+001
1.032651e+003, 7.861311e+001
1.033133e+003, 7.883341e+001
1.033615e+003, 7.915803e+001
1.034097e+003, 7.978867e+001
1.034579e+003, 8.005453e+001
1.035062e+003, 7.956546e+001
1.035544e+003, 7.908826e+001
1.036026e+003, 7.921490e+001
1.036508e+003, 7.964546e+001
1.036990e+003, 7.973087e+001
1.037472e+003, 7.938390e+001
1.037954e+003, 7.917777e+001
1.038436e+003, 7.914982e+001
1.038919e+003, 7.921062e+001
1.039401e+003, 7.958887e+001
1.039883e+003, 7.978612e+001
1.040365e+003, 7.941234e+001
1.040847e+003, 7.865345e+001
1.041329e+003, 7.784302e+001
1.041811e+003, 7.690971e+001
1.042293e+003, 7.629112e+001
1.042776e+003, 7.637582e+001
1.043258e+003, 7.623801e+001
1.043740e+003, 7.557903e+001
1.044222e+003, 7.477654e+001
1.044704e+003, 7.393657e+001
1.045186e+003, 7.317320e+001
1.045668e+003, 7.276819e+001
1.046150e+003, 7.282295e+001
1.046632e+003, 7.264024e+001
1.047115e+003, 7.191825e+001
1.047597e+003, 7.126588e+001
1.048079e+003, 7.092045e+001
1.048561e+003, 7.060667e+001
1.049043e+003, 7.011613e+001
1.049525e+003, 6.952530e+001
1.050007e+003, 6.895123e+001
1.050489e+003, 6.839735e+001
1.050971e+003, 6.801952e+001
1.051454e+003, 6.797490e+001
1.051936e+003, 6.793935e+001
1.052418e+003, 6.793913e+001
1.052900e+003, 6.779620e+001
1.053382e+003, 6.719180e+001
1.053864e+003, 6.642863e+001
1.054346e+003, 6.611010e+001
1.054828e+003, 6.633183e+001
1.055311e+003, 6.644603e+001
1.055793e+003, 6.626435e+001
1.056275e+003, 6.597283e+001
1.056757e+003, 6.543339e+001
1.057239e+003, 6.500266e+001
1.057721e+003, 6.512221e+001
1.058203e+003, 6.546763e+001
1.058685e+003, 6.542171e+001
1.059167e+003, 6.489811e+001
1.059650e+003, 6.444070e+001
1.060132e+003, 6.419976e+001
1.060614e+003, 6.409098e+001
1.061096e+003, 6.422546e+001
1.061578e+003, 6.433907e+001
1.062060e+003, 6.414816e+001
1.062542e+003, 6.383344e+001
1.063024e+003, 6.372437e+001
1.063506e+003, 6.386031e+001
1.063989e+003, 6.399522e+001
1.064471e+003, 6.407263e+001
1.064953e+003, 6.408614e+001
1.065435e+003, 6.403009e+001
1.065917e+003, 6.391188e+001
1.066399e+003, 6.371245e+001
1.066881e+003, 6.346707e+001
1.067363e+003, 6.320995e+001
1.067846e+003, 6.295644e+001
1.068328e+003, 6.275571e+001
1.068810e+003, 6.267788e+001
1.069292e+003, 6.256618e+001
1.069774e+003, 6.220863e+001
1.070256e+003, 6.193577e+001
1.070738e+003, 6.209467e+001
1.071220e+003, 6.244080e+001
1.071703e+003, 6.264569e+001
1.072185e+003, 6.265943e+001
1.072667e+003, 6.256491e+001
1.073149e+003, 6.238699e+001
1.073631e+003, 6.211863e+001
1.074113e+003, 6.149952e+001
1.074595e+003, 6.105751e+001
1.075077e+003, 6.145982e+001
1.075559e+003, 6.209414e+001
1.076042e+003, 6.204469e+001
1.076524e+003, 6.137307e+001
1.077006e+003, 6.093152e+001
1.077488e+003, 6.110485e+001
1.077970e+003, 6.122659e+001
1.078452e+003, 6.077471e+001
1.078934e+003, 6.039900e+001
1.079416e+003, 6.076700e+001
1.079898e+003, 6.130223e+001
1.080380e+003, 6.121057e+001
1.080863e+003, 6.061131e+001
1.081345e+003, 6.019964e+001
1.081827e+003, 6.020563e+001
1.082309e+003, 6.032710e+001
1.082791e+003, 6.048469e+001
1.083273e+003, 6.065083e+001
1.083755e+003, 6.090614e+001
1.084237e+003, 6.108458e+001
1.084720e+003, 6.094231e+001
1.085202e+003, 6.058016e+001
1.085684e+003, 6.029024e+001
1.086166e+003, 6.014970e+001
1.086648e+003, 6.007428e+001
1.087130e+003, 6.003928e+001
1.087612e+003, 6.004652e+001
1.088094e+003, 6.016745e+001
1.088577e+003, 6.026970e+001
1.089059e+003, 6.024116e+001
1.089541e+003, 6.009273e+001
1.090023e+003, 5.985369e+001
1.090505e+003, 5.952874e+001
1.090987e+003, 5.920757e+001
1.091469e+003, 5.880384e+001
1.091951e+003, 5.856884e+001
1.092433e+003, 5.878834e+001
1.092916e+003, 5.904581e+001
1.093398e+003, 5.899682e+001
1.093880e+003, 5.876093e+001
1.094362e+003, 5.854809e+001
1.094844e+003, 5.839608e+001
1.095326e+003, 5.830529e+001
1.095808e+003, 5.835339e+001
1.096290e+003, 5.834910e+001
1.096772e+003, 5.812655e+001
1.097255e+003, 5.794340e+001
1.097737e+003, 5.801832e+001
1.098219e+003, 5.819770e+001
1.098701e+003, 5.826957e+001
1.099183e+003, 5.822644e+001
1.099665e+003, 5.818851e+001
1.100147e+003, 5.818092e+001
1.100629e+003, 5.818400e+001
1.101112e+003, 5.817773e+001
1.101594e+003, 5.819810e+001
1.102076e+003, 5.833523e+001
1.102558e+003, 5.845246e+001
1.103040e+003, 5.838206e+001
1.103522e+003, 5.816125e+001
1.104004e+003, 5.796235e+001
1.104486e+003, 5.781493e+001
1.104969e+003, 5.767290e+001
1.105451e+003, 5.744335e+001
1.105933e+003, 5.732944e+001
1.106415e+003, 5.744275e+001
1.106897e+003, 5.766050e+001
1.107379e+003, 5.796801e+001
1.107861e+003, 5.828356e+001
1.108343e+003, 5.840825e+001
1.108825e+003, 5.829059e+001
1.109307e+003, 5.820070e+001
1.109790e+003, 5.822820e+001
1.110272e+003, 5.819060e+001
1.110754e+003, 5.792699e+001
1.111236e+003, 5.772030e+001
1.111718e+003, 5.784406e+001
1.112200e+003, 5.808496e+001
1.112682e+003, 5.807689e+001
1.113164e+003, 5.780341e+001
1.113647e+003, 5.755436e+001
1.114129e+003, 5.724984e+001
1.114611e+003, 5.710508e+001
1.115093e+003, 5.715945e+001
1.115575e+003, 5.734873e+001
1.116057e+003, 5.778174e+001
1.116539e+003, 5.821530e+001
1.117021e+003, 5.840682e+001
1.117504e+003, 5.835268e+001
1.117986e+003, 5.799060e+001
1.118468e+003, 5.698883e+001
1.118950e+003, 5.649524e+001
1.119432e+003, 5.677455e+001
1.119914e+003, 5.705363e+001
1.120396e+003, 5.709254e+001
1.120878e+003, 5.704075e+001
1.121360e+003, 5.696918e+001
1.121843e+003, 5.695016e+001
1.122325e+003, 5.726796e+001
1.122807e+003, 5.808443e+001
1.123289e+003, 5.817222e+001
1.123771e+003, 5.723404e+001
1.124253e+003, 5.659312e+001
1.124735e+003, 5.657981e+001
1.125217e+003, 5.678122e+001
1.125699e+003, 5.699125e+001
1.126182e+003, 5.714059e+001
1.126664e+003, 5.709537e+001
1.127146e+003, 5.686660e+001
1.127628e+003, 5.664100e+001
1.128110e+003, 5.641125e+001
1.128592e+003, 5.625888e+001
1.129074e+003, 5.619696e+001
1.129556e+003, 5.622689e+001
1.130039e+003, 5.637506e+001
1.130521e+003, 5.644850e+001
1.131003e+003, 5.618254e+001
1.131485e+003, 5.573202e+001
1.131967e+003, 5.569835e+001
1.132449e+003, 5.605084e+001
1.132931e+003, 5.624693e+001
1.133413e+003, 5.625738e+001
1.133896e+003, 5.616021e+001
1.134378e+003, 5.598001e+001
1.134860e+003, 5.590411e+001
1.135342e+003, 5.609551e+001
1.135824e+003, 5.638499e+001
1.136306e+003, 5.647567e+001
1.136788e+003, 5.640068e+001
1.137270e+003, 5.625713e+001
1.137752e+003, 5.606428e+001
1.138234e+003, 5.588706e+001
1.138717e+003, 5.574459e+001
1.139199e+003, 5.567735e+001
1.139681e+003, 5.570597e+001
1.140163e+003, 5.576310e+001
1.140645e+003, 5.576923e+001
1.141127e+003, 5.575763e+001
1.141609e+003, 5.582790e+001
1.142091e+003, 5.591287e+001
1.142574e+003, 5.584449e+001
1.143056e+003, 5.564563e+001
1.143538e+003, 5.542955e+001
1.144020e+003, 5.524298e+001
1.144502e+003, 5.513110e+001
1.144984e+003, 5.515281e+001
1.145466e+003, 5.519570e+001
1.145948e+003, 5.510547e+001
1.146431e+003, 5.499767e+001
1.146913e+003, 5.503616e+001
1.147395e+003, 5.516077e+001
1.147877e+003, 5.528877e+001
1.148359e+003, 5.537412e+001
1.148841e+003, 5.530822e+001
1.149323e+003, 5.501379e+001
1.149805e+003, 5.476156e+001
1.150287e+003, 5.471088e+001
1.150770e+003, 5.477620e+001
1.151252e+003, 5.497972e+001
1.151734e+003, 5.519783e+001
1.152216e+003, 5.531754e+001
1.152698e+003, 5.533818e+001
1.153180e+003, 5.529172e+001
1.153662e+003, 5.518506e+001
1.154144e+003, 5.501348e+001
1.154626e+003, 5.457958e+001
1.155109e+003, 5.435882e+001
1.155591e+003, 5.463908e+001
1.156073e+003, 5.503539e+001
1.156555e+003, 5.547185e+001
1.157037e+003, 5.577786e+001
1.157519e+003, 5.568266e+001
1.158001e+003, 5.523914e+001
1.158483e+003, 5.488510e+001
1.158966e+003, 5.460854e+001
1.159448e+003, 5.453083e+001
1.159930e+003, 5.491795e+001
1.160412e+003, 5.514731e+001
1.160894e+003, 5.494432e+001
1.161376e+003, 5.465319e+001
1.161858e+003, 5.451871e+001
1.162340e+003, 5.447797e+001
1.162822e+003, 5.437944e+001
1.163305e+003, 5.420305e+001
1.163787e+003, 5.418957e+001
1.164269e+003, 5.438955e+001
1.164751e+003, 5.461874e+001
1.165233e+003, 5.489006e+001
1.165715e+003, 5.508527e+001
1.166197e+003, 5.516235e+001
1.166679e+003, 5.509044e+001
1.167161e+003, 5.479094e+001
1.167644e+003, 5.435571e+001
1.168126e+003, 5.417977e+001
1.168608e+003, 5.427235e+001
1.169090e+003, 5.434083e+001
1.169572e+003, 5.437223e+001
1.170054e+003, 5.439672e+001
1.170536e+003, 5.442211e+001
1.171018e+003, 5.446511e+001
1.171500e+003, 5.454780e+001
1.171983e+003, 5.457579e+001
1.172465e+003, 5.431455e+001
1.172947e+003, 5.390617e+001
1.173429e+003, 5.385125e+001
1.173911e+003, 5.407233e+001
1.174393e+003, 5.434057e+001
1.174875e+003, 5.458512e+001
1.175357e+003, 5.464269e+001
1.175840e+003, 5.446396e+001
1.176322e+003, 5.424369e+001
1.176804e+003, 5.415611e+001
1.177286e+003, 5.407452e+001
1.177768e+003, 5.376524e+001
1.178250e+003, 5.341766e+001
1.178732e+003, 5.335664e+001
1.179214e+003, 5.345526e+001
1.179697e+003, 5.338213e+001
1.180179e+003, 5.315685e+001
1.180661e+003, 5.312435e+001
1.181143e+003, 5.344733e+001
1.181625e+003, 5.380243e+001
1.182107e+003, 5.410112e+001
1.182589e+003, 5.423537e+001
1.183071e+003, 5.395825e+001
1.183553e+003, 5.363877e+001
1.184036e+003, 5.370011e+001
1.184518e+003, 5.395552e+001
1.185000e+003, 5.397509e+001
1.185482e+003, 5.371595e+001
1.185964e+003, 5.359205e+001
1.186446e+003, 5.386980e+001
1.186928e+003, 5.400937e+001
1.187410e+003, 5.383775e+001
1.187892e+003, 5.361573e+001
1.188375e+003, 5.345043e+001
1.188857e+003, 5.328369e+001
1.189339e+003, 5.297733e+001
1.189821e+003, 5.264907e+001
1.190303e+003, 5.268847e+001
1.190785e+003, 5.320697e+001
1.191267e+003, 5.341168e+001
1.191749e+003, 5.314025e+001
1.192232e+003, 5.303128e+001
1.192714e+003, 5.326759e+001
1.193196e+003, 5.341521e+001
1.193678e+003, 5.321828e+001
1.194160e+003, 5.294331e+001
1.194642e+003, 5.291820e+001
1.195124e+003, 5.308472e+001
1.195606e+003, 5.322640e+001
1.196089e+003, 5.334321e+001
1.196571e+003, 5.346761e+001
1.197053e+003, 5.359224e+001
1.197535e+003, 5.352130e+001
1.198017e+003, 5.321820e+001
1.198499e+003, 5.292555e+001
1.198981e+003, 5.279002e+001
1.199463e+003, 5.279617e+001
1.199945e+003, 5.299550e+001
1.200427e+003, 5.326693e+001
1.200910e+003, 5.336687e+001
1.201392e+003, 5.335046e+001
1.201874e+003, 5.332205e+001
1.202356e+003, 5.329740e+001
1.202838e+003, 5.329498e+001
1.203320e+003, 5.330608e+001
1.203802e+003, 5.324149e+001
1.204284e+003, 5.303028e+001
1.204767e+003, 5.278626e+001
1.205249e+003, 5.248096e+001
1.205731e+003, 5.230221e+001
1.206213e+003, 5.260476e+001
1.206695e+003, 5.297822e+001
1.207177e+003, 5.279908e+001
1.207659e+003, 5.228600e+001
1.208141e+003, 5.217540e+001
1.208624e+003, 5.264131e+001
1.209106e+003, 5.296069e+001
1.209588e+003, 5.285949e+001
1.210070e+003, 5.274691e+001
1.210552e+003, 5.268370e+001
1.211034e+003, 5.265715e+001
1.211516e+003, 5.268078e+001
1.211998e+003, 5.272023e+001
1.212480e+003, 5.274385e+001
1.212963e+003, 5.275505e+001
1.213445e+003, 5.278443e+001
1.213927e+003, 5.287905e+001
1.214409e+003, 5.270235e+001
1.214891e+003, 5.211518e+001
1.215373e+003, 5.183521e+001
1.215855e+003, 5.204583e+001
1.216337e+003, 5.235667e+001
1.216819e+003, 5.258484e+001
1.217302e+003, 5.268512e+001
1.217784e+003, 5.257129e+001
1.218266e+003, 5.233652e+001
1.218748e+003, 5.228513e+001
1.219230e+003, 5.237681e+001
1.219712e+003, 5.240938e+001
1.220194e+003, 5.238162e+001
1.220676e+003, 5.232584e+001
1.221159e+003, 5.226710e+001
1.221641e+003, 5.232053e+001
1.222123e+003, 5.255468e+001
1.222605e+003, 5.275816e+001
1.223087e+003, 5.270104e+001
1.223569e+003, 5.251783e+001
1.224051e+003, 5.227547e+001
1.224533e+003, 5.206641e+001
1.225016e+003, 5.204264e+001
1.225498e+003, 5.213706e+001
1.225980e+003, 5.222943e+001
1.226462e+003, 5.228329e+001
1.226944e+003, 5.225651e+001
1.227426e+003, 5.208308e+001
1.227908e+003, 5.197848e+001
1.228390e+003, 5.210041e+001
1.228872e+003, 5.219524e+001
1.229354e+003, 5.205313e+001
1.229837e+003, 5.194428e+001
1.230319e+003, 5.221758e+001
1.230801e+003, 5.260015e+001
1.231283e+003, 5.255515e+001
1.231765e+003, 5.210063e+001
1.232247e+003, 5.186578e+001
1.232729e+003, 5.193678e+001
1.233211e+003, 5.197406e+001
1.233694e+003, 5.197738e+001
1.234176e+003, 5.187174e+001
1.234658e+003, 5.159147e+001
1.235140e+003, 5.139575e+001
1.235622e+003, 5.147952e+001
1.236104e+003, 5.173048e+001
1.236586e+003, 5.202502e+001
1.237068e+003, 5.228655e+001
1.237551e+003, 5.208333e+001
1.238033e+003, 5.155481e+001
1.238515e+003, 5.134088e+001
1.238997e+003, 5.144464e+001
1.239479e+003, 5.153104e+001
1.239961e+003, 5.150342e+001
1.240443e+003, 5.146384e+001
1.240925e+003, 5.146670e+001
1.241407e+003, 5.153361e+001
1.241890e+003, 5.182103e+001
1.242372e+003, 5.204084e+001
1.242854e+003, 5.189370e+001
1.243336e+003, 5.152578e+001
1.243818e+003, 5.087947e+001
1.244300e+003, 5.026038e+001
1.244782e+003, 5.035723e+001
1.245264e+003, 5.121370e+001
1.245746e+003, 5.186549e+001
1.246229e+003, 5.207581e+001
1.246711e+003, 5.204010e+001
1.247193e+003, 5.148159e+001
1.247675e+003, 5.110463e+001
1.248157e+003, 5.130400e+001
1.248639e+003, 5.156925e+001
1.249121e+003, 5.153339e+001
1.249603e+003, 5.134171e+001
1.250085e+003, 5.125272e+001
1.250568e+003, 5.126044e+001
1.251050e+003, 5.125014e+001
1.251532e+003, 5.121216e+001
1.252014e+003, 5.126033e+001
1.252496e+003, 5.140429e+001
1.252978e+003, 5.165999e+001
1.253460e+003, 5.203047e+001
1.253942e+003, 5.217999e+001
1.254425e+003, 5.185370e+001
1.254907e+003, 5.144361e+001
1.255389e+003, 5.155611e+001
1.255871e+003, 5.191538e+001
1.256353e+003, 5.206788e+001
1.256835e+003, 5.204461e+001
1.257317e+003, 5.182045e+001
1.257799e+003, 5.149402e+001
1.258281e+003, 5.123003e+001
1.258764e+003, 5.109145e+001
1.259246e+003, 5.118689e+001
1.259728e+003, 5.167360e+001
1.260210e+003, 5.197158e+001
1.260692e+003, 5.152985e+001
1.261174e+003, 5.120694e+001
1.261656e+003, 5.158075e+001
1.262138e+003, 5.205500e+001
1.262620e+003, 5.215461e+001
1.263103e+003, 5.205658e+001
1.263585e+003, 5.207452e+001
1.264067e+003, 5.219041e+001
1.264549e+003, 5.223560e+001
1.265031e+003, 5.222182e+001
1.265513e+003, 5.206232e+001
1.265995e+003, 5.168348e+001
1.266477e+003, 5.151171e+001
1.266960e+003, 5.166917e+001
1.267442e+003, 5.186663e+001
1.267924e+003, 5.195156e+001
1.268406e+003, 5.192034e+001
1.268888e+003, 5.173888e+001
1.269370e+003, 5.149467e+001
1.269852e+003, 5.135070e+001
1.270334e+003, 5.132076e+001
1.270817e+003, 5.151297e+001
1.271299e+003, 5.183050e+001
1.271781e+003, 5.202755e+001
1.272263e+003, 5.207299e+001
1.272745e+003, 5.203613e+001
1.273227e+003, 5.194305e+001
1.273709e+003, 5.186566e+001
1.274191e+003, 5.186727e+001
1.274673e+003, 5.186711e+001
1.275156e+003, 5.169937e+001
1.275638e+003, 5.165792e+001
1.276120e+003, 5.215427e+001
1.276602e+003, 5.271295e+001
1.277084e+003, 5.268616e+001
1.277566e+003, 5.227528e+001
1.278048e+003, 5.222283e+001
1.278530e+003, 5.258819e+001
1.279012e+003, 5.278432e+001
1.279495e+003, 5.279956e+001
1.279977e+003, 5.264048e+001
1.280459e+003, 5.225235e+001
1.280941e+003, 5.199701e+001
1.281423e+003, 5.200592e+001
1.281905e+003, 5.221376e+001
1.282387e+003, 5.261298e+001
1.282869e+003, 5.293500e+001
1.283352e+003, 5.254641e+001
1.283834e+003, 5.182851e+001
1.284316e+003, 5.159477e+001
1.284798e+003, 5.184777e+001
##END=



