##NAMES=Sincosite
##RRUFFID=R141154
##IDEAL CHEMISTRY=Ca(V^4+^O)_2_(P^5+^O_4_)_2_&#183;4H_2_O
##LOCALITY=South Rasmussen Ridge mine, Caribou County, Idaho, USA
##OWNER=RRUFF
##SOURCE=Tom Loomis
##DESCRIPTION=Both dark brassy green and bright green platy crystals. Crystals twinned by a 2-fold around [1 -1 0].
##STATUS=The identification of this mineral has been confirmed by single-crystal X-ray diffraction.
##URL=rruff.info/R141154
9.059570e+001, 4.568397e+002
9.107782e+001, 4.575662e+002
9.155994e+001, 4.578467e+002
9.204205e+001, 4.571569e+002
9.252417e+001, 4.563872e+002
9.300629e+001, 4.560951e+002
9.348840e+001, 4.539709e+002
9.397052e+001, 4.468526e+002
9.445264e+001, 4.333769e+002
9.493475e+001, 4.188575e+002
9.541687e+001, 4.056115e+002
9.589898e+001, 3.942336e+002
9.638110e+001, 3.839977e+002
9.686321e+001, 3.742414e+002
9.734533e+001, 3.644045e+002
9.782745e+001, 3.539707e+002
9.830956e+001, 3.446464e+002
9.879168e+001, 3.360203e+002
9.927380e+001, 3.285653e+002
9.975591e+001, 3.225776e+002
1.002380e+002, 3.177311e+002
1.007201e+002, 3.134162e+002
1.012023e+002, 3.094301e+002
1.016844e+002, 3.056207e+002
1.021665e+002, 3.015057e+002
1.026486e+002, 2.967563e+002
1.031307e+002, 2.918525e+002
1.036128e+002, 2.870479e+002
1.040950e+002, 2.821760e+002
1.045771e+002, 2.780009e+002
1.050592e+002, 2.753895e+002
1.055413e+002, 2.736618e+002
1.060234e+002, 2.719151e+002
1.065055e+002, 2.695492e+002
1.069877e+002, 2.667989e+002
1.074698e+002, 2.647722e+002
1.079519e+002, 2.645482e+002
1.084340e+002, 2.636489e+002
1.089161e+002, 2.609482e+002
1.093982e+002, 2.567663e+002
1.098804e+002, 2.519666e+002
1.103625e+002, 2.471029e+002
1.108446e+002, 2.420216e+002
1.113267e+002, 2.378056e+002
1.118088e+002, 2.347359e+002
1.122909e+002, 2.321884e+002
1.127731e+002, 2.299451e+002
1.132552e+002, 2.279540e+002
1.137373e+002, 2.262302e+002
1.142194e+002, 2.248296e+002
1.147015e+002, 2.239467e+002
1.151836e+002, 2.230576e+002
1.156658e+002, 2.223024e+002
1.161479e+002, 2.214783e+002
1.166300e+002, 2.204198e+002
1.171121e+002, 2.190701e+002
1.175942e+002, 2.174135e+002
1.180763e+002, 2.153235e+002
1.185584e+002, 2.125931e+002
1.190406e+002, 2.099593e+002
1.195227e+002, 2.076090e+002
1.200048e+002, 2.055159e+002
1.204869e+002, 2.035731e+002
1.209690e+002, 2.016854e+002
1.214511e+002, 2.000156e+002
1.219333e+002, 1.987580e+002
1.224154e+002, 1.979965e+002
1.228975e+002, 1.974947e+002
1.233796e+002, 1.972234e+002
1.238617e+002, 1.972456e+002
1.243438e+002, 1.969488e+002
1.248260e+002, 1.958384e+002
1.253081e+002, 1.943190e+002
1.257902e+002, 1.926504e+002
1.262723e+002, 1.908638e+002
1.267544e+002, 1.890660e+002
1.272365e+002, 1.875292e+002
1.277187e+002, 1.863537e+002
1.282008e+002, 1.852932e+002
1.286829e+002, 1.843327e+002
1.291650e+002, 1.834032e+002
1.296471e+002, 1.824073e+002
1.301292e+002, 1.812631e+002
1.306114e+002, 1.799902e+002
1.310935e+002, 1.788711e+002
1.315756e+002, 1.783210e+002
1.320577e+002, 1.775244e+002
1.325398e+002, 1.761277e+002
1.330219e+002, 1.742857e+002
1.335041e+002, 1.724076e+002
1.339862e+002, 1.708496e+002
1.344683e+002, 1.696695e+002
1.349504e+002, 1.684152e+002
1.354325e+002, 1.667847e+002
1.359146e+002, 1.653229e+002
1.363968e+002, 1.644529e+002
1.368789e+002, 1.641707e+002
1.373610e+002, 1.640596e+002
1.378431e+002, 1.636651e+002
1.383252e+002, 1.629209e+002
1.388073e+002, 1.621559e+002
1.392895e+002, 1.612769e+002
1.397716e+002, 1.604254e+002
1.402537e+002, 1.598783e+002
1.407358e+002, 1.597876e+002
1.412179e+002, 1.596498e+002
1.417000e+002, 1.586575e+002
1.421821e+002, 1.568963e+002
1.426643e+002, 1.552124e+002
1.431464e+002, 1.541135e+002
1.436285e+002, 1.534094e+002
1.441106e+002, 1.523288e+002
1.445927e+002, 1.503126e+002
1.450748e+002, 1.483428e+002
1.455570e+002, 1.473590e+002
1.460391e+002, 1.473659e+002
1.465212e+002, 1.475194e+002
1.470033e+002, 1.470439e+002
1.474854e+002, 1.458588e+002
1.479675e+002, 1.448244e+002
1.484497e+002, 1.443849e+002
1.489318e+002, 1.439571e+002
1.494139e+002, 1.431848e+002
1.498960e+002, 1.420053e+002
1.503781e+002, 1.406451e+002
1.508602e+002, 1.394195e+002
1.513424e+002, 1.382787e+002
1.518245e+002, 1.373934e+002
1.523066e+002, 1.368676e+002
1.527887e+002, 1.364916e+002
1.532708e+002, 1.361118e+002
1.537529e+002, 1.356710e+002
1.542351e+002, 1.351929e+002
1.547172e+002, 1.347321e+002
1.551993e+002, 1.341193e+002
1.556814e+002, 1.337574e+002
1.561635e+002, 1.340058e+002
1.566456e+002, 1.344130e+002
1.571278e+002, 1.344180e+002
1.576099e+002, 1.337294e+002
1.580920e+002, 1.325007e+002
1.585741e+002, 1.313671e+002
1.590562e+002, 1.301195e+002
1.595383e+002, 1.291704e+002
1.600205e+002, 1.287937e+002
1.605026e+002, 1.288102e+002
1.609847e+002, 1.288020e+002
1.614668e+002, 1.285139e+002
1.619489e+002, 1.280292e+002
1.624310e+002, 1.277375e+002
1.629131e+002, 1.277740e+002
1.633953e+002, 1.278563e+002
1.638774e+002, 1.278969e+002
1.643595e+002, 1.278842e+002
1.648416e+002, 1.276780e+002
1.653237e+002, 1.270508e+002
1.658058e+002, 1.261946e+002
1.662880e+002, 1.255593e+002
1.667701e+002, 1.252716e+002
1.672522e+002, 1.251576e+002
1.677343e+002, 1.250525e+002
1.682164e+002, 1.249647e+002
1.686985e+002, 1.248471e+002
1.691807e+002, 1.245837e+002
1.696628e+002, 1.242935e+002
1.701449e+002, 1.241265e+002
1.706270e+002, 1.241312e+002
1.711091e+002, 1.242989e+002
1.715912e+002, 1.246927e+002
1.720734e+002, 1.256189e+002
1.725555e+002, 1.261765e+002
1.730376e+002, 1.259460e+002
1.735197e+002, 1.252156e+002
1.740018e+002, 1.243578e+002
1.744839e+002, 1.235398e+002
1.749661e+002, 1.227814e+002
1.754482e+002, 1.222117e+002
1.759303e+002, 1.218461e+002
1.764124e+002, 1.216924e+002
1.768945e+002, 1.219253e+002
1.773766e+002, 1.223567e+002
1.778588e+002, 1.226617e+002
1.783409e+002, 1.225799e+002
1.788230e+002, 1.221067e+002
1.793051e+002, 1.218053e+002
1.797872e+002, 1.219337e+002
1.802693e+002, 1.219793e+002
1.807515e+002, 1.217872e+002
1.812336e+002, 1.213783e+002
1.817157e+002, 1.208426e+002
1.821978e+002, 1.202456e+002
1.826799e+002, 1.195779e+002
1.831620e+002, 1.189351e+002
1.836441e+002, 1.183064e+002
1.841263e+002, 1.177037e+002
1.846084e+002, 1.171853e+002
1.850905e+002, 1.167238e+002
1.855726e+002, 1.161969e+002
1.860547e+002, 1.154843e+002
1.865368e+002, 1.145534e+002
1.870190e+002, 1.136561e+002
1.875011e+002, 1.127904e+002
1.879832e+002, 1.119652e+002
1.884653e+002, 1.111504e+002
1.889474e+002, 1.103527e+002
1.894296e+002, 1.096781e+002
1.899117e+002, 1.092826e+002
1.903938e+002, 1.091620e+002
1.908759e+002, 1.089850e+002
1.913580e+002, 1.087389e+002
1.918401e+002, 1.084112e+002
1.923223e+002, 1.079398e+002
1.928044e+002, 1.072868e+002
1.932865e+002, 1.066492e+002
1.937686e+002, 1.062088e+002
1.942507e+002, 1.059300e+002
1.947328e+002, 1.057783e+002
1.952150e+002, 1.057621e+002
1.956971e+002, 1.058623e+002
1.961792e+002, 1.060852e+002
1.966613e+002, 1.065213e+002
1.971434e+002, 1.068760e+002
1.976255e+002, 1.068735e+002
1.981077e+002, 1.066199e+002
1.985898e+002, 1.063743e+002
1.990719e+002, 1.062940e+002
1.995540e+002, 1.063365e+002
2.000361e+002, 1.063067e+002
2.005182e+002, 1.061087e+002
2.010004e+002, 1.059716e+002
2.014825e+002, 1.060815e+002
2.019646e+002, 1.063495e+002
2.024467e+002, 1.065525e+002
2.029288e+002, 1.064850e+002
2.034109e+002, 1.061698e+002
2.038930e+002, 1.060025e+002
2.043752e+002, 1.061115e+002
2.048573e+002, 1.062502e+002
2.053394e+002, 1.063345e+002
2.058215e+002, 1.063722e+002
2.063036e+002, 1.064022e+002
2.067857e+002, 1.064666e+002
2.072679e+002, 1.065712e+002
2.077500e+002, 1.065973e+002
2.082321e+002, 1.064981e+002
2.087142e+002, 1.063571e+002
2.091963e+002, 1.061687e+002
2.096784e+002, 1.059544e+002
2.101606e+002, 1.057467e+002
2.106427e+002, 1.055566e+002
2.111248e+002, 1.053642e+002
2.116069e+002, 1.053827e+002
2.120890e+002, 1.057387e+002
2.125711e+002, 1.061631e+002
2.130533e+002, 1.066621e+002
2.135354e+002, 1.071601e+002
2.140175e+002, 1.074718e+002
2.144996e+002, 1.073721e+002
2.149817e+002, 1.067317e+002
2.154638e+002, 1.066357e+002
2.159460e+002, 1.073944e+002
2.164281e+002, 1.082885e+002
2.169102e+002, 1.089887e+002
2.173923e+002, 1.094857e+002
2.178744e+002, 1.099624e+002
2.183565e+002, 1.106160e+002
2.188387e+002, 1.114929e+002
2.193208e+002, 1.119738e+002
2.198029e+002, 1.117029e+002
2.202850e+002, 1.113769e+002
2.207671e+002, 1.113784e+002
2.212492e+002, 1.117321e+002
2.217314e+002, 1.123148e+002
2.222135e+002, 1.130781e+002
2.226956e+002, 1.140315e+002
2.231777e+002, 1.148077e+002
2.236598e+002, 1.153028e+002
2.241419e+002, 1.157014e+002
2.246240e+002, 1.160276e+002
2.251062e+002, 1.163067e+002
2.255883e+002, 1.168120e+002
2.260704e+002, 1.178720e+002
2.265525e+002, 1.194142e+002
2.270346e+002, 1.207683e+002
2.275167e+002, 1.216669e+002
2.279989e+002, 1.225011e+002
2.284810e+002, 1.235812e+002
2.289631e+002, 1.249194e+002
2.294452e+002, 1.264768e+002
2.299273e+002, 1.282329e+002
2.304094e+002, 1.301944e+002
2.308916e+002, 1.323876e+002
2.313737e+002, 1.348031e+002
2.318558e+002, 1.374558e+002
2.323379e+002, 1.405140e+002
2.328200e+002, 1.440621e+002
2.333021e+002, 1.474235e+002
2.337843e+002, 1.502865e+002
2.342664e+002, 1.526570e+002
2.347485e+002, 1.544649e+002
2.352306e+002, 1.556925e+002
2.357127e+002, 1.563451e+002
2.361948e+002, 1.564070e+002
2.366770e+002, 1.558409e+002
2.371591e+002, 1.548218e+002
2.376412e+002, 1.532117e+002
2.381233e+002, 1.512625e+002
2.386054e+002, 1.492151e+002
2.390875e+002, 1.471897e+002
2.395697e+002, 1.450271e+002
2.400518e+002, 1.424276e+002
2.405339e+002, 1.392463e+002
2.410160e+002, 1.360511e+002
2.414981e+002, 1.329169e+002
2.419802e+002, 1.299330e+002
2.424624e+002, 1.271793e+002
2.429445e+002, 1.246708e+002
2.434266e+002, 1.224716e+002
2.439087e+002, 1.206994e+002
2.443908e+002, 1.193904e+002
2.448729e+002, 1.184444e+002
2.453550e+002, 1.179619e+002
2.458372e+002, 1.177289e+002
2.463193e+002, 1.175765e+002
2.468014e+002, 1.174460e+002
2.472835e+002, 1.173973e+002
2.477656e+002, 1.175834e+002
2.482477e+002, 1.181792e+002
2.487299e+002, 1.185816e+002
2.492120e+002, 1.183621e+002
2.496941e+002, 1.181180e+002
2.501762e+002, 1.184084e+002
2.506583e+002, 1.193876e+002
2.511404e+002, 1.206127e+002
2.516226e+002, 1.213041e+002
2.521047e+002, 1.211186e+002
2.525868e+002, 1.211673e+002
2.530689e+002, 1.217097e+002
2.535510e+002, 1.223795e+002
2.540331e+002, 1.229168e+002
2.545153e+002, 1.232579e+002
2.549974e+002, 1.235261e+002
2.554795e+002, 1.239405e+002
2.559616e+002, 1.246847e+002
2.564437e+002, 1.251612e+002
2.569258e+002, 1.251858e+002
2.574080e+002, 1.251193e+002
2.578901e+002, 1.252378e+002
2.583722e+002, 1.255700e+002
2.588543e+002, 1.259136e+002
2.593364e+002, 1.260113e+002
2.598185e+002, 1.258662e+002
2.603007e+002, 1.254217e+002
2.607828e+002, 1.244958e+002
2.612649e+002, 1.234734e+002
2.617470e+002, 1.226923e+002
2.622291e+002, 1.221260e+002
2.627112e+002, 1.214179e+002
2.631934e+002, 1.201072e+002
2.636755e+002, 1.179367e+002
2.641576e+002, 1.160913e+002
2.646397e+002, 1.146799e+002
2.651218e+002, 1.134357e+002
2.656039e+002, 1.122797e+002
2.660861e+002, 1.111750e+002
2.665682e+002, 1.100582e+002
2.670503e+002, 1.088470e+002
2.675324e+002, 1.074959e+002
2.680145e+002, 1.063917e+002
2.684966e+002, 1.057937e+002
2.689788e+002, 1.051559e+002
2.694609e+002, 1.041325e+002
2.699430e+002, 1.028005e+002
2.704251e+002, 1.015018e+002
2.709072e+002, 1.005194e+002
2.713893e+002, 9.987174e+001
2.718715e+002, 9.920348e+001
2.723536e+002, 9.856346e+001
2.728357e+002, 9.786296e+001
2.733178e+002, 9.695884e+001
2.737999e+002, 9.594823e+001
2.742820e+002, 9.510920e+001
2.747642e+002, 9.465836e+001
2.752463e+002, 9.455103e+001
2.757284e+002, 9.424062e+001
2.762105e+002, 9.368530e+001
2.766926e+002, 9.302825e+001
2.771747e+002, 9.218972e+001
2.776568e+002, 9.127935e+001
2.781389e+002, 9.055972e+001
2.786211e+002, 9.020194e+001
2.791032e+002, 9.010061e+001
2.795853e+002, 8.979314e+001
2.800674e+002, 8.910800e+001
2.805495e+002, 8.846238e+001
2.810316e+002, 8.806559e+001
2.815138e+002, 8.776621e+001
2.819959e+002, 8.726484e+001
2.824780e+002, 8.641152e+001
2.829601e+002, 8.535527e+001
2.834422e+002, 8.448921e+001
2.839243e+002, 8.380451e+001
2.844065e+002, 8.327281e+001
2.848886e+002, 8.303423e+001
2.853707e+002, 8.290890e+001
2.858528e+002, 8.260204e+001
2.863349e+002, 8.200050e+001
2.868170e+002, 8.129287e+001
2.872992e+002, 8.082188e+001
2.877813e+002, 8.069709e+001
2.882634e+002, 8.042364e+001
2.887455e+002, 7.978538e+001
2.892276e+002, 7.901539e+001
2.897097e+002, 7.841452e+001
2.901919e+002, 7.805451e+001
2.906740e+002, 7.777731e+001
2.911561e+002, 7.738490e+001
2.916382e+002, 7.686020e+001
2.921203e+002, 7.636134e+001
2.926024e+002, 7.587759e+001
2.930846e+002, 7.544095e+001
2.935667e+002, 7.508459e+001
2.940488e+002, 7.481110e+001
2.945309e+002, 7.460802e+001
2.950130e+002, 7.449635e+001
2.954951e+002, 7.447337e+001
2.959773e+002, 7.434698e+001
2.964594e+002, 7.400291e+001
2.969415e+002, 7.363044e+001
2.974236e+002, 7.342001e+001
2.979057e+002, 7.335999e+001
2.983878e+002, 7.322781e+001
2.988700e+002, 7.282780e+001
2.993521e+002, 7.221314e+001
2.998342e+002, 7.175899e+001
3.003163e+002, 7.147294e+001
3.007984e+002, 7.133725e+001
3.012805e+002, 7.146235e+001
3.017627e+002, 7.177470e+001
3.022448e+002, 7.193404e+001
3.027269e+002, 7.172758e+001
3.032090e+002, 7.126656e+001
3.036911e+002, 7.090854e+001
3.041732e+002, 7.071676e+001
3.046554e+002, 7.051260e+001
3.051375e+002, 7.012427e+001
3.056196e+002, 6.965640e+001
3.061017e+002, 6.942023e+001
3.065838e+002, 6.959500e+001
3.070659e+002, 6.994125e+001
3.075481e+002, 6.998707e+001
3.080302e+002, 6.970380e+001
3.085123e+002, 6.934995e+001
3.089944e+002, 6.888882e+001
3.094765e+002, 6.843497e+001
3.099586e+002, 6.824028e+001
3.104408e+002, 6.840816e+001
3.109229e+002, 6.867410e+001
3.114050e+002, 6.864563e+001
3.118871e+002, 6.831040e+001
3.123692e+002, 6.809290e+001
3.128513e+002, 6.823436e+001
3.133335e+002, 6.846315e+001
3.138156e+002, 6.841274e+001
3.142977e+002, 6.802148e+001
3.147798e+002, 6.758823e+001
3.152619e+002, 6.741515e+001
3.157440e+002, 6.748016e+001
3.162262e+002, 6.742001e+001
3.167083e+002, 6.708965e+001
3.171904e+002, 6.670533e+001
3.176725e+002, 6.644370e+001
3.181546e+002, 6.630548e+001
3.186367e+002, 6.620643e+001
3.191188e+002, 6.610262e+001
3.196010e+002, 6.599189e+001
3.200831e+002, 6.586906e+001
3.205652e+002, 6.582258e+001
3.210473e+002, 6.567825e+001
3.215294e+002, 6.521616e+001
3.220115e+002, 6.454544e+001
3.224937e+002, 6.406488e+001
3.229758e+002, 6.400355e+001
3.234579e+002, 6.419981e+001
3.239400e+002, 6.423370e+001
3.244221e+002, 6.402670e+001
3.249042e+002, 6.385909e+001
3.253864e+002, 6.389574e+001
3.258685e+002, 6.403008e+001
3.263506e+002, 6.408382e+001
3.268327e+002, 6.401550e+001
3.273148e+002, 6.379411e+001
3.277969e+002, 6.326032e+001
3.282791e+002, 6.230639e+001
3.287612e+002, 6.168882e+001
3.292433e+002, 6.182912e+001
3.297254e+002, 6.224987e+001
3.302075e+002, 6.238976e+001
3.306896e+002, 6.215205e+001
3.311718e+002, 6.178952e+001
3.316539e+002, 6.152913e+001
3.321360e+002, 6.138206e+001
3.326181e+002, 6.127954e+001
3.331002e+002, 6.121673e+001
3.335823e+002, 6.120054e+001
3.340645e+002, 6.129387e+001
3.345466e+002, 6.146992e+001
3.350287e+002, 6.154940e+001
3.355108e+002, 6.137097e+001
3.359929e+002, 6.098579e+001
3.364750e+002, 6.078479e+001
3.369572e+002, 6.098789e+001
3.374393e+002, 6.112060e+001
3.379214e+002, 6.089244e+001
3.384035e+002, 6.043755e+001
3.388856e+002, 6.010494e+001
3.393677e+002, 6.008116e+001
3.398499e+002, 6.021872e+001
3.403320e+002, 6.008963e+001
3.408141e+002, 5.942691e+001
3.412962e+002, 5.901604e+001
3.417783e+002, 5.918634e+001
3.422604e+002, 5.962516e+001
3.427426e+002, 5.994072e+001
3.432247e+002, 6.002025e+001
3.437068e+002, 5.997773e+001
3.441889e+002, 5.998087e+001
3.446710e+002, 6.010135e+001
3.451531e+002, 6.001909e+001
3.456353e+002, 5.944935e+001
3.461174e+002, 5.887338e+001
3.465995e+002, 5.874028e+001
3.470816e+002, 5.903932e+001
3.475637e+002, 5.937149e+001
3.480458e+002, 5.937762e+001
3.485280e+002, 5.903780e+001
3.490101e+002, 5.873277e+001
3.494922e+002, 5.844765e+001
3.499743e+002, 5.820519e+001
3.504564e+002, 5.801105e+001
3.509385e+002, 5.786940e+001
3.514207e+002, 5.779740e+001
3.519028e+002, 5.781301e+001
3.523849e+002, 5.789023e+001
3.528670e+002, 5.791653e+001
3.533491e+002, 5.787493e+001
3.538312e+002, 5.780432e+001
3.543134e+002, 5.766438e+001
3.547955e+002, 5.751555e+001
3.552776e+002, 5.742667e+001
3.557597e+002, 5.742200e+001
3.562418e+002, 5.747972e+001
3.567239e+002, 5.757343e+001
3.572061e+002, 5.778786e+001
3.576882e+002, 5.785132e+001
3.581703e+002, 5.767552e+001
3.586524e+002, 5.742997e+001
3.591345e+002, 5.723331e+001
3.596166e+002, 5.709110e+001
3.600987e+002, 5.692626e+001
3.605808e+002, 5.664186e+001
3.610630e+002, 5.620515e+001
3.615451e+002, 5.597205e+001
3.620272e+002, 5.607810e+001
3.625093e+002, 5.623166e+001
3.629914e+002, 5.637910e+001
3.634735e+002, 5.650002e+001
3.639557e+002, 5.658600e+001
3.644378e+002, 5.663781e+001
3.649199e+002, 5.663519e+001
3.654020e+002, 5.647878e+001
3.658841e+002, 5.593120e+001
3.663662e+002, 5.556121e+001
3.668484e+002, 5.547884e+001
3.673305e+002, 5.557276e+001
3.678126e+002, 5.579944e+001
3.682947e+002, 5.612560e+001
3.687768e+002, 5.641613e+001
3.692589e+002, 5.642011e+001
3.697411e+002, 5.597098e+001
3.702232e+002, 5.569062e+001
3.707053e+002, 5.569076e+001
3.711874e+002, 5.577515e+001
3.716695e+002, 5.588317e+001
3.721516e+002, 5.598803e+001
3.726338e+002, 5.605954e+001
3.731159e+002, 5.607878e+001
3.735980e+002, 5.604494e+001
3.740801e+002, 5.591165e+001
3.745622e+002, 5.547765e+001
3.750443e+002, 5.520089e+001
3.755265e+002, 5.531557e+001
3.760086e+002, 5.565560e+001
3.764907e+002, 5.596789e+001
3.769728e+002, 5.613147e+001
3.774549e+002, 5.619762e+001
3.779370e+002, 5.627799e+001
3.784192e+002, 5.637910e+001
3.789013e+002, 5.647599e+001
3.793834e+002, 5.658015e+001
3.798655e+002, 5.666677e+001
3.803476e+002, 5.667517e+001
3.808297e+002, 5.659653e+001
3.813119e+002, 5.658064e+001
3.817940e+002, 5.688364e+001
3.822761e+002, 5.749482e+001
3.827582e+002, 5.779918e+001
3.832403e+002, 5.750316e+001
3.837224e+002, 5.712978e+001
3.842046e+002, 5.701572e+001
3.846867e+002, 5.712439e+001
3.851688e+002, 5.730798e+001
3.856509e+002, 5.751331e+001
3.861330e+002, 5.773368e+001
3.866151e+002, 5.795103e+001
3.870973e+002, 5.815777e+001
3.875794e+002, 5.838617e+001
3.880615e+002, 5.869070e+001
3.885436e+002, 5.901945e+001
3.890257e+002, 5.929142e+001
3.895078e+002, 5.946303e+001
3.899900e+002, 5.962593e+001
3.904721e+002, 5.991578e+001
3.909542e+002, 6.030272e+001
3.914363e+002, 6.051412e+001
3.919184e+002, 6.035586e+001
3.924005e+002, 6.011485e+001
3.928827e+002, 6.022422e+001
3.933648e+002, 6.070742e+001
3.938469e+002, 6.114868e+001
3.943290e+002, 6.138472e+001
3.948111e+002, 6.147876e+001
3.952932e+002, 6.151859e+001
3.957754e+002, 6.151569e+001
3.962575e+002, 6.146846e+001
3.967396e+002, 6.132143e+001
3.972217e+002, 6.110385e+001
3.977038e+002, 6.108327e+001
3.981859e+002, 6.151844e+001
3.986681e+002, 6.193751e+001
3.991501e+002, 6.194173e+001
3.996323e+002, 6.164322e+001
4.001144e+002, 6.150383e+001
4.005965e+002, 6.180837e+001
4.010786e+002, 6.233345e+001
4.015607e+002, 6.239357e+001
4.020428e+002, 6.167560e+001
4.025250e+002, 6.111979e+001
4.030071e+002, 6.101267e+001
4.034892e+002, 6.109409e+001
4.039713e+002, 6.108839e+001
4.044534e+002, 6.092811e+001
4.049355e+002, 6.067088e+001
4.054177e+002, 6.037531e+001
4.058998e+002, 6.003318e+001
4.063819e+002, 5.970094e+001
4.068640e+002, 5.931174e+001
4.073461e+002, 5.899465e+001
4.078282e+002, 5.888298e+001
4.083104e+002, 5.889858e+001
4.087925e+002, 5.884389e+001
4.092746e+002, 5.858922e+001
4.097567e+002, 5.817898e+001
4.102388e+002, 5.781446e+001
4.107209e+002, 5.753761e+001
4.112031e+002, 5.725625e+001
4.116852e+002, 5.688403e+001
4.121673e+002, 5.654606e+001
4.126494e+002, 5.641705e+001
4.131315e+002, 5.651794e+001
4.136136e+002, 5.664489e+001
4.140958e+002, 5.648306e+001
4.145779e+002, 5.590240e+001
4.150600e+002, 5.555445e+001
4.155421e+002, 5.580015e+001
4.160242e+002, 5.594786e+001
4.165063e+002, 5.558637e+001
4.169885e+002, 5.490018e+001
4.174706e+002, 5.437813e+001
4.179527e+002, 5.437416e+001
4.184348e+002, 5.471970e+001
4.189169e+002, 5.481885e+001
4.193990e+002, 5.454959e+001
4.198812e+002, 5.430159e+001
4.203633e+002, 5.426824e+001
4.208454e+002, 5.427119e+001
4.213275e+002, 5.409995e+001
4.218096e+002, 5.369738e+001
4.222917e+002, 5.332147e+001
4.227739e+002, 5.328624e+001
4.232560e+002, 5.357264e+001
4.237381e+002, 5.378926e+001
4.242202e+002, 5.390497e+001
4.247023e+002, 5.389296e+001
4.251844e+002, 5.362838e+001
4.256666e+002, 5.320417e+001
4.261487e+002, 5.296517e+001
4.266308e+002, 5.318599e+001
4.271129e+002, 5.361601e+001
4.275950e+002, 5.393028e+001
4.280771e+002, 5.413233e+001
4.285593e+002, 5.415224e+001
4.290414e+002, 5.390494e+001
4.295235e+002, 5.346154e+001
4.300056e+002, 5.300270e+001
4.304877e+002, 5.249370e+001
4.309698e+002, 5.204951e+001
4.314520e+002, 5.176955e+001
4.319341e+002, 5.159019e+001
4.324162e+002, 5.135629e+001
4.328983e+002, 5.101715e+001
4.333804e+002, 5.072129e+001
4.338625e+002, 5.068052e+001
4.343447e+002, 5.094398e+001
4.348268e+002, 5.105136e+001
4.353089e+002, 5.085612e+001
4.357910e+002, 5.061225e+001
4.362731e+002, 5.051838e+001
4.367552e+002, 5.053048e+001
4.372374e+002, 5.044617e+001
4.377195e+002, 5.012572e+001
4.382016e+002, 4.966531e+001
4.386837e+002, 4.943944e+001
4.391658e+002, 4.975096e+001
4.396479e+002, 4.991062e+001
4.401301e+002, 4.975747e+001
4.406122e+002, 4.949841e+001
4.410943e+002, 4.932033e+001
4.415764e+002, 4.926435e+001
4.420585e+002, 4.926231e+001
4.425406e+002, 4.923459e+001
4.430227e+002, 4.917013e+001
4.435049e+002, 4.916219e+001
4.439870e+002, 4.932984e+001
4.444691e+002, 4.943072e+001
4.449512e+002, 4.936754e+001
4.454333e+002, 4.919093e+001
4.459154e+002, 4.894072e+001
4.463976e+002, 4.861384e+001
4.468797e+002, 4.835315e+001
4.473618e+002, 4.857882e+001
4.478439e+002, 4.958265e+001
4.483260e+002, 5.019860e+001
4.488081e+002, 4.987560e+001
4.492903e+002, 4.934168e+001
4.497724e+002, 4.903122e+001
4.502545e+002, 4.897028e+001
4.507366e+002, 4.893649e+001
4.512187e+002, 4.872486e+001
4.517008e+002, 4.839230e+001
4.521830e+002, 4.819311e+001
4.526651e+002, 4.815954e+001
4.531472e+002, 4.819198e+001
4.536293e+002, 4.827366e+001
4.541114e+002, 4.837458e+001
4.545935e+002, 4.845996e+001
4.550757e+002, 4.854519e+001
4.555578e+002, 4.856804e+001
4.560399e+002, 4.842172e+001
4.565220e+002, 4.815302e+001
4.570041e+002, 4.797262e+001
4.574862e+002, 4.795827e+001
4.579684e+002, 4.801319e+001
4.584505e+002, 4.801424e+001
4.589326e+002, 4.796242e+001
4.594147e+002, 4.792121e+001
4.598968e+002, 4.787377e+001
4.603789e+002, 4.786228e+001
4.608611e+002, 4.798913e+001
4.613432e+002, 4.821511e+001
4.618253e+002, 4.831612e+001
4.623074e+002, 4.812758e+001
4.627895e+002, 4.773683e+001
4.632716e+002, 4.750399e+001
4.637538e+002, 4.759399e+001
4.642359e+002, 4.761475e+001
4.647180e+002, 4.744021e+001
4.652001e+002, 4.721962e+001
4.656822e+002, 4.710303e+001
4.661643e+002, 4.711947e+001
4.666465e+002, 4.721324e+001
4.671286e+002, 4.733913e+001
4.676107e+002, 4.751258e+001
4.680928e+002, 4.757292e+001
4.685749e+002, 4.741511e+001
4.690570e+002, 4.725343e+001
4.695392e+002, 4.712708e+001
4.700213e+002, 4.703741e+001
4.705034e+002, 4.700126e+001
4.709855e+002, 4.703007e+001
4.714676e+002, 4.705231e+001
4.719497e+002, 4.689106e+001
4.724319e+002, 4.645857e+001
4.729140e+002, 4.623153e+001
4.733961e+002, 4.644699e+001
4.738782e+002, 4.675152e+001
4.743603e+002, 4.700097e+001
4.748424e+002, 4.717236e+001
4.753246e+002, 4.724306e+001
4.758067e+002, 4.719401e+001
4.762888e+002, 4.703611e+001
4.767709e+002, 4.673429e+001
4.772530e+002, 4.624735e+001
4.777351e+002, 4.589042e+001
4.782173e+002, 4.589196e+001
4.786994e+002, 4.607300e+001
4.791815e+002, 4.615160e+001
4.796636e+002, 4.610512e+001
4.801457e+002, 4.599925e+001
4.806278e+002, 4.579896e+001
4.811100e+002, 4.557802e+001
4.815920e+002, 4.551821e+001
4.820742e+002, 4.566025e+001
4.825563e+002, 4.575202e+001
4.830384e+002, 4.551210e+001
4.835205e+002, 4.495424e+001
4.840026e+002, 4.469155e+001
4.844847e+002, 4.499480e+001
4.849669e+002, 4.528008e+001
4.854490e+002, 4.526327e+001
4.859311e+002, 4.507714e+001
4.864132e+002, 4.496697e+001
4.868953e+002, 4.502382e+001
4.873774e+002, 4.516040e+001
4.878596e+002, 4.523235e+001
4.883417e+002, 4.520783e+001
4.888238e+002, 4.520615e+001
4.893059e+002, 4.521424e+001
4.897880e+002, 4.525331e+001
4.902701e+002, 4.543575e+001
4.907523e+002, 4.565450e+001
4.912344e+002, 4.565061e+001
4.917165e+002, 4.523290e+001
4.921986e+002, 4.459183e+001
4.926807e+002, 4.426074e+001
4.931628e+002, 4.433152e+001
4.936450e+002, 4.446076e+001
4.941271e+002, 4.460246e+001
4.946092e+002, 4.476163e+001
4.950913e+002, 4.499048e+001
4.955734e+002, 4.526866e+001
4.960555e+002, 4.544705e+001
4.965377e+002, 4.534601e+001
4.970198e+002, 4.507186e+001
4.975019e+002, 4.491680e+001
4.979840e+002, 4.490095e+001
4.984661e+002, 4.493764e+001
4.989482e+002, 4.500261e+001
4.994304e+002, 4.508309e+001
4.999125e+002, 4.515717e+001
5.003946e+002, 4.523146e+001
5.008767e+002, 4.528106e+001
5.013588e+002, 4.530183e+001
5.018409e+002, 4.528798e+001
5.023231e+002, 4.519204e+001
5.028052e+002, 4.500250e+001
5.032873e+002, 4.487415e+001
5.037694e+002, 4.499125e+001
5.042515e+002, 4.536631e+001
5.047336e+002, 4.551965e+001
5.052158e+002, 4.530648e+001
5.056979e+002, 4.506098e+001
5.061800e+002, 4.487397e+001
5.066621e+002, 4.473909e+001
5.071442e+002, 4.462914e+001
5.076263e+002, 4.453605e+001
5.081085e+002, 4.449542e+001
5.085906e+002, 4.458472e+001
5.090727e+002, 4.487749e+001
5.095548e+002, 4.503321e+001
5.100369e+002, 4.493097e+001
5.105190e+002, 4.481125e+001
5.110012e+002, 4.478341e+001
5.114833e+002, 4.480202e+001
5.119654e+002, 4.475771e+001
5.124475e+002, 4.458113e+001
5.129296e+002, 4.436501e+001
5.134117e+002, 4.431470e+001
5.138939e+002, 4.446802e+001
5.143760e+002, 4.447839e+001
5.148581e+002, 4.408941e+001
5.153402e+002, 4.372047e+001
5.158223e+002, 4.380301e+001
5.163044e+002, 4.426203e+001
5.167866e+002, 4.458324e+001
5.172687e+002, 4.448911e+001
5.177508e+002, 4.417696e+001
5.182329e+002, 4.381464e+001
5.187150e+002, 4.342278e+001
5.191971e+002, 4.321590e+001
5.196793e+002, 4.334148e+001
5.201614e+002, 4.365772e+001
5.206435e+002, 4.383796e+001
5.211256e+002, 4.383313e+001
5.216077e+002, 4.386879e+001
5.220898e+002, 4.411974e+001
5.225720e+002, 4.433044e+001
5.230541e+002, 4.418624e+001
5.235362e+002, 4.374212e+001
5.240183e+002, 4.335376e+001
5.245004e+002, 4.328249e+001
5.249825e+002, 4.347366e+001
5.254647e+002, 4.365143e+001
5.259468e+002, 4.386310e+001
5.264289e+002, 4.398476e+001
5.269110e+002, 4.386336e+001
5.273931e+002, 4.375150e+001
5.278752e+002, 4.393101e+001
5.283574e+002, 4.438182e+001
5.288395e+002, 4.477959e+001
5.293216e+002, 4.479867e+001
5.298037e+002, 4.451043e+001
5.302858e+002, 4.434869e+001
5.307679e+002, 4.433837e+001
5.312501e+002, 4.439896e+001
5.317322e+002, 4.460762e+001
5.322143e+002, 4.481622e+001
5.326964e+002, 4.482180e+001
5.331785e+002, 4.455623e+001
5.336606e+002, 4.435690e+001
5.341428e+002, 4.451653e+001
5.346249e+002, 4.488522e+001
5.351070e+002, 4.514198e+001
5.355891e+002, 4.524153e+001
5.360712e+002, 4.528460e+001
5.365533e+002, 4.531362e+001
5.370355e+002, 4.534955e+001
5.375176e+002, 4.550256e+001
5.379997e+002, 4.587271e+001
5.384818e+002, 4.622679e+001
5.389639e+002, 4.653925e+001
5.394460e+002, 4.678248e+001
5.399282e+002, 4.688822e+001
5.404103e+002, 4.685890e+001
5.408924e+002, 4.682041e+001
5.413745e+002, 4.692575e+001
5.418566e+002, 4.718488e+001
5.423387e+002, 4.723780e+001
5.428209e+002, 4.670876e+001
5.433029e+002, 4.642499e+001
5.437850e+002, 4.672062e+001
5.442672e+002, 4.726445e+001
5.447493e+002, 4.769750e+001
5.452314e+002, 4.792107e+001
5.457135e+002, 4.804464e+001
5.461956e+002, 4.819815e+001
5.466777e+002, 4.837035e+001
5.471599e+002, 4.841724e+001
5.476420e+002, 4.831651e+001
5.481241e+002, 4.812273e+001
5.486062e+002, 4.770985e+001
5.490883e+002, 4.726022e+001
5.495704e+002, 4.711335e+001
5.500526e+002, 4.746346e+001
5.505347e+002, 4.782796e+001
5.510168e+002, 4.782308e+001
5.514989e+002, 4.762970e+001
5.519810e+002, 4.769213e+001
5.524631e+002, 4.811071e+001
5.529453e+002, 4.847679e+001
5.534274e+002, 4.835929e+001
5.539095e+002, 4.775487e+001
5.543916e+002, 4.745634e+001
5.548737e+002, 4.773718e+001
5.553558e+002, 4.794793e+001
5.558380e+002, 4.783458e+001
5.563201e+002, 4.758714e+001
5.568022e+002, 4.746661e+001
5.572843e+002, 4.752892e+001
5.577664e+002, 4.760444e+001
5.582485e+002, 4.746273e+001
5.587307e+002, 4.708974e+001
5.592128e+002, 4.692074e+001
5.596949e+002, 4.705938e+001
5.601770e+002, 4.726606e+001
5.606591e+002, 4.763812e+001
5.611412e+002, 4.794643e+001
5.616234e+002, 4.784637e+001
5.621055e+002, 4.721944e+001
5.625876e+002, 4.653616e+001
5.630697e+002, 4.617027e+001
5.635518e+002, 4.607661e+001
5.640339e+002, 4.617150e+001
5.645161e+002, 4.650136e+001
5.649982e+002, 4.673000e+001
5.654803e+002, 4.658837e+001
5.659624e+002, 4.613720e+001
5.664445e+002, 4.570198e+001
5.669266e+002, 4.513658e+001
5.674088e+002, 4.479258e+001
5.678909e+002, 4.496105e+001
5.683730e+002, 4.533628e+001
5.688551e+002, 4.553212e+001
5.693372e+002, 4.548534e+001
5.698193e+002, 4.537652e+001
5.703015e+002, 4.538097e+001
5.707836e+002, 4.548695e+001
5.712657e+002, 4.546605e+001
5.717478e+002, 4.519801e+001
5.722299e+002, 4.495963e+001
5.727120e+002, 4.474623e+001
5.731942e+002, 4.460819e+001
5.736763e+002, 4.464227e+001
5.741584e+002, 4.483674e+001
5.746405e+002, 4.500549e+001
5.751226e+002, 4.500550e+001
5.756047e+002, 4.484762e+001
5.760869e+002, 4.451725e+001
5.765690e+002, 4.393949e+001
5.770511e+002, 4.350955e+001
5.775332e+002, 4.349256e+001
5.780153e+002, 4.369875e+001
5.784974e+002, 4.381240e+001
5.789796e+002, 4.380953e+001
5.794617e+002, 4.380002e+001
5.799438e+002, 4.384618e+001
5.804259e+002, 4.389503e+001
5.809080e+002, 4.391222e+001
5.813901e+002, 4.388186e+001
5.818723e+002, 4.372049e+001
5.823544e+002, 4.333998e+001
5.828365e+002, 4.285829e+001
5.833186e+002, 4.268403e+001
5.838007e+002, 4.319361e+001
5.842828e+002, 4.343813e+001
5.847650e+002, 4.322710e+001
5.852471e+002, 4.291122e+001
5.857292e+002, 4.269293e+001
5.862113e+002, 4.257948e+001
5.866934e+002, 4.250472e+001
5.871755e+002, 4.243836e+001
5.876577e+002, 4.236420e+001
5.881398e+002, 4.222134e+001
5.886219e+002, 4.198690e+001
5.891040e+002, 4.184119e+001
5.895861e+002, 4.184941e+001
5.900682e+002, 4.193962e+001
5.905504e+002, 4.207331e+001
5.910325e+002, 4.223759e+001
5.915146e+002, 4.234380e+001
5.919967e+002, 4.234839e+001
5.924788e+002, 4.229787e+001
5.929609e+002, 4.219471e+001
5.934431e+002, 4.206649e+001
5.939252e+002, 4.198928e+001
5.944073e+002, 4.199072e+001
5.948894e+002, 4.205729e+001
5.953715e+002, 4.218571e+001
5.958536e+002, 4.241531e+001
5.963358e+002, 4.252435e+001
5.968179e+002, 4.241758e+001
5.973000e+002, 4.231477e+001
5.977821e+002, 4.231290e+001
5.982642e+002, 4.235609e+001
5.987463e+002, 4.235534e+001
5.992285e+002, 4.228104e+001
5.997106e+002, 4.218170e+001
6.001927e+002, 4.211485e+001
6.006748e+002, 4.207899e+001
6.011569e+002, 4.204200e+001
6.016390e+002, 4.200215e+001
6.021212e+002, 4.196225e+001
6.026033e+002, 4.195251e+001
6.030854e+002, 4.193447e+001
6.035675e+002, 4.182521e+001
6.040496e+002, 4.155994e+001
6.045317e+002, 4.136665e+001
6.050139e+002, 4.144865e+001
6.054960e+002, 4.163375e+001
6.059781e+002, 4.164499e+001
6.064602e+002, 4.146532e+001
6.069423e+002, 4.128723e+001
6.074244e+002, 4.125024e+001
6.079066e+002, 4.132525e+001
6.083887e+002, 4.138111e+001
6.088708e+002, 4.141846e+001
6.093529e+002, 4.143365e+001
6.098350e+002, 4.142584e+001
6.103171e+002, 4.139771e+001
6.107993e+002, 4.133824e+001
6.112814e+002, 4.125850e+001
6.117635e+002, 4.118815e+001
6.122456e+002, 4.114305e+001
6.127277e+002, 4.112332e+001
6.132098e+002, 4.113137e+001
6.136920e+002, 4.116842e+001
6.141741e+002, 4.122649e+001
6.146562e+002, 4.134029e+001
6.151383e+002, 4.142573e+001
6.156204e+002, 4.136571e+001
6.161025e+002, 4.118782e+001
6.165847e+002, 4.105948e+001
6.170668e+002, 4.099416e+001
6.175489e+002, 4.100808e+001
6.180310e+002, 4.119429e+001
6.185131e+002, 4.145256e+001
6.189952e+002, 4.157538e+001
6.194774e+002, 4.150286e+001
6.199595e+002, 4.133461e+001
6.204416e+002, 4.117601e+001
6.209237e+002, 4.102296e+001
6.214058e+002, 4.093557e+001
6.218879e+002, 4.097364e+001
6.223701e+002, 4.100684e+001
6.228522e+002, 4.101072e+001
6.233343e+002, 4.099572e+001
6.238164e+002, 4.096235e+001
6.242985e+002, 4.091493e+001
6.247806e+002, 4.088660e+001
6.252628e+002, 4.096395e+001
6.257448e+002, 4.107287e+001
6.262269e+002, 4.094260e+001
6.267090e+002, 4.053588e+001
6.271912e+002, 4.029126e+001
6.276733e+002, 4.046298e+001
6.281554e+002, 4.085943e+001
6.286375e+002, 4.113806e+001
6.291196e+002, 4.129942e+001
6.296017e+002, 4.138156e+001
6.300839e+002, 4.136897e+001
6.305660e+002, 4.129810e+001
6.310481e+002, 4.115899e+001
6.315302e+002, 4.098488e+001
6.320123e+002, 4.083599e+001
6.324944e+002, 4.074043e+001
6.329766e+002, 4.069592e+001
6.334587e+002, 4.070411e+001
6.339408e+002, 4.077185e+001
6.344229e+002, 4.086122e+001
6.349050e+002, 4.101368e+001
6.353871e+002, 4.113049e+001
6.358693e+002, 4.118758e+001
6.363514e+002, 4.117976e+001
6.368335e+002, 4.107723e+001
6.373156e+002, 4.084736e+001
6.377977e+002, 4.064230e+001
6.382798e+002, 4.054329e+001
6.387620e+002, 4.055269e+001
6.392441e+002, 4.074684e+001
6.397262e+002, 4.112044e+001
6.402083e+002, 4.137452e+001
6.406904e+002, 4.127935e+001
6.411725e+002, 4.096161e+001
6.416547e+002, 4.084729e+001
6.421368e+002, 4.120339e+001
6.426189e+002, 4.137020e+001
6.431010e+002, 4.115090e+001
6.435831e+002, 4.091789e+001
6.440652e+002, 4.093011e+001
6.445474e+002, 4.112816e+001
6.450295e+002, 4.130295e+001
6.455116e+002, 4.133793e+001
6.459937e+002, 4.133063e+001
6.464758e+002, 4.151215e+001
6.469579e+002, 4.187874e+001
6.474401e+002, 4.191706e+001
6.479222e+002, 4.139888e+001
6.484043e+002, 4.086485e+001
6.488864e+002, 4.075278e+001
6.493685e+002, 4.095740e+001
6.498506e+002, 4.115192e+001
6.503328e+002, 4.125447e+001
6.508149e+002, 4.143394e+001
6.512970e+002, 4.193367e+001
6.517791e+002, 4.244889e+001
6.522612e+002, 4.254091e+001
6.527433e+002, 4.221772e+001
6.532255e+002, 4.186773e+001
6.537076e+002, 4.178388e+001
6.541897e+002, 4.188408e+001
6.546718e+002, 4.183901e+001
6.551539e+002, 4.152026e+001
6.556360e+002, 4.136811e+001
6.561182e+002, 4.162691e+001
6.566003e+002, 4.191120e+001
6.570824e+002, 4.198006e+001
6.575645e+002, 4.189530e+001
6.580466e+002, 4.188204e+001
6.585287e+002, 4.208639e+001
6.590109e+002, 4.229436e+001
6.594930e+002, 4.228398e+001
6.599751e+002, 4.211584e+001
6.604572e+002, 4.193398e+001
6.609393e+002, 4.176695e+001
6.614214e+002, 4.168053e+001
6.619036e+002, 4.176141e+001
6.623857e+002, 4.198229e+001
6.628678e+002, 4.204567e+001
6.633499e+002, 4.165100e+001
6.638320e+002, 4.150004e+001
6.643141e+002, 4.187333e+001
6.647963e+002, 4.234373e+001
6.652784e+002, 4.259571e+001
6.657605e+002, 4.261995e+001
6.662426e+002, 4.255206e+001
6.667247e+002, 4.245203e+001
6.672068e+002, 4.234776e+001
6.676890e+002, 4.228407e+001
6.681711e+002, 4.226094e+001
6.686532e+002, 4.228918e+001
6.691353e+002, 4.240023e+001
6.696174e+002, 4.249128e+001
6.700995e+002, 4.243398e+001
6.705817e+002, 4.225023e+001
6.710638e+002, 4.216991e+001
6.715459e+002, 4.227474e+001
6.720280e+002, 4.238648e+001
6.725101e+002, 4.247789e+001
6.729922e+002, 4.253012e+001
6.734744e+002, 4.252196e+001
6.739565e+002, 4.245256e+001
6.744386e+002, 4.232228e+001
6.749207e+002, 4.210762e+001
6.754028e+002, 4.187101e+001
6.758849e+002, 4.183786e+001
6.763671e+002, 4.205883e+001
6.768492e+002, 4.225999e+001
6.773313e+002, 4.239229e+001
6.778134e+002, 4.248535e+001
6.782955e+002, 4.259601e+001
6.787776e+002, 4.269592e+001
6.792598e+002, 4.267054e+001
6.797419e+002, 4.234056e+001
6.802240e+002, 4.207605e+001
6.807061e+002, 4.220012e+001
6.811882e+002, 4.249006e+001
6.816703e+002, 4.255568e+001
6.821525e+002, 4.235439e+001
6.826346e+002, 4.217771e+001
6.831167e+002, 4.228295e+001
6.835988e+002, 4.258805e+001
6.840809e+002, 4.266999e+001
6.845630e+002, 4.237898e+001
6.850452e+002, 4.219262e+001
6.855273e+002, 4.223765e+001
6.860094e+002, 4.234986e+001
6.864915e+002, 4.251125e+001
6.869736e+002, 4.266524e+001
6.874557e+002, 4.265456e+001
6.879379e+002, 4.232530e+001
6.884200e+002, 4.198102e+001
6.889021e+002, 4.189112e+001
6.893842e+002, 4.199183e+001
6.898663e+002, 4.219838e+001
6.903484e+002, 4.248833e+001
6.908306e+002, 4.265097e+001
6.913127e+002, 4.249570e+001
6.917948e+002, 4.209676e+001
6.922769e+002, 4.182453e+001
6.927590e+002, 4.172872e+001
6.932411e+002, 4.168768e+001
6.937233e+002, 4.170098e+001
6.942054e+002, 4.175870e+001
6.946875e+002, 4.194011e+001
6.951696e+002, 4.215710e+001
6.956517e+002, 4.218453e+001
6.961339e+002, 4.188057e+001
6.966160e+002, 4.149195e+001
6.970981e+002, 4.124414e+001
6.975802e+002, 4.113719e+001
6.980623e+002, 4.120462e+001
6.985444e+002, 4.146223e+001
6.990266e+002, 4.173928e+001
6.995087e+002, 4.192804e+001
6.999908e+002, 4.203623e+001
7.004729e+002, 4.208982e+001
7.009550e+002, 4.204380e+001
7.014371e+002, 4.200951e+001
7.019193e+002, 4.186084e+001
7.024014e+002, 4.184184e+001
7.028835e+002, 4.230438e+001
7.033656e+002, 4.298234e+001
7.038477e+002, 4.327283e+001
7.043298e+002, 4.288742e+001
7.048120e+002, 4.230963e+001
7.052941e+002, 4.217226e+001
7.057762e+002, 4.237356e+001
7.062583e+002, 4.242048e+001
7.067404e+002, 4.226325e+001
7.072225e+002, 4.195527e+001
7.077046e+002, 4.141617e+001
7.081867e+002, 4.082757e+001
7.086688e+002, 4.069554e+001
7.091509e+002, 4.127959e+001
7.096331e+002, 4.163038e+001
7.101152e+002, 4.150447e+001
7.105973e+002, 4.130639e+001
7.110794e+002, 4.124748e+001
7.115615e+002, 4.129543e+001
7.120436e+002, 4.137684e+001
7.125258e+002, 4.146277e+001
7.130079e+002, 4.151508e+001
7.134900e+002, 4.145134e+001
7.139721e+002, 4.130539e+001
7.144542e+002, 4.128642e+001
7.149363e+002, 4.142397e+001
7.154185e+002, 4.154057e+001
7.159006e+002, 4.156191e+001
7.163827e+002, 4.151107e+001
7.168648e+002, 4.139805e+001
7.173469e+002, 4.119541e+001
7.178290e+002, 4.109988e+001
7.183112e+002, 4.125850e+001
7.187933e+002, 4.138887e+001
7.192754e+002, 4.131746e+001
7.197575e+002, 4.114312e+001
7.202396e+002, 4.099077e+001
7.207217e+002, 4.090434e+001
7.212039e+002, 4.090582e+001
7.216860e+002, 4.107969e+001
7.221681e+002, 4.134540e+001
7.226502e+002, 4.133131e+001
7.231323e+002, 4.099070e+001
7.236144e+002, 4.077166e+001
7.240966e+002, 4.087204e+001
7.245787e+002, 4.106725e+001
7.250608e+002, 4.110633e+001
7.255429e+002, 4.099172e+001
7.260250e+002, 4.083741e+001
7.265071e+002, 4.055570e+001
7.269893e+002, 4.034724e+001
7.274714e+002, 4.038715e+001
7.279535e+002, 4.047760e+001
7.284356e+002, 4.034095e+001
7.289177e+002, 3.999150e+001
7.293998e+002, 3.970387e+001
7.298820e+002, 3.967701e+001
7.303641e+002, 3.984565e+001
7.308462e+002, 4.011393e+001
7.313283e+002, 4.048878e+001
7.318104e+002, 4.072928e+001
7.322925e+002, 4.076122e+001
7.327747e+002, 4.071371e+001
7.332568e+002, 4.068657e+001
7.337389e+002, 4.066694e+001
7.342210e+002, 4.059155e+001
7.347031e+002, 4.037590e+001
7.351852e+002, 4.023526e+001
7.356674e+002, 4.022684e+001
7.361495e+002, 4.029822e+001
7.366316e+002, 4.047041e+001
7.371137e+002, 4.068158e+001
7.375958e+002, 4.079717e+001
7.380779e+002, 4.075041e+001
7.385601e+002, 4.058899e+001
7.390422e+002, 4.030989e+001
7.395243e+002, 3.994399e+001
7.400064e+002, 3.982143e+001
7.404885e+002, 4.001736e+001
7.409706e+002, 4.023456e+001
7.414528e+002, 4.031157e+001
7.419349e+002, 4.030262e+001
7.424170e+002, 4.031878e+001
7.428991e+002, 4.035081e+001
7.433812e+002, 4.043555e+001
7.438633e+002, 4.074026e+001
7.443455e+002, 4.092817e+001
7.448276e+002, 4.068326e+001
7.453097e+002, 4.025782e+001
7.457918e+002, 4.006255e+001
7.462739e+002, 4.020258e+001
7.467560e+002, 4.042694e+001
7.472382e+002, 4.049567e+001
7.477203e+002, 4.045981e+001
7.482024e+002, 4.049013e+001
7.486845e+002, 4.058963e+001
7.491666e+002, 4.061803e+001
7.496487e+002, 4.049890e+001
7.501309e+002, 4.036742e+001
7.506130e+002, 4.041248e+001
7.510951e+002, 4.065170e+001
7.515772e+002, 4.070550e+001
7.520593e+002, 4.039386e+001
7.525414e+002, 4.014553e+001
7.530236e+002, 4.004446e+001
7.535057e+002, 4.005210e+001
7.539878e+002, 4.020550e+001
7.544699e+002, 4.044215e+001
7.549520e+002, 4.055074e+001
7.554341e+002, 4.034985e+001
7.559163e+002, 4.009618e+001
7.563984e+002, 4.020134e+001
7.568805e+002, 4.057793e+001
7.573626e+002, 4.084917e+001
7.578447e+002, 4.095406e+001
7.583268e+002, 4.096313e+001
7.588090e+002, 4.091384e+001
7.592911e+002, 4.081820e+001
7.597732e+002, 4.071302e+001
7.602553e+002, 4.055843e+001
7.607374e+002, 4.047008e+001
7.612195e+002, 4.048327e+001
7.617017e+002, 4.052214e+001
7.621838e+002, 4.057335e+001
7.626659e+002, 4.061914e+001
7.631480e+002, 4.063455e+001
7.636301e+002, 4.061216e+001
7.641122e+002, 4.057491e+001
7.645944e+002, 4.053777e+001
7.650765e+002, 4.049748e+001
7.655586e+002, 4.043254e+001
7.660407e+002, 4.035350e+001
7.665228e+002, 4.033860e+001
7.670049e+002, 4.042378e+001
7.674871e+002, 4.049796e+001
7.679692e+002, 4.038998e+001
7.684513e+002, 4.008379e+001
7.689334e+002, 3.999129e+001
7.694155e+002, 4.027147e+001
7.698976e+002, 4.050575e+001
7.703798e+002, 4.055639e+001
7.708619e+002, 4.056530e+001
7.713440e+002, 4.066726e+001
7.718261e+002, 4.083727e+001
7.723082e+002, 4.092093e+001
7.727903e+002, 4.085098e+001
7.732725e+002, 4.069750e+001
7.737546e+002, 4.042672e+001
7.742367e+002, 4.014020e+001
7.747188e+002, 3.997853e+001
7.752009e+002, 3.996774e+001
7.756830e+002, 4.013338e+001
7.761652e+002, 4.051996e+001
7.766473e+002, 4.096426e+001
7.771294e+002, 4.102759e+001
7.776115e+002, 4.062799e+001
7.780936e+002, 4.041011e+001
7.785757e+002, 4.049850e+001
7.790579e+002, 4.061620e+001
7.795400e+002, 4.060720e+001
7.800221e+002, 4.053714e+001
7.805042e+002, 4.051940e+001
7.809863e+002, 4.057034e+001
7.814684e+002, 4.060675e+001
7.819506e+002, 4.054397e+001
7.824327e+002, 4.052485e+001
7.829148e+002, 4.070705e+001
7.833969e+002, 4.097294e+001
7.838790e+002, 4.111715e+001
7.843611e+002, 4.109237e+001
7.848433e+002, 4.101084e+001
7.853254e+002, 4.095750e+001
7.858075e+002, 4.093753e+001
7.862896e+002, 4.100470e+001
7.867717e+002, 4.116166e+001
7.872538e+002, 4.117870e+001
7.877360e+002, 4.095295e+001
7.882181e+002, 4.071387e+001
7.887002e+002, 4.068752e+001
7.891823e+002, 4.084339e+001
7.896644e+002, 4.092262e+001
7.901465e+002, 4.088253e+001
7.906286e+002, 4.083146e+001
7.911107e+002, 4.072088e+001
7.915928e+002, 4.065393e+001
7.920750e+002, 4.075965e+001
7.925571e+002, 4.094868e+001
7.930392e+002, 4.101540e+001
7.935213e+002, 4.087353e+001
7.940034e+002, 4.071024e+001
7.944855e+002, 4.068047e+001
7.949677e+002, 4.074468e+001
7.954498e+002, 4.084704e+001
7.959319e+002, 4.097783e+001
7.964140e+002, 4.111717e+001
7.968961e+002, 4.126268e+001
7.973782e+002, 4.135345e+001
7.978604e+002, 4.128566e+001
7.983425e+002, 4.104753e+001
7.988246e+002, 4.092957e+001
7.993067e+002, 4.099102e+001
7.997888e+002, 4.106410e+001
8.002709e+002, 4.115392e+001
8.007531e+002, 4.120332e+001
8.012352e+002, 4.112425e+001
8.017173e+002, 4.095237e+001
8.021994e+002, 4.086304e+001
8.026815e+002, 4.094773e+001
8.031636e+002, 4.105720e+001
8.036458e+002, 4.110527e+001
8.041279e+002, 4.114160e+001
8.046100e+002, 4.124848e+001
8.050921e+002, 4.140468e+001
8.055742e+002, 4.150225e+001
8.060563e+002, 4.147844e+001
8.065385e+002, 4.142100e+001
8.070206e+002, 4.149902e+001
8.075027e+002, 4.169607e+001
8.079848e+002, 4.176164e+001
8.084669e+002, 4.166026e+001
8.089490e+002, 4.156349e+001
8.094312e+002, 4.156475e+001
8.099133e+002, 4.158472e+001
8.103954e+002, 4.148505e+001
8.108775e+002, 4.123031e+001
8.113596e+002, 4.109681e+001
8.118417e+002, 4.111613e+001
8.123239e+002, 4.121426e+001
8.128060e+002, 4.151402e+001
8.132881e+002, 4.178149e+001
8.137702e+002, 4.172770e+001
8.142523e+002, 4.141050e+001
8.147344e+002, 4.116912e+001
8.152166e+002, 4.118839e+001
8.156987e+002, 4.131379e+001
8.161808e+002, 4.140213e+001
8.166629e+002, 4.147132e+001
8.171450e+002, 4.157202e+001
8.176271e+002, 4.170361e+001
8.181093e+002, 4.180705e+001
8.185914e+002, 4.184676e+001
8.190735e+002, 4.184814e+001
8.195556e+002, 4.184321e+001
8.200377e+002, 4.181083e+001
8.205198e+002, 4.192651e+001
8.210020e+002, 4.233195e+001
8.214841e+002, 4.261692e+001
8.219662e+002, 4.254648e+001
8.224483e+002, 4.233518e+001
8.229304e+002, 4.222916e+001
8.234125e+002, 4.222552e+001
8.238947e+002, 4.215058e+001
8.243768e+002, 4.186881e+001
8.248589e+002, 4.163205e+001
8.253410e+002, 4.150222e+001
8.258231e+002, 4.150550e+001
8.263052e+002, 4.177391e+001
8.267874e+002, 4.221691e+001
8.272695e+002, 4.249846e+001
8.277516e+002, 4.240691e+001
8.282337e+002, 4.219122e+001
8.287158e+002, 4.227699e+001
8.291979e+002, 4.255101e+001
8.296801e+002, 4.244183e+001
8.301622e+002, 4.189742e+001
8.306443e+002, 4.154933e+001
8.311264e+002, 4.174202e+001
8.316085e+002, 4.220952e+001
8.320906e+002, 4.253359e+001
8.325728e+002, 4.270619e+001
8.330549e+002, 4.277791e+001
8.335370e+002, 4.263174e+001
8.340191e+002, 4.255260e+001
8.345012e+002, 4.262736e+001
8.349833e+002, 4.277040e+001
8.354655e+002, 4.295677e+001
8.359476e+002, 4.315776e+001
8.364297e+002, 4.326881e+001
8.369118e+002, 4.322886e+001
8.373939e+002, 4.314086e+001
8.378760e+002, 4.300306e+001
8.383582e+002, 4.288591e+001
8.388403e+002, 4.291972e+001
8.393224e+002, 4.305469e+001
8.398045e+002, 4.311476e+001
8.402866e+002, 4.301714e+001
8.407687e+002, 4.281867e+001
8.412509e+002, 4.250340e+001
8.417330e+002, 4.213393e+001
8.422151e+002, 4.214740e+001
8.426972e+002, 4.257749e+001
8.431793e+002, 4.292840e+001
8.436614e+002, 4.299844e+001
8.441436e+002, 4.299168e+001
8.446257e+002, 4.317062e+001
8.451078e+002, 4.352614e+001
8.455899e+002, 4.365007e+001
8.460720e+002, 4.334997e+001
8.465541e+002, 4.309472e+001
8.470363e+002, 4.284257e+001
8.475184e+002, 4.272258e+001
8.480005e+002, 4.293076e+001
8.484826e+002, 4.331178e+001
8.489647e+002, 4.350060e+001
8.494468e+002, 4.335876e+001
8.499290e+002, 4.322889e+001
8.504111e+002, 4.337654e+001
8.508932e+002, 4.356181e+001
8.513753e+002, 4.347939e+001
8.518574e+002, 4.324345e+001
8.523395e+002, 4.314982e+001
8.528217e+002, 4.328479e+001
8.533038e+002, 4.352602e+001
8.537859e+002, 4.379951e+001
8.542680e+002, 4.404613e+001
8.547501e+002, 4.404826e+001
8.552322e+002, 4.380652e+001
8.557144e+002, 4.351907e+001
8.561965e+002, 4.319270e+001
8.566786e+002, 4.297079e+001
8.571607e+002, 4.296542e+001
8.576428e+002, 4.314408e+001
8.581249e+002, 4.342269e+001
8.586071e+002, 4.397346e+001
8.590892e+002, 4.424391e+001
8.595713e+002, 4.404028e+001
8.600534e+002, 4.379058e+001
8.605355e+002, 4.355603e+001
8.610176e+002, 4.340668e+001
8.614998e+002, 4.346346e+001
8.619819e+002, 4.372479e+001
8.624640e+002, 4.394463e+001
8.629461e+002, 4.398120e+001
8.634282e+002, 4.399231e+001
8.639103e+002, 4.411450e+001
8.643925e+002, 4.426302e+001
8.648746e+002, 4.430123e+001
8.653567e+002, 4.423475e+001
8.658388e+002, 4.417554e+001
8.663209e+002, 4.419116e+001
8.668030e+002, 4.422707e+001
8.672852e+002, 4.418257e+001
8.677673e+002, 4.408013e+001
8.682494e+002, 4.404581e+001
8.687315e+002, 4.408869e+001
8.692136e+002, 4.416031e+001
8.696957e+002, 4.426662e+001
8.701779e+002, 4.429416e+001
8.706600e+002, 4.404863e+001
8.711421e+002, 4.352495e+001
8.716242e+002, 4.329185e+001
8.721063e+002, 4.354688e+001
8.725884e+002, 4.374450e+001
8.730705e+002, 4.381610e+001
8.735526e+002, 4.378477e+001
8.740347e+002, 4.360982e+001
8.745168e+002, 4.334771e+001
8.749990e+002, 4.313006e+001
8.754811e+002, 4.298998e+001
8.759632e+002, 4.286153e+001
8.764453e+002, 4.271706e+001
8.769274e+002, 4.258166e+001
8.774095e+002, 4.248742e+001
8.778917e+002, 4.241050e+001
8.783738e+002, 4.230362e+001
8.788559e+002, 4.216028e+001
8.793380e+002, 4.202288e+001
8.798201e+002, 4.193239e+001
8.803022e+002, 4.185740e+001
8.807844e+002, 4.173322e+001
8.812665e+002, 4.157870e+001
8.817486e+002, 4.145807e+001
8.822307e+002, 4.138256e+001
8.827128e+002, 4.136304e+001
8.831949e+002, 4.141497e+001
8.836771e+002, 4.149192e+001
8.841592e+002, 4.150422e+001
8.846413e+002, 4.145379e+001
8.851234e+002, 4.130847e+001
8.856055e+002, 4.100753e+001
8.860876e+002, 4.076380e+001
8.865698e+002, 4.068719e+001
8.870519e+002, 4.066054e+001
8.875340e+002, 4.052262e+001
8.880161e+002, 4.028823e+001
8.884982e+002, 4.018313e+001
8.889803e+002, 4.031767e+001
8.894625e+002, 4.043467e+001
8.899446e+002, 4.067850e+001
8.904267e+002, 4.071461e+001
8.909088e+002, 4.005110e+001
8.913909e+002, 3.907888e+001
8.918730e+002, 3.862571e+001
8.923552e+002, 3.893510e+001
8.928373e+002, 3.927430e+001
8.933194e+002, 3.910081e+001
8.938015e+002, 3.878744e+001
8.942836e+002, 3.879456e+001
8.947657e+002, 3.895527e+001
8.952479e+002, 3.884948e+001
8.957300e+002, 3.842968e+001
8.962121e+002, 3.803513e+001
8.966942e+002, 3.792739e+001
8.971763e+002, 3.797060e+001
8.976584e+002, 3.788556e+001
8.981406e+002, 3.768920e+001
8.986227e+002, 3.757430e+001
8.991048e+002, 3.757026e+001
8.995869e+002, 3.747160e+001
9.000690e+002, 3.713905e+001
9.005511e+002, 3.678466e+001
9.010333e+002, 3.675075e+001
9.015154e+002, 3.705928e+001
9.019975e+002, 3.718374e+001
9.024796e+002, 3.699950e+001
9.029617e+002, 3.686462e+001
9.034438e+002, 3.693471e+001
9.039260e+002, 3.698566e+001
9.044081e+002, 3.683018e+001
9.048902e+002, 3.654351e+001
9.053723e+002, 3.632439e+001
9.058544e+002, 3.621973e+001
9.063365e+002, 3.611019e+001
9.068187e+002, 3.590527e+001
9.073008e+002, 3.575330e+001
9.077829e+002, 3.575433e+001
9.082650e+002, 3.585900e+001
9.087471e+002, 3.603206e+001
9.092292e+002, 3.624222e+001
9.097114e+002, 3.639751e+001
9.101935e+002, 3.646691e+001
9.106756e+002, 3.641994e+001
9.111577e+002, 3.612545e+001
9.116398e+002, 3.573320e+001
9.121219e+002, 3.553276e+001
9.126041e+002, 3.552583e+001
9.130862e+002, 3.555722e+001
9.135683e+002, 3.555389e+001
9.140504e+002, 3.552128e+001
9.145325e+002, 3.543489e+001
9.150146e+002, 3.532373e+001
9.154968e+002, 3.540672e+001
9.159789e+002, 3.569621e+001
9.164610e+002, 3.579685e+001
9.169431e+002, 3.557433e+001
9.174252e+002, 3.530801e+001
9.179073e+002, 3.523049e+001
9.183895e+002, 3.528888e+001
9.188716e+002, 3.528512e+001
9.193537e+002, 3.517099e+001
9.198358e+002, 3.512092e+001
9.203179e+002, 3.521124e+001
9.208000e+002, 3.525541e+001
9.212822e+002, 3.512657e+001
9.217643e+002, 3.494861e+001
9.222464e+002, 3.487341e+001
9.227285e+002, 3.489612e+001
9.232106e+002, 3.485547e+001
9.236927e+002, 3.465299e+001
9.241749e+002, 3.448758e+001
9.246570e+002, 3.444521e+001
9.251391e+002, 3.443385e+001
9.256212e+002, 3.438003e+001
9.261033e+002, 3.430024e+001
9.265854e+002, 3.421887e+001
9.270676e+002, 3.414036e+001
9.275497e+002, 3.416706e+001
9.280318e+002, 3.456278e+001
9.285139e+002, 3.492221e+001
9.289960e+002, 3.467435e+001
9.294781e+002, 3.413861e+001
9.299603e+002, 3.397140e+001
9.304424e+002, 3.423518e+001
9.309245e+002, 3.454297e+001
9.314066e+002, 3.465692e+001
9.318887e+002, 3.463944e+001
9.323708e+002, 3.455286e+001
9.328530e+002, 3.441701e+001
9.333351e+002, 3.430564e+001
9.338172e+002, 3.422411e+001
9.342993e+002, 3.418234e+001
9.347814e+002, 3.418187e+001
9.352635e+002, 3.425594e+001
9.357457e+002, 3.446412e+001
9.362278e+002, 3.476427e+001
9.367099e+002, 3.490808e+001
9.371920e+002, 3.487940e+001
9.376741e+002, 3.474824e+001
9.381563e+002, 3.446433e+001
9.386384e+002, 3.420141e+001
9.391205e+002, 3.401424e+001
9.396026e+002, 3.393950e+001
9.400847e+002, 3.409428e+001
9.405668e+002, 3.456545e+001
9.410490e+002, 3.475076e+001
9.415311e+002, 3.441961e+001
9.420132e+002, 3.413074e+001
9.424953e+002, 3.395234e+001
9.429774e+002, 3.388414e+001
9.434595e+002, 3.397539e+001
9.439417e+002, 3.416866e+001
9.444238e+002, 3.430766e+001
9.449059e+002, 3.432154e+001
9.453880e+002, 3.443945e+001
9.458701e+002, 3.487617e+001
9.463522e+002, 3.530267e+001
9.468344e+002, 3.550525e+001
9.473165e+002, 3.555761e+001
9.477986e+002, 3.549556e+001
9.482807e+002, 3.538521e+001
9.487628e+002, 3.545525e+001
9.492449e+002, 3.592787e+001
9.497271e+002, 3.636222e+001
9.502092e+002, 3.623270e+001
9.506913e+002, 3.585439e+001
9.511734e+002, 3.566340e+001
9.516555e+002, 3.568230e+001
9.521376e+002, 3.588346e+001
9.526198e+002, 3.623647e+001
9.531019e+002, 3.654177e+001
9.535840e+002, 3.655891e+001
9.540661e+002, 3.645630e+001
9.545482e+002, 3.674699e+001
9.550303e+002, 3.733593e+001
9.555124e+002, 3.749541e+001
9.559945e+002, 3.712634e+001
9.564766e+002, 3.693138e+001
9.569587e+002, 3.730820e+001
9.574409e+002, 3.794798e+001
9.579230e+002, 3.835490e+001
9.584051e+002, 3.853673e+001
9.588872e+002, 3.880005e+001
9.593693e+002, 3.918264e+001
9.598514e+002, 3.948500e+001
9.603336e+002, 3.964753e+001
9.608157e+002, 3.975446e+001
9.612978e+002, 3.984164e+001
9.617799e+002, 3.993392e+001
9.622620e+002, 4.010944e+001
9.627441e+002, 4.041801e+001
9.632263e+002, 4.065204e+001
9.637084e+002, 4.061709e+001
9.641905e+002, 4.077327e+001
9.646726e+002, 4.141447e+001
9.651547e+002, 4.214964e+001
9.656368e+002, 4.265138e+001
9.661190e+002, 4.295216e+001
9.666011e+002, 4.322834e+001
9.670832e+002, 4.339364e+001
9.675653e+002, 4.375715e+001
9.680474e+002, 4.449190e+001
9.685295e+002, 4.532724e+001
9.690117e+002, 4.615078e+001
9.694938e+002, 4.695509e+001
9.699759e+002, 4.770197e+001
9.704580e+002, 4.841265e+001
9.709401e+002, 4.923045e+001
9.714222e+002, 5.023700e+001
9.719044e+002, 5.133156e+001
9.723865e+002, 5.236930e+001
9.728686e+002, 5.352703e+001
9.733507e+002, 5.505196e+001
9.738328e+002, 5.683680e+001
9.743149e+002, 5.863777e+001
9.747971e+002, 6.037065e+001
9.752792e+002, 6.205930e+001
9.757613e+002, 6.365222e+001
9.762434e+002, 6.527507e+001
9.767255e+002, 6.707967e+001
9.772076e+002, 6.904591e+001
9.776898e+002, 7.112634e+001
9.781719e+002, 7.334240e+001
9.786540e+002, 7.578757e+001
9.791361e+002, 7.851923e+001
9.796182e+002, 8.135149e+001
9.801003e+002, 8.400726e+001
9.805825e+002, 8.660601e+001
9.810646e+002, 8.949844e+001
9.815467e+002, 9.265251e+001
9.820288e+002, 9.590666e+001
9.825109e+002, 9.921508e+001
9.829930e+002, 1.024605e+002
9.834752e+002, 1.055813e+002
9.839573e+002, 1.084540e+002
9.844394e+002, 1.108041e+002
9.849215e+002, 1.126257e+002
9.854036e+002, 1.144415e+002
9.858857e+002, 1.163519e+002
9.863679e+002, 1.176556e+002
9.868500e+002, 1.181947e+002
9.873321e+002, 1.179781e+002
9.878142e+002, 1.168598e+002
9.882963e+002, 1.151306e+002
9.887784e+002, 1.137388e+002
9.892606e+002, 1.129114e+002
9.897427e+002, 1.116416e+002
9.902248e+002, 1.099122e+002
9.907069e+002, 1.077414e+002
9.911890e+002, 1.047966e+002
9.916711e+002, 1.017697e+002
9.921533e+002, 9.941336e+001
9.926354e+002, 9.758192e+001
9.931175e+002, 9.541728e+001
9.935996e+002, 9.254408e+001
9.940817e+002, 9.002673e+001
9.945638e+002, 8.811182e+001
9.950460e+002, 8.626005e+001
9.955281e+002, 8.433454e+001
9.960102e+002, 8.232923e+001
9.964923e+002, 8.021116e+001
9.969744e+002, 7.799690e+001
9.974565e+002, 7.584274e+001
9.979387e+002, 7.372200e+001
9.984208e+002, 7.176876e+001
9.989029e+002, 7.009224e+001
9.993850e+002, 6.852402e+001
9.998671e+002, 6.703519e+001
1.000349e+003, 6.556430e+001
1.000831e+003, 6.402585e+001
1.001313e+003, 6.242086e+001
1.001796e+003, 6.088256e+001
1.002278e+003, 5.944059e+001
1.002760e+003, 5.812509e+001
1.003242e+003, 5.696269e+001
1.003724e+003, 5.592906e+001
1.004206e+003, 5.498337e+001
1.004688e+003, 5.414616e+001
1.005170e+003, 5.346635e+001
1.005653e+003, 5.294517e+001
1.006135e+003, 5.247838e+001
1.006617e+003, 5.197058e+001
1.007099e+003, 5.152507e+001
1.007581e+003, 5.129033e+001
1.008063e+003, 5.114767e+001
1.008545e+003, 5.096112e+001
1.009027e+003, 5.070752e+001
1.009509e+003, 5.032284e+001
1.009992e+003, 4.980929e+001
1.010474e+003, 4.942945e+001
1.010956e+003, 4.943628e+001
1.011438e+003, 4.968878e+001
1.011920e+003, 5.009100e+001
1.012402e+003, 5.053946e+001
1.012884e+003, 5.081374e+001
1.013366e+003, 5.088685e+001
1.013849e+003, 5.073073e+001
1.014331e+003, 5.034192e+001
1.014813e+003, 5.001826e+001
1.015295e+003, 5.018507e+001
1.015777e+003, 5.059166e+001
1.016259e+003, 5.047809e+001
1.016741e+003, 5.001146e+001
1.017223e+003, 5.009042e+001
1.017705e+003, 5.078759e+001
1.018188e+003, 5.133712e+001
1.018670e+003, 5.134302e+001
1.019152e+003, 5.105775e+001
1.019634e+003, 5.077620e+001
1.020116e+003, 5.051986e+001
1.020598e+003, 5.038954e+001
1.021080e+003, 5.038432e+001
1.021562e+003, 5.047392e+001
1.022044e+003, 5.065468e+001
1.022527e+003, 5.091072e+001
1.023009e+003, 5.123497e+001
1.023491e+003, 5.162284e+001
1.023973e+003, 5.209185e+001
1.024455e+003, 5.263074e+001
1.024937e+003, 5.300767e+001
1.025419e+003, 5.319106e+001
1.025901e+003, 5.346598e+001
1.026384e+003, 5.388597e+001
1.026866e+003, 5.439671e+001
1.027348e+003, 5.495078e+001
1.027830e+003, 5.560846e+001
1.028312e+003, 5.648541e+001
1.028794e+003, 5.759536e+001
1.029276e+003, 5.877467e+001
1.029758e+003, 6.010229e+001
1.030240e+003, 6.118789e+001
1.030723e+003, 6.177582e+001
1.031205e+003, 6.256509e+001
1.031687e+003, 6.411005e+001
1.032169e+003, 6.605125e+001
1.032651e+003, 6.766319e+001
1.033133e+003, 6.890164e+001
1.033615e+003, 7.016422e+001
1.034097e+003, 7.150571e+001
1.034579e+003, 7.274767e+001
1.035062e+003, 7.378694e+001
1.035544e+003, 7.483370e+001
1.036026e+003, 7.612640e+001
1.036508e+003, 7.745012e+001
1.036990e+003, 7.835259e+001
1.037472e+003, 7.880148e+001
1.037954e+003, 7.899821e+001
1.038436e+003, 7.878340e+001
1.038919e+003, 7.857200e+001
1.039401e+003, 7.857327e+001
1.039883e+003, 7.844923e+001
1.040365e+003, 7.807505e+001
1.040847e+003, 7.739352e+001
1.041329e+003, 7.623969e+001
1.041811e+003, 7.451486e+001
1.042293e+003, 7.282911e+001
1.042776e+003, 7.108930e+001
1.043258e+003, 6.952751e+001
1.043740e+003, 6.840992e+001
1.044222e+003, 6.726017e+001
1.044704e+003, 6.582921e+001
1.045186e+003, 6.413454e+001
1.045668e+003, 6.214221e+001
1.046150e+003, 5.976915e+001
1.046632e+003, 5.773610e+001
1.047115e+003, 5.637383e+001
1.047597e+003, 5.500891e+001
1.048079e+003, 5.337061e+001
1.048561e+003, 5.178857e+001
1.049043e+003, 5.055719e+001
1.049525e+003, 4.951783e+001
1.050007e+003, 4.829370e+001
1.050489e+003, 4.681775e+001
1.050971e+003, 4.556844e+001
1.051454e+003, 4.477087e+001
1.051936e+003, 4.403859e+001
1.052418e+003, 4.334454e+001
1.052900e+003, 4.259121e+001
1.053382e+003, 4.160779e+001
1.053864e+003, 4.055513e+001
1.054346e+003, 3.973671e+001
1.054828e+003, 3.919633e+001
1.055311e+003, 3.870205e+001
1.055793e+003, 3.819677e+001
1.056275e+003, 3.772225e+001
1.056757e+003, 3.731195e+001
1.057239e+003, 3.691910e+001
1.057721e+003, 3.653302e+001
1.058203e+003, 3.613183e+001
1.058685e+003, 3.561432e+001
1.059167e+003, 3.497640e+001
1.059650e+003, 3.458957e+001
1.060132e+003, 3.477480e+001
1.060614e+003, 3.496172e+001
1.061096e+003, 3.504610e+001
1.061578e+003, 3.494193e+001
1.062060e+003, 3.447617e+001
1.062542e+003, 3.382692e+001
1.063024e+003, 3.322747e+001
1.063506e+003, 3.273331e+001
1.063989e+003, 3.245464e+001
1.064471e+003, 3.264144e+001
1.064953e+003, 3.274989e+001
1.065435e+003, 3.249202e+001
1.065917e+003, 3.213480e+001
1.066399e+003, 3.183195e+001
1.066881e+003, 3.159348e+001
1.067363e+003, 3.143277e+001
1.067846e+003, 3.133821e+001
1.068328e+003, 3.121233e+001
1.068810e+003, 3.095922e+001
1.069292e+003, 3.077364e+001
1.069774e+003, 3.080894e+001
1.070256e+003, 3.087751e+001
1.070738e+003, 3.082595e+001
1.071220e+003, 3.072404e+001
1.071703e+003, 3.069607e+001
1.072185e+003, 3.074195e+001
1.072667e+003, 3.075171e+001
1.073149e+003, 3.070492e+001
1.073631e+003, 3.057132e+001
1.074113e+003, 3.017634e+001
1.074595e+003, 2.985708e+001
1.075077e+003, 2.995714e+001
1.075559e+003, 3.021967e+001
1.076042e+003, 3.031981e+001
1.076524e+003, 3.022788e+001
1.077006e+003, 3.004038e+001
1.077488e+003, 2.972398e+001
1.077970e+003, 2.952939e+001
1.078452e+003, 2.966994e+001
1.078934e+003, 2.986493e+001
1.079416e+003, 3.000739e+001
1.079898e+003, 3.003842e+001
1.080380e+003, 2.985605e+001
1.080863e+003, 2.951031e+001
1.081345e+003, 2.915637e+001
1.081827e+003, 2.881194e+001
1.082309e+003, 2.861870e+001
1.082791e+003, 2.877266e+001
1.083273e+003, 2.894187e+001
1.083755e+003, 2.891814e+001
1.084237e+003, 2.880784e+001
1.084720e+003, 2.868832e+001
1.085202e+003, 2.859734e+001
1.085684e+003, 2.860448e+001
1.086166e+003, 2.873973e+001
1.086648e+003, 2.885157e+001
1.087130e+003, 2.889822e+001
1.087612e+003, 2.887759e+001
1.088094e+003, 2.878619e+001
1.088577e+003, 2.862906e+001
1.089059e+003, 2.832832e+001
1.089541e+003, 2.799199e+001
1.090023e+003, 2.787526e+001
1.090505e+003, 2.803028e+001
1.090987e+003, 2.810190e+001
1.091469e+003, 2.783601e+001
1.091951e+003, 2.762171e+001
1.092433e+003, 2.769721e+001
1.092916e+003, 2.781934e+001
1.093398e+003, 2.782531e+001
1.093880e+003, 2.772805e+001
1.094362e+003, 2.752085e+001
1.094844e+003, 2.722535e+001
1.095326e+003, 2.707703e+001
1.095808e+003, 2.730148e+001
1.096290e+003, 2.746057e+001
1.096772e+003, 2.728179e+001
1.097255e+003, 2.713236e+001
1.097737e+003, 2.737834e+001
1.098219e+003, 2.771486e+001
1.098701e+003, 2.766370e+001
1.099183e+003, 2.725353e+001
1.099665e+003, 2.698637e+001
1.100147e+003, 2.702293e+001
1.100629e+003, 2.711321e+001
1.101112e+003, 2.730907e+001
1.101594e+003, 2.740614e+001
1.102076e+003, 2.718661e+001
1.102558e+003, 2.690700e+001
1.103040e+003, 2.684723e+001
1.103522e+003, 2.697360e+001
1.104004e+003, 2.709472e+001
1.104486e+003, 2.719977e+001
1.104969e+003, 2.724510e+001
1.105451e+003, 2.717134e+001
1.105933e+003, 2.710345e+001
1.106415e+003, 2.708928e+001
1.106897e+003, 2.709370e+001
1.107379e+003, 2.713051e+001
1.107861e+003, 2.715328e+001
1.108343e+003, 2.701209e+001
1.108825e+003, 2.662781e+001
1.109307e+003, 2.647684e+001
1.109790e+003, 2.685319e+001
1.110272e+003, 2.710590e+001
1.110754e+003, 2.704392e+001
1.111236e+003, 2.688732e+001
1.111718e+003, 2.670583e+001
1.112200e+003, 2.654440e+001
1.112682e+003, 2.650024e+001
1.113164e+003, 2.658393e+001
1.113647e+003, 2.657718e+001
1.114129e+003, 2.639829e+001
1.114611e+003, 2.626321e+001
1.115093e+003, 2.613144e+001
1.115575e+003, 2.612546e+001
1.116057e+003, 2.641570e+001
1.116539e+003, 2.674897e+001
1.117021e+003, 2.682531e+001
1.117504e+003, 2.667532e+001
1.117986e+003, 2.651865e+001
1.118468e+003, 2.630721e+001
1.118950e+003, 2.621244e+001
1.119432e+003, 2.630958e+001
1.119914e+003, 2.637493e+001
1.120396e+003, 2.633038e+001
1.120878e+003, 2.624051e+001
1.121360e+003, 2.613657e+001
1.121843e+003, 2.604722e+001
1.122325e+003, 2.607419e+001
1.122807e+003, 2.625815e+001
1.123289e+003, 2.629605e+001
1.123771e+003, 2.612875e+001
1.124253e+003, 2.601911e+001
1.124735e+003, 2.603045e+001
1.125217e+003, 2.609425e+001
1.125699e+003, 2.618803e+001
1.126182e+003, 2.626132e+001
1.126664e+003, 2.621103e+001
1.127146e+003, 2.604840e+001
1.127628e+003, 2.599931e+001
1.128110e+003, 2.608539e+001
1.128592e+003, 2.606454e+001
1.129074e+003, 2.587986e+001
1.129556e+003, 2.580040e+001
1.130039e+003, 2.596421e+001
1.130521e+003, 2.618951e+001
1.131003e+003, 2.627295e+001
1.131485e+003, 2.624465e+001
1.131967e+003, 2.620194e+001
1.132449e+003, 2.614533e+001
1.132931e+003, 2.610659e+001
1.133413e+003, 2.608351e+001
1.133896e+003, 2.590495e+001
1.134378e+003, 2.551929e+001
1.134860e+003, 2.523583e+001
1.135342e+003, 2.530351e+001
1.135824e+003, 2.556889e+001
1.136306e+003, 2.581769e+001
1.136788e+003, 2.601873e+001
1.137270e+003, 2.599591e+001
1.137752e+003, 2.580404e+001
1.138234e+003, 2.574060e+001
1.138717e+003, 2.583481e+001
1.139199e+003, 2.582476e+001
1.139681e+003, 2.557504e+001
1.140163e+003, 2.538639e+001
1.140645e+003, 2.571105e+001
1.141127e+003, 2.621137e+001
1.141609e+003, 2.620683e+001
1.142091e+003, 2.592100e+001
1.142574e+003, 2.588265e+001
1.143056e+003, 2.604422e+001
1.143538e+003, 2.600150e+001
1.144020e+003, 2.565765e+001
1.144502e+003, 2.536325e+001
1.144984e+003, 2.539310e+001
1.145466e+003, 2.550729e+001
1.145948e+003, 2.542982e+001
1.146431e+003, 2.531096e+001
1.146913e+003, 2.538353e+001
1.147395e+003, 2.554065e+001
1.147877e+003, 2.552978e+001
1.148359e+003, 2.536599e+001
1.148841e+003, 2.531243e+001
1.149323e+003, 2.549647e+001
1.149805e+003, 2.569730e+001
1.150287e+003, 2.581700e+001
1.150770e+003, 2.585678e+001
1.151252e+003, 2.576934e+001
1.151734e+003, 2.564203e+001
1.152216e+003, 2.555626e+001
1.152698e+003, 2.551218e+001
1.153180e+003, 2.548336e+001
1.153662e+003, 2.546440e+001
1.154144e+003, 2.547640e+001
1.154626e+003, 2.559426e+001
1.155109e+003, 2.564796e+001
1.155591e+003, 2.555212e+001
1.156073e+003, 2.540792e+001
1.156555e+003, 2.519805e+001
1.157037e+003, 2.502882e+001
1.157519e+003, 2.504750e+001
1.158001e+003, 2.523939e+001
1.158483e+003, 2.545160e+001
1.158966e+003, 2.574726e+001
1.159448e+003, 2.589929e+001
1.159930e+003, 2.576090e+001
1.160412e+003, 2.566084e+001
1.160894e+003, 2.574506e+001
1.161376e+003, 2.583055e+001
1.161858e+003, 2.578684e+001
1.162340e+003, 2.564631e+001
1.162822e+003, 2.546691e+001
1.163305e+003, 2.523886e+001
1.163787e+003, 2.506560e+001
1.164269e+003, 2.492033e+001
1.164751e+003, 2.493494e+001
1.165233e+003, 2.520928e+001
1.165715e+003, 2.539526e+001
1.166197e+003, 2.530633e+001
1.166679e+003, 2.510977e+001
1.167161e+003, 2.498557e+001
1.167644e+003, 2.493754e+001
1.168126e+003, 2.500111e+001
1.168608e+003, 2.518148e+001
1.169090e+003, 2.531389e+001
1.169572e+003, 2.539079e+001
1.170054e+003, 2.542947e+001
1.170536e+003, 2.543459e+001
1.171018e+003, 2.538152e+001
1.171500e+003, 2.524365e+001
1.171983e+003, 2.510745e+001
1.172465e+003, 2.513774e+001
1.172947e+003, 2.527310e+001
1.173429e+003, 2.533456e+001
1.173911e+003, 2.531647e+001
1.174393e+003, 2.512585e+001
1.174875e+003, 2.481574e+001
1.175357e+003, 2.470474e+001
1.175840e+003, 2.489906e+001
1.176322e+003, 2.514288e+001
1.176804e+003, 2.524701e+001
1.177286e+003, 2.524745e+001
1.177768e+003, 2.508578e+001
1.178250e+003, 2.492485e+001
1.178732e+003, 2.511466e+001
1.179214e+003, 2.544543e+001
1.179697e+003, 2.541068e+001
1.180179e+003, 2.504032e+001
1.180661e+003, 2.486760e+001
1.181143e+003, 2.515169e+001
1.181625e+003, 2.532906e+001
1.182107e+003, 2.486323e+001
1.182589e+003, 2.441177e+001
1.183071e+003, 2.446495e+001
1.183553e+003, 2.468419e+001
1.184036e+003, 2.474764e+001
1.184518e+003, 2.471897e+001
1.185000e+003, 2.479224e+001
1.185482e+003, 2.498559e+001
1.185964e+003, 2.509514e+001
1.186446e+003, 2.503597e+001
1.186928e+003, 2.495400e+001
1.187410e+003, 2.483652e+001
1.187892e+003, 2.474707e+001
1.188375e+003, 2.471478e+001
1.188857e+003, 2.472203e+001
1.189339e+003, 2.477501e+001
1.189821e+003, 2.484800e+001
1.190303e+003, 2.486256e+001
1.190785e+003, 2.480773e+001
1.191267e+003, 2.475465e+001
1.191749e+003, 2.468109e+001
1.192232e+003, 2.468074e+001
1.192714e+003, 2.479759e+001
1.193196e+003, 2.490294e+001
1.193678e+003, 2.493182e+001
1.194160e+003, 2.492451e+001
1.194642e+003, 2.494158e+001
1.195124e+003, 2.494894e+001
1.195606e+003, 2.473106e+001
1.196089e+003, 2.430890e+001
1.196571e+003, 2.436421e+001
1.197053e+003, 2.489652e+001
1.197535e+003, 2.526396e+001
1.198017e+003, 2.530483e+001
1.198499e+003, 2.514056e+001
1.198981e+003, 2.483168e+001
1.199463e+003, 2.456301e+001
1.199945e+003, 2.462749e+001
1.200427e+003, 2.486855e+001
1.200910e+003, 2.501169e+001
1.201392e+003, 2.506953e+001
1.201874e+003, 2.504524e+001
1.202356e+003, 2.496735e+001
1.202838e+003, 2.489540e+001
1.203320e+003, 2.485099e+001
1.203802e+003, 2.484890e+001
1.204284e+003, 2.490788e+001
1.204767e+003, 2.498019e+001
1.205249e+003, 2.506207e+001
1.205731e+003, 2.510737e+001
1.206213e+003, 2.500411e+001
1.206695e+003, 2.489672e+001
1.207177e+003, 2.502049e+001
1.207659e+003, 2.527804e+001
1.208141e+003, 2.535815e+001
1.208624e+003, 2.518736e+001
1.209106e+003, 2.506756e+001
1.209588e+003, 2.516172e+001
1.210070e+003, 2.517755e+001
1.210552e+003, 2.488178e+001
1.211034e+003, 2.469891e+001
1.211516e+003, 2.502203e+001
1.211998e+003, 2.540239e+001
1.212480e+003, 2.537213e+001
1.212963e+003, 2.502691e+001
1.213445e+003, 2.470956e+001
1.213927e+003, 2.438126e+001
1.214409e+003, 2.431141e+001
1.214891e+003, 2.460314e+001
1.215373e+003, 2.471703e+001
1.215855e+003, 2.450741e+001
1.216337e+003, 2.433750e+001
1.216819e+003, 2.440792e+001
1.217302e+003, 2.456787e+001
1.217784e+003, 2.464802e+001
1.218266e+003, 2.464688e+001
1.218748e+003, 2.451948e+001
1.219230e+003, 2.430396e+001
1.219712e+003, 2.417060e+001
1.220194e+003, 2.413451e+001
1.220676e+003, 2.425414e+001
1.221159e+003, 2.451012e+001
1.221641e+003, 2.471027e+001
1.222123e+003, 2.475133e+001
1.222605e+003, 2.471079e+001
1.223087e+003, 2.462948e+001
1.223569e+003, 2.454521e+001
1.224051e+003, 2.444973e+001
1.224533e+003, 2.441681e+001
1.225016e+003, 2.465923e+001
1.225498e+003, 2.499220e+001
1.225980e+003, 2.498076e+001
1.226462e+003, 2.463010e+001
1.226944e+003, 2.446410e+001
1.227426e+003, 2.477077e+001
1.227908e+003, 2.495689e+001
1.228390e+003, 2.467030e+001
1.228872e+003, 2.441775e+001
1.229354e+003, 2.444097e+001
1.229837e+003, 2.455189e+001
1.230319e+003, 2.463117e+001
1.230801e+003, 2.467926e+001
1.231283e+003, 2.471452e+001
1.231765e+003, 2.473560e+001
1.232247e+003, 2.468221e+001
1.232729e+003, 2.451574e+001
1.233211e+003, 2.439005e+001
1.233694e+003, 2.430468e+001
1.234176e+003, 2.428647e+001
1.234658e+003, 2.434755e+001
1.235140e+003, 2.447588e+001
1.235622e+003, 2.468352e+001
1.236104e+003, 2.486574e+001
1.236586e+003, 2.480331e+001
1.237068e+003, 2.458183e+001
1.237551e+003, 2.461051e+001
1.238033e+003, 2.480913e+001
1.238515e+003, 2.477835e+001
1.238997e+003, 2.454047e+001
1.239479e+003, 2.442573e+001
1.239961e+003, 2.451190e+001
1.240443e+003, 2.457339e+001
1.240925e+003, 2.445109e+001
1.241407e+003, 2.434457e+001
1.241890e+003, 2.452531e+001
1.242372e+003, 2.473136e+001
1.242854e+003, 2.465922e+001
1.243336e+003, 2.449695e+001
1.243818e+003, 2.451985e+001
1.244300e+003, 2.463575e+001
1.244782e+003, 2.451599e+001
1.245264e+003, 2.414943e+001
1.245746e+003, 2.412670e+001
1.246229e+003, 2.499488e+001
1.246711e+003, 2.548544e+001
1.247193e+003, 2.508818e+001
1.247675e+003, 2.468257e+001
1.248157e+003, 2.455062e+001
1.248639e+003, 2.452526e+001
1.249121e+003, 2.449248e+001
1.249603e+003, 2.448889e+001
1.250085e+003, 2.459388e+001
1.250568e+003, 2.479828e+001
1.251050e+003, 2.496610e+001
1.251532e+003, 2.510900e+001
1.252014e+003, 2.505441e+001
1.252496e+003, 2.478134e+001
1.252978e+003, 2.450916e+001
1.253460e+003, 2.430439e+001
1.253942e+003, 2.425291e+001
1.254425e+003, 2.442631e+001
1.254907e+003, 2.464952e+001
1.255389e+003, 2.463789e+001
1.255871e+003, 2.453849e+001
1.256353e+003, 2.465464e+001
1.256835e+003, 2.487366e+001
1.257317e+003, 2.500912e+001
1.257799e+003, 2.505091e+001
1.258281e+003, 2.502400e+001
1.258764e+003, 2.494235e+001
1.259246e+003, 2.481753e+001
1.259728e+003, 2.461216e+001
1.260210e+003, 2.452922e+001
1.260692e+003, 2.482879e+001
1.261174e+003, 2.505474e+001
1.261656e+003, 2.491722e+001
1.262138e+003, 2.469860e+001
1.262620e+003, 2.454921e+001
1.263103e+003, 2.450488e+001
1.263585e+003, 2.466537e+001
1.264067e+003, 2.498726e+001
1.264549e+003, 2.509206e+001
1.265031e+003, 2.487463e+001
1.265513e+003, 2.481705e+001
1.265995e+003, 2.497926e+001
1.266477e+003, 2.502099e+001
1.266960e+003, 2.484248e+001
1.267442e+003, 2.471953e+001
1.267924e+003, 2.481674e+001
1.268406e+003, 2.493359e+001
1.268888e+003, 2.480665e+001
1.269370e+003, 2.457359e+001
1.269852e+003, 2.454135e+001
1.270334e+003, 2.466150e+001
1.270817e+003, 2.490073e+001
1.271299e+003, 2.516011e+001
1.271781e+003, 2.514809e+001
1.272263e+003, 2.489990e+001
1.272745e+003, 2.475593e+001
1.273227e+003, 2.484653e+001
1.273709e+003, 2.491121e+001
1.274191e+003, 2.469401e+001
1.274673e+003, 2.455203e+001
1.275156e+003, 2.480770e+001
1.275638e+003, 2.503438e+001
1.276120e+003, 2.484929e+001
1.276602e+003, 2.455848e+001
1.277084e+003, 2.447104e+001
1.277566e+003, 2.459405e+001
1.278048e+003, 2.493281e+001
1.278530e+003, 2.554580e+001
1.279012e+003, 2.580965e+001
1.279495e+003, 2.561935e+001
1.279977e+003, 2.545232e+001
1.280459e+003, 2.536300e+001
1.280941e+003, 2.526519e+001
1.281423e+003, 2.511859e+001
1.281905e+003, 2.504650e+001
1.282387e+003, 2.515618e+001
1.282869e+003, 2.534085e+001
1.283352e+003, 2.543892e+001
1.283834e+003, 2.546197e+001
1.284316e+003, 2.543230e+001
1.284798e+003, 2.535108e+001
##END=



