##NAMES=Sincosite
##RRUFFID=R141155
##IDEAL CHEMISTRY=Ca(V^4+^O)_2_(P^5+^O_4_)_2_&#183;4H_2_O
##LOCALITY=Ross Hannibal mine, Lawrence County, South Dakota, USA
##OWNER=RRUFF
##SOURCE=Tom Loomis
##DESCRIPTION=Green platy crystals. Crystal exhibits a 2-fold rotation twin around [1 -1 0].
##STATUS=The identification of this mineral has been confirmed by single-crystal X-ray diffraction.
##URL=rruff.info/R141155
8.930109e+001, 0.000000e+000
8.978320e+001, 1.705220e+002
9.026532e+001, 1.704162e+002
9.074744e+001, 1.704870e+002
9.122955e+001, 1.706203e+002
9.171167e+001, 1.713403e+002
9.219379e+001, 1.736299e+002
9.267590e+001, 1.773098e+002
9.315802e+001, 1.804679e+002
9.364014e+001, 1.817954e+002
9.412225e+001, 1.815572e+002
9.460437e+001, 1.801861e+002
9.508649e+001, 1.772233e+002
9.556860e+001, 1.735206e+002
9.605072e+001, 1.714035e+002
9.653284e+001, 1.711385e+002
9.701495e+001, 1.711896e+002
9.749707e+001, 1.698861e+002
9.797919e+001, 1.672645e+002
9.846130e+001, 1.646930e+002
9.894342e+001, 1.623086e+002
9.942554e+001, 1.601481e+002
9.990765e+001, 1.593085e+002
1.003898e+002, 1.600567e+002
1.008719e+002, 1.614586e+002
1.013540e+002, 1.622026e+002
1.018361e+002, 1.622121e+002
1.023182e+002, 1.619679e+002
1.028004e+002, 1.616313e+002
1.032825e+002, 1.612021e+002
1.037646e+002, 1.607059e+002
1.042467e+002, 1.599584e+002
1.047288e+002, 1.592374e+002
1.052109e+002, 1.592125e+002
1.056931e+002, 1.600196e+002
1.061752e+002, 1.612684e+002
1.066573e+002, 1.627366e+002
1.071394e+002, 1.637248e+002
1.076215e+002, 1.660679e+002
1.081036e+002, 1.707348e+002
1.085858e+002, 1.771051e+002
1.090679e+002, 1.817769e+002
1.095500e+002, 1.845331e+002
1.100321e+002, 1.859019e+002
1.105142e+002, 1.861657e+002
1.109963e+002, 1.838506e+002
1.114785e+002, 1.821290e+002
1.119606e+002, 1.812500e+002
1.124427e+002, 1.812010e+002
1.129248e+002, 1.819917e+002
1.134069e+002, 1.840896e+002
1.138890e+002, 1.867591e+002
1.143712e+002, 1.894366e+002
1.148533e+002, 1.919585e+002
1.153354e+002, 1.944973e+002
1.158175e+002, 1.971943e+002
1.162996e+002, 2.001270e+002
1.167817e+002, 2.027854e+002
1.172639e+002, 2.052747e+002
1.177460e+002, 2.073581e+002
1.182281e+002, 2.087307e+002
1.187102e+002, 2.090049e+002
1.191923e+002, 2.087414e+002
1.196744e+002, 2.082067e+002
1.201566e+002, 2.073961e+002
1.206387e+002, 2.064584e+002
1.211208e+002, 2.050913e+002
1.216029e+002, 2.036459e+002
1.220850e+002, 2.028557e+002
1.225671e+002, 2.031033e+002
1.230493e+002, 2.041744e+002
1.235314e+002, 2.058988e+002
1.240135e+002, 2.083116e+002
1.244956e+002, 2.112105e+002
1.249777e+002, 2.152043e+002
1.254598e+002, 2.198038e+002
1.259420e+002, 2.230842e+002
1.264241e+002, 2.231235e+002
1.269062e+002, 2.210597e+002
1.273883e+002, 2.189465e+002
1.278704e+002, 2.172030e+002
1.283525e+002, 2.155963e+002
1.288347e+002, 2.139370e+002
1.293168e+002, 2.121966e+002
1.297989e+002, 2.100615e+002
1.302810e+002, 2.071638e+002
1.307631e+002, 2.036261e+002
1.312452e+002, 1.997749e+002
1.317274e+002, 1.954452e+002
1.322095e+002, 1.909791e+002
1.326916e+002, 1.874191e+002
1.331737e+002, 1.848311e+002
1.336558e+002, 1.825489e+002
1.341379e+002, 1.795836e+002
1.346201e+002, 1.759580e+002
1.351022e+002, 1.731379e+002
1.355843e+002, 1.717356e+002
1.360664e+002, 1.715833e+002
1.365485e+002, 1.715209e+002
1.370306e+002, 1.715535e+002
1.375128e+002, 1.716660e+002
1.379949e+002, 1.718390e+002
1.384770e+002, 1.720696e+002
1.389591e+002, 1.723700e+002
1.394412e+002, 1.726858e+002
1.399233e+002, 1.729857e+002
1.404055e+002, 1.738240e+002
1.408876e+002, 1.756681e+002
1.413697e+002, 1.775635e+002
1.418518e+002, 1.778171e+002
1.423339e+002, 1.758319e+002
1.428160e+002, 1.735517e+002
1.432982e+002, 1.716364e+002
1.437803e+002, 1.701961e+002
1.442624e+002, 1.688093e+002
1.447445e+002, 1.673958e+002
1.452266e+002, 1.660641e+002
1.457087e+002, 1.651164e+002
1.461909e+002, 1.646021e+002
1.466730e+002, 1.643890e+002
1.471551e+002, 1.644486e+002
1.476372e+002, 1.649982e+002
1.481193e+002, 1.654653e+002
1.486014e+002, 1.659565e+002
1.490836e+002, 1.663835e+002
1.495657e+002, 1.664433e+002
1.500478e+002, 1.657987e+002
1.505299e+002, 1.650591e+002
1.510120e+002, 1.644841e+002
1.514941e+002, 1.642166e+002
1.519763e+002, 1.639476e+002
1.524584e+002, 1.636779e+002
1.529405e+002, 1.634020e+002
1.534226e+002, 1.630936e+002
1.539047e+002, 1.629555e+002
1.543868e+002, 1.626497e+002
1.548690e+002, 1.619916e+002
1.553511e+002, 1.602580e+002
1.558332e+002, 1.589189e+002
1.563153e+002, 1.585363e+002
1.567974e+002, 1.589563e+002
1.572795e+002, 1.589222e+002
1.577617e+002, 1.578201e+002
1.582438e+002, 1.563512e+002
1.587259e+002, 1.550220e+002
1.592080e+002, 1.538986e+002
1.596901e+002, 1.529793e+002
1.601722e+002, 1.522421e+002
1.606544e+002, 1.516922e+002
1.611365e+002, 1.514105e+002
1.616186e+002, 1.515824e+002
1.621007e+002, 1.519703e+002
1.625828e+002, 1.523592e+002
1.630649e+002, 1.524877e+002
1.635471e+002, 1.527579e+002
1.640292e+002, 1.534413e+002
1.645113e+002, 1.545460e+002
1.649934e+002, 1.556230e+002
1.654755e+002, 1.564227e+002
1.659576e+002, 1.570741e+002
1.664398e+002, 1.577264e+002
1.669219e+002, 1.584137e+002
1.674040e+002, 1.591451e+002
1.678861e+002, 1.599094e+002
1.683682e+002, 1.607074e+002
1.688503e+002, 1.615732e+002
1.693325e+002, 1.625756e+002
1.698146e+002, 1.636608e+002
1.702967e+002, 1.647258e+002
1.707788e+002, 1.656702e+002
1.712609e+002, 1.666232e+002
1.717430e+002, 1.677600e+002
1.722252e+002, 1.691300e+002
1.727073e+002, 1.703936e+002
1.731894e+002, 1.713370e+002
1.736715e+002, 1.719788e+002
1.741536e+002, 1.723387e+002
1.746357e+002, 1.720586e+002
1.751179e+002, 1.716653e+002
1.756000e+002, 1.719111e+002
1.760821e+002, 1.729501e+002
1.765642e+002, 1.740880e+002
1.770463e+002, 1.745595e+002
1.775284e+002, 1.745508e+002
1.780106e+002, 1.746272e+002
1.784927e+002, 1.752333e+002
1.789748e+002, 1.760910e+002
1.794569e+002, 1.766714e+002
1.799390e+002, 1.768725e+002
1.804211e+002, 1.770220e+002
1.809033e+002, 1.777086e+002
1.813854e+002, 1.787825e+002
1.818675e+002, 1.795162e+002
1.823496e+002, 1.794202e+002
1.828317e+002, 1.786866e+002
1.833138e+002, 1.776579e+002
1.837960e+002, 1.762708e+002
1.842781e+002, 1.748966e+002
1.847602e+002, 1.742883e+002
1.852423e+002, 1.743372e+002
1.857244e+002, 1.741875e+002
1.862065e+002, 1.731003e+002
1.866887e+002, 1.713374e+002
1.871708e+002, 1.698725e+002
1.876529e+002, 1.688349e+002
1.881350e+002, 1.680794e+002
1.886171e+002, 1.674611e+002
1.890992e+002, 1.669699e+002
1.895814e+002, 1.664507e+002
1.900635e+002, 1.657967e+002
1.905456e+002, 1.650144e+002
1.910277e+002, 1.641667e+002
1.915098e+002, 1.631773e+002
1.919919e+002, 1.622467e+002
1.924741e+002, 1.618484e+002
1.929562e+002, 1.619977e+002
1.934383e+002, 1.623551e+002
1.939204e+002, 1.625880e+002
1.944025e+002, 1.627300e+002
1.948846e+002, 1.634379e+002
1.953668e+002, 1.649394e+002
1.958489e+002, 1.668787e+002
1.963310e+002, 1.683979e+002
1.968131e+002, 1.694560e+002
1.972952e+002, 1.703951e+002
1.977773e+002, 1.713580e+002
1.982595e+002, 1.723337e+002
1.987416e+002, 1.736970e+002
1.992237e+002, 1.756462e+002
1.997058e+002, 1.778708e+002
2.001879e+002, 1.793491e+002
2.006700e+002, 1.799244e+002
2.011522e+002, 1.805294e+002
2.016343e+002, 1.818846e+002
2.021164e+002, 1.840734e+002
2.025985e+002, 1.861672e+002
2.030806e+002, 1.879998e+002
2.035627e+002, 1.896770e+002
2.040449e+002, 1.915586e+002
2.045270e+002, 1.937234e+002
2.050091e+002, 1.958291e+002
2.054912e+002, 1.976030e+002
2.059733e+002, 1.989857e+002
2.064554e+002, 2.003671e+002
2.069376e+002, 2.017373e+002
2.074197e+002, 2.031484e+002
2.079018e+002, 2.049469e+002
2.083839e+002, 2.073197e+002
2.088660e+002, 2.096150e+002
2.093481e+002, 2.113246e+002
2.098303e+002, 2.123465e+002
2.103124e+002, 2.132637e+002
2.107945e+002, 2.140154e+002
2.112766e+002, 2.147297e+002
2.117587e+002, 2.160569e+002
2.122408e+002, 2.182703e+002
2.127230e+002, 2.205331e+002
2.132051e+002, 2.223195e+002
2.136872e+002, 2.235478e+002
2.141693e+002, 2.245549e+002
2.146514e+002, 2.252864e+002
2.151335e+002, 2.258169e+002
2.156157e+002, 2.264772e+002
2.160978e+002, 2.273171e+002
2.165799e+002, 2.281924e+002
2.170620e+002, 2.289830e+002
2.175441e+002, 2.295893e+002
2.180262e+002, 2.303999e+002
2.185084e+002, 2.314628e+002
2.189905e+002, 2.327731e+002
2.194726e+002, 2.342168e+002
2.199547e+002, 2.357700e+002
2.204368e+002, 2.375378e+002
2.209189e+002, 2.396303e+002
2.214011e+002, 2.422765e+002
2.218832e+002, 2.446854e+002
2.223653e+002, 2.467100e+002
2.228474e+002, 2.484527e+002
2.233295e+002, 2.504670e+002
2.238116e+002, 2.527524e+002
2.242938e+002, 2.552397e+002
2.247759e+002, 2.579862e+002
2.252580e+002, 2.613210e+002
2.257401e+002, 2.640259e+002
2.262222e+002, 2.658061e+002
2.267043e+002, 2.668893e+002
2.271865e+002, 2.683658e+002
2.276686e+002, 2.705092e+002
2.281507e+002, 2.725897e+002
2.286328e+002, 2.740851e+002
2.291149e+002, 2.745418e+002
2.295970e+002, 2.754925e+002
2.300792e+002, 2.772029e+002
2.305613e+002, 2.794764e+002
2.310434e+002, 2.814718e+002
2.315255e+002, 2.830184e+002
2.320076e+002, 2.845126e+002
2.324897e+002, 2.861104e+002
2.329719e+002, 2.876977e+002
2.334540e+002, 2.896561e+002
2.339361e+002, 2.920802e+002
2.344182e+002, 2.948962e+002
2.349003e+002, 2.978765e+002
2.353824e+002, 3.010162e+002
2.358646e+002, 3.043291e+002
2.363467e+002, 3.078578e+002
2.368288e+002, 3.117754e+002
2.373109e+002, 3.154980e+002
2.377930e+002, 3.188564e+002
2.382751e+002, 3.220401e+002
2.387573e+002, 3.255433e+002
2.392394e+002, 3.295313e+002
2.397215e+002, 3.335932e+002
2.402036e+002, 3.375068e+002
2.406857e+002, 3.409034e+002
2.411678e+002, 3.450015e+002
2.416500e+002, 3.500445e+002
2.421321e+002, 3.556933e+002
2.426142e+002, 3.611605e+002
2.430963e+002, 3.661354e+002
2.435784e+002, 3.713511e+002
2.440605e+002, 3.770529e+002
2.445427e+002, 3.833300e+002
2.450248e+002, 3.899496e+002
2.455069e+002, 3.969399e+002
2.459890e+002, 4.042959e+002
2.464711e+002, 4.118342e+002
2.469532e+002, 4.193902e+002
2.474354e+002, 4.275255e+002
2.479175e+002, 4.364185e+002
2.483996e+002, 4.462871e+002
2.488817e+002, 4.563506e+002
2.493638e+002, 4.664452e+002
2.498459e+002, 4.768380e+002
2.503281e+002, 4.881106e+002
2.508102e+002, 5.008156e+002
2.512923e+002, 5.134986e+002
2.517744e+002, 5.258047e+002
2.522565e+002, 5.375363e+002
2.527386e+002, 5.492713e+002
2.532208e+002, 5.610959e+002
2.537029e+002, 5.728552e+002
2.541850e+002, 5.846053e+002
2.546671e+002, 5.966953e+002
2.551492e+002, 6.081316e+002
2.556313e+002, 6.185187e+002
2.561135e+002, 6.277464e+002
2.565956e+002, 6.364676e+002
2.570777e+002, 6.449120e+002
2.575598e+002, 6.525004e+002
2.580419e+002, 6.585895e+002
2.585240e+002, 6.635041e+002
2.590062e+002, 6.659920e+002
2.594883e+002, 6.653672e+002
2.599704e+002, 6.614926e+002
2.604525e+002, 6.570013e+002
2.609346e+002, 6.524900e+002
2.614167e+002, 6.467054e+002
2.618989e+002, 6.380412e+002
2.623810e+002, 6.259978e+002
2.628631e+002, 6.125996e+002
2.633452e+002, 5.982526e+002
2.638273e+002, 5.827808e+002
2.643094e+002, 5.670941e+002
2.647916e+002, 5.506727e+002
2.652737e+002, 5.344977e+002
2.657558e+002, 5.192951e+002
2.662379e+002, 5.053304e+002
2.667200e+002, 4.917612e+002
2.672021e+002, 4.780196e+002
2.676843e+002, 4.643408e+002
2.681664e+002, 4.525799e+002
2.686485e+002, 4.431474e+002
2.691306e+002, 4.348036e+002
2.696127e+002, 4.265744e+002
2.700948e+002, 4.183161e+002
2.705770e+002, 4.109090e+002
2.710591e+002, 4.046273e+002
2.715412e+002, 3.993580e+002
2.720233e+002, 3.944551e+002
2.725054e+002, 3.900219e+002
2.729875e+002, 3.858719e+002
2.734697e+002, 3.819630e+002
2.739518e+002, 3.783008e+002
2.744339e+002, 3.745955e+002
2.749160e+002, 3.707941e+002
2.753981e+002, 3.669556e+002
2.758802e+002, 3.630672e+002
2.763624e+002, 3.590908e+002
2.768445e+002, 3.554619e+002
2.773266e+002, 3.526936e+002
2.778087e+002, 3.508797e+002
2.782908e+002, 3.485065e+002
2.787729e+002, 3.453287e+002
2.792551e+002, 3.416808e+002
2.797372e+002, 3.384053e+002
2.802193e+002, 3.355412e+002
2.807014e+002, 3.327308e+002
2.811835e+002, 3.297655e+002
2.816656e+002, 3.266473e+002
2.821478e+002, 3.235288e+002
2.826299e+002, 3.204764e+002
2.831120e+002, 3.173041e+002
2.835941e+002, 3.137919e+002
2.840762e+002, 3.099322e+002
2.845583e+002, 3.055243e+002
2.850405e+002, 3.001336e+002
2.855226e+002, 2.939045e+002
2.860047e+002, 2.882882e+002
2.864868e+002, 2.834318e+002
2.869689e+002, 2.787206e+002
2.874510e+002, 2.732244e+002
2.879332e+002, 2.669823e+002
2.884153e+002, 2.607578e+002
2.888974e+002, 2.549004e+002
2.893795e+002, 2.493585e+002
2.898616e+002, 2.441899e+002
2.903438e+002, 2.394178e+002
2.908259e+002, 2.348559e+002
2.913080e+002, 2.302837e+002
2.917901e+002, 2.257583e+002
2.922722e+002, 2.213393e+002
2.927543e+002, 2.170021e+002
2.932365e+002, 2.128531e+002
2.937186e+002, 2.092486e+002
2.942007e+002, 2.062249e+002
2.946828e+002, 2.034246e+002
2.951649e+002, 2.004910e+002
2.956470e+002, 1.975371e+002
2.961292e+002, 1.948513e+002
2.966113e+002, 1.926139e+002
2.970934e+002, 1.906104e+002
2.975755e+002, 1.884595e+002
2.980576e+002, 1.861709e+002
2.985397e+002, 1.839559e+002
2.990219e+002, 1.818269e+002
2.995040e+002, 1.798669e+002
2.999861e+002, 1.783394e+002
3.004682e+002, 1.774260e+002
3.009503e+002, 1.766956e+002
3.014324e+002, 1.756252e+002
3.019146e+002, 1.742820e+002
3.023967e+002, 1.728963e+002
3.028788e+002, 1.715425e+002
3.033609e+002, 1.702655e+002
3.038430e+002, 1.691708e+002
3.043251e+002, 1.682955e+002
3.048073e+002, 1.675154e+002
3.052894e+002, 1.667419e+002
3.057715e+002, 1.659728e+002
3.062536e+002, 1.651820e+002
3.067357e+002, 1.643648e+002
3.072178e+002, 1.635171e+002
3.077000e+002, 1.626598e+002
3.081821e+002, 1.617978e+002
3.086642e+002, 1.608641e+002
3.091463e+002, 1.597035e+002
3.096284e+002, 1.584578e+002
3.101105e+002, 1.573321e+002
3.105927e+002, 1.566016e+002
3.110748e+002, 1.559022e+002
3.115569e+002, 1.549869e+002
3.120390e+002, 1.538472e+002
3.125211e+002, 1.525623e+002
3.130032e+002, 1.509857e+002
3.134854e+002, 1.493468e+002
3.139675e+002, 1.479104e+002
3.144496e+002, 1.470016e+002
3.149317e+002, 1.461086e+002
3.154138e+002, 1.449720e+002
3.158959e+002, 1.436255e+002
3.163781e+002, 1.422384e+002
3.168602e+002, 1.405755e+002
3.173423e+002, 1.390935e+002
3.178244e+002, 1.382057e+002
3.183065e+002, 1.388053e+002
3.187886e+002, 1.388638e+002
3.192708e+002, 1.372624e+002
3.197529e+002, 1.345475e+002
3.202350e+002, 1.322486e+002
3.207171e+002, 1.312269e+002
3.211992e+002, 1.304483e+002
3.216813e+002, 1.293532e+002
3.221635e+002, 1.275710e+002
3.226456e+002, 1.261530e+002
3.231277e+002, 1.256976e+002
3.236098e+002, 1.256676e+002
3.240919e+002, 1.251632e+002
3.245740e+002, 1.234448e+002
3.250562e+002, 1.217847e+002
3.255383e+002, 1.206275e+002
3.260204e+002, 1.201483e+002
3.265025e+002, 1.195403e+002
3.269846e+002, 1.186532e+002
3.274667e+002, 1.176572e+002
3.279489e+002, 1.167206e+002
3.284310e+002, 1.157033e+002
3.289131e+002, 1.149089e+002
3.293952e+002, 1.144880e+002
3.298773e+002, 1.144555e+002
3.303594e+002, 1.141902e+002
3.308416e+002, 1.134893e+002
3.313237e+002, 1.127318e+002
3.318058e+002, 1.121882e+002
3.322879e+002, 1.119613e+002
3.327700e+002, 1.117718e+002
3.332521e+002, 1.115861e+002
3.337343e+002, 1.114146e+002
3.342164e+002, 1.113175e+002
3.346985e+002, 1.113310e+002
3.351806e+002, 1.113615e+002
3.356627e+002, 1.113542e+002
3.361448e+002, 1.112846e+002
3.366270e+002, 1.112544e+002
3.371091e+002, 1.112868e+002
3.375912e+002, 1.113445e+002
3.380733e+002, 1.113530e+002
3.385554e+002, 1.113079e+002
3.390375e+002, 1.112299e+002
3.395197e+002, 1.111229e+002
3.400018e+002, 1.109873e+002
3.404839e+002, 1.108247e+002
3.409660e+002, 1.106117e+002
3.414481e+002, 1.104291e+002
3.419302e+002, 1.104199e+002
3.424124e+002, 1.105994e+002
3.428945e+002, 1.107277e+002
3.433766e+002, 1.106870e+002
3.438587e+002, 1.105391e+002
3.443408e+002, 1.106218e+002
3.448229e+002, 1.109699e+002
3.453051e+002, 1.113038e+002
3.457872e+002, 1.112975e+002
3.462693e+002, 1.110114e+002
3.467514e+002, 1.108340e+002
3.472335e+002, 1.108177e+002
3.477156e+002, 1.109893e+002
3.481978e+002, 1.115816e+002
3.486799e+002, 1.125481e+002
3.491620e+002, 1.132917e+002
3.496441e+002, 1.132828e+002
3.501262e+002, 1.127638e+002
3.506083e+002, 1.122640e+002
3.510905e+002, 1.118139e+002
3.515726e+002, 1.114984e+002
3.520547e+002, 1.114309e+002
3.525368e+002, 1.115804e+002
3.530189e+002, 1.118539e+002
3.535010e+002, 1.123888e+002
3.539832e+002, 1.129346e+002
3.544653e+002, 1.131436e+002
3.549474e+002, 1.129936e+002
3.554295e+002, 1.127644e+002
3.559116e+002, 1.126488e+002
3.563937e+002, 1.126003e+002
3.568759e+002, 1.125507e+002
3.573580e+002, 1.124170e+002
3.578401e+002, 1.123205e+002
3.583222e+002, 1.123377e+002
3.588043e+002, 1.124643e+002
3.592864e+002, 1.126747e+002
3.597686e+002, 1.131201e+002
3.602507e+002, 1.135583e+002
3.607328e+002, 1.137619e+002
3.612149e+002, 1.135570e+002
3.616970e+002, 1.133245e+002
3.621791e+002, 1.131952e+002
3.626613e+002, 1.131476e+002
3.631434e+002, 1.131331e+002
3.636255e+002, 1.131896e+002
3.641076e+002, 1.132313e+002
3.645897e+002, 1.131790e+002
3.650718e+002, 1.129484e+002
3.655540e+002, 1.128922e+002
3.660361e+002, 1.131947e+002
3.665182e+002, 1.136636e+002
3.670003e+002, 1.140689e+002
3.674824e+002, 1.145838e+002
3.679645e+002, 1.148305e+002
3.684467e+002, 1.145174e+002
3.689288e+002, 1.136064e+002
3.694109e+002, 1.132354e+002
3.698930e+002, 1.137176e+002
3.703751e+002, 1.145019e+002
3.708572e+002, 1.152403e+002
3.713394e+002, 1.159736e+002
3.718215e+002, 1.165695e+002
3.723036e+002, 1.168992e+002
3.727857e+002, 1.170874e+002
3.732678e+002, 1.176005e+002
3.737499e+002, 1.185679e+002
3.742321e+002, 1.196358e+002
3.747142e+002, 1.206071e+002
3.751963e+002, 1.214158e+002
3.756784e+002, 1.224357e+002
3.761605e+002, 1.236870e+002
3.766426e+002, 1.251175e+002
3.771248e+002, 1.266018e+002
3.776069e+002, 1.281473e+002
3.780890e+002, 1.297862e+002
3.785711e+002, 1.314969e+002
3.790532e+002, 1.333045e+002
3.795353e+002, 1.353088e+002
3.800175e+002, 1.375598e+002
3.804996e+002, 1.398528e+002
3.809817e+002, 1.419277e+002
3.814638e+002, 1.438213e+002
3.819459e+002, 1.459532e+002
3.824280e+002, 1.484334e+002
3.829102e+002, 1.511315e+002
3.833923e+002, 1.537090e+002
3.838744e+002, 1.562071e+002
3.843565e+002, 1.588375e+002
3.848386e+002, 1.617185e+002
3.853207e+002, 1.648236e+002
3.858029e+002, 1.679830e+002
3.862850e+002, 1.711913e+002
3.867671e+002, 1.745567e+002
3.872492e+002, 1.782841e+002
3.877313e+002, 1.822820e+002
3.882134e+002, 1.862723e+002
3.886956e+002, 1.900141e+002
3.891777e+002, 1.937133e+002
3.896598e+002, 1.975264e+002
3.901419e+002, 2.014514e+002
3.906240e+002, 2.055981e+002
3.911061e+002, 2.103226e+002
3.915883e+002, 2.152282e+002
3.920704e+002, 2.199186e+002
3.925525e+002, 2.242362e+002
3.930346e+002, 2.283832e+002
3.935167e+002, 2.324234e+002
3.939988e+002, 2.364096e+002
3.944810e+002, 2.405341e+002
3.949631e+002, 2.453008e+002
3.954452e+002, 2.498851e+002
3.959273e+002, 2.538074e+002
3.964094e+002, 2.568066e+002
3.968915e+002, 2.598057e+002
3.973737e+002, 2.631579e+002
3.978558e+002, 2.665359e+002
3.983379e+002, 2.695360e+002
3.988200e+002, 2.721525e+002
3.993021e+002, 2.743376e+002
3.997842e+002, 2.760507e+002
4.002664e+002, 2.772899e+002
4.007485e+002, 2.782414e+002
4.012306e+002, 2.790371e+002
4.017127e+002, 2.793991e+002
4.021948e+002, 2.791089e+002
4.026769e+002, 2.779100e+002
4.031591e+002, 2.766149e+002
4.036412e+002, 2.753213e+002
4.041233e+002, 2.739354e+002
4.046054e+002, 2.722358e+002
4.050875e+002, 2.703196e+002
4.055696e+002, 2.678487e+002
4.060518e+002, 2.644416e+002
4.065339e+002, 2.600561e+002
4.070160e+002, 2.564311e+002
4.074981e+002, 2.537620e+002
4.079802e+002, 2.514135e+002
4.084623e+002, 2.486665e+002
4.089445e+002, 2.455193e+002
4.094266e+002, 2.424007e+002
4.099087e+002, 2.394653e+002
4.103908e+002, 2.366055e+002
4.108729e+002, 2.335099e+002
4.113550e+002, 2.301792e+002
4.118372e+002, 2.270060e+002
4.123193e+002, 2.243080e+002
4.128014e+002, 2.219429e+002
4.132835e+002, 2.195656e+002
4.137656e+002, 2.171155e+002
4.142477e+002, 2.146358e+002
4.147299e+002, 2.121995e+002
4.152120e+002, 2.097741e+002
4.156941e+002, 2.073555e+002
4.161762e+002, 2.050339e+002
4.166583e+002, 2.026160e+002
4.171404e+002, 1.997929e+002
4.176226e+002, 1.965580e+002
4.181047e+002, 1.935174e+002
4.185868e+002, 1.911998e+002
4.190689e+002, 1.891330e+002
4.195510e+002, 1.868047e+002
4.200331e+002, 1.837400e+002
4.205153e+002, 1.808762e+002
4.209974e+002, 1.787227e+002
4.214795e+002, 1.770703e+002
4.219616e+002, 1.754780e+002
4.224437e+002, 1.739707e+002
4.229258e+002, 1.723660e+002
4.234080e+002, 1.705347e+002
4.238901e+002, 1.683327e+002
4.243722e+002, 1.663537e+002
4.248543e+002, 1.647688e+002
4.253364e+002, 1.633726e+002
4.258185e+002, 1.619768e+002
4.263007e+002, 1.605687e+002
4.267828e+002, 1.591579e+002
4.272649e+002, 1.577268e+002
4.277470e+002, 1.562927e+002
4.282291e+002, 1.549596e+002
4.287112e+002, 1.538707e+002
4.291934e+002, 1.526445e+002
4.296755e+002, 1.509727e+002
4.301576e+002, 1.487349e+002
4.306397e+002, 1.467397e+002
4.311218e+002, 1.451151e+002
4.316039e+002, 1.435715e+002
4.320861e+002, 1.415468e+002
4.325682e+002, 1.390026e+002
4.330503e+002, 1.365580e+002
4.335324e+002, 1.343710e+002
4.340145e+002, 1.324408e+002
4.344966e+002, 1.308242e+002
4.349788e+002, 1.295294e+002
4.354609e+002, 1.283405e+002
4.359430e+002, 1.270513e+002
4.364251e+002, 1.257122e+002
4.369072e+002, 1.244413e+002
4.373893e+002, 1.232046e+002
4.378715e+002, 1.221585e+002
4.383536e+002, 1.215879e+002
4.388357e+002, 1.213689e+002
4.393178e+002, 1.211569e+002
4.397999e+002, 1.209447e+002
4.402820e+002, 1.205479e+002
4.407642e+002, 1.196457e+002
4.412463e+002, 1.182117e+002
4.417284e+002, 1.169744e+002
4.422105e+002, 1.163466e+002
4.426926e+002, 1.160874e+002
4.431747e+002, 1.159727e+002
4.436569e+002, 1.160937e+002
4.441390e+002, 1.161660e+002
4.446211e+002, 1.160653e+002
4.451032e+002, 1.158436e+002
4.455853e+002, 1.156555e+002
4.460674e+002, 1.155671e+002
4.465496e+002, 1.154854e+002
4.470317e+002, 1.153845e+002
4.475138e+002, 1.152731e+002
4.479959e+002, 1.151073e+002
4.484780e+002, 1.147525e+002
4.489601e+002, 1.144406e+002
4.494423e+002, 1.144273e+002
4.499244e+002, 1.149284e+002
4.504065e+002, 1.152707e+002
4.508886e+002, 1.152752e+002
4.513707e+002, 1.150509e+002
4.518528e+002, 1.151301e+002
4.523350e+002, 1.156583e+002
4.528171e+002, 1.160433e+002
4.532992e+002, 1.158987e+002
4.537813e+002, 1.152131e+002
4.542634e+002, 1.145765e+002
4.547455e+002, 1.139632e+002
4.552277e+002, 1.134963e+002
4.557098e+002, 1.134073e+002
4.561919e+002, 1.136442e+002
4.566740e+002, 1.138523e+002
4.571561e+002, 1.139004e+002
4.576382e+002, 1.138620e+002
4.581204e+002, 1.138839e+002
4.586025e+002, 1.139507e+002
4.590846e+002, 1.139465e+002
4.595667e+002, 1.137898e+002
4.600488e+002, 1.135182e+002
4.605309e+002, 1.131394e+002
4.610131e+002, 1.126187e+002
4.614952e+002, 1.121719e+002
4.619773e+002, 1.120377e+002
4.624594e+002, 1.120595e+002
4.629415e+002, 1.120057e+002
4.634236e+002, 1.117030e+002
4.639058e+002, 1.113884e+002
4.643879e+002, 1.111786e+002
4.648700e+002, 1.110634e+002
4.653521e+002, 1.109070e+002
4.658342e+002, 1.105684e+002
4.663163e+002, 1.102553e+002
4.667985e+002, 1.100884e+002
4.672806e+002, 1.101687e+002
4.677627e+002, 1.102308e+002
4.682448e+002, 1.103706e+002
4.687269e+002, 1.104456e+002
4.692090e+002, 1.102225e+002
4.696912e+002, 1.094464e+002
4.701733e+002, 1.088458e+002
4.706554e+002, 1.086899e+002
4.711375e+002, 1.089015e+002
4.716196e+002, 1.086516e+002
4.721017e+002, 1.077620e+002
4.725839e+002, 1.069087e+002
4.730660e+002, 1.066414e+002
4.735481e+002, 1.069692e+002
4.740302e+002, 1.070368e+002
4.745123e+002, 1.067622e+002
4.749944e+002, 1.062614e+002
4.754766e+002, 1.055264e+002
4.759587e+002, 1.046345e+002
4.764408e+002, 1.040936e+002
4.769229e+002, 1.043991e+002
4.774050e+002, 1.050080e+002
4.778871e+002, 1.049632e+002
4.783693e+002, 1.043242e+002
4.788514e+002, 1.036229e+002
4.793335e+002, 1.031758e+002
4.798156e+002, 1.029012e+002
4.802977e+002, 1.027119e+002
4.807798e+002, 1.025965e+002
4.812620e+002, 1.025485e+002
4.817441e+002, 1.026782e+002
4.822262e+002, 1.028460e+002
4.827083e+002, 1.028462e+002
4.831904e+002, 1.023654e+002
4.836725e+002, 1.019389e+002
4.841547e+002, 1.018014e+002
4.846368e+002, 1.019357e+002
4.851189e+002, 1.020408e+002
4.856010e+002, 1.023922e+002
4.860831e+002, 1.024458e+002
4.865652e+002, 1.018648e+002
4.870474e+002, 1.000630e+002
4.875295e+002, 9.890703e+001
4.880116e+002, 9.875198e+001
4.884937e+002, 9.899264e+001
4.889758e+002, 9.871706e+001
4.894579e+002, 9.767709e+001
4.899401e+002, 9.688562e+001
4.904222e+002, 9.663612e+001
4.909043e+002, 9.681403e+001
4.913864e+002, 9.691768e+001
4.918685e+002, 9.695471e+001
4.923506e+002, 9.686124e+001
4.928328e+002, 9.646624e+001
4.933149e+002, 9.587300e+001
4.937970e+002, 9.561845e+001
4.942791e+002, 9.580192e+001
4.947612e+002, 9.602116e+001
4.952433e+002, 9.564027e+001
4.957255e+002, 9.492588e+001
4.962076e+002, 9.457154e+001
4.966897e+002, 9.513969e+001
4.971718e+002, 9.587343e+001
4.976539e+002, 9.593650e+001
4.981360e+002, 9.550259e+001
4.986182e+002, 9.524476e+001
4.991003e+002, 9.567760e+001
4.995824e+002, 9.630385e+001
5.000645e+002, 9.676511e+001
5.005466e+002, 9.698640e+001
5.010287e+002, 9.722282e+001
5.015109e+002, 9.757979e+001
5.019930e+002, 9.797350e+001
5.024751e+002, 9.831590e+001
5.029572e+002, 9.839631e+001
5.034393e+002, 9.866879e+001
5.039214e+002, 9.934385e+001
5.044036e+002, 1.002525e+002
5.048857e+002, 1.007862e+002
5.053678e+002, 1.006849e+002
5.058499e+002, 1.006710e+002
5.063320e+002, 1.010994e+002
5.068141e+002, 1.020162e+002
5.072963e+002, 1.027050e+002
5.077784e+002, 1.031714e+002
5.082605e+002, 1.034140e+002
5.087426e+002, 1.033635e+002
5.092247e+002, 1.030405e+002
5.097068e+002, 1.027244e+002
5.101890e+002, 1.024017e+002
5.106711e+002, 1.022293e+002
5.111532e+002, 1.026534e+002
5.116353e+002, 1.035412e+002
5.121174e+002, 1.042454e+002
5.125995e+002, 1.042848e+002
5.130817e+002, 1.040404e+002
5.135638e+002, 1.039900e+002
5.140459e+002, 1.041333e+002
5.145280e+002, 1.042063e+002
5.150101e+002, 1.039831e+002
5.154922e+002, 1.036414e+002
5.159744e+002, 1.033514e+002
5.164565e+002, 1.031764e+002
5.169386e+002, 1.029995e+002
5.174207e+002, 1.026879e+002
5.179028e+002, 1.023698e+002
5.183849e+002, 1.022549e+002
5.188671e+002, 1.027283e+002
5.193492e+002, 1.030266e+002
5.198313e+002, 1.028799e+002
5.203134e+002, 1.023327e+002
5.207955e+002, 1.020422e+002
5.212776e+002, 1.020836e+002
5.217598e+002, 1.022689e+002
5.222419e+002, 1.024879e+002
5.227240e+002, 1.027231e+002
5.232061e+002, 1.031229e+002
5.236882e+002, 1.037631e+002
5.241703e+002, 1.044141e+002
5.246525e+002, 1.047200e+002
5.251346e+002, 1.047070e+002
5.256167e+002, 1.047577e+002
5.260988e+002, 1.049602e+002
5.265809e+002, 1.053032e+002
5.270630e+002, 1.058352e+002
5.275452e+002, 1.065220e+002
5.280273e+002, 1.071730e+002
5.285094e+002, 1.075191e+002
5.289915e+002, 1.078549e+002
5.294736e+002, 1.085864e+002
5.299557e+002, 1.097588e+002
5.304379e+002, 1.109294e+002
5.309200e+002, 1.118623e+002
5.314021e+002, 1.126600e+002
5.318842e+002, 1.134122e+002
5.323663e+002, 1.139423e+002
5.328484e+002, 1.147096e+002
5.333306e+002, 1.159594e+002
5.338127e+002, 1.175125e+002
5.342948e+002, 1.189614e+002
5.347769e+002, 1.202228e+002
5.352590e+002, 1.214532e+002
5.357411e+002, 1.226376e+002
5.362233e+002, 1.237780e+002
5.367054e+002, 1.251352e+002
5.371875e+002, 1.267190e+002
5.376696e+002, 1.284837e+002
5.381517e+002, 1.303116e+002
5.386339e+002, 1.321404e+002
5.391160e+002, 1.349345e+002
5.395981e+002, 1.390921e+002
5.400802e+002, 1.432089e+002
5.405623e+002, 1.451223e+002
5.410444e+002, 1.452259e+002
5.415266e+002, 1.458360e+002
5.420087e+002, 1.479040e+002
5.424908e+002, 1.505697e+002
5.429729e+002, 1.526578e+002
5.434550e+002, 1.542479e+002
5.439371e+002, 1.557327e+002
5.444193e+002, 1.573028e+002
5.449014e+002, 1.588943e+002
5.453835e+002, 1.604770e+002
5.458656e+002, 1.620496e+002
5.463477e+002, 1.635498e+002
5.468298e+002, 1.650187e+002
5.473120e+002, 1.663861e+002
5.477941e+002, 1.675838e+002
5.482762e+002, 1.685911e+002
5.487583e+002, 1.694538e+002
5.492404e+002, 1.701979e+002
5.497225e+002, 1.707945e+002
5.502047e+002, 1.711652e+002
5.506868e+002, 1.711579e+002
5.511689e+002, 1.712248e+002
5.516510e+002, 1.715175e+002
5.521331e+002, 1.719867e+002
5.526152e+002, 1.722960e+002
5.530974e+002, 1.724319e+002
5.535795e+002, 1.724865e+002
5.540616e+002, 1.725790e+002
5.545437e+002, 1.726673e+002
5.550258e+002, 1.724444e+002
5.555079e+002, 1.718635e+002
5.559901e+002, 1.711965e+002
5.564722e+002, 1.707435e+002
5.569543e+002, 1.704091e+002
5.574364e+002, 1.699899e+002
5.579185e+002, 1.694017e+002
5.584006e+002, 1.687494e+002
5.588828e+002, 1.680838e+002
5.593649e+002, 1.674118e+002
5.598470e+002, 1.667372e+002
5.603291e+002, 1.659689e+002
5.608112e+002, 1.652758e+002
5.612933e+002, 1.648101e+002
5.617755e+002, 1.645751e+002
5.622576e+002, 1.641205e+002
5.627397e+002, 1.631703e+002
5.632218e+002, 1.621596e+002
5.637039e+002, 1.612920e+002
5.641860e+002, 1.606113e+002
5.646682e+002, 1.599832e+002
5.651503e+002, 1.594929e+002
5.656324e+002, 1.589458e+002
5.661145e+002, 1.580089e+002
5.665966e+002, 1.566106e+002
5.670787e+002, 1.554561e+002
5.675609e+002, 1.547239e+002
5.680430e+002, 1.542915e+002
5.685251e+002, 1.539975e+002
5.690072e+002, 1.538184e+002
5.694893e+002, 1.535803e+002
5.699714e+002, 1.532069e+002
5.704536e+002, 1.527051e+002
5.709357e+002, 1.520411e+002
5.714178e+002, 1.512271e+002
5.718999e+002, 1.504010e+002
5.723820e+002, 1.498688e+002
5.728641e+002, 1.492458e+002
5.733463e+002, 1.481283e+002
5.738284e+002, 1.461924e+002
5.743105e+002, 1.444169e+002
5.747926e+002, 1.432538e+002
5.752747e+002, 1.423514e+002
5.757568e+002, 1.412703e+002
5.762390e+002, 1.397277e+002
5.767211e+002, 1.383165e+002
5.772032e+002, 1.371612e+002
5.776853e+002, 1.361748e+002
5.781674e+002, 1.350770e+002
5.786495e+002, 1.338065e+002
5.791317e+002, 1.326070e+002
5.796138e+002, 1.315834e+002
5.800959e+002, 1.307232e+002
5.805780e+002, 1.299558e+002
5.810601e+002, 1.292859e+002
5.815422e+002, 1.285908e+002
5.820244e+002, 1.276914e+002
5.825065e+002, 1.266883e+002
5.829886e+002, 1.258718e+002
5.834707e+002, 1.252935e+002
5.839528e+002, 1.247625e+002
5.844349e+002, 1.239168e+002
5.849171e+002, 1.230534e+002
5.853992e+002, 1.226201e+002
5.858813e+002, 1.232808e+002
5.863634e+002, 1.238510e+002
5.868455e+002, 1.238238e+002
5.873276e+002, 1.233288e+002
5.878098e+002, 1.227140e+002
5.882919e+002, 1.219298e+002
5.887740e+002, 1.211466e+002
5.892561e+002, 1.203635e+002
5.897382e+002, 1.195761e+002
5.902203e+002, 1.190504e+002
5.907025e+002, 1.188922e+002
5.911846e+002, 1.188143e+002
5.916667e+002, 1.186035e+002
5.921488e+002, 1.182390e+002
5.926309e+002, 1.181248e+002
5.931130e+002, 1.183645e+002
5.935952e+002, 1.185225e+002
5.940773e+002, 1.178213e+002
5.945594e+002, 1.165295e+002
5.950415e+002, 1.157498e+002
5.955236e+002, 1.159314e+002
5.960057e+002, 1.163925e+002
5.964879e+002, 1.163659e+002
5.969700e+002, 1.160270e+002
5.974521e+002, 1.157854e+002
5.979342e+002, 1.159384e+002
5.984163e+002, 1.161454e+002
5.988984e+002, 1.162554e+002
5.993806e+002, 1.162618e+002
5.998627e+002, 1.161589e+002
6.003448e+002, 1.159431e+002
6.008269e+002, 1.156144e+002
6.013090e+002, 1.151426e+002
6.017911e+002, 1.144587e+002
6.022733e+002, 1.138857e+002
6.027554e+002, 1.133987e+002
6.032375e+002, 1.130568e+002
6.037196e+002, 1.129761e+002
6.042017e+002, 1.131907e+002
6.046838e+002, 1.133004e+002
6.051660e+002, 1.132366e+002
6.056481e+002, 1.131038e+002
6.061302e+002, 1.131455e+002
6.066123e+002, 1.132942e+002
6.070944e+002, 1.132160e+002
6.075765e+002, 1.125729e+002
6.080587e+002, 1.118564e+002
6.085408e+002, 1.116962e+002
6.090229e+002, 1.119655e+002
6.095050e+002, 1.122043e+002
6.099871e+002, 1.121181e+002
6.104692e+002, 1.119722e+002
6.109514e+002, 1.119303e+002
6.114335e+002, 1.120085e+002
6.119156e+002, 1.120719e+002
6.123977e+002, 1.121706e+002
6.128798e+002, 1.121840e+002
6.133619e+002, 1.120326e+002
6.138441e+002, 1.116222e+002
6.143262e+002, 1.112447e+002
6.148083e+002, 1.108261e+002
6.152904e+002, 1.105366e+002
6.157725e+002, 1.106916e+002
6.162546e+002, 1.113278e+002
6.167368e+002, 1.117691e+002
6.172189e+002, 1.118464e+002
6.177010e+002, 1.117454e+002
6.181831e+002, 1.118127e+002
6.186652e+002, 1.120022e+002
6.191473e+002, 1.121265e+002
6.196295e+002, 1.120071e+002
6.201116e+002, 1.118374e+002
6.205937e+002, 1.118381e+002
6.210758e+002, 1.119751e+002
6.215579e+002, 1.120778e+002
6.220400e+002, 1.119782e+002
6.225222e+002, 1.118839e+002
6.230043e+002, 1.119475e+002
6.234864e+002, 1.122299e+002
6.239685e+002, 1.123906e+002
6.244506e+002, 1.122761e+002
6.249327e+002, 1.121299e+002
6.254149e+002, 1.121261e+002
6.258970e+002, 1.123488e+002
6.263791e+002, 1.124508e+002
6.268612e+002, 1.123891e+002
6.273433e+002, 1.122570e+002
6.278254e+002, 1.122058e+002
6.283076e+002, 1.122282e+002
6.287897e+002, 1.121666e+002
6.292718e+002, 1.119817e+002
6.297539e+002, 1.116936e+002
6.302360e+002, 1.111818e+002
6.307181e+002, 1.105679e+002
6.312003e+002, 1.102466e+002
6.316824e+002, 1.107254e+002
6.321645e+002, 1.113315e+002
6.326466e+002, 1.115254e+002
6.331287e+002, 1.113560e+002
6.336108e+002, 1.111942e+002
6.340930e+002, 1.111686e+002
6.345751e+002, 1.111820e+002
6.350572e+002, 1.111905e+002
6.355393e+002, 1.111903e+002
6.360214e+002, 1.112018e+002
6.365035e+002, 1.113059e+002
6.369857e+002, 1.113207e+002
6.374678e+002, 1.110155e+002
6.379499e+002, 1.102939e+002
6.384320e+002, 1.099938e+002
6.389141e+002, 1.102429e+002
6.393962e+002, 1.107080e+002
6.398784e+002, 1.110035e+002
6.403605e+002, 1.111416e+002
6.408426e+002, 1.111762e+002
6.413247e+002, 1.110906e+002
6.418068e+002, 1.109643e+002
6.422889e+002, 1.107863e+002
6.427711e+002, 1.106356e+002
6.432532e+002, 1.106864e+002
6.437353e+002, 1.112899e+002
6.442174e+002, 1.118522e+002
6.446995e+002, 1.120288e+002
6.451816e+002, 1.118761e+002
6.456638e+002, 1.118250e+002
6.461459e+002, 1.117539e+002
6.466280e+002, 1.120060e+002
6.471101e+002, 1.129469e+002
6.475922e+002, 1.146655e+002
6.480743e+002, 1.151846e+002
6.485565e+002, 1.141175e+002
6.490386e+002, 1.128333e+002
6.495207e+002, 1.124650e+002
6.500028e+002, 1.128969e+002
6.504849e+002, 1.131419e+002
6.509670e+002, 1.131128e+002
6.514492e+002, 1.130072e+002
6.519313e+002, 1.129474e+002
6.524134e+002, 1.129771e+002
6.528955e+002, 1.132149e+002
6.533776e+002, 1.138200e+002
6.538597e+002, 1.143534e+002
6.543419e+002, 1.144355e+002
6.548240e+002, 1.142954e+002
6.553061e+002, 1.142816e+002
6.557882e+002, 1.147221e+002
6.562703e+002, 1.150308e+002
6.567524e+002, 1.148755e+002
6.572346e+002, 1.144961e+002
6.577167e+002, 1.146760e+002
6.581988e+002, 1.157470e+002
6.586809e+002, 1.166197e+002
6.591630e+002, 1.168624e+002
6.596451e+002, 1.165948e+002
6.601273e+002, 1.165017e+002
6.606094e+002, 1.165864e+002
6.610915e+002, 1.167550e+002
6.615736e+002, 1.169985e+002
6.620557e+002, 1.172652e+002
6.625378e+002, 1.174623e+002
6.630200e+002, 1.175838e+002
6.635021e+002, 1.176305e+002
6.639842e+002, 1.174149e+002
6.644663e+002, 1.172302e+002
6.649484e+002, 1.174152e+002
6.654305e+002, 1.182221e+002
6.659127e+002, 1.188239e+002
6.663948e+002, 1.187089e+002
6.668769e+002, 1.184645e+002
6.673590e+002, 1.186510e+002
6.678411e+002, 1.191957e+002
6.683232e+002, 1.204833e+002
6.688054e+002, 1.231063e+002
6.692875e+002, 1.258488e+002
6.697696e+002, 1.262395e+002
6.702517e+002, 1.242293e+002
6.707338e+002, 1.223670e+002
6.712159e+002, 1.213195e+002
6.716981e+002, 1.209526e+002
6.721802e+002, 1.214150e+002
6.726623e+002, 1.224536e+002
6.731444e+002, 1.231787e+002
6.736265e+002, 1.227205e+002
6.741086e+002, 1.220975e+002
6.745908e+002, 1.221269e+002
6.750729e+002, 1.227211e+002
6.755550e+002, 1.231938e+002
6.760371e+002, 1.230813e+002
6.765192e+002, 1.230317e+002
6.770013e+002, 1.234019e+002
6.774835e+002, 1.242527e+002
6.779656e+002, 1.248654e+002
6.784477e+002, 1.251460e+002
6.789298e+002, 1.253684e+002
6.794119e+002, 1.257866e+002
6.798940e+002, 1.264076e+002
6.803762e+002, 1.266503e+002
6.808583e+002, 1.264607e+002
6.813404e+002, 1.261353e+002
6.818225e+002, 1.258322e+002
6.823046e+002, 1.256422e+002
6.827867e+002, 1.258144e+002
6.832689e+002, 1.265056e+002
6.837510e+002, 1.271939e+002
6.842331e+002, 1.274561e+002
6.847152e+002, 1.274995e+002
6.851973e+002, 1.275809e+002
6.856794e+002, 1.276851e+002
6.861616e+002, 1.279377e+002
6.866437e+002, 1.285165e+002
6.871258e+002, 1.292207e+002
6.876079e+002, 1.296471e+002
6.880900e+002, 1.296196e+002
6.885721e+002, 1.297840e+002
6.890543e+002, 1.303934e+002
6.895364e+002, 1.312264e+002
6.900185e+002, 1.315638e+002
6.905006e+002, 1.314206e+002
6.909827e+002, 1.313270e+002
6.914648e+002, 1.316700e+002
6.919470e+002, 1.321640e+002
6.924291e+002, 1.322939e+002
6.929112e+002, 1.321348e+002
6.933933e+002, 1.321057e+002
6.938754e+002, 1.327647e+002
6.943575e+002, 1.333747e+002
6.948397e+002, 1.333533e+002
6.953218e+002, 1.325983e+002
6.958039e+002, 1.320567e+002
6.962860e+002, 1.318460e+002
6.967681e+002, 1.318941e+002
6.972502e+002, 1.322353e+002
6.977324e+002, 1.329730e+002
6.982145e+002, 1.334890e+002
6.986966e+002, 1.337627e+002
6.991787e+002, 1.338754e+002
6.996608e+002, 1.337934e+002
7.001429e+002, 1.335887e+002
7.006251e+002, 1.336382e+002
7.011072e+002, 1.340125e+002
7.015893e+002, 1.345144e+002
7.020714e+002, 1.351192e+002
7.025535e+002, 1.356718e+002
7.030356e+002, 1.359178e+002
7.035178e+002, 1.355678e+002
7.039999e+002, 1.352738e+002
7.044820e+002, 1.352926e+002
7.049641e+002, 1.355169e+002
7.054462e+002, 1.357951e+002
7.059283e+002, 1.363211e+002
7.064105e+002, 1.365571e+002
7.068926e+002, 1.363239e+002
7.073747e+002, 1.358284e+002
7.078568e+002, 1.355798e+002
7.083389e+002, 1.355978e+002
7.088210e+002, 1.355833e+002
7.093032e+002, 1.353992e+002
7.097853e+002, 1.351558e+002
7.102674e+002, 1.351398e+002
7.107495e+002, 1.352860e+002
7.112316e+002, 1.353197e+002
7.117137e+002, 1.349553e+002
7.121959e+002, 1.345345e+002
7.126780e+002, 1.343270e+002
7.131601e+002, 1.343073e+002
7.136422e+002, 1.342500e+002
7.141243e+002, 1.339756e+002
7.146064e+002, 1.337641e+002
7.150886e+002, 1.337475e+002
7.155707e+002, 1.339326e+002
7.160528e+002, 1.340814e+002
7.165349e+002, 1.342109e+002
7.170170e+002, 1.342651e+002
7.174991e+002, 1.342775e+002
7.179813e+002, 1.342142e+002
7.184634e+002, 1.336763e+002
7.189455e+002, 1.326334e+002
7.194276e+002, 1.316395e+002
7.199097e+002, 1.310922e+002
7.203918e+002, 1.309149e+002
7.208740e+002, 1.311620e+002
7.213561e+002, 1.319582e+002
7.218382e+002, 1.324261e+002
7.223203e+002, 1.318591e+002
7.228024e+002, 1.309498e+002
7.232845e+002, 1.303082e+002
7.237667e+002, 1.301880e+002
7.242488e+002, 1.299853e+002
7.247309e+002, 1.296694e+002
7.252130e+002, 1.292991e+002
7.256951e+002, 1.289213e+002
7.261772e+002, 1.285323e+002
7.266594e+002, 1.282289e+002
7.271415e+002, 1.280539e+002
7.276236e+002, 1.279050e+002
7.281057e+002, 1.276990e+002
7.285878e+002, 1.274059e+002
7.290699e+002, 1.269119e+002
7.295521e+002, 1.259502e+002
7.300342e+002, 1.251482e+002
7.305163e+002, 1.251199e+002
7.309984e+002, 1.255110e+002
7.314805e+002, 1.256897e+002
7.319626e+002, 1.252460e+002
7.324448e+002, 1.248902e+002
7.329269e+002, 1.248777e+002
7.334090e+002, 1.250109e+002
7.338911e+002, 1.246895e+002
7.343732e+002, 1.237801e+002
7.348553e+002, 1.229719e+002
7.353375e+002, 1.224688e+002
7.358196e+002, 1.222185e+002
7.363017e+002, 1.222071e+002
7.367838e+002, 1.223792e+002
7.372659e+002, 1.223966e+002
7.377480e+002, 1.219640e+002
7.382302e+002, 1.213743e+002
7.387123e+002, 1.208628e+002
7.391944e+002, 1.204259e+002
7.396765e+002, 1.200239e+002
7.401586e+002, 1.195719e+002
7.406407e+002, 1.192174e+002
7.411229e+002, 1.191109e+002
7.416050e+002, 1.192312e+002
7.420871e+002, 1.190622e+002
7.425692e+002, 1.183853e+002
7.430513e+002, 1.179380e+002
7.435334e+002, 1.183400e+002
7.440156e+002, 1.194172e+002
7.444977e+002, 1.195615e+002
7.449798e+002, 1.187759e+002
7.454619e+002, 1.178954e+002
7.459440e+002, 1.174667e+002
7.464261e+002, 1.173755e+002
7.469083e+002, 1.176133e+002
7.473904e+002, 1.181846e+002
7.478725e+002, 1.185301e+002
7.483546e+002, 1.181552e+002
7.488367e+002, 1.176290e+002
7.493188e+002, 1.173445e+002
7.498010e+002, 1.174192e+002
7.502831e+002, 1.174035e+002
7.507652e+002, 1.172563e+002
7.512473e+002, 1.170790e+002
7.517294e+002, 1.169779e+002
7.522115e+002, 1.169513e+002
7.526937e+002, 1.167587e+002
7.531758e+002, 1.163597e+002
7.536579e+002, 1.159752e+002
7.541400e+002, 1.159047e+002
7.546221e+002, 1.159807e+002
7.551042e+002, 1.158799e+002
7.555864e+002, 1.154652e+002
7.560685e+002, 1.151956e+002
7.565506e+002, 1.155789e+002
7.570327e+002, 1.160994e+002
7.575148e+002, 1.162260e+002
7.579969e+002, 1.154490e+002
7.584791e+002, 1.149735e+002
7.589612e+002, 1.148935e+002
7.594433e+002, 1.150094e+002
7.599254e+002, 1.151156e+002
7.604075e+002, 1.152149e+002
7.608896e+002, 1.152263e+002
7.613718e+002, 1.151260e+002
7.618539e+002, 1.149670e+002
7.623360e+002, 1.148489e+002
7.628181e+002, 1.147206e+002
7.633002e+002, 1.144625e+002
7.637823e+002, 1.139519e+002
7.642645e+002, 1.134597e+002
7.647466e+002, 1.129651e+002
7.652287e+002, 1.126352e+002
7.657108e+002, 1.127220e+002
7.661929e+002, 1.140104e+002
7.666750e+002, 1.146276e+002
7.671572e+002, 1.140845e+002
7.676393e+002, 1.130439e+002
7.681214e+002, 1.127799e+002
7.686035e+002, 1.133474e+002
7.690856e+002, 1.139802e+002
7.695677e+002, 1.145830e+002
7.700499e+002, 1.149801e+002
7.705320e+002, 1.147016e+002
7.710141e+002, 1.139910e+002
7.714962e+002, 1.134748e+002
7.719783e+002, 1.136068e+002
7.724604e+002, 1.138042e+002
7.729426e+002, 1.137557e+002
7.734247e+002, 1.135497e+002
7.739068e+002, 1.133905e+002
7.743889e+002, 1.133266e+002
7.748710e+002, 1.132744e+002
7.753531e+002, 1.132008e+002
7.758353e+002, 1.131390e+002
7.763174e+002, 1.132394e+002
7.767995e+002, 1.135163e+002
7.772816e+002, 1.136397e+002
7.777637e+002, 1.134104e+002
7.782458e+002, 1.130478e+002
7.787280e+002, 1.129957e+002
7.792101e+002, 1.131372e+002
7.796922e+002, 1.130982e+002
7.801743e+002, 1.122624e+002
7.806564e+002, 1.116266e+002
7.811385e+002, 1.118979e+002
7.816207e+002, 1.128531e+002
7.821028e+002, 1.134761e+002
7.825849e+002, 1.136305e+002
7.830670e+002, 1.135538e+002
7.835491e+002, 1.131761e+002
7.840313e+002, 1.126432e+002
7.845134e+002, 1.126530e+002
7.849955e+002, 1.132161e+002
7.854776e+002, 1.135682e+002
7.859597e+002, 1.131659e+002
7.864418e+002, 1.124720e+002
7.869240e+002, 1.121947e+002
7.874061e+002, 1.122652e+002
7.878882e+002, 1.124397e+002
7.883703e+002, 1.127298e+002
7.888524e+002, 1.129639e+002
7.893345e+002, 1.130655e+002
7.898167e+002, 1.130326e+002
7.902988e+002, 1.128720e+002
7.907809e+002, 1.124040e+002
7.912630e+002, 1.121599e+002
7.917451e+002, 1.124323e+002
7.922272e+002, 1.130498e+002
7.927094e+002, 1.132034e+002
7.931915e+002, 1.129111e+002
7.936736e+002, 1.126554e+002
7.941557e+002, 1.128548e+002
7.946378e+002, 1.131577e+002
7.951199e+002, 1.130444e+002
7.956021e+002, 1.126069e+002
7.960842e+002, 1.122701e+002
7.965663e+002, 1.122881e+002
7.970484e+002, 1.123817e+002
7.975305e+002, 1.124395e+002
7.980126e+002, 1.124634e+002
7.984948e+002, 1.125130e+002
7.989769e+002, 1.126222e+002
7.994590e+002, 1.126718e+002
7.999411e+002, 1.126007e+002
8.004232e+002, 1.124348e+002
8.009053e+002, 1.122380e+002
8.013875e+002, 1.120212e+002
8.018696e+002, 1.118868e+002
8.023517e+002, 1.119714e+002
8.028338e+002, 1.121136e+002
8.033159e+002, 1.121046e+002
8.037980e+002, 1.119843e+002
8.042802e+002, 1.120065e+002
8.047623e+002, 1.123856e+002
8.052444e+002, 1.127819e+002
8.057265e+002, 1.130521e+002
8.062086e+002, 1.132168e+002
8.066907e+002, 1.135396e+002
8.071729e+002, 1.141223e+002
8.076550e+002, 1.144017e+002
8.081371e+002, 1.138805e+002
8.086192e+002, 1.129602e+002
8.091013e+002, 1.128063e+002
8.095834e+002, 1.132989e+002
8.100656e+002, 1.137519e+002
8.105477e+002, 1.137233e+002
8.110298e+002, 1.135463e+002
8.115119e+002, 1.133566e+002
8.119940e+002, 1.131913e+002
8.124761e+002, 1.132557e+002
8.129583e+002, 1.139421e+002
8.134404e+002, 1.143937e+002
8.139225e+002, 1.142551e+002
8.144046e+002, 1.136553e+002
8.148867e+002, 1.133616e+002
8.153688e+002, 1.133856e+002
8.158510e+002, 1.135303e+002
8.163331e+002, 1.138293e+002
8.168152e+002, 1.141063e+002
8.172973e+002, 1.139027e+002
8.177794e+002, 1.133671e+002
8.182615e+002, 1.131006e+002
8.187437e+002, 1.136110e+002
8.192258e+002, 1.142576e+002
8.197079e+002, 1.148198e+002
8.201900e+002, 1.152725e+002
8.206721e+002, 1.155678e+002
8.211542e+002, 1.157286e+002
8.216364e+002, 1.156608e+002
8.221185e+002, 1.152046e+002
8.226006e+002, 1.145624e+002
8.230827e+002, 1.144713e+002
8.235648e+002, 1.148659e+002
8.240469e+002, 1.152015e+002
8.245291e+002, 1.150367e+002
8.250112e+002, 1.148085e+002
8.254933e+002, 1.150104e+002
8.259754e+002, 1.155098e+002
8.264575e+002, 1.158816e+002
8.269396e+002, 1.159204e+002
8.274218e+002, 1.158901e+002
8.279039e+002, 1.158020e+002
8.283860e+002, 1.157080e+002
8.288681e+002, 1.157812e+002
8.293502e+002, 1.160293e+002
8.298323e+002, 1.164300e+002
8.303145e+002, 1.170810e+002
8.307966e+002, 1.177520e+002
8.312787e+002, 1.179010e+002
8.317608e+002, 1.176816e+002
8.322429e+002, 1.175668e+002
8.327250e+002, 1.179600e+002
8.332072e+002, 1.183290e+002
8.336893e+002, 1.182331e+002
8.341714e+002, 1.179011e+002
8.346535e+002, 1.179724e+002
8.351356e+002, 1.187835e+002
8.356177e+002, 1.194372e+002
8.360999e+002, 1.197428e+002
8.365820e+002, 1.198431e+002
8.370641e+002, 1.200366e+002
8.375462e+002, 1.203205e+002
8.380283e+002, 1.206672e+002
8.385104e+002, 1.210821e+002
8.389926e+002, 1.215288e+002
8.394747e+002, 1.221211e+002
8.399568e+002, 1.226829e+002
8.404389e+002, 1.229127e+002
8.409210e+002, 1.221901e+002
8.414031e+002, 1.217495e+002
8.418853e+002, 1.219598e+002
8.423674e+002, 1.225483e+002
8.428495e+002, 1.232161e+002
8.433316e+002, 1.240222e+002
8.438137e+002, 1.245810e+002
8.442958e+002, 1.247838e+002
8.447780e+002, 1.248394e+002
8.452601e+002, 1.249428e+002
8.457422e+002, 1.251497e+002
8.462243e+002, 1.256649e+002
8.467064e+002, 1.267509e+002
8.471885e+002, 1.276242e+002
8.476707e+002, 1.275618e+002
8.481528e+002, 1.271656e+002
8.486349e+002, 1.271531e+002
8.491170e+002, 1.278618e+002
8.495991e+002, 1.284623e+002
8.500812e+002, 1.289195e+002
8.505634e+002, 1.293076e+002
8.510455e+002, 1.297482e+002
8.515276e+002, 1.302194e+002
8.520097e+002, 1.304844e+002
8.524918e+002, 1.304785e+002
8.529739e+002, 1.305342e+002
8.534561e+002, 1.310594e+002
8.539382e+002, 1.317611e+002
8.544203e+002, 1.322836e+002
8.549024e+002, 1.324710e+002
8.553845e+002, 1.327994e+002
8.558666e+002, 1.335237e+002
8.563488e+002, 1.342757e+002
8.568309e+002, 1.347697e+002
8.573130e+002, 1.349527e+002
8.577951e+002, 1.352892e+002
8.582772e+002, 1.357726e+002
8.587593e+002, 1.364293e+002
8.592415e+002, 1.374831e+002
8.597236e+002, 1.386439e+002
8.602057e+002, 1.394120e+002
8.606878e+002, 1.397420e+002
8.611699e+002, 1.399769e+002
8.616520e+002, 1.401560e+002
8.621342e+002, 1.404029e+002
8.626163e+002, 1.408430e+002
8.630984e+002, 1.414818e+002
8.635805e+002, 1.420102e+002
8.640626e+002, 1.423916e+002
8.645447e+002, 1.427680e+002
8.650269e+002, 1.431275e+002
8.655090e+002, 1.435602e+002
8.659911e+002, 1.445905e+002
8.664732e+002, 1.460936e+002
8.669553e+002, 1.472209e+002
8.674374e+002, 1.471038e+002
8.679196e+002, 1.467098e+002
8.684017e+002, 1.466198e+002
8.688838e+002, 1.468400e+002
8.693659e+002, 1.472506e+002
8.698480e+002, 1.479554e+002
8.703301e+002, 1.486262e+002
8.708123e+002, 1.491643e+002
8.712944e+002, 1.496038e+002
8.717765e+002, 1.500925e+002
8.722586e+002, 1.506133e+002
8.727407e+002, 1.510618e+002
8.732228e+002, 1.513379e+002
8.737050e+002, 1.515725e+002
8.741871e+002, 1.518470e+002
8.746692e+002, 1.521869e+002
8.751513e+002, 1.526539e+002
8.756334e+002, 1.536447e+002
8.761155e+002, 1.542693e+002
8.765977e+002, 1.542332e+002
8.770798e+002, 1.538645e+002
8.775619e+002, 1.537670e+002
8.780440e+002, 1.539647e+002
8.785261e+002, 1.541039e+002
8.790082e+002, 1.541097e+002
8.794904e+002, 1.540445e+002
8.799725e+002, 1.540073e+002
8.804546e+002, 1.539535e+002
8.809367e+002, 1.538028e+002
8.814188e+002, 1.535159e+002
8.819009e+002, 1.531661e+002
8.823831e+002, 1.526465e+002
8.828652e+002, 1.521558e+002
8.833473e+002, 1.519290e+002
8.838294e+002, 1.520793e+002
8.843115e+002, 1.520208e+002
8.847936e+002, 1.516935e+002
8.852758e+002, 1.513150e+002
8.857579e+002, 1.511572e+002
8.862400e+002, 1.511087e+002
8.867221e+002, 1.508862e+002
8.872042e+002, 1.504482e+002
8.876863e+002, 1.500306e+002
8.881685e+002, 1.498787e+002
8.886506e+002, 1.497077e+002
8.891327e+002, 1.492483e+002
8.896148e+002, 1.484188e+002
8.900969e+002, 1.479001e+002
8.905790e+002, 1.478211e+002
8.910612e+002, 1.476972e+002
8.915433e+002, 1.471431e+002
8.920254e+002, 1.463116e+002
8.925075e+002, 1.457928e+002
8.929896e+002, 1.455585e+002
8.934717e+002, 1.454076e+002
8.939539e+002, 1.452524e+002
8.944360e+002, 1.451019e+002
8.949181e+002, 1.449594e+002
8.954002e+002, 1.448266e+002
8.958823e+002, 1.447299e+002
8.963644e+002, 1.447970e+002
8.968466e+002, 1.446531e+002
8.973287e+002, 1.441237e+002
8.978108e+002, 1.433837e+002
8.982929e+002, 1.429254e+002
8.987750e+002, 1.426991e+002
8.992571e+002, 1.423560e+002
8.997393e+002, 1.416887e+002
9.002214e+002, 1.409706e+002
9.007035e+002, 1.404343e+002
9.011856e+002, 1.400064e+002
9.016677e+002, 1.395751e+002
9.021498e+002, 1.390630e+002
9.026320e+002, 1.385937e+002
9.031141e+002, 1.380996e+002
9.035962e+002, 1.377300e+002
9.040783e+002, 1.378639e+002
9.045604e+002, 1.384332e+002
9.050425e+002, 1.384273e+002
9.055247e+002, 1.376169e+002
9.060068e+002, 1.367477e+002
9.064889e+002, 1.365441e+002
9.069710e+002, 1.366655e+002
9.074531e+002, 1.367709e+002
9.079352e+002, 1.368434e+002
9.084174e+002, 1.367455e+002
9.088995e+002, 1.364376e+002
9.093816e+002, 1.359893e+002
9.098637e+002, 1.353686e+002
9.103458e+002, 1.345693e+002
9.108279e+002, 1.341455e+002
9.113101e+002, 1.341037e+002
9.117922e+002, 1.340744e+002
9.122743e+002, 1.335726e+002
9.127564e+002, 1.330857e+002
9.132385e+002, 1.333554e+002
9.137206e+002, 1.342602e+002
9.142028e+002, 1.347717e+002
9.146849e+002, 1.340931e+002
9.151670e+002, 1.335468e+002
9.156491e+002, 1.336241e+002
9.161312e+002, 1.341110e+002
9.166133e+002, 1.341352e+002
9.170955e+002, 1.336901e+002
9.175776e+002, 1.332512e+002
9.180597e+002, 1.329950e+002
9.185418e+002, 1.328269e+002
9.190239e+002, 1.327154e+002
9.195060e+002, 1.325902e+002
9.199882e+002, 1.323177e+002
9.204703e+002, 1.315293e+002
9.209524e+002, 1.310187e+002
9.214345e+002, 1.310353e+002
9.219166e+002, 1.312800e+002
9.223987e+002, 1.314123e+002
9.228809e+002, 1.314266e+002
9.233630e+002, 1.313600e+002
9.238451e+002, 1.311951e+002
9.243272e+002, 1.310692e+002
9.248093e+002, 1.313134e+002
9.252914e+002, 1.315992e+002
9.257736e+002, 1.314016e+002
9.262557e+002, 1.305428e+002
9.267378e+002, 1.298745e+002
9.272199e+002, 1.297032e+002
9.277020e+002, 1.297534e+002
9.281841e+002, 1.299949e+002
9.286663e+002, 1.304264e+002
9.291484e+002, 1.303439e+002
9.296305e+002, 1.297194e+002
9.301126e+002, 1.291977e+002
9.305947e+002, 1.292744e+002
9.310768e+002, 1.296280e+002
9.315590e+002, 1.299397e+002
9.320411e+002, 1.301828e+002
9.325232e+002, 1.302677e+002
9.330053e+002, 1.300191e+002
9.334874e+002, 1.297784e+002
9.339695e+002, 1.295792e+002
9.344517e+002, 1.294698e+002
9.349338e+002, 1.296550e+002
9.354159e+002, 1.301442e+002
9.358980e+002, 1.303712e+002
9.363801e+002, 1.300755e+002
9.368622e+002, 1.297399e+002
9.373444e+002, 1.300042e+002
9.378265e+002, 1.305833e+002
9.383086e+002, 1.310574e+002
9.387907e+002, 1.312389e+002
9.392728e+002, 1.314599e+002
9.397549e+002, 1.318426e+002
9.402371e+002, 1.322099e+002
9.407192e+002, 1.323833e+002
9.412013e+002, 1.323510e+002
9.416834e+002, 1.324529e+002
9.421655e+002, 1.326962e+002
9.426476e+002, 1.331063e+002
9.431298e+002, 1.338475e+002
9.436119e+002, 1.346682e+002
9.440940e+002, 1.353190e+002
9.445761e+002, 1.357882e+002
9.450582e+002, 1.361535e+002
9.455403e+002, 1.362449e+002
9.460225e+002, 1.364750e+002
9.465046e+002, 1.370204e+002
9.469867e+002, 1.377923e+002
9.474688e+002, 1.383735e+002
9.479509e+002, 1.387836e+002
9.484330e+002, 1.394332e+002
9.489152e+002, 1.406196e+002
9.493973e+002, 1.419468e+002
9.498794e+002, 1.430805e+002
9.503615e+002, 1.440725e+002
9.508436e+002, 1.450185e+002
9.513257e+002, 1.459231e+002
9.518079e+002, 1.467832e+002
9.522900e+002, 1.475685e+002
9.527721e+002, 1.483499e+002
9.532542e+002, 1.491213e+002
9.537363e+002, 1.499290e+002
9.542184e+002, 1.512236e+002
9.547006e+002, 1.531022e+002
9.551827e+002, 1.549519e+002
9.556648e+002, 1.561302e+002
9.561469e+002, 1.571882e+002
9.566290e+002, 1.586287e+002
9.571111e+002, 1.605639e+002
9.575933e+002, 1.623682e+002
9.580754e+002, 1.638093e+002
9.585575e+002, 1.655462e+002
9.590396e+002, 1.679724e+002
9.595217e+002, 1.708815e+002
9.600038e+002, 1.736741e+002
9.604860e+002, 1.763488e+002
9.609681e+002, 1.789076e+002
9.614502e+002, 1.809642e+002
9.619323e+002, 1.832717e+002
9.624144e+002, 1.861868e+002
9.628965e+002, 1.896857e+002
9.633787e+002, 1.936675e+002
9.638608e+002, 1.984218e+002
9.643429e+002, 2.028258e+002
9.648250e+002, 2.065653e+002
9.653071e+002, 2.104352e+002
9.657892e+002, 2.154317e+002
9.662714e+002, 2.213667e+002
9.667535e+002, 2.279462e+002
9.672356e+002, 2.350991e+002
9.677177e+002, 2.425993e+002
9.681998e+002, 2.498922e+002
9.686819e+002, 2.577644e+002
9.691641e+002, 2.666649e+002
9.696462e+002, 2.766944e+002
9.701283e+002, 2.874091e+002
9.706104e+002, 2.989116e+002
9.710925e+002, 3.112430e+002
9.715746e+002, 3.242785e+002
9.720568e+002, 3.384121e+002
9.725389e+002, 3.546596e+002
9.730210e+002, 3.727971e+002
9.735031e+002, 3.916100e+002
9.739852e+002, 4.095173e+002
9.744673e+002, 4.293941e+002
9.749495e+002, 4.522514e+002
9.754316e+002, 4.774423e+002
9.759137e+002, 5.035349e+002
9.763958e+002, 5.303676e+002
9.768779e+002, 5.591644e+002
9.773600e+002, 5.901413e+002
9.778422e+002, 6.228021e+002
9.783243e+002, 6.566025e+002
9.788064e+002, 6.923062e+002
9.792885e+002, 7.303936e+002
9.797706e+002, 7.709943e+002
9.802527e+002, 8.140074e+002
9.807349e+002, 8.596618e+002
9.812170e+002, 9.074525e+002
9.816991e+002, 9.566998e+002
9.821812e+002, 1.007355e+003
9.826633e+002, 1.058038e+003
9.831454e+002, 1.108633e+003
9.836276e+002, 1.157956e+003
9.841097e+002, 1.207426e+003
9.845918e+002, 1.253536e+003
9.850739e+002, 1.294120e+003
9.855560e+002, 1.328929e+003
9.860381e+002, 1.356554e+003
9.865203e+002, 1.378268e+003
9.870024e+002, 1.391190e+003
9.874845e+002, 1.394389e+003
9.879666e+002, 1.389800e+003
9.884487e+002, 1.379047e+003
9.889308e+002, 1.362904e+003
9.894130e+002, 1.343230e+003
9.898951e+002, 1.320342e+003
9.903772e+002, 1.294102e+003
9.908593e+002, 1.262559e+003
9.913414e+002, 1.229106e+003
9.918235e+002, 1.195609e+003
9.923057e+002, 1.161807e+003
9.927878e+002, 1.130512e+003
9.932699e+002, 1.101645e+003
9.937520e+002, 1.073869e+003
9.942341e+002, 1.045942e+003
9.947162e+002, 1.018937e+003
9.951984e+002, 9.956056e+002
9.956805e+002, 9.749000e+002
9.961626e+002, 9.546445e+002
9.966447e+002, 9.335922e+002
9.971268e+002, 9.132051e+002
9.976089e+002, 8.941712e+002
9.980911e+002, 8.753305e+002
9.985732e+002, 8.555818e+002
9.990553e+002, 8.348459e+002
9.995374e+002, 8.121387e+002
1.000020e+003, 7.876508e+002
1.000502e+003, 7.618493e+002
1.000984e+003, 7.348712e+002
1.001466e+003, 7.075043e+002
1.001948e+003, 6.801323e+002
1.002430e+003, 6.529367e+002
1.002912e+003, 6.276129e+002
1.003394e+003, 6.045557e+002
1.003876e+003, 5.829861e+002
1.004359e+003, 5.627437e+002
1.004841e+003, 5.436288e+002
1.005323e+003, 5.255638e+002
1.005805e+003, 5.084960e+002
1.006287e+003, 4.929107e+002
1.006769e+003, 4.789276e+002
1.007251e+003, 4.662469e+002
1.007733e+003, 4.553693e+002
1.008216e+003, 4.455207e+002
1.008698e+003, 4.357310e+002
1.009180e+003, 4.256582e+002
1.009662e+003, 4.166953e+002
1.010144e+003, 4.090587e+002
1.010626e+003, 4.018806e+002
1.011108e+003, 3.942720e+002
1.011590e+003, 3.867870e+002
1.012072e+003, 3.804456e+002
1.012555e+003, 3.752184e+002
1.013037e+003, 3.702165e+002
1.013519e+003, 3.644929e+002
1.014001e+003, 3.597676e+002
1.014483e+003, 3.567896e+002
1.014965e+003, 3.550785e+002
1.015447e+003, 3.529932e+002
1.015929e+003, 3.505877e+002
1.016411e+003, 3.485318e+002
1.016894e+003, 3.471059e+002
1.017376e+003, 3.459644e+002
1.017858e+003, 3.447474e+002
1.018340e+003, 3.436827e+002
1.018822e+003, 3.431329e+002
1.019304e+003, 3.435356e+002
1.019786e+003, 3.433746e+002
1.020268e+003, 3.424791e+002
1.020751e+003, 3.414849e+002
1.021233e+003, 3.408824e+002
1.021715e+003, 3.405571e+002
1.022197e+003, 3.401978e+002
1.022679e+003, 3.398221e+002
1.023161e+003, 3.395818e+002
1.023643e+003, 3.391145e+002
1.024125e+003, 3.392975e+002
1.024607e+003, 3.408555e+002
1.025090e+003, 3.431498e+002
1.025572e+003, 3.447369e+002
1.026054e+003, 3.455287e+002
1.026536e+003, 3.471141e+002
1.027018e+003, 3.498360e+002
1.027500e+003, 3.532536e+002
1.027982e+003, 3.566111e+002
1.028464e+003, 3.605542e+002
1.028947e+003, 3.660117e+002
1.029429e+003, 3.733860e+002
1.029911e+003, 3.807480e+002
1.030393e+003, 3.874978e+002
1.030875e+003, 3.951269e+002
1.031357e+003, 4.042996e+002
1.031839e+003, 4.148891e+002
1.032321e+003, 4.265968e+002
1.032803e+003, 4.392358e+002
1.033286e+003, 4.524765e+002
1.033768e+003, 4.661351e+002
1.034250e+003, 4.801719e+002
1.034732e+003, 4.950243e+002
1.035214e+003, 5.102046e+002
1.035696e+003, 5.247297e+002
1.036178e+003, 5.385437e+002
1.036660e+003, 5.528746e+002
1.037143e+003, 5.681754e+002
1.037625e+003, 5.825760e+002
1.038107e+003, 5.948079e+002
1.038589e+003, 6.053163e+002
1.039071e+003, 6.149221e+002
1.039553e+003, 6.236215e+002
1.040035e+003, 6.291845e+002
1.040517e+003, 6.302702e+002
1.041000e+003, 6.296125e+002
1.041482e+003, 6.281340e+002
1.041964e+003, 6.251664e+002
1.042446e+003, 6.192198e+002
1.042928e+003, 6.103885e+002
1.043410e+003, 5.992100e+002
1.043892e+003, 5.858213e+002
1.044374e+003, 5.702362e+002
1.044856e+003, 5.515715e+002
1.045339e+003, 5.317227e+002
1.045821e+003, 5.122613e+002
1.046303e+003, 4.934447e+002
1.046785e+003, 4.740004e+002
1.047267e+003, 4.539312e+002
1.047749e+003, 4.337234e+002
1.048231e+003, 4.136741e+002
1.048713e+003, 3.941933e+002
1.049195e+003, 3.760397e+002
1.049677e+003, 3.589085e+002
1.050160e+003, 3.424030e+002
1.050642e+003, 3.263442e+002
1.051124e+003, 3.110089e+002
1.051606e+003, 2.963254e+002
1.052088e+003, 2.824825e+002
1.052570e+003, 2.700651e+002
1.053052e+003, 2.587760e+002
1.053534e+003, 2.481029e+002
1.054017e+003, 2.379782e+002
1.054499e+003, 2.285206e+002
1.054981e+003, 2.198446e+002
1.055463e+003, 2.118097e+002
1.055945e+003, 2.045284e+002
1.056427e+003, 1.978667e+002
1.056909e+003, 1.914523e+002
1.057391e+003, 1.853030e+002
1.057874e+003, 1.791716e+002
1.058356e+003, 1.728239e+002
1.058838e+003, 1.667807e+002
1.059320e+003, 1.617022e+002
1.059802e+003, 1.573565e+002
1.060284e+003, 1.532630e+002
1.060766e+003, 1.493474e+002
1.061248e+003, 1.456827e+002
1.061730e+003, 1.422705e+002
1.062213e+003, 1.390970e+002
1.062695e+003, 1.362010e+002
1.063177e+003, 1.335307e+002
1.063659e+003, 1.308134e+002
1.064141e+003, 1.280893e+002
1.064623e+003, 1.256102e+002
1.065105e+003, 1.236854e+002
1.065587e+003, 1.218184e+002
1.066070e+003, 1.196829e+002
1.066552e+003, 1.175287e+002
1.067034e+003, 1.157919e+002
1.067516e+003, 1.144915e+002
1.067998e+003, 1.131965e+002
1.068480e+003, 1.118773e+002
1.068962e+003, 1.104820e+002
1.069444e+003, 1.088624e+002
1.069927e+003, 1.072273e+002
1.070409e+003, 1.057190e+002
1.070891e+003, 1.043853e+002
1.071373e+003, 1.032185e+002
1.071855e+003, 1.023019e+002
1.072337e+003, 1.012852e+002
1.072819e+003, 9.996574e+001
1.073301e+003, 9.862245e+001
1.073783e+003, 9.783729e+001
1.074266e+003, 9.737524e+001
1.074748e+003, 9.669888e+001
1.075230e+003, 9.551043e+001
1.075712e+003, 9.454524e+001
1.076194e+003, 9.414520e+001
1.076676e+003, 9.384402e+001
1.077158e+003, 9.333689e+001
1.077640e+003, 9.266018e+001
1.078122e+003, 9.226889e+001
1.078604e+003, 9.211001e+001
1.079087e+003, 9.173489e+001
1.079569e+003, 9.057472e+001
1.080051e+003, 8.945576e+001
1.080533e+003, 8.895487e+001
1.081015e+003, 8.880912e+001
1.081497e+003, 8.849368e+001
1.081979e+003, 8.794906e+001
1.082461e+003, 8.754526e+001
1.082944e+003, 8.733141e+001
1.083426e+003, 8.711803e+001
1.083908e+003, 8.669090e+001
1.084390e+003, 8.618777e+001
1.084872e+003, 8.575673e+001
1.085354e+003, 8.540645e+001
1.085836e+003, 8.512637e+001
1.086318e+003, 8.497851e+001
1.086801e+003, 8.475793e+001
1.087283e+003, 8.439106e+001
1.087765e+003, 8.396731e+001
1.088247e+003, 8.369179e+001
1.088729e+003, 8.348686e+001
1.089211e+003, 8.310497e+001
1.089693e+003, 8.242404e+001
1.090175e+003, 8.192607e+001
1.090657e+003, 8.202266e+001
1.091140e+003, 8.215897e+001
1.091622e+003, 8.203789e+001
1.092104e+003, 8.168729e+001
1.092586e+003, 8.126207e+001
1.093068e+003, 8.078135e+001
1.093550e+003, 8.050924e+001
1.094032e+003, 8.076707e+001
1.094514e+003, 8.096446e+001
1.094997e+003, 8.052209e+001
1.095479e+003, 7.983263e+001
1.095961e+003, 7.945704e+001
1.096443e+003, 7.959971e+001
1.096925e+003, 7.931810e+001
1.097407e+003, 7.851830e+001
1.097889e+003, 7.786926e+001
1.098371e+003, 7.813784e+001
1.098854e+003, 7.869490e+001
1.099336e+003, 7.874747e+001
1.099818e+003, 7.837737e+001
1.100300e+003, 7.798219e+001
1.100782e+003, 7.763297e+001
1.101264e+003, 7.728373e+001
1.101746e+003, 7.690553e+001
1.102228e+003, 7.658009e+001
1.102710e+003, 7.650943e+001
1.103193e+003, 7.656206e+001
1.103675e+003, 7.640772e+001
1.104157e+003, 7.600807e+001
1.104639e+003, 7.550853e+001
1.105121e+003, 7.485320e+001
1.105603e+003, 7.423881e+001
1.106085e+003, 7.370679e+001
1.106567e+003, 7.327670e+001
1.107049e+003, 7.308764e+001
1.107531e+003, 7.309537e+001
1.108014e+003, 7.295534e+001
1.108496e+003, 7.252512e+001
1.108978e+003, 7.209065e+001
1.109460e+003, 7.177197e+001
1.109942e+003, 7.160198e+001
1.110424e+003, 7.170619e+001
1.110906e+003, 7.210572e+001
1.111388e+003, 7.199395e+001
1.111871e+003, 7.133521e+001
1.112353e+003, 7.067543e+001
1.112835e+003, 7.029149e+001
1.113317e+003, 7.003539e+001
1.113799e+003, 6.982677e+001
1.114281e+003, 6.961660e+001
1.114763e+003, 6.931498e+001
1.115245e+003, 6.888126e+001
1.115728e+003, 6.839351e+001
1.116210e+003, 6.780197e+001
1.116692e+003, 6.732904e+001
1.117174e+003, 6.724317e+001
1.117656e+003, 6.736733e+001
1.118138e+003, 6.740048e+001
1.118620e+003, 6.735139e+001
1.119102e+003, 6.729416e+001
1.119584e+003, 6.728948e+001
1.120067e+003, 6.722341e+001
1.120549e+003, 6.707689e+001
1.121031e+003, 6.686524e+001
1.121513e+003, 6.660109e+001
1.121995e+003, 6.628765e+001
1.122477e+003, 6.590780e+001
1.122959e+003, 6.545972e+001
1.123441e+003, 6.511198e+001
1.123924e+003, 6.506852e+001
1.124406e+003, 6.501354e+001
1.124888e+003, 6.476630e+001
1.125370e+003, 6.443143e+001
1.125852e+003, 6.439743e+001
1.126334e+003, 6.461414e+001
1.126816e+003, 6.442306e+001
1.127298e+003, 6.356720e+001
1.127781e+003, 6.282515e+001
1.128263e+003, 6.300864e+001
1.128745e+003, 6.336812e+001
1.129227e+003, 6.325553e+001
1.129709e+003, 6.268526e+001
1.130191e+003, 6.219678e+001
1.130673e+003, 6.178651e+001
1.131155e+003, 6.146376e+001
1.131637e+003, 6.127318e+001
1.132120e+003, 6.108934e+001
1.132602e+003, 6.063983e+001
1.133084e+003, 6.017210e+001
1.133566e+003, 6.009740e+001
1.134048e+003, 6.067085e+001
1.134530e+003, 6.088903e+001
1.135012e+003, 6.071110e+001
1.135494e+003, 6.033550e+001
1.135976e+003, 5.974157e+001
1.136458e+003, 5.912563e+001
1.136941e+003, 5.885622e+001
1.137423e+003, 5.882217e+001
1.137905e+003, 5.875269e+001
1.138387e+003, 5.867186e+001
1.138869e+003, 5.834610e+001
1.139351e+003, 5.763736e+001
1.139833e+003, 5.696368e+001
1.140315e+003, 5.684566e+001
1.140798e+003, 5.704905e+001
1.141280e+003, 5.702984e+001
1.141762e+003, 5.678796e+001
1.142244e+003, 5.649287e+001
1.142726e+003, 5.608115e+001
1.143208e+003, 5.581145e+001
1.143690e+003, 5.580899e+001
1.144172e+003, 5.587898e+001
1.144655e+003, 5.564024e+001
1.145137e+003, 5.520790e+001
1.145619e+003, 5.510995e+001
1.146101e+003, 5.541705e+001
1.146583e+003, 5.558715e+001
1.147065e+003, 5.520573e+001
1.147547e+003, 5.473207e+001
1.148029e+003, 5.430299e+001
1.148511e+003, 5.397996e+001
1.148994e+003, 5.405432e+001
1.149476e+003, 5.446169e+001
1.149958e+003, 5.459211e+001
1.150440e+003, 5.426619e+001
1.150922e+003, 5.384962e+001
1.151404e+003, 5.356504e+001
1.151886e+003, 5.332667e+001
1.152368e+003, 5.306319e+001
1.152851e+003, 5.277935e+001
1.153333e+003, 5.255790e+001
1.153815e+003, 5.239852e+001
1.154297e+003, 5.220087e+001
1.154779e+003, 5.185241e+001
1.155261e+003, 5.161959e+001
1.155743e+003, 5.199643e+001
1.156225e+003, 5.248692e+001
1.156708e+003, 5.245221e+001
1.157190e+003, 5.179583e+001
1.157672e+003, 5.123046e+001
1.158154e+003, 5.074047e+001
1.158636e+003, 5.048699e+001
1.159118e+003, 5.069877e+001
1.159600e+003, 5.104255e+001
1.160082e+003, 5.121841e+001
1.160564e+003, 5.124325e+001
1.161047e+003, 5.112528e+001
1.161529e+003, 5.072901e+001
1.162011e+003, 5.056602e+001
1.162493e+003, 5.070241e+001
1.162975e+003, 5.080323e+001
1.163457e+003, 5.053268e+001
1.163939e+003, 5.012420e+001
1.164421e+003, 4.990598e+001
1.164903e+003, 4.982911e+001
1.165385e+003, 4.972800e+001
1.165868e+003, 4.947689e+001
1.166350e+003, 4.938985e+001
1.166832e+003, 4.954237e+001
1.167314e+003, 4.971600e+001
1.167796e+003, 4.967244e+001
1.168278e+003, 4.949673e+001
1.168760e+003, 4.934145e+001
1.169242e+003, 4.920289e+001
1.169725e+003, 4.900162e+001
1.170207e+003, 4.857230e+001
1.170689e+003, 4.828576e+001
1.171171e+003, 4.820092e+001
1.171653e+003, 4.827622e+001
1.172135e+003, 4.864442e+001
1.172617e+003, 4.907676e+001
1.173099e+003, 4.896276e+001
1.173582e+003, 4.824844e+001
1.174064e+003, 4.764991e+001
1.174546e+003, 4.746421e+001
1.175028e+003, 4.740424e+001
1.175510e+003, 4.743911e+001
1.175992e+003, 4.751211e+001
1.176474e+003, 4.754885e+001
1.176956e+003, 4.752592e+001
1.177438e+003, 4.731983e+001
1.177921e+003, 4.687084e+001
1.178403e+003, 4.657690e+001
1.178885e+003, 4.683720e+001
1.179367e+003, 4.700609e+001
1.179849e+003, 4.678217e+001
1.180331e+003, 4.631689e+001
1.180813e+003, 4.599699e+001
1.181295e+003, 4.584363e+001
1.181778e+003, 4.601812e+001
1.182260e+003, 4.673273e+001
1.182742e+003, 4.715186e+001
1.183224e+003, 4.658706e+001
1.183706e+003, 4.592560e+001
1.184188e+003, 4.567702e+001
1.184670e+003, 4.574766e+001
1.185152e+003, 4.559731e+001
1.185635e+003, 4.528679e+001
1.186117e+003, 4.513816e+001
1.186599e+003, 4.537093e+001
1.187081e+003, 4.558185e+001
1.187563e+003, 4.562365e+001
1.188045e+003, 4.551024e+001
1.188527e+003, 4.519604e+001
1.189009e+003, 4.471231e+001
1.189491e+003, 4.443166e+001
1.189974e+003, 4.434429e+001
1.190456e+003, 4.438287e+001
1.190938e+003, 4.465166e+001
1.191420e+003, 4.485154e+001
1.191902e+003, 4.484069e+001
1.192384e+003, 4.467840e+001
1.192866e+003, 4.436973e+001
1.193348e+003, 4.390637e+001
1.193830e+003, 4.374316e+001
1.194313e+003, 4.385466e+001
1.194795e+003, 4.393012e+001
1.195277e+003, 4.360606e+001
1.195759e+003, 4.339432e+001
1.196241e+003, 4.377995e+001
1.196723e+003, 4.431611e+001
1.197205e+003, 4.439228e+001
1.197687e+003, 4.399238e+001
1.198169e+003, 4.379306e+001
1.198652e+003, 4.381805e+001
1.199134e+003, 4.384554e+001
1.199616e+003, 4.373435e+001
1.200098e+003, 4.357319e+001
1.200580e+003, 4.334206e+001
1.201062e+003, 4.313082e+001
1.201544e+003, 4.314060e+001
1.202026e+003, 4.338385e+001
1.202509e+003, 4.328242e+001
1.202991e+003, 4.278179e+001
1.203473e+003, 4.242812e+001
1.203955e+003, 4.285702e+001
1.204437e+003, 4.332389e+001
1.204919e+003, 4.324986e+001
1.205401e+003, 4.288542e+001
1.205883e+003, 4.284161e+001
1.206365e+003, 4.312860e+001
1.206848e+003, 4.314040e+001
1.207330e+003, 4.278137e+001
1.207812e+003, 4.242491e+001
1.208294e+003, 4.232377e+001
1.208776e+003, 4.235612e+001
1.209258e+003, 4.255493e+001
1.209740e+003, 4.280230e+001
1.210222e+003, 4.271517e+001
1.210705e+003, 4.228782e+001
1.211187e+003, 4.207396e+001
1.211669e+003, 4.219337e+001
1.212151e+003, 4.233052e+001
1.212633e+003, 4.222640e+001
1.213115e+003, 4.205155e+001
1.213597e+003, 4.190118e+001
1.214079e+003, 4.178820e+001
1.214562e+003, 4.175941e+001
1.215044e+003, 4.181375e+001
1.215526e+003, 4.194027e+001
1.216008e+003, 4.217889e+001
1.216490e+003, 4.225498e+001
1.216972e+003, 4.174467e+001
1.217454e+003, 4.116700e+001
1.217936e+003, 4.092818e+001
1.218418e+003, 4.097420e+001
1.218901e+003, 4.109049e+001
1.219383e+003, 4.126938e+001
1.219865e+003, 4.131938e+001
1.220347e+003, 4.116174e+001
1.220829e+003, 4.096127e+001
1.221311e+003, 4.080691e+001
1.221793e+003, 4.069029e+001
1.222275e+003, 4.062113e+001
1.222757e+003, 4.058410e+001
1.223240e+003, 4.040548e+001
1.223722e+003, 4.010990e+001
1.224204e+003, 4.005117e+001
1.224686e+003, 4.045894e+001
1.225168e+003, 4.079950e+001
1.225650e+003, 4.057591e+001
1.226132e+003, 4.027133e+001
1.226614e+003, 4.031851e+001
1.227096e+003, 4.064823e+001
1.227579e+003, 4.054145e+001
1.228061e+003, 4.005916e+001
1.228543e+003, 3.975480e+001
1.229025e+003, 3.994467e+001
1.229507e+003, 4.011266e+001
1.229989e+003, 3.985798e+001
1.230471e+003, 3.954848e+001
1.230953e+003, 3.949261e+001
1.231436e+003, 3.965187e+001
1.231918e+003, 3.967976e+001
1.232400e+003, 3.958521e+001
1.232882e+003, 3.941810e+001
1.233364e+003, 3.908578e+001
1.233846e+003, 3.889949e+001
1.234328e+003, 3.916632e+001
1.234810e+003, 3.949852e+001
1.235292e+003, 3.962967e+001
1.235775e+003, 3.957408e+001
1.236257e+003, 3.939081e+001
1.236739e+003, 3.911657e+001
1.237221e+003, 3.894713e+001
1.237703e+003, 3.907736e+001
1.238185e+003, 3.914586e+001
1.238667e+003, 3.884617e+001
1.239149e+003, 3.861071e+001
1.239632e+003, 3.887851e+001
1.240114e+003, 3.949857e+001
1.240596e+003, 3.948041e+001
1.241078e+003, 3.897521e+001
1.241560e+003, 3.862367e+001
1.242042e+003, 3.890330e+001
1.242524e+003, 3.909929e+001
1.243006e+003, 3.901855e+001
1.243489e+003, 3.883178e+001
1.243971e+003, 3.865212e+001
1.244453e+003, 3.847599e+001
1.244935e+003, 3.824003e+001
1.245417e+003, 3.799060e+001
1.245899e+003, 3.790786e+001
1.246381e+003, 3.831712e+001
1.246863e+003, 3.851666e+001
1.247345e+003, 3.834063e+001
1.247828e+003, 3.807721e+001
1.248310e+003, 3.799741e+001
1.248792e+003, 3.801265e+001
1.249274e+003, 3.782784e+001
1.249756e+003, 3.751848e+001
1.250238e+003, 3.734802e+001
1.250720e+003, 3.755378e+001
1.251202e+003, 3.769303e+001
1.251684e+003, 3.773169e+001
1.252167e+003, 3.769976e+001
1.252649e+003, 3.755036e+001
1.253131e+003, 3.738451e+001
1.253613e+003, 3.747360e+001
1.254095e+003, 3.772138e+001
1.254577e+003, 3.780650e+001
1.255059e+003, 3.753312e+001
1.255541e+003, 3.730170e+001
1.256023e+003, 3.712801e+001
1.256506e+003, 3.701443e+001
1.256988e+003, 3.699757e+001
1.257470e+003, 3.701873e+001
1.257952e+003, 3.695378e+001
1.258434e+003, 3.685802e+001
1.258916e+003, 3.692901e+001
1.259398e+003, 3.732490e+001
1.259880e+003, 3.745514e+001
1.260363e+003, 3.725270e+001
1.260845e+003, 3.698931e+001
1.261327e+003, 3.691214e+001
1.261809e+003, 3.687510e+001
1.262291e+003, 3.661618e+001
1.262773e+003, 3.629557e+001
1.263255e+003, 3.638128e+001
1.263737e+003, 3.703638e+001
1.264219e+003, 3.732895e+001
1.264702e+003, 3.718039e+001
1.265184e+003, 3.691812e+001
1.265666e+003, 3.668558e+001
1.266148e+003, 3.654606e+001
1.266630e+003, 3.664516e+001
1.267112e+003, 3.684133e+001
1.267594e+003, 3.681811e+001
1.268076e+003, 3.655317e+001
1.268559e+003, 3.643950e+001
1.269041e+003, 3.650193e+001
1.269523e+003, 3.658058e+001
1.270005e+003, 3.658505e+001
1.270487e+003, 3.655286e+001
1.270969e+003, 3.650407e+001
1.271451e+003, 3.643080e+001
1.271933e+003, 3.630033e+001
1.272416e+003, 3.612125e+001
1.272898e+003, 3.600476e+001
1.273380e+003, 3.595477e+001
1.273862e+003, 3.592693e+001
1.274344e+003, 3.585422e+001
1.274826e+003, 3.586113e+001
1.275308e+003, 3.605657e+001
1.275790e+003, 3.627137e+001
1.276272e+003, 3.622497e+001
1.276755e+003, 3.601910e+001
1.277237e+003, 3.610933e+001
1.277719e+003, 3.646462e+001
1.278201e+003, 3.668905e+001
1.278683e+003, 3.644072e+001
1.279165e+003, 3.628813e+001
1.279647e+003, 3.638552e+001
1.280129e+003, 3.651091e+001
1.280611e+003, 3.638283e+001
1.281094e+003, 3.611183e+001
1.281576e+003, 3.593548e+001
1.282058e+003, 3.584175e+001
1.282540e+003, 3.570888e+001
1.283022e+003, 3.536676e+001
1.283504e+003, 3.526744e+001
1.283986e+003, 3.549283e+001
1.284468e+003, 3.583772e+001
1.284950e+003, 3.625547e+001
1.285433e+003, 3.656022e+001
1.285915e+003, 3.635627e+001
1.286397e+003, 3.580267e+001
1.286879e+003, 3.556074e+001
1.287361e+003, 3.577629e+001
1.287843e+003, 3.588887e+001
1.288325e+003, 3.583666e+001
1.288807e+003, 3.579000e+001
1.289290e+003, 3.593044e+001
1.289772e+003, 3.610815e+001
1.290254e+003, 3.622742e+001
1.290736e+003, 3.626883e+001
1.291218e+003, 3.618738e+001
1.291700e+003, 3.596289e+001
1.292182e+003, 3.593091e+001
1.292664e+003, 3.611206e+001
1.293146e+003, 3.622906e+001
1.293629e+003, 3.599290e+001
1.294111e+003, 3.574041e+001
1.294593e+003, 3.567675e+001
1.295075e+003, 3.570132e+001
1.295557e+003, 3.569414e+001
1.296039e+003, 3.566382e+001
1.296521e+003, 3.569638e+001
1.297003e+003, 3.578640e+001
1.297486e+003, 3.585361e+001
1.297968e+003, 3.584512e+001
1.298450e+003, 3.582681e+001
1.298932e+003, 3.582123e+001
1.299414e+003, 3.580976e+001
1.299896e+003, 3.576466e+001
1.300378e+003, 3.570012e+001
1.300860e+003, 3.566566e+001
1.301343e+003, 3.565324e+001
1.301825e+003, 3.561361e+001
##END=



