##NAMES=Sinhalite
##RRUFFID=R100163
##IDEAL CHEMISTRY=MgAlBO_4_
##LOCALITY=Ratnapura, Sri Lanka
##OWNER=RRUFF
##SOURCE=William W. Pinch
##DESCRIPTION=Pale brown cut gemstone
##STATUS=The identification of this mineral has been confirmed by single-crystal X-ray diffraction.
##URL=rruff.info/R100163
171.5487, 382.5574
172.0309, 382.4909
172.5130, 382.1120
172.9951, 382.9542
173.4772, 384.3724
173.9593, 385.3597
174.4414, 385.4190
174.9236, 384.9222
175.4057, 384.1572
175.8878, 383.1159
176.3699, 382.0364
176.8520, 380.8690
177.3341, 379.7800
177.8163, 379.1451
178.2984, 378.9488
178.7805, 379.3349
179.2626, 381.1551
179.7447, 384.5675
180.2268, 387.3329
180.7090, 386.3612
181.1911, 382.6899
181.6732, 379.5054
182.1553, 378.4800
182.6374, 378.9118
183.1195, 379.5037
183.6017, 380.2748
184.0838, 380.9451
184.5659, 381.1374
185.0480, 380.9228
185.5301, 380.6690
186.0123, 380.3304
186.4944, 380.0610
186.9765, 380.5328
187.4586, 381.9188
187.9407, 383.4721
188.4228, 384.0290
188.9050, 383.6773
189.3871, 383.3781
189.8692, 383.7115
190.3513, 384.5416
190.8334, 385.2178
191.3155, 385.7089
191.7977, 386.0406
192.2798, 386.2783
192.7619, 386.4267
193.2440, 386.3795
193.7261, 385.8356
194.2082, 384.8893
194.6904, 384.6731
195.1725, 385.3908
195.6546, 386.5757
196.1367, 387.4623
196.6188, 388.0685
197.1009, 388.2788
197.5831, 387.7523
198.0652, 386.4881
198.5473, 385.9163
199.0294, 386.2243
199.5115, 387.0884
199.9937, 387.9165
200.4758, 388.6977
200.9579, 389.4210
201.4400, 390.2098
201.9221, 391.1133
202.4042, 391.2298
202.8864, 390.1833
203.3685, 388.6431
203.8506, 388.3176
204.3327, 389.4612
204.8148, 390.7765
205.2969, 391.5113
205.7791, 391.5592
206.2612, 391.8589
206.7433, 392.6360
207.2254, 393.5654
207.7075, 393.6908
208.1896, 392.7358
208.6718, 391.7861
209.1539, 391.4167
209.6360, 391.6985
210.1181, 392.3146
210.6002, 393.5576
211.0823, 394.9671
211.5645, 395.0097
212.0466, 393.0756
212.5287, 391.2407
213.0108, 390.7790
213.4929, 392.1526
213.9750, 392.9778
214.4572, 392.6727
214.9393, 391.9211
215.4214, 393.0755
215.9035, 397.2285
216.3856, 401.0716
216.8678, 402.5150
217.3499, 400.6328
217.8320, 399.4143
218.3141, 399.0360
218.7962, 399.4247
219.2783, 400.5494
219.7605, 402.8763
220.2426, 405.0472
220.7247, 406.2042
221.2068, 405.8234
221.6889, 405.9013
222.1710, 406.5651
222.6532, 407.7329
223.1353, 409.2348
223.6174, 411.5062
224.0995, 413.4269
224.5816, 414.2699
225.0637, 413.2931
225.5459, 413.2265
226.0280, 414.5598
226.5101, 416.7727
226.9922, 418.2317
227.4743, 418.7350
227.9564, 418.8293
228.4386, 418.8056
228.9207, 418.8387
229.4028, 418.2832
229.8849, 416.8384
230.3670, 414.8653
230.8492, 413.3474
231.3313, 412.4753
231.8134, 411.7876
232.2955, 411.1001
232.7776, 410.5116
233.2597, 409.7116
233.7419, 408.5610
234.2240, 407.2440
234.7061, 406.2731
235.1882, 405.7719
235.6703, 405.4444
236.1524, 405.1641
236.6346, 404.8992
237.1167, 404.8169
237.5988, 405.2126
238.0809, 405.6904
238.5630, 405.1557
239.0451, 402.5876
239.5273, 400.5405
240.0094, 400.1935
240.4915, 402.4147
240.9736, 404.0939
241.4557, 405.3326
241.9378, 405.9879
242.4200, 405.5855
242.9021, 403.0774
243.3842, 401.1314
243.8663, 400.9546
244.3484, 403.4491
244.8306, 404.9821
245.3127, 405.2022
245.7948, 404.6388
246.2769, 404.1935
246.7590, 403.7251
247.2411, 403.6372
247.7233, 404.2767
248.2054, 406.1285
248.6875, 406.8153
249.1696, 405.6818
249.6517, 403.8267
250.1338, 403.1507
250.6160, 404.4978
251.0981, 405.5011
251.5802, 405.2447
252.0623, 403.3476
252.5444, 402.1711
253.0265, 401.8816
253.5087, 402.1886
253.9908, 402.7971
254.4729, 404.0819
254.9550, 404.9059
255.4371, 404.7252
255.9192, 403.3145
256.4014, 402.7984
256.8835, 403.5200
257.3656, 404.7971
257.8477, 405.8324
258.3298, 406.5346
258.8120, 407.2134
259.2941, 408.0432
259.7762, 409.0645
260.2583, 409.4674
260.7404, 408.9655
261.2225, 408.1932
261.7047, 407.8247
262.1868, 407.9832
262.6689, 408.1958
263.1510, 408.3239
263.6331, 408.3710
264.1152, 408.6992
264.5974, 409.4366
265.0795, 410.2523
265.5616, 410.7295
266.0437, 410.6612
266.5258, 411.0316
267.0079, 412.2892
267.4901, 414.2580
267.9722, 415.1203
268.4543, 414.5345
268.9364, 413.5676
269.4185, 413.0953
269.9006, 413.2410
270.3828, 413.3590
270.8649, 413.3151
271.3470, 413.1713
271.8291, 413.3006
272.3112, 413.8463
272.7933, 414.2640
273.2755, 413.9093
273.7576, 412.5359
274.2397, 412.0855
274.7218, 413.0559
275.2039, 414.9296
275.6860, 416.1961
276.1682, 416.8316
276.6503, 416.9960
277.1324, 416.6603
277.6145, 415.7870
278.0966, 415.0654
278.5787, 414.5915
279.0609, 414.2762
279.5430, 413.8495
280.0251, 413.2734
280.5072, 412.9130
280.9893, 412.9454
281.4715, 413.3738
281.9536, 414.2618
282.4357, 415.7693
282.9178, 417.4295
283.3999, 418.3203
283.8820, 418.3881
284.3642, 418.5237
284.8463, 419.1632
285.3284, 420.2628
285.8105, 421.3226
286.2926, 422.2867
286.7747, 423.3514
287.2569, 424.9131
287.7390, 426.9432
288.2211, 428.8246
288.7032, 430.1831
289.1853, 431.1661
289.6674, 432.6869
290.1496, 434.8920
290.6317, 436.7648
291.1138, 437.0157
291.5959, 435.8156
292.0780, 434.3047
292.5602, 432.6273
293.0423, 430.9793
293.5244, 429.8533
294.0065, 429.2660
294.4886, 429.0577
294.9707, 429.5093
295.4529, 430.3170
295.9350, 430.3119
296.4171, 428.8591
296.8992, 426.7448
297.3813, 425.3419
297.8634, 424.6136
298.3456, 424.0899
298.8277, 423.4154
299.3098, 422.6888
299.7919, 422.1214
300.2740, 421.7408
300.7561, 421.5741
301.2383, 421.6506
301.7204, 421.9732
302.2025, 422.5542
302.6846, 423.8521
303.1667, 425.2885
303.6488, 425.8277
304.1310, 425.0242
304.6131, 424.1999
305.0952, 424.9193
305.5773, 426.7128
306.0594, 428.3047
306.5415, 428.9276
307.0237, 429.0615
307.5058, 429.0349
307.9879, 428.7884
308.4700, 429.0122
308.9521, 430.6474
309.4343, 433.0734
309.9164, 435.2285
310.3985, 436.2927
310.8806, 437.1756
311.3627, 438.5301
311.8448, 440.3993
312.3270, 442.5722
312.8091, 445.5979
313.2912, 448.6466
313.7733, 450.7384
314.2554, 450.9580
314.7375, 450.6266
315.2197, 450.2831
315.7018, 449.9385
316.1839, 449.6402
316.6660, 449.8403
317.1481, 449.8712
317.6302, 449.1815
318.1124, 447.3630
318.5945, 445.1582
319.0766, 442.3609
319.5587, 439.2622
320.0408, 436.8239
320.5229, 435.4752
321.0051, 434.7778
321.4872, 434.4911
321.9693, 434.5537
322.4514, 435.0790
322.9335, 436.6684
323.4156, 438.6939
323.8978, 439.9456
324.3799, 439.0704
324.8620, 438.3848
325.3441, 438.8697
325.8262, 441.1141
326.3083, 442.8675
326.7905, 443.7345
327.2726, 444.0968
327.7547, 444.4144
328.2368, 445.2095
328.7189, 445.4388
329.2010, 444.8330
329.6832, 443.3491
330.1653, 441.5815
330.6474, 439.1652
331.1295, 436.7312
331.6116, 434.7218
332.0938, 432.8495
332.5759, 431.8911
333.0580, 432.3081
333.5401, 433.8730
334.0222, 434.8698
334.5043, 435.2011
334.9865, 435.1103
335.4686, 434.6362
335.9507, 433.4579
336.4328, 432.7786
336.9149, 432.7589
337.3970, 433.2253
337.8792, 433.7817
338.3613, 434.5463
338.8434, 435.0986
339.3255, 435.2112
339.8076, 434.8294
340.2898, 434.3911
340.7719, 433.7912
341.2540, 433.3214
341.7361, 433.5254
342.2182, 434.4792
342.7003, 435.3641
343.1825, 435.7787
343.6646, 435.8460
344.1467, 436.5326
344.6288, 437.9894
345.1109, 439.3242
345.5930, 439.2442
346.0752, 437.9448
346.5573, 437.4868
347.0394, 438.6549
347.5215, 440.7039
348.0036, 442.0343
348.4857, 442.6473
348.9679, 443.0329
349.4500, 443.6395
349.9321, 444.3124
350.4142, 444.4481
350.8963, 443.6992
351.3784, 443.0478
351.8606, 443.6571
352.3427, 445.4262
352.8248, 448.0226
353.3069, 452.0923
353.7890, 456.5341
354.2711, 459.5640
354.7533, 460.8522
355.2354, 462.4185
355.7175, 465.9695
356.1996, 470.9659
356.6817, 476.4665
357.1638, 482.8643
357.6460, 489.0364
358.1281, 494.0153
358.6102, 497.8535
359.0923, 501.6091
359.5744, 505.6502
360.0565, 509.9570
360.5387, 514.4750
361.0208, 518.7050
361.5029, 523.7734
361.9850, 530.4590
362.4671, 538.4125
362.9492, 546.4862
363.4314, 553.6126
363.9135, 561.2390
364.3956, 570.0289
364.8777, 579.8387
365.3598, 591.5118
365.8419, 605.3988
366.3241, 621.1981
366.8062, 638.3885
367.2883, 655.6182
367.7704, 675.4623
368.2526, 698.4844
368.7347, 724.7934
369.2168, 754.3265
369.6989, 787.7017
370.1810, 823.9641
370.6631, 863.0131
371.1453, 909.0691
371.6274, 952.0505
372.1095, 994.1110
372.5916, 1033.565
373.0737, 1058.942
373.5558, 1072.542
374.0380, 1069.057
374.5201, 1043.216
375.0022, 989.1962
375.4843, 931.8502
375.9664, 868.3107
376.4485, 805.0586
376.9307, 753.2759
377.4128, 714.0493
377.8949, 683.5598
378.3770, 661.5914
378.8591, 647.9832
379.3412, 639.0781
379.8234, 635.5017
380.3055, 634.6801
380.7876, 634.6514
381.2697, 635.3190
381.7518, 635.0187
382.2339, 633.6140
382.7161, 630.7633
383.1982, 625.6326
383.6803, 618.2758
384.1624, 608.7960
384.6445, 595.9736
385.1266, 581.1838
385.6088, 567.6550
386.0909, 555.7764
386.5730, 545.6386
387.0551, 537.7591
387.5372, 531.9186
388.0193, 527.3680
388.5015, 523.5883
388.9836, 521.0355
389.4657, 520.3786
389.9478, 521.6760
390.4299, 523.9899
390.9120, 526.7040
391.3942, 530.0577
391.8763, 534.3118
392.3584, 539.7361
392.8405, 545.9133
393.3226, 552.6119
393.8047, 559.8734
394.2869, 567.8862
394.7690, 578.0934
395.2511, 588.1440
395.7332, 596.7510
396.2154, 604.1330
396.6975, 609.1699
397.1796, 612.4554
397.6617, 613.1525
398.1438, 609.8820
398.6259, 599.9688
399.1081, 588.5123
399.5902, 575.9289
400.0723, 561.6087
400.5544, 550.4188
401.0365, 542.4558
401.5186, 537.5270
402.0008, 535.7380
402.4829, 538.5308
402.9650, 541.6617
403.4471, 544.4965
403.9292, 547.3326
404.4113, 551.4916
404.8935, 557.5039
405.3756, 563.6673
405.8577, 569.3734
406.3398, 574.7031
406.8219, 578.7039
407.3040, 581.4464
407.7862, 582.7353
408.2683, 582.3760
408.7504, 580.3820
409.2325, 576.5670
409.7146, 569.9954
410.1967, 561.7990
410.6789, 554.8273
411.1610, 549.0465
411.6431, 545.3986
412.1252, 545.7253
412.6073, 548.9226
413.0894, 551.9846
413.5716, 554.3909
414.0537, 556.1893
414.5358, 557.9009
415.0179, 559.1278
415.5000, 558.6299
415.9821, 554.6242
416.4643, 549.1356
416.9464, 544.4559
417.4285, 540.8614
417.9106, 536.5093
418.3927, 530.1127
418.8748, 522.2898
419.3570, 513.8983
419.8391, 503.5493
420.3212, 494.2214
420.8033, 487.1062
421.2854, 482.0470
421.7675, 478.0906
422.2497, 475.6606
422.7318, 473.7294
423.2139, 471.8280
423.6960, 469.9967
424.1781, 468.0157
424.6602, 465.4869
425.1424, 462.9125
425.6245, 461.0394
426.1066, 459.8763
426.5887, 459.4552
427.0709, 460.1826
427.5530, 462.0548
428.0351, 462.7384
428.5172, 461.5448
428.9993, 460.1034
429.4814, 459.6394
429.9636, 460.4389
430.4457, 461.1178
430.9278, 461.5954
431.4099, 461.8563
431.8920, 461.7915
432.3741, 461.3535
432.8563, 460.9484
433.3384, 460.7974
433.8205, 460.8539
434.3026, 460.6995
434.7847, 460.2784
435.2668, 460.0770
435.7490, 460.9495
436.2311, 462.5347
436.7132, 463.4585
437.1953, 463.1148
437.6774, 462.2963
438.1595, 462.1502
438.6417, 462.5049
439.1238, 462.6463
439.6059, 461.5849
440.0880, 460.3804
440.5701, 460.2606
441.0522, 461.4716
441.5344, 462.9905
442.0165, 464.7166
442.4986, 466.2079
442.9807, 466.9084
443.4628, 465.6476
443.9449, 464.5280
444.4271, 464.5171
444.9092, 465.4317
445.3913, 466.1822
445.8734, 465.8270
446.3555, 465.7372
446.8376, 466.7061
447.3198, 469.6985
447.8019, 471.9308
448.2840, 472.8278
448.7661, 473.1375
449.2482, 473.9542
449.7303, 475.9492
450.2125, 477.2546
450.6946, 477.1088
451.1767, 475.6856
451.6588, 475.7350
452.1409, 477.8638
452.6230, 480.0636
453.1052, 480.5510
453.5873, 479.1162
454.0694, 478.9649
454.5515, 480.5954
455.0337, 483.0706
455.5158, 484.7473
455.9979, 485.7028
456.4800, 486.8645
456.9621, 488.2657
457.4442, 490.2663
457.9264, 494.3658
458.4085, 500.4573
458.8906, 506.1201
459.3727, 508.7843
459.8548, 509.8326
460.3369, 511.4436
460.8191, 514.2932
461.3012, 517.3743
461.7833, 519.8388
462.2654, 521.9483
462.7475, 524.2318
463.2296, 527.2947
463.7118, 530.3179
464.1939, 533.2495
464.6760, 536.1204
465.1581, 537.4023
465.6402, 535.9650
466.1223, 533.1418
466.6045, 529.8704
467.0866, 525.1543
467.5687, 521.3824
468.0508, 519.1298
468.5329, 517.8317
469.0150, 516.1553
469.4972, 513.3995
469.9793, 511.3637
470.4614, 510.7722
470.9435, 511.7049
471.4256, 512.4865
471.9077, 512.9479
472.3899, 513.6125
472.8720, 514.8318
473.3541, 516.6072
473.8362, 519.3403
474.3183, 523.3160
474.8004, 527.9432
475.2826, 531.9472
475.7647, 535.3911
476.2468, 539.1892
476.7289, 543.9391
477.2110, 549.3616
477.6931, 555.0292
478.1753, 560.9521
478.6574, 566.3344
479.1395, 570.2042
479.6216, 573.2009
480.1037, 576.2361
480.5858, 579.5012
481.0680, 582.9670
481.5501, 586.9937
482.0322, 591.2101
482.5143, 594.7993
482.9964, 597.8906
483.4786, 599.9099
483.9607, 599.9968
484.4428, 597.9242
484.9249, 596.9224
485.4070, 597.9750
485.8892, 600.0947
486.3713, 602.6467
486.8534, 606.2808
487.3355, 609.2562
487.8176, 610.9443
488.2997, 612.1362
488.7819, 614.7997
489.2640, 619.9698
489.7461, 624.2747
490.2282, 626.5592
490.7103, 626.9171
491.1924, 626.8503
491.6746, 626.4946
492.1567, 625.1392
492.6388, 622.4327
493.1209, 618.2606
493.6030, 611.8697
494.0851, 602.7369
494.5673, 592.3143
495.0494, 582.3887
495.5315, 572.9024
496.0136, 564.0231
496.4957, 556.0211
496.9778, 548.4848
497.4600, 540.2681
497.9421, 531.5844
498.4242, 524.1532
498.9063, 519.4827
499.3884, 516.1882
499.8705, 513.1125
500.3527, 510.2608
500.8348, 507.1157
501.3169, 502.9638
501.7990, 498.6139
502.2811, 495.1825
502.7632, 494.0242
503.2454, 492.6167
503.7275, 490.0052
504.2096, 486.3916
504.6917, 483.9048
505.1738, 482.9784
505.6559, 482.6305
506.1381, 482.4759
506.6202, 482.6508
507.1023, 482.4228
507.5844, 481.6288
508.0665, 480.7378
508.5486, 480.4793
509.0308, 480.8694
509.5129, 481.0979
509.9950, 480.8494
510.4771, 480.4021
510.9592, 480.5029
511.4413, 481.0699
511.9235, 481.3981
512.4056, 480.5649
512.8877, 479.3795
513.3698, 479.2458
513.8519, 480.3359
514.3340, 481.3394
514.8162, 480.6593
515.2983, 479.5766
515.7804, 479.7025
516.2625, 482.9961
516.7446, 485.7075
517.2267, 485.5470
517.7089, 483.6666
518.1910, 482.8851
518.6731, 484.9129
519.1552, 487.1122
519.6373, 488.6225
520.1194, 489.4200
520.6016, 489.8060
521.0837, 489.0245
521.5658, 488.6587
522.0479, 490.3300
522.5300, 495.2429
523.0121, 497.5575
523.4943, 496.3099
523.9764, 493.0646
524.4585, 490.2932
524.9406, 488.0379
525.4227, 486.3569
525.9048, 485.5054
526.3870, 485.1426
526.8691, 484.4027
527.3513, 483.3002
527.8334, 482.0971
528.3155, 480.3768
528.7976, 478.8830
529.2797, 479.0754
529.7618, 481.4478
530.2440, 483.5024
530.7261, 482.9818
531.2082, 481.2367
531.6903, 480.0055
532.1724, 479.9118
532.6545, 480.3365
533.1367, 481.4451
533.6188, 482.9761
534.1009, 484.0460
534.5830, 483.7524
535.0651, 483.7174
535.5472, 484.4933
536.0294, 486.1845
536.5115, 488.0775
536.9936, 490.4561
537.4757, 492.6455
537.9578, 493.9419
538.4399, 494.1655
538.9221, 494.6819
539.4042, 495.6054
539.8863, 496.9322
540.3684, 498.7653
540.8505, 501.0711
541.3326, 503.4577
541.8148, 505.7541
542.2969, 508.0291
542.7790, 510.2393
543.2611, 512.4518
543.7432, 515.2490
544.2253, 519.3142
544.7075, 524.0119
545.1896, 528.5933
545.6717, 532.8417
546.1538, 537.6366
546.6359, 543.4737
547.1180, 550.0676
547.6002, 557.0428
548.0823, 563.9072
548.5644, 571.6252
549.0465, 581.2809
549.5286, 592.0002
550.0107, 601.2057
550.4929, 608.1897
550.9750, 614.7722
551.4571, 622.0725
551.9392, 630.1256
552.4213, 634.8601
552.9034, 636.3962
553.3856, 634.3887
553.8677, 628.2856
554.3498, 618.2012
554.8319, 604.8694
555.3140, 587.7465
555.7961, 569.6279
556.2783, 553.4258
556.7604, 539.2269
557.2425, 527.5767
557.7246, 519.5413
558.2067, 513.2112
558.6888, 506.5875
559.1710, 500.1006
559.6531, 495.3088
560.1352, 494.4421
560.6173, 494.3881
561.0994, 493.2997
561.5815, 490.8706
562.0637, 488.6924
562.5458, 487.0347
563.0279, 485.7714
563.5100, 484.7954
563.9921, 484.3387
564.4742, 483.7205
564.9564, 482.7763
565.4385, 481.7706
565.9206, 481.1136
566.4027, 480.7894
566.8848, 480.9370
567.3669, 481.7943
567.8491, 483.0444
568.3312, 483.6644
568.8133, 483.6654
569.2954, 483.3625
569.7775, 482.6676
570.2596, 481.8905
570.7418, 481.6347
571.2239, 481.9424
571.7060, 482.5172
572.1881, 483.4810
572.6702, 484.4360
573.1523, 484.9221
573.6345, 484.6133
574.1166, 484.2008
574.5987, 483.6905
575.0808, 483.2933
575.5629, 483.3561
576.0450, 484.4210
576.5272, 485.4173
577.0093, 486.2782
577.4914, 486.9467
577.9735, 486.8964
578.4556, 485.5869
578.9377, 484.6884
579.4199, 485.2823
579.9020, 487.4048
580.3841, 488.6507
580.8662, 488.8747
581.3483, 489.0172
581.8304, 490.3217
582.3126, 492.3676
582.7947, 493.4991
583.2768, 493.1020
583.7589, 492.6620
584.2410, 494.0967
584.7231, 496.6190
585.2053, 498.6719
585.6874, 499.0121
586.1696, 499.2354
586.6517, 500.0143
587.1338, 501.3422
587.6159, 503.1709
588.0980, 506.5482
588.5801, 509.4579
589.0623, 510.6567
589.5444, 509.6974
590.0265, 510.0568
590.5086, 512.2115
590.9907, 515.0808
591.4728, 518.0338
591.9550, 521.1691
592.4371, 523.5308
592.9192, 524.8198
593.4013, 525.8440
593.8834, 527.7867
594.3655, 530.5496
594.8477, 533.4933
595.3298, 536.4327
595.8119, 539.3940
596.2940, 542.2795
596.7761, 545.1613
597.2582, 548.3685
597.7404, 552.1044
598.2225, 556.1860
598.7046, 560.4909
599.1867, 564.9888
599.6688, 569.7713
600.1509, 575.3561
600.6331, 580.9189
601.1152, 585.8229
601.5973, 589.6398
602.0794, 593.9080
602.5615, 598.9889
603.0436, 604.1384
603.5258, 608.4764
604.0079, 611.9376
604.4900, 615.0227
604.9721, 618.0419
605.4542, 620.3598
605.9363, 620.5440
606.4185, 618.7150
606.9006, 615.8456
607.3827, 612.2922
607.8648, 608.0640
608.3469, 603.2532
608.8290, 597.8214
609.3112, 591.8085
609.7933, 584.7744
610.2754, 577.4276
610.7575, 570.0894
611.2396, 562.8975
611.7217, 555.9291
612.2039, 549.1937
612.6860, 542.7873
613.1681, 536.6941
613.6502, 530.7806
614.1323, 525.4655
614.6144, 520.8051
615.0966, 516.7557
615.5787, 513.1593
616.0608, 510.0533
616.5429, 507.3161
617.0250, 504.9757
617.5071, 502.9349
617.9893, 500.9326
618.4714, 499.0157
618.9535, 497.5786
619.4356, 497.1509
619.9177, 497.1174
620.3998, 496.8389
620.8820, 496.2848
621.3641, 495.2870
621.8462, 493.0678
622.3283, 490.8183
622.8104, 489.4893
623.2925, 489.3982
623.7747, 489.3446
624.2568, 488.9022
624.7389, 488.5381
625.2210, 488.6739
625.7031, 489.7187
626.1852, 490.4070
626.6674, 490.8286
627.1495, 490.6783
627.6316, 488.8424
628.1137, 485.1923
628.5958, 483.2042
629.0779, 484.5836
629.5601, 487.3975
630.0422, 487.5709
630.5243, 485.6254
631.0064, 484.0155
631.4885, 484.7699
631.9706, 486.0485
632.4528, 485.8935
632.9349, 484.4002
633.4170, 483.2867
633.8991, 483.6942
634.3812, 484.4251
634.8633, 484.7148
635.3455, 484.2353
635.8276, 484.1317
636.3097, 484.6362
636.7918, 485.3319
637.2739, 485.9327
637.7560, 486.5035
638.2382, 486.5411
638.7203, 485.7311
639.2024, 484.8765
639.6845, 485.3897
640.1666, 487.1048
640.6487, 488.7513
641.1309, 490.2060
641.6130, 491.0412
642.0951, 490.1157
642.5772, 487.9987
643.0594, 486.3438
643.5415, 486.3706
644.0236, 486.7258
644.5057, 486.5768
644.9879, 485.9662
645.4700, 485.5365
645.9521, 485.7669
646.4342, 485.9215
646.9163, 485.6219
647.3984, 484.7607
647.8806, 484.2514
648.3627, 484.1978
648.8448, 484.3252
649.3269, 484.4934
649.8090, 484.7073
650.2911, 484.5912
650.7733, 484.0169
651.2554, 483.5761
651.7375, 484.4086
652.2196, 485.9067
652.7017, 486.4410
653.1838, 484.9505
653.6660, 483.5563
654.1481, 484.1831
654.6302, 485.9860
655.1123, 487.4894
655.5944, 487.9532
656.0765, 488.2802
656.5587, 488.8007
657.0408, 489.4149
657.5229, 489.6526
658.0050, 489.2349
658.4871, 488.8864
658.9692, 488.8557
659.4514, 489.1196
659.9335, 489.5439
660.4156, 490.1753
660.8977, 490.5799
661.3798, 490.3611
661.8619, 489.6839
662.3441, 488.8648
662.8262, 487.9160
663.3083, 487.2026
663.7904, 487.2558
664.2725, 487.5924
664.7546, 487.6392
665.2368, 487.1190
665.7189, 486.7732
666.2010, 487.0593
666.6831, 487.5641
667.1652, 487.8079
667.6473, 487.5980
668.1295, 487.3795
668.6116, 486.9040
669.0937, 486.6488
669.5758, 487.8428
670.0579, 490.6989
670.5400, 493.0123
671.0222, 494.1772
671.5043, 494.3487
671.9864, 493.3017
672.4685, 491.3492
672.9506, 490.0642
673.4327, 490.8481
673.9149, 492.3067
674.3970, 493.2856
674.8791, 493.7999
675.3612, 494.1925
675.8433, 494.5369
676.3254, 494.8558
676.8076, 495.1986
677.2897, 495.6083
677.7718, 495.7912
678.2539, 495.6954
678.7360, 495.4671
679.2181, 495.0266
679.7003, 494.2824
680.1824, 494.4942
680.6645, 495.8039
681.1466, 497.6505
681.6287, 499.7873
682.1108, 501.9753
682.5930, 503.4414
683.0751, 503.9496
683.5572, 504.0277
684.0393, 503.5899
684.5214, 503.1579
685.0035, 503.4769
685.4857, 505.6461
685.9678, 507.5799
686.4499, 508.4478
686.9320, 508.7480
687.4141, 509.6729
687.8962, 511.8879
688.3784, 513.3534
688.8605, 513.0878
689.3426, 511.9824
689.8247, 513.6413
690.3068, 518.2111
690.7889, 522.0692
691.2711, 522.5460
691.7532, 521.5570
692.2353, 523.0891
692.7174, 526.8210
693.1995, 530.8086
693.6816, 533.6900
694.1638, 536.5045
694.6459, 540.1716
695.1280, 544.8068
695.6101, 549.0657
696.0922, 551.9092
696.5743, 554.9000
697.0565, 558.9693
697.5386, 564.5049
698.0207, 569.5616
698.5028, 573.7739
698.9849, 578.3013
699.4670, 584.5272
699.9492, 592.2650
700.4313, 599.5452
700.9135, 606.0430
701.3956, 612.2651
701.8777, 618.0919
702.3598, 624.1349
702.8419, 631.6096
703.3240, 641.6102
703.8062, 651.5319
704.2883, 660.3737
704.7704, 668.1440
705.2525, 674.6872
705.7346, 680.7061
706.2167, 684.5458
706.6989, 685.8322
707.1810, 684.9544
707.6631, 682.7961
708.1452, 679.5039
708.6273, 674.3527
709.1094, 666.8980
709.5916, 657.7025
710.0737, 647.5169
710.5558, 636.6145
711.0379, 625.9237
711.5200, 615.7386
712.0021, 606.1813
712.4843, 596.9424
712.9664, 588.1307
713.4485, 580.3047
713.9306, 573.8330
714.4127, 568.3137
714.8948, 563.7276
715.3770, 559.9963
715.8591, 557.0222
716.3412, 554.9573
716.8233, 553.3581
717.3054, 552.0565
717.7875, 551.0403
718.2697, 550.1700
718.7518, 549.4337
719.2339, 548.9675
719.7160, 549.0323
720.1981, 549.3943
720.6802, 549.5257
721.1624, 549.2972
721.6445, 549.6377
722.1266, 551.6736
722.6087, 554.1784
723.0908, 556.0511
723.5729, 556.6132
724.0551, 557.5175
724.5372, 558.7702
725.0193, 560.4345
725.5014, 562.5704
725.9835, 565.1974
726.4656, 568.2059
726.9478, 571.6613
727.4299, 575.3878
727.9120, 579.1295
728.3941, 582.9338
728.8762, 586.7408
729.3583, 590.3691
729.8405, 594.3612
730.3226, 599.3711
730.8047, 605.0419
731.2868, 610.6230
731.7689, 615.4424
732.2510, 620.7284
732.7332, 626.8086
733.2153, 633.5008
733.6974, 640.7407
734.1795, 648.8955
734.6616, 656.4639
735.1437, 662.8137
735.6259, 668.4870
736.1080, 674.5597
736.5901, 681.0732
737.0722, 688.4285
737.5543, 697.8311
738.0364, 707.3907
738.5186, 715.1148
739.0007, 721.0922
739.4828, 725.9136
739.9649, 729.2418
740.4470, 732.0197
740.9291, 734.7092
741.4113, 737.2588
741.8934, 739.2615
742.3755, 741.1223
742.8576, 741.7132
743.3397, 740.4945
743.8218, 737.5885
744.3040, 733.8713
744.7861, 729.3751
745.2682, 724.1769
745.7503, 718.2292
746.2324, 711.6100
746.7145, 704.5019
747.1967, 696.8857
747.6788, 689.1683
748.1609, 681.4218
748.6430, 673.7675
749.1251, 666.1066
749.6072, 658.2899
750.0894, 651.2002
750.5715, 645.1727
751.0536, 639.4697
751.5357, 633.7667
752.0178, 628.0247
752.4999, 622.0516
752.9821, 615.7082
753.4642, 609.8472
753.9463, 605.4669
754.4284, 602.1545
754.9105, 599.3268
755.3926, 596.9675
755.8748, 594.1682
756.3569, 589.6182
756.8390, 584.7529
757.3211, 580.8152
757.8032, 578.3912
758.2853, 576.1371
758.7675, 574.0656
759.2496, 572.0281
759.7318, 569.9156
760.2139, 567.7784
760.6960, 565.1472
761.1781, 561.7799
761.6602, 558.7296
762.1423, 557.7548
762.6245, 558.0641
763.1066, 557.6384
763.5887, 555.8209
764.0708, 553.9816
764.5529, 553.1630
765.0350, 552.8439
765.5172, 552.4044
765.9993, 551.5654
766.4814, 550.7792
766.9635, 550.0574
767.4456, 549.3962
767.9277, 548.8013
768.4099, 548.2696
768.8920, 547.8066
769.3741, 547.5161
769.8562, 547.0143
770.3383, 545.1635
770.8204, 542.6293
771.3026, 541.3228
771.7847, 542.4254
772.2668, 543.8098
772.7489, 544.3091
773.2310, 544.0858
773.7131, 543.3917
774.1953, 541.2055
774.6774, 540.0278
775.1595, 540.6257
775.6416, 542.0662
776.1237, 542.4572
776.6058, 541.5727
777.0880, 541.5008
777.5701, 543.0375
778.0522, 545.0531
778.5343, 545.5126
779.0164, 544.8488
779.4985, 544.3197
779.9807, 544.3937
780.4628, 544.7937
780.9449, 545.2597
781.4270, 545.9340
781.9091, 547.1303
782.3912, 549.4821
782.8734, 551.6234
783.3555, 553.2757
783.8376, 554.6570
784.3197, 556.2820
784.8018, 558.1871
785.2839, 560.1730
785.7661, 562.3700
786.2482, 564.3361
786.7303, 564.7197
787.2124, 564.1857
787.6945, 564.6361
788.1766, 567.6895
788.6588, 571.2138
789.1409, 574.3926
789.6230, 577.2238
790.1051, 579.7814
790.5872, 581.5178
791.0693, 583.8962
791.5515, 587.5779
792.0336, 591.8843
792.5157, 594.6762
792.9978, 595.9506
793.4799, 596.9076
793.9620, 598.2513
794.4442, 599.2314
794.9263, 598.1728
795.4084, 595.8021
795.8905, 594.1342
796.3726, 596.1865
796.8547, 596.9152
797.3369, 593.0643
797.8190, 586.0407
798.3011, 580.9738
798.7832, 579.0263
799.2653, 576.7346
799.7474, 573.0504
800.2296, 568.6163
800.7117, 565.3130
801.1938, 563.0516
801.6759, 560.8593
802.1580, 558.1825
802.6401, 555.5360
803.1223, 553.3157
803.6044, 551.6243
804.0865, 550.7493
804.5686, 552.7444
805.0507, 553.4338
805.5328, 550.2052
806.0150, 544.7830
806.4971, 541.6697
806.9792, 541.4768
807.4613, 541.6605
807.9434, 541.5545
808.4255, 541.3644
808.9077, 541.8290
809.3898, 542.7132
809.8719, 542.9614
810.3540, 541.6667
810.8361, 540.0089
811.3182, 538.5150
811.8004, 537.3842
812.2825, 537.0563
812.7646, 538.8150
813.2467, 539.9442
813.7288, 539.7917
814.2109, 538.7633
814.6931, 537.6274
815.1752, 536.2556
815.6573, 536.1122
816.1394, 538.1462
816.6215, 540.7716
817.1037, 541.1943
817.5858, 540.0364
818.0679, 538.9406
818.5500, 538.5471
819.0322, 538.4388
819.5143, 538.2688
819.9964, 538.2551
820.4785, 538.9645
820.9606, 541.1986
821.4427, 542.6016
821.9249, 542.6293
822.4070, 541.8289
822.8891, 541.1462
823.3712, 540.6029
823.8533, 540.4338
824.3354, 540.6963
824.8176, 541.3903
825.2997, 542.9949
825.7818, 544.9374
826.2639, 546.1976
826.7460, 545.6187
827.2281, 545.3458
827.7103, 546.0412
828.1924, 547.2346
828.6745, 548.4539
829.1566, 549.8591
829.6387, 550.3943
830.1208, 549.5236
830.6030, 548.6017
831.0851, 550.2213
831.5672, 553.4735
832.0493, 555.8030
832.5314, 556.2111
833.0135, 556.3401
833.4957, 557.0627
833.9778, 558.2394
834.4599, 559.7268
834.9420, 561.9429
835.4241, 563.7640
835.9063, 564.8585
836.3884, 565.9693
836.8705, 568.2717
837.3526, 571.7126
837.8347, 573.8819
838.3168, 574.2762
838.7990, 574.6862
839.2811, 577.0548
839.7632, 580.6059
840.2453, 584.3026
840.7274, 587.9809
841.2095, 591.7437
841.6917, 594.8573
842.1738, 598.6477
842.6559, 604.3044
843.1380, 612.5909
843.6201, 619.7236
844.1022, 625.2130
844.5844, 631.2301
845.0665, 640.6513
845.5486, 652.1693
846.0307, 661.4171
846.5128, 667.9842
846.9949, 675.7415
847.4771, 688.3732
847.9592, 702.4551
848.4413, 715.0898
848.9234, 725.3674
849.4055, 737.6994
849.8876, 752.5046
850.3698, 768.6699
850.8519, 785.3840
851.3340, 802.7352
851.8161, 820.9095
852.2982, 839.9056
852.7803, 860.4727
853.2625, 884.0370
853.7446, 908.8111
854.2267, 933.2442
854.7088, 957.3935
855.1909, 982.9919
855.6730, 1011.895
856.1552, 1040.724
856.6373, 1068.956
857.1194, 1096.181
857.6015, 1120.305
858.0836, 1141.738
858.5657, 1158.533
859.0479, 1169.983
859.5300, 1176.344
860.0121, 1178.721
860.4942, 1176.546
860.9763, 1167.560
861.4584, 1149.231
861.9406, 1125.457
862.4227, 1097.034
862.9048, 1064.327
863.3869, 1029.676
863.8690, 991.2664
864.3511, 954.6478
864.8333, 920.4028
865.3154, 889.0159
865.7975, 860.2348
866.2796, 834.0191
866.7617, 809.7809
867.2438, 787.2097
867.7260, 766.3073
868.2081, 746.1073
868.6902, 727.6539
869.1723, 712.1516
869.6544, 701.6923
870.1365, 691.5214
870.6187, 681.2667
871.1008, 671.3719
871.5829, 662.6242
872.0650, 655.0014
872.5471, 648.0123
873.0292, 641.6312
873.5114, 635.6469
873.9935, 630.1942
874.4756, 624.8527
874.9577, 618.8695
875.4399, 611.4254
875.9220, 605.3380
876.4041, 602.3586
876.8862, 600.1593
877.3683, 597.2809
877.8505, 593.5527
878.3326, 590.3583
878.8147, 587.7739
879.2968, 585.1967
879.7789, 581.9479
880.2610, 578.4695
880.7432, 575.4664
881.2253, 572.9735
881.7074, 570.5571
882.1895, 567.8851
882.6716, 565.3577
883.1537, 563.1561
883.6359, 561.2858
884.1180, 559.8412
884.6001, 558.9145
885.0822, 558.0280
885.5643, 557.0896
886.0464, 555.9615
886.5286, 554.1331
887.0107, 551.7646
887.4928, 549.4933
887.9749, 547.2747
888.4570, 545.6830
888.9391, 545.6620
889.4213, 546.5336
889.9034, 545.9677
890.3855, 542.7622
890.8676, 541.0056
891.3497, 541.9902
891.8318, 544.1474
892.3140, 544.5001
892.7961, 543.4254
893.2782, 542.3418
893.7603, 541.5233
894.2424, 541.1818
894.7245, 542.1856
895.2067, 543.4561
895.6888, 543.6553
896.1709, 541.4311
896.6530, 539.9968
897.1351, 539.6494
897.6172, 539.6451
898.0994, 538.9770
898.5815, 537.8477
899.0636, 538.0311
899.5457, 539.7636
900.0278, 541.4797
900.5099, 542.1188
900.9921, 542.0084
901.4742, 541.2405
901.9563, 539.7023
902.4384, 538.6656
902.9205, 538.3323
903.4026, 538.4384
903.8848, 539.0551
904.3669, 540.0580
904.8490, 540.3852
905.3311, 540.0502
905.8132, 539.5582
906.2953, 539.1773
906.7775, 538.8093
907.2596, 538.1676
907.7417, 537.4202
908.2238, 537.1443
908.7059, 537.8119
909.1880, 538.6555
909.6702, 539.8326
910.1523, 540.8986
910.6344, 540.3804
911.1165, 538.3315
911.5986, 537.3067
912.0807, 538.2656
912.5629, 539.8632
913.0450, 540.7969
913.5271, 541.2806
914.0092, 541.6481
914.4913, 542.0746
914.9734, 542.2059
915.4556, 541.9442
915.9377, 541.4216
916.4198, 540.4532
916.9019, 538.9354
917.3840, 539.1656
917.8661, 541.4505
918.3483, 543.7097
918.8304, 543.6011
919.3125, 542.6550
919.7946, 542.9262
920.2767, 544.6332
920.7589, 545.9216
921.2410, 545.6245
921.7231, 545.4417
922.2052, 546.1425
922.6873, 547.5917
923.1694, 548.5351
923.6516, 548.9445
924.1337, 549.4542
924.6158, 550.1962
925.0979, 551.3710
925.5800, 553.5842
926.0621, 556.4176
926.5443, 558.8612
927.0264, 559.8235
927.5085, 561.3115
927.9906, 563.8873
928.4727, 567.0956
928.9548, 570.3138
929.4370, 573.5528
929.9191, 576.2028
930.4012, 578.0187
930.8833, 579.7336
931.3654, 582.1614
931.8475, 584.9866
932.3297, 587.9025
932.8118, 590.9547
933.2939, 593.5818
933.7761, 594.9905
934.2582, 596.5823
934.7403, 599.1108
935.2224, 602.6003
935.7045, 606.9982
936.1866, 612.3944
936.6688, 617.0658
937.1509, 619.1217
937.6330, 620.2904
938.1151, 622.4023
938.5972, 625.4269
939.0793, 628.7485
939.5615, 633.8108
940.0436, 637.1435
940.5257, 637.4200
941.0078, 635.7173
941.4899, 634.9310
941.9720, 635.0103
942.4542, 634.4697
942.9363, 632.6519
943.4184, 630.6053
943.9005, 630.0281
944.3826, 629.7204
944.8647, 627.9147
945.3469, 623.2175
945.8290, 618.8457
946.3111, 615.3763
946.7932, 611.9125
947.2753, 607.6044
947.7574, 602.4495
948.2396, 597.4045
948.7217, 592.4818
949.2038, 588.1632
949.6859, 585.1143
950.1680, 582.6337
950.6501, 580.2474
951.1323, 577.9039
951.6144, 575.2933
952.0965, 571.8601
952.5786, 569.1370
953.0607, 567.8681
953.5428, 567.4441
954.0250, 565.9163
954.5071, 563.4785
954.9892, 561.2764
955.4713, 559.7767
955.9534, 558.6395
956.4355, 557.7698
956.9177, 557.0488
957.3998, 556.2967
957.8819, 555.5038
958.3640, 554.6186
958.8461, 553.5447
959.3282, 552.5755
959.8104, 552.0652
960.2925, 551.9333
960.7746, 551.9014
961.2567, 551.9506
961.7388, 552.2429
962.2209, 553.5937
962.7031, 554.6253
963.1852, 553.9056
963.6673, 551.5618
964.1494, 550.8691
964.6315, 552.4323
965.1136, 553.4932
965.5958, 552.6603
966.0779, 551.0681
966.5600, 551.1895
967.0421, 552.5062
967.5242, 553.6243
968.0063, 554.1998
968.4885, 554.2162
968.9706, 553.2227
969.4527, 551.9134
969.9348, 551.0449
970.4169, 550.5886
970.8990, 550.9185
971.3812, 552.1799
971.8633, 553.5167
972.3454, 554.0219
972.8275, 554.0687
973.3096, 554.0848
973.7917, 554.1197
974.2739, 554.4909
974.7560, 555.9586
975.2381, 557.0406
975.7202, 556.9938
976.2023, 556.1135
976.6844, 555.9032
977.1666, 556.3573
977.6487, 556.9363
978.1308, 557.3381
978.6129, 557.9033
979.0950, 559.4919
979.5771, 561.3632
980.0593, 562.3104
980.5414, 560.6589
981.0235, 560.0862
981.5056, 560.9327
981.9877, 562.5892
982.4698, 564.8844
982.9520, 567.5753
983.4341, 568.9070
983.9162, 568.7797
984.3983, 568.6180
984.8804, 569.3128
985.3625, 570.4632
985.8447, 572.0193
986.3268, 573.9018
986.8089, 575.0004
987.2910, 574.7703
987.7731, 575.4147
988.2552, 578.0963
988.7374, 581.4701
989.2195, 582.5275
989.7016, 582.0133
990.1837, 581.8055
990.6658, 582.5333
991.1479, 583.6647
991.6301, 585.8503
992.1122, 587.7336
992.5944, 587.9228
993.0765, 586.0641
993.5586, 584.2912
994.0407, 582.5746
994.5228, 581.3098
995.0049, 581.3959
995.4871, 581.7781
995.9692, 580.8963
996.4513, 578.8654
996.9334, 576.9789
997.4155, 575.4898
997.8976, 574.4512
998.3798, 574.1523
998.8619, 574.1129
999.3440, 572.7604
999.8261, 570.3225
1000.308, 569.1913
1000.790, 570.3544
1001.272, 571.7256
1001.755, 571.8254
1002.237, 571.0553
1002.719, 569.7054
1003.201, 567.4180
1003.683, 565.9567
1004.165, 565.6657
1004.647, 565.3113
1005.129, 563.6141
1005.612, 561.3203
1006.094, 560.8710
1006.576, 561.9059
1007.058, 562.6832
1007.540, 561.7629
1008.022, 561.0211
1008.504, 561.1228
1008.986, 561.9488
1009.468, 563.7294
1009.951, 566.7676
1010.433, 568.0062
1010.915, 566.7652
1011.397, 564.6592
1011.879, 562.7938
1012.361, 561.5289
1012.843, 561.5114
1013.325, 562.9887
1013.807, 564.3505
1014.290, 565.4084
1014.772, 566.1601
1015.254, 566.5018
1015.736, 566.5505
1016.218, 566.9022
1016.700, 567.4687
1017.182, 567.7278
1017.664, 567.2908
1018.147, 566.6854
1018.629, 565.7429
1019.111, 565.0646
1019.593, 565.6896
1020.075, 568.4344
1020.557, 569.8541
1021.039, 569.5179
1021.521, 569.0073
1022.003, 570.3037
1022.486, 572.2662
1022.968, 572.3818
1023.450, 570.7623
1023.932, 570.1912
1024.414, 572.8500
1024.896, 575.5090
1025.378, 577.2090
1025.860, 578.1266
1026.343, 578.5917
1026.825, 578.6392
1027.307, 578.7803
1027.789, 579.0020
1028.271, 579.8455
1028.753, 582.4301
1029.235, 585.5606
1029.717, 587.6828
1030.199, 587.9158
1030.682, 589.8608
1031.164, 594.0226
1031.646, 598.5322
1032.128, 602.3693
1032.610, 605.7050
1033.092, 608.4883
1033.574, 611.0497
1034.056, 614.5128
1034.539, 620.2087
1035.021, 625.8684
1035.503, 630.6345
1035.985, 635.0718
1036.467, 640.0475
1036.949, 645.5348
1037.431, 650.8103
1037.913, 655.6888
1038.396, 661.1618
1038.878, 668.9254
1039.360, 677.1760
1039.842, 684.3829
1040.324, 690.3519
1040.806, 695.8295
1041.288, 700.7346
1041.770, 705.6740
1042.252, 711.0741
1042.734, 716.4590
1043.217, 721.5901
1043.699, 725.9501
1044.181, 728.1870
1044.663, 727.5922
1045.145, 725.5937
1045.627, 722.5350
1046.109, 718.3870
1046.591, 713.0671
1047.074, 706.5433
1047.556, 699.6354
1048.038, 692.2892
1048.520, 684.6859
1049.002, 676.9894
1049.484, 669.1647
1049.966, 660.6891
1050.448, 652.0386
1050.931, 644.5643
1051.413, 639.1242
1051.895, 632.9719
1052.377, 625.3992
1052.859, 618.0398
1053.341, 612.9835
1053.823, 609.4700
1054.305, 605.7231
1054.787, 601.5350
1055.270, 597.7719
1055.752, 594.8339
1056.234, 592.4417
1056.716, 590.7330
1057.198, 589.3881
1057.680, 587.0189
1058.162, 583.7012
1058.644, 580.6299
1059.126, 578.1569
1059.609, 576.1107
1060.091, 574.5964
1060.573, 573.3320
1061.055, 571.9757
1061.537, 570.3408
1062.019, 569.3128
1062.501, 569.0712
1062.983, 568.8002
1063.466, 567.8560
1063.948, 566.5997
1064.430, 565.6299
1064.912, 564.9132
1065.394, 564.3347
1065.876, 564.2358
1066.358, 563.7434
1066.840, 562.5660
1067.323, 561.1375
1067.805, 559.8505
1068.287, 558.7372
1068.769, 558.1509
1069.251, 558.1074
1069.733, 558.4036
1070.215, 559.1824
1070.697, 559.9775
1071.179, 560.6451
1071.661, 561.0613
1072.144, 560.4653
1072.626, 558.5862
1073.108, 557.6600
1073.590, 558.4778
1074.072, 559.8293
1074.554, 560.5797
1075.036, 560.7521
1075.518, 560.1728
1076.001, 558.4846
1076.483, 557.8347
1076.965, 559.2346
1077.447, 559.8812
1077.929, 557.7172
1078.411, 554.1285
1078.893, 553.2574
1079.375, 554.4612
1079.858, 555.6496
1080.340, 555.5608
1080.822, 555.8837
1081.304, 558.0637
1081.786, 560.2395
1082.268, 560.4194
1082.750, 558.5431
1083.232, 558.0165
1083.714, 558.8926
1084.197, 559.2266
1084.679, 556.7224
1085.161, 553.9836
1085.643, 553.2618
1086.125, 553.9666
1086.607, 553.7519
1087.089, 552.0750
1087.571, 551.4219
1088.054, 552.3840
1088.536, 553.5982
1089.018, 553.3531
1089.500, 552.3792
1089.982, 551.5677
1090.464, 551.0120
1090.946, 551.1199
1091.428, 552.7166
1091.911, 553.6992
1092.393, 553.2050
1092.875, 551.9025
1093.357, 551.2098
1093.839, 551.0717
1094.321, 551.3841
1094.803, 552.3143
1095.285, 553.0607
1095.767, 553.1925
1096.250, 553.0355
1096.732, 552.6611
1097.214, 552.1180
1097.696, 552.5534
1098.178, 553.9069
1098.660, 554.8607
1099.142, 554.5230
1099.624, 553.7977
1100.106, 552.9759
1100.589, 552.3786
1101.071, 552.5945
1101.553, 554.0737
1102.035, 554.7610
1102.517, 554.4805
1102.999, 554.1904
1103.481, 554.8728
1103.963, 555.8990
1104.446, 556.6321
1104.928, 556.9814
1105.410, 556.6801
1105.892, 554.8362
1106.374, 553.7787
1106.856, 553.9604
1107.338, 554.7262
1107.820, 555.3495
1108.302, 555.8226
1108.785, 556.1324
1109.267, 556.2764
1109.749, 556.3953
1110.231, 556.8785
1110.713, 556.9205
1111.195, 555.9781
1111.677, 554.5797
1112.159, 554.3334
1112.641, 555.0465
1113.124, 555.4739
1113.606, 555.2558
1114.088, 554.9500
1114.570, 554.8209
1115.052, 554.8592
1115.534, 555.0922
1116.016, 555.5042
1116.498, 556.0092
1116.981, 556.6302
1117.463, 556.6412
1117.945, 555.1813
1118.427, 553.8391
1118.909, 554.4261
1119.391, 556.0375
1119.873, 557.4363
1120.355, 558.5388
1120.838, 559.2189
1121.320, 559.4586
1121.802, 559.3246
1122.284, 558.6102
1122.766, 557.7115
1123.248, 557.1511
1123.730, 556.9027
1124.212, 556.8742
1124.694, 557.5367
1125.177, 557.6197
1125.659, 556.7955
1126.141, 555.8707
1126.623, 555.7165
1127.105, 556.1281
1127.587, 556.8499
1128.069, 557.7316
1128.551, 557.8525
1129.033, 555.2689
1129.516, 553.8909
1129.998, 555.2426
1130.480, 557.7964
1130.962, 559.0676
1131.444, 559.2321
1131.926, 559.2735
1132.408, 559.3324
1132.890, 559.1527
1133.373, 558.2900
1133.855, 557.4367
1134.337, 557.0547
1134.819, 556.9908
1135.301, 556.5021
1135.783, 555.6398
1136.265, 555.8268
1136.747, 557.7842
1137.229, 559.4461
1137.712, 558.5774
1138.194, 556.9634
1138.676, 556.1857
1139.158, 556.2849
1139.640, 556.5527
1140.122, 557.0128
1140.604, 557.4313
1141.086, 557.8353
1141.569, 557.9302
1142.051, 556.8510
1142.533, 555.5134
1143.015, 555.2762
1143.497, 556.8606
1143.979, 557.6044
1144.461, 557.2696
1144.943, 557.0099
1145.426, 557.8256
1145.908, 558.8843
1146.390, 558.4746
1146.872, 557.3248
1147.354, 556.9626
1147.836, 558.8104
1148.318, 559.9623
1148.800, 560.3185
1149.282, 560.0528
1149.765, 558.8529
1150.247, 557.3209
1150.729, 556.9658
1151.211, 557.5628
1151.693, 558.0254
1152.175, 557.9631
1152.657, 557.6907
1153.139, 557.2409
1153.621, 556.6713
1154.104, 555.8328
1154.586, 554.9451
1155.068, 554.8070
1155.550, 555.4268
1156.032, 556.2919
1156.514, 558.1775
1156.996, 558.8570
1157.478, 556.9315
1157.961, 554.2123
1158.443, 554.2635
1158.925, 556.5527
1159.407, 558.0558
1159.889, 558.3275
1160.371, 558.5052
1160.853, 559.1318
1161.335, 560.0149
1161.818, 561.3022
1162.300, 562.6594
1162.782, 562.8796
1163.264, 562.0855
1163.746, 562.0409
1164.228, 563.3509
1164.710, 564.0772
1165.192, 561.5672
1165.674, 559.0364
1166.156, 559.1727
1166.639, 561.4975
1167.121, 563.2308
1167.603, 564.3661
1168.085, 564.5970
1168.567, 563.6579
1169.049, 562.3244
1169.531, 560.3151
1170.013, 558.8961
1170.496, 560.0240
1170.978, 563.7408
1171.460, 564.6614
1171.942, 562.6472
1172.424, 560.3079
1172.906, 558.4716
1173.388, 557.3835
1173.870, 557.7269
1174.353, 558.7735
1174.835, 559.5451
1175.317, 559.8724
1175.799, 560.7980
1176.281, 562.5240
1176.763, 563.2784
1177.245, 561.1228
1177.727, 558.5212
1178.209, 558.4759
1178.692, 559.8750
1179.174, 560.8636
1179.656, 561.2394
1180.138, 560.9798
1180.620, 559.9064
1181.102, 559.0794
1181.584, 559.4491
1182.066, 560.3505
1182.548, 560.8277
1183.031, 561.1784
1183.513, 562.2339
1183.995, 565.0684
1184.477, 566.2823
1184.959, 565.5075
1185.441, 564.0430
1185.923, 562.1974
1186.405, 560.9278
1186.888, 562.3852
1187.370, 565.6839
1187.852, 567.5394
1188.334, 566.6826
1188.816, 565.7879
1189.298, 565.0820
1189.780, 564.3953
1190.262, 562.9888
1190.745, 561.8120
1191.227, 562.8362
1191.709, 565.6429
1192.191, 567.5537
1192.673, 567.7921
1193.155, 567.5291
1193.637, 566.8561
1194.119, 565.9012
1194.601, 564.0435
1195.084, 562.3896
1195.566, 563.5154
1196.048, 567.1914
1196.530, 568.9114
1197.012, 566.4601
1197.494, 564.8466
1197.976, 565.1844
1198.458, 566.2723
1198.941, 566.7223
1199.423, 566.6146
1199.905, 565.6585
1200.387, 563.8846
1200.869, 563.5081
1201.351, 565.8384
1201.833, 567.7545
1202.315, 568.5120
1202.797, 568.4918
1203.280, 567.9770
1203.762, 567.2516
1204.244, 566.9163
1204.726, 567.1028
1205.208, 566.7802
1205.690, 565.2804
1206.172, 564.3104
1206.654, 564.4690
1207.136, 565.2458
1207.619, 565.7512
1208.101, 566.2208
1208.583, 567.2654
1209.065, 569.1638
1209.547, 570.0897
1210.029, 569.2206
1210.511, 568.6954
1210.993, 569.4339
1211.476, 570.6649
1211.958, 570.9169
1212.440, 570.6616
1212.922, 570.9465
1213.404, 572.3157
1213.886, 572.1940
1214.368, 569.6662
1214.850, 567.3297
1215.333, 566.2167
1215.815, 565.9879
1216.297, 566.3688
1216.779, 567.0615
1217.261, 567.5110
1217.743, 567.5309
1218.225, 567.5494
1218.707, 567.4254
1219.189, 567.8265
1219.672, 569.5061
1220.154, 571.3224
1220.636, 570.7083
1221.118, 568.8577
1221.600, 567.9039
1222.082, 568.6094
1222.564, 569.6107
1223.046, 571.2299
1223.528, 571.8918
1224.011, 570.1161
1224.493, 567.6936
1224.975, 568.2100
1225.457, 570.1211
1225.939, 570.5465
1226.421, 567.5527
1226.903, 567.0496
1227.385, 569.9044
1227.868, 572.2772
1228.350, 571.5486
1228.832, 569.6420
1229.314, 569.3546
1229.796, 570.0394
1230.278, 570.6443
1230.760, 571.0221
1231.242, 571.1113
1231.724, 570.8492
1232.207, 570.5936
1232.689, 570.5771
1233.171, 570.6606
1233.653, 570.9527
1234.135, 571.1185
1234.617, 570.4198
1235.099, 568.0727
1235.581, 567.6218
1236.063, 569.4279
1236.546, 570.6853
1237.028, 568.7829
1237.510, 566.3813
1237.992, 566.2461
1238.474, 567.5547
1238.956, 569.0325
1239.438, 570.6511
1239.920, 572.2091
1240.403, 573.7305
1240.885, 574.4940
1241.367, 573.7036
1241.849, 572.2642
1242.331, 570.3665
1242.813, 568.6120
1243.295, 567.9357
1243.777, 568.4958
1244.260, 569.2202
1244.742, 570.1140
1245.224, 571.0100
1245.706, 571.9484
1246.188, 572.7175
1246.670, 573.2272
1247.152, 573.4515
1247.634, 573.4332
1248.116, 573.1913
1248.599, 572.2083
1249.081, 570.5914
1249.563, 569.8107
1250.045, 571.3683
1250.527, 573.2911
1251.009, 575.1670
1251.491, 576.3828
1251.973, 575.8805
1252.455, 573.7862
1252.938, 573.7350
1253.420, 575.4443
1253.902, 576.4491
1254.384, 574.2308
1254.866, 572.5831
1255.348, 573.5257
1255.830, 574.9720
1256.313, 574.8423
1256.795, 573.5309
1257.277, 573.8421
1257.759, 575.4153
1258.241, 576.2932
1258.723, 574.6266
1259.205, 573.5222
1259.687, 573.6501
1260.169, 574.3583
1260.651, 575.2821
1261.134, 576.2828
1261.616, 576.8201
1262.098, 577.0232
1262.580, 577.3871
1263.062, 578.6735
1263.544, 579.1284
1264.026, 578.3537
1264.508, 577.3549
1264.991, 576.9731
1265.473, 576.9561
1265.955, 576.7505
1266.437, 576.5058
1266.919, 576.6265
1267.401, 577.5311
1267.883, 578.3269
1268.365, 579.0919
1268.848, 579.4389
1269.330, 578.6672
1269.812, 577.6260
1270.294, 577.3399
1270.776, 577.6364
1271.258, 578.1436
1271.740, 578.7617
1272.222, 579.8859
1272.704, 581.6368
1273.187, 582.6818
1273.669, 581.5746
1274.151, 579.8694
1274.633, 578.5355
1275.115, 577.7069
1275.597, 577.5937
1276.079, 578.3344
1276.561, 578.7943
1277.043, 578.9730
1277.526, 578.9257
1278.008, 578.4949
1278.490, 578.0863
1278.972, 577.9395
1279.454, 577.9629
1279.936, 578.0420
1280.418, 578.1808
1280.900, 578.6782
1281.383, 579.4290
1281.865, 579.7921
1282.347, 578.8747
1282.829, 578.3290
1283.311, 579.0272
1283.793, 579.8757
1284.275, 580.1301
1284.757, 579.8389
1285.240, 578.9219
1285.722, 577.6356
1286.204, 576.8458
1286.686, 577.0821
1287.168, 577.5830
1287.650, 578.4670
1288.132, 579.0817
1288.614, 578.5434
1289.096, 577.7504
1289.578, 578.9549
1290.061, 581.2299
1290.543, 582.6512
1291.025, 582.2784
1291.507, 582.1074
1291.989, 582.2086
1292.471, 582.1005
1292.953, 581.0869
1293.435, 580.2504
1293.918, 581.5234
1294.400, 583.5031
1294.882, 584.0153
1295.364, 582.8361
1295.846, 581.7010
1296.328, 580.6155
1296.810, 580.0439
1297.292, 580.3891
1297.775, 580.8810
1298.257, 581.1023
1298.739, 581.1640
1299.221, 581.1055
1299.703, 580.9573
1300.185, 581.4296
1300.667, 582.3074
1301.149, 582.0446
1301.631, 579.1917
1302.114, 577.2107
1302.596, 577.9047
##END=



