##NAMES=Sinhalite
##RRUFFID=R070621
##IDEAL CHEMISTRY=MgAlBO_4_
##LOCALITY=Sri Lanka
##OWNER=RRUFF
##SOURCE=Shinichi Kihara
##DESCRIPTION=Pale yellow transparent faceted gemstone
##STATUS=The identification of this mineral is confirmed by single-crystal X-ray diffraction and chemical analysis.
##URL=rruff.info/R070621
##MEASURED CHEMISTRY=(Mg_0.98_Fe_0.02_)_Î£=1_Al_1.00_B_1.00_O_4_ ; B_2_O_3_ estimated by difference
97.82404, 2903.597
98.30615, 3055.849
98.78827, 3223.347
99.27039, 3368.792
99.75250, 3475.083
100.2346, 3573.055
100.7167, 3690.260
101.1989, 3823.367
101.6810, 3929.660
102.1631, 3948.078
102.6452, 3957.699
103.1273, 3955.433
103.6094, 3934.073
104.0916, 3900.291
104.5737, 3873.449
105.0558, 3856.025
105.5379, 3842.614
106.0200, 3831.792
106.5021, 3822.361
106.9843, 3810.809
107.4664, 3792.694
107.9485, 3766.089
108.4306, 3742.159
108.9127, 3717.889
109.3948, 3697.992
109.8770, 3686.788
110.3591, 3684.712
110.8412, 3687.010
111.3233, 3684.747
111.8054, 3672.644
112.2875, 3662.669
112.7697, 3652.893
113.2518, 3645.837
113.7339, 3646.589
114.2160, 3658.592
114.6981, 3678.335
115.1802, 3681.483
115.6624, 3645.286
116.1445, 3618.136
116.6266, 3621.528
117.1087, 3648.773
117.5908, 3676.339
118.0729, 3686.906
118.5551, 3678.565
119.0372, 3667.432
119.5193, 3648.337
120.0014, 3629.449
120.4835, 3620.159
120.9656, 3622.694
121.4478, 3626.063
121.9299, 3616.707
122.4120, 3596.989
122.8941, 3575.862
123.3762, 3551.376
123.8583, 3527.205
124.3405, 3515.448
124.8226, 3525.306
125.3047, 3540.568
125.7868, 3547.107
126.2689, 3544.692
126.7510, 3537.457
127.2332, 3527.010
127.7153, 3512.487
128.1974, 3501.059
128.6795, 3496.738
129.1616, 3494.808
129.6437, 3492.485
130.1259, 3488.891
130.6080, 3485.110
131.0901, 3483.826
131.5722, 3488.931
132.0543, 3489.343
132.5364, 3477.092
133.0186, 3461.849
133.5007, 3455.621
133.9828, 3466.079
134.4649, 3489.527
134.9470, 3499.551
135.4291, 3481.065
135.9113, 3463.479
136.3934, 3451.355
136.8755, 3444.816
137.3576, 3443.276
137.8397, 3447.153
138.3218, 3457.649
138.8040, 3460.800
139.2861, 3452.443
139.7682, 3441.590
140.2503, 3430.417
140.7324, 3420.132
141.2145, 3415.575
141.6967, 3425.295
142.1788, 3456.323
142.6609, 3469.650
143.1430, 3440.753
143.6251, 3401.484
144.1072, 3396.426
144.5894, 3443.206
145.0715, 3501.597
145.5536, 3502.885
146.0357, 3443.742
146.5178, 3390.466
146.9999, 3371.938
147.4821, 3380.851
147.9642, 3391.961
148.4463, 3399.795
148.9284, 3403.953
149.4105, 3404.109
149.8927, 3399.100
150.3748, 3394.101
150.8569, 3393.874
151.3390, 3398.800
151.8211, 3404.387
152.3032, 3413.493
152.7854, 3420.384
153.2675, 3417.780
153.7496, 3400.928
154.2317, 3379.802
154.7138, 3373.737
155.1959, 3391.116
155.6781, 3406.052
156.1602, 3408.578
156.6423, 3405.133
157.1244, 3402.892
157.6065, 3405.727
158.0886, 3412.730
158.5708, 3419.479
159.0529, 3428.403
159.5350, 3433.943
160.0171, 3435.949
160.4992, 3433.695
160.9813, 3424.745
161.4635, 3404.767
161.9456, 3371.592
162.4277, 3359.164
162.9098, 3391.948
163.3919, 3421.629
163.8740, 3427.319
164.3562, 3411.034
164.8383, 3388.474
165.3204, 3375.632
165.8025, 3374.869
166.2846, 3377.319
166.7667, 3390.504
167.2489, 3401.493
167.7310, 3397.030
168.2131, 3376.004
168.6952, 3353.469
169.1773, 3352.020
169.6594, 3388.002
170.1416, 3405.025
170.6237, 3383.660
171.1058, 3347.940
171.5879, 3326.783
172.0700, 3329.910
172.5521, 3345.267
173.0343, 3351.207
173.5164, 3347.172
173.9985, 3339.867
174.4806, 3329.313
174.9627, 3316.794
175.4448, 3304.423
175.9270, 3291.078
176.4091, 3281.135
176.8912, 3281.346
177.3733, 3292.820
177.8554, 3310.123
178.3375, 3337.765
178.8197, 3373.386
179.3018, 3392.916
179.7839, 3373.049
180.2660, 3338.262
180.7481, 3324.305
181.2302, 3343.451
181.7124, 3368.840
182.1945, 3367.110
182.6766, 3332.293
183.1587, 3306.531
183.6408, 3322.240
184.1229, 3352.800
184.6051, 3372.517
185.0872, 3369.890
185.5693, 3356.529
186.0514, 3355.094
186.5335, 3372.514
187.0156, 3386.577
187.4978, 3391.162
187.9799, 3387.637
188.4620, 3375.734
188.9441, 3352.297
189.4262, 3321.982
189.9083, 3303.607
190.3905, 3302.869
190.8726, 3307.903
191.3547, 3314.974
191.8368, 3324.681
192.3189, 3340.254
192.8010, 3368.250
193.2832, 3406.832
193.7653, 3416.648
194.2474, 3350.451
194.7295, 3297.328
195.2116, 3286.631
195.6937, 3308.474
196.1759, 3336.963
196.6580, 3351.456
197.1401, 3351.146
197.6222, 3343.784
198.1043, 3314.240
198.5864, 3291.654
199.0686, 3293.019
199.5507, 3314.323
200.0328, 3337.685
200.5149, 3344.069
200.9970, 3327.401
201.4791, 3318.490
201.9613, 3323.975
202.4434, 3330.308
202.9255, 3327.659
203.4076, 3316.047
203.8897, 3304.074
204.3718, 3302.016
204.8540, 3313.383
205.3361, 3326.532
205.8182, 3350.877
206.3003, 3371.252
206.7824, 3372.713
207.2645, 3352.934
207.7467, 3324.764
208.2288, 3304.561
208.7109, 3293.051
209.1930, 3290.282
209.6751, 3299.413
210.1572, 3315.997
210.6394, 3338.660
211.1215, 3367.651
211.6036, 3394.837
212.0857, 3405.986
212.5678, 3398.507
213.0499, 3386.831
213.5321, 3363.444
214.0142, 3339.536
214.4963, 3335.349
214.9784, 3360.272
215.4605, 3396.605
215.9426, 3413.080
216.4248, 3407.808
216.9069, 3400.633
217.3890, 3398.088
217.8711, 3398.391
218.3532, 3396.107
218.8353, 3386.679
219.3175, 3378.854
219.7996, 3388.052
220.2817, 3417.566
220.7638, 3445.907
221.2459, 3459.749
221.7280, 3462.979
222.2102, 3470.595
222.6923, 3487.081
223.1744, 3511.034
223.6565, 3540.688
224.1386, 3578.303
224.6207, 3613.114
225.1029, 3638.274
225.5850, 3654.382
226.0671, 3666.882
226.5492, 3681.826
227.0313, 3689.167
227.5134, 3677.715
227.9956, 3644.154
228.4777, 3603.293
228.9598, 3561.373
229.4419, 3518.571
229.9240, 3489.980
230.4061, 3492.010
230.8883, 3503.588
231.3704, 3505.011
231.8525, 3492.797
232.3346, 3475.757
232.8167, 3461.873
233.2988, 3451.263
233.7810, 3442.728
234.2631, 3443.588
234.7452, 3441.837
235.2273, 3425.369
235.7094, 3390.184
236.1915, 3350.528
236.6737, 3320.760
237.1558, 3300.333
237.6379, 3293.398
238.1200, 3317.861
238.6021, 3347.557
239.0842, 3363.596
239.5664, 3360.553
240.0485, 3347.781
240.5306, 3337.061
241.0127, 3328.515
241.4948, 3321.580
241.9769, 3319.484
242.4591, 3317.065
242.9412, 3308.745
243.4233, 3292.507
243.9054, 3275.229
244.3875, 3267.770
244.8696, 3272.493
245.3518, 3280.867
245.8339, 3296.988
246.3160, 3312.547
246.7981, 3318.759
247.2802, 3312.634
247.7623, 3303.227
248.2445, 3308.386
248.7266, 3339.401
249.2087, 3357.283
249.6908, 3344.354
250.1729, 3323.715
250.6550, 3315.338
251.1372, 3325.699
251.6193, 3342.932
252.1014, 3344.958
252.5835, 3322.504
253.0656, 3304.392
253.5477, 3294.475
254.0299, 3289.591
254.5120, 3286.723
254.9941, 3284.952
255.4762, 3286.562
255.9583, 3298.823
256.4405, 3337.279
256.9226, 3353.402
257.4047, 3324.512
257.8868, 3285.889
258.3689, 3267.478
258.8510, 3278.476
259.3332, 3303.565
259.8153, 3314.194
260.2974, 3299.375
260.7795, 3291.223
261.2616, 3296.929
261.7437, 3306.325
262.2259, 3311.545
262.7080, 3310.208
263.1901, 3305.268
263.6722, 3301.294
264.1543, 3296.109
264.6364, 3296.723
265.1186, 3310.064
265.6007, 3324.297
266.0828, 3327.931
266.5649, 3318.562
267.0470, 3305.932
267.5291, 3307.047
268.0113, 3331.743
268.4934, 3351.506
268.9755, 3368.980
269.4576, 3379.930
269.9397, 3377.957
270.4218, 3362.848
270.9040, 3343.502
271.3861, 3335.892
271.8682, 3354.683
272.3503, 3354.462
272.8324, 3317.295
273.3145, 3276.588
273.7967, 3255.618
274.2788, 3258.779
274.7609, 3274.290
275.2430, 3286.326
275.7251, 3293.583
276.2072, 3299.872
276.6894, 3310.141
277.1715, 3316.132
277.6536, 3309.756
278.1357, 3291.346
278.6178, 3269.756
279.0999, 3256.074
279.5821, 3252.450
280.0642, 3251.495
280.5463, 3253.098
281.0284, 3256.875
281.5105, 3264.337
281.9926, 3274.640
282.4748, 3284.141
282.9569, 3288.322
283.4390, 3285.475
283.9211, 3283.798
284.4032, 3283.207
284.8853, 3283.673
285.3675, 3285.300
285.8496, 3288.027
286.3317, 3291.527
286.8138, 3294.985
287.2959, 3297.500
287.7780, 3305.479
288.2602, 3327.312
288.7423, 3346.441
289.2244, 3354.083
289.7065, 3352.221
290.1886, 3348.973
290.6707, 3351.760
291.1529, 3361.256
291.6350, 3368.055
292.1171, 3372.270
292.5992, 3373.748
293.0813, 3371.578
293.5634, 3366.453
294.0456, 3359.916
294.5277, 3353.232
295.0098, 3346.391
295.4919, 3337.260
295.9740, 3327.279
296.4561, 3313.379
296.9383, 3287.377
297.4204, 3257.233
297.9025, 3238.587
298.3846, 3243.381
298.8667, 3267.489
299.3488, 3276.217
299.8310, 3247.747
300.3131, 3227.330
300.7952, 3226.490
301.2773, 3237.967
301.7594, 3251.276
302.2415, 3260.812
302.7237, 3267.133
303.2058, 3271.884
303.6879, 3267.865
304.1700, 3272.700
304.6521, 3299.530
305.1342, 3332.317
305.6164, 3352.077
306.0985, 3349.992
306.5806, 3333.535
307.0627, 3321.963
307.5448, 3320.903
308.0269, 3315.010
308.5091, 3293.495
308.9912, 3271.385
309.4733, 3262.110
309.9554, 3270.354
310.4375, 3291.252
310.9196, 3318.924
311.4018, 3361.623
311.8839, 3391.421
312.3660, 3392.441
312.8481, 3389.788
313.3302, 3405.641
313.8123, 3443.566
314.2945, 3483.585
314.7766, 3498.732
315.2587, 3483.457
315.7408, 3462.195
316.2229, 3433.879
316.7050, 3402.250
317.1872, 3361.907
317.6693, 3315.980
318.1514, 3281.693
318.6335, 3282.615
319.1156, 3323.973
319.5977, 3355.795
320.0799, 3375.006
320.5620, 3384.487
321.0441, 3380.746
321.5262, 3366.927
322.0083, 3352.628
322.4904, 3343.008
322.9726, 3338.335
323.4547, 3344.212
323.9368, 3361.697
324.4189, 3389.990
324.9010, 3440.526
325.3831, 3501.036
325.8653, 3544.862
326.3474, 3551.091
326.8295, 3529.226
327.3116, 3516.851
327.7937, 3524.960
328.2758, 3521.545
328.7580, 3484.552
329.2401, 3430.461
329.7222, 3382.770
330.2043, 3350.426
330.6864, 3330.443
331.1685, 3318.958
331.6507, 3318.368
332.1328, 3318.222
332.6149, 3311.570
333.0970, 3304.048
333.5791, 3301.946
334.0612, 3307.898
334.5434, 3317.214
335.0255, 3325.972
335.5076, 3334.406
335.9897, 3338.630
336.4718, 3333.740
336.9539, 3326.160
337.4361, 3324.325
337.9182, 3330.690
338.4003, 3333.708
338.8824, 3319.428
339.3645, 3291.187
339.8466, 3273.129
340.3288, 3275.155
340.8109, 3284.985
341.2930, 3287.837
341.7751, 3283.460
342.2572, 3280.905
342.7393, 3286.310
343.2215, 3296.613
343.7036, 3305.998
344.1857, 3315.137
344.6678, 3318.967
345.1499, 3305.376
345.6320, 3277.978
346.1142, 3260.592
346.5963, 3266.995
347.0784, 3283.113
347.5605, 3290.735
348.0426, 3287.819
348.5247, 3284.250
349.0069, 3288.566
349.4890, 3299.792
349.9711, 3307.978
350.4532, 3312.779
350.9353, 3314.216
351.4174, 3306.663
351.8996, 3293.035
352.3817, 3290.278
352.8638, 3311.619
353.3459, 3351.380
353.8280, 3380.630
354.3102, 3391.698
354.7923, 3402.102
355.2744, 3419.252
355.7565, 3440.264
356.2386, 3457.324
356.7207, 3465.696
357.2029, 3472.667
357.6850, 3497.572
358.1671, 3552.721
358.6492, 3604.877
359.1313, 3643.669
359.6134, 3680.457
360.0956, 3731.708
360.5777, 3801.282
361.0598, 3874.307
361.5419, 3927.196
362.0240, 3943.148
362.5061, 3980.968
362.9883, 4054.710
363.4704, 4137.792
363.9525, 4205.265
364.4346, 4260.311
364.9167, 4329.156
365.3988, 4438.881
365.8810, 4593.235
366.3631, 4754.860
366.8452, 4892.017
367.3273, 5066.930
367.8094, 5280.854
368.2915, 5550.631
368.7737, 5904.629
369.2558, 6360.853
369.7379, 6918.054
370.2200, 7566.111
370.7021, 8436.928
371.1842, 9234.396
371.6664, 10042.25
372.1485, 10700.49
372.6306, 11016.45
373.1127, 10911.32
373.5948, 10474.47
374.0769, 9833.216
374.5591, 8877.193
375.0412, 8004.294
375.5233, 7257.276
376.0054, 6622.493
376.4875, 6109.105
376.9696, 5716.210
377.4518, 5415.995
377.9339, 5195.575
378.4160, 5056.410
378.8981, 4953.111
379.3802, 4900.947
379.8623, 4866.880
380.3445, 4835.128
380.8266, 4804.127
381.3087, 4770.137
381.7908, 4740.442
382.2729, 4706.365
382.7550, 4637.017
383.2372, 4520.372
383.7193, 4399.678
384.2014, 4295.157
384.6835, 4205.978
385.1656, 4135.193
385.6477, 4089.255
386.1299, 4056.693
386.6120, 4024.060
387.0941, 3991.611
387.5762, 3971.457
388.0583, 3969.549
388.5404, 3984.711
389.0226, 4010.143
389.5047, 4046.003
389.9868, 4091.388
390.4689, 4139.308
390.9510, 4196.677
391.4331, 4278.615
391.9153, 4389.389
392.3974, 4526.943
392.8795, 4691.469
393.3616, 4884.667
393.8437, 5094.735
394.3258, 5341.972
394.8080, 5592.354
395.2901, 5842.087
395.7722, 6079.934
396.2543, 6229.543
396.7364, 6215.169
397.2185, 6025.238
397.7007, 5803.877
398.1828, 5518.538
398.6649, 5241.587
399.1470, 4983.680
399.6291, 4757.532
400.1112, 4585.415
400.5934, 4481.308
401.0755, 4434.840
401.5576, 4402.349
402.0397, 4374.562
402.5218, 4375.896
403.0039, 4410.239
403.4861, 4472.642
403.9682, 4564.009
404.4503, 4682.536
404.9324, 4814.905
405.4145, 4951.628
405.8966, 5116.702
406.3788, 5211.299
406.8609, 5204.080
407.3430, 5149.904
407.8251, 5060.063
408.3072, 4943.153
408.7893, 4815.488
409.2715, 4679.802
409.7536, 4541.536
410.2357, 4441.711
410.7178, 4391.743
411.1999, 4364.381
411.6820, 4346.696
412.1642, 4340.602
412.6463, 4350.116
413.1284, 4377.928
413.6105, 4420.310
414.0926, 4480.811
414.5747, 4562.072
415.0569, 4625.694
415.5390, 4663.542
416.0211, 4669.911
416.5032, 4643.609
416.9853, 4584.351
417.4674, 4492.827
417.9496, 4345.011
418.4317, 4166.300
418.9138, 4018.676
419.3959, 3918.044
419.8780, 3839.340
420.3601, 3754.988
420.8423, 3664.680
421.3244, 3585.479
421.8065, 3512.512
422.2886, 3456.278
422.7707, 3434.548
423.2528, 3441.990
423.7350, 3447.501
424.2171, 3428.441
424.6992, 3389.131
425.1813, 3365.879
425.6634, 3374.013
426.1455, 3377.486
426.6277, 3361.640
427.1098, 3338.298
427.5919, 3324.731
428.0740, 3327.297
428.5561, 3337.860
429.0382, 3342.081
429.5204, 3339.300
430.0025, 3330.831
430.4846, 3306.601
430.9667, 3285.775
431.4488, 3285.018
431.9309, 3301.001
432.4131, 3314.808
432.8952, 3307.839
433.3773, 3281.641
433.8594, 3265.201
434.3415, 3259.975
434.8236, 3263.524
435.3058, 3283.575
435.7879, 3308.468
436.2700, 3320.036
436.7521, 3308.254
437.2342, 3287.445
437.7163, 3278.642
438.1985, 3282.939
438.6806, 3288.285
439.1627, 3291.521
439.6448, 3294.047
440.1269, 3295.441
440.6090, 3295.138
441.0912, 3301.325
441.5733, 3328.081
442.0554, 3362.846
442.5375, 3375.815
443.0196, 3360.019
443.5017, 3339.589
443.9839, 3335.296
444.4660, 3346.540
444.9481, 3357.622
445.4302, 3373.017
445.9123, 3383.399
446.3944, 3378.428
446.8766, 3362.930
447.3587, 3352.363
447.8408, 3355.275
448.3229, 3366.295
448.8050, 3369.731
449.2871, 3349.621
449.7693, 3343.115
450.2514, 3363.367
450.7335, 3390.873
451.2156, 3403.264
451.6977, 3399.146
452.1798, 3400.388
452.6620, 3436.360
453.1441, 3515.507
453.6262, 3564.630
454.1083, 3544.683
454.5904, 3531.622
455.0725, 3554.351
455.5547, 3599.489
456.0368, 3640.460
456.5189, 3662.202
457.0010, 3673.655
457.4832, 3690.139
457.9653, 3706.835
458.4474, 3746.239
458.9295, 3833.402
459.4116, 3936.180
459.8937, 4033.429
460.3759, 4122.614
460.8580, 4201.141
461.3401, 4264.549
461.8222, 4315.531
462.3043, 4363.694
462.7864, 4412.989
463.2686, 4450.828
463.7507, 4469.266
464.2328, 4467.365
464.7149, 4439.208
465.1970, 4366.206
465.6791, 4282.287
466.1613, 4203.940
466.6434, 4132.881
467.1255, 4071.585
467.6076, 4022.338
468.0897, 3981.530
468.5718, 3940.562
469.0540, 3885.937
469.5361, 3852.826
470.0182, 3851.477
470.5003, 3866.381
470.9824, 3885.910
471.4645, 3907.843
471.9467, 3934.827
472.4288, 3969.005
472.9109, 4010.340
473.3930, 4060.267
473.8751, 4128.590
474.3572, 4194.845
474.8394, 4254.022
475.3215, 4307.947
475.8036, 4356.091
476.2857, 4395.954
476.7678, 4441.401
477.2499, 4518.346
477.7321, 4630.305
478.2142, 4742.222
478.6963, 4848.446
479.1784, 4949.703
479.6605, 5053.951
480.1426, 5159.087
480.6248, 5243.541
481.1069, 5294.041
481.5890, 5318.653
482.0711, 5327.051
482.5532, 5319.399
483.0353, 5306.499
483.5175, 5294.996
483.9996, 5283.550
484.4817, 5266.596
484.9638, 5211.464
485.4459, 5190.382
485.9280, 5246.013
486.4102, 5346.225
486.8923, 5446.458
487.3744, 5533.022
487.8565, 5612.636
488.3386, 5694.987
488.8207, 5788.027
489.3029, 5855.308
489.7850, 5896.323
490.2671, 5917.521
490.7492, 5923.913
491.2313, 5912.708
491.7134, 5879.381
492.1956, 5822.498
492.6777, 5738.320
493.1598, 5609.418
493.6419, 5418.113
494.1240, 5229.147
494.6061, 5049.874
495.0883, 4883.815
495.5704, 4736.537
496.0525, 4608.438
496.5346, 4486.565
497.0167, 4357.093
497.4988, 4226.707
497.9810, 4114.872
498.4631, 4023.102
498.9452, 3947.973
499.4273, 3892.728
499.9094, 3852.777
500.3915, 3809.202
500.8737, 3755.951
501.3558, 3703.876
501.8379, 3655.382
502.3200, 3612.235
502.8021, 3580.559
503.2842, 3562.840
503.7664, 3548.664
504.2485, 3521.064
504.7306, 3470.500
505.2127, 3435.350
505.6948, 3422.007
506.1769, 3416.105
506.6591, 3414.358
507.1412, 3413.774
507.6233, 3409.519
508.1054, 3398.129
508.5875, 3382.087
509.0696, 3368.580
509.5518, 3357.909
510.0339, 3349.232
510.5160, 3344.663
510.9981, 3340.485
511.4802, 3332.556
511.9623, 3320.851
512.4445, 3312.040
512.9266, 3312.374
513.4087, 3319.218
513.8908, 3329.080
514.3729, 3344.872
514.8550, 3346.685
515.3372, 3308.176
515.8193, 3245.890
516.3014, 3217.896
516.7835, 3256.394
517.2656, 3290.720
517.7477, 3274.051
518.2299, 3235.577
518.7120, 3231.514
519.1941, 3277.751
519.6762, 3335.294
520.1583, 3352.175
520.6404, 3315.885
521.1226, 3293.736
521.6047, 3296.145
522.0868, 3299.582
522.5689, 3295.583
523.0510, 3285.421
523.5331, 3271.684
524.0153, 3254.980
524.4974, 3239.139
524.9795, 3232.420
525.4616, 3236.392
525.9437, 3242.863
526.4258, 3253.540
526.9080, 3263.539
527.3901, 3269.180
527.8722, 3270.765
528.3543, 3271.243
528.8364, 3274.816
529.3185, 3276.944
529.8007, 3267.447
530.2828, 3246.422
530.7649, 3230.490
531.2470, 3230.733
531.7291, 3240.173
532.2112, 3237.861
532.6934, 3213.061
533.1755, 3199.254
533.6576, 3208.332
534.1397, 3228.328
534.6218, 3251.736
535.1039, 3275.192
535.5861, 3292.763
536.0682, 3298.330
536.5503, 3292.491
537.0324, 3287.064
537.5145, 3272.939
537.9966, 3272.095
538.4788, 3294.425
538.9609, 3328.714
539.4430, 3363.216
539.9251, 3394.878
540.4072, 3428.343
540.8893, 3472.204
541.3715, 3524.084
541.8536, 3564.041
542.3357, 3586.736
542.8178, 3604.877
543.2999, 3622.424
543.7820, 3642.304
544.2642, 3673.509
544.7463, 3716.531
545.2284, 3771.908
545.7105, 3837.215
546.1926, 3915.142
546.6747, 4010.921
547.1569, 4125.555
547.6390, 4262.678
548.1211, 4429.321
548.6032, 4634.195
549.0853, 4836.538
549.5674, 5030.215
550.0496, 5227.231
550.5317, 5479.884
551.0138, 5732.198
551.4959, 5888.180
551.9780, 5900.432
552.4601, 5807.073
552.9423, 5671.532
553.4244, 5493.533
553.9065, 5266.710
554.3886, 4945.036
554.8707, 4620.655
555.3528, 4355.194
555.8350, 4143.964
556.3171, 3970.313
556.7992, 3839.712
557.2813, 3736.110
557.7634, 3646.419
558.2455, 3569.888
558.7277, 3503.418
559.2098, 3445.883
559.6919, 3398.058
560.1740, 3361.849
560.6561, 3342.739
561.1382, 3324.162
561.6204, 3301.202
562.1025, 3282.641
562.5846, 3275.839
563.0667, 3278.622
563.5488, 3285.145
564.0309, 3292.911
564.5131, 3298.572
564.9952, 3289.971
565.4773, 3259.763
565.9594, 3236.570
566.4415, 3227.813
566.9236, 3227.399
567.4058, 3235.030
567.8879, 3249.245
568.3700, 3260.494
568.8521, 3265.875
569.3342, 3264.280
569.8163, 3248.642
570.2985, 3220.207
570.7806, 3200.269
571.2627, 3200.066
571.7448, 3214.127
572.2269, 3230.765
572.7090, 3257.730
573.1912, 3270.928
573.6733, 3256.163
574.1554, 3235.975
574.6375, 3223.641
575.1196, 3222.228
575.6017, 3235.655
576.0839, 3270.127
576.5660, 3315.622
577.0481, 3329.023
577.5302, 3291.121
578.0123, 3267.167
578.4944, 3284.856
578.9766, 3312.284
579.4587, 3328.802
579.9408, 3332.882
580.4229, 3331.621
580.9050, 3323.365
581.3871, 3314.782
581.8693, 3317.360
582.3514, 3331.141
582.8335, 3349.863
583.3156, 3373.305
583.7977, 3396.164
584.2798, 3403.406
584.7620, 3379.073
585.2441, 3372.293
585.7262, 3403.129
586.2083, 3440.865
586.6904, 3457.506
587.1725, 3457.730
587.6547, 3469.538
588.1368, 3515.624
588.6189, 3580.839
589.1010, 3607.799
589.5831, 3575.189
590.0652, 3565.038
590.5474, 3615.904
591.0295, 3681.300
591.5116, 3731.070
591.9937, 3764.060
592.4758, 3790.923
592.9579, 3812.270
593.4401, 3832.888
593.9222, 3856.654
594.4043, 3884.271
594.8864, 3921.174
595.3685, 3970.538
595.8506, 4028.783
596.3328, 4088.602
596.8149, 4149.064
597.2970, 4213.177
597.7791, 4284.050
598.2612, 4355.391
598.7433, 4417.086
599.2255, 4475.671
599.7076, 4551.800
600.1897, 4660.422
600.6718, 4781.469
601.1539, 4862.470
601.6360, 4891.239
602.1182, 4955.301
602.6003, 5104.002
603.0824, 5258.264
603.5645, 5357.642
604.0466, 5406.493
604.5287, 5432.856
605.0109, 5444.473
605.4930, 5437.073
605.9751, 5407.367
606.4572, 5355.688
606.9393, 5280.886
607.4214, 5181.471
607.9036, 5065.943
608.3857, 4945.079
608.8678, 4812.539
609.3499, 4696.471
609.8320, 4617.967
610.3141, 4531.365
610.7963, 4404.469
611.2784, 4261.421
611.7605, 4144.804
612.2426, 4072.525
612.7247, 4015.856
613.2068, 3932.978
613.6890, 3828.074
614.1711, 3746.688
614.6532, 3699.182
615.1353, 3664.094
615.6174, 3626.695
616.0995, 3587.994
616.5817, 3552.177
617.0638, 3525.737
617.5459, 3495.144
618.0280, 3448.132
618.5101, 3396.931
618.9922, 3358.226
619.4744, 3335.492
619.9565, 3322.197
620.4386, 3312.294
620.9207, 3305.792
621.4028, 3302.502
621.8849, 3307.184
622.3671, 3307.132
622.8492, 3293.854
623.3313, 3277.476
623.8134, 3270.709
624.2955, 3275.666
624.7776, 3274.486
625.2598, 3244.300
625.7419, 3205.042
626.2240, 3195.210
626.7061, 3215.617
627.1882, 3236.037
627.6703, 3239.367
628.1525, 3231.521
628.6346, 3229.023
629.1167, 3246.178
629.5988, 3245.217
630.0809, 3203.179
630.5630, 3162.500
631.0452, 3157.586
631.5273, 3178.990
632.0094, 3193.183
632.4915, 3179.146
632.9736, 3151.392
633.4557, 3136.651
633.9379, 3135.443
634.4200, 3141.639
634.9021, 3159.144
635.3842, 3176.150
635.8663, 3177.536
636.3484, 3166.551
636.8306, 3162.620
637.3127, 3182.806
637.7948, 3196.439
638.2769, 3177.717
638.7590, 3142.782
639.2411, 3121.680
639.7233, 3122.813
640.2054, 3131.231
640.6875, 3128.158
641.1696, 3112.510
641.6517, 3105.544
642.1339, 3114.100
642.6160, 3121.230
643.0981, 3114.133
643.5802, 3106.511
644.0623, 3119.391
644.5444, 3158.784
645.0266, 3188.897
645.5087, 3177.836
645.9908, 3145.979
646.4729, 3128.512
646.9550, 3127.104
647.4371, 3122.763
647.9193, 3102.990
648.4014, 3074.969
648.8835, 3058.866
649.3656, 3060.286
649.8477, 3065.764
650.3298, 3084.887
650.8120, 3099.359
651.2941, 3092.053
651.7762, 3070.768
652.2583, 3057.111
652.7404, 3063.316
653.2225, 3079.917
653.7047, 3093.200
654.1868, 3103.511
654.6689, 3118.868
655.1510, 3145.952
655.6331, 3164.505
656.1152, 3149.027
656.5974, 3101.400
657.0795, 3075.961
657.5616, 3091.680
658.0437, 3107.196
658.5258, 3111.350
659.0079, 3106.231
659.4901, 3091.102
659.9722, 3067.973
660.4543, 3046.517
660.9364, 3033.821
661.4185, 3030.773
661.9006, 3047.306
662.3828, 3092.128
662.8649, 3128.882
663.3470, 3145.742
663.8291, 3147.870
664.3112, 3138.577
664.7933, 3117.031
665.2755, 3100.688
665.7576, 3094.495
666.2397, 3095.927
666.7218, 3111.313
667.2039, 3132.505
667.6860, 3134.271
668.1682, 3105.652
668.6503, 3071.671
669.1324, 3079.005
669.6145, 3143.174
670.0966, 3169.192
670.5787, 3126.774
671.0609, 3084.911
671.5430, 3069.177
672.0251, 3071.447
672.5072, 3082.878
672.9893, 3105.229
673.4714, 3119.666
673.9536, 3109.059
674.4357, 3085.083
674.9178, 3061.672
675.3999, 3041.889
675.8820, 3035.523
676.3641, 3050.695
676.8463, 3079.740
677.3284, 3096.569
677.8105, 3082.238
678.2926, 3091.824
678.7747, 3163.783
679.2568, 3223.947
679.7390, 3217.000
680.2211, 3165.708
680.7032, 3133.024
681.1853, 3153.063
681.6674, 3185.343
682.1495, 3181.556
682.6317, 3153.189
683.1138, 3140.760
683.5959, 3152.778
684.0780, 3171.083
684.5601, 3180.188
685.0422, 3181.290
685.5244, 3187.345
686.0065, 3202.580
686.4886, 3217.306
686.9707, 3233.561
687.4528, 3246.860
687.9349, 3246.631
688.4171, 3237.916
688.8992, 3244.171
689.3813, 3291.937
689.8634, 3350.722
690.3455, 3358.505
690.8276, 3321.047
691.3098, 3305.252
691.7919, 3333.093
692.2740, 3376.192
692.7561, 3403.220
693.2382, 3412.542
693.7203, 3429.976
694.2025, 3453.346
694.6846, 3486.608
695.1667, 3531.435
695.6488, 3586.300
696.1309, 3656.308
696.6130, 3738.079
697.0952, 3810.257
697.5773, 3845.780
698.0594, 3861.259
698.5415, 3900.431
699.0236, 3963.421
699.5057, 4045.961
699.9879, 4152.455
700.4700, 4267.609
700.9521, 4366.916
701.4342, 4444.483
701.9163, 4543.726
702.3984, 4675.312
702.8806, 4817.445
703.3627, 4986.068
703.8448, 5149.043
704.3269, 5262.990
704.8090, 5316.972
705.2911, 5342.931
705.7733, 5383.762
706.2554, 5425.243
706.7375, 5398.625
707.2196, 5297.717
707.7017, 5173.782
708.1838, 5042.210
708.6660, 4905.869
709.1481, 4767.412
709.6302, 4622.839
710.1123, 4491.844
710.5944, 4381.507
711.0765, 4279.240
711.5587, 4177.345
712.0408, 4078.874
712.5229, 3988.224
713.0050, 3907.571
713.4871, 3840.410
713.9692, 3798.563
714.4514, 3776.070
714.9335, 3735.855
715.4156, 3672.417
715.8977, 3620.397
716.3798, 3597.920
716.8619, 3594.073
717.3441, 3589.067
717.8262, 3582.023
718.3083, 3577.106
718.7904, 3573.525
719.2725, 3573.267
719.7546, 3580.343
720.2368, 3590.660
720.7189, 3595.184
721.2010, 3590.988
721.6831, 3589.485
722.1652, 3605.872
722.6473, 3636.927
723.1295, 3666.651
723.6116, 3694.772
724.0937, 3718.833
724.5758, 3734.968
725.0579, 3749.019
725.5400, 3773.294
726.0222, 3811.838
726.5043, 3848.409
726.9864, 3874.654
727.4685, 3906.320
727.9506, 3958.745
728.4327, 4020.205
728.9149, 4066.852
729.3970, 4090.876
729.8791, 4116.778
730.3612, 4173.493
730.8433, 4254.446
731.3254, 4336.707
731.8076, 4419.796
732.2897, 4494.661
732.7718, 4551.842
733.2539, 4605.392
733.7360, 4684.611
734.2181, 4801.814
734.7003, 4913.320
735.1824, 5021.044
735.6645, 5121.161
736.1466, 5207.336
736.6287, 5286.086
737.1108, 5366.600
737.5930, 5452.356
738.0751, 5536.965
738.5572, 5619.633
739.0393, 5696.015
739.5214, 5750.524
740.0035, 5783.040
740.4857, 5815.421
740.9678, 5859.756
741.4499, 5904.470
741.9320, 5930.353
742.4141, 5939.261
742.8962, 5922.312
743.3784, 5867.201
743.8605, 5802.409
744.3426, 5734.722
744.8247, 5664.092
745.3068, 5592.402
745.7889, 5519.708
746.2711, 5437.711
746.7532, 5331.684
747.2353, 5217.159
747.7174, 5122.940
748.1995, 5046.469
748.6816, 4969.723
749.1638, 4885.889
749.6459, 4794.878
750.1280, 4693.364
750.6101, 4576.350
751.0922, 4485.251
751.5743, 4437.465
752.0565, 4392.856
752.5386, 4344.218
753.0207, 4290.408
753.5028, 4225.018
753.9849, 4148.001
754.4670, 4084.421
754.9492, 4058.749
755.4313, 4041.454
755.9134, 4000.907
756.3955, 3944.760
756.8776, 3893.322
757.3597, 3853.526
757.8419, 3821.960
758.3240, 3795.937
758.8061, 3775.237
759.2882, 3754.333
759.7703, 3733.686
760.2524, 3711.435
760.7346, 3684.148
761.2167, 3657.510
761.6988, 3639.784
762.1809, 3630.200
762.6630, 3613.690
763.1451, 3574.313
763.6273, 3540.752
764.1094, 3534.490
764.5915, 3541.318
765.0736, 3542.324
765.5557, 3533.260
766.0378, 3517.929
766.5200, 3497.017
767.0021, 3474.975
767.4842, 3471.010
767.9663, 3487.996
768.4484, 3484.518
768.9305, 3442.704
769.4127, 3394.757
769.8948, 3368.769
770.3769, 3364.247
770.8590, 3367.790
771.3411, 3390.123
771.8232, 3405.959
772.3054, 3404.040
772.7875, 3398.262
773.2696, 3403.498
773.7517, 3416.596
774.2338, 3422.186
774.7159, 3411.226
775.1981, 3390.995
775.6802, 3366.958
776.1623, 3341.458
776.6444, 3322.093
777.1265, 3309.984
777.6086, 3311.119
778.0908, 3334.635
778.5729, 3369.094
779.0550, 3372.687
779.5371, 3316.068
780.0192, 3285.326
780.5013, 3304.193
780.9835, 3326.471
781.4656, 3328.622
781.9477, 3319.593
782.4298, 3317.630
782.9119, 3328.129
783.3940, 3342.393
783.8762, 3359.833
784.3583, 3375.141
784.8404, 3375.886
785.3225, 3367.279
785.8046, 3372.062
786.2867, 3401.290
786.7689, 3439.730
787.2510, 3462.123
787.7331, 3467.103
788.2152, 3478.081
788.6973, 3496.322
789.1794, 3517.245
789.6616, 3538.234
790.1437, 3561.427
790.6258, 3592.869
791.1079, 3634.896
791.5900, 3665.366
792.0721, 3673.309
792.5543, 3677.055
793.0364, 3688.858
793.5185, 3700.750
794.0006, 3700.138
794.4827, 3685.163
794.9648, 3665.146
795.4470, 3646.892
795.9291, 3629.528
796.4112, 3605.673
796.8933, 3577.755
797.3754, 3577.702
797.8575, 3620.528
798.3397, 3654.773
798.8218, 3624.295
799.3039, 3534.548
799.7860, 3466.728
800.2681, 3428.981
800.7502, 3401.047
801.2324, 3386.285
801.7145, 3374.968
802.1966, 3358.542
802.6787, 3339.965
803.1608, 3331.014
803.6429, 3342.969
804.1251, 3350.851
804.6072, 3335.550
805.0893, 3307.929
805.5714, 3277.309
806.0535, 3248.356
806.5356, 3231.282
807.0178, 3232.075
807.4999, 3246.540
807.9820, 3273.774
808.4641, 3314.904
808.9462, 3328.187
809.4283, 3302.268
809.9105, 3275.862
810.3926, 3266.802
810.8747, 3271.078
811.3568, 3283.390
811.8389, 3309.786
812.3210, 3322.762
812.8032, 3309.771
813.2853, 3295.352
813.7674, 3293.308
814.2495, 3295.166
814.7316, 3288.569
815.2137, 3271.253
815.6959, 3251.343
816.1780, 3230.285
816.6601, 3212.890
817.1422, 3207.058
817.6243, 3211.024
818.1064, 3222.048
818.5886, 3239.127
819.0707, 3248.602
819.5528, 3235.149
820.0349, 3203.089
820.5170, 3180.751
820.9991, 3166.893
821.4813, 3167.386
821.9634, 3196.017
822.4455, 3224.519
822.9276, 3229.508
823.4097, 3217.158
823.8918, 3205.672
824.3740, 3188.150
824.8561, 3186.585
825.3382, 3226.694
825.8203, 3269.232
826.3024, 3276.077
826.7845, 3257.808
827.2667, 3248.084
827.7488, 3261.774
828.2310, 3280.564
828.7131, 3280.046
829.1952, 3269.023
829.6773, 3274.000
830.1594, 3295.399
830.6415, 3319.981
831.1237, 3343.671
831.6058, 3358.688
832.0879, 3349.594
832.5700, 3311.456
833.0521, 3301.730
833.5342, 3344.168
834.0164, 3375.564
834.4985, 3355.554
834.9806, 3333.924
835.4627, 3364.267
835.9448, 3440.779
836.4269, 3492.609
836.9091, 3483.377
837.3912, 3468.659
837.8733, 3463.436
838.3554, 3473.465
838.8375, 3509.341
839.3196, 3567.489
839.8018, 3634.876
840.2839, 3707.157
840.7660, 3771.990
841.2481, 3806.558
841.7302, 3816.888
842.2123, 3822.402
842.6945, 3825.010
843.1766, 3847.867
843.6587, 3907.001
844.1408, 3987.023
844.6229, 4054.552
845.1050, 4100.202
845.5872, 4171.234
846.0693, 4286.922
846.5514, 4401.194
847.0335, 4490.179
847.5156, 4574.393
847.9977, 4671.389
848.4799, 4782.678
848.9620, 4916.790
849.4441, 5083.021
849.9262, 5265.197
850.4083, 5451.141
850.8904, 5648.148
851.3726, 5868.898
851.8547, 6111.563
852.3368, 6360.443
852.8189, 6598.732
853.3010, 6845.441
853.7831, 7134.417
854.2653, 7456.688
854.7474, 7774.876
855.2295, 8084.013
855.7116, 8394.601
856.1937, 8718.574
856.6758, 9040.479
857.1580, 9329.186
857.6401, 9599.408
858.1222, 9792.249
858.6043, 9904.918
859.0864, 9944.414
859.5685, 9900.124
860.0507, 9790.095
860.5328, 9642.789
861.0149, 9462.503
861.4970, 9205.263
861.9791, 8821.088
862.4612, 8408.160
862.9434, 7984.088
863.4255, 7573.845
863.9076, 7211.436
864.3897, 6894.804
864.8718, 6590.957
865.3539, 6274.048
865.8361, 5969.948
866.3182, 5704.417
866.8003, 5475.918
867.2824, 5285.583
867.7645, 5129.497
868.2466, 4989.834
868.7288, 4856.114
869.2109, 4726.701
869.6930, 4595.576
870.1751, 4460.001
870.6572, 4344.499
871.1393, 4251.464
871.6215, 4174.416
872.1036, 4115.821
872.5857, 4066.759
873.0678, 4013.964
873.5499, 3955.633
874.0320, 3903.787
874.5142, 3861.107
874.9963, 3821.904
875.4784, 3786.338
875.9605, 3752.465
876.4426, 3722.115
876.9247, 3692.489
877.4069, 3651.788
877.8890, 3583.691
878.3711, 3522.715
878.8532, 3504.558
879.3353, 3503.328
879.8174, 3481.665
880.2996, 3440.768
880.7817, 3402.558
881.2638, 3378.023
881.7459, 3361.043
882.2280, 3347.423
882.7101, 3334.643
883.1923, 3301.124
883.6744, 3244.831
884.1565, 3209.697
884.6386, 3216.645
885.1207, 3234.594
885.6028, 3222.247
886.0850, 3179.485
886.5671, 3158.624
887.0492, 3174.468
887.5313, 3184.448
888.0134, 3177.552
888.4955, 3165.725
888.9777, 3157.701
889.4598, 3151.497
889.9419, 3139.731
890.4240, 3113.729
890.9061, 3097.371
891.3882, 3106.957
891.8704, 3119.363
892.3525, 3119.348
892.8346, 3109.048
893.3167, 3091.859
893.7988, 3069.272
894.2809, 3053.278
894.7631, 3061.957
895.2452, 3076.865
895.7273, 3068.545
896.2094, 3044.699
896.6915, 3028.644
897.1736, 3025.802
897.6558, 3027.346
898.1379, 3025.549
898.6200, 3022.927
899.1021, 3029.241
899.5842, 3045.040
900.0663, 3049.787
900.5485, 3038.005
901.0306, 3026.972
901.5127, 3027.144
901.9948, 3034.856
902.4769, 3043.129
902.9590, 3056.015
903.4412, 3055.407
903.9233, 3023.061
904.4054, 3001.059
904.8875, 3009.910
905.3696, 3028.824
905.8517, 3037.874
906.3339, 3036.401
906.8160, 3031.997
907.2981, 3020.937
907.7802, 3014.202
908.2623, 3018.817
908.7444, 3027.797
909.2266, 3037.349
909.7087, 3044.922
910.1908, 3044.449
910.6729, 3031.673
911.1550, 3021.233
911.6371, 3033.125
912.1193, 3052.498
912.6014, 3049.022
913.0835, 3029.783
913.5656, 3030.092
914.0477, 3060.844
914.5298, 3090.977
915.0120, 3083.649
915.4941, 3050.083
915.9762, 3036.516
916.4583, 3043.531
916.9404, 3042.215
917.4225, 3023.177
917.9047, 3013.531
918.3868, 3037.387
918.8689, 3081.524
919.3510, 3102.813
919.8331, 3089.108
920.3152, 3083.810
920.7974, 3093.125
921.2795, 3102.150
921.7616, 3106.377
922.2437, 3106.131
922.7258, 3095.396
923.2079, 3072.707
923.6901, 3074.804
924.1722, 3134.087
924.6543, 3184.142
925.1364, 3200.806
925.6185, 3199.659
926.1006, 3184.909
926.5828, 3165.960
927.0649, 3166.402
927.5470, 3200.786
928.0291, 3236.838
928.5112, 3244.779
928.9933, 3247.754
929.4755, 3277.090
929.9576, 3324.801
930.4397, 3364.953
930.9218, 3389.670
931.4039, 3412.204
931.8860, 3445.361
932.3682, 3485.646
932.8503, 3525.893
933.3324, 3566.129
933.8145, 3606.054
934.2966, 3645.660
934.7787, 3690.061
935.2609, 3744.134
935.7430, 3802.071
936.2251, 3848.475
936.7072, 3881.085
937.1893, 3920.483
937.6714, 3967.425
938.1536, 4021.452
938.6357, 4086.962
939.1178, 4153.235
939.5999, 4208.097
940.0820, 4252.290
940.5641, 4273.444
941.0463, 4254.955
941.5284, 4238.394
942.0105, 4232.518
942.4926, 4226.973
942.9747, 4219.593
943.4568, 4206.767
943.9390, 4179.391
944.4211, 4132.859
944.9032, 4081.580
945.3853, 4029.933
945.8674, 3973.709
946.3495, 3905.147
946.8317, 3833.480
947.3138, 3770.633
947.7959, 3718.417
948.2780, 3671.174
948.7601, 3630.503
949.2422, 3587.769
949.7244, 3522.937
950.2065, 3458.245
950.6886, 3434.663
951.1707, 3444.271
951.6528, 3444.829
952.1349, 3416.163
952.6171, 3369.131
953.0992, 3304.573
953.5813, 3235.088
954.0634, 3195.165
954.5455, 3182.051
955.0276, 3178.069
955.5098, 3177.857
955.9919, 3176.104
956.4740, 3168.224
956.9561, 3154.654
957.4382, 3134.157
957.9203, 3106.198
958.4025, 3088.410
958.8846, 3084.574
959.3667, 3081.714
959.8488, 3072.362
960.3309, 3061.568
960.8130, 3059.509
961.2952, 3068.410
961.7773, 3063.202
962.2594, 3028.919
962.7415, 3012.028
963.2236, 3039.770
963.7057, 3070.239
964.1879, 3065.757
964.6700, 3033.528
965.1521, 3008.159
965.6342, 2990.682
966.1163, 2977.920
966.5984, 2968.055
967.0806, 2964.712
967.5627, 2974.849
968.0448, 2989.629
968.5269, 2997.964
969.0090, 2998.553
969.4911, 2996.444
969.9733, 2991.699
970.4554, 2986.509
970.9375, 2977.317
971.4196, 2971.775
971.9017, 2984.995
972.3839, 3007.721
972.8660, 3011.288
973.3481, 2982.585
973.8302, 2956.549
974.3123, 2965.960
974.7944, 2985.281
975.2766, 2983.445
975.7587, 2970.014
976.2408, 2969.149
976.7229, 2983.701
977.2050, 2995.047
977.6871, 2989.871
978.1693, 2975.087
978.6514, 2956.899
979.1335, 2938.184
979.6156, 2926.755
980.0977, 2922.943
980.5798, 2923.356
981.0620, 2926.492
981.5441, 2937.651
982.0262, 2970.125
982.5083, 3013.703
982.9904, 3014.817
983.4725, 2975.066
983.9547, 2957.805
984.4368, 2977.616
984.9189, 2997.031
985.4010, 2988.743
985.8831, 2965.771
986.3652, 2959.079
986.8474, 2971.419
987.3295, 2979.027
987.8116, 2979.934
988.2937, 2983.347
988.7758, 2994.381
989.2579, 3005.040
989.7401, 3006.182
990.2222, 2999.177
990.7043, 2995.969
991.1864, 2996.824
991.6685, 3001.310
992.1506, 3016.358
992.6328, 3025.676
993.1149, 3016.698
993.5970, 2999.560
994.0791, 2992.474
994.5612, 2997.917
995.0433, 2991.153
995.5255, 2948.833
996.0076, 2924.735
996.4897, 2948.061
996.9718, 2977.414
997.4539, 2982.669
997.9360, 2969.378
998.4182, 2954.565
998.9003, 2938.327
999.3824, 2930.467
999.8645, 2939.758
1000.347, 2951.295
1000.829, 2957.354
1001.311, 2960.947
1001.793, 2970.188
1002.275, 2982.315
1002.757, 2979.896
1003.239, 2948.463
1003.721, 2916.532
1004.204, 2895.284
1004.686, 2885.221
1005.168, 2895.101
1005.650, 2913.764
1006.132, 2917.906
1006.614, 2903.170
1007.096, 2891.810
1007.578, 2902.766
1008.060, 2919.962
1008.543, 2929.945
1009.025, 2934.270
1009.507, 2935.839
1009.989, 2934.209
1010.471, 2924.196
1010.953, 2903.470
1011.435, 2885.577
1011.917, 2886.975
1012.400, 2899.389
1012.882, 2912.278
1013.364, 2923.362
1013.846, 2924.077
1014.328, 2914.786
1014.810, 2909.649
1015.292, 2918.510
1015.774, 2932.905
1016.256, 2939.037
1016.739, 2939.533
1017.221, 2947.231
1017.703, 2960.214
1018.185, 2956.538
1018.667, 2929.652
1019.149, 2908.358
1019.631, 2922.045
1020.113, 2954.624
1020.596, 2958.270
1021.078, 2935.761
1021.560, 2926.466
1022.042, 2934.509
1022.524, 2940.474
1023.006, 2935.676
1023.488, 2925.094
1023.970, 2912.694
1024.452, 2900.876
1024.935, 2911.137
1025.417, 2946.503
1025.899, 2972.234
1026.381, 2982.051
1026.863, 2984.050
1027.345, 2980.181
1027.827, 2977.871
1028.309, 2993.648
1028.792, 3029.699
1029.274, 3044.934
1029.756, 3031.555
1030.238, 3025.508
1030.720, 3036.982
1031.202, 3053.233
1031.684, 3064.840
1032.166, 3073.640
1032.648, 3084.391
1033.130, 3095.283
1033.613, 3116.232
1034.095, 3156.354
1034.577, 3187.074
1035.059, 3195.611
1035.541, 3196.531
1036.023, 3200.172
1036.505, 3207.972
1036.987, 3228.637
1037.470, 3269.743
1037.952, 3308.691
1038.434, 3344.950
1038.916, 3379.161
1039.398, 3416.573
1039.880, 3448.181
1040.362, 3458.071
1040.844, 3447.113
1041.327, 3453.045
1041.809, 3483.295
1042.291, 3518.912
1042.773, 3578.456
1043.255, 3621.865
1043.737, 3623.214
1044.219, 3600.086
1044.701, 3576.585
1045.183, 3553.587
1045.666, 3528.944
1046.148, 3505.576
1046.630, 3476.158
1047.112, 3429.580
1047.594, 3386.211
1048.076, 3367.130
1048.558, 3358.011
1049.040, 3327.883
1049.522, 3269.572
1050.005, 3220.975
1050.487, 3194.394
1050.969, 3170.404
1051.451, 3143.163
1051.933, 3115.771
1052.415, 3087.533
1052.897, 3061.756
1053.379, 3046.517
1053.862, 3045.389
1054.344, 3045.018
1054.826, 3049.989
1055.308, 3045.475
1055.790, 3016.391
1056.272, 2981.649
1056.754, 2960.109
1057.236, 2949.493
1057.719, 2936.349
1058.201, 2915.182
1058.683, 2899.133
1059.165, 2890.280
1059.647, 2889.875
1060.129, 2909.716
1060.611, 2930.638
1061.093, 2928.769
1061.575, 2906.469
1062.057, 2884.915
1062.540, 2868.326
1063.022, 2857.958
1063.504, 2855.625
1063.986, 2858.205
1064.468, 2871.979
1064.950, 2884.526
1065.432, 2876.088
1065.914, 2848.406
1066.397, 2825.817
1066.879, 2815.719
1067.361, 2814.201
1067.843, 2826.061
1068.325, 2839.344
1068.807, 2848.597
1069.289, 2851.811
1069.771, 2846.421
1070.254, 2832.582
1070.736, 2814.302
1071.218, 2781.588
1071.700, 2762.435
1072.182, 2778.290
1072.664, 2804.855
1073.146, 2831.434
1073.628, 2850.777
1074.110, 2850.841
1074.593, 2831.122
1075.075, 2811.250
1075.557, 2796.571
1076.039, 2787.641
1076.521, 2786.226
1077.003, 2789.397
1077.485, 2796.331
1077.967, 2805.278
1078.450, 2816.275
1078.932, 2828.569
1079.414, 2831.198
1079.896, 2809.421
1080.378, 2789.450
1080.860, 2784.701
1081.342, 2787.128
1081.824, 2791.882
1082.307, 2797.373
1082.789, 2802.397
1083.271, 2806.681
1083.753, 2809.341
1084.235, 2811.584
1084.717, 2810.133
1085.199, 2796.506
1085.681, 2784.418
1086.163, 2791.103
1086.646, 2807.771
1087.128, 2814.754
1087.610, 2807.645
1088.092, 2795.928
1088.574, 2779.385
1089.056, 2764.284
1089.538, 2750.252
1090.020, 2741.892
1090.502, 2751.014
1090.985, 2766.807
1091.467, 2763.624
1091.949, 2734.832
1092.431, 2712.125
1092.913, 2705.505
1093.395, 2709.508
1093.877, 2728.463
1094.359, 2750.922
1094.842, 2776.294
1095.324, 2794.702
1095.806, 2779.409
1096.288, 2720.527
1096.770, 2686.572
1097.252, 2720.052
1097.734, 2755.712
1098.216, 2770.477
1098.698, 2773.793
1099.181, 2771.135
1099.663, 2764.471
1100.145, 2754.883
1100.627, 2741.703
1101.109, 2733.465
1101.591, 2737.793
1102.073, 2739.966
1102.555, 2728.797
1103.037, 2719.256
1103.520, 2724.462
1104.002, 2739.695
1104.484, 2757.092
1104.966, 2778.128
1105.448, 2782.175
1105.930, 2743.813
1106.412, 2718.013
1106.894, 2730.955
1107.377, 2750.590
1107.859, 2753.069
1108.341, 2745.784
1108.823, 2747.512
1109.305, 2762.528
1109.787, 2766.684
1110.269, 2747.662
1110.751, 2732.062
1111.234, 2722.762
1111.716, 2720.802
1112.198, 2734.605
1112.680, 2753.496
1113.162, 2752.875
1113.644, 2726.290
1114.126, 2720.988
1114.608, 2759.947
1115.090, 2784.243
1115.573, 2777.865
1116.055, 2764.917
1116.537, 2755.828
1117.019, 2750.892
1117.501, 2752.064
1117.983, 2760.444
1118.465, 2761.546
1118.947, 2749.772
1119.429, 2742.615
1119.912, 2744.268
1120.394, 2748.106
1120.876, 2753.813
1121.358, 2755.606
1121.840, 2741.229
1122.322, 2710.586
1122.804, 2698.878
1123.286, 2712.608
1123.769, 2724.646
1124.251, 2732.052
1124.733, 2736.526
1125.215, 2738.977
1125.697, 2738.578
1126.179, 2732.746
1126.661, 2722.784
1127.143, 2724.768
1127.625, 2742.179
1128.108, 2745.581
1128.590, 2728.687
1129.072, 2716.887
1129.554, 2722.821
1130.036, 2732.999
1130.518, 2728.792
1131.000, 2716.968
1131.482, 2737.046
1131.964, 2788.229
1132.447, 2801.875
1132.929, 2771.353
1133.411, 2734.221
1133.893, 2704.657
1134.375, 2681.460
1134.857, 2661.461
1135.339, 2650.899
1135.821, 2677.943
1136.304, 2731.279
1136.786, 2740.773
1137.268, 2708.787
1137.750, 2694.007
1138.232, 2714.376
1138.714, 2741.118
1139.196, 2751.466
1139.678, 2750.560
1140.161, 2746.975
1140.643, 2739.130
1141.125, 2706.363
1141.607, 2666.193
1142.089, 2698.215
1142.571, 2806.138
1143.053, 2879.388
1143.535, 2840.285
1144.017, 2760.083
1144.500, 2700.978
1144.982, 2666.547
1145.464, 2674.066
1145.946, 2706.314
1146.428, 2734.386
1146.910, 2750.610
1147.392, 2749.179
1147.874, 2723.037
1148.356, 2705.242
1148.839, 2739.911
1149.321, 2775.455
1149.803, 2753.129
1150.285, 2709.723
1150.767, 2694.495
1151.249, 2707.302
1151.731, 2729.221
1152.213, 2757.417
1152.696, 2768.213
1153.178, 2730.640
1153.660, 2697.156
1154.142, 2703.527
1154.624, 2720.099
1155.106, 2715.151
1155.588, 2698.913
1156.070, 2701.510
1156.552, 2730.233
1157.035, 2749.505
1157.517, 2746.396
1157.999, 2740.749
1158.481, 2738.037
1158.963, 2733.830
1159.445, 2720.671
1159.927, 2706.378
1160.409, 2706.660
1160.891, 2722.573
1161.374, 2727.449
1161.856, 2713.646
1162.338, 2702.316
1162.820, 2689.754
1163.302, 2689.752
1163.784, 2718.315
1164.266, 2748.231
1164.748, 2743.750
1165.231, 2712.649
1165.713, 2706.787
1166.195, 2735.603
1166.677, 2745.145
1167.159, 2729.517
1167.641, 2709.499
1168.123, 2690.071
1168.605, 2676.782
1169.088, 2674.681
1169.570, 2682.040
1170.052, 2696.711
1170.534, 2717.875
1171.016, 2735.513
1171.498, 2748.880
1171.980, 2745.349
1172.462, 2722.972
1172.944, 2706.911
1173.427, 2714.167
1173.909, 2728.656
1174.391, 2723.138
1174.873, 2708.109
1175.355, 2713.951
1175.837, 2732.669
1176.319, 2739.002
1176.801, 2732.143
1177.283, 2728.344
1177.766, 2734.482
1178.248, 2739.095
1178.730, 2728.086
1179.212, 2714.292
1179.694, 2712.555
1180.176, 2716.272
1180.658, 2717.628
1181.140, 2716.422
1181.623, 2716.085
1182.105, 2716.659
1182.587, 2709.616
1183.069, 2680.175
1183.551, 2659.373
1184.033, 2671.577
1184.515, 2689.039
1184.997, 2690.738
1185.479, 2685.787
1185.962, 2690.358
1186.444, 2702.995
1186.926, 2705.189
1187.408, 2684.422
1187.890, 2673.698
1188.372, 2684.442
1188.854, 2696.564
1189.336, 2704.714
1189.818, 2710.419
1190.301, 2715.441
1190.783, 2718.738
1191.265, 2716.907
1191.747, 2708.492
1192.229, 2704.100
1192.711, 2705.927
1193.193, 2704.032
1193.675, 2694.099
1194.158, 2689.426
1194.640, 2699.362
1195.122, 2713.499
1195.604, 2715.578
1196.086, 2708.692
1196.568, 2713.675
1197.050, 2729.419
1197.532, 2732.608
1198.015, 2721.485
1198.497, 2706.450
1198.979, 2691.539
1199.461, 2686.286
1199.943, 2701.189
1200.425, 2724.772
1200.907, 2742.163
1201.389, 2751.239
1201.871, 2742.109
1202.354, 2721.741
1202.836, 2707.704
1203.318, 2703.348
1203.800, 2704.148
1204.282, 2708.443
1204.764, 2713.196
1205.246, 2715.911
1205.728, 2718.278
1206.210, 2725.606
1206.693, 2730.422
1207.175, 2719.154
1207.657, 2698.979
1208.139, 2690.097
1208.621, 2697.464
1209.103, 2702.294
1209.585, 2697.816
1210.067, 2692.295
1210.550, 2687.243
1211.032, 2682.513
1211.514, 2672.929
1211.996, 2667.161
1212.478, 2681.732
1212.960, 2712.642
1213.442, 2721.394
1213.924, 2692.218
1214.406, 2687.653
1214.889, 2722.222
1215.371, 2739.585
1215.853, 2718.565
1216.335, 2688.679
1216.817, 2671.836
1217.299, 2665.685
1217.781, 2668.695
1218.263, 2679.042
1218.745, 2672.725
1219.228, 2652.581
1219.710, 2648.046
1220.192, 2662.581
1220.674, 2682.744
1221.156, 2702.064
1221.638, 2713.140
1222.120, 2704.111
1222.602, 2688.781
1223.085, 2693.474
1223.567, 2702.577
1224.049, 2684.552
1224.531, 2650.865
1225.013, 2630.625
1225.495, 2629.874
1225.977, 2640.943
1226.459, 2665.385
1226.942, 2685.981
1227.424, 2697.978
1227.906, 2698.172
1228.388, 2671.115
1228.870, 2642.530
1229.352, 2642.692
1229.834, 2662.294
1230.316, 2670.902
1230.798, 2663.685
1231.281, 2656.094
1231.763, 2640.493
1232.245, 2640.375
1232.727, 2669.781
1233.209, 2694.362
1233.691, 2698.185
1234.173, 2687.214
1234.655, 2664.536
1235.137, 2636.533
1235.620, 2636.938
1236.102, 2666.425
1236.584, 2674.276
1237.066, 2659.042
1237.548, 2659.577
1238.030, 2685.034
1238.512, 2701.626
1238.994, 2685.969
1239.477, 2660.545
1239.959, 2652.649
1240.441, 2657.747
1240.923, 2674.399
1241.405, 2694.666
1241.887, 2705.377
1242.369, 2705.403
1242.851, 2694.143
1243.333, 2672.782
1243.816, 2657.490
1244.298, 2660.562
1244.780, 2665.892
1245.262, 2668.564
1245.744, 2667.417
1246.226, 2655.122
1246.708, 2643.300
1247.190, 2651.123
1247.672, 2672.906
1248.155, 2677.248
1248.637, 2654.309
1249.119, 2643.235
1249.601, 2651.076
##END=



