##NAMES=Smithsonite
##RRUFFID=R040051
##IDEAL CHEMISTRY=Zn^2+^CO_3_
##LOCALITY=Berg Aukas mine, Grootfontein, Namibia
##OWNER=RRUFF
##SOURCE=University of Arizona Mineral Museum
##DESCRIPTION=Yellowish brown botryoidal groups
##STATUS=The identification of this mineral has been confirmed by X-ray diffraction and chemical analysis
##URL=rruff.info/R040051
##MEASURED CHEMISTRY=(Zn_0.94_Ca_0.02_Mg_0.02_)C_1.01_O_3_
126.3433, 1372.674
126.8254, 1421.625
127.3075, 1470.031
127.7896, 1513.399
128.2718, 1550.301
128.7539, 1580.919
129.2360, 1605.236
129.7181, 1622.804
130.2002, 1635.302
130.6823, 1643.357
131.1645, 1647.328
131.6466, 1650.828
132.1287, 1655.263
132.6108, 1660.678
133.0929, 1667.346
133.5750, 1675.389
134.0572, 1684.588
134.5393, 1694.238
135.0214, 1704.199
135.5035, 1715.279
135.9856, 1726.680
136.4677, 1738.082
136.9498, 1756.074
137.4320, 1783.589
137.9141, 1819.276
138.3962, 1852.358
138.8783, 1883.178
139.3604, 1911.891
139.8425, 1937.741
140.3247, 1960.040
140.8068, 1982.661
141.2889, 2006.960
141.7710, 2033.446
142.2531, 2059.365
142.7352, 2086.176
143.2174, 2111.608
143.6995, 2131.926
144.1816, 2143.652
144.6637, 2155.366
145.1458, 2170.158
145.6279, 2190.493
146.1101, 2208.874
146.5922, 2227.018
147.0743, 2243.118
147.5564, 2251.240
148.0385, 2243.636
148.5206, 2234.894
149.0028, 2232.339
149.4849, 2240.415
149.9670, 2249.307
150.4491, 2259.966
150.9312, 2272.183
151.4133, 2280.974
151.8955, 2282.569
152.3776, 2282.994
152.8597, 2286.469
153.3418, 2294.010
153.8239, 2304.056
154.3060, 2317.906
154.7882, 2336.228
155.2703, 2352.018
155.7524, 2362.551
156.2345, 2370.638
156.7166, 2379.299
157.1987, 2382.345
157.6808, 2391.533
158.1630, 2414.647
158.6451, 2459.281
159.1272, 2495.110
159.6093, 2504.791
160.0914, 2499.856
160.5735, 2502.430
161.0557, 2530.901
161.5378, 2561.699
162.0199, 2579.841
162.5020, 2572.468
162.9841, 2568.294
163.4662, 2583.047
163.9484, 2611.662
164.4305, 2636.980
164.9126, 2646.707
165.3947, 2651.891
165.8768, 2662.232
166.3589, 2689.979
166.8411, 2714.959
167.3232, 2723.662
167.8053, 2717.497
168.2874, 2709.536
168.7695, 2701.598
169.2516, 2697.939
169.7338, 2704.041
170.2159, 2732.251
170.6980, 2764.942
171.1801, 2786.654
171.6622, 2796.852
172.1443, 2804.366
172.6265, 2811.030
173.1086, 2819.843
173.5907, 2836.651
174.0728, 2872.716
174.5549, 2915.089
175.0370, 2945.799
175.5192, 2961.066
176.0013, 2974.895
176.4834, 3001.513
176.9655, 3038.466
177.4476, 3076.707
177.9297, 3111.783
178.4118, 3145.172
178.8940, 3176.718
179.3761, 3203.872
179.8582, 3235.685
180.3403, 3285.194
180.8224, 3351.368
181.3046, 3423.427
181.7867, 3492.515
182.2688, 3562.290
182.7509, 3641.390
183.2330, 3733.207
183.7151, 3834.464
184.1973, 3944.186
184.6794, 4061.382
185.1615, 4185.553
185.6436, 4310.663
186.1257, 4440.158
186.6078, 4584.637
187.0900, 4752.125
187.5721, 4935.795
188.0542, 5125.175
188.5363, 5322.458
189.0184, 5520.600
189.5005, 5713.611
189.9827, 5901.512
190.4648, 6093.315
190.9469, 6292.292
191.4290, 6497.445
191.9111, 6722.209
192.3932, 6974.105
192.8754, 7227.314
193.3575, 7454.394
193.8396, 7657.527
194.3217, 7828.516
194.8038, 7978.086
195.2859, 8103.333
195.7681, 8147.778
196.2502, 8109.123
196.7323, 7993.393
197.2144, 7800.932
197.6965, 7529.039
198.1786, 7213.849
198.6607, 6860.877
199.1429, 6466.076
199.6250, 6093.824
200.1071, 5744.670
200.5892, 5418.902
201.0713, 5114.395
201.5534, 4829.452
202.0356, 4576.007
202.5177, 4368.730
202.9998, 4211.329
203.4819, 4070.273
203.9640, 3944.083
204.4461, 3832.018
204.9283, 3734.656
205.4104, 3653.313
205.8925, 3583.011
206.3746, 3521.068
206.8567, 3468.203
207.3388, 3420.791
207.8210, 3381.533
208.3031, 3348.285
208.7852, 3307.425
209.2673, 3254.513
209.7494, 3203.339
210.2315, 3166.770
210.7137, 3147.904
211.1958, 3133.571
211.6779, 3123.480
212.1600, 3117.144
212.6421, 3105.060
213.1242, 3085.490
213.6064, 3062.568
214.0885, 3039.161
214.5706, 3011.548
215.0527, 2993.349
215.5348, 2991.114
216.0169, 3006.079
216.4991, 3011.855
216.9812, 3003.988
217.4633, 2991.447
217.9454, 2986.768
218.4275, 2994.786
218.9096, 2999.650
219.3917, 2994.715
219.8739, 2976.937
220.3560, 2969.328
220.8381, 2977.270
221.3202, 2991.073
221.8023, 2995.354
222.2844, 2986.455
222.7666, 2975.128
223.2487, 2963.705
223.7308, 2950.539
224.2129, 2944.253
224.6950, 2947.018
225.1771, 2955.454
225.6593, 2963.530
226.1414, 2973.209
226.6235, 2979.219
227.1056, 2978.150
227.5877, 2964.396
228.0698, 2958.469
228.5520, 2963.949
229.0341, 2975.865
229.5162, 2981.592
229.9983, 2976.436
230.4804, 2971.993
230.9625, 2973.906
231.4447, 2986.268
231.9268, 2995.870
232.4089, 3001.140
232.8910, 3003.790
233.3731, 3010.105
233.8552, 3024.194
234.3374, 3036.271
234.8195, 3040.230
235.3016, 3029.336
235.7837, 3024.908
236.2658, 3030.511
236.7479, 3043.552
237.2301, 3052.894
237.7122, 3057.520
238.1943, 3059.838
238.6764, 3060.676
239.1585, 3057.404
239.6406, 3058.186
240.1227, 3065.224
240.6049, 3077.202
241.0870, 3086.735
241.5691, 3093.628
242.0512, 3098.228
242.5333, 3100.422
243.0154, 3098.644
243.4976, 3096.854
243.9797, 3092.037
244.4618, 3085.934
244.9439, 3095.211
245.4260, 3131.184
245.9081, 3168.810
246.3903, 3189.104
246.8724, 3182.282
247.3545, 3177.719
247.8366, 3179.835
248.3187, 3187.910
248.8008, 3193.664
249.2830, 3196.020
249.7651, 3197.578
250.2472, 3200.661
250.7293, 3207.148
251.2114, 3211.639
251.6935, 3212.915
252.1757, 3211.267
252.6578, 3210.109
253.1399, 3207.798
253.6220, 3208.179
254.1041, 3215.385
254.5862, 3233.610
255.0684, 3249.829
255.5505, 3262.130
256.0326, 3270.576
256.5147, 3275.389
256.9968, 3271.737
257.4789, 3270.463
257.9611, 3284.224
258.4432, 3323.728
258.9253, 3351.689
259.4074, 3354.679
259.8895, 3333.650
260.3716, 3337.388
260.8538, 3379.217
261.3359, 3427.577
261.8180, 3448.575
262.3001, 3429.191
262.7822, 3417.368
263.2643, 3424.347
263.7465, 3449.499
264.2286, 3473.479
264.7107, 3496.790
265.1928, 3517.503
265.6749, 3531.635
266.1570, 3535.684
266.6392, 3544.817
267.1213, 3564.083
267.6034, 3593.007
268.0855, 3618.104
268.5676, 3637.883
269.0497, 3656.524
269.5318, 3678.617
270.0139, 3704.729
270.4961, 3731.832
270.9782, 3759.234
271.4603, 3787.007
271.9424, 3817.933
272.4245, 3852.765
272.9066, 3889.302
273.3888, 3925.885
273.8709, 3962.769
274.3530, 3997.380
274.8351, 4027.546
275.3172, 4053.979
275.7993, 4084.270
276.2815, 4118.381
276.7636, 4156.264
277.2457, 4198.323
277.7278, 4244.779
278.2099, 4292.338
278.6920, 4335.897
279.1742, 4378.677
279.6563, 4447.480
280.1384, 4549.213
280.6205, 4657.855
281.1026, 4744.773
281.5847, 4808.425
282.0669, 4881.217
282.5490, 4972.463
283.0311, 5079.593
283.5132, 5189.920
283.9953, 5302.992
284.4774, 5422.079
284.9596, 5544.035
285.4417, 5669.888
285.9238, 5817.773
286.4059, 5994.278
286.8880, 6195.960
287.3701, 6412.482
287.8523, 6642.142
288.3344, 6885.652
288.8165, 7134.642
289.2986, 7392.237
289.7807, 7676.247
290.2628, 7990.553
290.7450, 8336.001
291.2271, 8708.162
291.7092, 9108.349
292.1913, 9536.505
292.6734, 9999.151
293.1555, 10491.55
293.6377, 10997.07
294.1198, 11509.59
294.6019, 12041.41
295.0840, 12615.46
295.5661, 13233.72
296.0482, 13865.22
296.5304, 14492.65
297.0125, 15108.45
297.4946, 15728.06
297.9767, 16348.76
298.4588, 16972.06
298.9409, 17609.22
299.4231, 18252.11
299.9052, 18877.46
300.3873, 19459.64
300.8694, 20000.51
301.3515, 20496.00
301.8336, 20941.13
302.3158, 21336.39
302.7979, 21697.36
303.2800, 22015.80
303.7621, 22226.46
304.2442, 22297.04
304.7263, 22229.79
305.2085, 22029.59
305.6906, 21693.65
306.1727, 21234.13
306.6548, 20632.70
307.1369, 19909.54
307.6190, 19115.64
308.1012, 18247.21
308.5833, 17353.46
309.0654, 16458.92
309.5475, 15562.15
310.0296, 14699.40
310.5117, 13885.80
310.9938, 13121.20
311.4760, 12397.24
311.9581, 11694.17
312.4402, 11027.59
312.9223, 10417.04
313.4044, 9868.294
313.8865, 9359.821
314.3687, 8888.352
314.8508, 8453.035
315.3329, 8052.102
315.8150, 7686.490
316.2971, 7351.838
316.7792, 7057.567
317.2614, 6812.199
317.7435, 6577.401
318.2256, 6331.434
318.7077, 6087.410
319.1898, 5868.784
319.6719, 5687.389
320.1541, 5525.729
320.6362, 5378.836
321.1183, 5246.718
321.6004, 5122.746
322.0825, 5001.176
322.5646, 4887.721
323.0468, 4790.302
323.5289, 4725.523
324.0110, 4663.151
324.4931, 4592.881
324.9752, 4512.452
325.4573, 4434.845
325.9395, 4356.509
326.4216, 4283.664
326.9037, 4222.025
327.3858, 4180.579
327.8679, 4141.601
328.3500, 4101.497
328.8322, 4060.249
329.3143, 4021.544
329.7964, 3988.452
330.2785, 3956.409
330.7606, 3921.047
331.2427, 3874.451
331.7249, 3835.948
332.2070, 3810.454
332.6891, 3797.537
333.1712, 3785.126
333.6533, 3771.736
334.1354, 3760.492
334.6176, 3755.296
335.0997, 3763.091
335.5818, 3760.075
336.0639, 3738.796
336.5460, 3703.263
337.0281, 3679.112
337.5103, 3668.465
337.9924, 3663.627
338.4745, 3662.091
338.9566, 3666.422
339.4387, 3659.844
339.9208, 3636.780
340.4030, 3604.314
340.8851, 3583.249
341.3672, 3575.463
341.8493, 3569.714
342.3314, 3557.707
342.8135, 3539.587
343.2957, 3528.460
343.7778, 3526.456
344.2599, 3530.220
344.7420, 3534.959
345.2241, 3540.650
345.7062, 3545.253
346.1884, 3549.652
346.6705, 3552.540
347.1526, 3545.064
347.6347, 3524.538
348.1168, 3502.580
348.5989, 3497.777
349.0811, 3506.656
349.5632, 3512.194
350.0453, 3499.811
350.5274, 3480.041
351.0095, 3477.333
351.4916, 3493.496
351.9737, 3508.361
352.4558, 3498.508
352.9380, 3472.783
353.4201, 3450.739
353.9022, 3440.683
354.3843, 3437.767
354.8664, 3438.788
355.3485, 3443.512
355.8307, 3447.602
356.3128, 3447.177
356.7949, 3444.603
357.2770, 3442.936
357.7591, 3444.438
358.2412, 3445.717
358.7234, 3442.703
359.2055, 3436.737
359.6876, 3434.169
360.1697, 3443.226
360.6518, 3454.009
361.1339, 3458.685
361.6161, 3452.294
362.0982, 3444.357
362.5803, 3437.043
363.0624, 3430.728
363.5445, 3426.542
364.0266, 3427.774
364.5088, 3428.987
364.9909, 3427.828
365.4730, 3424.508
365.9551, 3417.868
366.4372, 3401.218
366.9193, 3382.316
367.4015, 3373.888
367.8836, 3390.500
368.3657, 3405.453
368.8478, 3410.755
369.3299, 3404.066
369.8120, 3397.439
370.2942, 3387.465
370.7763, 3379.505
371.2584, 3380.234
371.7405, 3398.492
372.2226, 3411.388
372.7047, 3413.035
373.1869, 3403.577
373.6690, 3396.143
374.1511, 3390.429
374.6332, 3387.124
375.1153, 3387.719
375.5974, 3393.931
376.0796, 3397.635
376.5617, 3396.904
377.0438, 3393.100
377.5259, 3392.225
378.0080, 3395.634
378.4901, 3396.784
378.9723, 3387.219
379.4544, 3367.092
379.9365, 3361.813
380.4186, 3377.784
380.9007, 3402.816
381.3828, 3413.969
381.8650, 3411.834
382.3471, 3406.051
382.8292, 3400.708
383.3113, 3395.657
383.7934, 3389.814
384.2755, 3382.482
384.7577, 3377.169
385.2398, 3377.289
385.7219, 3382.497
386.2040, 3391.882
386.6861, 3412.777
387.1682, 3433.927
387.6504, 3437.845
388.1325, 3424.806
388.6146, 3410.027
389.0967, 3404.769
389.5788, 3404.657
390.0609, 3403.948
390.5431, 3401.307
391.0252, 3397.203
391.5073, 3389.771
391.9894, 3380.436
392.4715, 3375.141
392.9536, 3376.578
393.4357, 3383.403
393.9178, 3396.344
394.4000, 3423.117
394.8821, 3441.709
395.3642, 3439.992
395.8463, 3425.330
396.3284, 3413.078
396.8105, 3405.662
397.2927, 3402.241
397.7748, 3403.636
398.2569, 3412.227
398.7390, 3417.718
399.2211, 3417.632
399.7032, 3414.682
400.1854, 3411.928
400.6675, 3407.790
401.1496, 3405.986
401.6317, 3407.737
402.1138, 3413.048
402.5959, 3418.472
403.0781, 3424.785
403.5602, 3430.301
404.0423, 3434.224
404.5244, 3437.513
405.0065, 3435.392
405.4886, 3424.696
405.9708, 3409.320
406.4529, 3401.118
406.9350, 3400.014
407.4171, 3406.592
407.8992, 3427.674
408.3813, 3462.470
408.8635, 3477.612
409.3456, 3467.273
409.8277, 3447.615
410.3098, 3444.390
410.7919, 3455.787
411.2740, 3464.355
411.7562, 3457.442
412.2383, 3442.716
412.7204, 3440.604
413.2025, 3451.458
413.6846, 3463.500
414.1667, 3462.424
414.6489, 3454.974
415.1310, 3454.813
415.6131, 3474.660
416.0952, 3495.220
416.5773, 3493.282
417.0594, 3473.543
417.5416, 3458.407
418.0237, 3465.332
418.5058, 3479.752
418.9879, 3489.346
419.4700, 3491.586
419.9521, 3489.470
420.4343, 3481.187
420.9164, 3469.823
421.3985, 3461.128
421.8806, 3456.037
422.3627, 3454.554
422.8448, 3458.255
423.3270, 3469.028
423.8091, 3475.977
424.2912, 3473.178
424.7733, 3468.120
425.2554, 3468.149
425.7375, 3477.613
426.2197, 3486.568
426.7018, 3495.365
427.1839, 3503.328
427.6660, 3502.840
428.1481, 3484.536
428.6302, 3471.047
429.1124, 3480.050
429.5945, 3521.069
430.0766, 3546.113
430.5587, 3549.724
431.0408, 3538.499
431.5229, 3523.377
432.0051, 3503.400
432.4872, 3486.887
432.9693, 3475.998
433.4514, 3471.258
433.9335, 3480.009
434.4156, 3504.562
434.8977, 3529.552
435.3799, 3534.855
435.8620, 3525.268
436.3441, 3520.300
436.8262, 3531.823
437.3083, 3545.887
437.7904, 3536.906
438.2726, 3508.681
438.7547, 3486.326
439.2368, 3489.867
439.7189, 3507.424
440.2010, 3526.927
440.6831, 3548.859
441.1653, 3564.277
441.6474, 3561.961
442.1295, 3549.398
442.6116, 3540.976
443.0937, 3545.785
443.5758, 3553.269
444.0580, 3558.750
444.5401, 3561.754
445.0222, 3563.790
445.5043, 3563.231
445.9864, 3562.980
446.4685, 3565.527
446.9507, 3579.456
447.4328, 3586.435
447.9149, 3579.434
448.3970, 3562.604
448.8791, 3556.730
449.3612, 3570.314
449.8434, 3583.598
450.3255, 3586.361
450.8076, 3574.045
451.2897, 3566.603
451.7718, 3566.258
452.2539, 3568.072
452.7361, 3562.219
453.2182, 3546.674
453.7003, 3537.348
454.1824, 3542.199
454.6645, 3557.553
455.1466, 3566.080
455.6288, 3567.433
456.1109, 3565.635
456.5930, 3560.454
457.0751, 3554.586
457.5572, 3559.026
458.0393, 3581.074
458.5215, 3604.351
459.0036, 3603.737
459.4857, 3585.157
459.9678, 3569.355
460.4499, 3569.036
460.9320, 3576.637
461.4142, 3587.199
461.8963, 3601.052
462.3784, 3610.830
462.8605, 3609.602
463.3426, 3602.943
463.8247, 3597.346
464.3069, 3593.220
464.7890, 3592.042
465.2711, 3599.340
465.7532, 3612.510
466.2353, 3614.358
466.7174, 3581.554
467.1996, 3552.355
467.6817, 3546.882
468.1638, 3583.594
468.6459, 3609.564
469.1280, 3621.772
469.6101, 3624.896
470.0923, 3625.177
470.5744, 3618.934
471.0565, 3618.833
471.5386, 3633.787
472.0207, 3661.453
472.5028, 3661.319
472.9850, 3626.622
473.4671, 3588.943
473.9492, 3577.637
474.4313, 3590.937
474.9134, 3603.286
475.3955, 3610.899
475.8776, 3615.825
476.3597, 3621.647
476.8419, 3628.068
477.3240, 3632.871
477.8061, 3634.197
478.2882, 3633.530
478.7703, 3632.194
479.2524, 3630.146
479.7346, 3629.773
480.2167, 3634.668
480.6988, 3641.552
481.1809, 3646.276
481.6630, 3645.001
482.1451, 3643.667
482.6273, 3643.336
483.1094, 3644.608
483.5915, 3649.884
484.0736, 3668.833
484.5557, 3684.432
485.0378, 3686.798
485.5200, 3666.778
486.0021, 3655.972
486.4842, 3661.782
486.9663, 3673.977
487.4484, 3681.000
487.9305, 3680.562
488.4127, 3679.523
488.8948, 3679.477
489.3769, 3680.070
489.8590, 3677.721
490.3411, 3670.917
490.8232, 3666.087
491.3054, 3670.912
491.7875, 3684.989
492.2696, 3685.066
492.7517, 3666.282
493.2338, 3643.422
493.7159, 3637.174
494.1981, 3645.123
494.6802, 3655.400
495.1623, 3664.711
495.6444, 3672.500
496.1265, 3678.449
496.6086, 3682.467
497.0908, 3683.336
497.5729, 3677.962
498.0550, 3670.214
498.5371, 3663.406
499.0192, 3656.852
499.5013, 3654.959
499.9835, 3664.498
500.4656, 3679.442
500.9477, 3689.944
501.4298, 3688.713
501.9119, 3686.992
502.3940, 3689.463
502.8762, 3696.720
503.3583, 3699.210
503.8404, 3693.121
504.3225, 3685.220
504.8046, 3678.519
505.2867, 3668.740
505.7689, 3671.749
506.2510, 3695.317
506.7331, 3726.491
507.2152, 3737.662
507.6973, 3725.982
508.1794, 3710.513
508.6616, 3696.789
509.1437, 3685.202
509.6258, 3676.442
510.1079, 3670.271
510.5900, 3670.834
511.0721, 3688.819
511.5543, 3716.435
512.0364, 3733.627
512.5185, 3735.254
513.0006, 3727.818
513.4827, 3709.781
513.9648, 3687.354
514.4470, 3675.552
514.9291, 3689.326
515.4112, 3710.059
515.8933, 3727.864
516.3754, 3742.069
516.8575, 3751.159
517.3397, 3755.305
517.8218, 3753.634
518.3039, 3745.583
518.7860, 3716.903
519.2681, 3699.668
519.7502, 3699.939
520.2324, 3711.525
520.7145, 3722.041
521.1966, 3731.946
521.6787, 3740.090
522.1608, 3746.163
522.6429, 3750.199
523.1251, 3752.546
523.6072, 3752.769
524.0893, 3752.674
524.5714, 3755.385
525.0535, 3760.265
525.5356, 3758.586
526.0178, 3746.984
526.4999, 3733.331
526.9820, 3727.382
527.4641, 3729.137
527.9462, 3738.191
528.4283, 3767.668
528.9105, 3796.468
529.3926, 3795.428
529.8747, 3766.130
530.3568, 3742.652
530.8389, 3755.558
531.3210, 3777.096
531.8032, 3782.388
532.2853, 3754.028
532.7674, 3731.508
533.2495, 3729.396
533.7316, 3739.062
534.2137, 3745.197
534.6959, 3739.711
535.1780, 3738.679
535.6601, 3748.912
536.1422, 3769.786
536.6243, 3777.132
537.1064, 3764.249
537.5885, 3750.333
538.0706, 3750.546
538.5527, 3766.862
539.0349, 3773.981
539.5170, 3767.692
539.9991, 3757.643
540.4812, 3759.434
540.9633, 3771.292
541.4454, 3781.355
541.9276, 3782.064
542.4097, 3780.446
542.8918, 3790.331
543.3739, 3809.570
543.8560, 3824.434
544.3381, 3823.500
544.8203, 3815.518
545.3024, 3808.284
545.7845, 3803.129
546.2666, 3798.332
546.7487, 3789.660
547.2308, 3782.347
547.7130, 3782.408
548.1951, 3804.909
548.6772, 3819.355
549.1593, 3813.281
549.6414, 3792.826
550.1235, 3788.738
550.6057, 3814.188
551.0878, 3835.256
551.5699, 3835.026
552.0520, 3810.578
552.5341, 3792.912
553.0162, 3782.698
553.4984, 3777.365
553.9805, 3774.932
554.4626, 3775.225
554.9447, 3776.531
555.4268, 3778.388
555.9089, 3781.279
556.3911, 3786.778
556.8732, 3794.260
557.3553, 3801.058
557.8374, 3805.901
558.3195, 3809.447
558.8016, 3811.620
559.2838, 3812.471
559.7659, 3814.254
560.2480, 3820.010
560.7301, 3825.940
561.2122, 3828.821
561.6943, 3823.930
562.1765, 3822.059
562.6586, 3830.298
563.1407, 3840.818
563.6228, 3839.347
564.1049, 3813.748
564.5870, 3797.854
565.0692, 3804.108
565.5513, 3828.847
566.0334, 3838.094
566.5155, 3827.638
566.9976, 3818.173
567.4797, 3828.569
567.9619, 3854.387
568.4440, 3864.942
568.9261, 3855.960
569.4082, 3842.568
569.8903, 3845.577
570.3724, 3857.102
570.8546, 3858.651
571.3367, 3833.858
571.8188, 3808.459
572.3009, 3806.374
572.7830, 3821.120
573.2651, 3832.833
573.7473, 3825.036
574.2294, 3819.046
574.7115, 3830.144
575.1936, 3864.534
575.6757, 3882.985
576.1578, 3865.896
576.6400, 3844.011
577.1221, 3840.305
577.6042, 3865.467
578.0863, 3883.125
578.5684, 3890.056
579.0505, 3889.186
579.5327, 3883.274
580.0148, 3871.553
580.4969, 3864.878
580.9790, 3869.890
581.4611, 3881.507
581.9432, 3885.976
582.4254, 3883.494
582.9075, 3878.023
583.3896, 3866.375
583.8717, 3855.779
584.3538, 3857.968
584.8359, 3876.293
585.3181, 3895.371
585.8002, 3910.297
586.2823, 3919.059
586.7644, 3919.619
587.2465, 3903.916
587.7286, 3888.524
588.2108, 3871.368
588.6929, 3856.756
589.1750, 3858.686
589.6571, 3894.292
590.1392, 3920.784
590.6213, 3921.335
591.1035, 3896.281
591.5856, 3882.848
592.0677, 3882.911
592.5498, 3888.230
593.0319, 3892.440
593.5140, 3895.965
593.9962, 3901.805
594.4783, 3910.337
594.9604, 3920.878
595.4425, 3938.822
595.9246, 3957.960
596.4067, 3964.258
596.8889, 3941.327
597.3710, 3914.449
597.8531, 3900.537
598.3352, 3897.673
598.8173, 3899.068
599.2994, 3899.419
599.7816, 3905.968
600.2637, 3927.338
600.7458, 3970.576
601.2279, 3991.102
601.7100, 3973.905
602.1921, 3948.193
602.6743, 3934.564
603.1564, 3935.371
603.6385, 3940.334
604.1206, 3950.191
604.6027, 3961.601
605.0848, 3970.690
605.5670, 3977.202
606.0491, 3977.619
606.5312, 3966.560
607.0133, 3952.396
607.4954, 3949.429
607.9775, 3956.208
608.4597, 3965.351
608.9418, 3973.034
609.4239, 3980.611
609.9060, 3989.765
610.3881, 4000.971
610.8702, 4010.545
611.3524, 4014.424
611.8345, 4017.844
612.3166, 4024.832
612.7987, 4044.763
613.2808, 4056.039
613.7629, 4055.453
614.2451, 4048.211
614.7272, 4042.585
615.2093, 4039.055
615.6914, 4035.356
616.1735, 4030.241
616.6556, 4024.948
617.1378, 4022.684
617.6199, 4023.475
618.1020, 4028.709
618.5840, 4046.113
619.0662, 4066.014
619.5483, 4069.526
620.0304, 4055.242
620.5125, 4040.948
620.9946, 4039.077
621.4767, 4043.365
621.9589, 4048.174
622.4410, 4053.480
622.9231, 4056.962
623.4052, 4054.032
623.8873, 4050.007
624.3694, 4054.139
624.8516, 4081.394
625.3337, 4092.625
625.8158, 4074.352
626.2979, 4036.432
626.7800, 4019.398
627.2621, 4026.432
627.7443, 4038.105
628.2264, 4048.081
628.7085, 4055.194
629.1906, 4049.491
629.6727, 4030.868
630.1548, 4017.374
630.6370, 4035.298
631.1191, 4063.806
631.6012, 4069.852
632.0833, 4041.773
632.5654, 4013.627
633.0475, 4010.157
633.5297, 4015.996
634.0118, 4012.389
634.4939, 3981.038
634.9760, 3956.366
635.4581, 3949.992
635.9402, 3953.726
636.4224, 3944.551
636.9045, 3915.502
637.3866, 3889.584
637.8687, 3876.468
638.3508, 3873.827
638.8329, 3861.780
639.3151, 3839.222
639.7972, 3818.795
640.2793, 3809.564
640.7614, 3809.379
641.2435, 3817.125
641.7256, 3834.273
642.2078, 3843.025
642.6899, 3819.752
643.1720, 3783.305
643.6541, 3756.904
644.1362, 3750.601
644.6183, 3748.454
645.1005, 3749.459
645.5826, 3750.549
646.0647, 3745.303
646.5468, 3723.193
647.0289, 3709.896
647.5110, 3712.906
647.9932, 3728.679
648.4753, 3739.835
648.9574, 3745.974
649.4395, 3749.140
649.9216, 3750.991
650.4037, 3750.784
650.8859, 3744.171
651.3680, 3731.187
651.8501, 3716.591
652.3322, 3697.966
652.8143, 3683.188
653.2964, 3686.398
653.7786, 3716.381
654.2607, 3739.790
654.7428, 3735.202
655.2249, 3716.775
655.7070, 3700.287
656.1891, 3681.354
656.6713, 3674.909
657.1534, 3690.908
657.6355, 3717.196
658.1176, 3724.903
658.5997, 3707.361
659.0818, 3692.134
659.5640, 3688.364
660.0461, 3692.877
660.5282, 3694.653
661.0103, 3693.805
661.4924, 3690.981
661.9745, 3685.089
662.4567, 3678.255
662.9388, 3674.177
663.4209, 3673.094
663.9030, 3671.998
664.3851, 3667.576
664.8672, 3663.173
665.3494, 3661.918
665.8315, 3666.321
666.3136, 3669.169
666.7957, 3669.592
667.2778, 3667.369
667.7599, 3660.365
668.2421, 3641.451
668.7242, 3637.625
669.2063, 3658.993
669.6884, 3689.832
670.1705, 3693.076
670.6526, 3669.683
671.1348, 3649.034
671.6169, 3646.077
672.0990, 3650.450
672.5811, 3643.342
673.0632, 3627.501
673.5453, 3615.126
674.0275, 3616.038
674.5096, 3621.112
674.9917, 3624.896
675.4738, 3627.031
675.9559, 3627.529
676.4380, 3626.537
676.9202, 3623.777
677.4023, 3617.767
677.8844, 3603.756
678.3665, 3601.838
678.8486, 3616.114
679.3307, 3635.101
679.8129, 3643.783
680.2950, 3642.800
680.7771, 3649.267
681.2592, 3668.849
681.7413, 3689.170
682.2234, 3688.682
682.7056, 3675.461
683.1877, 3669.264
683.6698, 3689.922
684.1519, 3708.591
684.6340, 3704.364
685.1161, 3684.023
685.5983, 3669.004
686.0804, 3669.223
686.5625, 3670.795
687.0446, 3669.284
687.5267, 3664.994
688.0089, 3661.704
688.4910, 3657.728
688.9731, 3658.922
689.4552, 3673.177
689.9373, 3698.198
690.4194, 3708.835
690.9016, 3703.745
691.3837, 3694.896
691.8658, 3693.176
692.3479, 3694.565
692.8300, 3690.521
693.3121, 3676.354
693.7943, 3669.521
694.2764, 3688.684
694.7585, 3716.799
695.2406, 3734.746
695.7227, 3728.023
696.2048, 3725.116
696.6870, 3734.571
697.1691, 3746.252
697.6512, 3739.123
698.1333, 3706.606
698.6154, 3680.633
699.0975, 3669.040
699.5797, 3669.528
700.0618, 3682.705
700.5438, 3706.226
701.0259, 3721.773
701.5081, 3710.052
701.9902, 3690.949
702.4723, 3689.569
702.9544, 3703.544
703.4365, 3714.246
703.9186, 3706.766
704.4008, 3698.842
704.8829, 3700.716
705.3650, 3715.077
705.8471, 3730.147
706.3292, 3749.370
706.8113, 3764.531
707.2935, 3768.137
707.7756, 3758.673
708.2577, 3753.100
708.7398, 3752.165
709.2219, 3754.626
709.7040, 3761.828
710.1862, 3771.247
710.6683, 3774.717
711.1504, 3767.172
711.6325, 3762.667
712.1146, 3776.017
712.5967, 3798.715
713.0789, 3817.824
713.5610, 3823.641
714.0431, 3832.374
714.5252, 3848.835
715.0073, 3870.494
715.4894, 3892.429
715.9716, 3916.254
716.4537, 3936.262
716.9358, 3948.906
717.4179, 3957.371
717.9000, 3970.857
718.3821, 3989.494
718.8643, 4015.869
719.3464, 4055.348
719.8285, 4101.583
720.3106, 4144.433
720.7927, 4184.651
721.2748, 4233.107
721.7570, 4304.573
722.2391, 4377.775
722.7212, 4437.276
723.2033, 4476.671
723.6854, 4529.466
724.1675, 4600.988
724.6497, 4680.630
725.1318, 4764.590
725.6139, 4852.929
726.0960, 4935.671
726.5781, 5011.703
727.0602, 5088.675
727.5424, 5174.559
728.0245, 5268.021
728.5066, 5372.342
728.9887, 5495.343
729.4708, 5601.691
729.9529, 5674.269
730.4351, 5710.506
730.9172, 5707.536
731.3993, 5683.322
731.8814, 5596.532
732.3635, 5400.347
732.8456, 5147.631
733.3278, 4920.305
733.8099, 4714.620
734.2920, 4542.234
734.7741, 4406.364
735.2562, 4302.456
735.7383, 4220.271
736.2205, 4159.267
736.7026, 4114.385
737.1847, 4091.613
737.6668, 4078.251
738.1489, 4063.628
738.6310, 4046.787
739.1132, 4023.662
739.5953, 3973.521
740.0774, 3934.200
740.5595, 3932.081
741.0416, 3968.284
741.5237, 3981.691
742.0059, 3962.180
742.4880, 3936.113
742.9701, 3912.655
743.4522, 3891.902
743.9343, 3888.861
744.4164, 3904.992
744.8986, 3918.917
745.3807, 3904.748
745.8628, 3878.725
746.3449, 3872.486
746.8270, 3890.755
747.3091, 3906.184
747.7913, 3900.664
748.2734, 3886.249
748.7555, 3873.245
749.2376, 3865.554
749.7197, 3854.192
750.2018, 3837.070
750.6840, 3818.385
751.1661, 3798.595
751.6482, 3775.329
752.1303, 3774.232
752.6124, 3803.301
753.0945, 3838.503
753.5767, 3844.986
754.0588, 3832.206
754.5409, 3826.059
755.0230, 3837.702
755.5051, 3850.007
755.9872, 3848.038
756.4694, 3839.381
756.9515, 3836.576
757.4336, 3853.034
757.9157, 3862.160
758.3978, 3856.509
758.8799, 3843.020
759.3621, 3837.942
759.8442, 3843.606
760.3263, 3847.014
760.8084, 3843.424
761.2905, 3836.900
761.7726, 3835.114
762.2548, 3838.009
762.7369, 3845.118
763.2190, 3862.583
763.7011, 3878.944
764.1832, 3883.042
764.6653, 3877.219
765.1475, 3872.267
765.6296, 3871.461
766.1117, 3871.178
766.5938, 3868.267
767.0759, 3863.520
767.5580, 3869.414
768.0402, 3889.175
768.5223, 3905.925
769.0044, 3907.081
769.4865, 3897.539
769.9686, 3895.368
770.4507, 3900.261
770.9329, 3907.707
771.4150, 3919.781
771.8971, 3929.445
772.3792, 3928.984
772.8613, 3917.346
773.3434, 3906.109
773.8256, 3895.568
774.3077, 3889.013
774.7898, 3889.021
775.2719, 3897.235
775.7540, 3903.018
776.2361, 3906.090
776.7183, 3908.025
777.2004, 3910.025
777.6825, 3911.960
778.1646, 3913.360
778.6467, 3914.116
779.1288, 3914.372
779.6110, 3910.858
780.0931, 3908.598
780.5752, 3913.635
781.0573, 3930.006
781.5394, 3945.047
782.0215, 3961.118
782.5037, 3971.226
782.9857, 3967.133
783.4678, 3942.702
783.9500, 3928.287
784.4321, 3925.766
784.9142, 3933.077
785.3963, 3956.220
785.8784, 3988.105
786.3605, 4000.936
786.8427, 3983.984
787.3248, 3965.428
787.8069, 3968.515
788.2890, 3983.544
788.7711, 3998.418
789.2532, 4014.922
789.7354, 4024.459
790.2175, 4024.313
790.6996, 4017.797
791.1817, 4005.513
791.6638, 3982.966
792.1459, 3979.940
792.6281, 4006.071
793.1102, 4042.692
793.5923, 4061.947
794.0744, 4067.375
794.5565, 4069.983
795.0386, 4073.344
795.5208, 4075.380
796.0029, 4072.149
796.4850, 4067.287
796.9671, 4067.116
797.4492, 4080.998
797.9313, 4089.005
798.4135, 4083.782
798.8956, 4074.123
799.3777, 4083.164
799.8598, 4113.576
800.3419, 4129.422
800.8240, 4113.317
801.3062, 4088.744
801.7883, 4098.984
802.2704, 4133.303
802.7525, 4163.266
803.2346, 4179.330
803.7167, 4184.052
804.1989, 4168.395
804.6810, 4141.989
805.1631, 4133.366
805.6452, 4158.045
806.1273, 4177.305
806.6094, 4181.313
807.0916, 4175.695
807.5737, 4176.813
808.0558, 4184.589
808.5379, 4194.837
809.0200, 4207.878
809.5021, 4220.402
809.9843, 4226.258
810.4664, 4227.818
810.9485, 4231.923
811.4306, 4244.345
811.9127, 4256.908
812.3948, 4265.832
812.8770, 4272.042
813.3591, 4279.287
813.8412, 4286.689
814.3233, 4297.609
814.8054, 4314.958
815.2875, 4335.372
815.7697, 4348.765
816.2518, 4355.616
816.7339, 4359.232
817.2160, 4354.065
817.6981, 4352.339
818.1802, 4368.870
818.6624, 4399.112
819.1445, 4426.636
819.6266, 4445.592
820.1087, 4462.162
820.5908, 4480.125
821.0729, 4497.579
821.5551, 4502.502
822.0372, 4492.200
822.5193, 4484.308
823.0014, 4483.807
823.4835, 4492.112
823.9656, 4520.441
824.4478, 4562.941
824.9299, 4594.422
825.4120, 4595.379
825.8941, 4586.966
826.3762, 4578.359
826.8583, 4570.521
827.3405, 4566.716
827.8226, 4571.173
828.3047, 4573.260
828.7868, 4569.132
829.2689, 4560.503
829.7510, 4554.452
830.2332, 4551.016
830.7153, 4548.508
831.1974, 4542.518
831.6795, 4539.659
832.1616, 4557.392
832.6437, 4587.484
833.1259, 4601.756
833.6080, 4568.297
834.0901, 4537.187
834.5722, 4530.206
835.0543, 4542.240
835.5364, 4553.968
836.0186, 4567.678
836.5007, 4573.402
836.9828, 4564.056
837.4649, 4547.081
837.9470, 4540.487
838.4291, 4543.580
838.9113, 4553.201
839.3934, 4580.803
839.8755, 4602.705
840.3576, 4596.079
840.8397, 4568.519
841.3218, 4547.269
841.8040, 4538.059
842.2861, 4535.497
842.7682, 4540.828
843.2503, 4551.233
843.7324, 4557.265
844.2145, 4558.800
844.6967, 4558.428
845.1788, 4556.228
845.6609, 4553.637
846.1430, 4556.396
846.6251, 4560.657
847.1072, 4555.969
847.5894, 4525.437
848.0715, 4498.666
848.5536, 4486.032
849.0357, 4485.321
849.5178, 4492.704
849.9999, 4513.539
850.4821, 4524.704
850.9642, 4517.736
851.4463, 4501.195
851.9284, 4492.567
852.4105, 4490.485
852.8926, 4489.675
853.3748, 4485.167
853.8569, 4484.651
854.3390, 4505.394
854.8211, 4532.427
855.3032, 4533.808
855.7853, 4469.182
856.2675, 4429.702
856.7496, 4434.179
857.2317, 4462.706
857.7138, 4474.978
858.1959, 4471.675
858.6780, 4478.684
859.1602, 4507.451
859.6423, 4538.541
860.1244, 4552.402
860.6065, 4552.064
861.0886, 4542.833
861.5707, 4510.847
862.0529, 4490.089
862.5350, 4496.703
863.0171, 4514.967
863.4992, 4526.926
863.9813, 4531.245
864.4634, 4536.028
864.9456, 4543.515
865.4276, 4548.668
865.9097, 4541.215
866.3918, 4526.576
866.8740, 4517.677
867.3561, 4519.231
867.8382, 4522.668
868.3203, 4528.362
868.8024, 4531.129
869.2845, 4524.004
869.7667, 4494.477
870.2488, 4481.796
870.7309, 4491.210
871.2130, 4507.933
871.6951, 4516.336
872.1772, 4517.883
872.6594, 4520.251
873.1415, 4524.539
873.6236, 4527.605
874.1057, 4524.699
874.5878, 4520.321
875.0699, 4519.344
875.5521, 4524.161
876.0342, 4526.464
876.5163, 4526.136
876.9984, 4522.533
877.4805, 4513.795
877.9626, 4499.686
878.4448, 4488.613
878.9269, 4480.429
879.4090, 4479.192
879.8911, 4495.328
880.3732, 4516.453
880.8553, 4526.585
881.3375, 4524.397
881.8196, 4522.283
882.3017, 4524.822
882.7838, 4527.976
883.2659, 4529.357
883.7480, 4529.003
884.2302, 4531.493
884.7123, 4536.813
885.1944, 4544.974
885.6765, 4560.808
886.1586, 4577.502
886.6407, 4580.846
887.1229, 4572.740
887.6050, 4563.303
888.0871, 4553.682
888.5692, 4547.720
889.0513, 4548.777
889.5334, 4555.533
890.0156, 4561.527
890.4977, 4565.848
890.9798, 4572.376
891.4619, 4582.916
891.9440, 4595.653
892.4261, 4610.736
892.9083, 4624.960
893.3904, 4628.130
893.8725, 4599.851
894.3546, 4575.008
894.8367, 4576.010
895.3188, 4593.279
895.8010, 4605.787
896.2831, 4612.508
896.7652, 4614.146
897.2473, 4610.322
897.7294, 4602.548
898.2115, 4591.451
898.6937, 4578.302
899.1758, 4568.040
899.6579, 4562.348
900.1400, 4559.455
900.6221, 4559.635
901.1042, 4561.230
901.5864, 4562.141
902.0685, 4558.839
902.5506, 4560.692
903.0327, 4571.253
903.5148, 4581.897
903.9969, 4582.300
904.4791, 4573.514
904.9612, 4565.732
905.4433, 4559.316
905.9254, 4559.892
906.4075, 4587.582
906.8896, 4615.455
907.3718, 4610.290
907.8539, 4560.415
908.3360, 4527.088
908.8181, 4526.110
909.3002, 4533.917
909.7823, 4537.845
910.2645, 4538.622
910.7466, 4553.836
911.2287, 4583.689
911.7108, 4608.039
912.1929, 4605.892
912.6750, 4596.671
913.1572, 4606.171
913.6393, 4630.249
914.1214, 4640.305
914.6035, 4614.262
915.0856, 4588.515
915.5677, 4572.902
916.0499, 4565.635
916.5320, 4558.301
917.0141, 4550.866
917.4962, 4552.166
917.9783, 4571.066
918.4604, 4592.729
918.9426, 4597.332
919.4247, 4590.756
919.9068, 4585.034
920.3889, 4581.638
920.8710, 4582.839
921.3531, 4592.342
921.8353, 4603.889
922.3174, 4605.739
922.7995, 4596.122
923.2816, 4603.759
923.7637, 4637.551
924.2458, 4668.149
924.7280, 4647.307
925.2101, 4607.222
925.6922, 4598.317
926.1743, 4641.859
926.6564, 4677.412
927.1385, 4684.592
927.6207, 4679.009
928.1028, 4665.977
928.5849, 4643.347
929.0670, 4640.439
929.5491, 4659.670
930.0313, 4676.303
930.5134, 4664.135
930.9955, 4641.943
931.4776, 4637.409
931.9597, 4649.824
932.4418, 4656.902
932.9240, 4643.149
933.4061, 4630.334
933.8882, 4627.144
934.3703, 4631.692
934.8524, 4633.256
935.3345, 4631.522
935.8167, 4632.137
936.2988, 4639.462
936.7809, 4647.796
937.2630, 4647.704
937.7451, 4642.707
938.2272, 4640.730
938.7094, 4650.957
939.1915, 4656.272
939.6736, 4650.943
940.1557, 4640.729
940.6378, 4633.070
941.1199, 4627.967
941.6021, 4624.144
942.0842, 4620.926
942.5663, 4621.199
943.0484, 4631.426
943.5305, 4645.712
944.0126, 4655.697
944.4948, 4658.742
944.9769, 4662.140
945.4590, 4671.517
945.9411, 4678.011
946.4232, 4675.616
946.9053, 4664.191
947.3875, 4654.599
947.8695, 4646.761
948.3516, 4641.235
948.8337, 4637.325
949.3159, 4636.628
949.7980, 4644.182
950.2801, 4657.958
950.7622, 4665.812
951.2443, 4658.618
951.7264, 4651.103
952.2086, 4644.316
952.6907, 4640.824
953.1728, 4652.442
953.6549, 4677.956
954.1370, 4696.939
954.6191, 4700.820
955.1013, 4698.828
955.5834, 4696.668
956.0655, 4696.177
956.5476, 4700.187
957.0297, 4720.170
957.5118, 4728.089
957.9940, 4718.517
958.4761, 4702.717
958.9582, 4690.534
959.4403, 4682.160
959.9224, 4682.001
960.4045, 4690.879
960.8867, 4699.272
961.3688, 4697.073
961.8509, 4692.922
962.3330, 4693.059
962.8151, 4698.145
963.2972, 4711.279
963.7794, 4739.857
964.2615, 4761.960
964.7436, 4765.515
965.2257, 4756.574
965.7078, 4755.909
966.1899, 4762.486
966.6721, 4770.796
967.1542, 4783.839
967.6363, 4792.006
968.1184, 4785.606
968.6005, 4770.897
969.0826, 4762.532
969.5648, 4765.987
970.0469, 4761.991
970.5290, 4745.193
971.0111, 4727.358
971.4932, 4723.926
971.9753, 4732.948
972.4575, 4754.516
972.9396, 4793.193
973.4217, 4816.650
973.9038, 4787.245
974.3859, 4751.470
974.8680, 4746.722
975.3502, 4777.041
975.8323, 4797.828
976.3144, 4808.546
976.7965, 4812.187
977.2786, 4807.323
977.7607, 4798.118
978.2429, 4791.885
978.7250, 4788.020
979.2071, 4784.013
979.6892, 4770.672
980.1713, 4767.374
980.6534, 4788.123
981.1356, 4818.567
981.6177, 4826.150
982.0998, 4809.673
982.5819, 4797.581
983.0640, 4796.673
983.5461, 4800.393
984.0283, 4803.605
984.5104, 4805.833
984.9925, 4805.228
985.4746, 4797.313
985.9567, 4799.675
986.4388, 4822.851
986.9210, 4844.641
987.4031, 4845.982
987.8852, 4829.421
988.3673, 4830.566
988.8494, 4848.285
989.3315, 4862.510
989.8137, 4859.715
990.2958, 4848.257
990.7779, 4830.116
991.2600, 4807.909
991.7421, 4792.826
992.2242, 4784.505
992.7064, 4785.812
993.1885, 4799.464
993.6706, 4819.759
994.1527, 4840.709
994.6348, 4859.374
995.1169, 4867.705
995.5991, 4861.780
996.0812, 4850.332
996.5633, 4823.644
997.0454, 4803.842
997.5275, 4814.226
998.0096, 4864.387
998.4918, 4892.230
998.9739, 4895.059
999.4560, 4892.382
999.9381, 4897.672
1000.420, 4907.506
1000.902, 4920.774
1001.384, 4935.136
1001.867, 4938.005
1002.349, 4913.908
1002.831, 4890.407
1003.313, 4872.885
1003.795, 4862.341
1004.277, 4863.616
1004.759, 4876.250
1005.241, 4890.119
1005.724, 4904.002
1006.206, 4914.120
1006.688, 4912.456
1007.170, 4907.360
1007.652, 4908.839
1008.134, 4922.384
1008.616, 4933.005
1009.098, 4940.721
1009.580, 4945.038
1010.063, 4943.512
1010.545, 4938.324
1011.027, 4937.675
1011.509, 4941.173
1011.991, 4945.842
1012.473, 4954.869
1012.955, 4959.684
1013.437, 4945.772
1013.919, 4925.852
1014.402, 4936.175
1014.884, 4985.124
1015.366, 5017.837
1015.848, 5020.706
1016.330, 5012.122
1016.812, 5010.432
1017.294, 5015.284
1017.776, 5029.231
1018.259, 5058.359
1018.741, 5073.788
1019.223, 5057.279
1019.705, 5039.631
1020.187, 5037.861
1020.669, 5050.508
1021.151, 5064.288
1021.633, 5078.943
1022.115, 5091.895
1022.598, 5103.825
1023.080, 5111.181
1023.562, 5104.116
1024.044, 5090.811
1024.526, 5094.023
1025.008, 5120.557
1025.490, 5149.181
1025.972, 5180.144
1026.454, 5205.169
1026.937, 5210.477
1027.419, 5202.325
1027.901, 5192.918
1028.383, 5183.791
1028.865, 5177.386
1029.347, 5163.473
1029.829, 5165.174
1030.311, 5200.962
1030.794, 5265.468
1031.276, 5303.938
1031.758, 5316.474
1032.240, 5324.115
1032.722, 5337.502
1033.204, 5350.031
1033.686, 5348.533
1034.168, 5342.754
1034.651, 5351.500
1035.133, 5402.055
1035.615, 5423.594
1036.097, 5402.784
1036.579, 5373.396
1037.061, 5369.747
1037.543, 5386.976
1038.025, 5417.557
1038.507, 5459.802
1038.990, 5488.884
1039.472, 5476.636
1039.954, 5462.201
1040.436, 5466.515
1040.918, 5485.675
1041.400, 5503.078
1041.882, 5519.066
1042.364, 5532.927
1042.846, 5544.357
1043.329, 5553.876
1043.811, 5564.041
1044.293, 5571.673
1044.775, 5570.469
1045.257, 5545.142
1045.739, 5545.080
1046.221, 5583.432
1046.703, 5626.031
1047.186, 5645.187
1047.668, 5647.612
1048.150, 5660.307
1048.632, 5682.189
1049.114, 5703.704
1049.596, 5713.586
1050.078, 5728.330
1050.560, 5767.085
1051.042, 5812.592
1051.525, 5825.229
1052.007, 5800.099
1052.489, 5789.779
1052.971, 5803.967
1053.453, 5830.278
1053.935, 5860.306
1054.417, 5891.904
1054.899, 5925.688
1055.381, 5964.023
1055.864, 5982.506
1056.346, 5968.375
1056.828, 5957.098
1057.310, 5965.931
1057.792, 5988.593
1058.274, 6008.211
1058.756, 6025.679
1059.238, 6044.246
1059.721, 6062.169
1060.203, 6086.080
1060.685, 6119.546
1061.167, 6160.517
1061.649, 6209.573
1062.131, 6269.565
1062.613, 6309.523
1063.095, 6327.302
1063.578, 6344.622
1064.060, 6376.961
1064.542, 6419.569
1065.024, 6468.114
1065.506, 6522.381
1065.988, 6580.544
1066.470, 6637.266
1066.952, 6708.371
1067.434, 6801.106
1067.917, 6903.392
1068.399, 6995.445
1068.881, 7079.326
1069.363, 7155.628
1069.845, 7219.481
1070.327, 7300.756
1070.809, 7424.830
1071.291, 7556.346
1071.773, 7671.634
1072.255, 7774.310
1072.738, 7889.941
1073.220, 8020.057
1073.702, 8168.233
1074.184, 8333.979
1074.666, 8523.020
1075.148, 8738.366
1075.630, 8983.093
1076.112, 9264.648
1076.595, 9581.899
1077.077, 9929.832
1077.559, 10306.42
1078.041, 10714.09
1078.523, 11148.77
1079.005, 11624.66
1079.487, 12170.59
1079.969, 12785.59
1080.452, 13440.85
1080.934, 14104.99
1081.416, 14838.92
1081.898, 15659.70
1082.380, 16565.36
1082.862, 17557.94
1083.344, 18636.79
1083.826, 19795.59
1084.308, 21026.80
1084.791, 22363.65
1085.273, 23824.62
1085.755, 25404.96
1086.237, 27092.29
1086.719, 28896.34
1087.201, 30793.97
1087.683, 32770.51
1088.165, 34834.41
1088.647, 36994.21
1089.130, 39233.64
1089.612, 41637.49
1090.094, 44083.77
1090.576, 46364.22
1091.058, 48576.82
1091.540, 50368.30
1092.022, 51807.30
1092.504, 52604.68
1092.987, 52515.71
1093.469, 51577.52
1093.951, 49723.79
1094.433, 47004.41
1094.915, 43954.58
1095.397, 40479.93
1095.879, 36996.04
1096.361, 33528.74
1096.844, 30195.16
1097.326, 27197.40
1097.808, 24540.86
1098.290, 22195.86
1098.772, 20151.13
1099.254, 18353.00
1099.736, 16826.88
1100.218, 15513.05
1100.700, 14395.16
1101.182, 13453.33
1101.665, 12617.82
1102.147, 11893.16
1102.629, 11235.79
1103.111, 10632.16
1103.593, 10095.09
1104.075, 9664.614
1104.557, 9308.210
1105.039, 8984.293
1105.522, 8696.966
1106.004, 8417.911
1106.486, 8141.749
1106.968, 7892.898
1107.450, 7705.773
1107.932, 7554.329
1108.414, 7390.132
1108.896, 7217.166
1109.379, 7061.381
1109.861, 6942.867
1110.343, 6822.922
1110.825, 6686.290
1111.307, 6554.751
1111.789, 6459.902
1112.271, 6394.675
1112.753, 6332.817
1113.235, 6272.264
1113.718, 6211.948
1114.200, 6146.207
1114.682, 6087.092
1115.164, 6043.940
1115.646, 6010.737
1116.128, 5966.877
1116.610, 5912.500
1117.092, 5857.372
1117.574, 5801.460
1118.057, 5755.331
1118.539, 5740.807
1119.021, 5732.696
1119.503, 5700.616
1119.985, 5638.407
1120.467, 5605.311
1120.949, 5605.353
1121.431, 5611.363
1121.914, 5618.127
1122.396, 5614.351
1122.878, 5570.242
1123.360, 5508.113
1123.842, 5467.413
1124.324, 5476.029
1124.806, 5475.952
1125.288, 5462.786
1125.771, 5449.607
1126.253, 5447.621
1126.735, 5452.971
1127.217, 5458.762
1127.699, 5463.773
1128.181, 5464.269
1128.663, 5456.317
1129.145, 5445.704
1129.627, 5430.646
1130.109, 5417.027
1130.592, 5417.348
1131.074, 5427.209
1131.556, 5423.156
1132.038, 5403.225
1132.520, 5383.141
1133.002, 5370.022
1133.484, 5362.583
1133.966, 5364.160
1134.449, 5369.856
1134.931, 5363.010
1135.413, 5344.589
1135.895, 5333.453
1136.377, 5335.751
1136.859, 5338.008
1137.341, 5323.694
1137.823, 5308.203
1138.306, 5306.898
1138.788, 5319.499
1139.270, 5330.177
1139.752, 5339.083
1140.234, 5343.963
1140.716, 5346.180
1141.198, 5339.770
1141.680, 5304.779
1142.162, 5262.285
1142.645, 5245.316
1143.127, 5273.343
1143.609, 5281.866
1144.091, 5265.918
1144.573, 5249.752
1145.055, 5254.384
1145.537, 5266.434
1146.019, 5260.376
1146.501, 5243.546
1146.984, 5234.465
1147.466, 5246.427
1147.948, 5254.704
1148.430, 5256.811
1148.912, 5256.692
1149.394, 5256.308
1149.876, 5257.021
1150.358, 5263.465
1150.841, 5274.851
1151.323, 5285.560
1151.805, 5297.303
1152.287, 5301.577
1152.769, 5294.058
1153.251, 5281.414
1153.733, 5273.285
1154.215, 5269.385
1154.697, 5267.869
1155.180, 5268.534
1155.662, 5276.118
1156.144, 5304.540
1156.626, 5327.825
1157.108, 5331.684
1157.590, 5324.030
1158.072, 5328.760
1158.554, 5343.895
1159.036, 5356.211
1159.519, 5363.984
1160.001, 5360.832
1160.483, 5332.604
1160.965, 5299.991
1161.447, 5274.664
1161.929, 5257.670
1162.411, 5262.824
1162.893, 5289.098
1163.375, 5304.099
1163.858, 5289.113
1164.340, 5272.236
1164.822, 5281.386
1165.304, 5297.336
1165.786, 5297.612
1166.268, 5279.588
1166.750, 5266.774
1167.232, 5259.296
1167.715, 5255.578
1168.197, 5251.186
1168.679, 5253.677
1169.161, 5279.165
1169.643, 5313.438
1170.125, 5330.647
1170.607, 5323.905
1171.089, 5314.876
1171.572, 5301.490
1172.054, 5299.400
1172.536, 5334.383
1173.018, 5376.399
1173.500, 5389.939
1173.982, 5380.941
1174.464, 5367.963
1174.946, 5347.265
1175.428, 5340.184
1175.911, 5350.891
1176.393, 5365.994
1176.875, 5375.762
1177.357, 5379.446
1177.839, 5374.320
1178.321, 5361.401
1178.803, 5347.002
1179.285, 5321.469
1179.767, 5321.072
1180.250, 5360.152
1180.732, 5405.638
1181.214, 5405.745
1181.696, 5384.949
1182.178, 5389.447
1182.660, 5424.031
1183.142, 5437.268
1183.624, 5404.948
1184.107, 5378.665
1184.589, 5373.874
1185.071, 5379.186
1185.553, 5376.936
1186.035, 5369.136
1186.517, 5356.729
1186.999, 5337.239
1187.481, 5334.493
1187.964, 5368.223
1188.446, 5395.061
1188.928, 5397.784
1189.410, 5383.969
1189.892, 5363.054
1190.374, 5341.221
1190.856, 5336.793
1191.338, 5365.389
1191.820, 5373.858
1192.302, 5325.959
1192.785, 5293.434
1193.267, 5326.044
1193.749, 5395.245
1194.231, 5402.336
1194.713, 5366.107
1195.195, 5342.186
1195.677, 5361.157
1196.159, 5372.299
1196.642, 5356.511
1197.124, 5339.461
1197.606, 5339.511
1198.088, 5352.858
1198.570, 5368.201
1199.052, 5383.200
1199.534, 5388.769
1200.016, 5374.143
1200.499, 5358.214
1200.981, 5342.081
1201.463, 5330.269
1201.945, 5328.192
1202.427, 5334.198
1202.909, 5339.376
1203.391, 5344.465
1203.873, 5354.388
1204.355, 5384.331
1204.838, 5401.534
1205.320, 5389.329
1205.802, 5371.193
1206.284, 5378.909
1206.766, 5404.403
1207.248, 5404.189
1207.730, 5379.366
1208.212, 5361.609
1208.694, 5371.085
1209.177, 5386.499
1209.659, 5407.862
1210.141, 5423.979
1210.623, 5409.578
1211.105, 5374.419
1211.587, 5366.863
1212.069, 5389.637
1212.551, 5411.060
1213.034, 5416.157
1213.516, 5414.734
1213.998, 5407.290
1214.480, 5399.334
1214.962, 5404.885
1215.444, 5419.135
1215.926, 5416.235
1216.408, 5392.772
1216.891, 5387.082
1217.373, 5453.182
1217.855, 5496.955
1218.337, 5477.011
1218.819, 5421.950
1219.301, 5388.068
1219.783, 5372.868
1220.265, 5371.381
1220.747, 5383.445
1221.229, 5398.953
1221.712, 5416.650
1222.194, 5432.676
1222.676, 5445.838
1223.158, 5456.183
1223.640, 5463.292
1224.122, 5468.110
1224.604, 5474.953
1225.086, 5485.902
1225.569, 5491.311
1226.051, 5481.896
1226.533, 5471.781
1227.015, 5464.833
1227.497, 5462.178
1227.979, 5471.034
1228.461, 5486.565
1228.943, 5493.693
1229.426, 5486.018
1229.908, 5481.033
1230.390, 5483.788
1230.872, 5491.764
1231.354, 5507.701
1231.836, 5525.225
1232.318, 5522.774
1232.800, 5507.452
1233.282, 5499.072
1233.765, 5507.256
1234.247, 5508.766
1234.729, 5491.259
1235.211, 5479.364
1235.693, 5488.531
1236.175, 5509.323
1236.657, 5518.389
1237.139, 5519.022
1237.621, 5519.807
1238.104, 5525.515
1238.586, 5524.825
1239.068, 5512.451
1239.550, 5503.373
1240.032, 5508.167
1240.514, 5520.961
1240.996, 5529.201
1241.478, 5534.439
1241.960, 5539.532
1242.443, 5544.925
1242.925, 5550.864
1243.407, 5556.357
1243.889, 5564.951
1244.371, 5584.812
1244.853, 5604.386
1245.335, 5595.958
1245.817, 5572.774
1246.300, 5563.358
1246.782, 5589.368
1247.264, 5599.421
1247.746, 5590.417
1248.228, 5576.658
1248.710, 5566.035
1249.192, 5558.529
1249.674, 5556.968
1250.156, 5558.301
1250.639, 5555.682
1251.121, 5544.275
1251.603, 5540.468
1252.085, 5545.829
1252.567, 5550.847
1253.049, 5542.777
1253.531, 5536.008
1254.013, 5551.713
1254.495, 5578.566
1254.978, 5593.359
1255.460, 5591.723
1255.942, 5588.479
1256.424, 5583.251
1256.906, 5583.197
1257.388, 5603.229
1257.870, 5620.789
1258.352, 5612.021
1258.835, 5589.370
1259.317, 5575.347
1259.799, 5570.349
1260.281, 5575.579
1260.763, 5591.167
1261.245, 5605.609
1261.727, 5617.876
1262.209, 5619.657
1262.692, 5591.390
1263.174, 5557.944
1263.656, 5557.055
1264.138, 5588.598
1264.620, 5606.369
1265.102, 5609.423
1265.584, 5609.599
1266.066, 5610.031
1266.548, 5614.171
1267.031, 5628.051
1267.513, 5642.183
1267.995, 5643.553
1268.477, 5634.381
1268.959, 5629.955
1269.441, 5631.238
1269.923, 5641.160
1270.405, 5674.578
1270.887, 5697.588
1271.370, 5699.341
1271.852, 5692.094
1272.334, 5686.623
1272.816, 5683.739
1273.298, 5691.924
1273.780, 5707.250
1274.262, 5708.307
1274.744, 5670.405
1275.227, 5641.615
1275.709, 5626.122
1276.191, 5625.300
1276.673, 5652.552
1277.155, 5689.622
1277.637, 5699.873
1278.119, 5688.161
1278.601, 5679.285
1279.083, 5677.899
1279.566, 5682.501
1280.048, 5695.201
1280.530, 5704.673
1281.012, 5691.907
1281.494, 5676.064
1281.976, 5682.856
1282.458, 5706.177
1282.940, 5724.082
1283.422, 5736.438
1283.905, 5734.522
1284.387, 5715.561
1284.869, 5701.974
1285.351, 5717.769
1285.833, 5740.883
1286.315, 5755.326
1286.797, 5762.852
1287.279, 5770.522
1287.762, 5779.034
1288.244, 5773.189
1288.726, 5752.442
1289.208, 5734.625
1289.690, 5735.400
1290.172, 5738.687
##END=



