##NAMES=Sohngeite
##RRUFFID=R120117
##IDEAL CHEMISTRY=Ga(OH)_3_
##LOCALITY=Tsumeb, Namibia
##OWNER=RRUFF
##SOURCE=William W. Pinch
##DESCRIPTION=Twinned, pale yellow orthorhombic crystals
##STATUS=The identification of this mineral has been confirmed by single-crystal X-ray diffraction.
##URL=rruff.info/R120117
9.001007e+001, 0.000000e+000
9.049219e+001, 2.850331e+001
9.097430e+001, 2.812837e+001
9.145642e+001, 2.829459e+001
9.193854e+001, 2.893919e+001
9.242065e+001, 2.953931e+001
9.290277e+001, 2.973394e+001
9.338489e+001, 2.957522e+001
9.386700e+001, 2.915361e+001
9.434912e+001, 2.816761e+001
9.483124e+001, 2.703936e+001
9.531335e+001, 2.680204e+001
9.579547e+001, 2.754534e+001
9.627759e+001, 2.853721e+001
9.675970e+001, 2.899381e+001
9.724182e+001, 2.893427e+001
9.772394e+001, 2.867535e+001
9.820605e+001, 2.826868e+001
9.868817e+001, 2.773059e+001
9.917029e+001, 2.727698e+001
9.965240e+001, 2.689870e+001
1.001345e+002, 2.661786e+001
1.006166e+002, 2.651103e+001
1.010988e+002, 2.661003e+001
1.015809e+002, 2.673989e+001
1.020630e+002, 2.685947e+001
1.025451e+002, 2.701755e+001
1.030272e+002, 2.688901e+001
1.035093e+002, 2.630960e+001
1.039915e+002, 2.544336e+001
1.044736e+002, 2.498911e+001
1.049557e+002, 2.513374e+001
1.054378e+002, 2.542669e+001
1.059199e+002, 2.556848e+001
1.064020e+002, 2.550842e+001
1.068842e+002, 2.539277e+001
1.073663e+002, 2.523341e+001
1.078484e+002, 2.503186e+001
1.083305e+002, 2.478578e+001
1.088126e+002, 2.444231e+001
1.092947e+002, 2.408595e+001
1.097769e+002, 2.379449e+001
1.102590e+002, 2.364003e+001
1.107411e+002, 2.347754e+001
1.112232e+002, 2.326017e+001
1.117053e+002, 2.295357e+001
1.121874e+002, 2.274438e+001
1.126696e+002, 2.282738e+001
1.131517e+002, 2.297048e+001
1.136338e+002, 2.287300e+001
1.141159e+002, 2.201923e+001
1.145980e+002, 2.130507e+001
1.150801e+002, 2.113562e+001
1.155623e+002, 2.188005e+001
1.160444e+002, 2.238923e+001
1.165265e+002, 2.210262e+001
1.170086e+002, 2.136157e+001
1.174907e+002, 2.088430e+001
1.179728e+002, 2.115396e+001
1.184550e+002, 2.162296e+001
1.189371e+002, 2.197077e+001
1.194192e+002, 2.220260e+001
1.199013e+002, 2.219123e+001
1.203834e+002, 2.161047e+001
1.208655e+002, 2.063530e+001
1.213477e+002, 1.994781e+001
1.218298e+002, 2.024212e+001
1.223119e+002, 2.091261e+001
1.227940e+002, 2.131460e+001
1.232761e+002, 2.109850e+001
1.237582e+002, 2.068097e+001
1.242404e+002, 2.036396e+001
1.247225e+002, 2.014598e+001
1.252046e+002, 2.000837e+001
1.256867e+002, 1.997905e+001
1.261688e+002, 2.001904e+001
1.266509e+002, 2.005842e+001
1.271331e+002, 2.013525e+001
1.276152e+002, 2.017342e+001
1.280973e+002, 2.002457e+001
1.285794e+002, 1.967690e+001
1.290615e+002, 1.928510e+001
1.295436e+002, 1.898885e+001
1.300258e+002, 1.877949e+001
1.305079e+002, 1.862485e+001
1.309900e+002, 1.848201e+001
1.314721e+002, 1.837898e+001
1.319542e+002, 1.844225e+001
1.324363e+002, 1.871929e+001
1.329185e+002, 1.902589e+001
1.334006e+002, 1.905689e+001
1.338827e+002, 1.881207e+001
1.343648e+002, 1.854398e+001
1.348469e+002, 1.842706e+001
1.353290e+002, 1.844262e+001
1.358112e+002, 1.827221e+001
1.362933e+002, 1.780691e+001
1.367754e+002, 1.725175e+001
1.372575e+002, 1.714343e+001
1.377396e+002, 1.757146e+001
1.382217e+002, 1.804469e+001
1.387039e+002, 1.824749e+001
1.391860e+002, 1.814168e+001
1.396681e+002, 1.803555e+001
1.401502e+002, 1.796633e+001
1.406323e+002, 1.792129e+001
1.411144e+002, 1.785153e+001
1.415966e+002, 1.777390e+001
1.420787e+002, 1.763744e+001
1.425608e+002, 1.736703e+001
1.430429e+002, 1.686805e+001
1.435250e+002, 1.650714e+001
1.440071e+002, 1.636164e+001
1.444893e+002, 1.642506e+001
1.449714e+002, 1.651501e+001
1.454535e+002, 1.666689e+001
1.459356e+002, 1.681016e+001
1.464177e+002, 1.687481e+001
1.468998e+002, 1.683231e+001
1.473820e+002, 1.675657e+001
1.478641e+002, 1.663741e+001
1.483462e+002, 1.645765e+001
1.488283e+002, 1.635805e+001
1.493104e+002, 1.630811e+001
1.497925e+002, 1.635151e+001
1.502747e+002, 1.654816e+001
1.507568e+002, 1.721179e+001
1.512389e+002, 1.770033e+001
1.517210e+002, 1.783428e+001
1.522031e+002, 1.748446e+001
1.526852e+002, 1.719200e+001
1.531674e+002, 1.699697e+001
1.536495e+002, 1.685461e+001
1.541316e+002, 1.669864e+001
1.546137e+002, 1.639898e+001
1.550958e+002, 1.619247e+001
1.555779e+002, 1.617728e+001
1.560601e+002, 1.645983e+001
1.565422e+002, 1.669943e+001
1.570243e+002, 1.676752e+001
1.575064e+002, 1.676329e+001
1.579885e+002, 1.687886e+001
1.584706e+002, 1.732956e+001
1.589528e+002, 1.778193e+001
1.594349e+002, 1.805687e+001
1.599170e+002, 1.796134e+001
1.603991e+002, 1.798208e+001
1.608812e+002, 1.833336e+001
1.613633e+002, 1.891241e+001
1.618455e+002, 1.944945e+001
1.623276e+002, 1.971898e+001
1.628097e+002, 1.999407e+001
1.632918e+002, 2.045243e+001
1.637739e+002, 2.115476e+001
1.642560e+002, 2.201327e+001
1.647382e+002, 2.298995e+001
1.652203e+002, 2.409116e+001
1.657024e+002, 2.534134e+001
1.661845e+002, 2.683206e+001
1.666666e+002, 2.844797e+001
1.671487e+002, 3.006892e+001
1.676309e+002, 3.167541e+001
1.681130e+002, 3.328926e+001
1.685951e+002, 3.483172e+001
1.690772e+002, 3.634220e+001
1.695593e+002, 3.802407e+001
1.700414e+002, 4.027034e+001
1.705236e+002, 4.268560e+001
1.710057e+002, 4.475515e+001
1.714878e+002, 4.589497e+001
1.719699e+002, 4.697610e+001
1.724520e+002, 4.872406e+001
1.729341e+002, 5.111246e+001
1.734163e+002, 5.374187e+001
1.738984e+002, 5.661689e+001
1.743805e+002, 5.952954e+001
1.748626e+002, 6.205157e+001
1.753447e+002, 6.394973e+001
1.758268e+002, 6.547322e+001
1.763090e+002, 6.670657e+001
1.767911e+002, 6.763422e+001
1.772732e+002, 6.881506e+001
1.777553e+002, 7.069312e+001
1.782374e+002, 7.286966e+001
1.787195e+002, 7.476494e+001
1.792017e+002, 7.601517e+001
1.796838e+002, 7.693040e+001
1.801659e+002, 7.790746e+001
1.806480e+002, 7.895790e+001
1.811301e+002, 8.009551e+001
1.816122e+002, 8.132156e+001
1.820944e+002, 8.265678e+001
1.825765e+002, 8.413974e+001
1.830586e+002, 8.586150e+001
1.835407e+002, 8.772912e+001
1.840228e+002, 8.959940e+001
1.845049e+002, 9.143269e+001
1.849871e+002, 9.338522e+001
1.854692e+002, 9.581074e+001
1.859513e+002, 9.860648e+001
1.864334e+002, 1.010759e+002
1.869155e+002, 1.027072e+002
1.873976e+002, 1.037519e+002
1.878798e+002, 1.051037e+002
1.883619e+002, 1.068349e+002
1.888440e+002, 1.086887e+002
1.893261e+002, 1.102900e+002
1.898082e+002, 1.116651e+002
1.902903e+002, 1.129578e+002
1.907725e+002, 1.142439e+002
1.912546e+002, 1.155279e+002
1.917367e+002, 1.167626e+002
1.922188e+002, 1.179916e+002
1.927009e+002, 1.190798e+002
1.931830e+002, 1.196596e+002
1.936652e+002, 1.197268e+002
1.941473e+002, 1.198530e+002
1.946294e+002, 1.203849e+002
1.951115e+002, 1.212891e+002
1.955936e+002, 1.222638e+002
1.960757e+002, 1.234463e+002
1.965579e+002, 1.244334e+002
1.970400e+002, 1.242392e+002
1.975221e+002, 1.227607e+002
1.980042e+002, 1.212411e+002
1.984863e+002, 1.203823e+002
1.989684e+002, 1.201945e+002
1.994506e+002, 1.200220e+002
1.999327e+002, 1.198163e+002
2.004148e+002, 1.196133e+002
2.008969e+002, 1.195128e+002
2.013790e+002, 1.195339e+002
2.018611e+002, 1.195527e+002
2.023433e+002, 1.194693e+002
2.028254e+002, 1.192674e+002
2.033075e+002, 1.191613e+002
2.037896e+002, 1.191668e+002
2.042717e+002, 1.192752e+002
2.047538e+002, 1.194816e+002
2.052360e+002, 1.197993e+002
2.057181e+002, 1.201560e+002
2.062002e+002, 1.204873e+002
2.066823e+002, 1.207691e+002
2.071644e+002, 1.211787e+002
2.076465e+002, 1.217679e+002
2.081287e+002, 1.224685e+002
2.086108e+002, 1.230891e+002
2.090929e+002, 1.236007e+002
2.095750e+002, 1.241118e+002
2.100571e+002, 1.246646e+002
2.105392e+002, 1.252460e+002
2.110214e+002, 1.259569e+002
2.115035e+002, 1.268711e+002
2.119856e+002, 1.278996e+002
2.124677e+002, 1.287352e+002
2.129498e+002, 1.293038e+002
2.134319e+002, 1.298587e+002
2.139140e+002, 1.306051e+002
2.143962e+002, 1.316565e+002
2.148783e+002, 1.324958e+002
2.153604e+002, 1.330171e+002
2.158425e+002, 1.333036e+002
2.163246e+002, 1.336441e+002
2.168067e+002, 1.340160e+002
2.172889e+002, 1.344871e+002
2.177710e+002, 1.351623e+002
2.182531e+002, 1.362033e+002
2.187352e+002, 1.369707e+002
2.192173e+002, 1.374125e+002
2.196994e+002, 1.375420e+002
2.201816e+002, 1.373183e+002
2.206637e+002, 1.363941e+002
2.211458e+002, 1.356983e+002
2.216279e+002, 1.359290e+002
2.221100e+002, 1.375770e+002
2.225921e+002, 1.388483e+002
2.230743e+002, 1.395502e+002
2.235564e+002, 1.397680e+002
2.240385e+002, 1.399147e+002
2.245206e+002, 1.399875e+002
2.250027e+002, 1.399964e+002
2.254848e+002, 1.398555e+002
2.259670e+002, 1.392358e+002
2.264491e+002, 1.393112e+002
2.269312e+002, 1.404442e+002
2.274133e+002, 1.423654e+002
2.278954e+002, 1.438260e+002
2.283775e+002, 1.446460e+002
2.288597e+002, 1.452327e+002
2.293418e+002, 1.457880e+002
2.298239e+002, 1.462412e+002
2.303060e+002, 1.468180e+002
2.307881e+002, 1.475239e+002
2.312702e+002, 1.483625e+002
2.317524e+002, 1.493610e+002
2.322345e+002, 1.506530e+002
2.327166e+002, 1.518905e+002
2.331987e+002, 1.528411e+002
2.336808e+002, 1.533761e+002
2.341629e+002, 1.538736e+002
2.346451e+002, 1.542112e+002
2.351272e+002, 1.545161e+002
2.356093e+002, 1.554261e+002
2.360914e+002, 1.573696e+002
2.365735e+002, 1.593288e+002
2.370556e+002, 1.606871e+002
2.375378e+002, 1.610316e+002
2.380199e+002, 1.616789e+002
2.385020e+002, 1.627164e+002
2.389841e+002, 1.641147e+002
2.394662e+002, 1.657490e+002
2.399483e+002, 1.678327e+002
2.404305e+002, 1.698741e+002
2.409126e+002, 1.716160e+002
2.413947e+002, 1.729084e+002
2.418768e+002, 1.742227e+002
2.423589e+002, 1.754638e+002
2.428410e+002, 1.767414e+002
2.433232e+002, 1.785212e+002
2.438053e+002, 1.810514e+002
2.442874e+002, 1.837336e+002
2.447695e+002, 1.862333e+002
2.452516e+002, 1.884405e+002
2.457337e+002, 1.907336e+002
2.462159e+002, 1.931156e+002
2.466980e+002, 1.955964e+002
2.471801e+002, 1.981824e+002
2.476622e+002, 2.009938e+002
2.481443e+002, 2.037593e+002
2.486264e+002, 2.062909e+002
2.491086e+002, 2.084290e+002
2.495907e+002, 2.107657e+002
2.500728e+002, 2.134297e+002
2.505549e+002, 2.162658e+002
2.510370e+002, 2.188080e+002
2.515191e+002, 2.207788e+002
2.520013e+002, 2.229102e+002
2.524834e+002, 2.255976e+002
2.529655e+002, 2.290682e+002
2.534476e+002, 2.324766e+002
2.539297e+002, 2.359989e+002
2.544118e+002, 2.393790e+002
2.548940e+002, 2.420042e+002
2.553761e+002, 2.433516e+002
2.558582e+002, 2.448795e+002
2.563403e+002, 2.472686e+002
2.568224e+002, 2.508725e+002
2.573046e+002, 2.541446e+002
2.577867e+002, 2.570660e+002
2.582688e+002, 2.596313e+002
2.587509e+002, 2.617800e+002
2.592330e+002, 2.633794e+002
2.597151e+002, 2.647815e+002
2.601973e+002, 2.661742e+002
2.606794e+002, 2.676388e+002
2.611615e+002, 2.686431e+002
2.616436e+002, 2.692335e+002
2.621257e+002, 2.693216e+002
2.626078e+002, 2.687155e+002
2.630900e+002, 2.673286e+002
2.635721e+002, 2.654858e+002
2.640542e+002, 2.632936e+002
2.645363e+002, 2.607108e+002
2.650184e+002, 2.578867e+002
2.655005e+002, 2.547439e+002
2.659827e+002, 2.514105e+002
2.664648e+002, 2.479766e+002
2.669469e+002, 2.444248e+002
2.674290e+002, 2.408893e+002
2.679111e+002, 2.373280e+002
2.683932e+002, 2.337375e+002
2.688754e+002, 2.304218e+002
2.693575e+002, 2.274467e+002
2.698396e+002, 2.246393e+002
2.703217e+002, 2.218743e+002
2.708038e+002, 2.192077e+002
2.712859e+002, 2.163631e+002
2.717681e+002, 2.131639e+002
2.722502e+002, 2.096458e+002
2.727323e+002, 2.065677e+002
2.732144e+002, 2.040497e+002
2.736965e+002, 2.018326e+002
2.741786e+002, 1.996958e+002
2.746608e+002, 1.976299e+002
2.751429e+002, 1.955973e+002
2.756250e+002, 1.936015e+002
2.761071e+002, 1.916432e+002
2.765892e+002, 1.896133e+002
2.770714e+002, 1.875099e+002
2.775535e+002, 1.854327e+002
2.780356e+002, 1.834597e+002
2.785177e+002, 1.815847e+002
2.789998e+002, 1.798642e+002
2.794819e+002, 1.783134e+002
2.799641e+002, 1.769175e+002
2.804462e+002, 1.757739e+002
2.809283e+002, 1.749630e+002
2.814104e+002, 1.740400e+002
2.818925e+002, 1.725314e+002
2.823746e+002, 1.704289e+002
2.828568e+002, 1.684762e+002
2.833389e+002, 1.668568e+002
2.838210e+002, 1.654218e+002
2.843031e+002, 1.637590e+002
2.847852e+002, 1.618530e+002
2.852673e+002, 1.598329e+002
2.857495e+002, 1.577591e+002
2.862316e+002, 1.556336e+002
2.867137e+002, 1.533806e+002
2.871958e+002, 1.508536e+002
2.876779e+002, 1.483987e+002
2.881600e+002, 1.469247e+002
2.886422e+002, 1.464467e+002
2.891243e+002, 1.459219e+002
2.896064e+002, 1.444970e+002
2.900885e+002, 1.423863e+002
2.905706e+002, 1.407707e+002
2.910527e+002, 1.397782e+002
2.915349e+002, 1.392490e+002
2.920170e+002, 1.391452e+002
2.924991e+002, 1.394148e+002
2.929812e+002, 1.394865e+002
2.934633e+002, 1.386428e+002
2.939454e+002, 1.373176e+002
2.944276e+002, 1.370649e+002
2.949097e+002, 1.381218e+002
2.953918e+002, 1.395709e+002
2.958739e+002, 1.401909e+002
2.963560e+002, 1.401489e+002
2.968381e+002, 1.402628e+002
2.973203e+002, 1.410654e+002
2.978024e+002, 1.422591e+002
2.982845e+002, 1.432418e+002
2.987666e+002, 1.439936e+002
2.992487e+002, 1.446608e+002
2.997308e+002, 1.453078e+002
3.002130e+002, 1.459872e+002
3.006951e+002, 1.468380e+002
3.011772e+002, 1.479560e+002
3.016593e+002, 1.492520e+002
3.021414e+002, 1.506089e+002
3.026235e+002, 1.520162e+002
3.031057e+002, 1.535514e+002
3.035878e+002, 1.553317e+002
3.040699e+002, 1.572722e+002
3.045520e+002, 1.591743e+002
3.050341e+002, 1.608850e+002
3.055162e+002, 1.626070e+002
3.059984e+002, 1.645181e+002
3.064805e+002, 1.666117e+002
3.069626e+002, 1.689688e+002
3.074447e+002, 1.716430e+002
3.079268e+002, 1.745989e+002
3.084089e+002, 1.777496e+002
3.088911e+002, 1.810609e+002
3.093732e+002, 1.845845e+002
3.098553e+002, 1.883927e+002
3.103374e+002, 1.924393e+002
3.108195e+002, 1.966585e+002
3.113016e+002, 2.006884e+002
3.117838e+002, 2.049776e+002
3.122659e+002, 2.100210e+002
3.127480e+002, 2.160455e+002
3.132301e+002, 2.224648e+002
3.137122e+002, 2.282749e+002
3.141943e+002, 2.342815e+002
3.146765e+002, 2.420631e+002
3.151586e+002, 2.528477e+002
3.156407e+002, 2.652211e+002
3.161228e+002, 2.785257e+002
3.166049e+002, 2.926538e+002
3.170870e+002, 3.075607e+002
3.175692e+002, 3.230956e+002
3.180513e+002, 3.393125e+002
3.185334e+002, 3.562026e+002
3.190155e+002, 3.741999e+002
3.194976e+002, 3.925045e+002
3.199797e+002, 4.108365e+002
3.204619e+002, 4.292286e+002
3.209440e+002, 4.470674e+002
3.214261e+002, 4.634381e+002
3.219082e+002, 4.793218e+002
3.223903e+002, 4.955794e+002
3.228724e+002, 5.122332e+002
3.233546e+002, 5.294251e+002
3.238367e+002, 5.471242e+002
3.243188e+002, 5.653353e+002
3.248009e+002, 5.843531e+002
3.252830e+002, 6.030662e+002
3.257651e+002, 6.231212e+002
3.262473e+002, 6.455421e+002
3.267294e+002, 6.702913e+002
3.272115e+002, 6.975733e+002
3.276936e+002, 7.267253e+002
3.281757e+002, 7.580302e+002
3.286578e+002, 7.941375e+002
3.291400e+002, 8.362443e+002
3.296221e+002, 8.822001e+002
3.301042e+002, 9.315341e+002
3.305863e+002, 9.849824e+002
3.310684e+002, 1.040999e+003
3.315505e+002, 1.100513e+003
3.320327e+002, 1.162114e+003
3.325148e+002, 1.222581e+003
3.329969e+002, 1.285913e+003
3.334790e+002, 1.342960e+003
3.339611e+002, 1.393497e+003
3.344432e+002, 1.440970e+003
3.349254e+002, 1.468252e+003
3.354075e+002, 1.475977e+003
3.358896e+002, 1.462678e+003
3.363717e+002, 1.424271e+003
3.368538e+002, 1.355855e+003
3.373359e+002, 1.274349e+003
3.378180e+002, 1.181031e+003
3.383001e+002, 1.076615e+003
3.387823e+002, 9.778269e+002
3.392644e+002, 8.846672e+002
3.397465e+002, 7.992200e+002
3.402286e+002, 7.238627e+002
3.407107e+002, 6.596469e+002
3.411928e+002, 6.030043e+002
3.416750e+002, 5.549852e+002
3.421571e+002, 5.142147e+002
3.426392e+002, 4.786622e+002
3.431213e+002, 4.482774e+002
3.436034e+002, 4.217257e+002
3.440855e+002, 3.980102e+002
3.445677e+002, 3.772873e+002
3.450498e+002, 3.585827e+002
3.455319e+002, 3.419762e+002
3.460140e+002, 3.272807e+002
3.464961e+002, 3.145052e+002
3.469782e+002, 3.036495e+002
3.474604e+002, 2.934958e+002
3.479425e+002, 2.834580e+002
3.484246e+002, 2.736024e+002
3.489067e+002, 2.644799e+002
3.493888e+002, 2.560974e+002
3.498709e+002, 2.485348e+002
3.503531e+002, 2.422160e+002
3.508352e+002, 2.368921e+002
3.513173e+002, 2.316653e+002
3.517994e+002, 2.257123e+002
3.522815e+002, 2.197106e+002
3.527636e+002, 2.149303e+002
3.532458e+002, 2.113682e+002
3.537279e+002, 2.080391e+002
3.542100e+002, 2.039965e+002
3.546921e+002, 1.996331e+002
3.551742e+002, 1.956571e+002
3.556563e+002, 1.924028e+002
3.561385e+002, 1.894399e+002
3.566206e+002, 1.863748e+002
3.571027e+002, 1.832221e+002
3.575848e+002, 1.801454e+002
3.580669e+002, 1.771233e+002
3.585490e+002, 1.742489e+002
3.590312e+002, 1.716207e+002
3.595133e+002, 1.692401e+002
3.599954e+002, 1.670868e+002
3.604775e+002, 1.652841e+002
3.609596e+002, 1.636907e+002
3.614417e+002, 1.620352e+002
3.619239e+002, 1.599187e+002
3.624060e+002, 1.579160e+002
3.628881e+002, 1.564529e+002
3.633702e+002, 1.557074e+002
3.638523e+002, 1.547763e+002
3.643344e+002, 1.532357e+002
3.648166e+002, 1.514010e+002
3.652987e+002, 1.496167e+002
3.657808e+002, 1.478060e+002
3.662629e+002, 1.462593e+002
3.667450e+002, 1.451468e+002
3.672271e+002, 1.444659e+002
3.677093e+002, 1.437624e+002
3.681914e+002, 1.427400e+002
3.686735e+002, 1.418297e+002
3.691556e+002, 1.413130e+002
3.696377e+002, 1.418754e+002
3.701198e+002, 1.419915e+002
3.706020e+002, 1.414253e+002
3.710841e+002, 1.403449e+002
3.715662e+002, 1.393425e+002
3.720483e+002, 1.383570e+002
3.725304e+002, 1.375331e+002
3.730125e+002, 1.369106e+002
3.734947e+002, 1.364455e+002
3.739768e+002, 1.363931e+002
3.744589e+002, 1.371143e+002
3.749410e+002, 1.379587e+002
3.754231e+002, 1.377574e+002
3.759052e+002, 1.360803e+002
3.763874e+002, 1.345721e+002
3.768695e+002, 1.337905e+002
3.773516e+002, 1.337098e+002
3.778337e+002, 1.334765e+002
3.783158e+002, 1.330358e+002
3.787979e+002, 1.325948e+002
3.792801e+002, 1.323870e+002
3.797622e+002, 1.324229e+002
3.802443e+002, 1.324462e+002
3.807264e+002, 1.323993e+002
3.812085e+002, 1.323151e+002
3.816906e+002, 1.322661e+002
3.821728e+002, 1.322507e+002
3.826549e+002, 1.322901e+002
3.831370e+002, 1.324955e+002
3.836191e+002, 1.327857e+002
3.841012e+002, 1.327760e+002
3.845833e+002, 1.323513e+002
3.850655e+002, 1.318704e+002
3.855476e+002, 1.318790e+002
3.860297e+002, 1.322581e+002
3.865118e+002, 1.325802e+002
3.869939e+002, 1.324560e+002
3.874760e+002, 1.322290e+002
3.879582e+002, 1.324939e+002
3.884403e+002, 1.332699e+002
3.889224e+002, 1.340282e+002
3.894045e+002, 1.342705e+002
3.898866e+002, 1.342416e+002
3.903687e+002, 1.342906e+002
3.908509e+002, 1.346127e+002
3.913330e+002, 1.349633e+002
3.918151e+002, 1.352155e+002
3.922972e+002, 1.353649e+002
3.927793e+002, 1.353972e+002
3.932614e+002, 1.351120e+002
3.937436e+002, 1.348297e+002
3.942257e+002, 1.348197e+002
3.947078e+002, 1.352893e+002
3.951899e+002, 1.356344e+002
3.956720e+002, 1.355192e+002
3.961541e+002, 1.351635e+002
3.966363e+002, 1.349211e+002
3.971184e+002, 1.349494e+002
3.976005e+002, 1.350359e+002
3.980826e+002, 1.351089e+002
3.985647e+002, 1.351583e+002
3.990468e+002, 1.352479e+002
3.995290e+002, 1.355058e+002
4.000111e+002, 1.357377e+002
4.004932e+002, 1.357845e+002
4.009753e+002, 1.354170e+002
4.014574e+002, 1.351741e+002
4.019395e+002, 1.351518e+002
4.024217e+002, 1.353019e+002
4.029038e+002, 1.353930e+002
4.033859e+002, 1.353740e+002
4.038680e+002, 1.353724e+002
4.043501e+002, 1.355135e+002
4.048322e+002, 1.359601e+002
4.053144e+002, 1.358750e+002
4.057965e+002, 1.349370e+002
4.062786e+002, 1.338497e+002
4.067607e+002, 1.339078e+002
4.072428e+002, 1.353507e+002
4.077249e+002, 1.366301e+002
4.082071e+002, 1.371756e+002
4.086892e+002, 1.371045e+002
4.091713e+002, 1.370893e+002
4.096534e+002, 1.371192e+002
4.101355e+002, 1.372692e+002
4.106176e+002, 1.377217e+002
4.110998e+002, 1.384032e+002
4.115819e+002, 1.388652e+002
4.120640e+002, 1.389880e+002
4.125461e+002, 1.389067e+002
4.130282e+002, 1.387883e+002
4.135103e+002, 1.386432e+002
4.139925e+002, 1.385301e+002
4.144746e+002, 1.386053e+002
4.149567e+002, 1.386927e+002
4.154388e+002, 1.384979e+002
4.159209e+002, 1.379802e+002
4.164030e+002, 1.373321e+002
4.168852e+002, 1.365714e+002
4.173673e+002, 1.358077e+002
4.178494e+002, 1.352154e+002
4.183315e+002, 1.351111e+002
4.188136e+002, 1.349908e+002
4.192957e+002, 1.344790e+002
4.197779e+002, 1.336322e+002
4.202600e+002, 1.327914e+002
4.207421e+002, 1.319644e+002
4.212242e+002, 1.312989e+002
4.217063e+002, 1.309823e+002
4.221884e+002, 1.314011e+002
4.226706e+002, 1.314860e+002
4.231527e+002, 1.306564e+002
4.236348e+002, 1.293551e+002
4.241169e+002, 1.284130e+002
4.245990e+002, 1.282796e+002
4.250811e+002, 1.281938e+002
4.255633e+002, 1.278560e+002
4.260454e+002, 1.271765e+002
4.265275e+002, 1.268531e+002
4.270096e+002, 1.271068e+002
4.274917e+002, 1.275349e+002
4.279738e+002, 1.278275e+002
4.284560e+002, 1.280118e+002
4.289381e+002, 1.279822e+002
4.294202e+002, 1.276319e+002
4.299023e+002, 1.270789e+002
4.303844e+002, 1.267102e+002
4.308665e+002, 1.265560e+002
4.313487e+002, 1.265080e+002
4.318308e+002, 1.265132e+002
4.323129e+002, 1.265699e+002
4.327950e+002, 1.267234e+002
4.332771e+002, 1.269855e+002
4.337592e+002, 1.273184e+002
4.342414e+002, 1.277277e+002
4.347235e+002, 1.282009e+002
4.352056e+002, 1.285505e+002
4.356877e+002, 1.285774e+002
4.361698e+002, 1.285414e+002
4.366519e+002, 1.290685e+002
4.371341e+002, 1.301378e+002
4.376162e+002, 1.313149e+002
4.380983e+002, 1.323921e+002
4.385804e+002, 1.333458e+002
4.390625e+002, 1.340401e+002
4.395446e+002, 1.343267e+002
4.400268e+002, 1.347852e+002
4.405089e+002, 1.361957e+002
4.409910e+002, 1.381575e+002
4.414731e+002, 1.398274e+002
4.419552e+002, 1.405692e+002
4.424373e+002, 1.411154e+002
4.429195e+002, 1.419715e+002
4.434016e+002, 1.431442e+002
4.438837e+002, 1.442346e+002
4.443658e+002, 1.449165e+002
4.448479e+002, 1.455403e+002
4.453300e+002, 1.463712e+002
4.458122e+002, 1.475445e+002
4.462943e+002, 1.488243e+002
4.467764e+002, 1.502591e+002
4.472585e+002, 1.517791e+002
4.477406e+002, 1.532064e+002
4.482227e+002, 1.545547e+002
4.487049e+002, 1.557802e+002
4.491870e+002, 1.567878e+002
4.496691e+002, 1.574603e+002
4.501512e+002, 1.586074e+002
4.506333e+002, 1.604637e+002
4.511154e+002, 1.625268e+002
4.515976e+002, 1.643776e+002
4.520797e+002, 1.660510e+002
4.525618e+002, 1.673514e+002
4.530439e+002, 1.682448e+002
4.535260e+002, 1.687465e+002
4.540081e+002, 1.689140e+002
4.544903e+002, 1.687280e+002
4.549724e+002, 1.683366e+002
4.554545e+002, 1.680366e+002
4.559366e+002, 1.677023e+002
4.564187e+002, 1.662898e+002
4.569008e+002, 1.636878e+002
4.573830e+002, 1.604874e+002
4.578651e+002, 1.573688e+002
4.583472e+002, 1.542437e+002
4.588293e+002, 1.509575e+002
4.593114e+002, 1.472408e+002
4.597935e+002, 1.435199e+002
4.602757e+002, 1.403017e+002
4.607578e+002, 1.375335e+002
4.612399e+002, 1.348793e+002
4.617220e+002, 1.320445e+002
4.622041e+002, 1.292677e+002
4.626862e+002, 1.268265e+002
4.631684e+002, 1.248043e+002
4.636505e+002, 1.229503e+002
4.641326e+002, 1.210541e+002
4.646147e+002, 1.193039e+002
4.650968e+002, 1.179151e+002
4.655789e+002, 1.174904e+002
4.660611e+002, 1.169349e+002
4.665432e+002, 1.157803e+002
4.670253e+002, 1.140955e+002
4.675074e+002, 1.126627e+002
4.679895e+002, 1.116283e+002
4.684716e+002, 1.108229e+002
4.689538e+002, 1.102046e+002
4.694359e+002, 1.099540e+002
4.699180e+002, 1.094898e+002
4.704001e+002, 1.086309e+002
4.708822e+002, 1.076761e+002
4.713643e+002, 1.071079e+002
4.718465e+002, 1.070765e+002
4.723286e+002, 1.069829e+002
4.728107e+002, 1.066266e+002
4.732928e+002, 1.060782e+002
4.737749e+002, 1.057861e+002
4.742570e+002, 1.058121e+002
4.747392e+002, 1.057728e+002
4.752213e+002, 1.053015e+002
4.757034e+002, 1.044711e+002
4.761855e+002, 1.037823e+002
4.766676e+002, 1.032989e+002
4.771497e+002, 1.029264e+002
4.776319e+002, 1.024874e+002
4.781140e+002, 1.020456e+002
4.785961e+002, 1.018183e+002
4.790782e+002, 1.021994e+002
4.795603e+002, 1.026607e+002
4.800424e+002, 1.024514e+002
4.805246e+002, 1.016572e+002
4.810067e+002, 1.009857e+002
4.814888e+002, 1.010371e+002
4.819709e+002, 1.013207e+002
4.824530e+002, 1.013563e+002
4.829352e+002, 1.008712e+002
4.834173e+002, 1.005853e+002
4.838994e+002, 1.010386e+002
4.843815e+002, 1.018133e+002
4.848636e+002, 1.022692e+002
4.853457e+002, 1.019822e+002
4.858279e+002, 1.016482e+002
4.863100e+002, 1.013974e+002
4.867921e+002, 1.012382e+002
4.872742e+002, 1.012456e+002
4.877563e+002, 1.016206e+002
4.882384e+002, 1.019618e+002
4.887206e+002, 1.020319e+002
4.892027e+002, 1.017221e+002
4.896848e+002, 1.014263e+002
4.901669e+002, 1.011072e+002
4.906490e+002, 1.008508e+002
4.911311e+002, 1.008203e+002
4.916133e+002, 1.010481e+002
4.920954e+002, 1.012859e+002
4.925775e+002, 1.014782e+002
4.930596e+002, 1.016161e+002
4.935417e+002, 1.016627e+002
4.940238e+002, 1.016162e+002
4.945060e+002, 1.015183e+002
4.949881e+002, 1.013063e+002
4.954702e+002, 1.010694e+002
4.959523e+002, 1.010581e+002
4.964344e+002, 1.013369e+002
4.969165e+002, 1.016888e+002
4.973987e+002, 1.018792e+002
4.978808e+002, 1.019895e+002
4.983629e+002, 1.021699e+002
4.988450e+002, 1.026558e+002
4.993271e+002, 1.030878e+002
4.998092e+002, 1.031989e+002
5.002914e+002, 1.030328e+002
5.007735e+002, 1.028244e+002
5.012556e+002, 1.025513e+002
5.017377e+002, 1.023485e+002
5.022198e+002, 1.023316e+002
5.027019e+002, 1.026464e+002
5.031841e+002, 1.028018e+002
5.036662e+002, 1.026113e+002
5.041483e+002, 1.022837e+002
5.046304e+002, 1.020605e+002
5.051125e+002, 1.019866e+002
5.055946e+002, 1.019515e+002
5.060768e+002, 1.019642e+002
5.065589e+002, 1.020041e+002
5.070410e+002, 1.019360e+002
5.075231e+002, 1.016830e+002
5.080052e+002, 1.015341e+002
5.084873e+002, 1.017234e+002
5.089695e+002, 1.022525e+002
5.094516e+002, 1.025273e+002
5.099337e+002, 1.025108e+002
5.104158e+002, 1.023761e+002
5.108979e+002, 1.022701e+002
5.113800e+002, 1.022025e+002
5.118622e+002, 1.022421e+002
5.123443e+002, 1.024734e+002
5.128264e+002, 1.027215e+002
5.133085e+002, 1.027086e+002
5.137906e+002, 1.025006e+002
5.142728e+002, 1.023331e+002
5.147549e+002, 1.024993e+002
5.152370e+002, 1.026603e+002
5.157191e+002, 1.024477e+002
5.162012e+002, 1.018124e+002
5.166833e+002, 1.012740e+002
5.171655e+002, 1.010844e+002
5.176476e+002, 1.010887e+002
5.181297e+002, 1.011563e+002
5.186118e+002, 1.013213e+002
5.190939e+002, 1.014728e+002
5.195760e+002, 1.016617e+002
5.200582e+002, 1.018202e+002
5.205403e+002, 1.017881e+002
5.210224e+002, 1.013785e+002
5.215045e+002, 1.010394e+002
5.219866e+002, 1.009074e+002
5.224688e+002, 1.009817e+002
5.229509e+002, 1.010276e+002
5.234330e+002, 1.010314e+002
5.239151e+002, 1.010366e+002
5.243972e+002, 1.011239e+002
5.248793e+002, 1.012972e+002
5.253615e+002, 1.012398e+002
5.258436e+002, 1.008652e+002
5.263257e+002, 1.004103e+002
5.268078e+002, 1.002198e+002
5.272899e+002, 1.002609e+002
5.277720e+002, 1.003983e+002
5.282542e+002, 1.007155e+002
5.287363e+002, 1.009914e+002
5.292184e+002, 1.008087e+002
5.297005e+002, 1.002582e+002
5.301826e+002, 9.982650e+001
5.306647e+002, 9.992418e+001
5.311469e+002, 1.002048e+002
5.316290e+002, 1.003944e+002
5.321111e+002, 1.004579e+002
5.325932e+002, 1.004137e+002
5.330753e+002, 1.001797e+002
5.335574e+002, 9.988255e+001
5.340396e+002, 9.965786e+001
5.345217e+002, 9.967344e+001
5.350038e+002, 9.959272e+001
5.354859e+002, 9.931236e+001
5.359680e+002, 9.889937e+001
5.364501e+002, 9.854504e+001
5.369323e+002, 9.819065e+001
5.374144e+002, 9.799895e+001
5.378965e+002, 9.808251e+001
5.383786e+002, 9.844927e+001
5.388607e+002, 9.869350e+001
5.393428e+002, 9.880380e+001
5.398250e+002, 9.881657e+001
5.403071e+002, 9.872494e+001
5.407892e+002, 9.854317e+001
5.412713e+002, 9.839397e+001
5.417534e+002, 9.828624e+001
5.422355e+002, 9.824392e+001
5.427177e+002, 9.839892e+001
5.431998e+002, 9.866648e+001
5.436819e+002, 9.877188e+001
5.441640e+002, 9.831196e+001
5.446461e+002, 9.782634e+001
5.451282e+002, 9.792508e+001
5.456104e+002, 9.851586e+001
5.460925e+002, 9.901787e+001
5.465746e+002, 9.908031e+001
5.470567e+002, 9.898615e+001
5.475388e+002, 9.891846e+001
5.480209e+002, 9.891409e+001
5.485031e+002, 9.889860e+001
5.489852e+002, 9.875144e+001
5.494673e+002, 9.863520e+001
5.499494e+002, 9.873797e+001
5.504315e+002, 9.940820e+001
5.509136e+002, 9.973547e+001
5.513958e+002, 9.944638e+001
5.518779e+002, 9.879687e+001
5.523600e+002, 9.859341e+001
5.528421e+002, 9.895698e+001
5.533242e+002, 9.933455e+001
5.538063e+002, 9.948129e+001
5.542885e+002, 9.943172e+001
5.547706e+002, 9.945214e+001
5.552527e+002, 9.954427e+001
5.557348e+002, 9.969060e+001
5.562169e+002, 9.995414e+001
5.566990e+002, 1.002576e+002
5.571812e+002, 1.003630e+002
5.576633e+002, 1.001786e+002
5.581454e+002, 1.000077e+002
5.586275e+002, 1.002082e+002
5.591096e+002, 1.006179e+002
5.595917e+002, 1.009545e+002
5.600739e+002, 1.011209e+002
5.605560e+002, 1.011679e+002
5.610381e+002, 1.010326e+002
5.615202e+002, 1.007716e+002
5.620023e+002, 1.006237e+002
5.624844e+002, 1.006925e+002
5.629666e+002, 1.008492e+002
5.634487e+002, 1.010756e+002
5.639308e+002, 1.014126e+002
5.644129e+002, 1.015992e+002
5.648950e+002, 1.016102e+002
5.653771e+002, 1.014959e+002
5.658593e+002, 1.012338e+002
5.663414e+002, 1.007212e+002
5.668235e+002, 1.005367e+002
5.673056e+002, 1.008341e+002
5.677877e+002, 1.013303e+002
5.682698e+002, 1.014609e+002
5.687520e+002, 1.012532e+002
5.692341e+002, 1.011531e+002
5.697162e+002, 1.014626e+002
5.701983e+002, 1.018980e+002
5.706804e+002, 1.018420e+002
5.711625e+002, 1.013701e+002
5.716447e+002, 1.009989e+002
5.721268e+002, 1.012051e+002
5.726089e+002, 1.015961e+002
5.730910e+002, 1.017768e+002
5.735731e+002, 1.016801e+002
5.740552e+002, 1.015697e+002
5.745374e+002, 1.015533e+002
5.750195e+002, 1.015856e+002
5.755016e+002, 1.016240e+002
5.759837e+002, 1.016837e+002
5.764658e+002, 1.017149e+002
5.769479e+002, 1.016037e+002
5.774301e+002, 1.014823e+002
5.779122e+002, 1.016459e+002
5.783943e+002, 1.023076e+002
5.788764e+002, 1.028223e+002
5.793585e+002, 1.029827e+002
5.798406e+002, 1.028374e+002
5.803228e+002, 1.027039e+002
5.808049e+002, 1.025695e+002
5.812870e+002, 1.025270e+002
5.817691e+002, 1.026523e+002
5.822512e+002, 1.029256e+002
5.827333e+002, 1.033370e+002
5.832155e+002, 1.039160e+002
5.836975e+002, 1.043616e+002
5.841796e+002, 1.042781e+002
5.846617e+002, 1.039059e+002
5.851439e+002, 1.036286e+002
5.856260e+002, 1.035145e+002
5.861081e+002, 1.035895e+002
5.865902e+002, 1.041243e+002
5.870723e+002, 1.048354e+002
5.875544e+002, 1.051687e+002
5.880366e+002, 1.044119e+002
5.885187e+002, 1.038205e+002
5.890008e+002, 1.039774e+002
5.894829e+002, 1.048299e+002
5.899650e+002, 1.051882e+002
5.904471e+002, 1.046521e+002
5.909293e+002, 1.041356e+002
5.914114e+002, 1.041211e+002
5.918935e+002, 1.047072e+002
5.923756e+002, 1.050808e+002
5.928577e+002, 1.052271e+002
5.933398e+002, 1.051995e+002
5.938220e+002, 1.049447e+002
5.943041e+002, 1.045133e+002
5.947862e+002, 1.043211e+002
5.952683e+002, 1.044889e+002
5.957504e+002, 1.048032e+002
5.962325e+002, 1.050823e+002
5.967147e+002, 1.052944e+002
5.971968e+002, 1.053524e+002
5.976789e+002, 1.049828e+002
5.981610e+002, 1.046460e+002
5.986431e+002, 1.048089e+002
5.991252e+002, 1.053438e+002
5.996074e+002, 1.056524e+002
6.000895e+002, 1.052425e+002
6.005716e+002, 1.047954e+002
6.010537e+002, 1.047103e+002
6.015358e+002, 1.051598e+002
6.020179e+002, 1.052349e+002
6.025001e+002, 1.045117e+002
6.029822e+002, 1.038235e+002
6.034643e+002, 1.039058e+002
6.039464e+002, 1.051044e+002
6.044285e+002, 1.056560e+002
6.049106e+002, 1.053010e+002
6.053928e+002, 1.045613e+002
6.058749e+002, 1.042000e+002
6.063570e+002, 1.041949e+002
6.068391e+002, 1.042731e+002
6.073212e+002, 1.043730e+002
6.078033e+002, 1.044835e+002
6.082855e+002, 1.046131e+002
6.087676e+002, 1.047448e+002
6.092497e+002, 1.048215e+002
6.097318e+002, 1.048477e+002
6.102139e+002, 1.047771e+002
6.106960e+002, 1.044611e+002
6.111782e+002, 1.039128e+002
6.116603e+002, 1.036069e+002
6.121424e+002, 1.038696e+002
6.126245e+002, 1.043083e+002
6.131066e+002, 1.046945e+002
6.135887e+002, 1.050323e+002
6.140709e+002, 1.052793e+002
6.145530e+002, 1.054607e+002
6.150351e+002, 1.055339e+002
6.155172e+002, 1.054446e+002
6.159993e+002, 1.051670e+002
6.164814e+002, 1.048067e+002
6.169636e+002, 1.042978e+002
6.174457e+002, 1.038349e+002
6.179278e+002, 1.039199e+002
6.184099e+002, 1.044901e+002
6.188920e+002, 1.048995e+002
6.193741e+002, 1.048068e+002
6.198563e+002, 1.044559e+002
6.203384e+002, 1.041337e+002
6.208205e+002, 1.038503e+002
6.213026e+002, 1.036607e+002
6.217847e+002, 1.034912e+002
6.222668e+002, 1.035021e+002
6.227490e+002, 1.039600e+002
6.232311e+002, 1.049515e+002
6.237132e+002, 1.056040e+002
6.241953e+002, 1.054914e+002
6.246774e+002, 1.050932e+002
6.251595e+002, 1.047362e+002
6.256417e+002, 1.044178e+002
6.261238e+002, 1.041659e+002
6.266059e+002, 1.039864e+002
6.270880e+002, 1.038736e+002
6.275701e+002, 1.038440e+002
6.280522e+002, 1.039104e+002
6.285344e+002, 1.039377e+002
6.290165e+002, 1.038883e+002
6.294986e+002, 1.037980e+002
6.299807e+002, 1.037098e+002
6.304628e+002, 1.036320e+002
6.309449e+002, 1.036127e+002
6.314271e+002, 1.036964e+002
6.319092e+002, 1.038338e+002
6.323913e+002, 1.040422e+002
6.328734e+002, 1.042876e+002
6.333555e+002, 1.043671e+002
6.338376e+002, 1.039449e+002
6.343198e+002, 1.035085e+002
6.348019e+002, 1.033988e+002
6.352840e+002, 1.037387e+002
6.357661e+002, 1.039221e+002
6.362482e+002, 1.037520e+002
6.367303e+002, 1.035205e+002
6.372125e+002, 1.034375e+002
6.376946e+002, 1.035890e+002
6.381767e+002, 1.036376e+002
6.386588e+002, 1.035540e+002
6.391409e+002, 1.033974e+002
6.396230e+002, 1.032030e+002
6.401052e+002, 1.029813e+002
6.405873e+002, 1.029237e+002
6.410694e+002, 1.031466e+002
6.415515e+002, 1.034414e+002
6.420336e+002, 1.034429e+002
6.425157e+002, 1.032459e+002
6.429979e+002, 1.031264e+002
6.434800e+002, 1.033563e+002
6.439621e+002, 1.035992e+002
6.444442e+002, 1.035410e+002
6.449263e+002, 1.032463e+002
6.454084e+002, 1.031129e+002
6.458906e+002, 1.033551e+002
6.463727e+002, 1.037133e+002
6.468548e+002, 1.040770e+002
6.473369e+002, 1.044364e+002
6.478190e+002, 1.048601e+002
6.483011e+002, 1.054664e+002
6.487833e+002, 1.059548e+002
6.492654e+002, 1.060090e+002
6.497475e+002, 1.055747e+002
6.502296e+002, 1.054026e+002
6.507117e+002, 1.055549e+002
6.511938e+002, 1.058855e+002
6.516760e+002, 1.063209e+002
6.521581e+002, 1.067962e+002
6.526402e+002, 1.070530e+002
6.531223e+002, 1.068870e+002
6.536044e+002, 1.067728e+002
6.540865e+002, 1.073191e+002
6.545687e+002, 1.082048e+002
6.550508e+002, 1.088142e+002
6.555329e+002, 1.084674e+002
6.560150e+002, 1.082738e+002
6.564971e+002, 1.087493e+002
6.569792e+002, 1.097699e+002
6.574614e+002, 1.106586e+002
6.579435e+002, 1.114312e+002
6.584256e+002, 1.119974e+002
6.589077e+002, 1.122280e+002
6.593898e+002, 1.121488e+002
6.598719e+002, 1.124685e+002
6.603541e+002, 1.132654e+002
6.608362e+002, 1.140899e+002
6.613183e+002, 1.145199e+002
6.618004e+002, 1.147020e+002
6.622825e+002, 1.153369e+002
6.627646e+002, 1.164900e+002
6.632468e+002, 1.176145e+002
6.637289e+002, 1.182082e+002
6.642110e+002, 1.184919e+002
6.646931e+002, 1.187083e+002
6.651752e+002, 1.188157e+002
6.656573e+002, 1.191219e+002
6.661395e+002, 1.199832e+002
6.666216e+002, 1.210379e+002
6.671037e+002, 1.218409e+002
6.675858e+002, 1.220657e+002
6.680679e+002, 1.223665e+002
6.685500e+002, 1.227672e+002
6.690322e+002, 1.232815e+002
6.695143e+002, 1.239789e+002
6.699964e+002, 1.249267e+002
6.704785e+002, 1.257353e+002
6.709606e+002, 1.262498e+002
6.714427e+002, 1.265702e+002
6.719249e+002, 1.269809e+002
6.724070e+002, 1.274644e+002
6.728891e+002, 1.278705e+002
6.733712e+002, 1.279743e+002
6.738533e+002, 1.280301e+002
6.743354e+002, 1.285063e+002
6.748176e+002, 1.293387e+002
6.752997e+002, 1.297631e+002
6.757818e+002, 1.289928e+002
6.762639e+002, 1.279979e+002
6.767460e+002, 1.274218e+002
6.772281e+002, 1.275236e+002
6.777103e+002, 1.273200e+002
6.781924e+002, 1.266211e+002
6.786745e+002, 1.257677e+002
6.791566e+002, 1.249765e+002
6.796387e+002, 1.242360e+002
6.801208e+002, 1.235999e+002
6.806030e+002, 1.230597e+002
6.810851e+002, 1.226340e+002
6.815672e+002, 1.224212e+002
6.820493e+002, 1.223527e+002
6.825314e+002, 1.221209e+002
6.830135e+002, 1.216324e+002
6.834957e+002, 1.210056e+002
6.839778e+002, 1.203333e+002
6.844599e+002, 1.196159e+002
6.849420e+002, 1.188813e+002
6.854241e+002, 1.178817e+002
6.859063e+002, 1.171226e+002
6.863884e+002, 1.170544e+002
6.868705e+002, 1.174128e+002
6.873526e+002, 1.172469e+002
6.878347e+002, 1.159615e+002
6.883168e+002, 1.149615e+002
6.887990e+002, 1.147588e+002
6.892811e+002, 1.151878e+002
6.897632e+002, 1.151292e+002
6.902453e+002, 1.145270e+002
6.907274e+002, 1.138353e+002
6.912095e+002, 1.132805e+002
6.916917e+002, 1.128466e+002
6.921738e+002, 1.124656e+002
6.926559e+002, 1.121435e+002
6.931380e+002, 1.119300e+002
6.936201e+002, 1.120040e+002
6.941022e+002, 1.121189e+002
6.945844e+002, 1.119800e+002
6.950665e+002, 1.114937e+002
6.955486e+002, 1.111357e+002
6.960307e+002, 1.113107e+002
6.965128e+002, 1.115202e+002
6.969949e+002, 1.113480e+002
6.974771e+002, 1.105017e+002
6.979592e+002, 1.098734e+002
6.984413e+002, 1.094793e+002
6.989234e+002, 1.092928e+002
6.994055e+002, 1.094347e+002
6.998876e+002, 1.099204e+002
7.003698e+002, 1.098927e+002
7.008519e+002, 1.090866e+002
7.013340e+002, 1.080462e+002
7.018161e+002, 1.074825e+002
7.022982e+002, 1.072932e+002
7.027803e+002, 1.072337e+002
7.032625e+002, 1.073851e+002
7.037446e+002, 1.074263e+002
7.042267e+002, 1.069845e+002
7.047088e+002, 1.062822e+002
7.051909e+002, 1.058113e+002
7.056730e+002, 1.059817e+002
7.061552e+002, 1.060824e+002
7.066373e+002, 1.058391e+002
7.071194e+002, 1.053701e+002
7.076015e+002, 1.052622e+002
7.080836e+002, 1.056236e+002
7.085657e+002, 1.060172e+002
7.090479e+002, 1.062840e+002
7.095300e+002, 1.064367e+002
7.100121e+002, 1.065451e+002
7.104942e+002, 1.066057e+002
7.109763e+002, 1.065605e+002
7.114584e+002, 1.062317e+002
7.119406e+002, 1.058487e+002
7.124227e+002, 1.057359e+002
7.129048e+002, 1.059017e+002
7.133869e+002, 1.060596e+002
7.138690e+002, 1.061871e+002
7.143511e+002, 1.061751e+002
7.148333e+002, 1.059041e+002
7.153154e+002, 1.052195e+002
7.157975e+002, 1.047655e+002
7.162796e+002, 1.046626e+002
7.167617e+002, 1.046469e+002
7.172438e+002, 1.045109e+002
7.177260e+002, 1.042460e+002
7.182081e+002, 1.039763e+002
7.186902e+002, 1.037053e+002
7.191723e+002, 1.034600e+002
7.196544e+002, 1.031578e+002
7.201365e+002, 1.029146e+002
7.206187e+002, 1.031161e+002
7.211008e+002, 1.040380e+002
7.215829e+002, 1.048330e+002
7.220650e+002, 1.047723e+002
7.225471e+002, 1.042308e+002
7.230292e+002, 1.037080e+002
7.235114e+002, 1.030812e+002
7.239935e+002, 1.028201e+002
7.244756e+002, 1.032675e+002
7.249577e+002, 1.040189e+002
7.254398e+002, 1.044056e+002
7.259219e+002, 1.043402e+002
7.264041e+002, 1.041370e+002
7.268862e+002, 1.037924e+002
7.273683e+002, 1.034247e+002
7.278504e+002, 1.033868e+002
7.283325e+002, 1.036311e+002
7.288146e+002, 1.038387e+002
7.292968e+002, 1.038382e+002
7.297789e+002, 1.037505e+002
7.302610e+002, 1.036397e+002
7.307431e+002, 1.035447e+002
7.312252e+002, 1.035947e+002
7.317073e+002, 1.041157e+002
7.321895e+002, 1.045327e+002
7.326716e+002, 1.044887e+002
7.331537e+002, 1.040222e+002
7.336358e+002, 1.038440e+002
7.341179e+002, 1.041627e+002
7.346000e+002, 1.044097e+002
7.350822e+002, 1.042959e+002
7.355643e+002, 1.038743e+002
7.360464e+002, 1.037062e+002
7.365285e+002, 1.038046e+002
7.370106e+002, 1.039079e+002
7.374927e+002, 1.037405e+002
7.379749e+002, 1.034885e+002
7.384570e+002, 1.035388e+002
7.389391e+002, 1.038984e+002
7.394212e+002, 1.041689e+002
7.399033e+002, 1.040291e+002
7.403854e+002, 1.037730e+002
7.408676e+002, 1.035714e+002
7.413497e+002, 1.034030e+002
7.418318e+002, 1.034848e+002
7.423139e+002, 1.040278e+002
7.427960e+002, 1.045888e+002
7.432781e+002, 1.048996e+002
7.437603e+002, 1.049583e+002
7.442424e+002, 1.046702e+002
7.447245e+002, 1.039186e+002
7.452066e+002, 1.032946e+002
7.456887e+002, 1.036892e+002
7.461708e+002, 1.046778e+002
7.466530e+002, 1.050550e+002
7.471351e+002, 1.045029e+002
7.476172e+002, 1.039408e+002
7.480993e+002, 1.041457e+002
7.485814e+002, 1.046692e+002
7.490635e+002, 1.049998e+002
7.495457e+002, 1.048097e+002
7.500278e+002, 1.047674e+002
7.505099e+002, 1.049884e+002
7.509920e+002, 1.053715e+002
7.514741e+002, 1.058709e+002
7.519562e+002, 1.065848e+002
7.524384e+002, 1.069377e+002
7.529205e+002, 1.067749e+002
7.534026e+002, 1.063747e+002
7.538847e+002, 1.061442e+002
7.543668e+002, 1.060535e+002
7.548489e+002, 1.059769e+002
7.553311e+002, 1.058501e+002
7.558132e+002, 1.057729e+002
7.562953e+002, 1.058270e+002
7.567774e+002, 1.059949e+002
7.572595e+002, 1.062445e+002
7.577416e+002, 1.066938e+002
7.582238e+002, 1.070792e+002
7.587059e+002, 1.074040e+002
7.591880e+002, 1.076197e+002
7.596701e+002, 1.075520e+002
7.601522e+002, 1.070330e+002
7.606343e+002, 1.068114e+002
7.611165e+002, 1.071963e+002
7.615986e+002, 1.078739e+002
7.620807e+002, 1.080293e+002
7.625628e+002, 1.077451e+002
7.630449e+002, 1.074989e+002
7.635270e+002, 1.074614e+002
7.640092e+002, 1.076059e+002
7.644913e+002, 1.080404e+002
7.649734e+002, 1.086538e+002
7.654555e+002, 1.091086e+002
7.659376e+002, 1.091539e+002
7.664197e+002, 1.091483e+002
7.669019e+002, 1.092065e+002
7.673840e+002, 1.093135e+002
7.678661e+002, 1.094018e+002
7.683482e+002, 1.094795e+002
7.688303e+002, 1.095042e+002
7.693124e+002, 1.094042e+002
7.697946e+002, 1.092563e+002
7.702767e+002, 1.094303e+002
7.707588e+002, 1.098794e+002
7.712409e+002, 1.101662e+002
7.717230e+002, 1.096811e+002
7.722051e+002, 1.091483e+002
7.726873e+002, 1.093941e+002
7.731694e+002, 1.103346e+002
7.736515e+002, 1.111960e+002
7.741336e+002, 1.119821e+002
7.746157e+002, 1.123595e+002
7.750978e+002, 1.119433e+002
7.755800e+002, 1.107888e+002
7.760621e+002, 1.104070e+002
7.765442e+002, 1.110145e+002
7.770263e+002, 1.117856e+002
7.775084e+002, 1.123108e+002
7.779905e+002, 1.126256e+002
7.784727e+002, 1.128611e+002
7.789548e+002, 1.130192e+002
7.794369e+002, 1.131443e+002
7.799190e+002, 1.132457e+002
7.804011e+002, 1.133419e+002
7.808832e+002, 1.134684e+002
7.813654e+002, 1.136240e+002
7.818475e+002, 1.137266e+002
7.823296e+002, 1.137210e+002
7.828117e+002, 1.136764e+002
7.832938e+002, 1.135691e+002
7.837759e+002, 1.133644e+002
7.842581e+002, 1.135621e+002
7.847402e+002, 1.142856e+002
7.852223e+002, 1.150271e+002
7.857044e+002, 1.153651e+002
7.861865e+002, 1.154272e+002
7.866686e+002, 1.158591e+002
7.871508e+002, 1.166721e+002
7.876329e+002, 1.172097e+002
7.881150e+002, 1.165750e+002
7.885971e+002, 1.156912e+002
7.890792e+002, 1.155277e+002
7.895613e+002, 1.162717e+002
7.900435e+002, 1.168905e+002
7.905256e+002, 1.167769e+002
7.910077e+002, 1.168016e+002
7.914898e+002, 1.175754e+002
7.919719e+002, 1.193141e+002
7.924540e+002, 1.200818e+002
7.929362e+002, 1.196580e+002
7.934183e+002, 1.191113e+002
7.939004e+002, 1.194332e+002
7.943825e+002, 1.203261e+002
7.948646e+002, 1.209738e+002
7.953467e+002, 1.213223e+002
7.958289e+002, 1.215081e+002
7.963110e+002, 1.215254e+002
7.967931e+002, 1.214957e+002
7.972752e+002, 1.214863e+002
7.977573e+002, 1.214673e+002
7.982394e+002, 1.216677e+002
7.987216e+002, 1.222164e+002
7.992037e+002, 1.228714e+002
7.996858e+002, 1.235682e+002
8.001679e+002, 1.243784e+002
8.006500e+002, 1.245681e+002
8.011321e+002, 1.240441e+002
8.016143e+002, 1.235070e+002
8.020964e+002, 1.236774e+002
8.025785e+002, 1.242622e+002
8.030606e+002, 1.247120e+002
8.035427e+002, 1.249580e+002
8.040248e+002, 1.251651e+002
8.045070e+002, 1.253412e+002
8.049891e+002, 1.255809e+002
8.054712e+002, 1.259719e+002
8.059533e+002, 1.265897e+002
8.064354e+002, 1.271714e+002
8.069175e+002, 1.277725e+002
8.073997e+002, 1.282513e+002
8.078818e+002, 1.284685e+002
8.083639e+002, 1.284278e+002
8.088460e+002, 1.283537e+002
8.093281e+002, 1.282412e+002
8.098102e+002, 1.282460e+002
8.102924e+002, 1.286313e+002
8.107745e+002, 1.291652e+002
8.112566e+002, 1.295320e+002
8.117387e+002, 1.296774e+002
8.122208e+002, 1.297634e+002
8.127029e+002, 1.296697e+002
8.131851e+002, 1.296849e+002
8.136672e+002, 1.300926e+002
8.141493e+002, 1.310911e+002
8.146314e+002, 1.315521e+002
8.151135e+002, 1.312861e+002
8.155956e+002, 1.309460e+002
8.160778e+002, 1.311017e+002
8.165599e+002, 1.316423e+002
8.170420e+002, 1.320877e+002
8.175241e+002, 1.324126e+002
8.180062e+002, 1.326119e+002
8.184883e+002, 1.326513e+002
8.189705e+002, 1.325836e+002
8.194526e+002, 1.324092e+002
8.199347e+002, 1.320956e+002
8.204168e+002, 1.319374e+002
8.208989e+002, 1.321232e+002
8.213810e+002, 1.323646e+002
8.218632e+002, 1.325101e+002
8.223453e+002, 1.325426e+002
8.228274e+002, 1.327118e+002
8.233095e+002, 1.330587e+002
8.237916e+002, 1.332906e+002
8.242737e+002, 1.330635e+002
8.247559e+002, 1.325879e+002
8.252380e+002, 1.322666e+002
8.257201e+002, 1.321279e+002
8.262022e+002, 1.320936e+002
8.266843e+002, 1.322745e+002
8.271664e+002, 1.324233e+002
8.276486e+002, 1.323260e+002
8.281307e+002, 1.319074e+002
8.286128e+002, 1.316566e+002
8.290949e+002, 1.315728e+002
8.295770e+002, 1.316597e+002
8.300591e+002, 1.320454e+002
8.305413e+002, 1.326671e+002
8.310234e+002, 1.327737e+002
8.315055e+002, 1.323699e+002
8.319876e+002, 1.319064e+002
8.324697e+002, 1.317338e+002
8.329518e+002, 1.316497e+002
8.334340e+002, 1.313854e+002
8.339161e+002, 1.309474e+002
8.343982e+002, 1.306284e+002
8.348803e+002, 1.306409e+002
8.353624e+002, 1.306881e+002
8.358445e+002, 1.306200e+002
8.363267e+002, 1.304464e+002
8.368088e+002, 1.304734e+002
8.372909e+002, 1.308110e+002
8.377730e+002, 1.308353e+002
8.382551e+002, 1.298939e+002
8.387372e+002, 1.284826e+002
8.392194e+002, 1.278985e+002
8.397015e+002, 1.280415e+002
8.401836e+002, 1.283295e+002
8.406657e+002, 1.287432e+002
8.411478e+002, 1.289138e+002
8.416299e+002, 1.283682e+002
8.421121e+002, 1.272267e+002
8.425942e+002, 1.266574e+002
8.430763e+002, 1.271194e+002
8.435584e+002, 1.274427e+002
8.440405e+002, 1.272545e+002
8.445226e+002, 1.266493e+002
8.450048e+002, 1.258912e+002
8.454869e+002, 1.249998e+002
8.459690e+002, 1.242864e+002
8.464511e+002, 1.239871e+002
8.469332e+002, 1.238853e+002
8.474153e+002, 1.238490e+002
8.478975e+002, 1.238276e+002
8.483796e+002, 1.236768e+002
8.488617e+002, 1.232709e+002
8.493438e+002, 1.228087e+002
8.498259e+002, 1.222321e+002
8.503080e+002, 1.216713e+002
8.507902e+002, 1.215525e+002
8.512723e+002, 1.219787e+002
8.517544e+002, 1.222432e+002
8.522365e+002, 1.221567e+002
8.527186e+002, 1.217866e+002
8.532007e+002, 1.209948e+002
8.536829e+002, 1.200095e+002
8.541650e+002, 1.194606e+002
8.546471e+002, 1.199993e+002
8.551292e+002, 1.205003e+002
8.556113e+002, 1.203787e+002
8.560934e+002, 1.198654e+002
8.565756e+002, 1.193796e+002
8.570577e+002, 1.189364e+002
8.575398e+002, 1.185290e+002
8.580219e+002, 1.181374e+002
8.585040e+002, 1.177978e+002
8.589861e+002, 1.175792e+002
8.594683e+002, 1.174699e+002
8.599504e+002, 1.174231e+002
8.604325e+002, 1.174376e+002
8.609146e+002, 1.174780e+002
8.613967e+002, 1.176145e+002
8.618788e+002, 1.177136e+002
8.623610e+002, 1.176004e+002
8.628431e+002, 1.170868e+002
8.633252e+002, 1.166165e+002
8.638073e+002, 1.161942e+002
8.642894e+002, 1.158663e+002
8.647715e+002, 1.157007e+002
8.652537e+002, 1.157056e+002
8.657358e+002, 1.157614e+002
8.662179e+002, 1.158758e+002
8.667000e+002, 1.159455e+002
8.671821e+002, 1.159107e+002
8.676642e+002, 1.157490e+002
8.681464e+002, 1.153383e+002
8.686285e+002, 1.145871e+002
8.691106e+002, 1.140993e+002
8.695927e+002, 1.143261e+002
8.700748e+002, 1.147146e+002
8.705569e+002, 1.148844e+002
8.710391e+002, 1.147831e+002
8.715212e+002, 1.148250e+002
8.720033e+002, 1.150486e+002
8.724854e+002, 1.152435e+002
8.729675e+002, 1.152860e+002
8.734496e+002, 1.151682e+002
8.739318e+002, 1.147288e+002
8.744139e+002, 1.140106e+002
8.748960e+002, 1.135489e+002
8.753781e+002, 1.138377e+002
8.758602e+002, 1.143273e+002
8.763423e+002, 1.147728e+002
8.768245e+002, 1.151405e+002
8.773066e+002, 1.152373e+002
8.777887e+002, 1.149678e+002
8.782708e+002, 1.146525e+002
8.787529e+002, 1.144013e+002
8.792350e+002, 1.142177e+002
8.797172e+002, 1.141002e+002
8.801993e+002, 1.140538e+002
8.806814e+002, 1.140817e+002
8.811635e+002, 1.142140e+002
8.816456e+002, 1.143979e+002
8.821277e+002, 1.146066e+002
8.826099e+002, 1.148345e+002
8.830920e+002, 1.150678e+002
8.835741e+002, 1.153192e+002
8.840562e+002, 1.155521e+002
8.845383e+002, 1.157848e+002
8.850204e+002, 1.159725e+002
8.855026e+002, 1.159798e+002
8.859847e+002, 1.158186e+002
8.864668e+002, 1.157103e+002
8.869489e+002, 1.157351e+002
8.874310e+002, 1.157926e+002
8.879131e+002, 1.157201e+002
8.883953e+002, 1.156244e+002
8.888774e+002, 1.156670e+002
8.893595e+002, 1.159310e+002
8.898416e+002, 1.162987e+002
8.903237e+002, 1.169797e+002
8.908058e+002, 1.175686e+002
8.912880e+002, 1.175100e+002
8.917701e+002, 1.167188e+002
8.922522e+002, 1.164511e+002
8.927343e+002, 1.168657e+002
8.932164e+002, 1.174623e+002
8.936985e+002, 1.177337e+002
8.941807e+002, 1.178458e+002
8.946628e+002, 1.180306e+002
8.951449e+002, 1.183215e+002
8.956270e+002, 1.186933e+002
8.961091e+002, 1.193524e+002
8.965912e+002, 1.198972e+002
8.970734e+002, 1.200179e+002
8.975555e+002, 1.196482e+002
8.980376e+002, 1.197021e+002
8.985197e+002, 1.202215e+002
8.990018e+002, 1.209188e+002
8.994839e+002, 1.216784e+002
8.999661e+002, 1.224414e+002
9.004482e+002, 1.230617e+002
9.009303e+002, 1.235666e+002
9.014124e+002, 1.241046e+002
9.018945e+002, 1.247392e+002
9.023766e+002, 1.254386e+002
9.028588e+002, 1.261796e+002
9.033409e+002, 1.269689e+002
9.038230e+002, 1.279183e+002
9.043051e+002, 1.290890e+002
9.047872e+002, 1.301979e+002
9.052693e+002, 1.311487e+002
9.057515e+002, 1.320017e+002
9.062336e+002, 1.327344e+002
9.067157e+002, 1.334698e+002
9.071978e+002, 1.345762e+002
9.076799e+002, 1.365316e+002
9.081620e+002, 1.384711e+002
9.086442e+002, 1.398936e+002
9.091263e+002, 1.411036e+002
9.096084e+002, 1.426234e+002
9.100905e+002, 1.445611e+002
9.105726e+002, 1.465663e+002
9.110547e+002, 1.486697e+002
9.115369e+002, 1.507656e+002
9.120190e+002, 1.526293e+002
9.125011e+002, 1.543864e+002
9.129832e+002, 1.563953e+002
9.134653e+002, 1.587292e+002
9.139474e+002, 1.612417e+002
9.144296e+002, 1.640070e+002
9.149117e+002, 1.667979e+002
9.153938e+002, 1.693826e+002
9.158759e+002, 1.716598e+002
9.163580e+002, 1.741357e+002
9.168401e+002, 1.768651e+002
9.173223e+002, 1.796498e+002
9.178044e+002, 1.823669e+002
9.182865e+002, 1.850162e+002
9.187686e+002, 1.877289e+002
9.192507e+002, 1.904881e+002
9.197328e+002, 1.931280e+002
9.202150e+002, 1.954388e+002
9.206971e+002, 1.976968e+002
9.211792e+002, 2.003101e+002
9.216613e+002, 2.031481e+002
9.221434e+002, 2.051818e+002
9.226255e+002, 2.061212e+002
9.231077e+002, 2.069536e+002
9.235898e+002, 2.080161e+002
9.240719e+002, 2.090870e+002
9.245540e+002, 2.096577e+002
9.250361e+002, 2.097898e+002
9.255182e+002, 2.097561e+002
9.260004e+002, 2.098286e+002
9.264825e+002, 2.094744e+002
9.269646e+002, 2.082295e+002
9.274467e+002, 2.063788e+002
9.279288e+002, 2.043673e+002
9.284109e+002, 2.024185e+002
9.288931e+002, 1.999040e+002
9.293752e+002, 1.967122e+002
9.298573e+002, 1.931626e+002
9.303394e+002, 1.894284e+002
9.308215e+002, 1.856242e+002
9.313036e+002, 1.821079e+002
9.317858e+002, 1.789353e+002
9.322679e+002, 1.756899e+002
9.327500e+002, 1.718316e+002
9.332321e+002, 1.679394e+002
9.337142e+002, 1.643999e+002
9.341964e+002, 1.613303e+002
9.346785e+002, 1.581216e+002
9.351606e+002, 1.545669e+002
9.356427e+002, 1.514604e+002
9.361248e+002, 1.494722e+002
9.366069e+002, 1.481925e+002
9.370891e+002, 1.463121e+002
9.375712e+002, 1.439192e+002
9.380533e+002, 1.415776e+002
9.385354e+002, 1.394182e+002
9.390175e+002, 1.375660e+002
9.394996e+002, 1.362290e+002
9.399818e+002, 1.352677e+002
9.404639e+002, 1.343053e+002
9.409460e+002, 1.333301e+002
9.414281e+002, 1.323775e+002
9.419102e+002, 1.314835e+002
9.423923e+002, 1.305686e+002
9.428745e+002, 1.294317e+002
9.433566e+002, 1.281647e+002
9.438387e+002, 1.270603e+002
9.443208e+002, 1.262085e+002
9.448029e+002, 1.254946e+002
9.452850e+002, 1.249710e+002
9.457672e+002, 1.244770e+002
9.462493e+002, 1.238244e+002
9.467314e+002, 1.229123e+002
9.472135e+002, 1.222873e+002
9.476956e+002, 1.220343e+002
9.481777e+002, 1.217868e+002
9.486599e+002, 1.211875e+002
9.491420e+002, 1.204082e+002
9.496241e+002, 1.199378e+002
9.501062e+002, 1.197380e+002
9.505883e+002, 1.194135e+002
9.510704e+002, 1.184678e+002
9.515526e+002, 1.176173e+002
9.520347e+002, 1.173720e+002
9.525168e+002, 1.175427e+002
9.529989e+002, 1.174166e+002
9.534810e+002, 1.169320e+002
9.539631e+002, 1.164322e+002
9.544453e+002, 1.159964e+002
9.549274e+002, 1.156300e+002
9.554095e+002, 1.154278e+002
9.558916e+002, 1.152918e+002
9.563737e+002, 1.149819e+002
9.568558e+002, 1.142297e+002
9.573380e+002, 1.136624e+002
9.578201e+002, 1.136845e+002
9.583022e+002, 1.138605e+002
9.587843e+002, 1.137789e+002
9.592664e+002, 1.133854e+002
9.597485e+002, 1.130265e+002
9.602307e+002, 1.127103e+002
9.607128e+002, 1.124523e+002
9.611949e+002, 1.122612e+002
9.616770e+002, 1.121400e+002
9.621591e+002, 1.120564e+002
9.626412e+002, 1.120177e+002
9.631234e+002, 1.121828e+002
9.636055e+002, 1.130262e+002
9.640876e+002, 1.136048e+002
9.645697e+002, 1.135269e+002
9.650518e+002, 1.129337e+002
9.655339e+002, 1.124192e+002
9.660161e+002, 1.119807e+002
9.664982e+002, 1.115710e+002
9.669803e+002, 1.111263e+002
9.674624e+002, 1.107748e+002
9.679445e+002, 1.107852e+002
9.684266e+002, 1.109609e+002
9.689088e+002, 1.109771e+002
9.693909e+002, 1.104736e+002
9.698730e+002, 1.102117e+002
9.703551e+002, 1.103493e+002
9.708372e+002, 1.105960e+002
9.713193e+002, 1.106468e+002
9.718015e+002, 1.105241e+002
9.722836e+002, 1.104186e+002
9.727657e+002, 1.103452e+002
9.732478e+002, 1.103376e+002
9.737299e+002, 1.105090e+002
9.742120e+002, 1.106935e+002
9.746942e+002, 1.107524e+002
9.751763e+002, 1.106723e+002
9.756584e+002, 1.105397e+002
9.761405e+002, 1.102751e+002
9.766226e+002, 1.101542e+002
9.771047e+002, 1.103687e+002
9.775869e+002, 1.107187e+002
9.780690e+002, 1.104637e+002
9.785511e+002, 1.098195e+002
9.790332e+002, 1.096195e+002
9.795153e+002, 1.106079e+002
9.799974e+002, 1.115210e+002
9.804796e+002, 1.117214e+002
9.809617e+002, 1.114112e+002
9.814438e+002, 1.108239e+002
9.819259e+002, 1.096675e+002
9.824080e+002, 1.092358e+002
9.828901e+002, 1.097162e+002
9.833723e+002, 1.104305e+002
9.838544e+002, 1.106520e+002
9.843365e+002, 1.106409e+002
9.848186e+002, 1.110281e+002
9.853007e+002, 1.118437e+002
9.857828e+002, 1.122488e+002
9.862650e+002, 1.115206e+002
9.867471e+002, 1.106639e+002
9.872292e+002, 1.100660e+002
9.877113e+002, 1.097162e+002
9.881934e+002, 1.095877e+002
9.886755e+002, 1.096857e+002
9.891577e+002, 1.098572e+002
9.896398e+002, 1.100242e+002
9.901219e+002, 1.102642e+002
9.906040e+002, 1.108820e+002
9.910861e+002, 1.115805e+002
9.915682e+002, 1.118496e+002
9.920504e+002, 1.110381e+002
9.925325e+002, 1.105743e+002
9.930146e+002, 1.106745e+002
9.934967e+002, 1.109979e+002
9.939788e+002, 1.112743e+002
9.944609e+002, 1.115004e+002
9.949431e+002, 1.116379e+002
9.954252e+002, 1.116860e+002
9.959073e+002, 1.116750e+002
9.963894e+002, 1.115058e+002
9.968715e+002, 1.113900e+002
9.973536e+002, 1.116055e+002
9.978358e+002, 1.121019e+002
9.983179e+002, 1.121758e+002
9.988000e+002, 1.115841e+002
9.992821e+002, 1.111960e+002
9.997642e+002, 1.113316e+002
1.000246e+003, 1.117128e+002
1.000728e+003, 1.116873e+002
1.001211e+003, 1.114514e+002
1.001693e+003, 1.115678e+002
1.002175e+003, 1.125137e+002
1.002657e+003, 1.131622e+002
1.003139e+003, 1.128093e+002
1.003621e+003, 1.120741e+002
1.004103e+003, 1.114638e+002
1.004585e+003, 1.109298e+002
1.005068e+003, 1.108265e+002
1.005550e+003, 1.111696e+002
1.006032e+003, 1.117756e+002
1.006514e+003, 1.128548e+002
1.006996e+003, 1.138911e+002
1.007478e+003, 1.141044e+002
1.007960e+003, 1.136196e+002
1.008442e+003, 1.132865e+002
1.008924e+003, 1.134503e+002
1.009407e+003, 1.136534e+002
1.009889e+003, 1.138255e+002
1.010371e+003, 1.139686e+002
1.010853e+003, 1.140693e+002
1.011335e+003, 1.141410e+002
1.011817e+003, 1.142710e+002
1.012299e+003, 1.145003e+002
1.012781e+003, 1.147123e+002
1.013263e+003, 1.148176e+002
1.013746e+003, 1.148708e+002
1.014228e+003, 1.149440e+002
1.014710e+003, 1.150775e+002
1.015192e+003, 1.150174e+002
1.015674e+003, 1.146839e+002
1.016156e+003, 1.144258e+002
1.016638e+003, 1.145341e+002
1.017120e+003, 1.148247e+002
1.017603e+003, 1.148592e+002
1.018085e+003, 1.147133e+002
1.018567e+003, 1.146565e+002
1.019049e+003, 1.148029e+002
1.019531e+003, 1.150632e+002
1.020013e+003, 1.154977e+002
1.020495e+003, 1.159649e+002
1.020977e+003, 1.162557e+002
1.021459e+003, 1.163647e+002
1.021942e+003, 1.164160e+002
1.022424e+003, 1.164148e+002
1.022906e+003, 1.164351e+002
1.023388e+003, 1.165850e+002
1.023870e+003, 1.167680e+002
1.024352e+003, 1.168816e+002
1.024834e+003, 1.169108e+002
1.025316e+003, 1.169718e+002
1.025799e+003, 1.171120e+002
1.026281e+003, 1.172069e+002
1.026763e+003, 1.171782e+002
1.027245e+003, 1.170992e+002
1.027727e+003, 1.171730e+002
1.028209e+003, 1.173637e+002
1.028691e+003, 1.175481e+002
1.029173e+003, 1.176682e+002
1.029656e+003, 1.177890e+002
1.030138e+003, 1.178054e+002
1.030620e+003, 1.179262e+002
1.031102e+003, 1.184653e+002
1.031584e+003, 1.196099e+002
1.032066e+003, 1.200012e+002
1.032548e+003, 1.195449e+002
1.033030e+003, 1.189814e+002
1.033512e+003, 1.188230e+002
1.033995e+003, 1.189693e+002
1.034477e+003, 1.194782e+002
1.034959e+003, 1.202496e+002
1.035441e+003, 1.207105e+002
1.035923e+003, 1.205013e+002
1.036405e+003, 1.202892e+002
1.036887e+003, 1.201107e+002
1.037369e+003, 1.201129e+002
1.037851e+003, 1.208896e+002
1.038334e+003, 1.221306e+002
1.038816e+003, 1.225716e+002
1.039298e+003, 1.217408e+002
1.039780e+003, 1.209610e+002
1.040262e+003, 1.209279e+002
1.040744e+003, 1.213823e+002
1.041226e+003, 1.223279e+002
1.041708e+003, 1.238397e+002
1.042191e+003, 1.241610e+002
1.042673e+003, 1.231540e+002
1.043155e+003, 1.221951e+002
1.043637e+003, 1.220975e+002
1.044119e+003, 1.224077e+002
1.044601e+003, 1.225228e+002
1.045083e+003, 1.225467e+002
1.045565e+003, 1.227124e+002
1.046047e+003, 1.232413e+002
1.046530e+003, 1.237112e+002
1.047012e+003, 1.241314e+002
1.047494e+003, 1.244112e+002
1.047976e+003, 1.242998e+002
1.048458e+003, 1.239324e+002
1.048940e+003, 1.240808e+002
1.049422e+003, 1.247846e+002
1.049904e+003, 1.253443e+002
1.050386e+003, 1.251497e+002
1.050869e+003, 1.248393e+002
1.051351e+003, 1.247961e+002
1.051833e+003, 1.249697e+002
1.052315e+003, 1.251223e+002
1.052797e+003, 1.252378e+002
1.053279e+003, 1.255045e+002
1.053761e+003, 1.260806e+002
1.054243e+003, 1.265485e+002
1.054726e+003, 1.260967e+002
1.055208e+003, 1.253238e+002
1.055690e+003, 1.251308e+002
1.056172e+003, 1.259734e+002
1.056654e+003, 1.264925e+002
1.057136e+003, 1.263944e+002
1.057618e+003, 1.262993e+002
1.058100e+003, 1.266408e+002
1.058583e+003, 1.272735e+002
1.059065e+003, 1.275772e+002
1.059547e+003, 1.276273e+002
1.060029e+003, 1.277741e+002
1.060511e+003, 1.284255e+002
1.060993e+003, 1.289435e+002
1.061475e+003, 1.288936e+002
1.061957e+003, 1.286377e+002
1.062439e+003, 1.286757e+002
1.062922e+003, 1.290424e+002
1.063404e+003, 1.294601e+002
1.063886e+003, 1.299328e+002
1.064368e+003, 1.301875e+002
1.064850e+003, 1.297086e+002
1.065332e+003, 1.290892e+002
1.065814e+003, 1.289912e+002
1.066296e+003, 1.294115e+002
1.066778e+003, 1.296548e+002
1.067261e+003, 1.295096e+002
1.067743e+003, 1.295403e+002
1.068225e+003, 1.299686e+002
1.068707e+003, 1.305132e+002
1.069189e+003, 1.305509e+002
1.069671e+003, 1.303038e+002
1.070153e+003, 1.303328e+002
1.070635e+003, 1.308736e+002
1.071118e+003, 1.313138e+002
1.071600e+003, 1.312956e+002
1.072082e+003, 1.311987e+002
1.072564e+003, 1.312350e+002
1.073046e+003, 1.313935e+002
1.073528e+003, 1.314853e+002
1.074010e+003, 1.315252e+002
1.074492e+003, 1.317209e+002
1.074974e+003, 1.323775e+002
1.075457e+003, 1.330100e+002
1.075939e+003, 1.331153e+002
1.076421e+003, 1.330013e+002
1.076903e+003, 1.332304e+002
1.077385e+003, 1.340197e+002
1.077867e+003, 1.345327e+002
1.078349e+003, 1.346942e+002
1.078831e+003, 1.347271e+002
1.079313e+003, 1.348040e+002
1.079796e+003, 1.348997e+002
1.080278e+003, 1.349392e+002
1.080760e+003, 1.349420e+002
1.081242e+003, 1.350621e+002
1.081724e+003, 1.354381e+002
1.082206e+003, 1.358407e+002
1.082688e+003, 1.362959e+002
1.083170e+003, 1.366604e+002
1.083652e+003, 1.364851e+002
1.084135e+003, 1.359704e+002
1.084617e+003, 1.359257e+002
1.085099e+003, 1.365512e+002
1.085581e+003, 1.372820e+002
1.086063e+003, 1.380263e+002
1.086545e+003, 1.385359e+002
1.087027e+003, 1.385546e+002
1.087509e+003, 1.381664e+002
1.087992e+003, 1.383242e+002
1.088474e+003, 1.390370e+002
1.088956e+003, 1.395136e+002
1.089438e+003, 1.392866e+002
1.089920e+003, 1.389481e+002
1.090402e+003, 1.390284e+002
1.090884e+003, 1.393816e+002
1.091366e+003, 1.398492e+002
1.091849e+003, 1.406001e+002
1.092331e+003, 1.409003e+002
1.092813e+003, 1.406494e+002
1.093295e+003, 1.402869e+002
1.093777e+003, 1.401201e+002
1.094259e+003, 1.400676e+002
1.094741e+003, 1.399538e+002
1.095223e+003, 1.398114e+002
1.095705e+003, 1.397629e+002
1.096188e+003, 1.400115e+002
1.096670e+003, 1.401289e+002
1.097152e+003, 1.399980e+002
1.097634e+003, 1.397739e+002
1.098116e+003, 1.397124e+002
1.098598e+003, 1.397416e+002
1.099080e+003, 1.395023e+002
1.099562e+003, 1.389639e+002
1.100044e+003, 1.383674e+002
1.100527e+003, 1.378061e+002
1.101009e+003, 1.372807e+002
1.101491e+003, 1.367318e+002
1.101973e+003, 1.362270e+002
1.102455e+003, 1.361032e+002
1.102937e+003, 1.363683e+002
1.103419e+003, 1.363590e+002
1.103901e+003, 1.358789e+002
1.104384e+003, 1.352263e+002
1.104866e+003, 1.345761e+002
1.105348e+003, 1.339810e+002
1.105830e+003, 1.334908e+002
1.106312e+003, 1.331202e+002
1.106794e+003, 1.328234e+002
1.107276e+003, 1.326106e+002
1.107758e+003, 1.324236e+002
1.108240e+003, 1.322230e+002
1.108723e+003, 1.320430e+002
1.109205e+003, 1.319894e+002
1.109687e+003, 1.319786e+002
1.110169e+003, 1.318436e+002
1.110651e+003, 1.314035e+002
1.111133e+003, 1.310922e+002
1.111615e+003, 1.310026e+002
1.112097e+003, 1.309223e+002
1.112579e+003, 1.306469e+002
1.113062e+003, 1.302500e+002
1.113544e+003, 1.300909e+002
1.114026e+003, 1.300853e+002
1.114508e+003, 1.298259e+002
1.114990e+003, 1.287068e+002
1.115472e+003, 1.278144e+002
1.115954e+003, 1.276143e+002
1.116436e+003, 1.277209e+002
1.116919e+003, 1.277192e+002
1.117401e+003, 1.276048e+002
1.117883e+003, 1.272120e+002
1.118365e+003, 1.265272e+002
1.118847e+003, 1.259756e+002
1.119329e+003, 1.257776e+002
1.119811e+003, 1.258944e+002
1.120293e+003, 1.266075e+002
1.120776e+003, 1.276097e+002
1.121258e+003, 1.278030e+002
1.121740e+003, 1.270896e+002
1.122222e+003, 1.265447e+002
1.122704e+003, 1.264364e+002
1.123186e+003, 1.263460e+002
1.123668e+003, 1.256759e+002
1.124150e+003, 1.248918e+002
1.124632e+003, 1.244881e+002
1.125115e+003, 1.245602e+002
1.125597e+003, 1.247487e+002
1.126079e+003, 1.251079e+002
1.126561e+003, 1.253916e+002
1.127043e+003, 1.255393e+002
1.127525e+003, 1.255136e+002
1.128007e+003, 1.250294e+002
1.128489e+003, 1.244034e+002
1.128971e+003, 1.242543e+002
1.129454e+003, 1.251037e+002
1.129936e+003, 1.253665e+002
1.130418e+003, 1.245937e+002
1.130900e+003, 1.238371e+002
1.131382e+003, 1.238703e+002
1.131864e+003, 1.243474e+002
1.132346e+003, 1.240194e+002
1.132828e+003, 1.231826e+002
1.133311e+003, 1.228153e+002
1.133793e+003, 1.239417e+002
1.134275e+003, 1.247752e+002
1.134757e+003, 1.247439e+002
1.135239e+003, 1.244585e+002
1.135721e+003, 1.245046e+002
1.136203e+003, 1.248244e+002
1.136685e+003, 1.249637e+002
1.137167e+003, 1.249098e+002
1.137650e+003, 1.246974e+002
1.138132e+003, 1.240534e+002
1.138614e+003, 1.235781e+002
1.139096e+003, 1.236807e+002
1.139578e+003, 1.240912e+002
1.140060e+003, 1.244607e+002
1.140542e+003, 1.247978e+002
1.141024e+003, 1.248317e+002
1.141506e+003, 1.245219e+002
1.141989e+003, 1.241966e+002
1.142471e+003, 1.240557e+002
1.142953e+003, 1.240559e+002
1.143435e+003, 1.242597e+002
1.143917e+003, 1.245916e+002
1.144399e+003, 1.246716e+002
1.144881e+003, 1.244345e+002
1.145363e+003, 1.244364e+002
1.145846e+003, 1.248661e+002
1.146328e+003, 1.252652e+002
1.146810e+003, 1.249063e+002
1.147292e+003, 1.243866e+002
1.147774e+003, 1.244562e+002
1.148256e+003, 1.252632e+002
1.148738e+003, 1.255247e+002
1.149220e+003, 1.250938e+002
1.149703e+003, 1.245712e+002
1.150185e+003, 1.241481e+002
1.150667e+003, 1.237719e+002
1.151149e+003, 1.232331e+002
1.151631e+003, 1.227334e+002
1.152113e+003, 1.226551e+002
1.152595e+003, 1.232868e+002
1.153077e+003, 1.235634e+002
1.153559e+003, 1.232822e+002
1.154042e+003, 1.229745e+002
1.154524e+003, 1.229086e+002
1.155006e+003, 1.230129e+002
1.155488e+003, 1.232785e+002
1.155970e+003, 1.235704e+002
1.156452e+003, 1.235381e+002
1.156934e+003, 1.227938e+002
1.157416e+003, 1.222170e+002
1.157898e+003, 1.218812e+002
1.158381e+003, 1.217744e+002
1.158863e+003, 1.220026e+002
1.159345e+003, 1.224490e+002
1.159827e+003, 1.226361e+002
1.160309e+003, 1.226060e+002
1.160791e+003, 1.225260e+002
1.161273e+003, 1.223563e+002
1.161755e+003, 1.222949e+002
1.162238e+003, 1.223291e+002
1.162720e+003, 1.225447e+002
1.163202e+003, 1.232171e+002
1.163684e+003, 1.242078e+002
1.164166e+003, 1.246681e+002
1.164648e+003, 1.245730e+002
1.165130e+003, 1.240564e+002
1.165612e+003, 1.226666e+002
1.166094e+003, 1.214800e+002
1.166577e+003, 1.210622e+002
1.167059e+003, 1.210516e+002
1.167541e+003, 1.209774e+002
1.168023e+003, 1.208360e+002
1.168505e+003, 1.204815e+002
1.168987e+003, 1.198959e+002
1.169469e+003, 1.195417e+002
1.169951e+003, 1.200326e+002
1.170433e+003, 1.205669e+002
1.170916e+003, 1.206671e+002
1.171398e+003, 1.204425e+002
1.171880e+003, 1.200744e+002
1.172362e+003, 1.195649e+002
1.172844e+003, 1.192790e+002
1.173326e+003, 1.193076e+002
1.173808e+003, 1.193968e+002
1.174290e+003, 1.191251e+002
1.174773e+003, 1.190052e+002
1.175255e+003, 1.197259e+002
1.175737e+003, 1.210275e+002
1.176219e+003, 1.214529e+002
1.176701e+003, 1.209669e+002
1.177183e+003, 1.203470e+002
1.177665e+003, 1.197065e+002
1.178147e+003, 1.193377e+002
1.178630e+003, 1.198382e+002
1.179112e+003, 1.205226e+002
1.179594e+003, 1.206409e+002
1.180076e+003, 1.201630e+002
1.180558e+003, 1.199864e+002
1.181040e+003, 1.201351e+002
1.181522e+003, 1.203746e+002
1.182004e+003, 1.206982e+002
1.182486e+003, 1.208968e+002
1.182969e+003, 1.204756e+002
1.183451e+003, 1.199464e+002
1.183933e+003, 1.200169e+002
1.184415e+003, 1.208871e+002
1.184897e+003, 1.214139e+002
1.185379e+003, 1.215621e+002
1.185861e+003, 1.216014e+002
1.186343e+003, 1.216510e+002
1.186825e+003, 1.216839e+002
1.187308e+003, 1.216283e+002
1.187790e+003, 1.215487e+002
1.188272e+003, 1.215557e+002
1.188754e+003, 1.217038e+002
1.189236e+003, 1.217938e+002
1.189718e+003, 1.217966e+002
1.190200e+003, 1.218926e+002
1.190682e+003, 1.223516e+002
1.191165e+003, 1.228444e+002
1.191647e+003, 1.228642e+002
1.192129e+003, 1.226133e+002
1.192611e+003, 1.224933e+002
1.193093e+003, 1.225230e+002
1.193575e+003, 1.228833e+002
1.194057e+003, 1.236992e+002
1.194539e+003, 1.243497e+002
1.195021e+003, 1.240040e+002
1.195504e+003, 1.234472e+002
1.195986e+003, 1.239784e+002
1.196468e+003, 1.252020e+002
1.196950e+003, 1.258780e+002
1.197432e+003, 1.253408e+002
1.197914e+003, 1.253442e+002
1.198396e+003, 1.261174e+002
1.198878e+003, 1.269845e+002
1.199360e+003, 1.273473e+002
1.199843e+003, 1.273722e+002
1.200325e+003, 1.271611e+002
1.200807e+003, 1.268043e+002
1.201289e+003, 1.266368e+002
1.201771e+003, 1.268656e+002
1.202253e+003, 1.269217e+002
1.202735e+003, 1.266854e+002
1.203217e+003, 1.264604e+002
1.203700e+003, 1.266981e+002
1.204182e+003, 1.270929e+002
1.204664e+003, 1.271717e+002
1.205146e+003, 1.269551e+002
1.205628e+003, 1.268106e+002
1.206110e+003, 1.268761e+002
1.206592e+003, 1.267884e+002
1.207074e+003, 1.264101e+002
1.207557e+003, 1.260838e+002
1.208039e+003, 1.262763e+002
1.208521e+003, 1.267698e+002
1.209003e+003, 1.274274e+002
1.209485e+003, 1.281857e+002
1.209967e+003, 1.282890e+002
1.210449e+003, 1.272085e+002
1.210931e+003, 1.266541e+002
1.211413e+003, 1.271426e+002
1.211896e+003, 1.278436e+002
1.212378e+003, 1.275715e+002
1.212860e+003, 1.268294e+002
1.213342e+003, 1.262847e+002
1.213824e+003, 1.260154e+002
1.214306e+003, 1.260527e+002
1.214788e+003, 1.266284e+002
1.215270e+003, 1.268212e+002
1.215752e+003, 1.262989e+002
1.216235e+003, 1.255263e+002
1.216717e+003, 1.251229e+002
1.217199e+003, 1.249195e+002
1.217681e+003, 1.246121e+002
1.218163e+003, 1.241344e+002
1.218645e+003, 1.240603e+002
1.219127e+003, 1.245666e+002
1.219609e+003, 1.250346e+002
1.220092e+003, 1.253095e+002
1.220574e+003, 1.253687e+002
1.221056e+003, 1.249498e+002
1.221538e+003, 1.244076e+002
1.222020e+003, 1.242713e+002
1.222502e+003, 1.246787e+002
1.222984e+003, 1.252016e+002
1.223466e+003, 1.259986e+002
1.223948e+003, 1.262341e+002
1.224431e+003, 1.253926e+002
1.224913e+003, 1.242703e+002
1.225395e+003, 1.239749e+002
1.225877e+003, 1.241679e+002
1.226359e+003, 1.244354e+002
1.226841e+003, 1.247597e+002
1.227323e+003, 1.248051e+002
1.227805e+003, 1.244867e+002
1.228287e+003, 1.242272e+002
1.228770e+003, 1.241931e+002
1.229252e+003, 1.243228e+002
1.229734e+003, 1.246978e+002
1.230216e+003, 1.251002e+002
1.230698e+003, 1.251614e+002
1.231180e+003, 1.246960e+002
1.231662e+003, 1.247561e+002
1.232144e+003, 1.255104e+002
1.232627e+003, 1.257770e+002
1.233109e+003, 1.246932e+002
1.233591e+003, 1.234145e+002
1.234073e+003, 1.234984e+002
1.234555e+003, 1.241512e+002
1.235037e+003, 1.242671e+002
1.235519e+003, 1.236482e+002
1.236001e+003, 1.230597e+002
1.236484e+003, 1.224809e+002
1.236966e+003, 1.222012e+002
1.237448e+003, 1.226316e+002
1.237930e+003, 1.230220e+002
1.238412e+003, 1.223443e+002
1.238894e+003, 1.212965e+002
1.239376e+003, 1.208713e+002
1.239858e+003, 1.211786e+002
1.240340e+003, 1.214611e+002
1.240823e+003, 1.217107e+002
1.241305e+003, 1.219709e+002
1.241787e+003, 1.223427e+002
1.242269e+003, 1.226109e+002
1.242751e+003, 1.224414e+002
1.243233e+003, 1.221432e+002
1.243715e+003, 1.221391e+002
1.244197e+003, 1.224833e+002
1.244679e+003, 1.225678e+002
1.245162e+003, 1.223994e+002
1.245644e+003, 1.222671e+002
1.246126e+003, 1.224394e+002
1.246608e+003, 1.225534e+002
1.247090e+003, 1.222738e+002
1.247572e+003, 1.218654e+002
1.248054e+003, 1.216431e+002
1.248536e+003, 1.216140e+002
1.249019e+003, 1.215756e+002
1.249501e+003, 1.215273e+002
1.249983e+003, 1.214343e+002
1.250465e+003, 1.210831e+002
1.250947e+003, 1.209290e+002
1.251429e+003, 1.215806e+002
1.251911e+003, 1.222392e+002
1.252393e+003, 1.220171e+002
1.252875e+003, 1.209877e+002
1.253358e+003, 1.206502e+002
1.253840e+003, 1.209249e+002
1.254322e+003, 1.212738e+002
1.254804e+003, 1.215048e+002
1.255286e+003, 1.216416e+002
1.255768e+003, 1.216820e+002
1.256250e+003, 1.216421e+002
1.256732e+003, 1.214498e+002
1.257214e+003, 1.211701e+002
1.257697e+003, 1.212979e+002
1.258179e+003, 1.217378e+002
1.258661e+003, 1.220371e+002
1.259143e+003, 1.217824e+002
1.259625e+003, 1.216907e+002
1.260107e+003, 1.220138e+002
1.260589e+003, 1.223440e+002
1.261071e+003, 1.221929e+002
1.261554e+003, 1.218027e+002
1.262036e+003, 1.220257e+002
1.262518e+003, 1.227049e+002
1.263000e+003, 1.232935e+002
1.263482e+003, 1.239086e+002
1.263964e+003, 1.237707e+002
1.264446e+003, 1.224344e+002
1.264928e+003, 1.212642e+002
1.265411e+003, 1.217989e+002
1.265893e+003, 1.230768e+002
1.266375e+003, 1.232779e+002
1.266857e+003, 1.226570e+002
1.267339e+003, 1.219381e+002
1.267821e+003, 1.209092e+002
1.268303e+003, 1.206348e+002
1.268785e+003, 1.213136e+002
1.269267e+003, 1.220822e+002
1.269750e+003, 1.223095e+002
1.270232e+003, 1.221891e+002
1.270714e+003, 1.217295e+002
1.271196e+003, 1.211639e+002
1.271678e+003, 1.210282e+002
1.272160e+003, 1.212972e+002
1.272642e+003, 1.223577e+002
1.273124e+003, 1.243693e+002
1.273606e+003, 1.258202e+002
1.274089e+003, 1.251966e+002
1.274571e+003, 1.239326e+002
1.275053e+003, 1.230206e+002
1.275535e+003, 1.224896e+002
1.276017e+003, 1.223767e+002
1.276499e+003, 1.227879e+002
1.276981e+003, 1.228012e+002
1.277463e+003, 1.224050e+002
1.277946e+003, 1.219766e+002
1.278428e+003, 1.216427e+002
1.278910e+003, 1.214951e+002
1.279392e+003, 1.218129e+002
1.279874e+003, 1.222095e+002
1.280356e+003, 1.221358e+002
1.280838e+003, 1.216147e+002
1.281320e+003, 1.216823e+002
1.281802e+003, 1.222948e+002
1.282285e+003, 1.229310e+002
1.282767e+003, 1.234315e+002
1.283249e+003, 1.237431e+002
1.283731e+003, 1.237441e+002
1.284213e+003, 1.236601e+002
1.284695e+003, 1.237162e+002
1.285177e+003, 1.238543e+002
1.285659e+003, 1.237696e+002
1.286141e+003, 1.235049e+002
1.286624e+003, 1.232509e+002
1.287106e+003, 1.229039e+002
1.287588e+003, 1.229039e+002
1.288070e+003, 1.234600e+002
1.288552e+003, 1.240061e+002
1.289034e+003, 1.239732e+002
1.289516e+003, 1.236346e+002
1.289998e+003, 1.235639e+002
1.290481e+003, 1.237095e+002
1.290963e+003, 1.239338e+002
1.291445e+003, 1.243963e+002
1.291927e+003, 1.245376e+002
1.292409e+003, 1.242838e+002
1.292891e+003, 1.239926e+002
1.293373e+003, 1.240598e+002
1.293855e+003, 1.241224e+002
1.294338e+003, 1.235284e+002
1.294820e+003, 1.226464e+002
1.295302e+003, 1.222137e+002
1.295784e+003, 1.223668e+002
1.296266e+003, 1.225688e+002
1.296748e+003, 1.228284e+002
1.297230e+003, 1.229726e+002
1.297712e+003, 1.226901e+002
1.298194e+003, 1.224905e+002
1.298677e+003, 1.229899e+002
1.299159e+003, 1.236570e+002
1.299641e+003, 1.237961e+002
1.300123e+003, 1.233877e+002
1.300605e+003, 1.232079e+002
1.301087e+003, 1.232387e+002
1.301569e+003, 1.233317e+002
1.302051e+003, 1.234738e+002
1.302533e+003, 1.235338e+002
1.303016e+003, 1.234589e+002
##END=



