##NAMES=Spangolite
##RRUFFID=R060135
##IDEAL CHEMISTRY=Cu^2+^_6_AlS^6+^O_4_(OH)_12_Cl&#183;3H_2_O
##LOCALITY=Blanchard mine, Hansonburg District, Socorro County, New Mexico, USA
##OWNER=RRUFF
##SOURCE=University of Arizona Mineral Museum
##DESCRIPTION=Bluish-green stubby hexagonal pyramids
##STATUS=The identification of this mineral has been confirmed by X-ray diffraction and chemical analysis
##URL=rruff.info/R060135
##MEASURED CHEMISTRY=Cu_6.00_Al_1.00_(S_1.00_O_4_)Cl_1.00_(OH)_12_Â·3H_2_O
92.02539, 46.36349
92.50751, 48.12283
92.98962, 49.29078
93.47174, 48.63850
93.95386, 47.20500
94.43597, 45.57914
94.91809, 44.04718
95.40021, 42.61891
95.88232, 41.14756
96.36444, 39.52366
96.84656, 38.01738
97.32867, 36.74471
97.81078, 35.64685
98.29290, 34.63156
98.77502, 33.61745
99.25713, 32.56503
99.73925, 31.43285
100.2214, 30.04859
100.7035, 28.75170
101.1856, 27.66534
101.6677, 26.80196
102.1498, 26.13380
102.6320, 25.64227
103.1141, 25.40345
103.5962, 25.16927
104.0783, 25.08205
104.5604, 24.94291
105.0425, 24.45677
105.5247, 23.47747
106.0068, 22.33662
106.4889, 21.65779
106.9710, 21.49776
107.4531, 21.28622
107.9352, 20.68391
108.4173, 19.76882
108.8995, 18.96133
109.3816, 18.38375
109.8637, 18.01838
110.3458, 17.84626
110.8279, 17.88875
111.3100, 18.03616
111.7922, 18.17935
112.2743, 18.33359
112.7564, 18.42813
113.2385, 18.41121
113.7206, 18.34687
114.2027, 18.29651
114.6849, 18.29331
115.1670, 18.30541
115.6491, 18.21549
116.1312, 17.85955
116.6133, 17.58901
117.0954, 17.50575
117.5776, 17.53792
118.0597, 17.58060
118.5418, 17.56500
119.0239, 17.49068
119.5060, 17.35464
119.9881, 17.01141
120.4703, 16.75061
120.9524, 16.74626
121.4345, 16.96343
121.9166, 17.21579
122.3987, 17.34443
122.8808, 17.32461
123.3630, 17.22058
123.8451, 16.90284
124.3272, 16.56595
124.8093, 16.43746
125.2914, 16.57656
125.7735, 16.77402
126.2557, 16.81374
126.7378, 16.72358
127.2199, 16.53138
127.7020, 16.16417
128.1841, 15.68872
128.6662, 15.32189
129.1483, 15.10643
129.6305, 15.01319
130.1126, 15.05687
130.5947, 15.21761
131.0768, 15.33330
131.5589, 15.22222
132.0410, 14.84615
132.5232, 14.55687
133.0053, 14.46479
133.4874, 14.42706
133.9695, 14.37004
134.4516, 14.28132
134.9337, 14.20516
135.4159, 14.22922
135.8980, 14.48784
136.3801, 14.58243
136.8622, 14.42158
137.3443, 14.15644
137.8264, 13.91261
138.3086, 13.73837
138.7907, 13.59613
139.2728, 13.38638
139.7549, 12.94941
140.2370, 12.62726
140.7191, 12.47354
141.2013, 12.44477
141.6834, 12.50968
142.1655, 12.67700
142.6476, 12.88588
143.1297, 12.86135
143.6118, 12.34506
144.0939, 11.91406
144.5761, 11.88046
145.0582, 12.16876
145.5403, 12.43284
146.0224, 12.47376
146.5045, 12.32692
146.9866, 12.15505
147.4688, 11.90773
147.9509, 11.68371
148.4330, 11.61312
148.9151, 11.72470
149.3972, 11.80856
149.8793, 11.64121
150.3615, 11.38625
150.8436, 11.25566
151.3257, 11.37809
151.8078, 11.64578
152.2899, 11.81315
152.7720, 11.84663
153.2542, 11.83105
153.7363, 11.82005
154.2184, 11.79196
154.7005, 11.70013
155.1826, 11.47935
155.6647, 11.15641
156.1469, 11.01659
156.6290, 11.12271
157.1111, 11.15798
157.5932, 11.17281
158.0753, 11.16827
158.5574, 11.08642
159.0396, 11.10441
159.5217, 11.08239
160.0038, 11.05872
160.4859, 11.09077
160.9680, 11.02016
161.4501, 11.05132
161.9323, 11.04186
162.4144, 11.05099
162.8965, 11.01985
163.3786, 11.00116
163.8607, 11.02274
164.3428, 11.02202
164.8250, 10.91941
165.3071, 10.92194
165.7892, 10.98540
166.2713, 11.01343
166.7534, 10.85876
167.2355, 10.48433
167.7177, 10.20969
168.1998, 10.06665
168.6819, 10.04106
169.1640, 10.15514
169.6461, 10.44518
170.1282, 10.75596
170.6104, 10.90167
171.0925, 10.90450
171.5746, 10.82275
172.0567, 10.62764
172.5388, 10.35917
173.0209, 10.12967
173.5031, 9.948178
173.9852, 9.834372
174.4673, 9.785007
174.9494, 9.799233
175.4315, 9.875287
175.9136, 10.09435
176.3958, 10.44599
176.8779, 10.58135
177.3600, 10.20337
177.8421, 9.797082
178.3242, 9.660231
178.8063, 9.792968
179.2885, 9.995231
179.7706, 10.06644
180.2527, 9.982828
180.7348, 9.867313
181.2169, 9.699727
181.6990, 9.524189
182.1812, 9.343869
182.6633, 9.167973
183.1454, 9.029797
183.6275, 8.976161
184.1096, 9.024609
184.5917, 9.132914
185.0738, 9.418222
185.5560, 9.675692
186.0381, 9.709443
186.5202, 9.490075
187.0023, 9.192717
187.4844, 9.124144
187.9665, 9.546906
188.4487, 9.785589
188.9308, 9.730964
189.4129, 9.554399
189.8950, 9.393464
190.3771, 9.295611
190.8592, 9.253336
191.3414, 9.266534
191.8235, 9.434232
192.3056, 9.467783
192.7877, 9.154700
193.2698, 8.740482
193.7519, 8.589233
194.2341, 8.858413
194.7162, 9.331736
195.1983, 9.567655
195.6804, 9.547241
196.1625, 9.466696
196.6446, 9.343188
197.1268, 9.201689
197.6089, 9.104873
198.0910, 9.088416
198.5731, 9.102856
199.0552, 9.056662
199.5373, 8.932704
200.0195, 8.841869
200.5016, 8.892918
200.9837, 9.048682
201.4658, 9.107511
201.9479, 8.946478
202.4300, 8.725348
202.9122, 8.633624
203.3943, 8.685821
203.8764, 8.757648
204.3585, 8.735686
204.8406, 8.620719
205.3227, 8.551106
205.8048, 8.610945
206.2870, 8.690994
206.7691, 8.712756
207.2512, 8.667592
207.7333, 8.597014
208.2154, 8.525026
208.6975, 8.439322
209.1797, 8.426552
209.6618, 8.599708
210.1439, 8.785071
210.6260, 8.877834
211.1081, 8.863847
211.5902, 8.813069
212.0724, 8.834042
212.5545, 8.986608
213.0366, 9.023392
213.5187, 8.776840
214.0008, 8.525728
214.4829, 8.449423
214.9651, 8.578483
215.4472, 8.809270
215.9293, 9.010222
216.4114, 9.236180
216.8935, 9.299726
217.3756, 9.097239
217.8578, 8.836892
218.3399, 8.647168
218.8220, 8.562244
219.3041, 8.545868
219.7862, 8.547059
220.2683, 8.580866
220.7505, 8.603534
221.2326, 8.574766
221.7147, 8.560499
222.1968, 8.662754
222.6789, 8.888068
223.1610, 9.087467
223.6432, 9.019628
224.1253, 8.415642
224.6074, 8.113181
225.0895, 8.357856
225.5716, 8.762716
226.0537, 8.983261
226.5358, 8.939112
227.0180, 8.765218
227.5001, 8.630902
227.9822, 8.525137
228.4643, 8.515441
228.9464, 8.664071
229.4285, 8.884568
229.9107, 9.128846
230.3928, 9.391215
230.8749, 9.564762
231.3570, 9.435773
231.8391, 8.959781
232.3212, 8.672092
232.8034, 8.821120
233.2855, 9.140582
233.7676, 9.290960
234.2497, 9.200312
234.7318, 9.009044
235.2139, 8.833250
235.6961, 8.673109
236.1782, 8.580370
236.6603, 8.616077
237.1424, 8.712919
237.6245, 8.746861
238.1066, 8.674696
238.5888, 8.636388
239.0709, 8.863399
239.5530, 9.260335
240.0351, 9.505101
240.5172, 9.312525
240.9993, 8.931536
241.4815, 8.899002
241.9636, 9.388803
242.4457, 9.853426
242.9278, 9.801312
243.4099, 9.427699
243.8920, 9.121883
244.3742, 9.084584
244.8563, 9.220413
245.3384, 9.315894
245.8205, 9.360838
246.3026, 9.386379
246.7847, 9.470963
247.2668, 9.544342
247.7490, 9.470367
248.2311, 9.105781
248.7132, 8.594898
249.1953, 8.291317
249.6774, 8.257064
250.1595, 8.320315
250.6417, 8.499211
251.1238, 8.695158
251.6059, 8.767317
252.0880, 8.625651
252.5701, 8.354388
253.0522, 8.157578
253.5344, 8.048553
254.0165, 7.997649
254.4986, 8.042515
254.9807, 8.112688
255.4628, 8.131545
255.9449, 8.064377
256.4271, 7.934131
256.9092, 7.775904
257.3913, 7.518805
257.8734, 7.379834
258.3555, 7.474734
258.8376, 7.649252
259.3198, 7.766045
259.8019, 7.771267
260.2840, 7.697081
260.7661, 7.602542
261.2482, 7.459721
261.7303, 7.351943
262.2125, 7.225718
262.6946, 7.164069
263.1767, 7.275327
263.6588, 7.583952
264.1409, 7.965439
264.6230, 8.207185
265.1052, 8.281337
265.5873, 8.250060
266.0694, 8.063299
266.5515, 7.828201
267.0336, 7.615550
267.5157, 7.444833
267.9979, 7.297803
268.4800, 7.138818
268.9621, 6.911637
269.4442, 6.807608
269.9263, 6.853105
270.4084, 6.975343
270.8906, 7.189729
271.3727, 7.464610
271.8548, 7.678884
272.3369, 7.661946
272.8190, 7.291260
273.3011, 7.102170
273.7833, 7.260875
274.2654, 7.426394
274.7475, 7.402164
275.2296, 7.187923
275.7117, 6.896033
276.1938, 6.622067
276.6760, 6.345804
277.1581, 6.227104
277.6402, 6.322510
278.1223, 6.482146
278.6044, 6.686243
279.0865, 6.902950
279.5686, 7.065132
280.0508, 7.113305
280.5329, 7.044793
281.0150, 6.991017
281.4971, 6.948481
281.9792, 6.920362
282.4613, 6.925675
282.9435, 6.947535
283.4256, 6.945076
283.9077, 6.888281
284.3898, 6.785644
284.8719, 6.717537
285.3540, 6.710141
285.8362, 6.701521
286.3183, 6.679970
286.8004, 6.645609
287.2825, 6.577569
287.7646, 6.452626
288.2467, 6.324093
288.7289, 6.388470
289.2110, 7.013989
289.6931, 7.366969
290.1752, 7.091008
290.6573, 6.524280
291.1394, 6.153970
291.6216, 6.173255
292.1037, 6.409052
292.5858, 6.508049
293.0679, 6.379704
293.5500, 6.288706
294.0321, 6.274721
294.5143, 6.304439
294.9964, 6.360864
295.4785, 6.438917
295.9606, 6.489751
296.4427, 6.421372
296.9248, 6.139456
297.4070, 6.045705
297.8891, 6.376221
298.3712, 6.767888
298.8533, 6.849996
299.3354, 6.582512
299.8175, 6.258364
300.2997, 6.182992
300.7818, 6.410461
301.2639, 6.544391
301.7460, 6.477525
302.2281, 6.402006
302.7102, 6.480365
303.1924, 6.698596
303.6745, 6.897069
304.1566, 6.955396
304.6387, 6.873744
305.1208, 6.775688
305.6029, 6.589367
306.0851, 6.455575
306.5672, 6.509082
307.0493, 6.687973
307.5314, 6.778122
308.0135, 6.632989
308.4956, 6.327432
308.9778, 6.196053
309.4599, 6.371290
309.9420, 6.521911
310.4241, 6.549931
310.9062, 6.479543
311.3883, 6.329150
311.8705, 6.087406
312.3526, 5.830276
312.8347, 5.753331
313.3168, 5.949219
313.7989, 6.074428
314.2810, 5.992440
314.7632, 5.826306
315.2453, 5.744640
315.7274, 5.795505
316.2095, 5.901030
316.6916, 5.956713
317.1737, 5.948068
317.6559, 5.953546
318.1380, 5.977070
318.6201, 6.018617
319.1022, 6.103256
319.5843, 6.228133
320.0664, 6.318697
320.5485, 6.307794
321.0306, 6.183564
321.5128, 6.004202
321.9949, 5.604156
322.4770, 5.287414
322.9591, 5.344737
323.4412, 5.705063
323.9233, 5.992357
324.4055, 5.936065
324.8876, 5.592495
325.3697, 5.391700
325.8518, 5.405585
326.3339, 5.457882
326.8160, 5.494849
327.2982, 5.521466
327.7803, 5.544400
328.2624, 5.561038
328.7445, 5.590403
329.2266, 5.695164
329.7087, 5.950997
330.1909, 6.136561
330.6730, 6.205438
331.1551, 6.182948
331.6372, 6.071851
332.1193, 5.871166
332.6014, 5.662315
333.0836, 5.567376
333.5657, 5.636938
334.0478, 5.679204
334.5299, 5.650216
335.0120, 5.616506
335.4941, 5.663123
335.9763, 5.786469
336.4584, 5.872083
336.9405, 5.799742
337.4226, 5.549898
337.9047, 5.375857
338.3868, 5.259961
338.8690, 5.223303
339.3511, 5.346200
339.8332, 5.569468
340.3153, 5.707835
340.7974, 5.623708
341.2795, 5.372498
341.7617, 5.318992
342.2438, 5.652361
342.7259, 5.928903
343.2080, 6.051941
343.6901, 6.056615
344.1722, 5.974638
344.6544, 5.816734
345.1365, 5.631409
345.6186, 5.521745
346.1007, 5.584534
346.5828, 5.576221
347.0649, 5.445713
347.5471, 5.272819
348.0292, 5.077170
348.5113, 4.884637
348.9934, 4.800928
349.4755, 4.983977
349.9576, 5.555013
350.4398, 5.882400
350.9219, 5.836978
351.4040, 5.707685
351.8861, 5.594412
352.3682, 5.523764
352.8503, 5.518455
353.3325, 5.604135
353.8146, 5.772493
354.2967, 5.894704
354.7788, 5.939138
355.2609, 5.973629
355.7430, 6.019084
356.2252, 6.061118
356.7073, 6.096070
357.1894, 6.123228
357.6715, 6.104720
358.1536, 5.934193
358.6357, 5.425510
359.1179, 5.048003
359.5999, 4.755623
360.0821, 4.626428
360.5642, 4.826036
361.0463, 5.336303
361.5284, 5.870235
362.0105, 6.052343
362.4926, 5.772467
362.9748, 5.562041
363.4569, 5.420114
363.9390, 5.342828
364.4211, 5.361460
364.9032, 5.447983
365.3853, 5.534692
365.8675, 5.565145
366.3496, 5.549845
366.8317, 5.599234
367.3138, 5.889810
367.7959, 6.009931
368.2780, 5.734176
368.7602, 5.294540
369.2423, 4.956654
369.7244, 4.834127
370.2065, 4.890676
370.6886, 5.100296
371.1707, 5.587079
371.6529, 5.906435
372.1350, 5.891388
372.6171, 5.777034
373.0992, 5.709023
373.5813, 5.708807
374.0634, 5.711158
374.5456, 5.633028
375.0277, 5.468307
375.5098, 5.360885
375.9919, 5.348754
376.4740, 5.360942
376.9561, 5.335427
377.4383, 5.306261
377.9204, 5.367949
378.4025, 5.652064
378.8846, 6.020472
379.3667, 6.032522
379.8488, 5.514976
380.3310, 5.090615
380.8131, 5.143044
381.2952, 5.355935
381.7773, 5.377479
382.2594, 5.078647
382.7415, 4.763772
383.2237, 4.830557
383.7058, 5.275953
384.1879, 5.591873
384.6700, 5.605144
385.1521, 5.494332
385.6342, 5.414139
386.1164, 5.365967
386.5985, 5.334174
387.0806, 5.307104
387.5627, 5.290984
388.0448, 5.311273
388.5269, 5.384292
389.0091, 5.445288
389.4912, 5.432355
389.9733, 5.371509
390.4554, 5.317412
390.9375, 5.294197
391.4196, 5.269559
391.9018, 5.172457
392.3839, 5.019787
392.8660, 4.981669
393.3481, 5.172551
393.8302, 5.486015
394.3123, 5.724778
394.7945, 5.903769
395.2766, 5.980192
395.7587, 5.877180
396.2408, 5.674995
396.7229, 5.494739
397.2050, 5.357813
397.6872, 5.280451
398.1693, 5.293740
398.6514, 5.407546
399.1335, 5.510769
399.6156, 5.616453
400.0977, 5.696793
400.5798, 5.748761
401.0620, 5.762711
401.5441, 5.691473
402.0262, 5.485491
402.5083, 5.187164
402.9904, 5.019144
403.4725, 5.036822
403.9547, 5.093695
404.4368, 5.138606
404.9189, 5.143418
405.4010, 5.280972
405.8831, 5.398074
406.3652, 5.495827
406.8474, 5.516272
407.3295, 5.636545
407.8116, 5.301077
408.2937, 5.266038
408.7758, 5.318439
409.2579, 5.340227
409.7401, 5.325007
410.2222, 5.314220
410.7043, 5.342260
411.1864, 5.400167
411.6685, 5.407897
412.1506, 5.259732
412.6328, 5.194039
413.1149, 5.320351
413.5970, 5.511986
414.0791, 5.647722
414.5612, 5.682761
415.0433, 5.619735
415.5255, 5.415653
416.0076, 4.970095
416.4897, 4.730460
416.9718, 4.925683
417.4539, 5.163895
417.9360, 5.296652
418.4182, 5.313989
418.9003, 5.242622
419.3824, 5.052893
419.8645, 4.795348
420.3466, 4.713539
420.8287, 4.898182
421.3109, 5.071732
421.7930, 5.125550
422.2751, 5.107575
422.7572, 5.069036
423.2393, 5.027234
423.7214, 4.952395
424.2036, 4.727150
424.6857, 4.366753
425.1678, 4.287285
425.6499, 4.760454
426.1320, 5.319073
426.6141, 5.515603
427.0963, 5.389349
427.5784, 5.236990
428.0605, 5.181942
428.5426, 5.176057
429.0247, 5.131737
429.5068, 5.039504
429.9890, 4.991212
430.4711, 5.060695
430.9532, 5.217545
431.4353, 5.356977
431.9174, 5.550682
432.3995, 5.619983
432.8817, 5.323490
433.3638, 4.852346
433.8459, 4.651944
434.3280, 4.885077
434.8101, 5.266217
435.2922, 5.396722
435.7744, 5.200547
436.2565, 5.041698
436.7386, 4.941299
437.2207, 4.874211
437.7028, 4.819928
438.1849, 4.781920
438.6671, 4.789916
439.1492, 4.874535
439.6313, 5.010499
440.1134, 5.046238
440.5955, 4.831155
441.0776, 4.701581
441.5598, 4.747304
442.0418, 4.868858
442.5240, 4.993707
443.0061, 5.090283
443.4882, 5.118790
443.9703, 5.001110
444.4524, 4.676124
444.9345, 4.491648
445.4167, 4.567314
445.8988, 4.667988
446.3809, 4.686380
446.8630, 4.670846
447.3451, 4.749114
447.8272, 5.020770
448.3094, 5.361641
448.7915, 5.431513
449.2736, 5.125957
449.7557, 4.847097
450.2378, 4.629452
450.7199, 4.516385
451.2021, 4.605433
451.6842, 4.888566
452.1663, 5.148111
452.6484, 5.176465
453.1305, 5.028575
453.6126, 4.962396
454.0948, 5.041523
454.5769, 5.088142
455.0590, 4.889647
455.5411, 4.586245
456.0232, 4.442734
456.5053, 4.624327
456.9875, 4.834276
457.4696, 4.779033
457.9517, 4.520537
458.4338, 4.347905
458.9159, 4.370423
459.3980, 4.491406
459.8802, 4.570083
460.3623, 4.601411
460.8444, 4.651583
461.3265, 4.762232
461.8086, 4.875907
462.2907, 4.946309
462.7729, 4.969988
463.2550, 4.943546
463.7371, 4.842779
464.2192, 4.702805
464.7013, 4.729222
465.1834, 5.266067
465.6656, 5.521173
466.1477, 5.077199
466.6298, 4.450280
467.1119, 4.253099
467.5940, 4.599593
468.0761, 5.092384
468.5583, 5.243375
469.0404, 4.982267
469.5225, 4.840698
470.0046, 4.944261
470.4867, 5.039090
470.9688, 5.042475
471.4510, 4.986919
471.9331, 4.946869
472.4152, 4.964385
472.8973, 4.969606
473.3794, 4.776709
473.8615, 4.293187
474.3437, 4.007565
474.8258, 4.139824
475.3079, 4.401853
475.7900, 4.709435
476.2721, 5.014853
476.7542, 5.162209
477.2364, 4.896066
477.7185, 4.435675
478.2006, 4.319514
478.6827, 4.603976
479.1648, 4.911126
479.6469, 5.073575
480.1291, 5.122517
480.6112, 5.118965
481.0933, 5.052142
481.5754, 4.970169
482.0575, 4.868042
482.5396, 4.773945
483.0217, 4.738716
483.5038, 4.772550
483.9860, 4.868729
484.4681, 5.058014
484.9502, 5.342048
485.4323, 5.438241
485.9144, 5.174511
486.3965, 4.918158
486.8787, 4.815888
487.3608, 4.831482
487.8429, 4.909419
488.3250, 5.027133
488.8071, 5.138367
489.2892, 5.153646
489.7714, 5.012061
490.2535, 4.923577
490.7356, 4.906335
491.2177, 4.915855
491.6998, 4.978639
492.1819, 5.049829
492.6641, 5.012848
493.1462, 4.765189
493.6283, 4.423360
494.1104, 4.372516
494.5925, 4.773530
495.0746, 5.028098
495.5568, 4.734792
496.0389, 4.427789
496.5210, 4.583188
497.0031, 5.190658
497.4852, 5.710852
497.9673, 5.692461
498.4495, 5.302216
498.9316, 4.962197
499.4137, 4.667953
499.8958, 4.514773
500.3779, 4.628601
500.8600, 4.902335
501.3422, 5.113142
501.8243, 5.250292
502.3064, 5.324124
502.7885, 5.303590
503.2706, 5.233084
503.7527, 5.203457
504.2349, 5.235181
504.7170, 5.257763
505.1991, 5.200459
505.6812, 5.057658
506.1633, 4.911997
506.6454, 4.676769
507.1276, 4.533836
507.6097, 4.605255
508.0918, 4.796231
508.5739, 4.970872
509.0560, 5.076930
509.5381, 5.132085
510.0203, 5.159201
510.5024, 5.148493
510.9845, 5.143382
511.4666, 5.119442
511.9487, 5.125542
512.4308, 5.272395
512.9130, 5.452796
513.3951, 5.428689
513.8772, 5.032522
514.3593, 4.514514
514.8414, 4.363629
515.3235, 4.631192
515.8057, 4.871897
516.2878, 4.979555
516.7699, 5.034193
517.2520, 5.124641
517.7341, 5.237954
518.2162, 5.277998
518.6984, 5.134954
519.1805, 4.936338
519.6626, 4.874285
520.1447, 4.938356
520.6268, 4.933047
521.1089, 4.728081
521.5911, 4.441616
522.0732, 4.370690
522.5553, 4.594995
523.0374, 4.755877
523.5195, 4.722653
524.0016, 4.651209
524.4838, 4.680887
524.9659, 4.812003
525.4480, 4.979674
525.9301, 5.150739
526.4122, 5.300237
526.8943, 5.293208
527.3765, 4.981773
527.8586, 4.719901
528.3407, 4.507929
528.8228, 4.373442
529.3049, 4.401014
529.7870, 4.559145
530.2692, 4.658220
530.7513, 4.469213
531.2334, 4.069919
531.7155, 3.945265
532.1976, 4.196149
532.6797, 4.488240
533.1619, 4.811872
533.6440, 5.040079
534.1261, 4.971257
534.6082, 4.534208
535.0903, 4.134404
535.5724, 4.125145
536.0546, 4.322335
536.5367, 4.263631
537.0188, 3.867353
537.5009, 3.584805
537.9830, 3.813447
538.4651, 4.440135
538.9473, 4.802819
539.4294, 4.780136
539.9115, 4.674927
540.3936, 4.501834
540.8757, 4.324831
541.3578, 4.228318
541.8400, 4.225506
542.3221, 4.267014
542.8042, 4.309304
543.2863, 4.353005
543.7684, 4.357778
544.2505, 4.256188
544.7326, 4.197338
545.2147, 4.244418
545.6968, 4.330612
546.1790, 4.383989
546.6611, 4.386203
547.1432, 4.365592
547.6253, 4.372752
548.1074, 4.398045
548.5895, 4.295198
549.0717, 3.953501
549.5538, 3.710360
550.0359, 3.901041
550.5180, 4.286356
551.0001, 4.505251
551.4822, 4.447670
551.9644, 4.345085
552.4465, 4.377678
552.9286, 4.461555
553.4107, 4.368872
553.8928, 4.049998
554.3749, 3.797623
554.8571, 3.913458
555.3392, 4.383073
555.8213, 4.629308
556.3034, 4.515710
556.7855, 4.381219
557.2676, 4.291379
557.7498, 4.237947
558.2319, 4.231276
558.7140, 4.261940
559.1961, 4.265012
559.6782, 4.154131
560.1603, 3.927899
560.6425, 3.760923
561.1246, 3.604863
561.6067, 3.592544
562.0888, 3.902850
562.5709, 4.291702
563.0530, 4.474501
563.5352, 4.379298
564.0173, 4.183164
564.4994, 4.000943
564.9815, 3.837522
565.4636, 3.700704
565.9457, 3.583824
566.4279, 3.533414
566.9100, 3.607280
567.3921, 3.770907
567.8742, 3.891031
568.3563, 3.944210
568.8384, 3.993426
569.3206, 4.114573
569.8027, 4.215879
570.2848, 4.122450
570.7669, 3.844200
571.2490, 3.630373
571.7311, 3.718109
572.2133, 4.070713
572.6954, 4.279833
573.1775, 4.226120
573.6596, 4.187516
574.1417, 4.257058
574.6238, 4.317640
575.1060, 4.222370
575.5881, 3.981703
576.0702, 3.786940
576.5523, 3.854280
577.0344, 4.089913
577.5165, 4.106433
577.9987, 3.837058
578.4808, 3.643507
578.9629, 3.715989
579.4450, 3.926907
579.9271, 4.108523
580.4092, 4.263343
580.8914, 4.352194
581.3735, 4.332938
581.8556, 4.257248
582.3377, 4.161327
582.8198, 4.057920
583.3019, 3.986038
583.7841, 3.971583
584.2662, 3.995620
584.7483, 4.009039
585.2304, 4.061660
585.7125, 4.014665
586.1946, 3.741729
586.6768, 3.486640
587.1589, 3.392150
587.6410, 3.445749
588.1231, 3.588581
588.6052, 3.805235
589.0873, 4.033789
589.5695, 4.123180
590.0516, 4.049714
590.5337, 4.009242
591.0158, 4.045487
591.4979, 4.119465
591.9800, 4.214451
592.4622, 4.321238
592.9443, 4.400537
593.4264, 4.459454
593.9085, 4.469198
594.3906, 4.365099
594.8727, 4.191622
595.3549, 4.077936
595.8370, 4.067560
596.3191, 4.094808
596.8012, 4.080943
597.2833, 4.020311
597.7654, 3.956792
598.2476, 3.853485
598.7297, 3.789962
599.2118, 3.798503
599.6939, 3.857494
600.1760, 3.965593
600.6581, 4.112615
601.1403, 4.220347
601.6224, 4.163849
602.1045, 3.953570
602.5866, 3.843847
603.0687, 3.859186
603.5508, 3.922786
604.0330, 4.035555
604.5151, 4.159740
604.9972, 4.237800
605.4793, 4.251649
605.9614, 4.280421
606.4435, 4.445696
606.9257, 4.609938
607.4078, 4.507335
607.8899, 4.155192
608.3720, 3.897979
608.8541, 3.975929
609.3362, 4.267316
609.8184, 4.382863
610.3005, 4.114752
610.7826, 3.979127
611.2647, 4.088500
611.7468, 4.226778
612.2289, 4.249042
612.7111, 4.180213
613.1932, 4.127095
613.6753, 4.154933
614.1574, 4.215630
614.6395, 4.215047
615.1216, 4.148259
615.6038, 4.088241
616.0859, 4.064534
616.5680, 4.026718
617.0501, 3.901021
617.5322, 3.720581
618.0143, 3.602048
618.4965, 3.552535
618.9786, 3.588686
619.4607, 3.804956
619.9428, 4.093692
620.4249, 4.250722
620.9070, 4.228766
621.3892, 4.111896
621.8713, 3.963935
622.3534, 3.786738
622.8355, 3.757669
623.3176, 4.127326
623.7997, 4.319578
624.2819, 4.059817
624.7640, 3.714267
625.2461, 3.645095
625.7282, 3.872601
626.2103, 4.116990
626.6924, 4.171994
627.1745, 4.088389
627.6566, 3.970599
628.1387, 3.814167
628.6208, 3.682991
629.1030, 3.599159
629.5851, 3.553193
630.0672, 3.551503
630.5493, 3.600296
631.0314, 3.595294
631.5135, 3.403191
631.9957, 3.265069
632.4778, 3.390981
632.9599, 3.677482
633.4420, 3.899507
633.9241, 3.972046
634.4063, 3.987275
634.8884, 4.085218
635.3705, 4.286897
635.8526, 4.395604
636.3347, 4.358621
636.8168, 4.298408
637.2990, 4.261621
637.7811, 4.225904
638.2632, 4.141165
638.7453, 3.991879
639.2274, 3.904421
639.7095, 4.053834
640.1917, 4.290831
640.6738, 4.318662
641.1559, 4.126753
641.6380, 3.930300
642.1201, 3.831821
642.6022, 3.823344
643.0844, 3.895780
643.5665, 4.129892
644.0486, 4.274511
644.5307, 4.187009
645.0128, 4.147820
645.4949, 4.435744
645.9771, 4.867788
646.4592, 5.040807
646.9413, 4.769812
647.4234, 4.352805
647.9055, 4.259304
648.3876, 4.479570
648.8698, 4.486313
649.3519, 4.124020
649.8340, 3.809081
650.3161, 3.843469
650.7982, 4.091891
651.2803, 4.302283
651.7625, 4.488870
652.2446, 4.556344
652.7267, 4.384746
653.2088, 4.126332
653.6909, 3.885732
654.1730, 3.710446
654.6552, 3.743153
655.1373, 4.095984
655.6194, 4.591499
656.1015, 4.741134
656.5836, 4.350897
657.0657, 4.115673
657.5479, 4.211053
658.0300, 4.335920
658.5121, 4.398703
658.9942, 4.391529
659.4763, 4.297554
659.9584, 4.083268
660.4406, 3.874498
660.9227, 3.767050
661.4048, 3.754372
661.8869, 3.864419
662.3690, 4.104464
662.8511, 4.266429
663.3333, 4.171432
663.8154, 3.902257
664.2975, 3.807312
664.7796, 4.189149
665.2617, 4.316575
665.7438, 3.860944
666.2260, 3.417183
666.7081, 3.450128
667.1902, 3.839917
667.6723, 4.190887
668.1544, 4.299330
668.6365, 4.276689
669.1187, 4.312830
669.6008, 4.400805
670.0829, 4.355919
670.5650, 4.098651
671.0471, 3.850547
671.5292, 3.793444
672.0114, 3.877723
672.4935, 3.910376
672.9756, 3.836919
673.4577, 3.802189
673.9398, 3.914889
674.4219, 4.040161
674.9041, 4.001517
675.3862, 3.836434
675.8683, 3.751419
676.3504, 3.882549
676.8325, 4.127894
677.3146, 4.245127
677.7968, 4.211574
678.2789, 4.153234
678.7610, 4.022626
679.2431, 3.947209
679.7252, 4.053338
680.2073, 4.255569
680.6895, 4.380823
681.1716, 4.384445
681.6537, 4.332140
682.1358, 4.275361
682.6179, 4.179090
683.1000, 3.915621
683.5822, 3.520459
684.0643, 3.289922
684.5464, 3.440330
685.0285, 3.811256
685.5106, 3.924016
685.9927, 3.594637
686.4749, 3.439130
686.9570, 3.601648
687.4391, 3.822396
687.9212, 4.038042
688.4033, 4.221263
688.8854, 4.348238
689.3676, 4.422039
689.8497, 4.387499
690.3318, 4.084953
690.8139, 3.668900
691.2960, 3.482589
691.7781, 3.557510
692.2603, 3.744780
692.7424, 3.985591
693.2245, 4.223847
693.7066, 4.305366
694.1887, 4.093580
694.6708, 4.000071
695.1530, 4.123288
695.6351, 4.254408
696.1172, 4.292902
696.5993, 4.269676
697.0814, 4.255403
697.5635, 4.276459
698.0457, 4.277627
698.5278, 4.152251
699.0099, 3.963161
699.4920, 3.947400
699.9741, 4.133353
700.4562, 4.285128
700.9384, 4.279065
701.4205, 4.162776
701.9026, 4.018484
702.3847, 3.784074
702.8668, 3.700786
703.3489, 3.941525
703.8311, 4.157676
704.3132, 4.132394
704.7953, 3.982890
705.2774, 3.913602
705.7595, 3.986423
706.2416, 4.089819
706.7238, 4.073778
707.2059, 3.982688
707.6880, 4.048177
708.1701, 4.302078
708.6522, 4.484568
709.1343, 4.464005
709.6164, 4.345381
710.0985, 4.311942
710.5806, 4.395060
711.0627, 4.332832
711.5449, 3.873509
712.0270, 3.518937
712.5091, 3.595808
712.9912, 3.886348
713.4733, 4.082903
713.9554, 4.113042
714.4376, 4.106685
714.9197, 4.210249
715.4018, 4.371390
715.8839, 4.331874
716.3660, 4.042141
716.8481, 3.937726
717.3303, 4.249771
717.8124, 4.666858
718.2945, 4.829865
718.7766, 4.757113
719.2587, 4.689344
719.7408, 4.592630
720.2230, 4.567535
720.7051, 4.765273
721.1872, 4.992636
721.6693, 4.978303
722.1514, 4.725554
722.6335, 4.494005
723.1157, 4.498122
723.5978, 4.628871
724.0799, 4.560912
724.5620, 4.263298
725.0441, 4.092395
725.5262, 4.165572
726.0084, 4.291977
726.4905, 4.336653
726.9726, 4.306688
727.4547, 4.222045
727.9368, 3.947182
728.4189, 3.831374
728.9011, 4.214399
729.3832, 4.630254
729.8653, 4.531587
730.3474, 4.033121
730.8295, 3.654591
731.3116, 3.685392
731.7938, 3.962632
732.2759, 4.260525
732.7580, 4.580651
733.2401, 4.745411
733.7222, 4.704268
734.2043, 4.600604
734.6865, 4.491874
735.1686, 4.384813
735.6507, 4.285934
736.1328, 4.181077
736.6149, 4.133887
737.0970, 4.135664
737.5792, 4.219365
738.0613, 4.496045
738.5434, 4.851033
739.0255, 5.072572
739.5076, 5.088914
739.9897, 4.982145
740.4719, 4.816671
740.9540, 4.606253
741.4361, 4.444836
741.9182, 4.333484
742.4003, 4.274125
742.8824, 4.295147
743.3646, 4.337381
743.8467, 4.286993
744.3288, 4.139269
744.8109, 4.140898
745.2930, 4.433952
745.7751, 4.737260
746.2573, 5.001275
746.7394, 5.177195
747.2215, 5.193420
747.7036, 5.056392
748.1857, 4.847414
748.6678, 4.612459
749.1500, 4.370212
749.6321, 4.121098
750.1142, 3.865231
750.5963, 3.843229
751.0784, 4.176572
751.5605, 4.536808
752.0427, 4.672416
752.5248, 4.609869
753.0069, 4.504428
753.4890, 4.225956
753.9711, 4.109339
754.4532, 4.363091
754.9354, 4.645097
755.4175, 4.702391
755.8996, 4.587038
756.3817, 4.444979
756.8638, 4.331110
757.3459, 4.296015
757.8281, 4.466037
758.3102, 4.768900
758.7923, 4.912489
759.2744, 4.873464
759.7565, 4.794096
760.2386, 4.731221
760.7208, 4.686118
761.2029, 4.658308
761.6850, 4.641570
762.1671, 4.670463
762.6492, 4.847183
763.1313, 4.943721
763.6135, 4.811940
764.0956, 4.609296
764.5777, 4.509878
765.0598, 4.534259
765.5419, 4.583278
766.0240, 4.591497
766.5062, 4.589202
766.9883, 4.621093
767.4704, 4.680937
767.9525, 4.750868
768.4346, 4.828098
768.9167, 4.877358
769.3989, 4.862302
769.8810, 4.794461
770.3631, 4.748366
770.8452, 4.770399
771.3273, 4.728274
771.8094, 4.516026
772.2916, 4.334766
772.7737, 4.326184
773.2558, 4.423127
773.7379, 4.469281
774.2200, 4.403145
774.7021, 4.361699
775.1843, 4.416208
775.6664, 4.559501
776.1485, 4.883575
776.6306, 5.307558
777.1127, 5.477506
777.5948, 5.230056
778.0770, 4.848670
778.5591, 4.780568
779.0412, 5.047243
779.5233, 5.150714
780.0054, 5.000573
780.4875, 4.877901
780.9697, 4.919398
781.4518, 4.993345
781.9339, 4.960803
782.4160, 4.829889
782.8981, 4.721863
783.3802, 4.650733
783.8624, 4.626395
784.3445, 4.712247
784.8266, 4.815699
785.3087, 4.768962
785.7908, 4.597395
786.2729, 4.529931
786.7551, 4.739975
787.2372, 5.054316
787.7193, 5.086505
788.2014, 4.840643
788.6835, 4.700360
789.1656, 4.733289
789.6478, 4.771443
790.1299, 4.660565
790.6120, 4.519798
791.0941, 4.690484
791.5762, 5.397932
792.0583, 5.727302
792.5404, 5.346189
793.0225, 4.887125
793.5046, 4.547310
793.9868, 4.355770
794.4689, 4.351531
794.9510, 4.526474
795.4331, 4.759930
795.9152, 5.035955
796.3973, 5.262364
796.8795, 5.223775
797.3616, 4.978524
797.8437, 4.829489
798.3258, 4.854660
798.8079, 4.881468
799.2900, 4.726398
799.7722, 4.462085
800.2543, 4.519113
800.7364, 5.142866
801.2185, 5.585902
801.7006, 5.698723
802.1827, 5.709023
802.6649, 5.711411
803.1470, 5.683964
803.6291, 5.564000
804.1112, 5.319830
804.5933, 5.091188
805.0754, 4.920942
805.5576, 4.822726
806.0397, 4.873305
806.5218, 4.999113
807.0039, 4.995709
807.4860, 4.805181
807.9681, 4.624158
808.4503, 4.690288
808.9324, 4.949142
809.4145, 5.104289
809.8966, 5.141717
810.3787, 5.162583
810.8608, 5.180964
811.3430, 5.211586
811.8251, 5.306718
812.3072, 5.436542
812.7893, 5.405788
813.2714, 4.988013
813.7535, 4.749709
814.2357, 4.909696
814.7178, 5.145973
815.1999, 5.211944
815.6820, 5.186654
816.1641, 5.317616
816.6462, 5.696108
817.1284, 5.984017
817.6105, 5.734628
818.0926, 5.238134
818.5747, 5.082487
819.0568, 5.236993
819.5389, 5.404918
820.0211, 5.488992
820.5032, 5.445900
820.9853, 5.177196
821.4674, 4.717779
821.9495, 4.645111
822.4316, 5.236586
822.9138, 5.607412
823.3959, 5.468131
823.8780, 5.198034
824.3601, 5.009569
824.8422, 4.889173
825.3243, 4.791837
825.8065, 4.700840
826.2886, 4.656510
826.7707, 4.693296
827.2528, 4.767035
827.7349, 4.860177
828.2170, 4.954010
828.6992, 5.031541
829.1813, 5.083281
829.6634, 5.069182
830.1455, 4.884232
830.6276, 4.612190
831.1097, 4.543425
831.5919, 4.675778
832.0740, 4.926154
832.5561, 5.320815
833.0382, 5.614018
833.5203, 5.538981
834.0024, 5.152118
834.4846, 4.875296
834.9667, 4.695935
835.4488, 4.656620
835.9309, 4.903384
836.4130, 5.132940
836.8951, 5.172938
837.3773, 5.092514
837.8594, 5.015304
838.3415, 4.963368
838.8236, 4.953585
839.3057, 4.986865
839.7878, 5.072879
840.2700, 5.314365
840.7521, 5.594917
841.2342, 5.616315
841.7163, 5.331901
842.1984, 5.052429
842.6805, 5.089636
843.1627, 5.310685
843.6448, 5.264341
844.1269, 4.938209
844.6090, 4.830592
845.0911, 5.084702
845.5732, 5.365139
846.0554, 5.452315
846.5375, 5.389084
847.0196, 5.289808
847.5017, 5.116397
847.9838, 4.995877
848.4659, 4.997758
848.9481, 4.969542
849.4302, 4.769633
849.9123, 4.555234
850.3944, 4.542023
850.8765, 4.741180
851.3586, 4.936606
851.8408, 4.991082
852.3229, 5.027617
852.8050, 5.208701
853.2871, 5.421316
853.7692, 5.430161
854.2513, 5.241947
854.7335, 5.095304
855.2156, 5.149347
855.6977, 5.268435
856.1798, 5.144269
856.6619, 4.791017
857.1440, 4.714090
857.6262, 5.005820
858.1083, 5.199601
858.5904, 5.034787
859.0725, 4.769567
859.5546, 4.787398
860.0367, 5.125610
860.5189, 5.306988
861.0010, 5.218790
861.4831, 5.133142
861.9652, 5.091516
862.4473, 5.067825
862.9294, 5.044429
863.4116, 5.021225
863.8937, 4.999633
864.3758, 4.972346
864.8579, 4.973018
865.3400, 5.069757
865.8221, 5.170820
866.3043, 5.157496
866.7864, 5.058774
867.2685, 4.962153
867.7506, 4.899382
868.2327, 4.858101
868.7148, 4.822438
869.1970, 4.800706
869.6791, 4.851802
870.1612, 4.975559
870.6433, 4.953206
871.1254, 4.690641
871.6075, 4.517281
872.0897, 4.734806
872.5718, 5.189017
873.0539, 5.368263
873.5360, 5.096183
874.0181, 4.953610
874.5002, 5.049850
874.9823, 5.152565
875.4644, 5.250343
875.9465, 5.277732
876.4286, 5.125998
876.9108, 4.799734
877.3929, 4.504907
877.8750, 4.253186
878.3571, 4.119422
878.8392, 4.221726
879.3214, 4.416816
879.8035, 4.557201
880.2856, 4.622332
880.7677, 4.616629
881.2498, 4.534169
881.7319, 4.475629
882.2141, 4.620618
882.6962, 4.882248
883.1783, 5.003474
883.6604, 4.978917
884.1425, 4.844880
884.6246, 4.603389
885.1068, 4.360797
885.5889, 4.228205
886.0710, 4.202632
886.5531, 4.293799
887.0352, 4.609244
887.5173, 4.717390
887.9995, 4.451401
888.4816, 4.126265
888.9637, 3.862958
889.4458, 3.696113
889.9279, 3.713856
890.4100, 3.967869
890.8922, 4.197893
891.3743, 4.437655
891.8564, 4.565236
892.3385, 4.443016
892.8206, 4.230474
893.3027, 4.113438
893.7849, 4.096234
894.2670, 4.051718
894.7491, 3.869056
895.2312, 3.740661
895.7133, 3.925559
896.1954, 4.240751
896.6776, 4.425218
897.1597, 4.448126
897.6418, 4.266222
898.1239, 3.868737
898.6060, 3.530205
899.0881, 3.680533
899.5703, 4.179000
900.0524, 4.212543
900.5345, 3.749273
901.0166, 3.454318
901.4987, 3.505017
901.9808, 3.667572
902.4630, 3.769963
902.9451, 3.827209
903.4272, 3.894592
903.9093, 4.001190
904.3914, 4.050088
904.8735, 3.989440
905.3557, 3.935419
905.8378, 3.913239
906.3199, 3.927372
906.8020, 4.031794
907.2841, 4.211802
907.7662, 4.245744
908.2484, 3.853848
908.7305, 3.595809
909.2126, 3.848669
909.6947, 4.213782
910.1768, 4.332139
910.6589, 4.237276
911.1411, 4.098947
911.6232, 3.978716
912.1053, 3.890554
912.5874, 3.864633
913.0695, 3.866369
913.5516, 3.848916
914.0338, 3.812512
914.5159, 3.737445
914.9980, 3.630483
915.4801, 3.596664
915.9622, 3.730067
916.4443, 3.953201
916.9265, 4.093532
917.4086, 4.151156
917.8907, 4.132339
918.3728, 4.021535
918.8549, 3.930511
919.3370, 3.919413
919.8192, 3.927291
920.3013, 3.856486
920.7834, 3.702048
921.2655, 3.668113
921.7476, 3.939564
922.2297, 3.873473
922.7119, 3.856685
923.1940, 3.819466
923.6761, 3.762881
924.1582, 3.628969
924.6403, 4.111659
925.1224, 4.257141
925.6046, 4.275802
926.0867, 4.075349
926.5688, 3.878570
927.0509, 3.800483
927.5330, 3.793824
928.0151, 3.826961
928.4973, 3.873476
928.9794, 3.867013
929.4615, 3.756984
929.9436, 3.636242
930.4257, 3.555723
930.9078, 3.532444
931.3900, 3.648442
931.8721, 3.843469
932.3542, 3.909044
932.8363, 3.784232
933.3184, 3.637727
933.8005, 3.647324
934.2827, 3.747153
934.7648, 3.736919
935.2469, 3.635818
935.7290, 3.666863
936.2111, 3.874469
936.6932, 3.985403
937.1754, 3.813539
937.6575, 3.539677
938.1396, 3.512884
938.6217, 3.761356
939.1038, 3.901464
939.5859, 3.911250
940.0681, 3.868526
940.5502, 3.761828
941.0323, 3.648035
941.5144, 3.534935
941.9965, 3.452585
942.4786, 3.545859
942.9608, 3.975542
943.4429, 4.240973
943.9250, 4.249259
944.4071, 4.176601
944.8892, 4.037151
945.3713, 3.891006
945.8535, 3.792656
946.3356, 3.749077
946.8177, 3.756562
947.2998, 3.794633
947.7819, 3.912527
948.2640, 4.285969
948.7462, 4.621308
949.2283, 4.609588
949.7104, 4.346093
950.1925, 4.012140
950.6746, 3.682828
951.1567, 3.528291
951.6389, 3.819159
952.1210, 4.232584
952.6031, 4.342635
953.0852, 4.259431
953.5673, 4.202374
954.0494, 4.209204
954.5316, 4.264695
955.0137, 4.363068
955.4958, 4.457877
955.9779, 4.460115
956.4600, 4.397857
956.9421, 4.446510
957.4242, 4.598433
957.9063, 4.597272
958.3884, 4.360987
958.8705, 4.141683
959.3527, 4.140613
959.8348, 4.311385
960.3169, 4.536570
960.7990, 4.838518
961.2811, 5.081448
961.7632, 5.266205
962.2454, 5.308808
962.7275, 5.411299
963.2096, 5.493343
963.6917, 5.556031
964.1738, 5.541394
964.6559, 5.626599
965.1381, 5.671811
965.6202, 5.715360
966.1023, 5.814626
966.5844, 5.923904
967.0665, 5.914042
967.5486, 5.478894
968.0308, 5.592901
968.5129, 5.486842
968.9950, 5.371751
969.4771, 4.960517
969.9592, 4.652045
970.4413, 4.727138
970.9235, 4.860413
971.4056, 4.746355
971.8877, 4.496054
972.3698, 4.396795
972.8519, 4.517133
973.3340, 4.524676
973.8162, 4.511750
974.2983, 4.479484
974.7804, 4.369887
975.2625, 4.360140
975.7446, 4.310378
976.2267, 4.258980
976.7089, 4.263277
977.1910, 4.164932
977.6731, 4.168356
978.1552, 4.131154
978.6373, 4.112545
979.1194, 4.018141
979.6016, 4.024000
980.0837, 4.009419
980.5658, 3.975478
981.0479, 3.864212
981.5300, 3.852795
982.0121, 3.801367
982.4943, 3.748283
982.9764, 3.750924
983.4585, 3.650903
983.9406, 3.652655
984.4227, 3.385594
984.9048, 3.439565
985.3870, 3.599143
985.8691, 3.692891
986.3512, 3.712209
986.8333, 3.569987
987.3154, 3.210567
987.7975, 3.223560
988.2797, 3.778279
988.7618, 4.122047
989.2439, 3.866776
989.7260, 3.474647
990.2081, 3.519174
990.6902, 3.930069
991.1724, 4.009354
991.6545, 3.487020
992.1366, 3.272777
992.6187, 3.625622
993.1008, 3.988708
993.5829, 4.140177
994.0651, 4.139640
994.5472, 4.047919
995.0293, 3.864055
995.5114, 3.656810
995.9935, 3.342667
996.4756, 3.127011
996.9578, 3.050607
997.4399, 3.064697
997.9220, 3.252572
998.4041, 3.462738
998.8862, 3.406810
999.3683, 3.047592
999.8505, 2.847130
1000.333, 3.048687
1000.815, 3.257930
1001.297, 3.378755
1001.779, 3.405704
1002.261, 3.197753
1002.743, 2.936109
1003.225, 3.053006
1003.707, 3.660508
1004.190, 4.076331
1004.672, 3.773521
1005.154, 3.378928
1005.636, 3.252982
1006.118, 3.309781
1006.600, 3.567559
1007.082, 3.886810
1007.564, 3.902016
1008.046, 3.475259
1008.529, 3.067273
1009.011, 3.080765
1009.493, 3.260799
1009.975, 3.369217
1010.457, 3.420676
1010.939, 3.446210
1011.421, 3.451733
1011.903, 3.431259
1012.385, 3.381401
1012.868, 3.321395
1013.350, 3.268983
1013.832, 3.222636
1014.314, 3.164229
1014.796, 3.110962
1015.278, 3.136057
1015.760, 3.235711
1016.242, 3.282902
1016.725, 3.196159
1017.207, 3.110393
1017.689, 3.282552
1018.171, 3.611194
1018.653, 3.741928
1019.135, 3.681590
1019.617, 3.435971
1020.099, 3.021508
1020.581, 2.781392
1021.064, 2.972499
1021.546, 3.348737
1022.028, 3.406240
1022.510, 3.187689
1022.992, 3.271064
1023.474, 3.667865
1023.956, 3.844189
1024.438, 3.649394
1024.921, 3.360481
1025.403, 3.168947
1025.885, 3.068753
1026.367, 3.074021
1026.849, 3.197991
1027.331, 3.185338
1027.813, 2.994426
1028.295, 2.913395
1028.777, 3.041804
1029.260, 3.227356
1029.742, 3.357255
1030.224, 3.439155
1030.706, 3.494902
1031.188, 3.532482
1031.670, 3.493944
1032.152, 3.349160
1032.634, 3.216449
1033.116, 3.132728
1033.599, 3.060795
1034.081, 2.958155
1034.563, 2.849850
1035.045, 2.813307
1035.527, 2.852891
1036.009, 2.960280
1036.491, 3.230865
1036.973, 3.382065
1037.456, 3.270219
1037.938, 3.093620
1038.420, 2.995400
1038.902, 2.967765
1039.384, 2.990867
1039.866, 3.098275
1040.348, 3.162220
1040.830, 3.193725
1041.313, 3.164910
1041.795, 2.945546
1042.277, 2.774236
1042.759, 2.941116
1043.241, 3.306984
1043.723, 3.416152
1044.205, 3.135717
1044.687, 2.954838
1045.169, 2.924387
1045.651, 2.954723
1046.134, 3.070597
1046.616, 3.194626
1047.098, 3.263617
1047.580, 3.289473
1048.062, 3.321470
1048.544, 3.388050
1049.026, 3.375665
1049.508, 3.139244
1049.991, 2.990262
1050.473, 3.106505
1050.955, 3.286128
1051.437, 3.353596
1051.919, 3.345587
1052.401, 3.400246
1052.883, 3.567200
1053.365, 3.657620
1053.848, 3.612319
1054.330, 3.508755
1054.812, 3.289579
1055.294, 3.100323
1055.776, 3.116654
1056.258, 3.252606
1056.740, 3.257444
1057.222, 3.048972
1057.704, 2.965930
1058.187, 3.218888
1058.669, 3.468742
1059.151, 3.667835
1059.633, 3.718002
1060.115, 3.401151
1060.597, 2.907820
1061.079, 2.663275
1061.561, 2.767495
1062.043, 2.935450
1062.526, 3.176616
1063.008, 3.324198
1063.490, 3.191963
1063.972, 3.033605
1064.454, 3.112738
1064.936, 3.328652
1065.418, 3.422413
1065.900, 3.339268
1066.383, 3.315120
1066.865, 3.573685
1067.347, 3.740920
1067.829, 3.528972
1068.311, 3.255135
1068.793, 3.214691
1069.275, 3.314359
1069.757, 3.325551
1070.240, 3.208869
1070.722, 3.139560
1071.204, 3.236878
1071.686, 3.336523
1072.168, 3.382485
1072.650, 3.380008
1073.132, 3.294215
1073.614, 3.181197
1074.096, 3.111029
1074.578, 3.103966
1075.061, 3.203318
1075.543, 3.570901
1076.025, 3.820464
1076.507, 3.648406
1076.989, 3.402186
1077.471, 3.396590
1077.953, 3.481480
1078.435, 3.320148
1078.918, 2.936645
1079.400, 2.807568
1079.882, 3.260042
1080.364, 3.680056
1080.846, 3.828574
1081.328, 3.783460
1081.810, 3.400247
1082.292, 2.983435
1082.774, 3.017867
1083.257, 3.440634
1083.739, 3.677599
1084.221, 3.464732
1084.703, 3.265447
1085.185, 3.374490
1085.667, 3.475310
1086.149, 3.260980
1086.631, 2.991254
1087.114, 3.068824
1087.596, 3.385540
1088.078, 3.424651
1088.560, 2.957366
1089.042, 2.606804
1089.524, 2.622926
1090.006, 2.835400
1090.488, 3.375860
1090.970, 3.879993
1091.453, 3.907012
1091.935, 3.603133
1092.417, 3.400682
1092.899, 3.404012
1093.381, 3.453303
1093.863, 3.638560
1094.345, 3.665039
1094.827, 3.166049
1095.309, 2.660564
1095.792, 2.692222
1096.274, 3.015555
1096.756, 3.054575
1097.238, 2.713039
1097.720, 2.567796
1098.202, 3.087012
1098.684, 3.428377
1099.166, 3.071057
1099.649, 2.684595
1100.131, 2.800702
1100.613, 3.155439
1101.095, 3.327401
1101.577, 3.281004
1102.059, 3.220721
1102.541, 3.185028
1103.023, 3.155684
1103.505, 3.071018
1103.988, 3.057238
1104.470, 3.274759
1104.952, 3.534941
1105.434, 3.639116
1105.916, 3.583150
1106.398, 3.409095
1106.880, 2.983191
1107.362, 2.774007
1107.844, 3.026333
1108.327, 3.285992
1108.809, 3.463619
1109.291, 3.509297
1109.773, 3.271279
1110.255, 2.881039
1110.737, 2.738726
1111.219, 2.956318
1111.701, 3.088321
1112.184, 3.028779
1112.666, 2.985137
1113.148, 3.074734
1113.630, 3.120617
1114.112, 2.905919
1114.594, 2.608747
1115.076, 2.586722
1115.558, 2.876429
1116.041, 3.074833
1116.523, 3.158626
1117.005, 3.187470
1117.487, 3.121897
1117.969, 3.067398
1118.451, 3.097796
1118.933, 3.142722
1119.415, 3.099401
1119.897, 2.979997
1120.380, 2.918981
1120.862, 2.935604
1121.344, 2.979907
1121.826, 3.152759
1122.308, 3.097224
1122.790, 2.488792
1123.272, 1.970527
1123.754, 2.255585
1124.236, 3.044725
1124.719, 3.292920
1125.201, 2.872999
1125.683, 2.560705
1126.165, 2.325837
1126.647, 2.368211
1127.129, 2.852799
1127.611, 3.205374
1128.093, 2.987818
1128.576, 2.491700
1129.058, 2.243012
1129.540, 2.236830
1130.022, 2.399047
1130.504, 2.756019
1130.986, 2.965650
1131.468, 2.976496
1131.950, 2.791479
1132.432, 2.369739
1132.915, 2.051078
1133.397, 2.302849
1133.879, 2.916001
1134.361, 3.141279
1134.843, 3.006730
1135.325, 2.759303
1135.807, 2.436245
1136.289, 2.333092
1136.771, 2.541978
1137.254, 2.871284
1137.736, 3.196698
1138.218, 3.407551
1138.700, 3.205329
1139.182, 2.740430
1139.664, 2.494756
1140.146, 2.457112
1140.628, 2.579653
1141.111, 2.810242
1141.593, 2.902875
1142.075, 2.725544
1142.557, 2.514121
1143.039, 2.587991
1143.521, 2.758927
1144.003, 2.645200
1144.485, 2.415928
1144.968, 2.438250
1145.450, 2.680540
1145.932, 2.925149
1146.414, 3.094506
1146.896, 3.187242
1147.378, 3.170199
1147.860, 3.143915
1148.342, 3.269056
1148.824, 3.385121
1149.307, 3.320605
1149.789, 3.096509
1150.271, 2.650223
1150.753, 2.090429
1151.235, 1.861366
1151.717, 2.209067
1152.199, 2.588986
1152.681, 2.741521
1153.163, 2.763987
1153.646, 2.625805
1154.128, 2.467653
1154.610, 2.424163
1155.092, 2.481193
1155.574, 2.609128
1156.056, 2.806996
1156.538, 2.880000
1157.020, 2.600571
1157.503, 2.435811
1157.985, 2.585576
1158.467, 2.814975
1158.949, 3.077655
1159.431, 3.276890
1159.913, 3.303627
1160.395, 3.157751
1160.877, 2.864034
1161.359, 2.136072
1161.842, 1.847839
1162.324, 2.369445
1162.806, 2.773704
1163.288, 2.755580
1163.770, 2.613265
1164.252, 2.517889
1164.734, 2.493268
1165.216, 2.625484
1165.698, 2.942304
1166.181, 3.016052
1166.663, 2.755258
1167.145, 2.575943
1167.627, 2.509535
1168.109, 2.669334
1168.591, 3.202461
1169.073, 3.653251
1169.555, 3.444089
1170.037, 2.789989
1170.520, 2.492648
1171.002, 2.545093
1171.484, 2.649268
1171.966, 2.789996
1172.448, 2.974461
1172.930, 3.201247
1173.412, 3.272260
1173.894, 3.041863
1174.377, 2.708514
1174.859, 2.541928
1175.341, 2.514889
1175.823, 2.576684
1176.305, 2.707392
1176.787, 2.886657
1177.269, 3.078125
1177.751, 3.145011
1178.234, 3.048654
1178.716, 2.920182
1179.198, 2.846405
1179.680, 2.817226
1180.162, 2.813837
1180.644, 2.855123
1181.126, 3.034257
1181.608, 3.241531
1182.090, 3.258462
1182.573, 3.100509
1183.055, 2.966724
1183.537, 2.935755
1184.019, 2.899463
1184.501, 2.704545
1184.983, 2.611217
1185.465, 2.957601
1185.947, 3.285692
1186.429, 3.062660
1186.912, 2.595864
1187.394, 2.521689
1187.876, 2.884228
1188.358, 3.082375
1188.840, 2.909290
1189.322, 2.745335
1189.804, 2.598594
1190.286, 2.505722
1190.769, 2.480699
1191.251, 2.516616
1191.733, 2.687736
1192.215, 2.874414
1192.697, 2.725518
1193.179, 2.174899
1193.661, 1.861477
1194.143, 1.812417
1194.625, 1.929588
1195.108, 2.247607
1195.590, 2.533373
1196.072, 2.685875
1196.554, 2.694949
1197.036, 2.508958
1197.518, 2.243884
1198.000, 2.330266
1198.482, 2.707901
1198.964, 2.804585
1199.447, 2.632198
1199.929, 2.494579
1200.411, 2.463772
1200.893, 2.488945
1201.375, 2.541754
1201.857, 2.615929
1202.339, 2.733803
1202.821, 2.842338
1203.304, 2.869577
1203.786, 2.817230
1204.268, 2.603079
1204.750, 2.332961
1205.232, 2.272868
1205.714, 2.467222
1206.196, 2.763351
1206.678, 3.167057
1207.161, 3.387684
1207.643, 3.025065
1208.125, 2.666029
1208.607, 2.850995
1209.089, 3.141316
1209.571, 2.997453
1210.053, 2.583859
1210.535, 2.368660
1211.017, 2.425483
1211.500, 2.538952
1211.982, 2.780820
1212.464, 2.916875
1212.946, 2.773034
1213.428, 2.715664
1213.910, 3.028775
1214.392, 3.299094
1214.874, 3.054853
1215.356, 2.507814
1215.839, 2.311327
1216.321, 2.499549
1216.803, 2.743413
1217.285, 3.076199
1217.767, 3.230852
1218.249, 3.152266
1218.731, 2.959291
1219.213, 2.690360
1219.696, 2.528994
1220.178, 2.716519
1220.660, 3.060374
1221.142, 3.074626
1221.624, 2.875192
1222.106, 2.877058
1222.588, 3.024156
1223.070, 3.033075
1223.552, 2.878135
1224.035, 2.728901
1224.517, 2.664204
1224.999, 2.684055
1225.481, 2.897352
1225.963, 3.071187
1226.445, 2.899215
1226.927, 2.659971
1227.409, 2.720073
1227.891, 2.891171
1228.374, 2.735911
1228.856, 2.311249
1229.338, 2.225359
1229.820, 2.776568
1230.302, 3.187237
1230.784, 3.273591
1231.266, 3.202637
1231.748, 2.860413
1232.231, 2.559953
1232.713, 2.510524
1233.195, 2.598348
1233.677, 2.664322
1234.159, 2.717519
1234.641, 2.867039
1235.123, 3.186390
1235.605, 3.208512
1236.088, 2.846789
1236.570, 2.646110
1237.052, 2.757130
1237.534, 2.961223
1238.016, 3.130826
1238.498, 3.226330
1238.980, 3.171928
1239.462, 3.023409
1239.944, 2.899994
1240.427, 2.816789
1240.909, 2.852628
1241.391, 2.965995
1241.873, 2.971195
1242.355, 2.864122
1242.837, 2.929175
1243.319, 3.365658
1243.801, 3.646010
1244.283, 3.170877
1244.766, 2.624378
1245.248, 2.498896
1245.730, 2.586674
1246.212, 2.745699
1246.694, 2.919102
1247.176, 3.071079
1247.658, 3.186734
1248.140, 3.186751
1248.622, 2.962507
1249.105, 2.828892
1249.587, 2.836703
1250.069, 2.887208
1250.551, 3.000061
1251.033, 3.069760
1251.515, 2.994261
1251.997, 2.905814
1252.479, 3.022704
1252.962, 3.292269
1253.444, 3.421934
1253.926, 3.413215
1254.408, 3.269486
1254.890, 3.013025
1255.372, 3.018138
1255.854, 3.341030
1256.336, 3.524030
1256.818, 3.301021
1257.301, 2.946298
1257.783, 2.719699
1258.265, 2.581696
1258.747, 2.456970
1259.229, 2.408074
1259.711, 2.593793
1260.193, 2.888955
1260.675, 3.115359
1261.157, 3.206753
1261.640, 3.021078
1262.122, 2.408191
1262.604, 2.055156
1263.086, 2.455856
1263.568, 2.753523
1264.050, 2.469346
1264.532, 2.242208
1265.014, 2.571570
1265.497, 3.035856
1265.979, 3.120098
1266.461, 2.935329
1266.943, 2.967609
1267.425, 3.266986
1267.907, 3.401163
1268.389, 3.359469
1268.871, 3.270218
1269.354, 3.156432
1269.836, 2.921987
1270.318, 2.517624
1270.800, 2.280124
1271.282, 2.600281
1271.764, 3.081851
1272.246, 2.994669
1272.728, 2.690633
1273.210, 2.891713
1273.693, 3.299085
1274.175, 3.216355
1274.657, 2.765719
1275.139, 2.629912
1275.621, 2.978333
1276.103, 3.220332
1276.585, 3.067791
1277.067, 2.838899
1277.549, 2.451778
1278.032, 2.245878
1278.514, 2.599717
1278.996, 2.995036
1279.478, 2.948026
1279.960, 2.659481
1280.442, 2.493414
1280.924, 2.450925
1281.406, 2.615115
1281.889, 3.034122
1282.371, 3.283550
1282.853, 3.330024
1283.335, 3.261317
1283.817, 3.103672
1284.299, 2.950242
1284.781, 2.859258
1285.263, 2.825904
1285.745, 2.845340
1286.228, 2.917745
##END=



