##NAMES=Spessartine
##RRUFFID=R080053
##IDEAL CHEMISTRY=Mn^2+^_3_Al_2_(SiO_4_)_3_
##LOCALITY=East Africa
##OWNER=RRUFF
##SOURCE=www.multicolour.com
##DESCRIPTION=Transparent orange fragments
##STATUS=The identification of this mineral has been confirmed by X-ray diffraction and chemical analysis
##URL=rruff.info/R080053
##MEASURED CHEMISTRY=(Mn^2+^_1.32_Mg_0.96_Fe^2+^_0.38_Fe^3+^_0.04_Ca_0.30_)Al_2.00_((Si_0.99_Al_0.01_)O_4_)_3_; Fe^2+^ and Fe^3+^ estimated by charge balance
93.46680, 308.9424
93.94891, 307.5020
94.43103, 308.0769
94.91315, 308.1909
95.39526, 307.0932
95.87738, 304.9522
96.35950, 302.4185
96.84161, 300.2743
97.32373, 299.5932
97.80585, 299.1256
98.28796, 297.7995
98.77008, 295.4401
99.25220, 292.5923
99.73431, 289.8995
100.2164, 287.3468
100.6985, 284.3314
101.1807, 281.2296
101.6628, 278.4895
102.1449, 276.5124
102.6270, 275.4971
103.1091, 275.2775
103.5912, 275.0863
104.0734, 274.6122
104.5555, 274.4365
105.0376, 274.7551
105.5197, 275.4404
106.0018, 276.2762
106.4839, 277.1259
106.9661, 278.0587
107.4482, 278.3445
107.9303, 277.4091
108.4124, 276.3307
108.8945, 275.6815
109.3766, 275.5474
109.8588, 275.7483
110.3409, 276.1800
110.8230, 276.9045
111.3051, 277.3274
111.7872, 277.0214
112.2693, 276.4409
112.7515, 276.3313
113.2336, 276.9879
113.7157, 277.9333
114.1978, 278.6287
114.6799, 279.0855
115.1620, 279.3981
115.6442, 279.6435
116.1263, 279.8160
116.6084, 279.7653
117.0905, 279.1310
117.5726, 278.4766
118.0547, 278.2248
118.5369, 278.4540
119.0190, 278.8467
119.5011, 278.9243
119.9832, 278.4592
120.4653, 278.2173
120.9474, 278.6342
121.4296, 279.1231
121.9117, 279.2182
122.3938, 278.7153
122.8759, 277.7053
123.3580, 276.4750
123.8401, 274.4228
124.3223, 272.7998
124.8044, 271.8392
125.2865, 271.3652
125.7686, 271.1239
126.2507, 270.9627
126.7328, 270.8864
127.2150, 270.9590
127.6971, 271.4532
128.1792, 271.8053
128.6613, 271.5078
129.1434, 270.7085
129.6255, 270.2507
130.1077, 270.9840
130.5898, 272.7749
131.0719, 273.9303
131.5540, 273.9168
132.0361, 273.4876
132.5182, 273.3340
133.0004, 273.4734
133.4825, 274.0191
133.9646, 275.5767
134.4467, 277.6810
134.9288, 279.2052
135.4109, 279.1382
135.8931, 278.0243
136.3752, 277.8551
136.8573, 279.3605
137.3394, 281.0153
137.8215, 282.0456
138.3036, 282.5221
138.7858, 282.7172
139.2679, 282.8102
139.7500, 282.7939
140.2321, 282.7378
140.7142, 282.7688
141.1963, 282.6558
141.6785, 282.0865
142.1606, 281.1614
142.6427, 280.3539
143.1248, 280.3151
143.6069, 281.5222
144.0890, 282.4519
144.5712, 282.9784
145.0533, 283.3652
145.5354, 283.8356
146.0175, 284.4364
146.4996, 285.0048
146.9817, 285.2203
147.4639, 284.4674
147.9460, 284.3794
148.4281, 285.4837
148.9102, 287.1519
149.3923, 288.6151
149.8744, 289.5804
150.3566, 290.2115
150.8387, 290.8507
151.3208, 291.4488
151.8029, 292.1537
152.2850, 293.0182
152.7671, 294.0334
153.2493, 295.1856
153.7314, 296.5770
154.2135, 298.0098
154.6956, 299.1739
155.1777, 300.0201
155.6598, 300.6969
156.1420, 301.2474
156.6241, 301.6578
157.1062, 302.1509
157.5883, 302.9286
158.0704, 303.7785
158.5525, 304.4113
159.0347, 304.6400
159.5168, 304.9604
159.9989, 306.3319
160.4810, 309.3738
160.9631, 311.9231
161.4452, 313.1193
161.9274, 313.7079
162.4095, 314.3450
162.8916, 315.3196
163.3737, 316.5534
163.8558, 317.7769
164.3379, 318.9284
164.8201, 320.1703
165.3022, 321.3257
165.7843, 322.6291
166.2664, 324.3940
166.7485, 326.8378
167.2306, 329.8810
167.7128, 332.9408
168.1949, 336.2487
168.6770, 339.3362
169.1591, 341.6703
169.6412, 343.6940
170.1233, 346.3828
170.6055, 350.5063
171.0876, 356.0439
171.5697, 360.6684
172.0518, 364.5889
172.5339, 367.6432
173.0160, 369.9471
173.4982, 371.3992
173.9803, 371.5551
174.4624, 369.9345
174.9445, 366.4221
175.4266, 362.4060
175.9087, 357.1320
176.3909, 351.8365
176.8730, 347.6444
177.3551, 344.6328
177.8372, 341.9500
178.3193, 338.7956
178.8014, 335.4266
179.2836, 332.7430
179.7657, 331.1643
180.2478, 330.2938
180.7299, 329.4838
181.2120, 328.6042
181.6941, 328.1476
182.1763, 328.4435
182.6584, 329.3543
183.1405, 330.7527
183.6226, 332.8321
184.1047, 335.3586
184.5868, 337.5319
185.0690, 339.0149
185.5511, 340.6388
186.0332, 342.6711
186.5153, 345.0900
186.9974, 347.8877
187.4795, 351.1621
187.9617, 354.8752
188.4438, 358.3623
188.9259, 361.3246
189.4080, 364.3728
189.8901, 367.7213
190.3722, 371.3106
190.8544, 374.9835
191.3365, 378.5813
191.8186, 382.1040
192.3007, 385.7906
192.7828, 390.3579
193.2649, 394.4540
193.7471, 397.0384
194.2292, 398.5896
194.7113, 400.5428
195.1934, 404.3352
195.6755, 410.4685
196.1576, 415.3363
196.6398, 418.1576
197.1219, 420.7237
197.6040, 424.0091
198.0861, 427.9502
198.5682, 431.8371
199.0503, 434.9572
199.5325, 437.1646
200.0146, 439.1624
200.4967, 440.6631
200.9788, 442.1764
201.4609, 444.0548
201.9430, 446.3295
202.4252, 448.7903
202.9073, 451.3042
203.3894, 453.8809
203.8715, 456.2520
204.3536, 458.5655
204.8357, 460.5839
205.3179, 462.0359
205.8000, 462.8836
206.2821, 463.3892
206.7642, 463.6278
207.2463, 463.6689
207.7284, 463.9643
208.2106, 465.0288
208.6927, 466.2471
209.1748, 466.6774
209.6569, 466.0920
210.1390, 465.2587
210.6211, 465.0247
211.1033, 465.0990
211.5854, 464.6747
212.0675, 463.3501
212.5496, 461.3327
213.0317, 458.9630
213.5138, 456.0103
213.9960, 453.2392
214.4781, 451.3673
214.9602, 450.0189
215.4423, 448.4219
215.9244, 446.1524
216.4065, 443.3134
216.8886, 440.3035
217.3708, 436.9321
217.8529, 433.6676
218.3350, 430.9856
218.8171, 428.5429
219.2992, 425.6308
219.7813, 421.5297
220.2635, 416.5237
220.7456, 412.6811
221.2277, 411.2142
221.7098, 409.5237
222.1919, 406.4450
222.6740, 402.5883
223.1562, 399.0734
223.6383, 396.7974
224.1204, 395.6129
224.6025, 393.6618
225.0846, 389.9188
225.5667, 386.4450
226.0489, 383.7022
226.5310, 381.5592
227.0131, 379.7516
227.4952, 378.1173
227.9773, 376.6493
228.4594, 375.0606
228.9416, 373.4058
229.4237, 371.5751
229.9058, 369.3630
230.3879, 366.9594
230.8700, 364.7198
231.3521, 362.8786
231.8343, 361.4102
232.3164, 359.9808
232.7985, 358.6423
233.2806, 357.2815
233.7627, 355.7486
234.2448, 354.1664
234.7270, 352.7921
235.2091, 351.8112
235.6912, 351.1719
236.1733, 350.3827
236.6554, 349.3586
237.1375, 348.3056
237.6197, 347.3039
238.1018, 346.3255
238.5839, 345.2710
239.0660, 344.0611
239.5481, 342.7493
240.0302, 341.6309
240.5124, 341.0112
240.9945, 340.2244
241.4766, 338.8441
241.9587, 337.0967
242.4408, 335.5996
242.9229, 334.7375
243.4051, 334.2866
243.8872, 333.4530
244.3693, 331.8976
244.8514, 330.4991
245.3335, 329.9249
245.8156, 329.8697
246.2978, 329.3391
246.7799, 327.7483
247.2620, 325.5868
247.7441, 323.9312
248.2262, 322.8853
248.7083, 322.0397
249.1905, 321.1560
249.6726, 320.2970
250.1547, 319.7773
250.6368, 320.0088
251.1189, 320.2651
251.6010, 319.4099
252.0832, 317.2851
252.5653, 314.9449
253.0474, 312.5632
253.5295, 310.3270
254.0116, 309.1332
254.4937, 309.7750
254.9759, 310.9343
255.4580, 311.0251
255.9401, 310.0233
256.4222, 308.8887
256.9043, 308.2837
257.3864, 308.0835
257.8686, 307.6156
258.3507, 306.5991
258.8328, 305.4707
259.3149, 304.5125
259.7970, 303.7387
260.2791, 303.2767
260.7613, 303.5599
261.2434, 304.3668
261.7255, 304.3587
262.2076, 302.8639
262.6897, 301.1909
263.1718, 300.1512
263.6540, 299.6586
264.1361, 299.3945
264.6182, 299.2266
265.1003, 299.1401
265.5824, 299.0396
266.0645, 298.9076
266.5467, 298.7867
267.0288, 298.6097
267.5109, 298.4550
267.9930, 298.5179
268.4751, 299.1136
268.9572, 300.0298
269.4394, 300.2170
269.9215, 299.1026
270.4036, 298.0995
270.8857, 297.8180
271.3678, 297.9808
271.8499, 298.1480
272.3321, 298.0631
272.8142, 297.8319
273.2963, 297.8687
273.7784, 298.4967
274.2605, 298.8343
274.7426, 298.5513
275.2248, 297.9133
275.7069, 297.1363
276.1890, 296.2535
276.6711, 295.5004
277.1532, 295.5871
277.6353, 297.1436
278.1175, 298.3802
278.5996, 298.9576
279.0817, 299.1103
279.5638, 298.9108
280.0459, 298.3851
280.5280, 297.8753
281.0102, 298.1700
281.4923, 299.9855
281.9744, 301.0727
282.4565, 300.7268
282.9386, 299.9692
283.4207, 299.5420
283.9029, 299.6459
284.3850, 300.0137
284.8671, 300.2275
285.3492, 300.1503
285.8313, 300.2663
286.3134, 300.8444
286.7956, 301.4039
287.2777, 301.4818
287.7598, 301.1171
288.2419, 300.8571
288.7240, 301.4214
289.2061, 303.1084
289.6883, 304.5177
290.1704, 305.9933
290.6525, 306.9222
291.1346, 306.5897
291.6167, 305.2932
292.0988, 304.0722
292.5810, 303.8910
293.0631, 304.8174
293.5452, 306.0609
294.0273, 308.4448
294.5094, 310.3354
294.9915, 310.9283
295.4737, 310.5692
295.9558, 310.0543
296.4379, 309.9317
296.9200, 310.1912
297.4021, 310.6740
297.8842, 311.4526
298.3664, 312.3996
298.8485, 313.7051
299.3306, 315.1270
299.8127, 316.2826
300.2948, 316.9421
300.7769, 317.2315
301.2591, 317.6541
301.7412, 318.3343
302.2233, 319.0099
302.7054, 319.2991
303.1875, 319.7069
303.6696, 320.8861
304.1518, 323.0878
304.6339, 325.8918
305.1160, 328.4589
305.5981, 330.9360
306.0802, 332.8470
306.5623, 333.8589
307.0445, 334.5452
307.5266, 335.2133
308.0087, 336.0025
308.4908, 337.0957
308.9729, 338.7245
309.4550, 340.8002
309.9372, 343.7629
310.4193, 348.5072
310.9014, 353.2949
311.3835, 357.0149
311.8656, 359.6445
312.3477, 361.7910
312.8299, 363.9352
313.3120, 365.9469
313.7941, 369.0266
314.2762, 374.9514
314.7583, 380.0870
315.2404, 382.7973
315.7226, 383.4709
316.2047, 383.3087
316.6868, 383.1187
317.1689, 382.9142
317.6510, 382.9291
318.1331, 383.0185
318.6153, 383.4854
319.0974, 384.6664
319.5795, 386.2149
320.0616, 387.5522
320.5437, 388.3589
321.0258, 388.8935
321.5080, 390.0430
321.9901, 392.5950
322.4722, 394.7901
322.9543, 395.8841
323.4364, 396.8862
323.9185, 398.7656
324.4007, 401.8441
324.8828, 405.8805
325.3649, 410.4874
325.8470, 416.1533
326.3291, 421.5050
326.8112, 426.0871
327.2934, 430.7666
327.7755, 436.2237
328.2576, 442.4986
328.7397, 449.1379
329.2218, 455.6346
329.7039, 461.8474
330.1861, 468.7146
330.6682, 476.3222
331.1503, 484.4046
331.6324, 492.8438
332.1145, 501.6828
332.5966, 511.0610
333.0788, 521.2025
333.5609, 532.0180
334.0430, 541.9472
334.5251, 549.5777
335.0072, 557.9103
335.4893, 567.7669
335.9715, 578.6041
336.4536, 589.5872
336.9357, 600.2131
337.4178, 610.7943
337.8999, 622.0094
338.3820, 634.7071
338.8642, 646.8380
339.3463, 657.7389
339.8284, 668.3829
340.3105, 679.2936
340.7926, 690.7694
341.2747, 703.1340
341.7568, 716.9998
342.2390, 732.7809
342.7211, 749.0144
343.2032, 764.7118
343.6853, 781.4955
344.1674, 800.4521
344.6495, 821.4769
345.1317, 843.6150
345.6138, 865.8107
346.0959, 887.9352
346.5780, 912.2941
347.0601, 940.4472
347.5422, 969.5558
348.0244, 998.0462
348.5065, 1027.068
348.9886, 1058.937
349.4707, 1095.099
349.9528, 1134.779
350.4349, 1174.153
350.9171, 1213.708
351.3992, 1252.759
351.8813, 1292.702
352.3634, 1331.498
352.8455, 1367.514
353.3276, 1400.266
353.8098, 1428.628
354.2919, 1451.227
354.7740, 1469.269
355.2561, 1477.408
355.7382, 1473.735
356.2203, 1461.410
356.7025, 1441.081
357.1846, 1413.201
357.6667, 1378.815
358.1488, 1337.598
358.6309, 1289.584
359.1130, 1240.533
359.5952, 1189.039
360.0773, 1138.210
360.5594, 1088.899
361.0415, 1041.339
361.5236, 996.0135
362.0057, 953.0761
362.4879, 912.6877
362.9700, 874.4584
363.4521, 837.7932
363.9342, 805.2729
364.4163, 779.0944
364.8984, 756.4938
365.3806, 734.8234
365.8627, 713.1706
366.3448, 692.4190
366.8269, 673.7444
367.3090, 657.1772
367.7911, 641.7040
368.2733, 627.1536
368.7554, 613.7061
369.2375, 601.5869
369.7196, 590.7226
370.2017, 580.7057
370.6838, 571.3333
371.1660, 562.5909
371.6481, 554.5918
372.1302, 547.6332
372.6123, 540.9175
373.0944, 534.0582
373.5765, 527.0398
374.0587, 519.6782
374.5408, 511.6153
375.0229, 503.4077
375.5050, 496.0738
375.9871, 489.7765
376.4692, 483.1682
376.9514, 475.2841
377.4335, 466.8882
377.9156, 459.0567
378.3977, 451.9268
378.8798, 445.2148
379.3619, 438.8415
379.8441, 432.7422
380.3262, 426.6690
380.8083, 420.5648
381.2904, 414.3884
381.7725, 407.8099
382.2546, 400.8511
382.7368, 394.6332
383.2189, 390.2284
383.7010, 386.4497
384.1831, 381.4102
384.6652, 374.8186
385.1473, 368.3492
385.6295, 363.3347
386.1116, 359.6390
386.5937, 355.6986
387.0758, 351.5315
387.5579, 347.0775
388.0400, 342.0292
388.5222, 336.6191
389.0043, 331.4435
389.4864, 326.6812
389.9685, 322.5328
390.4506, 319.7425
390.9327, 318.9438
391.4149, 317.7631
391.8970, 315.5394
392.3791, 312.7567
392.8612, 309.8438
393.3433, 306.9261
393.8254, 304.2264
394.3076, 302.0826
394.7897, 300.6607
395.2718, 298.8673
395.7539, 296.4406
396.2360, 293.9058
396.7181, 291.2321
397.2003, 288.6664
397.6824, 286.9700
398.1645, 286.7502
398.6466, 287.5583
399.1287, 287.0767
399.6108, 283.7261
400.0930, 280.9821
400.5751, 279.5247
401.0572, 278.6884
401.5393, 277.7127
402.0214, 276.3806
402.5035, 275.0370
402.9857, 274.2383
403.4678, 274.2809
403.9499, 274.0168
404.4320, 273.2253
404.9141, 272.3714
405.3962, 271.6805
405.8784, 271.1307
406.3605, 270.5484
406.8426, 269.7522
407.3247, 268.8298
407.8068, 268.5151
408.2889, 269.5648
408.7711, 270.1186
409.2532, 269.6342
409.7353, 268.5556
410.2174, 267.1990
410.6995, 265.6747
411.1816, 264.3490
411.6638, 263.8782
412.1459, 264.4589
412.6280, 264.8380
413.1101, 264.9033
413.5922, 264.6550
414.0743, 263.8260
414.5565, 262.5960
415.0386, 261.6466
415.5207, 261.6411
416.0028, 262.2946
416.4849, 262.5933
416.9670, 262.5076
417.4492, 262.1380
417.9313, 261.2933
418.4134, 260.2761
418.8955, 259.4488
419.3776, 258.8737
419.8597, 258.5653
420.3419, 258.6322
420.8240, 259.0356
421.3061, 259.3989
421.7882, 259.5737
422.2703, 259.7289
422.7524, 260.2056
423.2346, 261.0029
423.7167, 261.3839
424.1988, 260.6505
424.6809, 259.5463
425.1630, 259.1593
425.6451, 259.5974
426.1273, 260.1270
426.6094, 260.2521
427.0915, 260.0092
427.5736, 259.7354
428.0557, 259.2889
428.5378, 258.9625
429.0200, 259.0956
429.5021, 259.4226
429.9842, 259.2234
430.4663, 258.1686
430.9484, 257.0406
431.4305, 257.2242
431.9127, 259.6552
432.3948, 261.1201
432.8769, 260.5731
433.3590, 259.8302
433.8411, 260.3552
434.3232, 262.0160
434.8054, 263.6800
435.2875, 264.4788
435.7696, 264.4787
436.2517, 264.3802
436.7338, 263.7428
437.2159, 263.5306
437.6981, 264.3520
438.1802, 265.4634
438.6623, 265.9205
439.1444, 265.4500
439.6265, 264.7091
440.1086, 264.8192
440.5908, 266.2774
441.0729, 266.9454
441.5550, 265.6434
442.0371, 264.6343
442.5192, 265.1008
443.0013, 266.6899
443.4835, 268.3925
443.9656, 269.6485
444.4477, 270.4771
444.9298, 270.8426
445.4119, 270.5936
445.8940, 270.2704
446.3762, 269.7842
446.8583, 269.4520
447.3404, 269.6120
447.8225, 270.3319
448.3046, 271.2928
448.7867, 272.3705
449.2689, 273.4987
449.7510, 274.2545
450.2331, 274.3795
450.7152, 274.5294
451.1973, 275.3017
451.6794, 276.5110
452.1616, 277.7310
452.6437, 278.9692
453.1258, 280.0727
453.6079, 280.7437
454.0900, 281.0678
454.5721, 281.5990
455.0543, 282.5753
455.5364, 283.8843
456.0185, 285.4335
456.5006, 287.4051
456.9827, 288.8983
457.4648, 289.0755
457.9470, 289.0287
458.4291, 290.1840
458.9112, 292.5887
459.3933, 294.8782
459.8754, 295.8262
460.3575, 295.4932
460.8397, 296.0276
461.3218, 297.9586
461.8039, 299.9860
462.2860, 301.8966
462.7681, 303.6646
463.2502, 305.3198
463.7324, 306.8626
464.2145, 308.1442
464.6966, 308.7947
465.1787, 308.2720
465.6608, 308.7700
466.1429, 311.5485
466.6251, 314.0737
467.1072, 314.7692
467.5893, 314.2950
468.0714, 314.3071
468.5535, 315.8288
469.0356, 318.5219
469.5178, 321.5488
469.9999, 325.2132
470.4820, 328.4205
470.9641, 330.4972
471.4462, 332.2824
471.9283, 334.1730
472.4105, 336.2713
472.8926, 338.9629
473.3747, 342.8265
473.8568, 347.5672
474.3389, 351.9568
474.8210, 355.7549
475.3032, 359.7040
475.7853, 364.5350
476.2674, 369.8422
476.7495, 374.7713
477.2316, 378.9295
477.7137, 383.0539
478.1959, 388.1389
478.6780, 393.6082
479.1601, 397.9484
479.6422, 400.6894
480.1243, 402.0983
480.6064, 402.4920
481.0886, 401.8634
481.5707, 399.8534
482.0528, 395.7263
482.5349, 390.8228
483.0170, 385.8039
483.4991, 380.7614
483.9813, 375.5928
484.4634, 370.1393
484.9455, 364.8116
485.4276, 360.8213
485.9097, 359.2502
486.3918, 357.5292
486.8740, 355.4784
487.3561, 353.3693
487.8382, 351.1554
488.3203, 349.0037
488.8024, 347.4466
489.2845, 346.9943
489.7667, 347.5515
490.2488, 348.0772
490.7309, 348.1981
491.2130, 348.9428
491.6951, 350.8632
492.1772, 353.3077
492.6594, 355.3911
493.1415, 356.8842
493.6236, 358.9103
494.1057, 362.8164
494.5878, 368.4147
495.0699, 373.9336
495.5521, 379.0011
496.0342, 384.3270
496.5163, 390.1495
496.9984, 396.5978
497.4805, 404.0749
497.9626, 412.5884
498.4448, 422.2774
498.9269, 433.6259
499.4090, 446.2736
499.8911, 459.0679
500.3732, 471.6761
500.8553, 484.0268
501.3375, 496.2903
501.8196, 508.7372
502.3017, 519.5475
502.7838, 529.1848
503.2659, 536.6542
503.7480, 541.9122
504.2302, 544.5070
504.7123, 543.2875
505.1944, 537.4771
505.6765, 527.8575
506.1586, 516.6882
506.6407, 503.6919
507.1228, 489.3477
507.6049, 472.1126
508.0871, 454.8451
508.5692, 439.3487
509.0513, 425.7120
509.5334, 413.1054
510.0155, 400.8774
510.4977, 389.1178
510.9798, 378.6195
511.4619, 369.3244
511.9440, 361.3923
512.4261, 355.2210
512.9083, 350.1940
513.3904, 345.9671
513.8725, 342.4770
514.3546, 339.4337
514.8367, 336.7337
515.3188, 334.3024
515.8010, 331.7815
516.2831, 329.0265
516.7652, 326.7420
517.2473, 325.5644
517.7294, 325.2450
518.2115, 324.8387
518.6937, 324.1337
519.1758, 323.6159
519.6579, 323.7342
520.1400, 324.1130
520.6221, 324.0638
521.1042, 323.4317
521.5864, 322.6818
522.0685, 322.2280
522.5506, 322.0185
523.0327, 322.7274
523.5148, 326.0054
523.9969, 328.2020
524.4791, 327.4153
524.9612, 325.1068
525.4433, 323.1818
525.9254, 322.3647
526.4075, 322.3452
526.8896, 322.7489
527.3718, 323.6196
527.8539, 324.6869
528.3360, 326.1670
528.8181, 327.5968
529.3002, 328.6499
529.7823, 329.5385
530.2645, 330.6757
530.7466, 332.2581
531.2287, 334.0612
531.7108, 335.6025
532.1929, 336.9437
532.6750, 339.1038
533.1572, 342.5438
533.6393, 346.4993
534.1214, 350.2069
534.6035, 353.7031
535.0856, 357.4212
535.5677, 361.4430
536.0499, 365.7129
536.5320, 370.1832
537.0141, 374.8839
537.4962, 379.9286
537.9783, 385.3097
538.4604, 391.2590
538.9426, 398.2237
539.4247, 407.0721
539.9068, 414.8234
540.3889, 420.8102
540.8710, 426.3927
541.3531, 431.9077
541.8353, 437.6640
542.3174, 444.2868
542.7995, 452.1754
543.2816, 460.6986
543.7637, 468.2308
544.2458, 474.1825
544.7280, 481.2343
545.2101, 490.5162
545.6922, 500.3148
546.1743, 509.4955
546.6564, 518.3734
547.1385, 527.9256
547.6207, 538.5306
548.1028, 550.2633
548.5849, 563.4338
549.0670, 578.0241
549.5491, 592.8353
550.0313, 607.2783
550.5134, 621.9058
550.9955, 637.5244
551.4776, 654.0385
551.9597, 670.9902
552.4418, 689.3618
552.9240, 707.1424
553.4061, 723.1906
553.8882, 737.3087
554.3703, 749.5923
554.8524, 760.2714
555.3345, 768.3610
555.8167, 771.7004
556.2988, 769.9891
556.7809, 763.6043
557.2630, 751.8631
557.7451, 736.7404
558.2272, 718.4869
558.7094, 697.6961
559.1915, 675.4777
559.6736, 652.3265
560.1557, 628.1981
560.6378, 602.3947
561.1199, 574.5018
561.6021, 548.1522
562.0842, 523.8372
562.5663, 501.9572
563.0484, 483.0610
563.5305, 466.8318
564.0126, 451.3560
564.4948, 435.7090
564.9769, 420.6559
565.4590, 406.9807
565.9411, 394.6552
566.4232, 383.5709
566.9053, 373.7413
567.3875, 364.9693
567.8696, 356.9186
568.3517, 349.6865
568.8338, 343.1338
569.3159, 337.5747
569.7980, 332.4295
570.2802, 327.3092
570.7623, 322.3802
571.2444, 317.9542
571.7265, 314.1993
572.2086, 310.9302
572.6907, 307.8685
573.1729, 304.9772
573.6550, 302.3359
574.1371, 299.9784
574.6192, 297.8624
575.1013, 296.0653
575.5834, 294.4658
576.0656, 292.8318
576.5477, 291.0485
577.0298, 289.2636
577.5119, 287.5621
577.9940, 285.9800
578.4761, 284.6709
578.9583, 283.6538
579.4404, 282.9986
579.9225, 282.9636
580.4046, 283.4942
580.8867, 283.5327
581.3688, 282.7616
581.8510, 281.8144
582.3331, 280.9733
582.8152, 280.1287
583.2973, 278.9286
583.7794, 277.3431
584.2615, 275.9818
584.7437, 275.6848
585.2258, 276.5508
585.7079, 276.6957
586.1900, 275.3389
586.6721, 274.2269
587.1542, 274.0191
587.6363, 274.1414
588.1184, 273.9551
588.6005, 273.3117
589.0826, 272.5148
589.5648, 271.7837
590.0469, 271.1179
590.5290, 270.4900
591.0111, 269.8675
591.4932, 269.4256
591.9753, 269.3150
592.4575, 269.4366
592.9396, 269.5477
593.4217, 269.7021
593.9038, 269.7118
594.3859, 269.1586
594.8680, 268.6575
595.3502, 269.1636
595.8323, 270.4995
596.3144, 271.4138
596.7965, 270.9769
597.2786, 269.6290
597.7607, 269.0558
598.2429, 270.2814
598.7250, 270.3922
599.2071, 267.9818
599.6892, 265.5982
600.1713, 264.8852
600.6534, 265.6427
601.1356, 266.7882
601.6177, 267.8300
602.0998, 268.7225
602.5819, 269.4861
603.0640, 270.1208
603.5461, 270.1833
604.0283, 269.4046
604.5104, 268.2501
604.9925, 266.9765
605.4746, 265.6337
605.9567, 265.0178
606.4388, 265.9777
606.9210, 266.9428
607.4031, 266.7329
607.8852, 265.9257
608.3673, 265.7769
608.8494, 266.6466
609.3315, 267.7020
609.8137, 267.8393
610.2958, 266.9479
610.7779, 266.2785
611.2600, 265.4349
611.7421, 265.3471
612.2242, 266.7520
612.7064, 268.7520
613.1885, 270.4212
613.6706, 271.5396
614.1527, 272.2780
614.6348, 272.4334
615.1169, 272.3308
615.5991, 273.0640
616.0812, 274.7628
616.5633, 276.6430
617.0454, 278.3128
617.5275, 279.9192
618.0096, 281.8829
618.4918, 284.4449
618.9739, 286.5760
619.4560, 287.7290
619.9381, 288.6567
620.4202, 289.8057
620.9023, 291.2765
621.3845, 293.2022
621.8666, 295.6698
622.3487, 298.4522
622.8308, 301.0430
623.3129, 303.4281
623.7950, 305.6579
624.2772, 307.1521
624.7593, 309.1049
625.2414, 312.3492
625.7235, 316.3717
626.2056, 320.0517
626.6877, 322.7755
627.1699, 325.6643
627.6520, 329.8923
628.1341, 335.1471
628.6162, 340.3919
629.0983, 345.4713
629.5804, 350.5215
630.0626, 355.6647
630.5447, 360.9029
631.0268, 366.4331
631.5089, 372.1952
631.9910, 378.2484
632.4731, 385.1895
632.9553, 392.0777
633.4374, 398.2964
633.9195, 403.6574
634.4016, 408.1143
634.8837, 411.6969
635.3658, 414.1891
635.8480, 414.8073
636.3301, 413.4131
636.8122, 410.6942
637.2943, 406.3160
637.7764, 401.1106
638.2585, 395.8553
638.7407, 390.4712
639.2228, 384.4821
639.7049, 377.3544
640.1870, 369.9479
640.6691, 362.6842
641.1512, 355.7106
641.6334, 349.4219
642.1155, 343.9444
642.5976, 338.6846
643.0797, 332.9286
643.5618, 326.6779
644.0439, 321.7232
644.5261, 319.3512
645.0082, 316.7208
645.4903, 313.0900
645.9724, 309.2797
646.4545, 305.7871
646.9366, 302.8199
647.4188, 300.7651
647.9009, 300.5515
648.3830, 301.1189
648.8651, 299.7413
649.3472, 296.3651
649.8293, 293.7159
650.3115, 292.9509
650.7936, 292.8867
651.2757, 291.9850
651.7578, 290.2080
652.2399, 288.6252
652.7220, 287.2018
653.2042, 286.1048
653.6863, 285.6896
654.1684, 285.5619
654.6505, 284.9948
655.1326, 283.8515
655.6147, 282.8201
656.0969, 282.8181
656.5790, 283.7482
657.0611, 283.7532
657.5432, 282.1604
658.0253, 281.0719
658.5074, 282.0634
658.9896, 283.3463
659.4717, 283.1792
659.9538, 281.4931
660.4359, 279.9550
660.9180, 279.1684
661.4001, 278.9757
661.8823, 279.5855
662.3644, 280.6904
662.8465, 281.1614
663.3286, 280.5373
663.8107, 279.5965
664.2928, 279.4738
664.7750, 280.3723
665.2571, 280.7065
665.7392, 280.1105
666.2213, 279.3680
666.7034, 278.3787
667.1855, 277.4876
667.6677, 277.1493
668.1498, 277.4056
668.6319, 277.7365
669.1140, 277.5526
669.5961, 277.1937
670.0782, 277.7209
670.5604, 279.1425
671.0425, 279.7822
671.5246, 278.6886
672.0067, 277.0119
672.4888, 276.6024
672.9709, 277.8750
673.4531, 278.2223
673.9352, 276.3587
674.4173, 274.9078
674.8994, 275.6715
675.3815, 277.3109
675.8636, 277.7146
676.3458, 276.4053
676.8279, 274.9105
677.3100, 275.0161
677.7921, 276.3978
678.2742, 276.8605
678.7563, 276.2009
679.2385, 275.3662
679.7206, 274.5205
680.2027, 273.8229
680.6848, 273.5067
681.1669, 273.5728
681.6490, 273.6501
682.1312, 273.7481
682.6133, 273.7359
683.0954, 273.4981
683.5775, 273.0913
684.0596, 272.6166
684.5417, 272.1102
685.0239, 271.5591
685.5060, 270.9048
685.9881, 270.1614
686.4702, 269.7302
686.9523, 269.7455
687.4344, 269.8170
687.9166, 269.9373
688.3987, 269.9939
688.8808, 269.6573
689.3629, 269.0067
689.8450, 268.9842
690.3271, 271.1880
690.8093, 273.2179
691.2914, 271.8617
691.7735, 268.4271
692.2556, 266.8414
692.7377, 268.2850
693.2198, 270.4633
693.7020, 270.8204
694.1841, 269.3716
694.6662, 268.4491
695.1483, 268.3667
695.6304, 268.3790
696.1125, 268.5027
696.5947, 268.5643
697.0768, 268.3803
697.5589, 267.9801
698.0410, 267.5859
698.5231, 267.3045
699.0052, 267.0996
699.4874, 267.0060
699.9695, 266.9641
700.4516, 266.6633
700.9337, 266.0036
701.4158, 265.3380
701.8979, 265.0002
702.3801, 264.9786
702.8622, 265.0796
703.3443, 265.5152
703.8264, 265.7903
704.3085, 265.7046
704.7906, 265.5626
705.2728, 265.7414
705.7549, 266.1014
706.2370, 266.0381
706.7191, 264.9922
707.2012, 263.8417
707.6833, 264.0443
708.1655, 265.3341
708.6476, 266.1989
709.1297, 266.3127
709.6118, 266.2660
710.0939, 266.5464
710.5760, 267.0591
711.0582, 267.2810
711.5403, 266.9801
712.0224, 266.7377
712.5045, 266.7842
712.9866, 266.7398
713.4688, 266.2508
713.9509, 265.4501
714.4330, 264.6825
714.9151, 264.0958
715.3972, 263.7120
715.8793, 263.6188
716.3615, 263.7740
716.8436, 263.9391
717.3257, 264.1079
717.8078, 264.1654
718.2899, 263.9751
718.7720, 263.6647
719.2542, 263.6009
719.7363, 263.9417
720.2184, 264.1176
720.7005, 264.0266
721.1826, 263.8087
721.6647, 263.4995
722.1469, 263.1339
722.6290, 262.6881
723.1111, 262.1633
723.5932, 261.8076
724.0753, 262.0915
724.5574, 262.8361
725.0396, 263.0510
725.5217, 262.6568
726.0038, 262.1087
726.4859, 261.4878
726.9680, 260.9574
727.4501, 260.7829
727.9323, 260.9715
728.4144, 261.4608
728.8965, 262.8149
729.3786, 263.8440
729.8607, 264.0209
730.3428, 263.5572
730.8250, 262.4833
731.3071, 260.9724
731.7892, 259.7924
732.2713, 259.7448
732.7534, 260.4693
733.2355, 260.9948
733.7177, 261.3249
734.1998, 261.3178
734.6819, 260.7500
735.1640, 260.2156
735.6461, 260.4214
736.1282, 261.3383
736.6104, 261.9129
737.0925, 261.8492
737.5746, 261.8282
738.0567, 262.2043
738.5388, 262.5615
739.0209, 262.2727
739.5031, 261.5443
739.9852, 261.3487
740.4673, 262.4045
740.9494, 263.8420
741.4315, 263.9951
741.9136, 263.0117
742.3958, 262.6895
742.8779, 263.4251
743.3600, 264.2557
743.8421, 264.6043
744.3242, 264.5320
744.8063, 264.1789
745.2885, 263.1674
745.7706, 262.6835
746.2527, 263.4041
746.7348, 264.1151
747.2169, 263.9721
747.6990, 263.3084
748.1812, 262.7560
748.6633, 262.5466
749.1454, 262.6566
749.6275, 263.1961
750.1096, 264.0336
750.5917, 264.8032
751.0739, 265.5052
751.5560, 265.8069
752.0381, 265.4988
752.5202, 264.8755
753.0023, 264.3097
753.4844, 263.7717
753.9666, 263.5203
754.4487, 264.0026
754.9308, 264.1936
755.4129, 263.3680
755.8950, 262.3973
756.3771, 262.2656
756.8593, 262.9781
757.3414, 263.7274
757.8235, 263.8982
758.3056, 263.9589
758.7877, 264.9766
759.2698, 266.5926
759.7520, 266.8756
760.2341, 265.3185
760.7162, 263.6696
761.1983, 263.3491
761.6804, 264.1104
762.1625, 264.7401
762.6447, 265.2344
763.1268, 265.5993
763.6089, 265.6248
764.0910, 265.7418
764.5731, 266.4027
765.0552, 267.2670
765.5374, 267.6188
766.0195, 267.1761
766.5016, 266.6666
766.9837, 266.6318
767.4658, 266.8921
767.9479, 267.2478
768.4301, 267.6375
768.9122, 267.7870
769.3943, 267.5538
769.8764, 267.2604
770.3585, 267.4141
770.8406, 268.0619
771.3228, 268.6950
771.8049, 269.6664
772.2870, 270.0558
772.7691, 269.0461
773.2512, 267.7982
773.7333, 267.3556
774.2155, 267.6963
774.6976, 268.0938
775.1797, 268.1329
775.6618, 268.2998
776.1439, 269.0332
776.6260, 270.0831
777.1082, 271.1615
777.5903, 272.1582
778.0724, 272.8712
778.5545, 273.1329
779.0366, 273.0838
779.5187, 273.0436
780.0009, 272.9734
780.4830, 273.1505
780.9651, 273.6494
781.4472, 274.3169
781.9293, 275.4554
782.4114, 276.5580
782.8936, 276.4642
783.3757, 274.6518
783.8578, 273.4882
784.3399, 273.9613
784.8220, 274.8555
785.3041, 275.5063
785.7863, 275.9442
786.2684, 276.2340
786.7505, 276.4416
787.2326, 276.8729
787.7147, 278.0644
788.1968, 279.6157
788.6790, 280.0360
789.1611, 279.2981
789.6432, 278.9628
790.1253, 279.5127
790.6074, 280.4384
791.0895, 281.3208
791.5717, 282.1534
792.0538, 282.8226
792.5359, 282.9850
793.0180, 283.4832
793.5001, 284.9319
793.9822, 286.2498
794.4644, 286.4240
794.9465, 285.9330
795.4286, 285.9667
795.9107, 286.9902
796.3928, 288.4223
796.8749, 289.9984
797.3571, 291.5368
797.8392, 292.6280
798.3213, 293.2969
798.8034, 293.8892
799.2855, 294.5552
799.7676, 295.1558
800.2498, 295.3676
800.7319, 295.1187
801.2140, 296.0138
801.6961, 298.9209
802.1782, 301.4102
802.6603, 302.6464
803.1425, 303.3771
803.6246, 303.8449
804.1067, 304.2221
804.5888, 305.2319
805.0709, 307.7892
805.5530, 309.9962
806.0352, 310.1897
806.5173, 309.9125
806.9994, 311.2341
807.4815, 313.9398
807.9636, 316.3501
808.4457, 317.5336
808.9279, 318.2477
809.4100, 319.6891
809.8921, 321.8142
810.3742, 324.0273
810.8563, 326.4507
811.3384, 328.1341
811.8206, 328.3768
812.3027, 328.0407
812.7848, 328.3986
813.2669, 329.5674
813.7490, 330.6221
814.2311, 331.1284
814.7133, 332.0668
815.1954, 334.1257
815.6775, 336.4167
816.1596, 338.1722
816.6417, 339.3477
817.1238, 340.2090
817.6060, 340.7758
818.0881, 341.3225
818.5702, 342.1546
819.0523, 343.1701
819.5344, 344.0811
820.0165, 344.8961
820.4987, 346.0005
820.9808, 347.6389
821.4629, 349.4258
821.9450, 350.5332
822.4271, 350.7607
822.9092, 351.8663
823.3914, 354.4056
823.8735, 356.7529
824.3556, 358.2166
824.8377, 359.3080
825.3198, 360.2950
825.8019, 361.2412
826.2841, 362.9287
826.7662, 366.4834
827.2483, 369.6162
827.7304, 370.4825
828.2125, 371.0371
828.6946, 373.6447
829.1768, 378.0447
829.6589, 382.3955
830.1410, 385.6906
830.6231, 388.6135
831.1052, 391.8522
831.5873, 395.4955
832.0695, 400.1171
832.5516, 405.7626
833.0337, 411.2089
833.5158, 415.8291
833.9979, 420.2180
834.4800, 425.2455
834.9622, 430.9137
835.4443, 437.1966
835.9264, 444.5521
836.4085, 451.7924
836.8906, 458.3504
837.3727, 464.9905
837.8549, 472.4076
838.3370, 480.4597
838.8191, 488.5462
839.3012, 496.5543
839.7833, 504.5381
840.2654, 512.2394
840.7476, 520.1480
841.2297, 528.6512
841.7118, 537.8842
842.1939, 548.1521
842.6760, 559.5612
843.1581, 571.1813
843.6403, 581.3562
844.1224, 593.3642
844.6045, 602.1468
845.0866, 616.0963
845.5687, 629.0751
846.0508, 639.5865
846.5330, 650.0215
847.0151, 662.8948
847.4972, 677.9931
847.9793, 692.6774
848.4614, 707.9489
848.9435, 721.1638
849.4257, 730.6042
849.9078, 739.7568
850.3899, 752.0065
850.8720, 764.9425
851.3541, 773.8549
851.8362, 777.4667
852.3184, 779.4308
852.8005, 782.3625
853.2826, 784.0132
853.7647, 782.4330
854.2468, 777.8253
854.7289, 770.5111
855.2111, 760.7794
855.6932, 749.3137
856.1753, 736.3876
856.6574, 722.8367
857.1395, 711.3510
857.6216, 701.8910
858.1038, 691.0539
858.5859, 678.1600
859.0680, 664.6744
859.5501, 651.1855
860.0322, 638.0783
860.5143, 626.2407
860.9965, 615.9752
861.4786, 606.0942
861.9607, 596.1811
862.4428, 587.0843
862.9249, 579.4534
863.4070, 572.4804
863.8892, 565.0374
864.3713, 557.2548
864.8534, 550.8803
865.3355, 547.4064
865.8176, 544.3309
866.2997, 539.5609
866.7819, 534.5309
867.2640, 531.0849
867.7461, 529.2589
868.2282, 528.4991
868.7103, 528.5457
869.1924, 528.7529
869.6746, 527.8906
870.1567, 526.3659
870.6388, 526.3246
871.1209, 527.8156
871.6030, 530.0629
872.0851, 532.9934
872.5673, 535.9598
873.0494, 538.1611
873.5315, 539.7461
874.0136, 542.1077
874.4957, 545.3029
874.9778, 549.2039
875.4600, 554.1365
875.9421, 559.4261
876.4242, 565.1033
876.9063, 570.8036
877.3884, 575.6492
877.8705, 579.2331
878.3527, 583.9430
878.8348, 590.7686
879.3169, 598.7806
879.7990, 608.0691
880.2811, 617.7318
880.7632, 626.2890
881.2454, 633.7474
881.7275, 641.6765
882.2096, 651.1201
882.6917, 661.2866
883.1738, 671.1436
883.6559, 680.7557
884.1381, 690.2242
884.6202, 699.5938
885.1023, 709.2078
885.5844, 719.2015
886.0665, 729.7773
886.5486, 741.4211
887.0308, 754.1894
887.5129, 765.8135
887.9950, 775.5475
888.4771, 786.1722
888.9592, 798.1669
889.4413, 811.6022
889.9235, 826.4987
890.4056, 842.9669
890.8877, 861.4718
891.3698, 882.5219
891.8519, 904.7809
892.3340, 927.6042
892.8162, 952.0607
893.2983, 978.5585
893.7804, 1007.140
894.2625, 1037.105
894.7446, 1068.567
895.2267, 1103.090
895.7089, 1142.489
896.1910, 1184.568
896.6731, 1226.249
897.1552, 1268.999
897.6373, 1315.573
898.1194, 1365.927
898.6016, 1418.377
899.0837, 1471.875
899.5658, 1527.643
900.0479, 1587.347
900.5300, 1650.764
901.0121, 1717.220
901.4943, 1786.845
901.9764, 1859.076
902.4585, 1933.627
902.9406, 2011.172
903.4227, 2092.272
903.9048, 2177.147
904.3870, 2265.188
904.8691, 2357.535
905.3512, 2450.753
905.8333, 2545.139
906.3154, 2639.893
906.7975, 2735.862
907.2797, 2830.578
907.7618, 2920.883
908.2439, 3006.266
908.7260, 3084.912
909.2081, 3160.924
909.6902, 3223.831
910.1724, 3271.206
910.6545, 3300.545
911.1366, 3309.865
911.6187, 3298.902
912.1008, 3268.063
912.5829, 3216.914
913.0651, 3149.144
913.5472, 3065.448
914.0293, 2968.073
914.5114, 2856.967
914.9935, 2735.310
915.4756, 2610.943
915.9578, 2486.865
916.4398, 2361.317
916.9219, 2231.581
917.4041, 2101.724
917.8862, 1983.521
918.3683, 1877.041
918.8504, 1776.005
919.3325, 1679.483
919.8146, 1587.961
920.2968, 1500.959
920.7789, 1419.425
921.2610, 1344.470
921.7431, 1276.147
922.2252, 1213.460
922.7073, 1157.641
923.1895, 1105.542
923.6716, 1056.492
924.1537, 1010.694
924.6358, 968.9325
925.1179, 930.5848
925.6000, 893.5967
926.0822, 856.8504
926.5643, 823.1597
927.0464, 794.0052
927.5285, 767.2170
928.0106, 741.9467
928.4927, 718.0236
928.9749, 695.9372
929.4570, 675.5618
929.9391, 656.0361
930.4212, 636.6380
930.9033, 618.2571
931.3854, 601.7465
931.8676, 586.6489
932.3497, 572.3643
932.8318, 558.6810
933.3139, 545.5360
933.7960, 532.8925
934.2781, 521.1976
934.7603, 511.2886
935.2424, 502.6646
935.7245, 493.4072
936.2066, 483.6461
936.6887, 474.8399
937.1708, 467.3649
937.6530, 460.3565
938.1351, 453.1222
938.6172, 446.0248
939.0993, 440.1277
939.5814, 435.7236
940.0635, 430.7697
940.5457, 425.0457
941.0278, 419.1757
941.5099, 413.0244
941.9920, 407.1786
942.4741, 402.1956
942.9562, 398.0479
943.4384, 394.5574
943.9205, 392.5750
944.4026, 389.9370
944.8847, 385.9870
945.3668, 381.9750
945.8489, 378.2618
946.3311, 375.0045
946.8132, 372.5056
947.2953, 370.7627
947.7774, 369.0211
948.2595, 367.3683
948.7416, 365.2264
949.2238, 361.7334
949.7059, 358.0637
950.1880, 355.4200
950.6701, 353.6561
951.1522, 352.0383
951.6343, 350.2946
952.1165, 348.6420
952.5986, 347.4855
953.0807, 346.3359
953.5628, 344.2510
954.0449, 341.6874
954.5270, 339.7787
955.0092, 338.6759
955.4913, 337.8259
955.9734, 336.9023
956.4555, 335.8920
956.9376, 334.7221
957.4197, 333.4393
957.9019, 332.2774
958.3840, 331.2425
958.8661, 330.2289
959.3482, 329.1790
959.8303, 328.3492
960.3124, 328.0031
960.7946, 328.0469
961.2767, 328.2089
961.7588, 328.6358
962.2409, 328.4229
962.7230, 327.4361
963.2051, 325.9199
963.6873, 323.3912
964.1694, 321.1666
964.6515, 321.3101
965.1336, 323.8167
965.6157, 324.9351
966.0978, 324.0587
966.5800, 322.7237
967.0621, 319.8344
967.5442, 317.8212
968.0263, 318.6932
968.5084, 320.9046
968.9905, 322.0218
969.4727, 321.7909
969.9548, 321.2671
970.4369, 320.4598
970.9190, 319.6740
971.4011, 319.0026
971.8832, 318.4289
972.3654, 317.9099
972.8475, 317.4832
973.3296, 317.3517
973.8117, 317.6361
974.2938, 317.5086
974.7759, 315.9129
975.2581, 314.2753
975.7402, 313.8622
976.2223, 314.2021
976.7044, 314.7997
977.1865, 315.3782
977.6686, 315.3710
978.1508, 314.4155
978.6329, 313.3175
979.1150, 313.0992
979.5971, 313.2480
980.0792, 312.7748
980.5613, 311.8181
981.0435, 310.8898
981.5256, 310.1530
982.0077, 309.8186
982.4898, 310.1544
982.9719, 310.5443
983.4540, 309.5616
983.9362, 307.4985
984.4183, 306.0011
984.9004, 305.1663
985.3825, 304.7500
985.8646, 304.6945
986.3467, 304.7160
986.8289, 304.5162
987.3110, 304.1721
987.7931, 304.0231
988.2752, 304.1064
988.7573, 304.0006
989.2394, 303.5242
989.7216, 303.4832
990.2037, 304.4459
990.6858, 305.5790
991.1679, 305.7988
991.6500, 305.1515
992.1321, 304.4847
992.6143, 303.4813
993.0964, 303.2355
993.5785, 304.4933
994.0606, 305.5682
994.5427, 305.3253
995.0248, 304.5707
995.5070, 304.5928
995.9891, 305.4597
996.4712, 306.0880
996.9533, 306.3960
997.4354, 306.5582
997.9175, 306.2427
998.3997, 306.1540
998.8818, 307.0907
999.3639, 308.3910
999.8460, 308.7126
1000.328, 307.8048
1000.810, 307.5672
1001.292, 309.2827
1001.774, 310.6954
1002.257, 310.2474
1002.739, 309.7116
1003.221, 311.0536
1003.703, 313.4462
1004.185, 314.7793
1004.667, 314.4767
1005.149, 313.9084
1005.631, 313.1051
1006.114, 313.0002
1006.596, 314.7207
1007.078, 317.1920
1007.560, 319.3994
1008.042, 321.0934
1008.524, 321.9814
1009.006, 321.9027
1009.488, 322.0513
1009.970, 323.5354
1010.453, 325.5871
1010.935, 327.8463
1011.417, 329.8315
1011.899, 330.3400
1012.381, 329.6464
1012.863, 329.4568
1013.345, 330.6330
1013.827, 332.5489
1014.310, 334.6595
1014.792, 336.9560
1015.274, 339.7093
1015.756, 342.6071
1016.238, 344.6140
1016.720, 345.6401
1017.202, 346.5459
1017.684, 347.8382
1018.166, 349.4249
1018.649, 351.1788
1019.131, 353.1883
1019.613, 355.3622
1020.095, 357.8789
1020.577, 360.5990
1021.059, 363.5092
1021.541, 366.2863
1022.023, 368.6915
1022.505, 371.0352
1022.988, 373.9876
1023.470, 377.5005
1023.952, 380.8748
1024.434, 384.1174
1024.916, 387.2095
1025.398, 390.0998
1025.880, 393.5124
1026.362, 398.1183
1026.845, 403.2840
1027.327, 407.2951
1027.809, 411.6845
1028.291, 415.9645
1028.773, 419.2436
1029.255, 423.7617
1029.737, 426.4191
1030.219, 429.4663
1030.702, 434.9006
1031.184, 441.7930
1031.666, 447.4955
1032.148, 451.8218
1032.630, 455.9740
1033.112, 459.8001
1033.594, 463.9597
1034.076, 468.9352
1034.558, 473.7409
1035.041, 477.4781
1035.523, 480.5117
1036.005, 484.0918
1036.487, 488.8014
1036.969, 491.9464
1037.451, 492.7899
1037.933, 493.5114
1038.415, 494.8747
1038.897, 496.0638
1039.380, 496.4315
1039.862, 496.0985
1040.344, 495.5337
1040.826, 495.1786
1041.308, 493.2715
1041.790, 488.9490
1042.272, 484.3297
1042.754, 479.8957
1043.237, 475.4188
1043.719, 471.1735
1044.201, 466.7381
1044.683, 460.7123
1045.165, 452.3028
1045.647, 444.7001
1046.129, 438.9203
1046.611, 432.7962
1047.094, 425.5699
1047.576, 417.9570
1048.058, 410.2337
1048.540, 402.6223
1049.022, 395.6439
1049.504, 389.5146
1049.986, 383.2028
1050.468, 375.6937
1050.950, 369.1307
1051.432, 364.8214
1051.915, 361.1142
1052.397, 356.8643
1052.879, 352.1147
1053.361, 346.9486
1053.843, 341.1760
1054.325, 336.2850
1054.807, 333.0162
1055.289, 330.1854
1055.772, 327.7597
1056.254, 325.2496
1056.736, 322.0325
1057.218, 318.4831
1057.700, 315.4364
1058.182, 313.0542
1058.664, 310.9684
1059.146, 309.3568
1059.629, 307.6449
1060.111, 305.3046
1060.593, 303.0427
1061.075, 301.4621
1061.557, 300.3896
1062.039, 299.5146
1062.521, 298.7855
1063.003, 297.7959
1063.485, 296.3036
1063.968, 294.6505
1064.450, 292.5787
1064.932, 290.7834
1065.414, 289.9356
1065.896, 289.7663
1066.378, 289.9041
1066.860, 290.2426
1067.342, 290.0429
1067.824, 288.4450
1068.307, 287.0202
1068.789, 286.8409
1069.271, 286.7396
1069.753, 285.4233
1070.235, 283.6507
1070.717, 282.9547
1071.199, 283.4750
1071.681, 283.6811
1072.164, 282.6812
1072.646, 281.6767
1073.128, 281.1567
1073.610, 280.8918
1074.092, 280.7942
1074.574, 280.7737
1075.056, 280.7346
1075.538, 280.6591
1076.021, 280.5678
1076.503, 280.5386
1076.985, 280.3541
1077.467, 279.8868
1077.949, 279.2534
1078.431, 278.1951
1078.913, 277.2340
1079.395, 277.5211
1079.877, 278.7202
1080.359, 278.6194
1080.842, 275.6375
1081.324, 273.5995
1081.806, 275.5180
1082.288, 277.6569
1082.770, 277.2584
1083.252, 275.7632
1083.734, 275.0336
1084.216, 275.0707
1084.698, 274.8254
1085.181, 273.8167
1085.663, 273.2558
1086.145, 273.9821
1086.627, 274.9816
1087.109, 276.0472
1087.591, 276.7501
1088.073, 276.5076
1088.555, 275.5492
1089.038, 274.4969
1089.520, 273.4741
1090.002, 272.7323
1090.484, 272.4903
1090.966, 272.4124
1091.448, 272.4587
1091.930, 272.4755
1092.412, 272.2142
1092.895, 271.8538
1093.377, 271.8197
1093.859, 272.1953
1094.341, 272.4977
1094.823, 272.6821
1095.305, 272.5872
1095.787, 271.9372
1096.269, 271.1888
1096.751, 270.6302
1097.234, 270.2431
1097.716, 269.9872
1098.198, 269.8448
1098.680, 269.7099
1099.162, 269.2841
1099.644, 269.2897
1100.126, 270.7359
1100.608, 271.8169
1101.090, 270.9502
1101.573, 269.3948
1102.055, 268.8592
1102.537, 269.2699
1103.019, 269.2243
1103.501, 268.1211
1103.983, 267.2732
1104.465, 266.9597
1104.947, 266.9866
1105.430, 267.3633
1105.912, 267.9548
1106.394, 268.8954
1106.876, 269.9306
1107.358, 270.2149
1107.840, 269.3666
1108.322, 268.8348
1108.804, 269.6760
1109.286, 269.7434
1109.769, 267.4733
1110.251, 265.0858
1110.733, 264.1363
1111.215, 264.3156
1111.697, 265.1010
1112.179, 266.6098
1112.661, 267.4431
1113.143, 266.8697
1113.625, 266.5448
1114.108, 266.8270
1114.590, 267.2758
1115.072, 268.0252
1115.554, 268.5809
1116.036, 267.9785
1116.518, 266.2687
1117.000, 265.5157
1117.482, 266.2801
1117.965, 267.0024
1118.447, 268.0632
1118.929, 268.4015
1119.411, 267.1109
1119.893, 265.5052
1120.375, 264.8553
1120.857, 265.0119
1121.339, 265.3707
1121.822, 266.1666
1122.304, 266.4193
1122.786, 265.9247
1123.268, 265.3210
1123.750, 264.5215
1124.232, 264.1922
1124.714, 265.0498
1125.196, 266.4671
1125.678, 267.0639
1126.161, 266.7788
1126.643, 266.5769
1127.125, 266.4886
1127.607, 266.2911
1128.089, 265.8166
1128.571, 265.7734
1129.053, 266.6973
1129.535, 267.7790
1130.017, 267.8558
1130.500, 267.1096
1130.982, 266.6924
1131.464, 266.6107
1131.946, 266.8744
1132.428, 267.5408
1132.910, 267.7944
1133.392, 267.2861
1133.874, 266.6786
1134.357, 266.5860
1134.839, 266.8394
1135.321, 267.1049
1135.803, 267.3572
1136.285, 267.1941
1136.767, 266.6677
1137.249, 266.7275
1137.731, 267.5628
1138.214, 268.2404
1138.696, 268.1716
1139.178, 267.8248
1139.660, 267.7523
1140.142, 267.9918
1140.624, 268.7470
1141.106, 269.9073
1141.588, 271.4048
1142.070, 272.9659
1142.552, 273.1718
1143.035, 271.5451
1143.517, 269.7787
1143.999, 269.4855
1144.481, 268.3515
1144.963, 268.8720
1145.445, 267.6740
1145.927, 267.4655
1146.409, 268.0830
1146.892, 268.9665
1147.374, 269.9055
1147.856, 270.7623
1148.338, 271.5061
1148.820, 271.9042
1149.302, 271.4278
1149.784, 270.8120
1150.266, 270.8302
1150.749, 271.2200
1151.231, 271.6452
1151.713, 272.0282
1152.195, 272.3548
1152.677, 272.6232
1153.159, 272.7519
1153.641, 272.6405
1154.123, 272.4527
1154.605, 272.1930
1155.088, 271.9821
1155.570, 272.0758
1156.052, 272.2088
1156.534, 271.5075
1157.016, 270.1845
1157.498, 270.5816
1157.980, 274.7099
1158.462, 277.6380
1158.944, 277.5186
1159.427, 276.7758
1159.909, 275.9859
1160.391, 275.5033
1160.873, 275.9247
1161.355, 276.8517
1161.837, 277.0337
1162.319, 276.1219
1162.801, 275.7607
1163.284, 276.2160
1163.766, 276.8046
1164.248, 277.4216
1164.730, 278.2084
1165.212, 279.6552
1165.694, 280.8138
1166.176, 280.0950
1166.658, 277.8055
1167.141, 276.8738
1167.623, 277.7005
1168.105, 278.2469
1168.587, 278.3692
1169.069, 278.4799
1169.551, 278.7818
1170.033, 278.7497
1170.515, 277.8347
1170.997, 276.6587
1171.479, 276.6461
1171.962, 277.6816
1172.444, 278.3354
1172.926, 278.6091
1173.408, 278.3591
1173.890, 277.5985
1174.372, 277.0948
1174.854, 277.2028
1175.336, 277.5758
1175.819, 277.9141
1176.301, 278.1351
1176.783, 277.8404
1177.265, 277.3709
1177.747, 277.7703
1178.229, 278.8232
1178.711, 279.6915
1179.193, 280.1407
1179.676, 280.1781
1180.158, 279.7777
1180.640, 279.2115
1181.122, 278.5113
1181.604, 278.0011
1182.086, 278.1735
1182.568, 278.6664
1183.050, 279.1937
1183.532, 279.5253
1184.015, 279.0763
1184.497, 277.8062
1184.979, 277.0703
1185.461, 277.8246
1185.943, 278.6974
1186.425, 279.4986
1186.907, 279.7289
1187.389, 278.0816
1187.871, 276.3884
1188.354, 277.3914
1188.836, 280.2984
1189.318, 281.6103
1189.800, 280.3381
1190.282, 279.5638
1190.764, 280.3521
1191.246, 280.5259
1191.728, 279.2371
1192.211, 277.8200
1192.693, 276.8711
1193.175, 276.3161
1193.657, 276.0472
1194.139, 276.0736
1194.621, 276.5377
1195.103, 277.5944
1195.585, 278.4491
1196.068, 279.0990
1196.550, 279.4171
1197.032, 279.3588
1197.514, 278.9608
1197.996, 278.2130
1198.478, 277.2973
1198.960, 276.4267
1199.442, 275.6966
1199.924, 275.6670
1200.406, 276.2446
1200.889, 276.9781
1201.371, 277.7375
1201.853, 278.0440
1202.335, 277.7627
1202.817, 277.4904
1203.299, 277.7357
1203.781, 278.0926
1204.263, 278.1083
1204.746, 277.8246
1205.228, 276.9873
1205.710, 276.0543
1206.192, 275.9297
1206.674, 276.5421
1207.156, 277.2201
1207.638, 277.7314
1208.120, 278.2917
1208.603, 279.5634
1209.085, 280.1910
1209.567, 278.8871
1210.049, 277.2545
1210.531, 276.1681
1211.013, 275.7639
1211.495, 276.3935
1211.977, 277.8091
1212.459, 278.8374
1212.942, 279.3189
1213.424, 279.4602
1213.906, 279.1684
1214.388, 278.6706
1214.870, 277.5713
1215.352, 276.9266
1215.834, 277.4626
1216.316, 278.6797
1216.798, 280.1681
1217.281, 281.6632
1217.763, 280.6688
1218.245, 276.5774
1218.727, 275.6928
1219.209, 278.6353
1219.691, 280.2930
1220.173, 279.2105
1220.655, 277.8261
1221.138, 277.7696
1221.620, 276.8359
1222.102, 277.4137
1222.584, 276.2065
1223.066, 275.8866
1223.548, 276.3191
1224.030, 277.5261
1224.512, 279.1063
1224.995, 279.7892
1225.477, 279.3599
1225.959, 278.8407
1226.441, 278.8012
1226.923, 278.8878
1227.405, 279.0662
1227.887, 278.9698
1228.369, 277.7235
1228.851, 276.4972
1229.333, 276.9438
1229.816, 278.3473
1230.298, 279.0077
1230.780, 278.6677
1231.262, 278.1529
1231.744, 277.3238
1232.226, 276.8496
1232.708, 277.1675
1233.190, 277.3915
1233.673, 277.1456
1234.155, 276.8042
1234.637, 276.7037
1235.119, 276.6631
1235.601, 276.2382
1236.083, 275.4287
1236.565, 275.0667
1237.047, 275.1570
1237.530, 275.8692
1238.012, 277.3141
1238.494, 277.8983
1238.976, 277.0232
1239.458, 275.9971
1239.940, 275.8963
1240.422, 276.0903
1240.904, 275.3070
1241.386, 274.1281
1241.869, 273.9582
1242.351, 274.5743
1242.833, 275.8477
1243.315, 277.3057
1243.797, 277.5171
1244.279, 276.2308
1244.761, 275.0914
1245.243, 274.9576
1245.725, 275.3610
1246.208, 276.3537
1246.690, 277.3675
1247.172, 278.0641
1247.654, 278.5214
1248.136, 278.9594
1248.618, 279.1941
1249.100, 278.6663
1249.582, 277.2686
1250.065, 276.2653
1250.547, 275.4943
1251.029, 275.6125
1251.511, 277.2698
1251.993, 278.4865
1252.475, 278.4479
1252.957, 278.2557
1253.439, 278.8333
1253.922, 278.5429
1254.404, 279.5058
1254.886, 278.6605
1255.368, 278.6040
1255.850, 279.2116
1256.332, 279.2610
1256.814, 278.7437
1257.296, 278.5714
1257.778, 278.9672
1258.260, 279.2960
1258.743, 279.1530
1259.225, 278.7602
1259.707, 278.0825
1260.189, 277.5560
1260.671, 278.0418
1261.153, 278.6686
1261.635, 277.7450
1262.117, 276.3262
1262.600, 277.1171
1263.082, 280.0655
1263.564, 281.5875
1264.046, 279.9771
1264.528, 278.8731
1265.010, 279.2670
1265.492, 279.8634
1265.974, 280.7925
1266.457, 281.1357
1266.939, 279.9930
1267.421, 278.4160
1267.903, 277.8646
1268.385, 278.1785
1268.867, 278.4248
1269.349, 278.5764
1269.831, 279.5079
1270.313, 281.2142
1270.796, 281.6701
1271.278, 280.5309
1271.760, 279.6509
1272.242, 279.9756
1272.724, 280.6577
1273.206, 280.8969
1273.688, 280.9313
1274.170, 281.4487
1274.652, 281.6786
1275.135, 279.8594
1275.617, 277.3626
1276.099, 276.6528
1276.581, 277.5959
1277.063, 278.6894
1277.545, 279.5767
1278.027, 280.1978
1278.509, 280.2064
1278.992, 280.4566
1279.474, 281.9266
1279.956, 282.6198
1280.438, 280.7610
1280.920, 279.0300
1281.402, 280.1054
1281.884, 282.4561
1282.366, 282.5329
1282.849, 280.4562
1283.331, 279.7505
1283.813, 280.4350
1284.295, 280.6628
1284.777, 280.2713
1285.259, 279.5468
1285.741, 278.6417
1286.223, 278.1246
1286.705, 278.3721
1287.188, 279.3947
##END=



