##NAMES=Sphalerite
##RRUFFID=R050005
##IDEAL CHEMISTRY=Zn^2+^S^2-^
##LOCALITY=Taolin mine, Yueyang, Linxing, Hunan Province, China
##OWNER=RRUFF
##SOURCE=Eugene Schlepp
##DESCRIPTION=Reddish brown crystals
##STATUS=The identification of this mineral has been confirmed by X-ray diffraction and chemical analysis
##URL=rruff.info/R050005
##MEASURED CHEMISTRY=(Zn_.997_Fe_.003_)S
127.7690, 1884.765
128.2512, 2061.137
128.7333, 2275.503
129.2154, 2561.315
129.6975, 2847.151
130.1796, 3150.620
130.6617, 3439.689
131.1439, 3669.927
131.6260, 3813.323
132.1081, 3876.459
132.5902, 3909.963
133.0723, 3896.906
133.5544, 3868.930
134.0366, 3844.434
134.5187, 3808.064
135.0008, 3727.815
135.4829, 3577.827
135.9650, 3362.741
136.4471, 3181.614
136.9293, 3030.300
137.4114, 2913.117
137.8935, 2835.475
138.3756, 2793.694
138.8577, 2781.180
139.3398, 2796.132
139.8220, 2839.027
140.3041, 2875.727
140.7862, 2881.146
141.2683, 2904.882
141.7504, 2965.231
142.2325, 3062.295
142.7147, 3190.519
143.1968, 3348.630
143.6789, 3537.756
144.1610, 3740.517
144.6431, 3954.837
145.1252, 4181.658
145.6074, 4428.376
146.0895, 4691.865
146.5716, 4957.020
147.0537, 5219.764
147.5358, 5475.600
148.0179, 5681.434
148.5001, 5822.935
148.9822, 5926.465
149.4643, 6007.872
149.9464, 6068.976
150.4285, 6111.026
150.9106, 6139.188
151.3928, 6148.377
151.8749, 6118.257
152.3570, 6033.837
152.8391, 5917.768
153.3212, 5777.919
153.8033, 5613.958
154.2855, 5458.532
154.7676, 5333.787
155.2497, 5239.039
155.7318, 5172.519
156.2139, 5144.102
156.6960, 5139.070
157.1782, 5138.827
157.6603, 5140.734
158.1424, 5159.471
158.6245, 5220.129
159.1066, 5307.836
159.5887, 5387.702
160.0709, 5447.365
160.5530, 5495.485
161.0351, 5539.765
161.5172, 5576.711
161.9993, 5622.958
162.4814, 5701.055
162.9636, 5796.545
163.4457, 5885.076
163.9278, 5953.553
164.4099, 6010.764
164.8920, 6072.917
165.3741, 6142.939
165.8563, 6209.188
166.3384, 6256.967
166.8205, 6296.666
167.3026, 6346.519
167.7847, 6416.035
168.2668, 6499.907
168.7490, 6590.909
169.2311, 6698.222
169.7132, 6791.818
170.1953, 6847.034
170.6774, 6880.849
171.1595, 6919.064
171.6417, 6974.562
172.1238, 7041.538
172.6059, 7107.668
173.0880, 7178.085
173.5701, 7236.326
174.0522, 7262.529
174.5344, 7276.137
175.0165, 7307.125
175.4986, 7379.424
175.9807, 7472.994
176.4628, 7531.125
176.9449, 7537.088
177.4271, 7536.592
177.9092, 7556.507
178.3913, 7579.858
178.8734, 7583.753
179.3555, 7556.805
179.8376, 7503.331
180.3197, 7433.964
180.8019, 7340.494
181.2840, 7244.771
181.7661, 7152.724
182.2482, 7063.031
182.7303, 6974.009
183.2124, 6883.878
183.6946, 6795.250
184.1767, 6714.476
184.6588, 6638.459
185.1409, 6578.556
185.6230, 6535.474
186.1051, 6507.874
186.5873, 6498.349
187.0694, 6511.482
187.5515, 6533.900
188.0336, 6527.709
188.5157, 6472.216
188.9978, 6422.896
189.4800, 6388.075
189.9621, 6366.107
190.4442, 6358.548
190.9263, 6367.565
191.4084, 6383.429
191.8905, 6380.346
192.3727, 6340.255
192.8548, 6313.540
193.3369, 6309.900
193.8190, 6320.496
194.3011, 6341.961
194.7832, 6373.352
195.2654, 6403.674
195.7475, 6406.726
196.2296, 6363.393
196.7117, 6327.804
197.1938, 6301.114
197.6759, 6286.644
198.1581, 6291.811
198.6402, 6318.430
199.1223, 6353.982
199.6044, 6372.695
200.0865, 6356.292
200.5686, 6360.578
201.0508, 6397.438
201.5329, 6448.269
202.0150, 6501.911
202.4971, 6554.535
202.9792, 6603.835
203.4613, 6642.511
203.9435, 6653.852
204.4256, 6693.724
204.9077, 6777.845
205.3898, 6877.212
205.8719, 6977.792
206.3540, 7074.510
206.8362, 7163.954
207.3183, 7236.627
207.8004, 7272.281
208.2825, 7343.330
208.7646, 7475.891
209.2467, 7619.414
209.7289, 7743.852
210.2110, 7846.049
210.6931, 7943.744
211.1752, 8056.407
211.6573, 8184.378
212.1395, 8324.818
212.6216, 8482.198
213.1037, 8646.336
213.5858, 8822.896
214.0679, 9004.474
214.5500, 9171.191
215.0322, 9303.021
215.5143, 9396.958
215.9964, 9472.000
216.4785, 9539.390
216.9606, 9578.332
217.4427, 9576.715
217.9249, 9538.278
218.4070, 9476.174
218.8891, 9402.959
219.3712, 9319.340
219.8533, 9198.150
220.3354, 8997.718
220.8176, 8797.997
221.2997, 8623.279
221.7818, 8465.814
222.2639, 8305.044
222.7460, 8126.144
223.2281, 7930.773
223.7103, 7752.693
224.1924, 7600.636
224.6745, 7457.771
225.1566, 7321.179
225.6387, 7190.982
226.1208, 7067.295
226.6030, 6950.400
227.0851, 6840.832
227.5672, 6740.796
228.0493, 6648.599
228.5314, 6569.665
229.0135, 6512.799
229.4957, 6466.001
229.9778, 6413.679
230.4599, 6348.392
230.9420, 6279.678
231.4241, 6231.212
231.9062, 6212.471
232.3884, 6199.929
232.8705, 6196.601
233.3526, 6193.876
233.8347, 6185.965
234.3168, 6170.685
234.7989, 6146.382
235.2811, 6109.819
235.7632, 6058.005
236.2453, 5999.908
236.7274, 5945.150
237.2095, 5879.012
237.6916, 5790.144
238.1738, 5676.917
238.6559, 5546.465
239.1380, 5401.570
239.6201, 5233.301
240.1022, 5083.225
240.5843, 4967.043
241.0665, 4857.764
241.5486, 4738.873
242.0307, 4611.991
242.5128, 4492.896
242.9949, 4397.814
243.4770, 4328.274
243.9592, 4263.079
244.4413, 4204.132
244.9234, 4147.572
245.4055, 4088.682
245.8876, 4030.513
246.3697, 3981.660
246.8519, 3951.614
247.3340, 3937.243
247.8161, 3911.476
248.2982, 3864.750
248.7803, 3818.729
249.2624, 3779.153
249.7446, 3745.320
250.2267, 3716.354
250.7088, 3692.287
251.1909, 3671.933
251.6730, 3651.325
252.1551, 3628.350
252.6373, 3609.571
253.1194, 3602.901
253.6015, 3598.719
254.0836, 3585.527
254.5657, 3558.033
255.0478, 3524.570
255.5300, 3496.935
256.0121, 3474.910
256.4942, 3460.024
256.9763, 3462.713
257.4584, 3467.099
257.9406, 3459.109
258.4227, 3435.393
258.9048, 3410.486
259.3869, 3404.659
259.8690, 3419.360
260.3511, 3417.400
260.8333, 3372.262
261.3154, 3325.468
261.7975, 3309.951
262.2796, 3325.259
262.7617, 3343.062
263.2438, 3342.348
263.7260, 3326.212
264.2081, 3313.205
264.6902, 3307.720
265.1723, 3301.586
265.6544, 3288.632
266.1365, 3270.199
266.6187, 3250.628
267.1008, 3230.660
267.5829, 3211.156
268.0650, 3193.656
268.5471, 3177.960
269.0292, 3165.104
269.5114, 3164.445
269.9935, 3166.574
270.4756, 3153.168
270.9577, 3111.580
271.4398, 3059.037
271.9219, 3010.987
272.4041, 2967.207
272.8862, 2934.483
273.3683, 2922.219
273.8504, 2920.884
274.3325, 2911.585
274.8146, 2890.948
275.2968, 2866.838
275.7789, 2840.623
276.2610, 2814.231
276.7431, 2796.144
277.2252, 2791.223
277.7073, 2793.651
278.1895, 2791.992
278.6716, 2783.408
279.1537, 2783.368
279.6358, 2804.359
280.1179, 2836.012
280.6000, 2858.785
281.0822, 2867.294
281.5643, 2873.842
282.0464, 2894.519
282.5285, 2930.578
283.0106, 2963.288
283.4927, 2987.192
283.9749, 3008.994
284.4570, 3033.130
284.9391, 3060.467
285.4212, 3093.945
285.9033, 3137.888
286.3854, 3191.804
286.8676, 3236.823
287.3497, 3251.940
287.8318, 3279.222
288.3139, 3354.426
288.7960, 3460.102
289.2781, 3545.936
289.7603, 3581.205
290.2424, 3580.471
290.7245, 3604.369
291.2066, 3667.026
291.6887, 3734.844
292.1708, 3802.364
292.6530, 3872.580
293.1351, 3949.530
293.6172, 4034.608
294.0993, 4126.161
294.5814, 4220.375
295.0635, 4314.290
295.5457, 4418.243
296.0278, 4550.293
296.5099, 4678.070
296.9920, 4776.872
297.4741, 4845.411
297.9562, 4898.178
298.4384, 4951.025
298.9205, 5006.318
299.4026, 5044.930
299.8847, 5076.105
300.3668, 5082.164
300.8489, 5051.644
301.3310, 4990.749
301.8131, 4910.267
302.2953, 4814.066
302.7774, 4707.396
303.2595, 4617.621
303.7416, 4554.362
304.2237, 4495.178
304.7058, 4434.384
305.1880, 4375.187
305.6701, 4321.428
306.1522, 4274.588
306.6343, 4232.373
307.1164, 4190.390
307.5985, 4147.381
308.0807, 4109.968
308.5628, 4088.811
309.0449, 4067.096
309.5270, 4031.721
310.0091, 3982.702
310.4912, 3935.504
310.9734, 3908.712
311.4555, 3899.418
311.9376, 3875.782
312.4197, 3833.011
312.9018, 3778.445
313.3839, 3714.793
313.8661, 3644.120
314.3482, 3572.248
314.8303, 3499.336
315.3124, 3427.839
315.7945, 3362.689
316.2766, 3304.699
316.7588, 3248.452
317.2409, 3187.169
317.7230, 3128.034
318.2051, 3082.331
318.6872, 3050.774
319.1693, 3034.434
319.6515, 3040.718
320.1336, 3065.253
320.6157, 3087.344
321.0978, 3097.178
321.5799, 3105.962
322.0620, 3131.335
322.5442, 3172.227
323.0263, 3225.439
323.5084, 3290.955
323.9905, 3368.136
324.4726, 3458.760
324.9547, 3563.423
325.4369, 3672.743
325.9190, 3776.173
326.4011, 3872.693
326.8832, 3985.606
327.3653, 4129.461
327.8474, 4276.188
328.3296, 4409.593
328.8117, 4532.781
329.2938, 4656.132
329.7759, 4785.931
330.2580, 4921.669
330.7401, 5056.898
331.2223, 5202.250
331.7044, 5334.597
332.1865, 5463.770
332.6686, 5573.610
333.1507, 5642.608
333.6328, 5665.426
334.1150, 5660.688
334.5971, 5655.533
335.0792, 5653.242
335.5613, 5641.098
336.0434, 5632.825
336.5255, 5604.307
337.0077, 5528.000
337.4898, 5417.179
337.9719, 5312.877
338.4540, 5250.646
338.9361, 5224.832
339.4182, 5183.494
339.9004, 5113.361
340.3825, 5047.450
340.8646, 4991.069
341.3467, 4945.155
341.8288, 4911.122
342.3109, 4889.588
342.7931, 4878.770
343.2752, 4872.752
343.7573, 4869.027
344.2394, 4889.087
344.7215, 4951.990
345.2036, 5030.987
345.6858, 5101.299
346.1679, 5162.539
346.6500, 5237.738
347.1321, 5352.976
347.6142, 5492.975
348.0963, 5623.568
348.5785, 5750.048
349.0606, 5840.694
349.5427, 5865.124
350.0248, 5832.660
350.5069, 5762.118
350.9890, 5631.767
351.4712, 5483.757
351.9533, 5344.809
352.4354, 5215.589
352.9175, 5096.819
353.3996, 4986.178
353.8817, 4889.319
354.3639, 4824.684
354.8460, 4798.413
355.3281, 4782.657
355.8102, 4774.510
356.2923, 4772.322
356.7744, 4776.458
357.2566, 4786.427
357.7387, 4795.792
358.2208, 4795.353
358.7029, 4779.892
359.1850, 4785.627
359.6671, 4822.250
360.1493, 4866.840
360.6314, 4909.299
361.1135, 4951.660
361.5956, 5003.842
362.0777, 5074.050
362.5598, 5151.237
363.0420, 5192.888
363.5241, 5164.085
364.0062, 5155.530
364.4883, 5198.288
364.9704, 5250.724
365.4525, 5273.898
365.9347, 5261.296
366.4168, 5241.542
366.8989, 5251.367
367.3810, 5293.711
367.8631, 5316.342
368.3452, 5300.791
368.8274, 5284.663
369.3095, 5284.833
369.7916, 5299.088
370.2737, 5321.999
370.7558, 5356.146
371.2379, 5393.307
371.7201, 5419.043
372.2022, 5432.589
372.6843, 5441.175
373.1664, 5441.980
373.6485, 5443.177
374.1306, 5459.113
374.6128, 5495.929
375.0949, 5526.827
375.5770, 5531.874
376.0591, 5522.040
376.5412, 5518.827
377.0233, 5526.779
377.5055, 5540.105
377.9876, 5553.792
378.4697, 5567.853
378.9518, 5581.228
379.4339, 5588.583
379.9160, 5599.991
380.3982, 5627.545
380.8803, 5664.677
381.3624, 5690.770
381.8445, 5693.199
382.3266, 5682.226
382.8087, 5689.317
383.2909, 5734.661
383.7730, 5772.467
384.2551, 5799.521
384.7372, 5820.165
385.2193, 5835.181
385.7014, 5846.320
386.1836, 5859.250
386.6657, 5879.555
387.1478, 5907.224
387.6299, 5941.012
388.1120, 5984.859
388.5941, 6031.052
389.0763, 6077.410
389.5584, 6124.210
390.0405, 6172.567
390.5226, 6224.694
391.0047, 6274.941
391.4868, 6311.798
391.9690, 6332.997
392.4511, 6361.489
392.9332, 6407.917
393.4153, 6459.863
393.8974, 6506.621
394.3795, 6548.111
394.8617, 6584.102
395.3438, 6618.740
395.8259, 6646.382
396.3080, 6653.046
396.7901, 6636.333
397.2722, 6620.542
397.7544, 6628.425
398.2365, 6651.236
398.7186, 6645.166
399.2007, 6597.620
399.6828, 6536.413
400.1649, 6466.204
400.6471, 6390.851
401.1292, 6317.119
401.6113, 6246.829
402.0934, 6175.200
402.5755, 6091.464
403.0576, 5981.284
403.5398, 5906.321
404.0219, 5893.136
404.5040, 5884.658
404.9861, 5848.301
405.4682, 5791.574
405.9503, 5739.030
406.4325, 5705.925
406.9146, 5689.008
407.3967, 5677.650
407.8788, 5672.058
408.3609, 5671.990
408.8430, 5677.317
409.3252, 5687.647
409.8073, 5704.015
410.2894, 5726.206
410.7715, 5750.429
411.2536, 5770.734
411.7357, 5789.451
412.2179, 5816.708
412.7000, 5850.532
413.1821, 5898.988
413.6642, 5975.806
414.1463, 6070.932
414.6284, 6164.243
415.1106, 6250.849
415.5927, 6336.817
416.0748, 6433.393
416.5569, 6533.941
417.0390, 6614.592
417.5211, 6664.455
418.0033, 6701.327
418.4854, 6755.914
418.9675, 6844.482
419.4496, 6890.433
419.9317, 6865.623
420.4138, 6817.811
420.8960, 6776.515
421.3781, 6741.071
421.8602, 6697.656
422.3423, 6636.189
422.8244, 6561.546
423.3065, 6495.233
423.7887, 6443.625
424.2708, 6390.401
424.7529, 6339.538
425.2350, 6282.760
425.7171, 6207.269
426.1992, 6114.354
426.6814, 6025.976
427.1635, 5971.926
427.6456, 5947.120
428.1277, 5892.929
428.6098, 5795.427
429.0919, 5695.213
429.5741, 5613.548
430.0562, 5542.016
430.5383, 5468.983
431.0204, 5390.974
431.5025, 5312.479
431.9846, 5235.497
432.4668, 5160.821
432.9489, 5092.709
433.4310, 5033.823
433.9131, 4976.023
434.3952, 4905.134
434.8773, 4818.525
435.3595, 4755.675
435.8416, 4730.415
436.3237, 4719.282
436.8058, 4714.940
437.2879, 4712.846
437.7701, 4702.797
438.2522, 4678.746
438.7343, 4649.119
439.2164, 4635.944
439.6985, 4650.034
440.1806, 4661.947
440.6628, 4672.694
441.1449, 4680.099
441.6270, 4681.606
442.1091, 4678.172
442.5912, 4673.045
443.0733, 4666.687
443.5555, 4661.324
444.0376, 4668.883
444.5197, 4697.583
445.0018, 4716.169
445.4839, 4708.560
445.9660, 4686.662
446.4482, 4658.484
446.9303, 4623.914
447.4124, 4592.499
447.8945, 4575.794
448.3766, 4565.255
448.8587, 4544.008
449.3409, 4509.704
449.8230, 4465.507
450.3051, 4414.635
450.7872, 4355.543
451.2693, 4280.649
451.7514, 4178.851
452.2336, 4075.606
452.7157, 3985.446
453.1978, 3896.825
453.6799, 3793.536
454.1620, 3671.110
454.6441, 3537.028
455.1263, 3397.452
455.6084, 3247.329
456.0905, 3121.336
456.5726, 3034.390
457.0547, 2958.840
457.5368, 2887.679
458.0190, 2822.467
458.5011, 2766.524
458.9832, 2721.198
459.4653, 2685.610
459.9474, 2659.397
460.4295, 2642.732
460.9117, 2630.489
461.3938, 2623.172
461.8759, 2618.161
462.3580, 2615.347
462.8401, 2613.644
463.3222, 2606.410
463.8044, 2583.112
464.2865, 2560.332
464.7686, 2557.397
465.2507, 2569.131
465.7328, 2573.075
466.2149, 2558.246
466.6971, 2534.987
467.1792, 2523.675
467.6613, 2531.182
468.1434, 2536.907
468.6255, 2538.991
469.1076, 2540.948
469.5898, 2543.734
470.0719, 2548.244
470.5540, 2557.670
471.0361, 2575.705
471.5182, 2595.589
472.0003, 2594.188
472.4825, 2559.146
472.9646, 2536.615
473.4467, 2550.914
473.9288, 2570.643
474.4109, 2574.893
474.8930, 2563.630
475.3752, 2551.580
475.8573, 2545.146
476.3394, 2544.079
476.8215, 2550.736
477.3036, 2565.217
477.7857, 2575.227
478.2679, 2572.332
478.7500, 2562.956
479.2321, 2563.510
479.7142, 2578.314
480.1963, 2590.467
480.6784, 2595.502
481.1606, 2597.368
481.6427, 2599.593
482.1248, 2602.356
482.6069, 2604.192
483.0890, 2604.257
483.5711, 2602.222
484.0533, 2595.443
484.5354, 2575.637
485.0175, 2565.087
485.4996, 2572.381
485.9817, 2585.106
486.4638, 2592.810
486.9460, 2594.823
487.4281, 2598.384
487.9102, 2613.797
488.3923, 2634.907
488.8744, 2641.244
489.3565, 2630.461
489.8387, 2617.151
490.3208, 2605.162
490.8029, 2597.270
491.2850, 2599.272
491.7671, 2615.540
492.2492, 2628.900
492.7314, 2631.573
493.2135, 2629.364
493.6956, 2628.011
494.1777, 2628.411
494.6598, 2629.899
495.1419, 2632.029
495.6241, 2634.777
496.1062, 2638.042
496.5883, 2641.053
497.0704, 2645.779
497.5525, 2655.413
498.0346, 2664.721
498.5168, 2668.642
498.9989, 2667.118
499.4810, 2664.580
499.9631, 2663.825
500.4452, 2665.004
500.9273, 2669.768
501.4095, 2679.542
501.8916, 2686.719
502.3737, 2685.946
502.8558, 2681.826
503.3379, 2681.410
503.8200, 2685.120
504.3022, 2691.297
504.7843, 2700.304
505.2664, 2710.889
505.7485, 2720.923
506.2306, 2730.655
506.7127, 2742.931
507.1949, 2760.250
507.6770, 2780.931
508.1591, 2797.488
508.6412, 2808.847
509.1233, 2817.360
509.6054, 2821.410
510.0876, 2824.171
510.5697, 2827.759
511.0518, 2832.311
511.5339, 2836.654
512.0161, 2838.620
512.4982, 2840.604
512.9803, 2850.800
513.4624, 2870.859
513.9445, 2889.027
514.4266, 2902.935
514.9088, 2911.226
515.3909, 2911.363
515.8730, 2902.673
516.3551, 2895.039
516.8372, 2892.264
517.3193, 2891.232
517.8015, 2889.052
518.2836, 2885.891
518.7657, 2883.248
519.2478, 2881.969
519.7299, 2881.501
520.2120, 2880.974
520.6942, 2884.140
521.1763, 2879.714
521.6584, 2864.182
522.1405, 2845.368
522.6226, 2826.671
523.1047, 2808.127
523.5869, 2788.653
524.0690, 2766.817
524.5511, 2745.415
525.0332, 2729.184
525.5153, 2718.105
525.9974, 2709.400
526.4796, 2703.881
526.9617, 2698.141
527.4438, 2687.736
527.9259, 2673.278
528.4080, 2660.092
528.8901, 2648.953
529.3723, 2639.226
529.8544, 2630.284
530.3365, 2622.502
530.8186, 2617.568
531.3007, 2615.903
531.7828, 2614.285
532.2650, 2607.692
532.7471, 2594.711
533.2292, 2585.397
533.7113, 2580.382
534.1934, 2578.593
534.6755, 2583.312
535.1577, 2589.615
535.6398, 2590.283
536.1219, 2582.817
536.6040, 2573.752
537.0861, 2566.948
537.5682, 2563.355
538.0504, 2570.387
538.5325, 2591.379
539.0146, 2602.702
539.4967, 2581.262
539.9788, 2536.614
540.4609, 2516.871
540.9431, 2540.733
541.4252, 2560.632
541.9073, 2560.895
542.3894, 2556.854
542.8715, 2566.589
543.3536, 2589.082
543.8358, 2607.329
544.3179, 2607.389
544.8000, 2592.709
545.2821, 2576.063
545.7642, 2552.068
546.2463, 2541.136
546.7285, 2565.584
547.2106, 2592.316
547.6926, 2590.232
548.1747, 2561.517
548.6569, 2542.390
549.1390, 2557.214
549.6211, 2583.497
550.1032, 2598.828
550.5853, 2603.986
551.0674, 2603.891
551.5496, 2600.024
552.0317, 2594.290
552.5138, 2589.525
552.9959, 2585.277
553.4780, 2583.640
553.9601, 2587.741
554.4423, 2590.721
554.9244, 2586.892
555.4065, 2581.033
555.8886, 2581.815
556.3707, 2592.608
556.8528, 2605.229
557.3350, 2608.103
557.8171, 2602.887
558.2992, 2603.957
558.7813, 2614.421
559.2634, 2625.404
559.7455, 2630.205
560.2277, 2631.200
560.7098, 2636.390
561.1919, 2650.425
561.6740, 2660.643
562.1561, 2658.558
562.6382, 2653.459
563.1204, 2656.620
563.6025, 2667.809
564.0846, 2678.032
564.5667, 2680.535
565.0488, 2677.457
565.5309, 2677.416
566.0131, 2681.746
566.4952, 2685.731
566.9773, 2687.062
567.4594, 2689.086
567.9415, 2694.049
568.4236, 2701.686
568.9058, 2710.331
569.3879, 2720.866
569.8700, 2730.726
570.3521, 2737.577
570.8342, 2741.646
571.3163, 2743.430
571.7985, 2742.982
572.2806, 2741.001
572.7627, 2737.531
573.2448, 2731.726
573.7269, 2732.535
574.2090, 2741.026
574.6912, 2754.517
575.1733, 2778.175
575.6554, 2803.438
576.1375, 2820.486
576.6196, 2827.458
577.1017, 2830.887
577.5839, 2837.952
578.0660, 2846.222
578.5481, 2844.064
579.0302, 2829.188
579.5123, 2823.338
579.9944, 2839.131
580.4766, 2867.364
580.9587, 2891.282
581.4408, 2911.104
581.9229, 2927.448
582.4050, 2943.497
582.8871, 2953.101
583.3693, 2946.077
583.8514, 2930.073
584.3335, 2921.108
584.8156, 2926.581
585.2977, 2941.229
585.7798, 2957.302
586.2620, 2974.645
586.7441, 2996.377
587.2262, 3030.905
587.7083, 3056.424
588.1904, 3049.590
588.6725, 3028.573
589.1547, 3023.799
589.6368, 3044.099
590.1189, 3067.952
590.6010, 3086.390
591.0831, 3101.851
591.5652, 3117.704
592.0474, 3133.890
592.5295, 3146.977
593.0116, 3153.879
593.4937, 3158.271
593.9758, 3172.572
594.4579, 3202.548
594.9401, 3228.546
595.4222, 3238.290
595.9043, 3253.459
596.3864, 3289.641
596.8685, 3339.833
597.3506, 3385.871
597.8328, 3421.332
598.3149, 3449.680
598.7970, 3466.541
599.2791, 3479.461
599.7612, 3511.781
600.2433, 3568.197
600.7255, 3626.308
601.2076, 3667.392
601.6897, 3693.293
602.1718, 3718.876
602.6539, 3733.330
603.1360, 3762.966
603.6182, 3823.696
604.1003, 3889.022
604.5824, 3941.411
605.0645, 3979.810
605.5466, 4009.722
606.0287, 4032.783
606.5109, 4051.489
606.9930, 4067.332
607.4751, 4081.309
607.9572, 4102.764
608.4393, 4136.225
608.9214, 4169.528
609.4036, 4190.502
609.8857, 4199.069
610.3678, 4205.550
610.8499, 4201.490
611.3320, 4206.144
611.8141, 4235.564
612.2963, 4268.575
612.7784, 4282.155
613.2605, 4275.335
613.7426, 4264.870
614.2247, 4266.170
614.7068, 4270.493
615.1890, 4254.883
615.6711, 4218.672
616.1532, 4177.127
616.6353, 4133.966
617.1174, 4088.558
617.5995, 4040.734
618.0817, 3990.303
618.5638, 3934.975
619.0459, 3870.690
619.5280, 3806.199
620.0101, 3736.091
620.4922, 3672.049
620.9744, 3630.587
621.4565, 3613.126
621.9386, 3605.136
622.4207, 3593.949
622.9028, 3581.598
623.3849, 3576.000
623.8671, 3577.304
624.3492, 3584.373
624.8313, 3596.156
625.3134, 3614.438
625.7955, 3643.714
626.2776, 3683.290
626.7598, 3721.345
627.2419, 3756.179
627.7240, 3789.082
628.2061, 3815.619
628.6882, 3842.407
629.1703, 3877.961
629.6525, 3924.454
630.1346, 3980.690
630.6167, 4048.703
631.0988, 4124.905
631.5809, 4187.160
632.0630, 4230.132
632.5452, 4281.483
633.0273, 4356.043
633.5094, 4436.688
633.9915, 4506.364
634.4736, 4565.296
634.9557, 4616.319
635.4379, 4661.709
635.9200, 4696.880
636.4021, 4718.508
636.8842, 4728.440
637.3663, 4729.509
637.8484, 4722.434
638.3306, 4706.490
638.8127, 4681.706
639.2948, 4647.312
639.7769, 4598.875
640.2590, 4535.094
640.7411, 4461.023
641.2233, 4374.300
641.7054, 4281.682
642.1875, 4187.466
642.6696, 4092.003
643.1517, 4002.421
643.6339, 3921.544
644.1160, 3845.411
644.5981, 3773.785
645.0802, 3704.646
645.5623, 3632.767
646.0444, 3558.603
646.5266, 3492.345
647.0087, 3444.300
647.4908, 3411.988
647.9729, 3384.333
648.4550, 3361.813
648.9371, 3342.027
649.4193, 3318.182
649.9014, 3303.889
650.3835, 3315.416
650.8656, 3349.513
651.3477, 3384.784
651.8298, 3419.696
652.3120, 3452.860
652.7941, 3479.380
653.2762, 3506.043
653.7583, 3539.613
654.2404, 3582.408
654.7225, 3637.746
655.2047, 3710.803
655.6868, 3795.018
656.1689, 3863.198
656.6510, 3909.470
657.1331, 3978.225
657.6152, 4090.091
658.0974, 4209.835
658.5795, 4302.787
659.0616, 4375.371
659.5437, 4454.379
660.0258, 4539.071
660.5079, 4634.788
660.9901, 4752.405
661.4722, 4876.121
661.9543, 4989.641
662.4364, 5092.223
662.9185, 5192.664
663.4006, 5295.451
663.8828, 5403.739
664.3649, 5529.843
664.8470, 5674.735
665.3291, 5805.908
665.8112, 5919.925
666.2933, 6017.681
666.7755, 6104.633
667.2576, 6175.048
667.7397, 6209.805
668.2218, 6195.308
668.7039, 6167.789
669.1860, 6142.092
669.6682, 6099.515
670.1503, 6015.208
670.6324, 5900.688
671.1145, 5789.137
671.5966, 5696.610
672.0787, 5612.280
672.5609, 5523.673
673.0430, 5429.873
673.5251, 5320.481
674.0072, 5189.170
674.4893, 5071.604
674.9714, 4990.602
675.4536, 4936.147
675.9357, 4883.908
676.4178, 4833.098
676.8999, 4785.777
677.3820, 4743.958
677.8641, 4703.574
678.3463, 4662.530
678.8284, 4621.794
679.3105, 4584.244
679.7926, 4550.850
680.2747, 4516.284
680.7568, 4474.574
681.2390, 4428.580
681.7211, 4382.601
682.2032, 4337.530
682.6853, 4302.279
683.1674, 4281.260
683.6495, 4270.736
684.1317, 4268.296
684.6138, 4281.001
685.0959, 4264.127
685.5780, 4182.651
686.0601, 4113.144
686.5422, 4077.529
687.0244, 4060.616
687.5065, 4052.449
687.9886, 4049.087
688.4707, 4035.386
688.9528, 3991.136
689.4349, 3941.045
689.9171, 3918.157
690.3992, 3912.897
690.8813, 3894.031
691.3634, 3853.409
691.8455, 3812.333
692.3276, 3794.511
692.8098, 3795.568
693.2919, 3775.832
693.7740, 3725.409
694.2561, 3675.918
694.7382, 3631.063
695.2203, 3590.688
695.7025, 3557.438
696.1846, 3528.773
696.6667, 3495.691
697.1488, 3454.114
697.6309, 3410.477
698.1130, 3366.655
698.5952, 3323.774
699.0773, 3278.201
699.5594, 3233.703
700.0415, 3207.910
700.5236, 3213.941
701.0057, 3232.051
701.4879, 3217.824
701.9700, 3169.178
702.4521, 3132.206
702.9342, 3113.468
703.4163, 3100.143
703.8984, 3085.673
704.3806, 3071.171
704.8627, 3059.013
705.3448, 3049.147
705.8269, 3041.502
706.3090, 3040.116
706.7911, 3036.866
707.2733, 3022.466
707.7554, 3004.309
708.2375, 2997.040
708.7196, 3004.464
709.2017, 3012.255
709.6838, 3001.794
710.1660, 2982.603
710.6481, 2983.375
711.1302, 3002.854
711.6123, 3011.852
712.0944, 2998.387
712.5765, 2977.561
713.0587, 2968.038
713.5408, 2970.420
714.0229, 2971.197
714.5050, 2965.305
714.9871, 2964.883
715.4692, 2981.135
715.9514, 2996.185
716.4335, 2992.068
716.9156, 2972.169
717.3977, 2956.630
717.8798, 2955.391
718.3619, 2958.543
718.8441, 2958.301
719.3262, 2957.035
719.8083, 2959.741
720.2904, 2966.351
720.7725, 2972.528
721.2546, 2975.728
721.7368, 2974.959
722.2189, 2964.168
722.7010, 2939.440
723.1831, 2934.260
723.6652, 2963.073
724.1473, 2987.977
724.6295, 2983.861
725.1116, 2962.977
725.5937, 2952.058
726.0758, 2956.263
726.5579, 2952.706
727.0400, 2924.971
727.5222, 2900.780
728.0043, 2900.553
728.4864, 2913.560
728.9685, 2921.300
729.4506, 2918.966
729.9327, 2915.451
730.4149, 2917.646
730.8970, 2924.823
731.3791, 2938.484
731.8612, 2957.327
732.3433, 2968.291
732.8254, 2967.082
733.3076, 2960.441
733.7897, 2955.105
734.2718, 2950.803
734.7539, 2943.064
735.2360, 2921.794
735.7181, 2914.198
736.2003, 2938.953
736.6824, 2963.243
737.1645, 2962.210
737.6466, 2944.501
738.1287, 2936.489
738.6108, 2949.713
739.0930, 2962.421
739.5751, 2963.341
740.0572, 2956.582
740.5393, 2941.529
741.0214, 2922.997
741.5035, 2915.016
741.9857, 2924.303
742.4678, 2939.631
742.9499, 2942.915
743.4320, 2935.660
743.9141, 2942.532
744.3962, 2968.234
744.8784, 2982.540
745.3605, 2969.085
745.8426, 2945.798
746.3247, 2936.444
746.8068, 2942.395
747.2889, 2950.269
747.7711, 2971.024
748.2532, 2979.561
748.7353, 2954.936
749.2174, 2926.855
749.6995, 2925.248
750.1816, 2946.677
750.6638, 2965.077
751.1459, 2967.145
751.6280, 2963.812
752.1101, 2964.927
752.5922, 2967.894
753.0743, 2966.979
753.5565, 2962.217
754.0386, 2958.695
754.5207, 2959.479
755.0028, 2962.615
755.4849, 2965.206
755.9670, 2967.706
756.4492, 2964.013
756.9313, 2949.962
757.4134, 2940.089
757.8955, 2942.503
758.3776, 2951.140
758.8597, 2957.186
759.3419, 2960.477
759.8240, 2963.383
760.3061, 2965.363
760.7882, 2967.863
761.2703, 2973.695
761.7524, 2978.841
762.2346, 2978.763
762.7167, 2973.458
763.1988, 2965.596
763.6809, 2953.607
764.1630, 2945.246
764.6451, 2956.790
765.1273, 2977.633
765.6094, 2975.992
766.0915, 2950.432
766.5736, 2932.626
767.0557, 2942.904
767.5378, 2969.234
768.0200, 2987.493
768.5021, 2998.246
768.9842, 2994.508
769.4663, 2964.534
769.9484, 2945.484
770.4305, 2963.583
770.9127, 2994.560
771.3948, 3001.123
771.8769, 2981.064
772.3590, 2968.054
772.8411, 2973.921
773.3232, 2977.857
773.8054, 2968.280
774.2875, 2955.104
774.7696, 2949.538
775.2517, 2951.606
775.7338, 2953.206
776.2159, 2947.802
776.6981, 2944.593
777.1802, 2959.298
777.6623, 2982.766
778.1444, 2990.530
778.6265, 2982.099
779.1086, 2980.035
779.5908, 2997.849
780.0729, 3022.691
780.5550, 3030.565
781.0371, 3020.033
781.5192, 3004.904
782.0013, 2980.435
782.4835, 2964.274
782.9656, 2967.360
783.4477, 2978.024
783.9298, 2981.020
784.4119, 2976.125
784.8940, 2974.536
785.3762, 2975.794
785.8583, 2981.620
786.3404, 2999.861
786.8225, 3017.021
787.3046, 3019.654
787.7867, 3010.528
788.2689, 3002.130
788.7510, 2999.727
789.2331, 2999.250
789.7152, 2997.865
790.1973, 2995.828
790.6794, 2992.651
791.1616, 2989.042
791.6437, 2987.481
792.1258, 2989.032
792.6079, 2993.392
793.0900, 3001.685
793.5721, 3012.942
794.0543, 3016.510
794.5364, 3011.082
795.0185, 3005.890
795.5006, 3002.676
795.9827, 3002.720
796.4648, 3009.593
796.9470, 3021.893
797.4291, 3024.331
797.9112, 3002.761
798.3933, 2991.660
798.8754, 2998.968
799.3575, 3010.725
799.8397, 3021.980
800.3218, 3031.024
800.8039, 3036.188
801.2860, 3037.209
801.7681, 3033.304
802.2502, 3017.328
802.7324, 3002.201
803.2145, 3001.201
803.6966, 3009.403
804.1787, 3017.306
804.6608, 3022.198
805.1429, 3025.912
805.6251, 3030.739
806.1072, 3034.385
806.5893, 3029.349
807.0714, 3017.367
807.5535, 3012.877
808.0356, 3018.738
808.5178, 3025.072
808.9999, 3025.016
809.4820, 3021.695
809.9641, 3023.656
810.4462, 3033.993
810.9283, 3038.396
811.4105, 3036.588
811.8926, 3029.090
812.3747, 3003.847
812.8568, 2981.186
813.3389, 2991.129
813.8210, 3033.530
814.3032, 3059.570
814.7853, 3051.971
815.2674, 3039.849
815.7495, 3027.360
816.2316, 3019.128
816.7137, 3020.795
817.1959, 3030.291
817.6780, 3041.750
818.1601, 3054.039
818.6422, 3061.406
819.1243, 3053.621
819.6064, 3040.869
820.0886, 3040.838
820.5707, 3050.737
821.0528, 3056.600
821.5349, 3053.602
822.0170, 3048.542
822.4991, 3049.241
822.9813, 3053.962
823.4634, 3054.533
823.9455, 3050.640
824.4276, 3049.353
824.9097, 3052.380
825.3918, 3057.567
825.8740, 3064.478
826.3561, 3071.413
826.8382, 3071.951
827.3203, 3060.026
827.8024, 3055.861
828.2845, 3069.345
828.7667, 3078.420
829.2488, 3071.046
829.7309, 3057.550
830.2130, 3047.653
830.6951, 3042.169
831.1772, 3047.207
831.6594, 3077.124
832.1415, 3102.084
832.6236, 3108.497
833.1057, 3104.270
833.5878, 3092.572
834.0699, 3078.083
834.5521, 3070.936
835.0342, 3076.389
835.5163, 3085.932
835.9984, 3098.996
836.4805, 3107.094
836.9626, 3087.749
837.4448, 3049.739
837.9269, 3027.351
838.4090, 3031.923
838.8911, 3049.759
839.3732, 3070.321
839.8553, 3089.337
840.3375, 3087.226
840.8196, 3063.429
841.3017, 3047.160
841.7838, 3043.379
842.2659, 3049.552
842.7480, 3067.177
843.2302, 3089.413
843.7123, 3098.167
844.1944, 3087.428
844.6765, 3083.614
845.1586, 3093.174
845.6407, 3100.043
846.1229, 3095.487
846.6050, 3088.099
847.0871, 3087.112
847.5692, 3091.955
848.0513, 3093.816
848.5334, 3085.505
849.0156, 3082.197
849.4977, 3094.898
849.9798, 3107.960
850.4619, 3107.514
850.9440, 3098.146
851.4261, 3091.483
851.9083, 3091.141
852.3904, 3092.332
852.8725, 3091.363
853.3546, 3090.801
853.8367, 3094.702
854.3188, 3100.722
854.8010, 3101.756
855.2831, 3098.039
855.7652, 3100.695
856.2473, 3119.775
856.7294, 3144.204
857.2115, 3154.656
857.6937, 3153.264
858.1758, 3148.872
858.6579, 3142.397
859.1400, 3133.001
859.6221, 3119.603
860.1042, 3107.900
860.5864, 3106.907
861.0685, 3116.137
861.5506, 3121.493
862.0327, 3121.922
862.5148, 3122.323
862.9969, 3122.728
863.4791, 3125.539
863.9612, 3134.149
864.4433, 3146.293
864.9254, 3153.644
865.4075, 3154.795
865.8896, 3154.072
866.3718, 3146.606
866.8539, 3143.140
867.3360, 3152.317
867.8181, 3164.326
868.3002, 3166.876
868.7823, 3159.962
869.2645, 3155.562
869.7466, 3162.407
870.2287, 3164.926
870.7108, 3151.269
871.1929, 3135.660
871.6750, 3129.624
872.1572, 3132.531
872.6393, 3142.408
873.1214, 3159.120
873.6035, 3170.261
874.0856, 3161.824
874.5677, 3147.378
875.0499, 3138.584
875.5320, 3136.757
876.0141, 3148.818
876.4962, 3172.124
876.9783, 3185.535
877.4604, 3172.487
877.9426, 3151.508
878.4247, 3156.429
878.9068, 3178.942
879.3889, 3185.377
879.8710, 3175.026
880.3531, 3169.699
880.8353, 3178.388
881.3174, 3192.367
881.7995, 3202.696
882.2816, 3208.582
882.7637, 3202.615
883.2458, 3182.392
883.7280, 3167.926
884.2101, 3161.816
884.6922, 3164.737
885.1743, 3180.066
885.6564, 3201.516
886.1385, 3216.094
886.6207, 3224.269
887.1028, 3222.362
887.5849, 3197.570
888.0670, 3183.570
888.5491, 3199.024
889.0313, 3220.071
889.5134, 3224.949
889.9955, 3217.358
890.4776, 3214.371
890.9597, 3218.697
891.4418, 3224.771
891.9240, 3237.326
892.4061, 3245.509
892.8882, 3239.881
893.3703, 3228.429
893.8524, 3219.449
894.3345, 3214.933
894.8167, 3220.547
895.2988, 3253.377
895.7809, 3278.854
896.2630, 3275.538
896.7451, 3258.000
897.2272, 3232.913
897.7094, 3208.406
898.1915, 3200.822
898.6736, 3216.115
899.1557, 3234.939
899.6378, 3240.216
900.1199, 3241.760
900.6021, 3256.682
901.0842, 3275.820
901.5663, 3276.168
902.0484, 3257.042
902.5305, 3238.507
903.0126, 3232.890
903.4948, 3235.219
903.9769, 3240.967
904.4590, 3248.383
904.9411, 3250.602
905.4232, 3248.308
905.9053, 3248.950
906.3875, 3254.927
906.8696, 3261.915
907.3517, 3265.541
907.8338, 3267.352
908.3159, 3273.088
908.7980, 3282.786
909.2802, 3291.198
909.7623, 3298.642
910.2444, 3296.403
910.7265, 3277.351
911.2086, 3255.490
911.6907, 3251.486
912.1729, 3265.158
912.6550, 3279.844
913.1371, 3298.295
913.6192, 3308.970
914.1013, 3308.518
914.5834, 3302.101
915.0656, 3289.595
915.5477, 3275.649
916.0298, 3271.303
916.5119, 3279.164
916.9940, 3287.047
917.4761, 3300.398
917.9583, 3306.020
918.4404, 3295.543
918.9225, 3280.847
919.4046, 3270.563
919.8867, 3263.854
920.3688, 3256.129
920.8510, 3239.772
921.3331, 3238.577
921.8152, 3271.346
922.2973, 3302.187
922.7794, 3316.279
923.2615, 3318.469
923.7437, 3310.483
924.2258, 3295.291
924.7079, 3287.224
925.1900, 3294.761
925.6721, 3303.115
926.1542, 3307.700
926.6364, 3309.408
927.1185, 3307.402
927.6006, 3303.631
928.0827, 3300.841
928.5648, 3299.720
929.0469, 3299.917
929.5291, 3299.281
930.0112, 3302.144
930.4933, 3319.088
930.9754, 3336.442
931.4575, 3333.069
931.9396, 3314.762
932.4218, 3302.125
932.9039, 3302.577
933.3860, 3307.770
933.8681, 3312.430
934.3502, 3316.245
934.8323, 3317.313
935.3145, 3317.711
935.7966, 3323.542
936.2787, 3333.753
936.7608, 3339.254
937.2429, 3334.964
937.7250, 3328.261
938.2072, 3329.221
938.6893, 3334.028
939.1714, 3331.956
939.6535, 3325.517
940.1356, 3328.183
940.6177, 3341.445
941.0999, 3347.349
941.5820, 3331.818
942.0641, 3309.324
942.5462, 3306.804
943.0283, 3320.785
943.5104, 3336.363
943.9926, 3352.071
944.4747, 3356.548
944.9568, 3346.055
945.4389, 3332.074
945.9210, 3324.100
946.4031, 3322.268
946.8853, 3329.720
947.3674, 3346.376
947.8495, 3353.433
948.3316, 3348.903
948.8137, 3344.343
949.2958, 3344.525
949.7780, 3344.543
950.2601, 3338.365
950.7422, 3327.676
951.2243, 3320.590
951.7064, 3316.399
952.1885, 3322.220
952.6707, 3342.382
953.1528, 3358.836
953.6349, 3363.324
954.1170, 3359.273
954.5991, 3349.115
955.0812, 3333.681
955.5634, 3331.109
956.0455, 3346.028
956.5276, 3360.480
957.0097, 3376.303
957.4918, 3382.591
957.9739, 3368.426
958.4561, 3346.782
958.9382, 3339.570
959.4203, 3348.084
959.9024, 3351.776
960.3845, 3344.237
960.8666, 3345.353
961.3488, 3367.621
961.8309, 3385.951
962.3130, 3383.008
962.7951, 3366.835
963.2772, 3352.011
963.7593, 3337.773
964.2415, 3328.970
964.7236, 3325.790
965.2057, 3327.782
965.6878, 3338.388
966.1699, 3350.754
966.6520, 3362.766
967.1342, 3372.876
967.6163, 3376.360
968.0984, 3370.113
968.5805, 3369.376
969.0626, 3379.586
969.5447, 3389.083
970.0269, 3396.851
970.5090, 3401.142
970.9911, 3401.026
971.4732, 3396.377
971.9553, 3384.718
972.4374, 3359.749
972.9196, 3349.630
973.4017, 3368.673
973.8838, 3389.683
974.3659, 3407.251
974.8480, 3419.282
975.3301, 3423.747
975.8123, 3421.352
976.2944, 3414.104
976.7765, 3401.869
977.2586, 3386.367
977.7407, 3353.375
978.2228, 3335.030
978.7050, 3361.219
979.1871, 3396.604
979.6692, 3402.299
980.1513, 3385.306
980.6334, 3381.220
981.1155, 3404.106
981.5977, 3419.719
982.0798, 3408.751
982.5619, 3398.753
983.0440, 3406.064
983.5261, 3420.103
984.0082, 3431.408
984.4904, 3438.077
984.9725, 3437.600
985.4546, 3425.690
985.9367, 3417.468
986.4188, 3421.174
986.9009, 3426.907
987.3831, 3430.920
987.8652, 3432.332
988.3473, 3429.570
988.8294, 3423.450
989.3115, 3416.974
989.7936, 3409.751
990.2758, 3406.103
990.7579, 3411.545
991.2400, 3417.074
991.7221, 3415.452
992.2042, 3411.524
992.6863, 3412.201
993.1685, 3416.905
993.6506, 3419.198
994.1327, 3415.505
994.6148, 3413.466
995.0969, 3418.662
995.5790, 3424.316
996.0612, 3425.461
996.5433, 3424.543
997.0254, 3424.052
997.5075, 3424.772
997.9896, 3428.104
998.4717, 3435.885
998.9539, 3442.183
999.4360, 3442.415
999.9181, 3442.219
1000.400, 3447.691
1000.882, 3453.663
1001.364, 3453.482
1001.847, 3447.066
1002.329, 3436.875
1002.811, 3419.898
1003.293, 3411.396
1003.775, 3426.423
1004.257, 3443.787
1004.739, 3450.819
1005.221, 3450.262
1005.703, 3441.090
1006.186, 3428.206
1006.668, 3428.323
1007.150, 3451.613
1007.632, 3472.757
1008.114, 3481.828
1008.596, 3483.175
1009.078, 3469.230
1009.560, 3456.215
1010.043, 3471.005
1010.525, 3505.563
1011.007, 3520.837
1011.489, 3499.026
1011.971, 3479.320
1012.453, 3485.646
1012.935, 3491.010
1013.417, 3468.234
1013.899, 3443.394
1014.382, 3451.387
1014.864, 3485.121
1015.346, 3511.837
1015.828, 3523.460
1016.310, 3523.618
1016.792, 3504.837
1017.274, 3485.366
1017.756, 3474.287
1018.239, 3468.159
1018.721, 3461.410
1019.203, 3456.275
1019.685, 3462.133
1020.167, 3484.551
1020.649, 3500.406
1021.131, 3498.980
1021.613, 3493.362
1022.095, 3486.740
1022.578, 3481.143
1023.060, 3477.043
1023.542, 3475.535
1024.024, 3480.701
1024.506, 3495.399
1024.988, 3502.700
1025.470, 3490.539
1025.952, 3480.279
1026.435, 3479.820
1026.917, 3484.411
1027.399, 3491.441
1027.881, 3500.042
1028.363, 3510.473
1028.845, 3523.736
1029.327, 3530.008
1029.809, 3521.589
1030.292, 3514.191
1030.774, 3512.464
1031.256, 3512.625
1031.738, 3510.121
1032.220, 3508.460
1032.702, 3516.673
1033.184, 3536.755
1033.666, 3546.466
1034.148, 3532.777
1034.630, 3524.346
1035.113, 3531.757
1035.595, 3539.063
1036.077, 3534.705
1036.559, 3526.251
1037.041, 3529.160
1037.523, 3544.397
1038.005, 3539.882
1038.487, 3489.132
1038.970, 3461.284
1039.452, 3471.349
1039.934, 3490.766
1040.416, 3515.239
1040.898, 3535.854
1041.380, 3540.691
1041.862, 3530.950
1042.344, 3519.248
1042.826, 3499.725
1043.309, 3491.767
1043.791, 3501.093
1044.273, 3512.729
1044.755, 3522.299
1045.237, 3530.659
1045.719, 3539.615
1046.201, 3547.950
1046.683, 3549.255
1047.166, 3539.570
1047.648, 3536.755
1048.130, 3542.967
1048.612, 3550.952
1049.094, 3561.229
1049.576, 3564.488
1050.058, 3548.426
1050.540, 3525.417
1051.022, 3533.168
1051.505, 3577.089
1051.987, 3595.978
1052.469, 3586.009
1052.951, 3573.642
1053.433, 3564.548
1053.915, 3555.573
1054.397, 3543.055
1054.879, 3534.471
1055.361, 3548.071
1055.844, 3580.228
1056.326, 3582.970
1056.808, 3556.488
1057.290, 3546.508
1057.772, 3561.007
1058.254, 3575.227
1058.736, 3576.407
1059.218, 3568.219
1059.701, 3551.442
1060.183, 3532.538
1060.665, 3538.255
1061.147, 3563.003
1061.629, 3573.268
1062.111, 3567.817
1062.593, 3571.609
1063.075, 3593.868
1063.557, 3616.296
1064.040, 3621.143
1064.522, 3615.174
1065.004, 3607.235
1065.486, 3599.404
1065.968, 3598.443
1066.450, 3602.455
1066.932, 3602.689
1067.414, 3597.526
1067.896, 3593.691
1068.379, 3595.588
1068.861, 3601.393
1069.343, 3614.225
1069.825, 3625.765
1070.307, 3623.731
1070.789, 3611.547
1071.271, 3591.229
1071.753, 3568.415
1072.236, 3561.530
1072.718, 3581.201
1073.200, 3600.813
1073.682, 3599.305
1074.164, 3591.594
1074.646, 3585.107
1075.128, 3583.436
1075.610, 3594.673
1076.093, 3613.294
1076.575, 3624.102
1077.057, 3622.906
1077.539, 3620.915
1078.021, 3628.072
1078.503, 3597.480
1078.985, 3637.173
1079.467, 3658.980
1079.949, 3663.864
1080.432, 3601.129
1080.914, 3625.708
1081.396, 3615.297
1081.878, 3603.451
1082.360, 3640.318
1082.842, 3587.421
1083.324, 3623.516
1083.806, 3624.087
1084.288, 3640.917
1084.771, 3629.686
1085.253, 3637.527
1085.735, 3638.711
1086.217, 3635.869
1086.699, 3626.401
1087.181, 3619.131
1087.663, 3607.932
1088.145, 3613.323
1088.628, 3652.355
1089.110, 3687.018
1089.592, 3686.644
1090.074, 3666.669
1090.556, 3662.314
1091.038, 3674.802
1091.520, 3663.504
1092.002, 3621.285
1092.484, 3605.436
1092.967, 3629.589
1093.449, 3649.386
1093.931, 3641.001
1094.413, 3625.711
1094.895, 3630.869
1095.377, 3651.059
1095.859, 3670.058
1096.341, 3686.505
1096.823, 3684.520
1097.306, 3665.701
1097.788, 3658.338
1098.270, 3670.789
1098.752, 3683.879
1099.234, 3682.023
1099.716, 3674.091
1100.198, 3673.793
1100.680, 3677.261
1101.163, 3674.297
1101.645, 3668.924
1102.127, 3674.962
1102.609, 3691.130
1103.091, 3700.185
1103.573, 3693.496
1104.055, 3687.815
1104.537, 3704.955
1105.020, 3720.809
1105.502, 3710.743
1105.984, 3688.306
1106.466, 3659.065
1106.948, 3635.252
1107.430, 3646.492
1107.912, 3695.738
1108.394, 3727.240
1108.876, 3705.314
1109.359, 3681.347
1109.841, 3667.882
1110.323, 3665.481
1110.805, 3687.124
1111.287, 3711.404
1111.769, 3706.233
1112.251, 3678.202
1112.733, 3669.670
1113.215, 3694.495
1113.698, 3713.764
1114.180, 3732.385
1114.662, 3734.924
1115.144, 3703.697
1115.626, 3675.975
1116.108, 3680.062
1116.590, 3700.465
1117.072, 3707.631
1117.555, 3701.470
1118.037, 3706.041
1118.519, 3725.246
1119.001, 3732.156
1119.483, 3722.154
1119.965, 3707.796
1120.447, 3692.878
1120.929, 3686.070
1121.411, 3697.614
1121.894, 3720.643
1122.376, 3741.257
1122.858, 3757.406
1123.340, 3753.488
1123.822, 3733.809
1124.304, 3726.878
1124.786, 3736.883
1125.268, 3740.013
1125.750, 3722.142
1126.233, 3702.710
1126.715, 3707.532
1127.197, 3720.537
1127.679, 3717.859
1128.161, 3708.886
1128.643, 3712.030
1129.125, 3722.119
1129.607, 3716.903
1130.090, 3693.249
1130.572, 3682.524
1131.054, 3710.743
1131.536, 3737.222
1132.018, 3739.149
1132.500, 3734.056
1132.982, 3731.130
1133.464, 3730.167
1133.947, 3729.019
1134.429, 3728.725
1134.911, 3734.219
1135.393, 3748.636
1135.875, 3760.017
1136.357, 3764.051
1136.839, 3770.392
1137.321, 3789.088
1137.803, 3797.246
1138.286, 3774.281
1138.768, 3742.502
1139.250, 3735.909
1139.732, 3751.490
1140.214, 3761.474
1140.696, 3766.140
1141.178, 3760.545
1141.660, 3742.728
1142.142, 3734.246
1142.625, 3742.447
1143.107, 3753.788
1143.589, 3757.756
1144.071, 3758.810
1144.553, 3764.473
1145.035, 3773.632
1145.517, 3787.140
1145.999, 3800.423
1146.482, 3795.705
1146.964, 3775.792
1147.446, 3761.590
1147.928, 3760.751
1148.410, 3763.037
1148.892, 3762.338
1149.374, 3759.206
1149.856, 3744.606
1150.339, 3736.815
1150.821, 3769.725
1151.303, 3812.373
1151.785, 3808.102
1152.267, 3765.957
1152.749, 3754.513
1153.231, 3801.434
1153.713, 3834.771
1154.195, 3830.595
1154.677, 3821.386
1155.160, 3811.363
1155.642, 3805.327
1156.124, 3808.455
1156.606, 3815.359
1157.088, 3820.192
1157.570, 3822.149
1158.052, 3808.517
1158.534, 3770.961
1159.017, 3758.395
1159.499, 3777.371
1159.981, 3797.620
1160.463, 3810.665
1160.945, 3819.477
1161.427, 3826.685
1161.909, 3828.859
1162.391, 3815.416
1162.874, 3794.072
1163.356, 3792.811
1163.838, 3805.724
1164.320, 3816.410
1164.802, 3822.009
1165.284, 3819.205
1165.766, 3808.528
1166.248, 3804.196
1166.730, 3820.220
1167.213, 3833.878
1167.695, 3818.958
1168.177, 3801.108
1168.659, 3801.343
1169.141, 3813.818
1169.623, 3840.516
1170.105, 3869.722
1170.587, 3866.595
1171.069, 3818.280
1171.552, 3795.442
1172.034, 3836.150
1172.516, 3862.301
1172.998, 3841.961
1173.480, 3835.324
1173.962, 3882.774
1174.444, 3934.156
1174.926, 3935.699
1175.409, 3900.060
1175.891, 3868.118
1176.373, 3839.283
1176.855, 3824.022
1177.337, 3822.536
1177.819, 3824.131
1178.301, 3826.738
1178.783, 3829.755
1179.266, 3832.884
1179.748, 3838.015
1180.230, 3850.048
1180.712, 3859.704
1181.194, 3844.594
1181.676, 3821.346
1182.158, 3821.699
1182.640, 3835.908
1183.122, 3837.776
1183.604, 3827.567
1184.087, 3828.474
1184.569, 3851.551
1185.051, 3865.522
1185.533, 3844.604
1186.015, 3827.275
1186.497, 3831.945
1186.979, 3843.437
1187.461, 3853.959
1187.944, 3862.898
1188.426, 3870.673
1188.908, 3876.937
1189.390, 3878.029
1189.872, 3868.339
1190.354, 3876.958
1190.836, 3912.575
1191.318, 3924.520
1191.801, 3897.726
1192.283, 3875.014
1192.765, 3881.591
1193.247, 3895.988
1193.729, 3888.514
1194.211, 3873.363
1194.693, 3894.320
1195.175, 3932.500
1195.657, 3933.971
1196.140, 3907.677
1196.622, 3886.014
1197.104, 3876.545
1197.586, 3876.812
1198.068, 3887.010
1198.550, 3893.199
1199.032, 3874.228
1199.514, 3864.888
1199.996, 3906.040
1200.479, 3942.949
1200.961, 3917.741
1201.443, 3869.616
1201.925, 3859.097
1202.407, 3884.771
1202.889, 3908.606
1203.371, 3936.138
1203.853, 3941.032
1204.336, 3912.903
1204.818, 3896.788
1205.300, 3903.922
1205.782, 3913.012
1206.264, 3912.324
1206.746, 3911.561
1207.228, 3924.841
1207.710, 3941.413
1208.193, 3930.121
1208.675, 3901.438
1209.157, 3881.013
1209.639, 3871.635
1210.121, 3882.325
1210.603, 3907.847
1211.085, 3922.626
1211.567, 3916.391
1212.049, 3908.068
1212.531, 3908.412
1213.014, 3911.001
1213.496, 3911.847
1213.978, 3914.396
1214.460, 3920.706
1214.942, 3930.372
1215.424, 3949.071
1215.906, 3970.004
1216.388, 3967.015
1216.871, 3933.589
1217.353, 3916.248
1217.835, 3916.301
1218.317, 3930.010
1218.799, 3960.294
1219.281, 3977.948
1219.763, 3969.826
1220.245, 3961.447
1220.728, 3978.365
1221.210, 3999.645
1221.692, 3980.301
1222.174, 3943.354
1222.656, 3938.662
1223.138, 3952.740
1223.620, 3952.799
1224.102, 3943.643
1224.584, 3958.701
1225.067, 4002.435
1225.549, 4020.157
1226.031, 3966.153
1226.513, 3926.884
1226.995, 3937.766
1227.477, 3960.856
1227.959, 3992.930
1228.441, 4016.705
1228.923, 4017.417
1229.406, 4004.431
1229.888, 3992.987
1230.370, 3982.973
1230.852, 3973.751
1231.334, 3965.230
##END=



