##NAMES=Sphalerite
##RRUFFID=R040136
##IDEAL CHEMISTRY=Zn^2+^S^2-^
##LOCALITY=Hilltop mine, Paradise, Cochise County, Arizona, USA
##OWNER=RRUFF
##SOURCE=University of Arizona Mineral Museum
##DESCRIPTION=Olive green fragments
##STATUS=The identification of this mineral has been confirmed by X-ray diffraction and chemical analysis
##URL=rruff.info/R040136
##MEASURED CHEMISTRY=Zn_0.98_S
149.660995, 0.000000
151.705994, 31.593750
153.750000, 1514.734375
155.792999, 1284.671875
157.835999, 571.796875
159.878006, 347.015625
161.919006, 0.000000
163.959000, 0.000000
165.998993, 584.390625
168.037994, 0.000000
170.076996, 3615.562500
172.115005, 6428.109375
174.151993, 8593.171875
176.188004, 12545.984375
178.223999, 14016.203125
180.259003, 15128.109375
182.292999, 11775.781250
184.326996, 10390.187500
186.360001, 6354.390625
188.391998, 6136.062500
190.423996, 6684.687500
192.455002, 7568.906250
194.485001, 7510.328125
196.514999, 6545.359375
198.544006, 8607.671875
200.572006, 9597.453125
202.600006, 11377.171875
204.626999, 11871.796875
206.653000, 18651.906250
208.679001, 22235.203125
210.703003, 27097.453125
212.727997, 36886.843750
214.751007, 41003.984375
216.774002, 48188.125000
218.796005, 48059.421875
220.817993, 44199.968750
222.839005, 36999.203125
224.858994, 33731.187500
226.878006, 25804.562500
228.897003, 23874.968750
230.914993, 20492.609375
232.932999, 21854.250000
234.949005, 21884.343750
236.964996, 20642.140625
238.981003, 16736.656250
240.996002, 12732.031250
243.009995, 9423.093750
245.022995, 5692.875000
247.035995, 3074.812500
249.048004, 1896.156250
251.059006, 1514.882813
253.070007, 1763.070313
255.080002, 1145.242188
257.089996, 2064.640625
259.097992, 2102.007813
261.106995, 3388.125000
263.114014, 1336.796875
265.121002, 1488.304688
267.127014, 1275.023438
269.131989, 1415.429688
271.136993, 0.000000
273.140991, 0.000000
275.144012, 0.000000
277.147003, 0.000000
279.148987, 0.000000
281.151001, 0.000000
283.151001, 308.109375
285.151001, 0.000000
287.151001, 978.687500
289.149994, 2506.476563
291.148010, 3847.242188
293.144989, 5234.710938
295.141998, 9517.000000
297.138000, 11846.898438
299.132996, 14813.484375
301.127991, 14370.328125
303.122009, 13254.898438
305.115997, 10290.125000
307.108002, 8256.789063
309.101013, 8288.679688
311.092010, 7933.710938
313.083008, 6394.757813
315.072998, 1262.359375
317.062012, 582.468750
319.050995, 0.000000
321.039001, 0.000000
323.027008, 0.000000
325.014008, 0.000000
327.000000, 598.250000
328.985992, 3923.109375
330.970001, 8441.375000
332.954987, 13121.046875
334.937988, 16464.593750
336.920990, 19155.000000
338.903015, 25673.125000
340.885010, 36458.671875
342.865997, 50860.453125
344.846008, 84312.593750
346.825989, 141580.281250
348.804993, 204246.312500
350.782990, 213929.531250
352.760986, 153764.625000
354.738007, 89157.250000
356.713989, 49237.500000
358.690002, 28676.859375
360.665009, 19300.187500
362.639008, 16216.125000
364.613007, 12307.218750
366.585999, 10946.859375
368.558990, 12362.343750
370.531006, 10248.859375
372.502014, 11508.687500
374.471985, 11652.109375
376.441986, 12025.187500
378.411011, 11826.890625
380.380005, 11054.187500
382.347992, 13460.312500
384.315002, 13529.640625
386.282013, 14353.296875
388.247009, 15124.187500
390.213013, 18757.828125
392.177002, 20500.343750
394.141998, 22497.687500
396.105011, 23587.718750
398.067993, 27040.203125
400.029999, 23553.031250
401.990997, 21184.265625
403.951996, 18294.000000
405.911987, 18438.218750
407.872009, 16052.125000
409.829987, 16002.437500
411.789001, 20494.609375
413.746002, 24466.531250
415.703003, 24914.531250
417.658997, 26815.500000
419.614990, 26828.328125
421.570007, 27705.500000
423.523987, 26229.093750
425.477997, 23676.515625
427.431000, 21747.078125
429.382996, 18778.171875
431.334991, 18073.781250
433.286011, 13878.375000
435.237000, 11895.984375
437.187012, 11284.000000
439.135986, 10316.453125
441.084991, 11979.406250
443.032013, 13784.750000
444.980011, 13307.984375
446.925995, 13290.125000
448.872009, 14158.062500
450.817993, 13611.093750
452.763000, 11011.484375
454.707001, 7685.750000
456.649994, 2851.359375
458.592987, 13.390625
460.535004, 0.000000
462.476990, 0.000000
464.417999, 0.000000
466.358002, 0.000000
468.298004, 0.000000
470.237000, 0.000000
472.174988, 0.000000
474.113007, 531.750000
476.049988, 0.000000
477.985992, 0.000000
479.921997, 657.601563
481.856995, 2012.257813
483.791992, 1765.171875
485.726013, 1883.718750
487.658997, 2316.773438
489.592010, 8095.468750
491.523987, 2531.984375
493.454987, 3911.421875
495.385986, 2495.835938
497.316010, 2933.812500
499.246002, 3015.164063
501.174988, 4364.375000
503.102997, 3522.765625
505.031006, 3086.750000
506.958008, 4343.359375
508.884003, 4509.718750
510.809998, 3303.523438
512.734985, 4651.445313
514.658997, 3770.289063
516.583008, 5293.023438
518.507019, 5544.875000
520.429016, 4954.703125
522.351013, 3370.890625
524.273010, 4389.390625
526.192993, 2327.007813
528.112976, 3462.976563
530.033020, 1451.406250
531.952026, 1329.687500
533.869995, 1876.703125
535.786987, 1877.234375
537.703979, 1154.781250
539.620972, 295.937500
541.536987, 153.320313
543.452026, 991.062500
545.366028, 1723.750000
547.280029, 0.000000
549.192993, 1158.242188
551.106018, 571.492188
553.018005, 1394.210938
554.929016, 228.218750
556.840027, 695.812500
558.750000, 975.656250
560.659973, 0.000000
562.567993, 870.164063
564.476990, 0.000000
566.383972, 0.000000
568.291016, 1460.203125
570.197998, 0.000000
572.104004, 75.593750
574.008972, 1201.687500
575.913025, 706.359375
577.817017, 241.718750
579.721008, 1529.546875
581.622986, 1301.015625
583.525024, 0.000000
585.427002, 1105.125000
587.328003, 938.390625
589.228027, 879.000000
591.127014, 1189.921875
593.026001, 1473.562500
594.924988, 2050.312500
596.822998, 2442.765625
598.719971, 4361.625000
600.616028, 5278.109375
602.512024, 4907.250000
604.406982, 7946.578125
606.302002, 9244.390625
608.195984, 8858.187500
610.090027, 9351.187500
611.982971, 12120.000000
613.875000, 9747.375000
615.765991, 11117.843750
617.656982, 9581.875000
619.547974, 7824.718750
621.437988, 4428.375000
623.327026, 5899.078125
625.215027, 2573.984375
627.103027, 3267.140625
628.991028, 3009.171875
630.877014, 6146.390625
632.763000, 8424.734375
634.648987, 9433.468750
636.533997, 12867.703125
638.418030, 12537.406250
640.302002, 11486.640625
642.184998, 10605.406250
644.067017, 7569.250000
645.948975, 4449.515625
647.830017, 1516.328125
649.710999, 558.640625
651.591003, 0.000000
653.471008, 1436.375000
655.348999, 2517.562500
657.228027, 3478.703125
659.104980, 6965.843750
660.981995, 9948.687500
662.859009, 15753.093750
664.734009, 16951.656250
666.609985, 22332.203125
668.484009, 26594.468750
670.357971, 27706.734375
672.231995, 23073.781250
674.104004, 20724.765625
675.976990, 16461.937500
677.848022, 15943.312500
679.718994, 13168.562500
681.588989, 12134.640625
683.458984, 10478.515625
685.328003, 8692.343750
687.197021, 9531.437500
689.065002, 9026.671875
690.932007, 7173.750000
692.799011, 5634.484375
694.664978, 6764.109375
696.531006, 3983.000000
698.395996, 2895.406250
700.260010, 1783.984375
702.124023, 0.000000
703.987000, 2076.468750
705.848999, 552.640625
707.710999, 379.234375
709.572998, 114.046875
711.432983, 256.390625
713.294006, 211.187500
715.153015, 0.000000
717.012024, 0.000000
718.869995, 0.000000
720.728027, 1142.359375
722.585022, 87.343750
724.442017, 440.843750
726.297974, 0.000000
728.153015, 0.000000
730.007996, 0.000000
731.862000, 471.281250
733.716003, 846.765625
735.568970, 499.570313
737.421021, 1658.726563
739.273010, 0.000000
741.124023, 727.554688
742.974976, 1876.257813
744.825012, 1157.773438
746.674011, 2756.031250
748.523010, 1180.054688
750.372009, 1162.742188
752.218994, 1645.578125
754.065979, 988.976563
755.913025, 1210.453125
757.758972, 1051.984375
759.604004, 2151.203125
761.448975, 1843.921875
763.293030, 2045.617188
765.135986, 801.742188
766.979004, 1852.812500
768.822021, 2111.726563
770.663025, 1040.359375
772.505005, 2042.710938
774.344971, 1869.132813
776.184998, 2020.250000
778.025024, 1625.859375
779.862976, 1544.546875
781.702026, 2841.390625
783.539001, 2185.968750
785.375977, 2637.296875
787.213013, 1739.367188
789.049011, 1710.179688
790.883972, 760.507813
792.718994, 2653.960938
794.552979, 765.640625
796.385986, 2343.664063
798.218994, 1620.664063
800.052002, 1219.687500
801.883972, 2478.148438
803.715027, 658.687500
805.544983, 1386.460938
807.375000, 1224.367188
809.205017, 675.539063
811.033997, 760.335938
812.862000, 2039.367188
814.690002, 0.000000
816.517029, 1715.218750
818.343018, 681.921875
820.169006, 0.000000
821.994995, 1051.765625
823.820007, 1525.578125
825.643982, 467.445313
827.466980, 0.000000
829.289978, 343.796875
831.112976, 1352.343750
832.934998, 364.429688
834.755981, 978.507813
836.577026, 587.414063
838.396973, 1684.593750
840.216980, 2956.742188
842.036011, 1605.328125
843.854004, 2337.335938
845.671997, 1550.835938
847.489014, 0.000000
849.306030, 1447.609375
851.122009, 273.429688
852.937012, 1968.429688
854.752014, 297.296875
856.567017, 0.000000
858.380981, 1757.726563
860.193970, 1029.632813
862.005981, 1198.203125
863.817993, 2762.468750
865.630005, 3909.265625
867.440979, 2723.195313
869.250977, 1873.757813
871.060974, 2180.148438
872.869995, 248.742188
874.679016, 3355.046875
876.487000, 131.304688
878.294006, 903.250000
880.101013, 2489.835938
881.908020, 1366.687500
883.713013, 110.195313
885.518982, 3624.359375
887.322998, 430.203125
889.127014, 2208.960938
890.931030, 2223.484375
892.734009, 555.367188
894.536011, 1701.195313
896.338013, 1495.765625
898.138977, 2178.265625
899.940002, 804.906250
901.739990, 1271.765625
903.539001, 1789.109375
905.338013, 2504.062500
907.135986, 859.343750
908.934021, 1469.156250
910.731018, 2173.984375
912.528015, 1565.375000
914.323975, 960.968750
916.119995, 869.187500
917.914001, 2525.718750
919.708984, 950.578125
921.502991, 2848.859375
923.296021, 1629.578125
925.088989, 2307.656250
926.880981, 2357.171875
928.671997, 2444.187500
930.463013, 407.984375
932.254028, 1815.328125
934.043030, 1439.453125
935.833008, 1602.031250
937.620972, 1783.062500
939.408997, 1395.531250
941.197021, 2212.625000
942.984009, 3004.718750
944.770996, 2349.359375
946.556030, 696.203125
948.341980, 1466.234375
950.127014, 0.000000
951.911011, 3531.796875
953.693970, 2121.281250
955.476990, 1589.000000
957.260010, 1441.781250
959.041992, 3330.593750
960.822998, 327.390625
962.604004, 799.156250
964.383972, 594.906250
966.164001, 2806.531250
967.942993, 2229.062500
969.721985, 0.000000
971.500000, 2914.765625
973.276978, 172.859375
975.054016, 2097.718750
976.830994, 2108.312500
978.606018, 2095.609375
980.382019, 777.640625
982.156006, 912.515625
983.929993, 2727.890625
985.703979, 227.812500
987.476990, 2090.265625
989.249023, 413.531250
991.020996, 1372.250000
992.793030, 40.437500
994.562988, 907.062500
996.333984, 2762.078125
998.103027, 2220.718750
999.872009, 2150.453125
1001.640991, 2738.718750
1003.408997, 761.281250
1005.176025, 561.078125
1006.942993, 1429.171875
1008.710022, 0.000000
1010.474976, 830.500000
1012.241028, 758.656250
1014.005005, 613.843750
1015.768982, 1632.578125
1017.533020, 1497.531250
1019.296021, 1647.890625
1021.057983, 922.953125
1022.820007, 2885.890625
1024.582031, 604.578125
1026.343018, 1084.187500
1028.103027, 2348.140625
1029.862061, 2656.718750
1031.621948, 1416.640625
1033.380005, 737.468750
1035.137939, 2231.562500
1036.895996, 1380.718750
1038.652954, 1618.140625
1040.409058, 2231.718750
1042.165039, 0.000000
1043.920044, 1163.453125
1045.675049, 555.968750
1047.428955, 1154.765625
1049.182983, 649.609375
1050.936035, 1975.437500
1052.687988, 1776.000000
1054.439941, 120.875000
1056.192017, 1831.687500
1057.942993, 926.796875
1059.692993, 281.125000
1061.442993, 2833.515625
1063.192017, 1620.921875
1064.941040, 1021.468750
1066.688965, 2542.968750
1068.437012, 636.375000
1070.183960, 2825.968750
1071.930054, 0.000000
1073.676025, 1983.218750
1075.421997, 176.453125
1077.166992, 261.015625
1078.911011, 1415.078125
1080.655029, 2292.515625
1082.397949, 1155.078125
1084.140991, 467.031250
1085.883057, 2075.968750
1087.625000, 11.421875
1089.365967, 1558.734375
1091.105957, 1166.562500
1092.845947, 1824.843750
1094.586060, 2036.640625
1096.324951, 331.968750
1098.062988, 2109.484375
1099.801025, 2162.515625
1101.537964, 2948.687500
1103.275024, 530.250000
1105.010986, 1458.265625
1106.746948, 0.000000
1108.482056, 2643.843750
1110.217041, 1721.984375
1111.951050, 0.000000
1113.683960, 1158.781250
1115.416992, 1914.656250
1117.150024, 1010.984375
1118.881958, 1102.828125
1120.613037, 466.281250
1122.343994, 1904.421875
1124.073975, 0.000000
1125.803955, 3698.968750
1127.532959, 511.078125
1129.261963, 2360.546875
1130.989990, 2244.421875
1132.718018, 1476.703125
1134.444946, 662.703125
1136.171021, 2841.593750
1137.896973, 1384.156250
1139.623047, 2291.109375
1141.348022, 591.421875
1143.072021, 2438.359375
1144.796021, 1879.375000
1146.519043, 827.562500
1148.241943, 1109.031250
1149.963989, 1656.843750
1151.686035, 2837.562500
1153.406982, 2027.390625
1155.128052, 2226.468750
1156.848022, 1339.046875
1158.567993, 2582.453125
1160.286987, 395.375000
1162.005005, 1618.828125
1163.723022, 1720.781250
1165.441040, 2912.265625
1167.156982, 1740.250000
1168.874023, 1655.796875
1170.589966, 339.859375
1172.305054, 3021.437500
1174.020020, 933.078125
1175.734009, 493.171875
1177.447998, 2605.687500
1179.161011, 2531.281250
1180.874023, 0.000000
1182.586060, 1793.156250
1184.296997, 982.140625
1186.009033, 1728.093750
1187.718994, 0.000000
1189.428955, 2931.125000
1191.139038, 2577.906250
1192.848022, 1333.609375
1194.556030, 1948.968750
1196.264038, 2271.031250
1197.970947, 2408.781250
1199.677979, 2362.406250
1201.385010, 1743.250000
1203.089966, 1485.921875
1204.796021, 2238.968750
1206.500000, 0.000000
1208.204956, 3410.328125
1209.907959, 274.640625
1211.612061, 2546.609375
1213.313965, 3032.625000
1215.015991, 2292.765625
1216.718018, 1127.984375
1218.418945, 2060.406250
1220.119995, 2794.234375
1221.819946, 2475.546875
1223.519043, 1338.484375
1225.218018, 0.000000
1226.916992, 1528.109375
1228.614014, 3195.265625
1230.312012, 2317.609375
1232.009033, 2776.875000
1233.704956, 1531.546875
1235.401001, 3187.296875
1237.095947, 3919.968750
1238.791016, 896.234375
1240.484985, 2388.671875
1242.178955, 1560.578125
1243.871948, 1075.281250
1245.564941, 316.593750
1247.256958, 1153.078125
1248.948975, 1684.953125
1250.640015, 1271.765625
1252.331055, 2449.625000
1254.020996, 920.734375
1255.709961, 2498.343750
1257.399048, 2485.906250
1259.088013, 2842.468750
1260.776001, 9064.671875
1262.463013, 14895.078125
1264.150024, 13223.640625
1265.837036, 9118.906250
1267.522949, 5534.671875
1269.208008, 1989.328125
1270.892944, 1820.062500
1272.578003, 2370.640625
1274.260986, 362.046875
1275.944946, 2216.125000
1277.628052, 0.000000
1279.310059, 2365.328125
1280.991943, 0.000000
1282.672974, 1204.406250
1284.354004, 1276.109375
1286.034058, 0.000000
1287.713989, 1345.328125
1289.392944, 0.000000
1291.072021, 0.000000
1292.750000, 0.000000
1294.427979, 229.625000
1296.104980, 26.343750
1297.781982, 96.953125
1299.458008, 2006.546875
1301.133057, 540.078125
1302.808960, 1054.343750
1304.483032, 1166.187500
1306.156982, 680.437500
1307.831055, 1621.562500
1309.504028, 0.000000
1311.177002, 974.234375
1312.848999, 1878.718750
1314.520020, 364.593750
1316.191040, 980.687500
1317.862061, 3303.812500
1319.531982, 1889.687500
1321.201050, 3845.578125
1322.869995, 1029.671875
1324.538940, 2909.546875
1326.207031, 3379.625000
1327.874023, 2904.421875
1329.541016, 4499.343750
1331.207031, 11510.171875
1332.873047, 3218.750000
1334.538940, 6402.718750
1336.203979, 5874.890625
1337.868042, 6708.078125
1339.531982, 4696.015625
1341.194946, 5899.312500
1342.858032, 7083.203125
1344.520996, 7205.578125
1346.182007, 10004.890625
1347.843994, 7386.984375
1349.505005, 6067.562500
1351.165039, 7147.750000
1352.824951, 7000.843750
1354.484009, 6166.218750
1356.142944, 7917.140625
1357.801025, 7500.812500
1359.458984, 7299.546875
1361.115967, 5617.468750
1362.772949, 10585.375000
1364.430054, 7552.875000
1366.084961, 4279.000000
1367.740967, 7532.843750
1369.395020, 9100.406250
1371.050049, 7227.828125
1372.703003, 6673.843750
1374.357056, 4573.421875
1376.010010, 7824.500000
1377.661987, 7597.015625
1379.312988, 7379.906250
1380.964966, 3432.031250
1382.614990, 6425.281250
1384.265991, 5744.281250
1385.916016, 5373.250000
1387.564941, 5693.734375
1389.213989, 5200.484375
1390.862061, 6779.359375
1392.510010, 4818.937500
1394.156982, 4718.921875
1395.802979, 4093.812500
1397.449951, 3090.609375
1399.094971, 3690.796875
1400.740967, 4597.109375
1402.385010, 4737.953125
1404.030029, 407.171875
1405.672974, 3568.281250
1407.317017, 2921.937500
1408.958984, 4874.953125
1410.602051, 1795.937500
1412.243042, 1083.296875
1413.885010, 5893.406250
1415.525024, 705.406250
1417.166016, 4335.984375
1418.805054, 3378.750000
1420.444946, 0.000000
1422.083008, 3096.656250
1423.722046, 2747.812500
1425.359009, 2428.375000
1426.996948, 3749.218750
1428.634033, 2547.375000
1430.270020, 2990.125000
1431.906006, 1838.015625
1433.541016, 0.000000
1435.176025, 0.000000
1436.810059, 2195.765625
1438.443970, 1591.968750
1440.077026, 0.000000
1441.709961, 3113.078125
1443.342041, 1454.531250
1444.973999, 3080.140625
1446.604980, 1423.031250
1448.235962, 1066.453125
1449.866943, 720.968750
1451.495972, 0.000000
1453.125977, 626.890625
1454.755005, 2248.359375
1456.383057, 911.375000
1458.010986, 843.593750
1459.637939, 1935.390625
1461.265015, 687.468750
1462.891968, 264.625000
1464.517944, 3875.640625
1466.142944, 2837.703125
1467.767944, 85.906250
1469.391968, 3273.843750
1471.015991, 2652.593750
1472.640015, 1667.578125
1474.262939, 0.000000
1475.885010, 2314.062500
1477.506958, 2151.984375
1479.129028, 2786.125000
1480.750000, 1863.156250
1482.369995, 2330.000000
1483.989990, 3128.578125
1485.609985, 1042.656250
1487.229004, 1861.562500
1488.847046, 3533.390625
1490.464966, 0.000000
1492.083008, 2729.140625
1493.699951, 0.000000
1495.317017, 2102.578125
1496.932983, 3232.515625
1498.548950, 2079.156250
1500.163940, 4747.843750
1501.777954, 0.000000
1503.392944, 4199.109375
1505.005981, 2392.187500
1506.619995, 2971.843750
1508.232056, 4151.265625
1509.843994, 2675.609375
1511.456055, 3230.968750
1513.067017, 5412.250000
1514.677979, 225.062500
1516.287964, 2658.078125
1517.897949, 4966.375000
1519.508057, 160.296875
1521.115967, 3318.609375
1522.724976, 4265.187500
1524.333008, 1724.734375
1525.939941, 5817.765625
1527.546997, 2969.578125
1529.152954, 1656.843750
1530.759033, 2616.281250
1532.364990, 1218.031250
1533.969971, 3236.343750
1535.573975, 3797.421875
1537.177979, 1608.406250
1538.781982, 4509.500000
1540.385010, 1184.093750
1541.988037, 1864.468750
1543.589966, 1751.531250
1545.191040, 3525.406250
1546.791992, 801.906250
1548.392944, 727.031250
1549.993042, 2063.859375
1551.593018, 1431.031250
1553.192017, 2406.296875
1554.791016, 3347.156250
1556.389038, 3132.781250
1557.987061, 2530.343750
1559.583984, 1281.859375
1561.181030, 0.000000
1562.776978, 2049.937500
1564.373047, 197.656250
1565.968994, 3062.234375
1567.562988, 2107.218750
1569.157959, 3722.734375
1570.751953, 0.000000
1572.344971, 0.000000
1573.937988, 1633.250000
1575.531006, 1315.296875
1577.123047, 3028.171875
1578.713989, 1295.812500
1580.305054, 1125.265625
1581.895996, 1261.171875
1583.485962, 1773.390625
1585.076050, 3486.625000
1586.665039, 783.906250
1588.254028, 1120.312500
1589.842041, 929.953125
1591.430054, 1227.890625
1593.016968, 3470.156250
1594.604004, 1832.812500
1596.189941, 1892.703125
1597.776001, 1637.640625
1599.360962, 3769.796875
1600.946045, 2325.546875
1602.531006, 851.921875
1604.114990, 4070.984375
1605.697998, 0.000000
1607.281006, 408.062500
1608.864014, 1663.125000
1610.446045, 2169.984375
1612.026978, 1591.296875
1613.608032, 2180.421875
1615.188965, 1356.375000
1616.769043, 2746.218750
1618.348999, 1365.890625
1619.927979, 1894.375000
1621.506958, 4071.312500
1623.084961, 1955.171875
1624.662964, 0.000000
1626.239990, 2534.093750
1627.817017, 3985.140625
1629.394043, 2208.875000
1630.969971, 2405.687500
1632.545044, 4486.750000
1634.119995, 3090.437500
1635.694946, 3257.671875
1637.269043, 1476.390625
1638.842041, 3895.718750
1640.416016, 4063.218750
1641.988037, 3011.921875
1643.560059, 2957.781250
1645.131958, 4820.718750
1646.703003, 1593.656250
1648.274048, 342.515625
1649.844971, 4259.203125
1651.413940, 98.734375
1652.984009, 1728.031250
1654.552979, 2600.984375
1656.120972, 3048.625000
1657.688965, 1463.765625
1659.256958, 1568.343750
1660.823975, 2322.234375
1662.390015, 0.000000
1663.957031, 1917.234375
1665.521973, 2605.734375
1667.087036, 2436.062500
1668.651978, 1916.140625
1670.215942, 1574.875000
1671.780029, 120.312500
1673.343994, 648.359375
1674.906006, 868.015625
1676.468994, 1728.062500
1678.031006, 3575.406250
1679.592041, 894.921875
1681.152954, 2383.500000
1682.713989, 1230.078125
1684.274048, 1894.531250
1685.833984, 0.000000
1687.392944, 591.281250
1688.951050, 1580.078125
1690.510010, 3482.875000
1692.067993, 864.000000
1693.625000, 1872.421875
1695.182007, 423.937500
1696.738037, 530.484375
1698.293945, 1239.953125
1699.848999, 514.031250
1701.405029, 1924.609375
1702.958984, 1801.593750
1704.512939, 2685.828125
1706.067017, 2446.453125
1707.619995, 4431.187500
1709.172974, 2188.859375
1710.724976, 1562.625000
1712.276978, 16.937500
1713.828003, 2755.218750
1715.379028, 1049.125000
1716.928955, 2258.515625
1718.479004, 2560.890625
1720.029053, 1493.656250
1721.578003, 0.000000
1723.125977, 1701.046875
1724.675049, 2566.500000
1726.222046, 2900.656250
1727.770020, 2311.468750
1729.316040, 432.828125
1730.863037, 1516.812500
1732.407959, 747.031250
1733.953979, 1323.656250
1735.499023, 2145.718750
1737.042969, 2426.593750
1738.587036, 2655.234375
1740.130981, 1152.187500
1741.673950, 0.000000
1743.217041, 1426.968750
1744.759033, 3016.000000
1746.300049, 1526.281250
1747.842041, 1695.984375
1749.383057, 2837.093750
1750.922974, 657.656250
1752.463013, 3667.671875
1754.001953, 240.015625
1755.541016, 3738.578125
1757.079956, 527.781250
1758.618042, 3792.656250
1760.156006, 1725.234375
1761.692993, 1124.000000
1763.229980, 1694.609375
1764.765991, 858.156250
1766.302002, 2065.171875
1767.837036, 976.046875
1769.371948, 0.000000
1770.906982, 3353.781250
1772.441040, 5208.640625
1773.973999, 6486.125000
1775.506958, 6166.359375
1777.040039, 5664.421875
1778.572021, 1624.296875
1780.104004, 2166.437500
1781.635010, 2912.781250
1783.166016, 913.421875
1784.697021, 787.468750
1786.227051, 892.015625
1787.755981, 1716.203125
1789.285034, 2687.109375
1790.813965, 0.000000
1792.342041, 1814.078125
1793.869995, 307.421875
1795.396973, 1302.937500
1796.923950, 1445.859375
1798.449951, 897.234375
1799.975952, 3112.187500
1801.501953, 3303.828125
1803.026978, 2115.515625
1804.551025, 2386.062500
1806.074951, 911.640625
1807.598999, 3602.296875
1809.121948, 1207.125000
1810.645020, 907.203125
1812.167969, 1734.609375
1813.688965, 53.390625
1815.211060, 935.609375
1816.732056, 2471.265625
1818.253052, 2334.843750
1819.772949, 2705.953125
1821.291992, 1204.765625
1822.812012, 1143.312500
1824.329956, 2646.562500
1825.848999, 321.578125
1827.366943, 2633.312500
1828.884033, 1002.015625
1830.401001, 2616.406250
1831.917969, 1125.515625
1833.433960, 651.296875
1834.948975, 3235.718750
1836.464966, 2324.765625
1837.979004, 2367.406250
1839.494019, 845.765625
1841.008057, 4252.609375
1842.520996, 2732.781250
1844.034058, 1378.171875
1845.546997, 2018.640625
1847.058960, 878.140625
1848.571045, 1522.593750
1850.082031, 3328.953125
1851.593018, 3227.562500
1853.103027, 2736.343750
1854.613037, 3031.656250
1856.121948, 1338.406250
1857.630981, 1225.531250
1859.140015, 1674.984375
1860.647949, 2687.656250
1862.156006, 1302.546875
1863.662964, 3666.453125
1865.170044, 0.000000
1866.676025, 3386.406250
1868.182007, 255.343750
1869.687988, 3255.109375
1871.192993, 3195.703125
1872.697998, 3365.593750
1874.202026, 0.000000
1875.706055, 726.171875
1877.208984, 3106.781250
1878.712036, 1308.046875
1880.213989, 2827.968750
1881.715942, 1058.500000
1883.218018, 1743.656250
1884.718994, 710.406250
1886.219971, 2934.781250
1887.719971, 194.750000
1889.219971, 3194.375000
1890.718994, 886.765625
1892.218018, 736.671875
1893.717041, 1947.375000
1895.214966, 1944.218750
1896.712036, 3446.625000
1898.208984, 906.515625
1899.706055, 2682.703125
1901.203003, 291.859375
1902.697998, 1111.015625
1904.193970, 687.187500
1905.688965, 1245.359375
1907.182983, 2245.609375
1908.677979, 1024.906250
1910.171021, 712.296875
1911.665039, 2138.796875
1913.156982, 423.296875
1914.650024, 2771.703125
1916.141968, 1609.406250
1917.633057, 0.000000
1919.125000, 3436.671875
1920.614990, 0.000000
1922.104980, 963.515625
1923.594971, 1782.234375
1925.084961, 1792.125000
1926.573975, 1474.234375
1928.062012, 3072.562500
1929.550049, 1809.109375
1931.037964, 1250.890625
1932.525024, 3184.906250
1934.011963, 2937.187500
1935.498047, 1485.718750
1936.984009, 0.000000
1938.469971, 2946.031250
1939.954956, 3584.718750
1941.438965, 2313.312500
1942.923950, 140.390625
1944.406982, 2725.593750
1945.890991, 1130.109375
1947.374023, 2332.406250
1948.855957, 2617.953125
1950.338013, 1906.781250
1951.819946, 1926.937500
1953.301025, 1727.390625
1954.781982, 1771.171875
1956.261963, 1536.312500
1957.741943, 1311.796875
1959.220947, 2004.656250
1960.699951, 5863.109375
1962.178955, 0.000000
1963.656982, 2773.328125
1965.135010, 2471.859375
1966.612061, 2894.984375
1968.088989, 3549.734375
1969.566040, 3067.031250
1971.041992, 1271.859375
1972.516968, 609.125000
1973.993042, 3295.890625
1975.467041, 784.109375
1976.942017, 3205.156250
1978.416016, 845.656250
1979.889038, 966.640625
1981.362061, 1523.093750
1982.834961, 2036.015625
1984.307007, 3243.093750
1985.779053, 3084.718750
1987.250000, 752.828125
1988.720947, 4678.125000
1990.192017, 1434.906250
1991.661987, 0.000000
1993.130981, 2568.890625
1994.600952, 1305.015625
1996.068970, 1592.546875
1997.537964, 1764.421875
1999.005981, 4413.609375
2000.473022, 603.140625
2001.939941, 412.921875
2003.406982, 1334.937500
2004.873047, 1640.171875
2006.338989, 1274.625000
2007.805054, 509.171875
2009.270020, 2497.171875
2010.734009, 2134.484375
2012.197998, 1610.437500
2013.661987, 1450.203125
2015.125000, 2189.828125
2016.588013, 806.359375
2018.051025, 1896.781250
2019.512939, 2474.078125
2020.973999, 0.000000
2022.436035, 3688.484375
2023.895996, 482.562500
2025.357056, 1416.406250
2026.817017, 1552.968750
2028.276001, 970.250000
2029.734985, 315.234375
2031.193970, 2656.859375
2032.651978, 0.000000
2034.109985, 3663.328125
2035.567993, 593.265625
2037.025024, 780.765625
2038.480957, 2308.312500
2039.937012, 2927.359375
2041.392944, 727.921875
2042.848999, 2232.968750
2044.302979, 2113.562500
2045.758057, 1204.609375
2047.212036, 723.140625
2048.666016, 3490.171875
2050.118896, 1552.671875
2051.572021, 1318.656250
2053.023926, 2751.109375
2054.476074, 1889.562500
2055.927979, 191.546875
2057.378906, 1874.265625
2058.830078, 2180.953125
2060.280029, 1040.703125
2061.729980, 978.875000
2063.178955, 544.484375
2064.627930, 1328.546875
2066.076904, 2321.039063
2067.524902, 1017.343750
2068.972900, 2368.101563
2070.419922, 1728.328125
2071.866943, 1620.015625
2073.313965, 2204.195313
2074.760010, 657.859375
2076.206055, 0.000000
2077.650879, 2510.046875
2079.095947, 1056.265625
2080.541016, 0.000000
2081.985107, 2735.804688
2083.427979, 1777.132813
2084.872070, 2585.062500
2086.314941, 2098.617188
2087.757080, 643.882813
2089.198975, 707.781250
2090.641113, 2235.296875
2092.082031, 453.468750
2093.522949, 1740.304688
2094.962891, 912.882813
2096.403076, 772.125000
2097.843018, 1957.015625
2099.281982, 1835.000000
2100.719971, 2200.968750
2102.158936, 1326.656250
2103.596924, 975.226563
2105.033936, 441.289063
2106.470947, 1916.992188
2107.907959, 857.304688
2109.343994, 1207.312500
2110.780029, 1431.765625
2112.216064, 2353.726563
2113.649902, 2558.578125
2115.084961, 1632.882813
2116.519043, 2039.914063
2117.952881, 1901.023438
2119.385986, 589.523438
2120.820068, 958.304688
2122.251953, 1442.671875
2123.684082, 1953.554688
2125.115967, 0.000000
2126.547119, 1243.195313
2127.978027, 580.531250
2129.408936, 3108.710938
2130.839111, 273.695313
2132.269043, 667.218750
2133.697998, 775.437500
2135.126953, 1084.515625
2136.554932, 2076.414063
2137.982910, 343.742188
2139.410889, 959.296875
2140.837891, 996.640625
2142.264893, 2061.937500
2143.691895, 0.000000
2145.117920, 1453.140625
2146.542969, 1115.726563
2147.968994, 1256.554688
2149.393066, 671.187500
2150.818115, 807.007813
2152.241943, 559.031250
2153.666016, 1336.101563
2155.089111, 2385.445313
2156.510986, 0.000000
2157.934082, 1772.546875
2159.355957, 1501.554688
2160.777100, 1094.390625
2162.198975, 340.921875
2163.618896, 812.515625
2165.040039, 1359.273438
2166.459961, 584.734375
2167.878906, 57.460938
2169.299072, 778.359375
2170.717041, 1236.203125
2172.135010, 535.460938
2173.552979, 662.171875
2174.970947, 2898.375000
2176.387939, 1786.203125
2177.804932, 0.000000
2179.220947, 1333.867188
2180.636963, 1119.593750
2182.052979, 1202.156250
2183.468018, 1492.789063
2184.883057, 448.742188
2186.297119, 559.945313
2187.710938, 898.078125
2189.125000, 0.000000
2190.538086, 159.296875
2191.949951, 2432.203125
2193.363037, 431.257813
2194.774902, 945.507813
2196.186035, 1477.015625
2197.596924, 913.851563
2199.008057, 448.070313
2200.417969, 291.054688
2201.827881, 1087.648438
2203.238037, 3091.859375
2204.646973, 0.000000
2206.055908, 967.898438
2207.464111, 87.890625
2208.872070, 1425.812500
2210.279053, 949.718750
2211.687012, 2137.273438
2213.093018, 856.796875
2214.500000, 34.312500
2215.906006, 1299.054688
2217.311035, 2780.070313
2218.716064, 308.437500
2220.121094, 1531.187500
2221.524902, 2096.382813
2222.928955, 1309.601563
2224.333008, 2172.304688
2225.736084, 1133.570313
2227.138916, 302.273438
2228.541016, 1883.843750
2229.943115, 67.429688
2231.343994, 1137.804688
2232.746094, 1436.984375
2234.145996, 1687.468750
2235.547119, 527.820313
2236.947021, 784.031250
2238.345947, 1135.093750
2239.746094, 1613.031250
2241.144043, 2141.859375
2242.542969, 831.570313
2243.940918, 2469.179688
2245.337891, 842.664063
2246.736084, 660.023438
2248.132080, 1466.234375
2249.529053, 199.562500
2250.925049, 2130.039063
2252.321045, 1234.820313
2253.716064, 2139.210938
2255.111084, 3161.187500
2256.504883, 2036.718750
2257.898926, 1153.796875
2259.292969, 1264.406250
2260.686035, 1281.539063
2262.079102, 2649.406250
2263.470947, 965.773438
2264.864014, 566.609375
2266.254883, 2359.898438
2267.645996, 22.648438
2269.037109, 1375.804688
2270.427979, 1025.382813
2271.818115, 0.000000
2273.208008, 2160.265625
2274.596924, 1348.578125
2275.986084, 1890.304688
2277.375000, 418.445313
2278.762939, 1156.031250
2280.150879, 1239.039063
2281.538086, 1538.484375
2282.925049, 280.515625
2284.312012, 2320.859375
2285.697998, 1463.679688
2287.083984, 871.015625
2288.468994, 927.859375
2289.854004, 2580.218750
2291.239014, 1816.101563
2292.623047, 399.695313
2294.007080, 2077.523438
2295.391113, 1767.429688
2296.773926, 1638.101563
2298.156006, 1067.546875
2299.539063, 1047.765625
2300.920898, 561.742188
2302.302002, 1472.492188
2303.683105, 0.000000
2305.063965, 1834.750000
2306.445068, 841.882813
2307.823975, 565.757813
2309.204102, 1273.328125
2310.583008, 2358.601563
2311.961914, 599.562500
2313.341064, 888.460938
2314.718994, 803.531250
2316.095947, 2455.304688
2317.474121, 562.484375
2318.851074, 1902.070313
2320.227051, 1691.164063
2321.603027, 4292.515625
2322.979004, 620.085938
2324.354004, 2606.820313
2325.729004, 5866.492188
2327.104004, 1359.359375
2328.478027, 2471.593750
2329.852051, 2386.648438
2331.225098, 2113.679688
2332.597900, 586.414063
2333.970947, 0.000000
2335.343994, 1973.390625
2336.715088, 1864.492188
2338.086914, 825.921875
2339.458008, 1936.132813
2340.829102, 1183.203125
2342.198975, 1688.210938
2343.569092, 979.765625
2344.938965, 1160.789063
2346.308105, 968.195313
2347.677002, 0.000000
2349.044922, 1105.070313
2350.413086, 1730.492188
2351.781006, 2408.203125
2353.147949, 2533.289063
2354.514893, 671.296875
2355.882080, 1069.632813
2357.248047, 860.125000
2358.614014, 2421.421875
2359.979004, 1194.265625
2361.343994, 369.195313
2362.708008, 1267.031250
2364.072998, 1303.218750
2365.437012, 1243.125000
2366.800049, 1004.250000
2368.163086, 95.062500
2369.525879, 1140.507813
2370.887939, 2164.632813
2372.250000, 355.843750
2373.612061, 1188.039063
2374.972900, 635.554688
2376.333984, 2610.375000
2377.694092, 940.593750
2379.053955, 1103.945313
2380.414063, 0.000000
2381.772949, 1565.609375
2383.132080, 0.000000
##END=



