##NAMES=Spinel
##RRUFFID=R050411
##IDEAL CHEMISTRY=MgAl_2_O_4_
##LOCALITY=Mogok, Burma
##OWNER=RRUFF
##SOURCE=Marcus Origlieri
##DESCRIPTION=Pale pink gemstone
##STATUS=The identification of this mineral has been confirmed by X-ray diffraction and chemical analysis
##URL=rruff.info/R050411
##MEASURED CHEMISTRY=Mg_0.93_Al_2.04_O_4_
92.35352, 83.68407
92.83563, 82.73486
93.31775, 82.33282
93.79987, 82.70912
94.28198, 83.66335
94.76410, 84.60846
95.24622, 85.36917
95.72833, 86.11852
96.21045, 87.19303
96.69257, 88.60238
97.17468, 90.24491
97.65680, 91.98320
98.13892, 93.82674
98.62103, 95.96283
99.10315, 98.40163
99.58527, 101.1504
100.0674, 104.1425
100.5495, 107.3375
101.0316, 110.8095
101.5137, 114.5708
101.9958, 118.6248
102.4780, 123.0356
102.9601, 127.7278
103.4422, 132.6299
103.9243, 138.3136
104.4064, 145.0826
104.8885, 152.4689
105.3707, 159.7840
105.8528, 166.7760
106.3349, 173.9641
106.8170, 181.5515
107.2991, 190.0376
107.7813, 197.9780
108.2634, 205.2750
108.7455, 212.0484
109.2276, 218.4393
109.7097, 223.7512
110.1918, 229.2471
110.6740, 235.4601
111.1561, 243.6919
111.6382, 251.1944
112.1203, 257.1043
112.6024, 261.8263
113.0845, 267.4873
113.5667, 274.7913
114.0488, 282.9132
114.5309, 291.3860
115.0130, 299.5918
115.4951, 308.5504
115.9772, 318.8417
116.4594, 330.5244
116.9415, 342.3200
117.4236, 354.3699
117.9057, 366.1043
118.3878, 376.8675
118.8699, 385.3767
119.3521, 393.7427
119.8342, 403.4931
120.3163, 414.8459
120.7984, 426.1743
121.2805, 436.3500
121.7626, 445.8387
122.2448, 455.4365
122.7269, 466.9968
123.2090, 478.1310
123.6911, 486.2100
124.1732, 490.5732
124.6553, 493.4859
125.1375, 496.4688
125.6196, 499.5825
126.1017, 503.0185
126.5838, 507.0557
127.0659, 511.4706
127.5480, 515.8266
128.0302, 519.9920
128.5123, 524.2870
128.9944, 529.2159
129.4765, 534.7377
129.9586, 540.4673
130.4407, 545.8638
130.9229, 551.1569
131.4050, 557.4821
131.8871, 565.3429
132.3692, 573.9320
132.8513, 581.1321
133.3334, 585.9318
133.8156, 587.7789
134.2977, 588.2423
134.7798, 589.3562
135.2619, 591.0462
135.7440, 593.4672
136.2261, 596.4321
136.7083, 599.3586
137.1904, 602.3733
137.6725, 605.0813
138.1546, 607.0301
138.6367, 608.1299
139.1188, 609.1770
139.6010, 610.7114
140.0831, 612.7462
140.5652, 612.8690
141.0473, 610.5185
141.5294, 607.0834
142.0115, 604.3474
142.4937, 602.4258
142.9758, 600.7915
143.4579, 599.1669
143.9400, 597.3718
144.4221, 596.4889
144.9042, 597.1657
145.3864, 598.3420
145.8685, 598.0865
146.3506, 595.0345
146.8327, 592.3868
147.3148, 591.3204
147.7969, 592.9965
148.2791, 593.6293
148.7612, 592.7584
149.2433, 590.9149
149.7254, 589.2818
150.2075, 587.8965
150.6896, 586.7130
151.1718, 585.7162
151.6539, 584.7076
152.1360, 584.1783
152.6181, 584.5911
153.1002, 585.5609
153.5823, 585.9310
154.0645, 584.2563
154.5466, 582.9490
155.0287, 583.1852
155.5108, 588.3081
155.9929, 591.0924
156.4750, 588.7023
156.9572, 582.5335
157.4393, 578.3284
157.9214, 578.6959
158.4035, 580.4996
158.8856, 581.7807
159.3677, 581.8319
159.8499, 581.6046
160.3320, 581.3246
160.8141, 580.9860
161.2962, 580.5234
161.7783, 579.4511
162.2604, 578.4719
162.7426, 578.1652
163.2247, 579.9742
163.7068, 581.3823
164.1889, 580.9630
164.6710, 578.8350
165.1531, 576.7422
165.6353, 575.4507
166.1174, 574.6645
166.5995, 574.0648
167.0816, 573.5350
167.5637, 573.1449
168.0458, 572.9745
168.5280, 573.0207
169.0101, 573.1181
169.4922, 573.4149
169.9743, 573.6472
170.4564, 573.4429
170.9385, 571.9357
171.4207, 570.3516
171.9028, 570.0735
172.3849, 571.2195
172.8670, 572.1882
173.3491, 571.4094
173.8312, 569.5899
174.3134, 568.0748
174.7955, 567.5551
175.2776, 567.6458
175.7597, 567.9138
176.2418, 568.3377
176.7239, 569.0072
177.2061, 570.5703
177.6882, 572.5556
178.1703, 573.6554
178.6524, 572.8929
179.1345, 570.9416
179.6166, 568.6545
180.0988, 565.9080
180.5809, 563.6173
181.0630, 563.3153
181.5451, 564.5358
182.0272, 565.4257
182.5093, 564.4283
182.9915, 562.4193
183.4736, 561.6489
183.9557, 562.4235
184.4378, 563.8304
184.9199, 565.0069
185.4020, 565.8798
185.8842, 566.0876
186.3663, 565.0921
186.8484, 563.1965
187.3305, 561.4845
187.8126, 559.9869
188.2947, 558.7809
188.7769, 558.0081
189.2590, 557.6620
189.7411, 557.5815
190.2232, 557.9639
190.7053, 558.6630
191.1874, 558.5494
191.6696, 557.2337
192.1517, 555.6479
192.6338, 555.9103
193.1159, 558.1036
193.5980, 559.9457
194.0801, 559.8538
194.5623, 557.9670
195.0444, 556.1276
195.5265, 554.4063
196.0086, 552.9444
196.4907, 552.1477
196.9728, 552.0728
197.4550, 552.1520
197.9371, 552.0311
198.4192, 551.7042
198.9013, 551.4980
199.3834, 551.4738
199.8655, 551.5496
200.3477, 551.5307
200.8298, 551.4066
201.3119, 551.2352
201.7940, 550.9872
202.2761, 550.6369
202.7582, 550.6187
203.2404, 551.2155
203.7225, 551.9966
204.2046, 551.5422
204.6867, 549.4935
205.1688, 547.4518
205.6509, 546.3920
206.1331, 546.3789
206.6152, 547.0164
207.0973, 548.7071
207.5794, 550.8070
208.0615, 550.9771
208.5436, 548.4447
209.0258, 546.0141
209.5079, 545.7631
209.9900, 548.3652
210.4721, 549.8646
210.9542, 549.5466
211.4363, 548.0422
211.9185, 547.6813
212.4006, 549.0903
212.8827, 550.2729
213.3648, 549.5912
213.8469, 546.0650
214.3290, 544.3735
214.8112, 545.5530
215.2933, 548.6611
215.7754, 550.3196
216.2575, 550.0579
216.7396, 549.2262
217.2217, 548.5140
217.7038, 547.8148
218.1860, 547.6172
218.6681, 548.2311
219.1502, 549.3307
219.6323, 549.6747
220.1144, 549.0128
220.5965, 548.0302
221.0787, 547.0597
221.5608, 546.0090
222.0429, 545.2489
222.5250, 544.8460
223.0071, 544.7552
223.4892, 544.8965
223.9714, 545.5993
224.4535, 546.0347
224.9356, 545.6584
225.4177, 543.9778
225.8998, 542.6806
226.3819, 541.8534
226.8641, 541.4590
227.3462, 541.4438
227.8283, 542.0043
228.3104, 542.6345
228.7925, 543.0764
229.2746, 543.2948
229.7568, 543.4172
230.2389, 543.5526
230.7210, 543.5746
231.2031, 543.0133
231.6852, 541.4579
232.1673, 539.9224
232.6495, 538.9261
233.1316, 538.7006
233.6137, 538.5134
234.0958, 538.4373
234.5779, 538.3761
235.0600, 537.9885
235.5422, 536.8427
236.0243, 535.9946
236.5064, 536.0304
236.9885, 537.6878
237.4706, 538.5515
237.9527, 538.2104
238.4349, 537.1746
238.9170, 536.7507
239.3991, 537.3266
239.8812, 537.9329
240.3633, 538.1737
240.8454, 537.9637
241.3276, 537.5714
241.8097, 536.8436
242.2918, 535.9954
242.7739, 535.5414
243.2560, 535.7562
243.7381, 535.9412
244.2203, 535.7690
244.7024, 534.9557
245.1845, 534.6159
245.6666, 534.9564
246.1487, 535.6738
246.6308, 536.2132
247.1130, 536.5939
247.5951, 536.7617
248.0772, 536.6625
248.5593, 536.2150
249.0414, 535.7841
249.5235, 535.3460
250.0057, 534.9349
250.4878, 534.6124
250.9699, 534.4366
251.4520, 534.2305
251.9341, 533.8696
252.4162, 533.2353
252.8984, 533.0519
253.3805, 533.5492
253.8626, 534.3222
254.3447, 534.7906
254.8268, 534.9601
255.3089, 534.8221
255.7911, 534.2577
256.2732, 533.1676
256.7553, 532.4785
257.2374, 532.2574
257.7195, 532.3741
258.2017, 532.7224
258.6838, 533.4679
259.1659, 534.0829
259.6480, 534.4692
260.1301, 534.6269
260.6122, 534.4792
261.0944, 533.8549
261.5765, 533.1389
262.0586, 532.8805
262.5407, 533.5010
263.0228, 533.3675
263.5049, 531.7463
263.9871, 528.7333
264.4692, 527.1718
264.9513, 527.4839
265.4334, 528.5497
265.9155, 529.4290
266.3976, 530.1061
266.8798, 530.5929
267.3619, 530.8683
267.8440, 530.9449
268.3261, 530.8356
268.8082, 530.3841
269.2903, 530.0706
269.7725, 530.4395
270.2546, 531.7335
270.7367, 532.5212
271.2188, 532.4222
271.7009, 531.6895
272.1830, 531.4601
272.6652, 531.9061
273.1473, 532.3809
273.6294, 532.3969
274.1115, 531.8597
274.5936, 531.4036
275.0757, 531.0463
275.5579, 530.8301
276.0400, 530.9794
276.5221, 531.5963
277.0042, 532.1476
277.4863, 532.1299
277.9684, 531.4532
278.4506, 531.5370
278.9327, 532.7446
279.4148, 534.4233
279.8969, 535.0233
280.3790, 534.3746
280.8611, 533.8682
281.3433, 534.6041
281.8254, 536.5693
282.3075, 537.1987
282.7896, 536.1874
283.2717, 534.3659
283.7538, 532.8407
284.2360, 531.6050
284.7181, 530.8895
285.2002, 530.9603
285.6823, 531.7334
286.1644, 532.4932
286.6465, 533.2557
287.1287, 533.9121
287.6108, 534.2367
288.0929, 534.2463
288.5750, 534.3085
289.0571, 534.5029
289.5392, 534.8552
290.0214, 535.5514
290.5035, 536.6257
290.9856, 537.7336
291.4677, 538.3902
291.9498, 538.6978
292.4319, 539.2694
292.9141, 540.3800
293.3962, 541.8354
293.8783, 543.2205
294.3604, 544.5327
294.8425, 545.7987
295.3246, 547.0461
295.8068, 548.2858
296.2889, 549.5472
296.7710, 550.9588
297.2531, 552.2823
297.7352, 552.7299
298.2173, 552.4463
298.6995, 552.7132
299.1816, 555.0852
299.6637, 558.6262
300.1458, 561.2437
300.6279, 562.3747
301.1100, 562.9188
301.5922, 563.8029
302.0743, 564.9957
302.5564, 566.3857
303.0385, 568.0161
303.5206, 569.7594
304.0027, 571.4203
304.4849, 572.8997
304.9670, 574.5096
305.4491, 576.6598
305.9312, 579.1685
306.4133, 581.6019
306.8954, 583.6044
307.3776, 585.5182
307.8597, 587.5529
308.3418, 589.7256
308.8239, 592.3273
309.3060, 595.7786
309.7881, 599.8118
310.2703, 603.8842
310.7524, 608.7950
311.2345, 612.9898
311.7166, 615.4659
312.1987, 616.2001
312.6808, 615.2563
313.1630, 612.5962
313.6451, 608.2882
314.1272, 602.3683
314.6093, 594.0473
315.0914, 584.9391
315.5735, 575.0660
316.0557, 564.7823
316.5378, 555.9910
317.0199, 549.8052
317.5020, 545.2645
317.9841, 541.6571
318.4662, 539.2639
318.9484, 537.2642
319.4305, 535.5194
319.9126, 533.9843
320.3947, 532.5368
320.8768, 531.0942
321.3589, 529.7700
321.8411, 528.6683
322.3232, 527.9857
322.8053, 527.0994
323.2874, 525.5106
323.7695, 523.7136
324.2516, 522.4903
324.7338, 522.1862
325.2159, 522.2609
325.6980, 522.7999
326.1801, 524.1046
326.6622, 524.4902
327.1443, 522.8058
327.6265, 520.6046
328.1086, 519.4525
328.5907, 520.7511
329.0728, 521.5706
329.5549, 521.2454
330.0370, 519.7601
330.5192, 518.7570
331.0013, 518.4674
331.4834, 518.4595
331.9655, 518.4564
332.4476, 518.5641
332.9297, 518.4588
333.4119, 517.8206
333.8940, 516.9111
334.3761, 517.0624
334.8582, 519.0729
335.3403, 520.8607
335.8224, 521.2036
336.3046, 519.3884
336.7867, 518.2850
337.2688, 518.2165
337.7509, 518.6698
338.2330, 518.5285
338.7151, 517.5644
339.1973, 516.7240
339.6794, 516.3349
340.1615, 516.4069
340.6436, 516.9603
341.1257, 518.1791
341.6078, 519.4910
342.0899, 520.0869
342.5721, 519.9108
343.0542, 519.7494
343.5363, 519.7765
344.0184, 520.0134
344.5005, 520.7534
344.9826, 522.0955
345.4648, 523.1935
345.9469, 522.8566
346.4290, 521.3287
346.9111, 520.6342
347.3932, 521.3353
347.8753, 522.7948
348.3575, 523.7067
348.8396, 524.1239
349.3217, 524.8054
349.8038, 526.5302
350.2859, 528.8693
350.7680, 530.7634
351.2502, 532.0284
351.7323, 533.0443
352.2144, 534.2767
352.6965, 535.6349
353.1786, 536.8082
353.6607, 537.5901
354.1429, 538.1392
354.6250, 538.5145
355.1071, 538.7138
355.5892, 539.2004
356.0713, 540.8082
356.5534, 542.8446
357.0356, 544.2721
357.5177, 544.0514
357.9998, 543.6584
358.4819, 544.2695
358.9640, 545.7180
359.4461, 547.0634
359.9283, 547.2811
360.4104, 547.4635
360.8925, 548.6184
361.3746, 551.6208
361.8567, 554.4768
362.3388, 555.7238
362.8210, 556.1978
363.3031, 557.8285
363.7852, 563.1854
364.2673, 568.2499
364.7494, 570.9858
365.2315, 570.6273
365.7137, 569.9777
366.1958, 569.2249
366.6779, 568.5930
367.1600, 568.3392
367.6421, 568.2253
368.1242, 568.7703
368.6064, 570.2202
369.0885, 572.6251
369.5706, 575.1737
370.0527, 578.4827
370.5348, 581.4823
371.0169, 583.4357
371.4991, 583.3223
371.9812, 583.8812
372.4633, 585.4650
372.9454, 587.8539
373.4275, 590.2723
373.9096, 592.8635
374.3918, 595.2888
374.8739, 597.2079
375.3560, 598.3727
375.8381, 600.2787
376.3202, 603.0519
376.8023, 606.3664
377.2845, 609.5546
377.7666, 612.3870
378.2487, 616.2343
378.7308, 621.7335
379.2129, 628.6730
379.6950, 635.1174
380.1772, 641.0428
380.6593, 646.8522
381.1414, 652.7240
381.6235, 658.6961
382.1056, 665.6687
382.5877, 673.8405
383.0699, 683.0067
383.5520, 692.3486
384.0341, 702.0828
384.5162, 713.5128
384.9983, 728.0068
385.4804, 744.8361
385.9626, 762.2083
386.4447, 779.6781
386.9268, 799.1247
387.4089, 822.7277
387.8910, 849.8701
388.3731, 878.6338
388.8553, 907.6094
389.3374, 938.2321
389.8195, 972.1854
390.3016, 1008.900
390.7837, 1046.517
391.2658, 1084.384
391.7480, 1121.870
392.2301, 1158.318
392.7122, 1193.240
393.1943, 1227.484
393.6764, 1260.184
394.1585, 1292.284
394.6407, 1325.773
395.1228, 1361.969
395.6049, 1399.440
396.0870, 1437.650
396.5691, 1475.832
397.0512, 1516.375
397.5334, 1558.637
398.0155, 1604.059
398.4976, 1653.827
398.9797, 1709.077
399.4618, 1767.994
399.9439, 1829.695
400.4261, 1894.128
400.9082, 1964.489
401.3903, 2043.547
401.8724, 2125.838
402.3545, 2208.363
402.8366, 2290.144
403.3188, 2372.902
403.8009, 2459.385
404.2830, 2545.710
404.7651, 2624.312
405.2472, 2697.750
405.7293, 2754.394
406.2115, 2792.682
406.6936, 2812.808
407.1757, 2798.935
407.6578, 2749.957
408.1399, 2669.569
408.6220, 2554.968
409.1042, 2406.719
409.5863, 2248.219
410.0684, 2078.992
410.5505, 1908.888
411.0326, 1751.284
411.5147, 1605.629
411.9969, 1474.253
412.4790, 1357.444
412.9611, 1254.453
413.4432, 1166.341
413.9253, 1093.377
414.4074, 1031.020
414.8896, 975.9407
415.3717, 927.3986
415.8538, 884.1141
416.3359, 846.9398
416.8180, 814.1647
417.3001, 785.3057
417.7823, 759.9258
418.2644, 737.3008
418.7465, 716.6631
419.2286, 698.0797
419.7107, 681.9364
420.1928, 669.2532
420.6750, 657.4409
421.1571, 645.5125
421.6392, 633.6303
422.1213, 622.5355
422.6034, 612.1971
423.0855, 602.9064
423.5677, 594.9749
424.0498, 589.0167
424.5319, 582.5135
425.0140, 574.2341
425.4961, 565.7751
425.9782, 558.7198
426.4604, 553.6104
426.9425, 549.1483
427.4246, 545.3271
427.9067, 542.0459
428.3888, 538.8572
428.8709, 535.8823
429.3531, 532.8023
429.8352, 529.3777
430.3173, 525.6085
430.7994, 521.6154
431.2815, 517.2092
431.7636, 512.8802
432.2458, 509.6942
432.7279, 507.7218
433.2100, 505.5594
433.6921, 502.3472
434.1742, 498.6003
434.6563, 496.5839
435.1385, 496.3206
435.6206, 496.2071
436.1027, 494.6573
436.5848, 492.1744
437.0669, 490.1696
437.5490, 489.0151
438.0312, 488.1497
438.5133, 486.6712
438.9954, 484.9152
439.4775, 483.8047
439.9596, 484.9115
440.4417, 486.1929
440.9239, 485.1572
441.4060, 481.6647
441.8881, 476.3030
442.3702, 476.8528
442.8523, 476.9560
443.3344, 476.6307
443.8166, 474.9151
444.2987, 474.7490
444.7808, 473.8117
445.2629, 472.7400
445.7450, 472.4853
446.2271, 470.4200
446.7093, 469.9360
447.1914, 471.2861
447.6735, 468.9013
448.1556, 467.1434
448.6377, 466.2984
449.1198, 465.9005
449.6020, 465.4489
450.0841, 464.6719
450.5662, 464.4977
451.0483, 465.4421
451.5304, 467.0857
452.0125, 467.4158
452.4947, 466.1096
452.9768, 464.4957
453.4589, 463.1845
453.9410, 462.1661
454.4231, 461.6440
454.9052, 461.7444
455.3874, 461.8932
455.8695, 461.2246
456.3516, 459.8476
456.8337, 458.6059
457.3158, 457.7686
457.7979, 457.2121
458.2801, 456.7921
458.7622, 456.4893
459.2443, 456.1380
459.7264, 455.5412
460.2085, 454.8732
460.6906, 454.4241
461.1728, 454.3044
461.6549, 454.1117
462.1370, 453.3857
462.6191, 452.4481
463.1012, 451.7853
463.5833, 451.8556
464.0655, 451.9771
464.5476, 451.6912
465.0297, 451.0793
465.5118, 450.8831
465.9939, 452.0856
466.4760, 453.1797
466.9582, 453.2875
467.4403, 451.6165
467.9224, 450.2431
468.4045, 449.3159
468.8866, 448.6661
469.3687, 448.0365
469.8509, 447.3518
470.3330, 446.8517
470.8151, 446.6110
471.2972, 446.6180
471.7793, 446.8136
472.2614, 447.3653
472.7436, 447.6658
473.2257, 446.9901
473.7078, 445.3077
474.1899, 444.6878
474.6720, 445.5172
475.1541, 446.7868
475.6363, 447.0371
476.1184, 446.3716
476.6005, 445.4359
477.0826, 444.1740
477.5647, 442.9832
478.0468, 442.6586
478.5290, 443.1202
479.0111, 443.6411
479.4932, 443.9260
479.9753, 443.8904
480.4574, 443.3194
480.9395, 441.9844
481.4217, 440.7498
481.9038, 440.1989
482.3859, 440.0891
482.8680, 440.0757
483.3501, 439.9391
483.8322, 439.9770
484.3144, 440.6291
484.7965, 441.7900
485.2786, 442.1000
485.7607, 440.4560
486.2428, 438.6071
486.7249, 437.4223
487.2071, 437.2058
487.6892, 437.0644
488.1713, 437.2711
488.6534, 437.3690
489.1355, 436.4963
489.6176, 434.0819
490.0998, 432.4645
490.5819, 432.5312
491.0640, 433.8120
491.5461, 433.7403
492.0282, 432.1602
492.5103, 430.4465
492.9925, 429.5632
493.4746, 429.3745
493.9567, 429.3319
494.4388, 429.4512
494.9209, 429.3883
495.4030, 428.5737
495.8852, 427.2540
496.3673, 426.0106
496.8494, 424.7579
497.3315, 423.9612
497.8136, 424.4727
498.2957, 425.9597
498.7779, 427.0512
499.2600, 426.7810
499.7421, 426.0375
500.2242, 425.4410
500.7063, 425.1188
501.1884, 424.7057
501.6706, 424.1553
502.1527, 423.4467
502.6348, 422.5670
503.1169, 421.0012
503.5990, 419.8999
504.0811, 419.6022
504.5633, 419.8884
505.0454, 419.8931
505.5275, 419.3175
506.0096, 418.9886
506.4917, 419.4172
506.9738, 420.7323
507.4560, 421.1361
507.9381, 420.4009
508.4202, 419.3627
508.9023, 418.8337
509.3844, 418.7951
509.8665, 418.9854
510.3487, 419.4563
510.8308, 419.9525
511.3129, 419.9940
511.7950, 419.6589
512.2772, 419.3051
512.7593, 419.2232
513.2414, 419.1742
513.7235, 418.7271
514.2056, 417.9042
514.6877, 417.3219
515.1699, 417.5165
515.6520, 418.0538
516.1341, 418.5684
516.6162, 419.1024
517.0983, 419.3571
517.5804, 419.0367
518.0626, 418.4109
518.5447, 417.9246
519.0268, 417.4711
519.5089, 417.3598
519.9910, 417.9123
520.4731, 419.0491
520.9553, 419.4446
521.4374, 418.7118
521.9195, 417.8167
522.4016, 417.3249
522.8837, 417.3540
523.3658, 417.2044
523.8480, 416.8414
524.3301, 416.3748
524.8122, 415.9643
525.2943, 415.6086
525.7764, 415.1461
526.2585, 414.3764
526.7407, 413.6647
527.2228, 414.0274
527.7049, 415.2318
528.1870, 415.9074
528.6691, 414.5510
529.1512, 412.5631
529.6334, 411.6229
530.1155, 411.8591
530.5976, 412.3729
531.0797, 413.0885
531.5618, 413.5872
532.0439, 413.4177
532.5261, 411.9099
533.0082, 410.5170
533.4903, 409.5241
533.9724, 408.8881
534.4545, 408.4988
534.9366, 408.4576
535.4188, 408.5492
535.9009, 408.7967
536.3830, 409.1961
536.8651, 409.4632
537.3472, 409.7107
537.8293, 409.6253
538.3115, 408.7369
538.7936, 406.9340
539.2757, 406.2064
539.7578, 406.9423
540.2399, 407.9547
540.7220, 407.0865
541.2042, 404.8201
541.6863, 403.9968
542.1684, 406.3072
542.6505, 409.5081
543.1326, 410.4310
543.6147, 409.4443
544.0969, 407.9584
544.5790, 406.2045
545.0611, 404.7063
545.5432, 404.0445
546.0253, 404.3023
546.5074, 404.5620
546.9896, 404.4999
547.4717, 404.2433
547.9538, 403.8825
548.4359, 402.9855
548.9180, 402.6128
549.4001, 403.3937
549.8823, 404.5812
550.3644, 404.8050
550.8465, 403.2552
551.3286, 402.3360
551.8107, 403.0281
552.2928, 404.9616
552.7750, 405.1751
553.2571, 403.3645
553.7392, 401.3565
554.2213, 400.3177
554.7034, 400.1219
555.1855, 399.9448
555.6677, 399.7122
556.1498, 399.7470
556.6319, 400.8833
557.1140, 402.4879
557.5961, 403.1614
558.0782, 402.0519
558.5604, 400.6469
559.0425, 400.0518
559.5246, 400.0786
560.0067, 400.3222
560.4888, 401.1502
560.9709, 401.6736
561.4531, 401.1902
561.9352, 399.6918
562.4173, 398.8162
562.8994, 399.4783
563.3815, 400.2584
563.8636, 400.4495
564.3458, 399.8558
564.8279, 399.1675
565.3100, 398.2663
565.7921, 397.4144
566.2742, 396.9726
566.7563, 396.9662
567.2385, 396.5314
567.7206, 397.2218
568.2027, 397.5729
568.6848, 397.6028
569.1669, 396.3496
569.6490, 396.7532
570.1312, 396.4928
570.6133, 396.2053
571.0954, 396.8421
571.5775, 395.7755
572.0596, 396.3977
572.5417, 396.3457
573.0239, 396.6023
573.5060, 396.1908
573.9881, 395.9856
574.4702, 396.4487
574.9523, 396.5418
575.4344, 396.0534
575.9166, 396.3296
576.3987, 395.2397
576.8808, 395.3485
577.3629, 395.9746
577.8450, 395.5198
578.3271, 395.8082
578.8093, 395.8135
579.2914, 394.5325
579.7735, 395.4886
580.2556, 395.4772
580.7377, 394.4724
581.2198, 395.3518
581.7020, 394.4840
582.1841, 394.2398
582.6662, 394.4650
583.1483, 394.2009
583.6304, 394.7082
584.1125, 394.4724
584.5947, 394.1701
585.0768, 394.1577
585.5589, 393.3241
586.0410, 394.0138
586.5231, 393.6630
587.0052, 393.8294
587.4873, 394.1131
587.9694, 393.4991
588.4515, 393.8354
588.9337, 392.6979
589.4158, 392.7936
589.8979, 392.7566
590.3800, 393.5077
590.8621, 392.3091
591.3442, 391.7205
591.8264, 391.6881
592.3085, 392.2396
592.7906, 392.8408
593.2727, 393.5293
593.7548, 394.0314
594.2369, 393.7534
594.7191, 392.9561
595.2012, 392.7699
595.6833, 393.7943
596.1654, 394.8750
596.6475, 394.4321
597.1296, 393.0581
597.6118, 392.1168
598.0939, 392.6710
598.5760, 393.4406
599.0581, 393.7677
599.5402, 393.6681
600.0223, 393.5013
600.5045, 393.1047
600.9866, 392.8885
601.4687, 393.0907
601.9508, 393.8516
602.4329, 394.4584
602.9150, 394.9883
603.3972, 395.2499
603.8793, 394.9890
604.3614, 394.1476
604.8435, 393.2979
605.3256, 392.4196
605.8077, 391.7557
606.2899, 391.9571
606.7720, 392.8102
607.2541, 393.3075
607.7362, 392.8730
608.2183, 392.1063
608.7004, 391.4483
609.1826, 391.0004
609.6647, 391.1377
610.1468, 393.0992
610.6289, 394.8606
611.1110, 394.9344
611.5931, 393.1942
612.0753, 391.7310
612.5574, 390.7325
613.0395, 390.3173
613.5216, 390.6292
614.0037, 392.1990
614.4858, 393.0904
614.9680, 393.0293
615.4501, 392.6553
615.9322, 392.8256
616.4143, 393.5845
616.8964, 393.9413
617.3785, 393.6215
617.8607, 392.9699
618.3428, 392.5554
618.8249, 392.3296
619.3070, 392.0926
619.7891, 391.4815
620.2712, 391.0101
620.7534, 391.4962
621.2355, 392.7010
621.7176, 393.4813
622.1997, 392.8390
622.6818, 391.9885
623.1639, 391.6221
623.6461, 391.8666
624.1282, 392.1492
624.6103, 392.6005
625.0924, 392.9123
625.5745, 392.8261
626.0566, 392.0592
626.5388, 391.7551
627.0209, 392.1402
627.5030, 392.6361
627.9851, 392.1752
628.4672, 390.8361
628.9493, 390.3605
629.4315, 391.4700
629.9136, 393.0537
630.3957, 393.2286
630.8778, 392.4152
631.3599, 391.8703
631.8420, 392.5351
632.3242, 393.4395
632.8063, 393.6929
633.2884, 393.4622
633.7705, 393.7043
634.2526, 395.5800
634.7347, 397.3030
635.2169, 397.8222
635.6990, 396.7857
636.1811, 396.4955
636.6632, 397.2737
637.1453, 398.3914
637.6274, 399.3228
638.1096, 400.0278
638.5917, 400.9170
639.0738, 402.1000
639.5559, 403.2119
640.0380, 403.6411
640.5201, 403.5639
641.0023, 403.7122
641.4844, 404.1955
641.9665, 405.1375
642.4486, 406.9710
642.9307, 409.3731
643.4128, 411.6059
643.8950, 413.0105
644.3771, 414.5437
644.8592, 416.9167
645.3413, 419.9113
645.8234, 422.4376
646.3055, 423.3793
646.7877, 424.7733
647.2698, 427.3617
647.7519, 431.2134
648.2340, 434.7922
648.7161, 437.8718
649.1982, 441.2626
649.6804, 445.7293
650.1625, 451.1314
650.6446, 456.0627
651.1267, 460.3660
651.6088, 464.7189
652.0909, 469.8598
652.5731, 475.4520
653.0552, 480.9379
653.5373, 486.0261
654.0194, 491.2909
654.5015, 497.1997
654.9836, 503.5876
655.4658, 510.2419
655.9479, 517.4449
656.4300, 524.5058
656.9121, 531.2324
657.3942, 537.7959
657.8763, 544.5636
658.3585, 551.4543
658.8406, 558.8458
659.3227, 566.9784
659.8048, 575.7214
660.2869, 584.2908
660.7690, 592.6995
661.2512, 600.2231
661.7333, 606.0803
662.2154, 610.7394
662.6975, 615.1271
663.1796, 619.2523
663.6617, 622.5327
664.1439, 625.1829
664.6260, 626.4412
665.1081, 625.5070
665.5902, 621.9526
666.0723, 617.3275
666.5544, 612.0621
667.0366, 605.8512
667.5187, 598.3922
668.0008, 588.9327
668.4829, 579.8737
668.9650, 571.6946
669.4471, 563.6984
669.9293, 554.4095
670.4114, 543.8080
670.8935, 533.7902
671.3756, 524.8422
671.8577, 516.7309
672.3398, 509.0602
672.8220, 501.7487
673.3041, 494.6662
673.7862, 487.4124
674.2683, 480.6322
674.7504, 475.0092
675.2325, 470.3394
675.7147, 465.7501
676.1968, 460.5967
676.6789, 455.7259
677.1610, 451.6909
677.6431, 448.4870
678.1252, 445.2174
678.6074, 442.0042
679.0895, 438.5504
679.5716, 434.5479
680.0537, 429.9660
680.5358, 425.8621
681.0179, 422.2620
681.5001, 419.1909
681.9822, 416.8158
682.4643, 414.9973
682.9464, 413.6256
683.4285, 412.8021
683.9106, 411.8437
684.3928, 410.3473
684.8749, 408.3928
685.3570, 406.0630
685.8391, 402.4773
686.3212, 399.6043
686.8033, 398.1146
687.2855, 397.3836
687.7676, 396.4109
688.2497, 394.9030
688.7318, 393.9506
689.2139, 394.0275
689.6960, 394.5842
690.1782, 393.9733
690.6603, 392.2606
691.1424, 390.6592
691.6245, 389.1479
692.1066, 388.4425
692.5887, 390.8704
693.0709, 395.5014
693.5530, 398.2813
694.0351, 395.0936
694.5172, 390.8531
694.9993, 388.6214
695.4814, 388.6477
695.9636, 388.5455
696.4457, 387.5296
696.9278, 386.7318
697.4099, 386.7914
697.8920, 387.9116
698.3741, 388.4713
698.8563, 388.3681
699.3384, 388.0168
699.8205, 387.7302
700.3026, 387.5054
700.7847, 387.2386
701.2668, 386.8795
701.7490, 386.7906
702.2311, 387.7824
702.7132, 389.0997
703.1953, 389.6522
703.6774, 388.8800
704.1595, 387.9207
704.6417, 386.7457
705.1238, 385.7938
705.6059, 385.7370
706.0880, 387.2248
706.5701, 388.5525
707.0522, 389.5921
707.5344, 390.3695
708.0165, 390.8414
708.4986, 390.9780
708.9807, 391.2107
709.4628, 391.5839
709.9449, 392.2278
710.4271, 393.8644
710.9092, 396.0970
711.3913, 397.5117
711.8734, 397.1017
712.3555, 395.8240
712.8376, 393.5967
713.3198, 390.8345
713.8019, 389.5104
714.2840, 391.6896
714.7661, 393.8706
715.2482, 394.7021
715.7303, 394.2319
716.2125, 393.9368
716.6946, 393.8860
717.1767, 393.8156
717.6588, 393.5512
718.1409, 393.1196
718.6230, 392.7059
719.1052, 392.3029
719.5873, 392.0381
720.0694, 392.1345
720.5515, 392.3631
721.0336, 392.3719
721.5157, 392.0803
721.9979, 391.9390
722.4800, 392.3572
722.9621, 392.8830
723.4442, 393.1524
723.9263, 393.0339
724.4084, 392.8622
724.8906, 392.6642
725.3727, 392.3754
725.8548, 391.8494
726.3369, 391.0466
726.8190, 390.5902
727.3011, 390.6431
727.7833, 390.7383
728.2654, 389.9931
728.7475, 388.8372
729.2296, 388.4116
729.7117, 389.5149
730.1938, 390.4186
730.6760, 389.4485
731.1581, 387.6478
731.6402, 386.6083
732.1223, 387.4326
732.6044, 388.1668
733.0865, 388.6483
733.5687, 388.8255
734.0508, 388.4393
734.5329, 387.2403
735.0150, 386.5718
735.4971, 386.9330
735.9792, 387.8665
736.4614, 388.2320
736.9435, 388.1795
737.4256, 388.4777
737.9077, 390.0013
738.3898, 391.6676
738.8719, 392.1266
739.3541, 391.8027
739.8362, 392.1899
740.3183, 394.9695
740.8004, 397.4073
741.2825, 398.1216
741.7646, 397.3685
742.2468, 397.1698
742.7289, 397.4245
743.2110, 398.4883
743.6931, 400.8036
744.1752, 404.1041
744.6573, 406.9708
745.1395, 409.3820
745.6216, 411.3782
746.1037, 412.4564
746.5858, 413.4059
747.0679, 415.2795
747.5500, 418.1028
748.0322, 420.9760
748.5143, 423.0450
748.9964, 425.3896
749.4785, 428.7831
749.9606, 433.5146
750.4427, 438.1624
750.9249, 442.6848
751.4070, 447.3092
751.8891, 452.0914
752.3712, 457.0729
752.8533, 462.4000
753.3354, 468.1291
753.8176, 474.1544
754.2997, 480.4303
754.7818, 486.9142
755.2639, 493.6548
755.7460, 500.6154
756.2281, 507.7341
756.7103, 514.3431
757.1924, 521.4169
757.6745, 529.8463
758.1566, 541.0670
758.6387, 550.9380
759.1208, 558.9695
759.6030, 566.3713
760.0851, 574.3239
760.5672, 582.8989
761.0493, 591.7180
761.5314, 600.7568
762.0135, 609.9406
762.4957, 619.4800
762.9778, 628.9985
763.4599, 637.9866
763.9420, 646.3681
764.4241, 653.8600
764.9063, 660.8885
765.3884, 666.7056
765.8705, 670.3763
766.3526, 671.6307
766.8347, 670.8924
767.3168, 668.1539
767.7990, 663.4413
768.2811, 656.5901
768.7632, 647.5524
769.2453, 637.3686
769.7274, 626.3248
770.2095, 614.2921
770.6917, 600.8444
771.1738, 586.3881
771.6559, 571.4993
772.1380, 555.6577
772.6201, 540.6210
773.1022, 527.4740
773.5844, 515.8355
774.0665, 505.1894
774.5486, 495.9910
775.0307, 486.9387
775.5128, 477.5914
775.9949, 468.4664
776.4771, 460.9645
776.9592, 455.0682
777.4413, 449.6479
777.9234, 444.2921
778.4055, 439.2823
778.8876, 435.1991
779.3698, 431.8179
779.8519, 428.5465
780.3340, 424.8139
780.8161, 421.4932
781.2982, 419.3209
781.7803, 417.8502
782.2625, 415.7950
782.7446, 412.0999
783.2267, 409.5312
783.7088, 409.1883
784.1909, 410.0223
784.6730, 408.6873
785.1552, 405.2022
785.6373, 402.2465
786.1194, 401.1205
786.6015, 400.8435
787.0836, 400.1738
787.5657, 399.1992
788.0479, 398.1616
788.5300, 397.0762
789.0121, 396.0717
789.4942, 395.2784
789.9763, 394.6310
790.4584, 393.8614
790.9406, 392.8205
791.4227, 391.9528
791.9048, 391.4195
792.3869, 391.1281
792.8690, 390.8262
793.3511, 390.5077
793.8333, 390.1176
794.3154, 389.8154
794.7975, 389.2745
795.2796, 387.8687
795.7617, 385.8504
796.2438, 384.0910
796.7260, 383.0009
797.2081, 382.1611
797.6902, 381.3644
798.1723, 380.6932
798.6544, 380.5878
799.1365, 381.3849
799.6187, 381.8320
800.1008, 381.3852
800.5829, 380.3866
801.0650, 379.8454
801.5471, 379.7115
802.0292, 379.6588
802.5114, 379.6054
802.9935, 379.4790
803.4756, 379.1662
803.9577, 378.7143
804.4398, 378.2932
804.9219, 377.7681
805.4041, 377.4976
805.8862, 377.8228
806.3683, 378.4797
806.8504, 378.1798
807.3325, 376.6264
807.8146, 375.6150
808.2968, 376.1243
808.7789, 377.3442
809.2610, 377.4265
809.7431, 376.5828
810.2252, 375.6721
810.7073, 375.1266
811.1895, 374.6812
811.6716, 373.7632
812.1537, 374.2240
812.6358, 374.3454
813.1179, 374.1456
813.6000, 372.6629
814.0822, 372.8368
814.5643, 372.3469
815.0464, 371.8297
815.5285, 372.2368
816.0106, 370.9407
816.4927, 371.3332
816.9749, 371.0516
817.4570, 371.0786
817.9391, 370.4374
818.4212, 370.0027
818.9033, 370.2361
819.3854, 370.0996
819.8676, 369.3815
820.3497, 369.4281
820.8318, 368.0948
821.3139, 368.5637
821.7960, 369.1442
822.2781, 369.7626
822.7603, 370.2694
823.2424, 370.3027
823.7245, 369.8957
824.2066, 369.2481
824.6887, 368.1436
825.1708, 367.2004
825.6530, 367.2889
826.1351, 367.9444
826.6172, 368.1306
827.0993, 367.0327
827.5814, 366.0662
828.0635, 365.3743
828.5457, 365.0422
829.0278, 365.4466
829.5099, 366.7905
829.9920, 367.4427
830.4741, 366.8132
830.9562, 365.6896
831.4384, 365.3171
831.9205, 365.4655
832.4026, 365.5379
832.8847, 365.2315
833.3668, 364.9142
833.8489, 364.7288
834.3311, 364.6610
834.8132, 364.7137
835.2953, 365.1001
835.7774, 365.1440
836.2595, 364.6383
836.7416, 363.9315
837.2238, 363.4686
837.7059, 363.2694
838.1880, 363.6916
838.6701, 365.0533
839.1522, 366.3048
839.6343, 366.2216
840.1165, 365.4004
840.5986, 364.6797
841.0807, 364.3094
841.5628, 364.0260
842.0449, 363.8815
842.5270, 363.7358
843.0092, 363.3770
843.4913, 362.6982
843.9734, 362.4986
844.4555, 362.9554
844.9376, 363.5026
845.4197, 363.3266
845.9019, 362.7672
846.3840, 362.5387
846.8661, 362.8066
847.3482, 363.2680
847.8303, 364.1201
848.3124, 364.8682
848.7946, 364.9950
849.2767, 364.1115
849.7588, 363.5950
850.2409, 363.5889
850.7230, 363.6747
851.2051, 363.4002
851.6873, 362.4249
852.1694, 363.2824
852.6515, 363.7373
853.1336, 363.8113
853.6157, 362.3635
854.0978, 362.8808
854.5800, 362.6106
855.0621, 362.3080
855.5442, 363.1019
856.0263, 361.8755
856.5084, 362.6519
856.9905, 362.6289
857.4727, 362.9717
857.9548, 362.5222
858.4369, 362.3175
858.9190, 362.9053
859.4011, 363.0543
859.8832, 362.5136
860.3654, 362.8797
860.8475, 361.6256
861.3296, 361.7933
861.8117, 362.5744
862.2938, 362.0735
862.7759, 362.4542
863.2581, 362.4990
863.7402, 361.0182
864.2223, 362.1908
864.7044, 362.2159
865.1865, 361.0627
865.6686, 362.1443
866.1508, 361.1536
866.6329, 361.4898
867.1150, 361.8981
867.5971, 361.8023
868.0792, 361.5401
868.5613, 361.2336
869.0435, 360.9126
869.5256, 360.6609
870.0077, 360.3233
870.4898, 360.3889
870.9719, 361.2019
871.4540, 362.2210
871.9362, 362.0694
872.4183, 360.9076
872.9004, 359.9945
873.3825, 359.7644
873.8646, 359.8310
874.3467, 359.8372
874.8289, 359.8894
875.3110, 360.1486
875.7931, 361.2286
876.2752, 361.7104
876.7573, 361.2034
877.2394, 360.3367
877.7216, 359.8196
878.2037, 359.6671
878.6858, 359.6807
879.1679, 359.8632
879.6500, 360.0809
880.1321, 359.9781
880.6143, 359.9034
881.0964, 360.6258
881.5785, 362.6559
882.0606, 363.7269
882.5427, 361.8828
883.0248, 359.7105
883.5070, 359.0473
883.9891, 360.1722
884.4712, 361.1745
884.9533, 362.1006
885.4354, 362.6147
885.9175, 362.3564
886.3997, 361.5141
886.8818, 360.1821
887.3639, 358.4525
887.8460, 357.3231
888.3281, 357.6923
888.8102, 358.4999
889.2924, 358.2845
889.7745, 359.2002
890.2566, 359.7134
890.7387, 359.8457
891.2208, 358.4562
891.7029, 359.0318
892.1851, 358.8199
892.6672, 358.5757
893.1493, 359.4278
893.6314, 358.2597
894.1135, 359.0944
894.5956, 359.1297
895.0778, 359.5308
895.5599, 359.1396
896.0420, 358.9932
896.5241, 359.6393
897.0062, 359.8466
897.4883, 359.3642
897.9705, 359.7886
898.4526, 358.5928
898.9347, 358.8188
899.4168, 359.6582
899.8989, 359.2156
900.3810, 359.6545
900.8632, 359.7577
901.3453, 358.3352
901.8274, 359.5660
902.3095, 359.6494
902.7916, 358.5545
903.2737, 359.6944
903.7559, 358.7620
904.2380, 358.5693
904.7201, 358.9332
905.2022, 358.7169
905.6843, 359.4154
906.1664, 359.2326
906.6486, 358.9710
907.1307, 359.0530
907.6128, 358.1613
908.0949, 359.0762
908.5770, 358.7569
909.0591, 359.0512
909.5413, 359.1056
910.0234, 359.3350
910.5055, 359.6904
910.9876, 359.9416
911.4697, 360.0809
911.9518, 360.4362
912.4340, 361.0696
912.9161, 361.3205
913.3982, 361.2103
913.8803, 359.5983
914.3624, 359.9711
914.8445, 359.5764
915.3267, 359.1692
915.8088, 359.8783
916.2909, 358.5869
916.7730, 359.3184
917.2551, 359.2702
917.7372, 359.6078
918.2194, 359.1729
918.7015, 359.0026
919.1836, 359.6448
919.6657, 359.8680
920.1478, 359.4214
920.6299, 359.9015
921.1121, 358.7813
921.5942, 357.2935
922.0763, 357.2971
922.5584, 357.7093
923.0405, 358.5406
923.5226, 359.6750
924.0048, 361.1472
924.4869, 362.2175
924.9690, 361.9238
925.4511, 361.1320
925.9332, 360.8242
926.4153, 361.0417
926.8975, 361.2403
927.3796, 361.1756
927.8617, 361.1806
928.3438, 361.4784
928.8259, 361.9309
929.3080, 361.7329
929.7902, 360.8961
930.2723, 360.1172
930.7544, 359.7955
931.2365, 359.5881
931.7186, 359.0235
932.2007, 358.2926
932.6829, 357.7864
933.1650, 357.3499
933.6471, 357.5891
934.1292, 359.0437
934.6113, 360.7470
935.0934, 361.2492
935.5756, 360.5665
936.0577, 359.7335
936.5398, 358.8388
937.0219, 358.2270
937.5040, 358.5114
937.9861, 359.1382
938.4683, 359.4885
938.9504, 359.4475
939.4325, 359.1866
939.9146, 358.5157
940.3967, 357.9184
940.8788, 357.6120
941.3610, 357.5970
941.8431, 358.0020
942.3252, 358.8089
942.8073, 359.4221
943.2894, 359.2094
943.7715, 358.8308
944.2537, 359.0279
944.7358, 359.6031
945.2179, 359.7873
945.7000, 359.0526
946.1821, 358.3927
946.6642, 357.8957
947.1464, 357.6319
947.6285, 357.8651
948.1106, 358.5234
948.5927, 359.0239
949.0748, 359.1578
949.5569, 359.3061
950.0391, 359.9496
950.5212, 360.7261
951.0033, 361.2058
951.4854, 361.1844
951.9675, 361.1294
952.4496, 360.9370
952.9318, 360.9009
953.4139, 361.2848
953.8960, 362.0326
954.3781, 362.9600
954.8602, 364.0242
955.3423, 364.7997
955.8245, 365.1221
956.3066, 364.9452
956.7887, 363.8875
957.2708, 362.1368
957.7529, 361.1564
958.2350, 361.2599
958.7172, 361.4780
959.1993, 361.5496
959.6814, 361.5864
960.1635, 361.9599
960.6456, 362.5146
961.1277, 362.7007
961.6099, 362.1180
962.0920, 361.5853
962.5741, 361.5443
963.0562, 361.8171
963.5383, 362.2268
964.0204, 362.8942
964.5026, 363.2710
964.9847, 363.2655
965.4668, 363.2684
965.9489, 363.7980
966.4310, 364.5446
966.9131, 364.8175
967.3953, 364.6061
967.8774, 364.3980
968.3595, 364.2474
968.8416, 364.3502
969.3237, 364.7342
969.8058, 365.4345
970.2880, 366.8805
970.7701, 369.2375
971.2522, 371.0704
971.7343, 372.0010
972.2164, 372.0047
972.6985, 370.2892
973.1807, 367.7726
973.6628, 366.2513
974.1449, 366.6815
974.6270, 367.4285
975.1091, 368.1229
975.5912, 369.0570
976.0734, 371.0456
976.5555, 374.1580
977.0376, 374.2310
977.5197, 370.9223
978.0018, 367.5186
978.4839, 366.5482
978.9661, 366.9041
979.4482, 367.8314
979.9303, 369.2033
980.4124, 370.0791
980.8945, 370.2996
981.3766, 370.0512
981.8588, 369.2321
982.3409, 368.0932
982.8230, 367.1595
983.3051, 366.4943
983.7872, 366.5070
984.2693, 367.6622
984.7515, 368.9041
985.2336, 369.5904
985.7157, 369.8796
986.1978, 369.9384
986.6799, 369.5953
987.1620, 369.4774
987.6442, 369.5977
988.1263, 369.9026
988.6084, 370.4963
989.0905, 371.2027
989.5726, 371.5408
990.0547, 371.5172
990.5369, 371.4333
991.0190, 371.4181
991.5011, 371.4124
991.9832, 371.3564
992.4653, 371.2905
992.9474, 371.4907
993.4296, 372.0472
993.9117, 371.9313
994.3938, 370.5686
994.8759, 369.0079
995.3580, 368.3651
995.8401, 368.5888
996.3223, 369.7186
996.8044, 372.6719
997.2865, 374.4827
997.7686, 374.3867
998.2507, 373.5164
998.7328, 372.4460
999.2150, 371.2201
999.6971, 370.9261
1000.179, 371.5384
1000.661, 371.9599
1001.143, 370.6798
1001.626, 369.5659
1002.108, 370.5688
1002.590, 373.1679
1003.072, 374.5663
1003.554, 374.2778
1004.036, 373.4543
1004.518, 372.0002
1005.000, 370.7257
1005.482, 371.6087
1005.965, 373.7635
1006.447, 374.7062
1006.929, 373.5702
1007.411, 372.3740
1007.893, 372.2043
1008.375, 372.2513
1008.857, 371.6921
1009.339, 370.3748
1009.822, 370.8491
1010.304, 373.2865
1010.786, 375.5898
1011.268, 376.2959
1011.750, 376.1754
1012.232, 376.0193
1012.714, 375.8459
1013.196, 375.6928
1013.678, 375.3832
1014.161, 375.3951
1014.643, 376.0013
1015.125, 376.6974
1015.607, 376.5799
1016.089, 375.8231
1016.571, 375.5886
1017.053, 376.0937
1017.535, 376.5933
1018.018, 376.4245
1018.500, 376.0995
1018.982, 375.9684
1019.464, 376.0633
1019.946, 376.4847
1020.428, 377.3320
1020.910, 378.1749
1021.392, 378.9285
1021.874, 379.4585
1022.357, 379.5689
1022.839, 379.2376
1023.321, 378.3701
1023.803, 375.7037
1024.285, 374.2944
1024.767, 375.8969
1025.249, 378.1993
1025.731, 379.0111
1026.214, 378.3221
1026.696, 377.4559
1027.178, 376.4496
1027.660, 376.0085
1028.142, 377.1996
1028.624, 378.7819
1029.106, 379.6642
1029.588, 379.8766
1030.070, 380.2309
1030.553, 381.0505
1031.035, 381.3703
1031.517, 380.8198
1031.999, 379.8853
1032.481, 379.2250
1032.963, 378.8991
1033.445, 379.1767
1033.927, 380.3661
1034.410, 381.2380
1034.892, 380.7987
1035.374, 380.2120
1035.856, 380.3352
1036.338, 381.1891
1036.820, 381.5839
1037.302, 381.5008
1037.784, 381.6498
1038.266, 383.1698
1038.749, 384.5390
1039.231, 383.6031
1039.713, 381.3536
1040.195, 380.2303
1040.677, 381.4960
1041.159, 382.4596
1041.641, 382.9036
1042.123, 382.9909
1042.605, 382.6387
1043.088, 382.1227
1043.570, 382.4960
1044.052, 383.8645
1044.534, 384.7271
1045.016, 383.5875
1045.498, 382.4293
1045.980, 382.3773
1046.462, 383.1711
1046.945, 383.6552
1047.427, 383.8318
1047.909, 383.7129
1048.391, 383.0879
1048.873, 382.6811
1049.355, 383.5997
1049.837, 385.0765
1050.319, 386.0687
1050.802, 386.1278
1051.284, 386.2788
1051.766, 386.6700
1052.248, 386.8495
1052.730, 386.1126
1053.212, 384.9643
1053.694, 385.4352
1054.176, 387.1014
1054.658, 387.9965
1055.141, 385.9358
1055.623, 384.3528
1056.105, 384.8680
1056.587, 386.3544
1057.069, 387.2885
1057.551, 387.6630
1058.033, 387.5368
1058.515, 386.8398
1058.997, 386.3315
1059.480, 386.8474
1059.962, 387.7660
1060.444, 388.6085
1060.926, 389.3118
1061.408, 389.7524
1061.890, 389.9286
1062.372, 389.8307
1062.854, 389.3350
1063.337, 388.7508
1063.819, 388.7469
1064.301, 389.1058
1064.783, 389.3813
1065.265, 389.5312
1065.747, 389.3692
1066.229, 388.3864
1066.711, 387.5069
1067.193, 387.4022
1067.676, 388.0218
1068.158, 388.3803
1068.640, 388.4894
1069.122, 388.5269
1069.604, 388.2562
1070.086, 388.2959
1070.568, 389.4920
1071.050, 391.2074
1071.532, 391.9737
1072.015, 391.4267
1072.497, 391.2379
1072.979, 391.6928
1073.461, 391.9895
1073.943, 390.6522
1074.425, 388.9626
1074.907, 388.9915
1075.389, 390.8244
1075.872, 392.2130
1076.354, 392.0021
1076.836, 392.1946
1077.318, 393.6829
1077.800, 395.5177
1078.282, 395.1936
1078.764, 393.3253
1079.246, 392.2501
1079.729, 392.7502
1080.211, 393.4318
1080.693, 393.3771
1081.175, 393.3571
1081.657, 394.1511
1082.139, 395.7606
1082.621, 395.8441
1083.103, 394.3699
1083.585, 393.3370
1084.068, 394.3619
1084.550, 395.7520
1085.032, 395.6149
1085.514, 394.7520
1085.996, 394.6581
1086.478, 396.1706
1086.960, 396.9225
1087.442, 396.6917
1087.924, 396.1677
1088.406, 395.9861
1088.889, 395.9658
1089.371, 395.6660
1089.853, 395.1501
1090.335, 394.9315
1090.817, 395.4720
1091.299, 396.0201
1091.781, 396.5005
1092.263, 396.7917
1092.746, 396.4660
1093.228, 395.7055
1093.710, 395.4377
1094.192, 395.8578
1094.674, 396.4008
1095.156, 396.6881
1095.638, 396.9853
1096.120, 397.5641
1096.603, 398.3377
1097.085, 398.6540
1097.567, 398.4955
1098.049, 398.1658
1098.531, 397.5893
1099.013, 397.2719
1099.495, 397.8840
1099.977, 399.0027
1100.459, 400.1924
1100.942, 401.6880
1101.424, 402.1652
1101.906, 401.3965
1102.388, 400.3534
1102.870, 399.5096
1103.352, 398.9003
1103.834, 398.6140
1104.316, 398.6112
1104.798, 398.7856
1105.281, 399.6372
1105.763, 399.7994
1106.245, 398.5694
1106.727, 397.3992
1107.209, 398.4371
1107.691, 400.9819
1108.173, 401.8529
1108.655, 400.9749
1109.138, 399.9926
1109.620, 399.7176
1110.102, 399.6895
1110.584, 399.7709
1111.066, 399.9076
1111.548, 399.8827
1112.030, 399.7072
1112.512, 400.2487
1112.995, 401.8138
1113.477, 403.0842
1113.959, 402.4103
1114.441, 401.3232
1114.923, 401.1609
1115.405, 401.9684
1115.887, 402.8143
1116.369, 403.7706
1116.851, 404.3530
1117.333, 404.2776
1117.816, 403.9920
1118.298, 403.9301
1118.780, 404.1158
1119.262, 404.6631
1119.744, 405.8936
1120.226, 406.5388
1120.708, 406.4331
1121.190, 406.0629
1121.673, 405.4764
1122.155, 404.9703
1122.637, 405.6959
1123.119, 407.0872
1123.601, 407.5796
1124.083, 405.0193
1124.565, 403.7407
1125.047, 404.8823
1125.530, 406.7887
1126.012, 408.1044
1126.494, 408.8676
1126.976, 409.0610
1127.458, 408.7843
1127.940, 408.8447
1128.422, 410.2581
1128.904, 411.4697
1129.386, 411.2271
1129.869, 410.6885
1130.351, 412.0460
1130.833, 415.2436
1131.315, 416.9583
1131.797, 416.7441
1132.279, 416.1656
1132.761, 416.6207
1133.243, 417.0412
1133.725, 416.4442
1134.208, 415.0632
1134.690, 414.1049
1135.172, 413.5654
1135.654, 413.5675
1136.136, 414.2682
1136.618, 415.0416
1137.100, 415.1727
1137.582, 415.0188
1138.065, 414.8520
1138.547, 414.6711
1139.029, 415.2539
1139.511, 417.0565
1139.993, 417.9947
1140.475, 416.7256
1140.957, 414.9901
1141.439, 416.0529
1141.922, 418.4579
1142.404, 419.6542
1142.886, 418.4442
1143.368, 417.4710
1143.850, 416.8850
1144.332, 416.7064
1144.814, 417.2292
1145.296, 418.0263
1145.778, 417.6371
1146.260, 416.5665
1146.743, 416.2800
1147.225, 418.8264
1147.707, 420.0307
1148.189, 418.2955
1148.671, 416.4762
1149.153, 417.7338
1149.635, 421.1721
1150.117, 422.1501
1150.600, 420.8993
1151.082, 419.8280
1151.564, 420.8795
1152.046, 421.4656
1152.528, 420.0518
1153.010, 418.1747
1153.492, 418.1470
1153.974, 419.7572
1154.457, 420.6048
1154.939, 420.4756
1155.421, 419.9523
1155.903, 418.7816
1156.385, 417.9708
1156.867, 418.2052
1157.349, 419.2242
1157.831, 420.8192
1158.313, 423.0121
1158.796, 424.2137
1159.278, 424.0925
1159.760, 423.5545
1160.242, 422.9818
1160.724, 422.6238
1161.206, 422.7555
1161.688, 423.3291
1162.170, 423.9983
1162.652, 424.7874
1163.135, 425.4513
1163.617, 425.9047
1164.099, 426.2731
1164.581, 426.8714
1165.063, 427.3455
1165.545, 427.1849
1166.027, 426.2621
1166.509, 425.7093
1166.992, 425.4997
1167.474, 425.8328
1167.956, 427.0508
1168.438, 428.3783
1168.920, 428.7674
1169.402, 428.6420
1169.884, 428.6563
1170.366, 429.1248
1170.849, 428.8973
1171.331, 427.6459
1171.813, 426.8849
1172.295, 427.7603
1172.777, 429.3643
1173.259, 430.3143
1173.741, 430.8489
1174.223, 431.4266
1174.705, 432.6479
1175.188, 432.9374
1175.670, 431.9623
1176.152, 430.8929
1176.634, 430.5847
1177.116, 430.7958
1177.598, 431.1698
1178.080, 431.6363
1178.562, 432.0087
1179.044, 431.9691
1179.527, 432.2930
1180.009, 433.2907
1180.491, 434.1413
1180.973, 433.6485
1181.455, 432.5697
1181.937, 432.8824
1182.419, 434.3578
1182.901, 435.5292
1183.384, 435.6683
1183.866, 435.6368
1184.348, 435.4164
1184.830, 435.3725
1185.312, 436.3539
1185.794, 437.7949
1186.276, 437.9188
1186.758, 436.7453
1187.240, 435.9879
1187.723, 436.6816
1188.205, 437.4837
1188.687, 437.9962
1189.169, 438.5241
1189.651, 439.9100
1190.133, 441.7022
1190.615, 442.2057
1191.097, 441.1946
1191.579, 440.6440
1192.062, 441.9585
1192.544, 443.2456
1193.026, 443.8985
1193.508, 444.1353
1193.990, 444.3437
1194.472, 444.5504
1194.954, 444.9488
1195.436, 445.6523
1195.919, 445.8778
1196.401, 444.7382
1196.883, 443.6641
1197.365, 443.2322
1197.847, 443.2961
1198.329, 443.3211
1198.811, 443.4513
1199.293, 444.4411
1199.776, 446.7968
1200.258, 448.5112
1200.740, 448.1279
1201.222, 447.3665
1201.704, 447.0052
1202.186, 446.9745
1202.668, 447.1176
1203.150, 447.3759
1203.632, 447.5005
1204.115, 447.3333
1204.597, 447.2602
1205.079, 447.3552
1205.561, 447.7397
1206.043, 448.6003
1206.525, 449.7929
1207.007, 450.5358
1207.489, 450.8883
1207.971, 451.1232
1208.454, 451.2259
1208.936, 451.4583
1209.418, 452.2486
1209.900, 452.8827
1210.382, 452.7695
1210.864, 452.0589
1211.346, 451.8007
1211.828, 451.9270
1212.311, 452.1138
1212.793, 451.9652
1213.275, 452.2466
1213.757, 453.6713
1214.239, 455.2245
1214.721, 456.1322
1215.203, 456.4754
1215.685, 456.9845
1216.167, 457.5646
1216.650, 457.7216
1217.132, 456.5225
1217.614, 455.7853
1218.096, 456.5869
1218.578, 457.5334
1219.060, 457.1626
1219.542, 455.7684
1220.024, 455.5190
1220.506, 456.2433
1220.989, 456.7607
1221.471, 456.0755
1221.953, 455.6550
1222.435, 455.9553
1222.917, 456.6303
1223.399, 457.4432
1223.881, 458.3454
1224.363, 459.0953
1224.846, 459.6860
1225.328, 460.1122
1225.810, 460.2496
1226.292, 460.3826
1226.774, 460.6408
1227.256, 460.8489
1227.738, 460.3871
1228.220, 459.7221
1228.703, 461.1793
1229.185, 464.4394
1229.667, 466.5406
1230.149, 465.0558
1230.631, 463.6168
1231.113, 462.8240
1231.595, 462.7287
1232.077, 463.7682
1232.559, 465.4715
1233.042, 466.6581
1233.524, 467.2211
1234.006, 467.0927
1234.488, 465.1951
1234.970, 464.1161
1235.452, 464.5737
1235.934, 465.6067
1236.416, 465.9608
1236.898, 465.9015
1237.381, 465.9230
1237.863, 466.0912
1238.345, 466.5526
1238.827, 468.0150
1239.309, 468.6790
1239.791, 467.9876
1240.273, 466.9836
1240.755, 467.2873
1241.238, 468.1801
1241.720, 468.2036
1242.202, 467.3221
1242.684, 466.7471
1243.166, 466.4950
1243.648, 467.0818
1244.130, 468.8252
1244.612, 470.8439
1245.094, 472.2110
1245.577, 472.9952
1246.059, 472.9699
1246.541, 472.2304
1247.023, 472.4561
1247.505, 474.3179
1247.987, 475.4225
1248.469, 475.0663
1248.951, 474.5107
1249.433, 475.8597
1249.916, 477.5566
1250.398, 477.4265
1250.880, 475.4495
1251.362, 474.5126
1251.844, 474.8182
1252.326, 475.8000
1252.808, 477.5161
1253.290, 479.1233
1253.773, 479.7203
1254.255, 479.7619
1254.737, 479.4687
1255.219, 478.9706
1255.701, 479.2326
1256.183, 480.4300
1256.665, 480.6545
1257.147, 479.2486
1257.630, 478.0529
1258.112, 479.2372
1258.594, 480.9871
1259.076, 481.7426
1259.558, 481.6859
1260.040, 481.5964
1260.522, 481.4822
1261.004, 482.2573
1261.486, 484.3124
1261.969, 485.9519
1262.451, 485.2641
1262.933, 484.3283
1263.415, 484.6673
1263.897, 485.8156
1264.379, 486.0138
1264.861, 485.4485
1265.343, 485.6409
1265.825, 487.0285
1266.308, 488.2410
1266.790, 488.3497
1267.272, 488.1954
1267.754, 488.1371
1268.236, 488.1829
1268.718, 488.4724
1269.200, 488.8875
1269.682, 488.9098
1270.165, 488.3854
1270.647, 488.0446
1271.129, 487.7712
1271.611, 488.4417
1272.093, 490.8489
1272.575, 493.6837
1273.057, 494.0584
1273.539, 492.9168
1274.021, 492.3375
1274.504, 492.7085
1274.986, 493.1597
1275.468, 493.7191
1275.950, 493.8348
1276.432, 493.0977
1276.914, 492.3761
1277.396, 493.4007
1277.878, 495.1503
1278.360, 496.0720
1278.843, 495.9098
1279.325, 495.5629
1279.807, 494.8342
1280.289, 495.0307
1280.771, 496.7861
1281.253, 498.7232
1281.735, 498.8900
1282.217, 498.5644
1282.700, 499.3792
1283.182, 501.3253
1283.664, 502.2143
1284.146, 501.9376
1284.628, 501.8184
1285.110, 502.2197
1285.592, 502.6489
1286.074, 502.2780
1286.557, 502.1048
1287.039, 503.3536
1287.521, 505.4219
1288.003, 505.8749
1288.485, 504.8681
1288.967, 504.1727
1289.449, 504.1273
1289.931, 504.8233
1290.413, 507.2109
1290.896, 509.3610
1291.378, 510.3118
1291.860, 510.4382
1292.342, 510.5091
1292.824, 510.5638
1293.306, 510.7145
1293.788, 510.9820
1294.270, 511.4030
1294.752, 512.0958
1295.235, 512.8112
1295.717, 513.4544
1296.199, 514.1259
1296.681, 515.2374
1297.163, 516.3845
1297.645, 516.6136
1298.127, 515.8136
1298.609, 515.6288
1299.092, 516.3078
1299.574, 517.3877
1300.056, 518.9520
1300.538, 520.3140
1301.020, 520.6952
1301.502, 520.4145
1301.984, 519.6227
1302.466, 518.4259
1302.948, 517.3926
1303.431, 516.2875
1303.913, 517.1957
1304.395, 520.5507
1304.877, 526.0219
##END=



