##NAMES=Spinel
##RRUFFID=R050259
##IDEAL CHEMISTRY=MgAl_2_O_4_
##LOCALITY=Mogok, Burma
##OWNER=RRUFF
##SOURCE=Marcus Origlieri
##DESCRIPTION=Purple cut gemstone
##STATUS=The identification of this mineral has been confirmed by X-ray diffraction and chemical analysis
##URL=rruff.info/R050259
##MEASURED CHEMISTRY=(Mg_0.99_Zn_0.01_)_Σ=1_(Al_1.98_Fe^3+^_0.02_)_Σ=2_O_4_; trace amounts of Cr
92.54132, 0.0000000E+00
93.02344, 111.3730
93.50555, 113.5072
93.98767, 114.2891
94.46979, 112.2343
94.95190, 108.9154
95.43402, 108.6067
95.91614, 111.8045
96.39825, 115.7693
96.88037, 116.6868
97.36249, 114.7019
97.84460, 112.3977
98.32672, 110.8615
98.80884, 110.0960
99.29095, 109.9951
99.77307, 110.6459
100.2552, 111.8419
100.7373, 113.0524
101.2194, 114.1505
101.7015, 115.7113
102.1837, 118.1706
102.6658, 121.6459
103.1479, 125.4407
103.6300, 129.6409
104.1121, 134.1142
104.5942, 138.0626
105.0763, 141.3833
105.5585, 144.3626
106.0406, 147.2635
106.5227, 150.0942
107.0048, 152.7803
107.4869, 155.2062
107.9690, 157.3328
108.4512, 159.7193
108.9333, 162.7650
109.4154, 165.8908
109.8975, 168.5130
110.3796, 169.1129
110.8617, 170.6990
111.3439, 174.1478
111.8260, 180.1629
112.3081, 185.6086
112.7902, 189.7706
113.2723, 193.3717
113.7544, 197.3481
114.2366, 201.7866
114.7187, 206.6809
115.2008, 212.1585
115.6829, 218.7681
116.1650, 224.7622
116.6471, 229.4231
117.1293, 233.1797
117.6114, 237.0678
118.0935, 241.8080
118.5756, 246.5798
119.0577, 250.8396
119.5398, 253.9992
120.0220, 257.2541
120.5041, 261.4491
120.9862, 266.3686
121.4683, 271.1371
121.9504, 275.4089
122.4325, 279.2126
122.9147, 282.6427
123.3968, 285.8773
123.8789, 288.5826
124.3610, 290.0684
124.8431, 290.4509
125.3252, 290.9365
125.8074, 292.2008
126.2895, 294.2295
126.7716, 297.0000
127.2537, 301.0513
127.7358, 305.6730
128.2179, 309.5743
128.7001, 312.6872
129.1822, 315.8137
129.6643, 319.7531
130.1464, 324.4024
130.6285, 329.3332
131.1106, 334.9173
131.5928, 340.7020
132.0749, 344.9353
132.5570, 347.2053
133.0391, 348.9306
133.5212, 352.3936
134.0033, 356.9947
134.4855, 359.5374
134.9676, 358.7536
135.4497, 356.1497
135.9318, 355.2291
136.4139, 356.6442
136.8960, 359.0569
137.3782, 359.6848
137.8603, 358.2617
138.3424, 356.7031
138.8245, 356.3094
139.3066, 357.3077
139.7887, 357.6295
140.2709, 356.9362
140.7530, 355.5338
141.2351, 354.3998
141.7172, 353.5084
142.1993, 352.8884
142.6814, 352.6727
143.1636, 353.1530
143.6457, 353.1599
144.1278, 352.3875
144.6099, 350.9415
145.0920, 349.7777
145.5741, 348.6313
146.0563, 348.0218
146.5384, 348.4710
147.0205, 351.0191
147.5026, 352.9071
147.9847, 353.6173
148.4668, 353.0942
148.9490, 352.6230
149.4311, 352.1384
149.9132, 351.7455
150.3953, 351.5539
150.8774, 351.9979
151.3595, 352.1818
151.8417, 351.8512
152.3238, 350.8827
152.8059, 350.1524
153.2880, 349.8838
153.7701, 349.7882
154.2522, 349.5509
154.7344, 348.8744
155.2165, 348.3042
155.6986, 348.0571
156.1807, 348.2758
156.6628, 348.2720
157.1449, 347.7296
157.6271, 346.9482
158.1092, 346.3277
158.5913, 346.1659
159.0734, 346.0089
159.5555, 345.6753
160.0376, 345.1143
160.5198, 344.4681
161.0019, 343.3980
161.4840, 342.2986
161.9661, 341.8930
162.4482, 343.3184
162.9303, 344.8936
163.4125, 345.6205
163.8946, 345.0522
164.3767, 344.2950
164.8588, 343.7390
165.3409, 343.3549
165.8230, 343.0584
166.3052, 342.8347
166.7873, 342.6683
167.2694, 342.5212
167.7515, 342.2877
168.2336, 342.2374
168.7157, 342.7495
169.1978, 343.6327
169.6800, 344.2919
170.1621, 344.3418
170.6442, 344.0202
171.1263, 343.5488
171.6084, 342.8830
172.0905, 342.2211
172.5727, 341.6398
173.0548, 341.1709
173.5369, 340.9512
174.0190, 341.4034
174.5011, 342.0738
174.9832, 342.2996
175.4654, 341.6702
175.9475, 340.7870
176.4296, 340.3055
176.9117, 340.1865
177.3938, 340.1020
177.8759, 339.7396
178.3581, 339.2417
178.8402, 338.9016
179.3223, 338.9991
179.8044, 339.1510
180.2865, 338.7238
180.7686, 337.7362
181.2508, 336.6578
181.7329, 335.7791
182.2150, 335.1081
182.6971, 333.4447
183.1792, 334.8053
183.6613, 335.4882
184.1435, 335.5299
184.6256, 333.0099
185.1077, 333.7979
185.5898, 333.2602
186.0719, 332.6681
186.5540, 333.9216
187.0362, 331.7742
187.5183, 332.9984
188.0004, 332.8768
188.4825, 333.3711
188.9646, 332.5316
189.4467, 332.1041
189.9289, 333.0108
190.4110, 333.1788
190.8931, 332.1857
191.3752, 332.7192
191.8573, 330.5252
192.3394, 330.7246
192.8216, 331.9567
193.3037, 331.0307
193.7858, 331.5886
194.2679, 331.5813
194.7500, 329.0057
195.2321, 330.8967
195.7143, 330.8560
196.1964, 328.8320
196.6785, 330.5699
197.1606, 328.8193
197.6427, 328.3139
198.1248, 328.7456
198.6070, 328.2003
199.0891, 329.1953
199.5712, 328.7065
200.0533, 328.1404
200.5354, 328.3647
201.0175, 328.7078
201.4997, 329.2268
201.9818, 329.4663
202.4639, 329.1426
202.9460, 328.2549
203.4281, 327.7360
203.9102, 327.7315
204.3924, 327.8366
204.8745, 327.3765
205.3566, 326.2057
205.8387, 325.1558
206.3208, 324.5112
206.8029, 324.2742
207.2851, 324.3867
207.7672, 325.0076
208.2493, 325.7513
208.7314, 326.0077
209.2135, 325.6769
209.6956, 325.1914
210.1778, 324.6066
210.6599, 323.8609
211.1420, 323.5957
211.6241, 324.0138
212.1062, 324.6692
212.5883, 324.7948
213.0705, 324.1499
213.5526, 323.6290
214.0347, 323.5998
214.5168, 324.1481
214.9989, 324.5816
215.4810, 324.9628
215.9632, 325.1635
216.4453, 324.8601
216.9274, 323.7127
217.4095, 322.8676
217.8916, 322.8412
218.3737, 323.8355
218.8559, 324.4111
219.3380, 324.3983
219.8201, 324.1133
220.3022, 324.0966
220.7843, 324.5707
221.2664, 324.8449
221.7486, 324.6483
222.2307, 323.8909
222.7128, 323.1841
223.1949, 322.5239
223.6770, 321.9291
224.1591, 321.4178
224.6413, 320.9098
225.1234, 320.6482
225.6055, 320.8049
226.0876, 321.5396
226.5697, 321.8695
227.0518, 321.5927
227.5340, 321.0667
228.0161, 320.8430
228.4982, 321.0690
228.9803, 321.3289
229.4624, 321.5708
229.9445, 321.8755
230.4267, 321.6765
230.9088, 320.6318
231.3909, 319.3335
231.8730, 318.6564
232.3551, 318.9645
232.8372, 319.2392
233.3194, 319.1632
233.8015, 318.6425
234.2836, 318.2998
234.7657, 318.2278
235.2478, 318.2581
235.7299, 318.1591
236.2121, 317.8307
236.6942, 317.5516
237.1763, 317.4102
237.6584, 317.4338
238.1405, 317.4174
238.6226, 317.4116
239.1048, 317.3248
239.5869, 316.9806
240.0690, 316.0123
240.5511, 315.4569
241.0332, 315.7509
241.5153, 317.0646
241.9975, 317.6422
242.4796, 316.9831
242.9617, 316.0224
243.4438, 315.8858
243.9259, 317.2227
244.4080, 318.1986
244.8902, 318.3504
245.3723, 317.6237
245.8544, 316.8925
246.3365, 315.9547
246.8186, 315.2084
247.3007, 315.1578
247.7829, 316.4772
248.2650, 317.1617
248.7471, 316.4721
249.2292, 314.3499
249.7113, 313.5757
250.1934, 314.9184
250.6756, 316.7568
251.1577, 317.6079
251.6398, 317.0058
252.1219, 316.3619
252.6040, 315.8685
253.0861, 315.5267
253.5683, 315.2984
254.0504, 315.1982
254.5325, 315.1932
255.0146, 315.2826
255.4967, 315.5612
255.9788, 315.7112
256.4609, 315.6451
256.9431, 315.3955
257.4252, 315.2199
257.9073, 315.1080
258.3894, 315.0865
258.8715, 315.2624
259.3536, 315.9182
259.8358, 316.0089
260.3179, 315.2270
260.8000, 313.7620
261.2821, 312.6766
261.7642, 312.0474
262.2463, 311.6492
262.7285, 311.3033
263.2106, 310.9019
263.6927, 310.9594
264.1748, 311.8016
264.6569, 313.0762
265.1390, 313.4037
265.6212, 312.3115
266.1033, 311.2490
266.5854, 311.1126
267.0675, 312.2082
267.5496, 313.0487
268.0317, 313.5446
268.5139, 313.7400
268.9960, 313.6641
269.4781, 313.1855
269.9602, 312.7886
270.4423, 312.8707
270.9244, 312.4127
271.4066, 313.9047
271.8887, 314.7190
272.3708, 314.8921
272.8529, 312.5034
273.3350, 313.4228
273.8171, 313.0164
274.2993, 312.5557
274.7814, 313.9406
275.2635, 311.9246
275.7456, 313.2802
276.2277, 313.2899
276.7098, 313.9156
277.1920, 313.2074
277.6741, 312.9113
278.1562, 313.9494
278.6383, 314.2487
279.1204, 313.3870
279.6025, 314.0518
280.0847, 311.9892
280.5668, 312.3200
281.0489, 313.6834
281.5310, 312.8888
282.0131, 313.5781
282.4952, 313.7021
282.9774, 311.2579
283.4595, 313.2803
283.9416, 313.3710
284.4237, 311.4783
284.9058, 313.3476
285.3879, 311.7284
285.8701, 311.3543
286.3522, 311.9174
286.8343, 311.5035
287.3164, 312.6299
287.7985, 312.2725
288.2806, 311.7825
288.7628, 311.8710
289.2449, 310.3202
289.7270, 311.8107
290.2091, 311.2237
290.6912, 311.6694
291.1733, 312.3492
291.6555, 310.1626
292.1376, 309.7617
292.6197, 310.0427
293.1018, 310.7783
293.5839, 312.0959
294.0660, 313.5572
294.5482, 314.3798
295.0303, 314.5980
295.5124, 314.6302
295.9945, 314.6144
296.4766, 314.6162
296.9587, 314.8730
297.4409, 315.4824
297.9230, 316.1308
298.4051, 316.2762
298.8872, 316.0410
299.3693, 315.9586
299.8514, 316.5024
300.3336, 317.3488
300.8157, 317.8540
301.2978, 317.9254
301.7799, 317.9521
302.2620, 318.3021
302.7441, 318.9184
303.2263, 319.6542
303.7084, 320.5050
304.1905, 321.4055
304.6726, 322.3603
305.1547, 323.3620
305.6368, 324.1906
306.1190, 324.3390
306.6011, 324.2181
307.0832, 324.5460
307.5653, 325.9108
308.0474, 327.6045
308.5295, 329.1024
309.0117, 330.4078
309.4938, 331.3872
309.9759, 331.5918
310.4580, 331.5599
310.9401, 331.9922
311.4222, 333.6613
311.9044, 335.1056
312.3865, 335.4224
312.8686, 334.6947
313.3507, 333.2060
313.8328, 330.4889
314.3149, 327.3965
314.7971, 324.6999
315.2792, 322.6413
315.7613, 320.6703
316.2434, 318.4214
316.7255, 316.0489
317.2076, 313.8916
317.6898, 311.8473
318.1719, 310.2245
318.6540, 309.3544
319.1361, 309.5002
319.6182, 309.5595
320.1003, 309.1143
320.5825, 308.3741
321.0646, 307.6268
321.5467, 306.6541
322.0288, 305.9556
322.5109, 305.9172
322.9930, 306.6730
323.4752, 306.9846
323.9573, 306.1839
324.4394, 305.0249
324.9215, 304.1867
325.4036, 304.1172
325.8857, 304.0054
326.3679, 303.6411
326.8500, 303.0352
327.3321, 302.5475
327.8142, 302.3087
328.2963, 302.1236
328.7784, 301.8769
329.2606, 301.3315
329.7427, 301.0207
330.2248, 301.1669
330.7069, 301.6024
331.1890, 301.6532
331.6711, 300.9193
332.1533, 300.2332
332.6354, 299.9632
333.1175, 300.3695
333.5996, 300.6151
334.0817, 300.6514
334.5638, 300.5449
335.0460, 300.4273
335.5281, 300.3269
336.0102, 300.1511
336.4923, 299.8344
336.9744, 299.3387
337.4565, 298.9656
337.9387, 298.7338
338.4208, 298.5895
338.9029, 298.5105
339.3850, 298.5519
339.8671, 298.4229
340.3492, 297.9207
340.8313, 297.1507
341.3134, 297.0934
341.7956, 297.9746
342.2777, 298.8695
342.7598, 298.8125
343.2419, 297.7520
343.7240, 297.2773
344.2061, 297.8494
344.6883, 298.9487
345.1704, 299.0882
345.6525, 298.2047
346.1346, 297.4826
346.6167, 297.8636
347.0988, 299.1490
347.5810, 300.0876
348.0631, 300.5553
348.5452, 300.7617
349.0273, 300.8655
349.5094, 300.9092
349.9915, 301.1778
350.4737, 302.1258
350.9558, 303.3451
351.4379, 303.7971
351.9200, 303.4339
352.4021, 302.8841
352.8842, 302.6059
353.3664, 302.5902
353.8485, 302.8282
354.3306, 303.5304
354.8127, 304.3170
355.2948, 304.6383
355.7769, 304.5706
356.2591, 304.5934
356.7412, 305.2835
357.2233, 306.1516
357.7054, 306.6040
358.1875, 306.3438
358.6696, 305.9347
359.1518, 305.6883
359.6339, 305.5947
360.1160, 305.6353
360.5981, 305.9134
361.0802, 306.2421
361.5623, 306.4472
362.0445, 306.4420
362.5266, 306.6032
363.0087, 307.2510
363.4908, 308.1031
363.9729, 308.7990
364.4550, 309.2334
364.9372, 309.4926
365.4193, 309.4250
365.9014, 309.0215
366.3835, 309.0505
366.8656, 310.1261
367.3477, 311.4247
367.8299, 312.3677
368.3120, 312.5555
368.7941, 312.7795
369.2762, 313.1331
369.7583, 313.5901
370.2404, 314.0343
370.7226, 314.6096
371.2047, 315.0293
371.6868, 315.1051
372.1689, 314.4093
372.6510, 314.3975
373.1331, 315.4323
373.6153, 316.9512
374.0974, 318.0280
374.5795, 318.4962
375.0616, 318.8367
375.5437, 319.1128
376.0258, 319.3166
376.5080, 319.7920
376.9901, 320.5819
377.4722, 321.5643
377.9543, 322.6266
378.4364, 323.7425
378.9185, 325.0523
379.4007, 326.5657
379.8828, 328.2649
380.3649, 330.1365
380.8470, 332.1872
381.3291, 334.1896
381.8112, 335.7598
382.2934, 337.0320
382.7755, 338.9988
383.2576, 341.8762
383.7397, 345.0615
384.2218, 347.6172
384.7039, 349.6845
385.1861, 351.8966
385.6682, 354.3676
386.1503, 357.2378
386.6324, 360.8243
387.1145, 365.0872
387.5966, 370.0455
388.0788, 376.0755
388.5609, 382.7907
389.0430, 389.4629
389.5251, 395.5242
390.0072, 401.9971
390.4893, 410.0233
390.9715, 419.2593
391.4536, 428.9208
391.9357, 438.8771
392.4178, 448.7768
392.8999, 458.1431
393.3820, 466.7059
393.8642, 475.7071
394.3463, 485.9022
394.8284, 496.9561
395.3105, 508.1932
395.7926, 518.9592
396.2747, 530.4036
396.7569, 542.5223
397.2390, 555.2894
397.7211, 570.1024
398.2032, 587.7412
398.6853, 607.3230
399.1674, 627.9850
399.6496, 649.6513
400.1317, 672.5703
400.6138, 696.7038
401.0959, 722.0785
401.5780, 748.9130
402.0602, 777.9106
402.5423, 807.6593
403.0244, 837.6849
403.5065, 868.9280
403.9886, 897.8809
404.4707, 925.1310
404.9529, 949.5186
405.4350, 970.3068
405.9171, 989.0130
406.3992, 999.3444
406.8813, 1000.022
407.3634, 991.1290
407.8456, 972.5023
408.3277, 943.5767
408.8098, 907.1667
409.2919, 863.7689
409.7740, 813.6810
410.2561, 764.3483
410.7383, 715.7739
411.2204, 669.8787
411.7025, 627.7881
412.1846, 589.5333
412.6667, 555.2689
413.1488, 526.0350
413.6310, 500.9120
414.1131, 478.4675
414.5952, 458.8008
415.0773, 441.4400
415.5594, 426.0486
416.0415, 412.5630
416.5237, 400.5325
417.0058, 390.0333
417.4879, 380.8996
417.9700, 373.4727
418.4521, 367.4893
418.9342, 361.7454
419.4164, 355.3776
419.8985, 349.1226
420.3806, 343.6102
420.8627, 338.9116
421.3448, 334.8486
421.8269, 331.7183
422.3091, 329.0445
422.7912, 326.1418
423.2733, 322.1071
423.7554, 318.5621
424.2375, 316.2951
424.7196, 315.3689
425.2018, 313.7655
425.6839, 310.5693
426.1660, 307.2013
426.6481, 304.4393
427.1302, 302.5146
427.6123, 300.9450
428.0945, 299.9433
428.5766, 299.2169
429.0587, 298.0488
429.5408, 296.2693
430.0229, 294.4048
430.5050, 292.5284
430.9872, 290.6319
431.4693, 289.4101
431.9514, 289.0118
432.4335, 288.8880
432.9156, 288.5146
433.3977, 287.8860
433.8799, 287.0628
434.3620, 285.9385
434.8441, 284.7495
435.3262, 284.1219
435.8083, 284.0287
436.2904, 283.9594
436.7726, 283.6577
437.2547, 283.1410
437.7368, 282.4235
438.2189, 281.4932
438.7010, 280.4611
439.1831, 279.2983
439.6652, 278.1176
440.1473, 277.1334
440.6295, 276.4561
441.1116, 275.9904
441.5937, 275.7763
442.0758, 275.7566
442.5579, 275.6382
443.0400, 275.1523
443.5222, 274.5848
444.0043, 274.1584
444.4864, 273.9814
444.9685, 273.7695
445.4506, 273.4199
445.9327, 272.9811
446.4149, 272.5223
446.8970, 271.8055
447.3791, 271.3255
447.8612, 271.4137
448.3433, 272.0873
448.8254, 272.1667
449.3076, 271.0724
449.7897, 269.9276
450.2718, 269.4106
450.7539, 269.8120
451.2360, 270.2362
451.7181, 270.7902
452.2003, 271.2607
452.6824, 271.0998
453.1645, 270.1012
453.6466, 269.2888
454.1287, 269.1244
454.6108, 269.5110
455.0930, 269.6229
455.5751, 269.4510
456.0572, 269.0702
456.5393, 268.3992
457.0214, 267.5222
457.5035, 266.9513
457.9857, 266.8372
458.4678, 266.9183
458.9499, 266.7782
459.4320, 266.4961
459.9141, 266.3571
460.3962, 266.7852
460.8784, 267.3030
461.3605, 267.2755
461.8426, 266.6799
462.3247, 266.0707
462.8068, 265.8030
463.2889, 265.7108
463.7711, 265.6223
464.2532, 265.4579
464.7353, 265.3343
465.2174, 265.3018
465.6995, 265.3421
466.1816, 265.4134
466.6638, 265.7337
467.1459, 265.8696
467.6280, 265.5484
468.1101, 264.5868
468.5922, 264.0013
469.0743, 264.1346
469.5565, 264.4137
470.0386, 264.3535
470.5207, 263.7476
471.0028, 263.2270
471.4849, 262.8369
471.9670, 262.5808
472.4492, 262.4940
472.9313, 262.6296
473.4134, 262.7629
473.8955, 262.7836
474.3776, 262.6988
474.8597, 262.6546
475.3419, 262.6545
475.8240, 262.6712
476.3061, 262.7123
476.7882, 262.7554
477.2703, 262.6766
477.7524, 262.3787
478.2346, 262.0615
478.7167, 262.0800
479.1988, 262.3408
479.6809, 262.4954
480.1630, 262.4193
480.6451, 262.1003
481.1273, 261.3156
481.6094, 260.0233
482.0915, 259.1336
482.5736, 259.4903
483.0557, 260.3485
483.5378, 260.9848
484.0200, 261.1041
484.5021, 261.1057
484.9842, 261.1019
485.4663, 261.0586
485.9484, 260.8885
486.4305, 260.6122
486.9127, 260.1657
487.3948, 259.4043
487.8769, 258.2178
488.3590, 257.5703
488.8411, 257.8339
489.3232, 258.2369
489.8054, 258.0927
490.2875, 257.2268
490.7696, 256.4635
491.2517, 255.8956
491.7338, 255.4907
492.2159, 255.1470
492.6981, 254.8519
493.1802, 254.8195
493.6623, 255.4022
494.1444, 256.3461
494.6265, 256.5021
495.1086, 255.8564
495.5908, 255.0834
496.0729, 254.7753
496.5550, 254.7507
497.0371, 254.6391
497.5192, 254.3280
498.0013, 253.9805
498.4835, 253.7023
498.9656, 253.4908
499.4477, 253.3521
499.9298, 253.3026
500.4119, 253.3104
500.8940, 253.4785
501.3762, 253.7897
501.8583, 253.7767
502.3404, 252.7881
502.8225, 251.7931
503.3046, 251.4339
503.7867, 252.4624
504.2689, 252.9958
504.7510, 252.7316
505.2331, 252.0656
505.7152, 251.5615
506.1973, 251.2494
506.6794, 251.0566
507.1616, 250.9694
507.6437, 250.9863
508.1258, 251.1880
508.6079, 251.6693
509.0900, 251.9582
509.5721, 251.5958
510.0543, 250.6617
510.5364, 249.9819
511.0185, 249.6039
511.5006, 249.4997
511.9827, 249.8175
512.4648, 250.4094
512.9470, 250.7928
513.4291, 250.6524
513.9112, 250.4047
514.3933, 250.5468
514.8754, 250.9876
515.3575, 251.3938
515.8397, 251.5925
516.3218, 251.6806
516.8039, 251.7058
517.2860, 251.6616
517.7681, 251.6283
518.2502, 251.8048
518.7324, 251.9131
519.2145, 251.7044
519.6966, 250.6225
520.1787, 249.8574
520.6608, 249.6952
521.1429, 249.8922
521.6251, 249.8286
522.1072, 249.3187
522.5893, 248.8918
523.0714, 248.7314
523.5535, 248.8367
524.0356, 248.9987
524.5178, 249.2460
524.9999, 249.4689
525.4820, 249.6600
525.9641, 249.7914
526.4462, 249.4650
526.9283, 248.4821
527.4105, 247.5029
527.8926, 247.6795
528.3747, 248.6548
528.8568, 249.2398
529.3389, 248.5610
529.8210, 247.5215
530.3032, 247.0425
530.7853, 247.0390
531.2674, 247.1139
531.7495, 247.1728
532.2316, 247.1399
532.7137, 246.8580
533.1959, 246.1451
533.6780, 245.8232
534.1601, 246.5438
534.6422, 247.5470
535.1243, 248.0542
535.6064, 247.4533
536.0886, 247.0748
536.5707, 247.1251
537.0528, 247.4678
537.5349, 247.6951
538.0170, 247.8171
538.4991, 247.8152
538.9813, 247.6735
539.4634, 247.3970
539.9455, 247.0158
540.4276, 246.5038
540.9097, 246.0496
541.3918, 245.9187
541.8740, 246.0141
542.3561, 245.8696
542.8382, 245.3075
543.3203, 244.8527
543.8024, 245.2828
544.2845, 246.2884
544.7667, 247.1666
545.2488, 247.6650
545.7309, 247.8671
546.2130, 247.6187
546.6951, 247.0440
547.1772, 246.7304
547.6594, 247.4110
548.1415, 248.0257
548.6236, 247.9156
549.1057, 246.7634
549.5878, 245.8260
550.0699, 245.1507
550.5521, 244.7556
551.0342, 244.7104
551.5163, 245.3214
551.9984, 245.5892
552.4805, 245.2652
552.9626, 244.6583
553.4448, 244.5038
553.9269, 244.8503
554.4090, 245.2832
554.8911, 245.7387
555.3732, 246.1395
555.8553, 246.1540
556.3375, 245.7856
556.8196, 245.3037
557.3017, 244.8089
557.7838, 244.3718
558.2659, 244.0874
558.7480, 243.9529
559.2302, 244.0580
559.7123, 244.9242
560.1944, 245.9247
560.6765, 246.2519
561.1586, 244.7609
561.6407, 243.5233
562.1229, 243.5215
562.6050, 244.3117
563.0871, 244.5931
563.5692, 243.7014
564.0513, 242.7755
564.5334, 242.0167
565.0156, 241.4180
565.4977, 241.4552
565.9798, 242.5235
566.4619, 243.5035
566.9440, 243.4205
567.4261, 242.1705
567.9083, 241.4966
568.3904, 241.6173
568.8725, 242.0300
569.3546, 242.0749
569.8367, 241.8236
570.3188, 241.6033
570.8010, 241.5418
571.2831, 241.5279
571.7652, 241.3872
572.2473, 241.1664
572.7294, 241.0329
573.2115, 239.7682
573.6937, 241.3136
574.1758, 242.1815
574.6579, 242.4081
575.1400, 240.0730
575.6221, 241.0459
576.1042, 240.6930
576.5864, 240.2859
577.0685, 241.7243
577.5506, 239.7618
578.0327, 241.1709
578.5148, 241.2342
578.9969, 241.9134
579.4791, 241.2588
579.9612, 241.0162
580.4433, 242.1078
580.9254, 242.4607
581.4075, 241.6525
581.8896, 242.3709
582.3718, 240.3618
582.8539, 240.7461
583.3360, 242.1631
583.8181, 241.4220
584.3002, 242.1648
584.7823, 242.3424
585.2645, 239.9517
585.7466, 242.0276
586.2286, 242.1718
586.7108, 240.3327
587.1929, 242.2555
587.6750, 240.6898
588.1571, 240.3693
588.6392, 240.9859
589.1213, 240.6256
589.6035, 241.8055
590.0856, 241.5016
590.5677, 241.0651
591.0498, 241.2072
591.5319, 239.7099
592.0140, 241.2539
592.4962, 240.7205
592.9783, 241.2197
593.4604, 241.9530
593.9425, 240.8941
594.4246, 241.7325
594.9067, 239.6285
595.3889, 239.9866
595.8710, 240.9217
596.3531, 241.0101
596.8352, 241.1474
597.3173, 241.2109
597.7994, 241.2454
598.2816, 241.3308
598.7637, 241.6074
599.2458, 241.7640
599.7279, 241.4850
600.2100, 241.0097
600.6921, 240.7867
601.1743, 241.3195
601.6564, 241.6807
602.1385, 241.5525
602.6206, 241.0130
603.1027, 240.6530
603.5848, 240.4823
604.0670, 240.4807
604.5491, 240.7145
605.0312, 241.1880
605.5133, 241.3589
605.9954, 241.1608
606.4775, 240.9819
606.9597, 241.4034
607.4418, 242.1711
607.9239, 242.3347
608.4060, 241.5852
608.8881, 240.7778
609.3702, 240.8864
609.8524, 241.5163
610.3345, 241.9905
610.8166, 241.9532
611.2987, 241.8085
611.7808, 241.5889
612.2629, 241.3910
612.7451, 241.5029
613.2272, 242.8023
613.7093, 243.5611
614.1914, 242.9366
614.6735, 240.9129
615.1556, 240.0802
615.6378, 240.9281
616.1199, 241.9853
616.6020, 242.2599
617.0841, 241.7300
617.5662, 241.5332
618.0483, 241.7358
618.5305, 242.0819
619.0126, 242.4839
619.4947, 242.8117
619.9768, 242.5842
620.4589, 241.4006
620.9410, 240.3925
621.4232, 240.9952
621.9053, 242.4440
622.3874, 243.3318
622.8695, 242.6600
623.3516, 241.7946
623.8337, 241.1842
624.3159, 240.8123
624.7980, 240.5504
625.2801, 240.2745
625.7622, 240.2354
626.2443, 240.6409
626.7264, 241.5182
627.2086, 241.8160
627.6907, 241.3360
628.1728, 240.8252
628.6549, 240.8020
629.1370, 241.2387
629.6191, 242.0026
630.1013, 243.1657
630.5834, 244.1455
631.0655, 244.1861
631.5476, 243.6240
632.0297, 243.0784
632.5118, 242.6712
632.9940, 242.4046
633.4761, 242.3505
633.9582, 242.4287
634.4403, 242.5016
634.9224, 242.5896
635.4045, 242.6047
635.8867, 242.4263
636.3688, 242.1310
636.8509, 242.0530
637.3330, 242.2028
637.8151, 242.5613
638.2972, 243.2538
638.7794, 244.2310
639.2615, 244.5986
639.7436, 244.2715
640.2257, 243.8827
640.7078, 243.9212
641.1899, 244.2703
641.6721, 244.5172
642.1542, 244.6183
642.6363, 244.8297
643.1184, 245.4745
643.6005, 246.3284
644.0826, 247.1245
644.5648, 247.8988
645.0469, 248.4153
645.5290, 248.1787
646.0111, 247.7542
646.4932, 247.9567
646.9753, 249.4551
647.4575, 250.8983
647.9396, 252.1341
648.4217, 253.2171
648.9038, 254.2337
649.3859, 255.1488
649.8680, 256.1599
650.3502, 257.3328
650.8323, 258.6558
651.3144, 260.0738
651.7965, 261.5994
652.2786, 263.2769
652.7607, 265.2738
653.2429, 267.3860
653.7250, 269.2183
654.2071, 270.7383
654.6892, 272.4264
655.1713, 274.6895
655.6534, 277.1732
656.1356, 279.5724
656.6177, 281.6689
657.0998, 284.1045
657.5819, 287.3686
658.0640, 290.7618
658.5461, 293.5010
659.0283, 295.1302
659.5104, 297.5282
659.9925, 301.1678
660.4746, 305.2355
660.9567, 308.2248
661.4388, 310.1787
661.9210, 312.0271
662.4031, 314.1820
662.8852, 316.1999
663.3673, 317.3474
663.8494, 317.7637
664.3315, 317.9158
664.8137, 318.2773
665.2958, 318.2588
665.7779, 317.4424
666.2600, 315.8657
666.7421, 313.9151
667.2242, 311.9037
667.7064, 309.3267
668.1885, 305.7415
668.6706, 300.9058
669.1527, 297.2099
669.6348, 295.1540
670.1169, 293.2364
670.5991, 290.0200
671.0812, 285.5961
671.5633, 282.1627
672.0454, 279.9601
672.5275, 278.0750
673.0096, 275.3581
673.4918, 272.2816
673.9739, 269.7789
674.4560, 268.2175
674.9381, 266.8705
675.4202, 265.2856
675.9023, 263.5742
676.3845, 261.9198
676.8666, 260.1544
677.3487, 258.6749
677.8308, 257.8110
678.3129, 257.2549
678.7950, 256.3438
679.2772, 254.9988
679.7593, 253.4942
680.2414, 251.7593
680.7235, 249.9844
681.2056, 248.9406
681.6877, 248.6292
682.1699, 248.3224
682.6520, 247.4837
683.1341, 246.4441
683.6162, 245.6984
684.0983, 245.2464
684.5804, 245.0642
685.0626, 245.7263
685.5447, 246.2189
686.0268, 245.6197
686.5089, 243.5727
686.9910, 242.0243
687.4731, 241.6556
687.9553, 241.5905
688.4374, 241.3041
688.9195, 240.6358
689.4016, 240.2676
689.8837, 240.2762
690.3658, 240.4139
690.8480, 240.4348
691.3301, 240.3418
691.8122, 240.1169
692.2943, 239.7240
692.7764, 239.3084
693.2585, 238.9307
693.7407, 238.6577
694.2228, 238.6283
694.7049, 239.0993
695.1870, 239.5527
695.6691, 239.8082
696.1512, 239.8736
696.6334, 239.7638
697.1155, 239.1811
697.5976, 238.7971
698.0797, 238.7341
698.5618, 238.9523
699.0439, 239.3979
699.5261, 240.1566
700.0082, 240.6609
700.4903, 240.5064
700.9724, 239.9865
701.4545, 239.9764
701.9366, 240.4267
702.4188, 240.9305
702.9009, 241.3514
703.3830, 241.6201
703.8651, 241.5462
704.3472, 241.1431
704.8293, 240.9530
705.3115, 241.3951
705.7936, 241.9448
706.2757, 242.3657
706.7578, 242.7449
707.2399, 242.4932
707.7220, 241.1449
708.2042, 239.8892
708.6863, 239.7974
709.1684, 240.8828
709.6505, 242.0132
710.1326, 243.1893
710.6147, 244.0429
711.0969, 243.9369
711.5790, 243.2432
712.0611, 242.7011
712.5432, 242.4433
713.0253, 242.4395
713.5074, 242.8398
713.9896, 243.4207
714.4717, 243.9039
714.9538, 244.2749
715.4359, 244.4735
715.9180, 244.5853
716.4001, 244.4877
716.8823, 243.8079
717.3644, 242.2437
717.8465, 241.3675
718.3286, 241.7382
718.8107, 242.7438
719.2928, 243.0485
719.7750, 242.7439
720.2571, 242.3643
720.7392, 241.9948
721.2213, 241.7927
721.7034, 242.0855
722.1855, 242.7025
722.6677, 243.1158
723.1498, 242.9901
723.6319, 242.7247
724.1140, 242.3293
724.5961, 241.8594
725.0782, 241.8702
725.5604, 242.7118
726.0425, 243.3911
726.5246, 243.4134
727.0067, 242.8620
727.4888, 242.6147
727.9709, 242.6839
728.4531, 242.7612
728.9352, 242.5169
729.4173, 242.1776
729.8994, 242.2501
730.3815, 242.7405
730.8636, 243.0024
731.3458, 242.3780
731.8279, 241.5663
732.3100, 241.0690
732.7921, 240.9960
733.2742, 241.0288
733.7563, 241.1857
734.2385, 241.3891
734.7206, 241.5700
735.2027, 241.7044
735.6848, 242.0052
736.1669, 242.5128
736.6490, 243.0592
737.1312, 243.5437
737.6133, 243.9210
738.0954, 244.0144
738.5775, 243.7384
739.0596, 243.4362
739.5417, 243.2854
740.0239, 243.2971
740.5060, 243.4892
740.9881, 243.9367
741.4702, 244.4484
741.9523, 244.9755
742.4344, 245.5589
742.9166, 246.2501
743.3987, 247.0636
743.8808, 247.9608
744.3629, 249.0304
744.8450, 250.0111
745.3271, 250.3242
745.8093, 250.0990
746.2914, 249.9909
746.7735, 250.1203
747.2556, 250.5912
747.7377, 251.6008
748.2198, 253.0156
748.7020, 254.5957
749.1841, 256.9050
749.6662, 258.6469
750.1483, 258.8819
750.6304, 258.3156
751.1125, 258.7975
751.5947, 260.7432
752.0768, 262.7411
752.5589, 264.4358
753.0410, 265.9386
753.5231, 267.4799
754.0052, 269.0686
754.4874, 270.7443
754.9695, 272.3472
755.4516, 274.1520
755.9337, 276.6581
756.4158, 279.6767
756.8979, 282.4728
757.3801, 284.4847
757.8622, 286.4859
758.3443, 288.7533
758.8264, 291.3121
759.3085, 294.1457
759.7906, 297.2823
760.2728, 300.7091
760.7549, 304.6621
761.2370, 308.9334
761.7191, 312.3394
762.2012, 314.8846
762.6833, 317.1412
763.1655, 319.3817
763.6476, 321.5971
764.1297, 323.8646
764.6118, 326.1308
765.0939, 327.9819
765.5760, 329.5059
766.0582, 330.3324
766.5403, 330.1434
767.0224, 328.8575
767.5045, 327.4657
767.9866, 326.1754
768.4688, 324.4452
768.9509, 321.9984
769.4330, 318.8324
769.9151, 314.8809
770.3972, 310.0976
770.8793, 305.5980
771.3615, 302.6971
771.8436, 300.3483
772.3257, 296.8303
772.8078, 292.0234
773.2899, 287.4584
773.7720, 283.8730
774.2542, 280.8607
774.7363, 278.2557
775.2184, 276.1228
775.7005, 273.9964
776.1826, 271.8568
776.6647, 269.7625
777.1469, 267.6253
777.6290, 265.4809
778.1111, 264.1064
778.5932, 263.5612
779.0753, 263.0677
779.5574, 261.8429
780.0396, 260.2862
780.5217, 258.8803
781.0038, 257.6821
781.4859, 256.7914
781.9680, 256.2552
782.4501, 256.0280
782.9323, 256.1986
783.4144, 257.0635
783.8964, 257.1898
784.3785, 256.2428
784.8607, 255.1515
785.3428, 254.8425
785.8249, 253.9729
786.3070, 255.2738
786.7891, 255.8971
787.2712, 255.8792
787.7534, 253.2994
788.2355, 254.0277
788.7176, 253.4303
789.1997, 252.7785
789.6818, 253.9724
790.1639, 251.7653
790.6461, 252.9298
791.1282, 252.7485
791.6103, 253.1831
792.0924, 252.2839
792.5745, 251.7967
793.0566, 252.6438
793.5388, 252.7520
794.0209, 251.6992
794.5030, 252.1730
794.9851, 249.9194
795.4672, 250.0591
795.9493, 251.2315
796.4315, 250.2457
796.9136, 250.7439
797.3957, 250.6770
797.8778, 248.0417
798.3599, 249.8730
798.8420, 249.7726
799.3242, 247.6888
799.8063, 249.3671
800.2884, 247.5568
800.7705, 246.9917
801.2526, 247.2765
801.7347, 247.8033
802.2169, 248.8191
802.6990, 249.3506
803.1811, 249.2211
803.6632, 248.8615
804.1453, 248.3668
804.6274, 247.9389
805.1096, 247.7892
805.5917, 248.0750
806.0738, 248.3320
806.5559, 248.5085
807.0380, 248.6494
807.5201, 248.8539
808.0023, 249.1652
808.4844, 248.9729
808.9665, 248.1440
809.4486, 247.3952
809.9307, 247.7304
810.4128, 248.5994
810.8950, 248.9360
811.3771, 248.5186
811.8592, 248.0200
812.3413, 247.6646
812.8234, 247.4818
813.3055, 247.5631
813.7877, 248.1912
814.2698, 248.2628
814.7519, 247.4610
815.2340, 246.6146
815.7161, 246.5335
816.1982, 247.1407
816.6804, 247.4908
817.1625, 247.5217
817.6446, 247.3968
818.1267, 247.0769
818.6088, 246.7785
819.0909, 246.8180
819.5731, 247.2877
820.0552, 247.7217
820.5373, 247.9336
821.0194, 248.0691
821.5015, 248.2592
821.9836, 248.5761
822.4658, 248.4785
822.9479, 247.8037
823.4300, 247.2359
823.9121, 247.5771
824.3942, 248.4723
824.8763, 248.7165
825.3585, 248.2492
825.8406, 247.7289
826.3227, 247.6131
826.8048, 247.6633
827.2869, 247.7332
827.7690, 247.8313
828.2512, 247.7732
828.7333, 247.4892
829.2154, 247.1318
829.6975, 246.6682
830.1796, 246.1054
830.6617, 246.2480
831.1439, 247.1433
831.6260, 248.0313
832.1081, 248.5031
832.5902, 248.5546
833.0723, 247.8846
833.5544, 246.5833
834.0366, 245.7888
834.5187, 246.5101
835.0008, 247.4478
835.4829, 247.9272
835.9650, 247.9544
836.4471, 247.8543
836.9293, 247.5405
837.4114, 247.3379
837.8935, 247.4457
838.3756, 247.7847
838.8577, 248.0846
839.3398, 248.3518
839.8220, 248.6314
840.3041, 249.0415
840.7862, 249.4055
841.2683, 249.4789
841.7504, 249.3354
842.2325, 249.4576
842.7147, 250.4005
843.1968, 251.0175
843.6789, 250.9270
844.1610, 250.2888
844.6431, 249.7608
845.1252, 249.3419
845.6074, 249.0913
846.0895, 249.1004
846.5716, 249.2320
847.0537, 249.2874
847.5358, 249.3038
848.0179, 249.3833
848.5001, 249.7427
848.9822, 249.9846
849.4643, 249.8913
849.9464, 249.5878
850.4285, 249.2862
850.9106, 248.8199
851.3928, 248.9946
851.8749, 250.2436
852.3570, 251.8366
852.8391, 252.2451
853.3212, 251.7473
853.8033, 251.2653
854.2855, 251.0852
854.7676, 251.0665
855.2497, 251.2077
855.7318, 251.4193
856.2139, 251.5684
856.6960, 251.7298
857.1782, 251.6394
857.6603, 251.0977
858.1424, 250.5258
858.6245, 250.6357
859.1066, 251.3735
859.5887, 251.8858
860.0709, 252.0050
860.5530, 252.0410
861.0351, 252.4326
861.5172, 252.8899
861.9993, 252.9977
862.4814, 252.5197
862.9636, 252.0873
863.4457, 251.7124
863.9278, 251.5528
864.4099, 251.8087
864.8920, 252.5946
865.3741, 253.1388
865.8563, 253.4343
866.3384, 253.4602
866.8205, 252.9780
867.3026, 252.2841
867.7847, 252.0294
868.2668, 252.2844
868.7490, 252.3549
869.2311, 251.3597
869.7132, 250.4798
870.1953, 250.6816
870.6774, 252.0643
871.1595, 252.9108
871.6417, 253.0992
872.1238, 253.0740
872.6059, 252.9865
873.0880, 252.9011
873.5701, 253.2304
874.0522, 253.8807
874.5344, 254.1613
875.0165, 253.0150
875.4986, 251.9194
875.9807, 252.1947
876.4628, 253.5963
876.9449, 254.1753
877.4271, 253.0876
877.9092, 252.4723
878.3913, 253.1247
878.8734, 254.5509
879.3555, 255.1582
879.8376, 255.0313
880.3198, 255.0010
880.8019, 255.5869
881.2840, 256.1660
881.7661, 256.0389
882.2482, 255.4842
882.7303, 255.0346
883.2125, 254.5862
883.6946, 254.6469
884.1767, 255.6368
884.6588, 256.8492
885.1409, 257.1086
885.6230, 256.3819
886.1052, 255.6831
886.5873, 255.1405
887.0694, 254.8638
887.5515, 255.2395
888.0336, 255.8694
888.5157, 256.1179
888.9979, 255.6428
889.4800, 255.3807
889.9621, 255.6986
890.4442, 256.2696
890.9263, 256.9496
891.4084, 257.8478
891.8906, 258.1347
892.3727, 257.7253
892.8548, 257.2051
893.3369, 257.0686
893.8190, 257.1779
894.3011, 257.3356
894.7833, 257.5226
895.2654, 257.6679
895.7475, 257.6447
896.2296, 257.6566
896.7117, 257.8297
897.1938, 258.1497
897.6760, 258.5195
898.1581, 258.9965
898.6402, 259.2636
899.1223, 259.0328
899.6044, 258.5871
900.0865, 258.6380
900.5687, 259.0572
901.0508, 259.3703
901.5329, 259.0881
902.0150, 258.9151
902.4971, 259.5025
902.9792, 260.4107
903.4614, 260.4606
903.9435, 259.1167
904.4256, 258.3726
904.9077, 258.7040
905.3898, 259.5066
905.8719, 259.8366
906.3541, 259.7843
906.8362, 259.5786
907.3183, 259.1698
907.8004, 258.9578
908.2825, 259.3311
908.7646, 259.9616
909.2468, 260.5092
909.7289, 260.9412
910.2110, 261.3004
910.6931, 261.5828
911.1752, 261.8111
911.6573, 262.0060
912.1395, 262.1652
912.6216, 262.2184
913.1037, 262.1694
913.5858, 262.2494
914.0679, 262.8763
914.5500, 263.4850
915.0322, 263.6233
915.5143, 263.2526
915.9964, 262.8856
916.4785, 262.3541
916.9606, 262.2206
917.4427, 262.8634
917.9249, 263.9823
918.4070, 264.6382
918.8891, 264.8771
919.3712, 264.9472
919.8533, 264.7663
920.3354, 264.6700
920.8176, 265.0623
921.2997, 265.6869
921.7818, 265.9603
922.2639, 265.4019
922.7460, 265.2922
923.2281, 265.9169
923.7103, 266.8165
924.1924, 267.3583
924.6745, 267.5671
925.1566, 267.4766
925.6387, 267.0189
926.1208, 266.6906
926.6030, 267.0763
927.0851, 267.6653
927.5672, 267.9594
928.0493, 267.7756
928.5314, 267.6154
929.0135, 267.4132
929.4957, 267.3669
929.9778, 267.7227
930.4599, 268.3808
930.9420, 268.6118
931.4241, 268.4689
931.9063, 268.5663
932.3884, 269.9963
932.8705, 271.2064
933.3526, 270.8053
933.8347, 269.0869
934.3168, 267.9090
934.7990, 267.4176
935.2811, 267.4751
935.7632, 268.2551
936.2453, 269.3376
936.7274, 269.7073
937.2095, 269.5031
937.6917, 269.2726
938.1738, 269.1555
938.6559, 269.1344
939.1380, 269.2487
939.6201, 269.4295
940.1022, 269.5937
940.5844, 269.7967
941.0665, 269.8300
941.5486, 269.6273
942.0307, 269.3930
942.5128, 269.1506
942.9949, 269.0291
943.4771, 269.7541
943.9592, 271.3220
944.4413, 272.6067
944.9234, 272.6425
945.4055, 272.3088
945.8876, 272.1633
946.3698, 272.2335
946.8519, 272.1678
947.3340, 271.8244
947.8161, 271.7492
948.2982, 272.2174
948.7803, 273.0075
949.2625, 273.8263
949.7446, 274.5435
950.2267, 274.7069
950.7088, 273.4217
951.1909, 272.4638
951.6730, 273.0924
952.1552, 274.4029
952.6373, 274.9768
953.1194, 274.4297
953.6015, 274.3432
954.0836, 274.9328
954.5657, 275.6427
955.0479, 275.8497
955.5300, 275.7204
956.0121, 275.5020
956.4942, 275.2113
956.9763, 275.2144
957.4584, 275.8798
957.9406, 276.7306
958.4227, 277.5636
958.9048, 278.3519
959.3869, 278.9388
959.8690, 279.3396
960.3511, 279.4228
960.8333, 278.9642
961.3154, 278.3100
961.7975, 277.9594
962.2796, 277.8648
962.7617, 277.9058
963.2438, 277.9598
963.7260, 278.2470
964.2081, 278.9794
964.6902, 279.8574
965.1723, 280.5485
965.6544, 281.0581
966.1365, 281.2593
966.6187, 281.1006
967.1008, 280.8799
967.5829, 280.7517
968.0650, 280.8102
968.5471, 281.3106
969.0292, 282.3731
969.5114, 282.9788
969.9935, 282.4553
970.4756, 282.0431
970.9577, 282.3792
971.4398, 283.2738
971.9219, 283.4772
972.4041, 283.0587
972.8862, 282.9039
973.3683, 283.7640
973.8504, 284.7689
974.3325, 285.2360
974.8146, 285.3229
975.2968, 285.3625
975.7789, 285.4073
976.2610, 285.3669
976.7431, 285.1066
977.2252, 284.9869
977.7073, 285.7717
978.1895, 287.1231
978.6716, 287.7061
979.1537, 287.3246
979.6358, 286.7176
980.1179, 285.9740
980.6000, 285.5235
981.0822, 285.8198
981.5642, 286.8872
982.0463, 287.7766
982.5284, 288.4865
983.0106, 289.0095
983.4927, 289.2457
983.9748, 289.3726
984.4569, 289.8100
984.9390, 290.4461
985.4211, 290.9823
985.9033, 291.2259
986.3854, 291.4241
986.8675, 291.5923
987.3496, 291.7870
987.8317, 292.1256
988.3138, 292.6513
988.7960, 292.9516
989.2781, 292.9938
989.7602, 292.7822
990.2423, 291.9666
990.7244, 291.1006
991.2065, 290.9268
991.6887, 291.5155
992.1708, 292.2349
992.6529, 293.2250
993.1350, 293.9359
993.6171, 294.1221
994.0992, 293.9099
994.5814, 293.6954
995.0635, 293.4974
995.5456, 293.4688
996.0277, 293.7621
996.5098, 294.0976
996.9919, 294.2953
997.4741, 294.3905
997.9562, 294.3976
998.4383, 293.9453
998.9204, 294.3300
999.4025, 295.9180
999.8846, 297.4575
1000.367, 297.5287
1000.849, 296.6904
1001.331, 296.4229
1001.813, 296.7578
1002.295, 297.0342
1002.777, 296.8680
1003.259, 296.5946
1003.742, 296.2533
1004.224, 295.9455
1004.706, 296.0548
1005.188, 296.6063
1005.670, 297.4078
1006.152, 298.5621
1006.634, 299.5744
1007.116, 299.4929
1007.599, 298.9804
1008.081, 299.1277
1008.563, 300.6633
1009.045, 301.5649
1009.527, 301.3195
1010.009, 300.7962
1010.491, 300.5055
1010.973, 300.4473
1011.455, 300.6981
1011.938, 301.2338
1012.420, 301.8288
1012.902, 302.5536
1013.384, 303.0781
1013.866, 303.0005
1014.348, 302.5428
1014.830, 302.4201
1015.312, 302.7974
1015.794, 303.0347
1016.277, 302.9812
1016.759, 302.9044
1017.241, 303.2035
1017.723, 303.7403
1018.205, 304.2430
1018.687, 304.6569
1019.169, 305.1031
1019.651, 305.9279
1020.134, 306.4800
1020.616, 306.2831
1021.098, 305.4742
1021.580, 305.3683
1022.062, 305.9644
1022.544, 306.6393
1023.026, 307.1305
1023.508, 307.5349
1023.990, 308.0825
1024.473, 308.5660
1024.955, 308.5959
1025.437, 307.2056
1025.919, 307.0122
1026.401, 308.4868
1026.883, 310.3167
1027.365, 311.2697
1027.847, 311.4940
1028.330, 311.2418
1028.812, 310.5829
1029.294, 310.1670
1029.776, 310.7357
1030.258, 311.2618
1030.740, 311.1251
1031.222, 310.5591
1031.704, 310.2297
1032.187, 310.1232
1032.669, 310.4821
1033.151, 311.4706
1033.633, 312.6607
1034.115, 313.7144
1034.597, 314.5806
1035.079, 315.1441
1035.561, 315.2410
1036.043, 315.4847
1036.526, 316.0463
1037.008, 316.5327
1037.490, 316.6864
1037.972, 316.5751
1038.454, 316.3381
1038.936, 316.0482
1039.418, 316.0531
1039.900, 316.8984
1040.382, 317.6864
1040.865, 317.9483
1041.347, 317.8893
1041.829, 317.7965
1042.311, 317.6432
1042.793, 317.6515
1043.275, 317.8682
1043.757, 318.0777
1044.239, 318.0594
1044.722, 317.9171
1045.204, 317.6377
1045.686, 317.2464
1046.168, 317.3587
1046.650, 318.4182
1047.132, 319.4259
1047.614, 320.1386
1048.096, 320.5890
1048.578, 320.8024
1049.061, 320.8216
1049.543, 320.7347
1050.025, 320.4358
1050.507, 320.4229
1050.989, 321.2914
1051.471, 322.3289
1051.953, 322.9102
1052.435, 322.9988
1052.917, 323.0145
1053.400, 322.9420
1053.882, 322.9857
1054.364, 323.2643
1054.846, 323.7308
1055.328, 324.5806
1055.810, 325.5591
1056.292, 326.0185
1056.774, 325.2388
1057.257, 324.8633
1057.739, 325.0642
1058.221, 325.6222
1058.703, 326.5269
1059.185, 327.5522
1059.667, 327.9677
1060.149, 327.7198
1060.631, 327.2022
1061.114, 325.8112
1061.596, 325.0880
1062.078, 326.2166
1062.560, 328.5150
1063.042, 329.5275
1063.524, 329.2438
1064.006, 328.9376
1064.488, 328.9344
1064.970, 329.1231
1065.453, 329.5586
1065.935, 330.0338
1066.417, 330.2885
1066.899, 330.1898
1067.381, 330.1534
1067.863, 330.0854
1068.345, 330.3648
1068.827, 331.5467
1069.309, 333.0309
1069.792, 333.1848
1070.274, 332.4513
1070.756, 332.1019
1071.238, 333.1322
1071.720, 333.9736
1072.202, 334.2604
1072.684, 334.2659
1073.166, 334.2457
1073.649, 334.1997
1074.131, 333.9744
1074.613, 333.5779
1075.095, 333.6094
1075.577, 335.0935
1076.059, 336.5883
1076.541, 337.0413
1077.023, 336.6484
1077.505, 336.3828
1077.988, 336.1989
1078.470, 336.4408
1078.952, 337.2652
1079.434, 338.2211
1079.916, 338.7596
1080.398, 339.0939
1080.880, 339.5221
1081.362, 340.1062
1081.844, 340.6693
1082.327, 341.3958
1082.809, 341.6789
1083.291, 340.9627
1083.773, 339.8628
1084.255, 340.3911
1084.737, 342.0429
1085.219, 343.1344
1085.701, 342.7757
1086.183, 342.3664
1086.666, 342.4749
1087.148, 342.7545
1087.630, 342.9451
1088.112, 343.0430
1088.594, 343.0826
1089.076, 343.0724
1089.558, 343.2880
1090.040, 344.3148
1090.523, 345.2543
1091.005, 345.3204
1091.487, 344.7936
1091.969, 344.3164
1092.451, 343.7155
1092.933, 343.8987
1093.415, 345.0433
1093.897, 346.5571
1094.380, 348.3576
1094.862, 349.8424
1095.344, 349.8080
1095.826, 348.2998
1096.308, 347.3711
1096.790, 347.6476
1097.272, 348.3192
1097.754, 349.4308
1098.236, 350.4949
1098.719, 350.2072
1099.201, 349.0798
1099.683, 348.6839
1100.165, 349.4672
1100.647, 350.4345
1101.129, 351.4130
1101.611, 352.1517
1102.093, 352.4786
1102.575, 352.4557
1103.058, 352.4948
1103.540, 352.6006
1104.022, 352.8221
1104.504, 353.2674
1104.986, 353.6787
1105.468, 353.6041
1105.950, 353.5322
1106.432, 354.1842
1106.915, 355.9169
1107.397, 356.7221
1107.879, 356.4801
1108.361, 356.1570
1108.843, 356.6808
1109.325, 357.2996
1109.807, 356.7695
1110.289, 355.5915
1110.771, 355.1483
1111.254, 356.2522
1111.736, 357.0780
1112.218, 357.3798
1112.700, 357.6674
1113.182, 358.7520
1113.664, 360.1504
1114.146, 360.7384
1114.628, 360.5029
1115.110, 360.1586
1115.593, 359.8313
1116.075, 359.6098
1116.557, 359.4266
1117.039, 359.4397
1117.521, 360.1964
1118.003, 361.4709
1118.485, 362.0917
1118.967, 361.8100
1119.450, 361.5639
1119.932, 361.8668
1120.414, 362.4568
1120.896, 363.3059
1121.378, 364.3082
1121.860, 364.7876
1122.342, 364.7596
1122.824, 364.8399
1123.307, 365.2808
1123.789, 365.7420
1124.271, 365.8587
1124.753, 365.8829
1125.235, 366.0831
1125.717, 366.4796
1126.199, 367.0497
1126.681, 367.8587
1127.163, 368.3575
1127.646, 367.8806
1128.128, 367.3560
1128.610, 368.1732
1129.092, 369.7627
1129.574, 371.1061
1130.056, 372.2407
1130.538, 372.4398
1131.020, 371.3047
1131.502, 370.3479
1131.985, 371.2026
1132.467, 372.9136
1132.949, 373.3252
1133.431, 372.7854
1133.913, 372.6139
1134.395, 373.5841
1134.877, 374.5715
1135.359, 375.4957
1135.842, 376.2520
1136.324, 376.6371
1136.806, 376.7534
1137.288, 376.9921
1137.770, 377.3644
1138.252, 377.5965
1138.734, 377.2995
1139.216, 377.1534
1139.698, 377.4269
1140.181, 377.9622
1140.663, 378.2823
1141.145, 378.4991
1141.627, 379.6754
1142.109, 382.1107
1142.591, 383.9039
1143.073, 383.0517
1143.555, 381.8433
1144.037, 381.8207
1144.520, 382.6739
1145.002, 383.1208
1145.484, 383.1589
1145.966, 383.0461
1146.448, 382.8229
1146.930, 382.5817
1147.412, 382.2070
1147.894, 381.9885
1148.377, 382.2733
1148.859, 383.0680
1149.341, 384.0440
1149.823, 385.2929
1150.305, 385.7538
1150.787, 384.4815
1151.269, 383.0811
1151.751, 383.5491
1152.234, 384.9435
1152.716, 385.9955
1153.198, 386.4653
1153.680, 386.7932
1154.162, 386.9807
1154.644, 387.0214
1155.126, 386.7021
1155.608, 386.4066
1156.090, 386.8898
1156.573, 387.8142
1157.055, 388.4864
1157.537, 388.4491
1158.019, 388.5249
1158.501, 388.6235
1158.983, 389.0725
1159.465, 390.5106
1159.947, 392.3170
1160.429, 393.0837
1160.912, 393.0689
1161.394, 393.2990
1161.876, 394.7914
1162.358, 395.4896
1162.840, 394.7920
1163.322, 393.9169
1163.804, 394.3221
1164.286, 395.5912
1164.769, 396.7344
1165.251, 397.6563
1165.733, 398.2506
1166.215, 398.0972
1166.697, 398.0778
1167.179, 398.4081
1167.661, 398.9522
1168.143, 399.6837
1168.625, 400.4567
1169.108, 400.6247
1169.590, 400.1210
1170.072, 399.6537
1170.554, 399.4029
1171.036, 399.5104
1171.518, 400.1660
1172.000, 401.0635
1172.482, 401.3301
1172.964, 401.1541
1173.447, 401.6620
1173.929, 403.1422
1174.411, 404.3999
1174.893, 404.3766
1175.375, 404.2783
1175.857, 404.7839
1176.339, 405.7193
1176.821, 406.3123
1177.304, 406.6471
1177.786, 407.6237
1178.268, 409.8079
1178.750, 411.2821
1179.232, 409.6715
1179.714, 407.8878
1180.196, 408.4169
1180.678, 410.8252
1181.161, 410.7901
1181.643, 408.5369
1182.125, 407.3891
1182.607, 408.9846
1183.089, 410.8888
1183.571, 411.2915
1184.053, 411.1736
1184.535, 411.4409
1185.017, 412.1136
1185.500, 412.8762
1185.982, 413.7254
1186.464, 414.3362
1186.946, 414.2780
1187.428, 414.3996
1187.910, 415.8076
1188.392, 417.4858
1188.874, 418.1389
1189.356, 417.5661
1189.839, 417.7113
1190.321, 418.5901
1190.803, 419.3015
1191.285, 418.8408
1191.767, 418.5295
1192.249, 419.9832
1192.731, 422.0043
1193.213, 422.7094
1193.696, 421.6145
1194.178, 421.3934
1194.660, 422.1019
1195.142, 423.0299
1195.624, 424.0764
1196.106, 424.7983
1196.588, 424.4567
1197.070, 423.6406
1197.552, 423.5473
1198.035, 424.4209
1198.517, 424.9591
1198.999, 425.0732
1199.481, 425.3219
1199.963, 426.4308
1200.445, 427.6000
1200.927, 428.0101
1201.409, 427.9409
1201.891, 428.1851
1202.374, 428.8615
1202.856, 429.3984
1203.338, 429.7505
1203.820, 430.0160
1204.302, 430.2117
1204.784, 430.4142
1205.266, 430.7105
1205.748, 431.0765
1206.231, 431.3984
1206.713, 431.6430
1207.195, 432.0362
1207.677, 432.6198
1208.159, 433.2596
1208.641, 433.8169
1209.123, 434.3939
1209.605, 435.2954
1210.088, 436.3116
1210.570, 436.4676
1211.052, 435.4434
1211.534, 435.5075
1212.016, 437.1568
1212.498, 438.8048
1212.980, 438.5096
1213.462, 437.7847
1213.944, 437.9893
1214.427, 439.1010
1214.909, 440.4706
1215.391, 442.2904
1215.873, 442.7683
1216.355, 441.3216
1216.837, 439.9240
1217.319, 440.7387
1217.801, 442.3396
1218.283, 443.8004
1218.766, 444.8975
1219.248, 444.5881
1219.730, 442.5748
1220.212, 441.8809
1220.694, 443.3615
1221.176, 445.2930
1221.658, 446.1955
1222.140, 446.7129
1222.623, 447.5035
1223.105, 448.5060
1223.587, 448.8514
1224.069, 448.4602
1224.551, 448.7045
1225.033, 450.0755
1225.515, 451.4594
1225.997, 451.8199
1226.479, 451.7535
1226.962, 451.6479
1227.444, 451.5667
1227.926, 451.8607
1228.408, 452.5313
1228.890, 453.0247
1229.372, 453.0904
1229.854, 453.3405
1230.336, 454.6560
1230.818, 456.0567
1231.301, 456.3923
1231.783, 455.9734
1232.265, 457.3573
1232.747, 460.4551
1233.229, 462.6627
1233.711, 463.0987
1234.193, 462.9316
1234.675, 462.6269
1235.158, 462.4135
1235.640, 462.5603
1236.122, 462.9575
1236.604, 462.6983
1237.086, 461.9029
1237.568, 461.7283
1238.050, 462.7308
1238.532, 463.8100
1239.015, 464.1755
1239.497, 464.4925
1239.979, 465.3085
1240.461, 466.4506
1240.943, 466.8719
1241.425, 466.6971
1241.907, 466.6230
1242.389, 466.8936
1242.871, 467.2496
1243.354, 467.6165
1243.836, 467.9651
1244.318, 468.2208
1244.800, 468.4526
1245.282, 468.9257
1245.764, 469.6380
1246.246, 470.6060
1246.728, 471.9753
1247.210, 473.1915
1247.693, 473.9595
1248.175, 474.5917
1248.657, 475.1408
1249.139, 475.7060
1249.621, 476.7453
1250.103, 478.0570
1250.585, 479.0987
1251.067, 479.6943
1251.550, 480.0698
1252.032, 480.0564
1252.514, 480.2589
1252.996, 481.1356
1253.478, 482.3090
1253.960, 482.8664
1254.442, 482.9720
1254.924, 482.9499
1255.406, 482.8519
1255.889, 482.6665
1256.371, 482.1599
1256.853, 482.1634
1257.335, 483.2792
1257.817, 484.9283
1258.299, 486.1992
1258.781, 487.2070
1259.263, 488.1777
1259.745, 489.2152
1260.228, 489.8938
1260.710, 490.0433
1261.192, 490.4956
1261.674, 491.9263
1262.156, 493.4560
1262.638, 493.7057
1263.120, 493.3296
1263.602, 493.2370
1264.085, 493.5824
1264.567, 494.0089
1265.049, 494.5414
1265.531, 494.8931
1266.013, 494.7061
1266.495, 494.6909
1266.977, 495.8718
1267.459, 497.4437
1267.942, 498.4251
1268.424, 498.7916
1268.906, 498.9808
1269.388, 499.0036
1269.870, 499.4772
1270.352, 500.9290
1270.834, 502.3572
1271.316, 503.0709
1271.798, 503.3829
1272.281, 503.5223
1272.763, 503.5333
1273.245, 503.8824
1273.727, 504.5439
1274.209, 505.3986
1274.691, 506.5048
1275.173, 507.5151
1275.655, 508.2857
1276.137, 508.8612
1276.620, 509.2025
1277.102, 509.4024
1277.584, 509.9811
1278.066, 510.7769
1278.548, 511.1437
1279.030, 510.5273
1279.512, 510.6111
1279.994, 512.3841
1280.476, 514.0281
1280.959, 514.6082
1281.441, 514.5460
1281.923, 514.5202
1282.405, 514.7391
1282.887, 515.7876
1283.369, 518.2001
1283.851, 519.7991
1284.333, 520.2219
1284.816, 520.3677
1285.298, 520.5076
1285.780, 520.7842
1286.262, 521.7317
1286.744, 522.8024
1287.226, 523.0253
1287.708, 521.9991
1288.190, 522.1599
1288.672, 523.6754
1289.155, 525.3019
1289.637, 526.7473
1290.119, 527.6233
1290.601, 526.5479
1291.083, 525.3980
1291.565, 526.6896
1292.047, 530.1312
1292.529, 531.8035
1293.011, 531.7668
1293.494, 531.6801
1293.976, 532.0573
1294.458, 532.5300
1294.940, 532.9741
1295.422, 533.2806
1295.904, 533.2872
1296.386, 533.1517
1296.868, 533.5554
1297.351, 534.3906
1297.833, 535.2418
1298.315, 536.0011
1298.797, 536.8093
1299.279, 537.9870
1299.761, 538.8176
1300.243, 538.9316
1300.725, 538.7619
1301.208, 539.2927
1301.690, 540.1349
1302.172, 540.3508
1302.654, 539.6901
1303.136, 539.6593
1303.618, 540.6483
1304.100, 541.6580
1304.582, 542.5888
1305.064, 543.5444
##END=



