##NAMES=Srebrodolskite
##RRUFFID=R130096
##IDEAL CHEMISTRY=Ca_2_Fe^3+^_2_O_5_
##LOCALITY=Kopeisk, South Ural, Russia
##OWNER=RRUFF
##SOURCE=Rock Currier
##DESCRIPTION=Dark brown grains, massive, associated with calcite. P-centered confirmed by X-ray diffraction.
##STATUS=The identification of this mineral has been confirmed only by single crystal X-ray diffraction.
##URL=rruff.info/R130096
8.975323e+001, 0.000000e+000
9.023535e+001, 3.865734e+002
9.071747e+001, 3.884286e+002
9.119958e+001, 3.876149e+002
9.168170e+001, 3.888203e+002
9.216382e+001, 3.873759e+002
9.264594e+001, 3.838334e+002
9.312805e+001, 3.797569e+002
9.361017e+001, 3.756316e+002
9.409229e+001, 3.699169e+002
9.457440e+001, 3.610026e+002
9.505651e+001, 3.532532e+002
9.553863e+001, 3.472230e+002
9.602074e+001, 3.422123e+002
9.650286e+001, 3.378064e+002
9.698498e+001, 3.336251e+002
9.746709e+001, 3.288125e+002
9.794921e+001, 3.232618e+002
9.843133e+001, 3.158102e+002
9.891344e+001, 3.091712e+002
9.939556e+001, 3.040207e+002
9.987768e+001, 3.000814e+002
1.003598e+002, 2.968078e+002
1.008419e+002, 2.939406e+002
1.013240e+002, 2.914974e+002
1.018061e+002, 2.893183e+002
1.022883e+002, 2.877399e+002
1.027704e+002, 2.861542e+002
1.032525e+002, 2.838028e+002
1.037346e+002, 2.804651e+002
1.042167e+002, 2.773695e+002
1.046988e+002, 2.755522e+002
1.051810e+002, 2.744203e+002
1.056631e+002, 2.731602e+002
1.061452e+002, 2.713866e+002
1.066273e+002, 2.691884e+002
1.071094e+002, 2.669052e+002
1.075915e+002, 2.643196e+002
1.080737e+002, 2.619081e+002
1.085558e+002, 2.598136e+002
1.090379e+002, 2.580181e+002
1.095200e+002, 2.564963e+002
1.100021e+002, 2.553246e+002
1.104842e+002, 2.546546e+002
1.109664e+002, 2.535483e+002
1.114485e+002, 2.512868e+002
1.119306e+002, 2.491967e+002
1.124127e+002, 2.480634e+002
1.128948e+002, 2.479138e+002
1.133769e+002, 2.481154e+002
1.138591e+002, 2.477773e+002
1.143412e+002, 2.466230e+002
1.148233e+002, 2.453073e+002
1.153054e+002, 2.436562e+002
1.157875e+002, 2.419214e+002
1.162696e+002, 2.403672e+002
1.167517e+002, 2.390884e+002
1.172339e+002, 2.379549e+002
1.177160e+002, 2.366298e+002
1.181981e+002, 2.348578e+002
1.186802e+002, 2.334135e+002
1.191623e+002, 2.327087e+002
1.196444e+002, 2.325339e+002
1.201266e+002, 2.323089e+002
1.206087e+002, 2.317599e+002
1.210908e+002, 2.310140e+002
1.215729e+002, 2.304167e+002
1.220550e+002, 2.301510e+002
1.225371e+002, 2.297204e+002
1.230193e+002, 2.285964e+002
1.235014e+002, 2.266989e+002
1.239835e+002, 2.247692e+002
1.244656e+002, 2.229350e+002
1.249477e+002, 2.213418e+002
1.254298e+002, 2.202238e+002
1.259120e+002, 2.197883e+002
1.263941e+002, 2.197352e+002
1.268762e+002, 2.194036e+002
1.273583e+002, 2.186851e+002
1.278404e+002, 2.178379e+002
1.283225e+002, 2.169889e+002
1.288047e+002, 2.160762e+002
1.292868e+002, 2.149865e+002
1.297689e+002, 2.136013e+002
1.302510e+002, 2.119605e+002
1.307331e+002, 2.106503e+002
1.312152e+002, 2.100813e+002
1.316974e+002, 2.094599e+002
1.321795e+002, 2.084880e+002
1.326616e+002, 2.072832e+002
1.331437e+002, 2.061856e+002
1.336258e+002, 2.055172e+002
1.341079e+002, 2.053838e+002
1.345901e+002, 2.049550e+002
1.350722e+002, 2.041034e+002
1.355543e+002, 2.031239e+002
1.360364e+002, 2.021916e+002
1.365185e+002, 2.013222e+002
1.370006e+002, 2.003993e+002
1.374828e+002, 1.992401e+002
1.379649e+002, 1.977358e+002
1.384470e+002, 1.966324e+002
1.389291e+002, 1.962757e+002
1.394112e+002, 1.962190e+002
1.398933e+002, 1.958946e+002
1.403755e+002, 1.951290e+002
1.408576e+002, 1.942981e+002
1.413397e+002, 1.940954e+002
1.418218e+002, 1.944774e+002
1.423039e+002, 1.944365e+002
1.427860e+002, 1.931679e+002
1.432681e+002, 1.910501e+002
1.437503e+002, 1.894737e+002
1.442324e+002, 1.889513e+002
1.447145e+002, 1.888660e+002
1.451966e+002, 1.887551e+002
1.456787e+002, 1.886020e+002
1.461608e+002, 1.881760e+002
1.466430e+002, 1.869861e+002
1.471251e+002, 1.848782e+002
1.476072e+002, 1.835051e+002
1.480893e+002, 1.840350e+002
1.485714e+002, 1.848738e+002
1.490535e+002, 1.852343e+002
1.495357e+002, 1.849382e+002
1.500178e+002, 1.842263e+002
1.504999e+002, 1.833988e+002
1.509820e+002, 1.823045e+002
1.514641e+002, 1.814252e+002
1.519462e+002, 1.810389e+002
1.524284e+002, 1.807115e+002
1.529105e+002, 1.800567e+002
1.533926e+002, 1.789405e+002
1.538747e+002, 1.775569e+002
1.543568e+002, 1.763907e+002
1.548389e+002, 1.756332e+002
1.553211e+002, 1.748981e+002
1.558032e+002, 1.740627e+002
1.562853e+002, 1.732664e+002
1.567674e+002, 1.727636e+002
1.572495e+002, 1.727052e+002
1.577316e+002, 1.729081e+002
1.582138e+002, 1.725655e+002
1.586959e+002, 1.710813e+002
1.591780e+002, 1.698003e+002
1.596601e+002, 1.691395e+002
1.601422e+002, 1.689338e+002
1.606243e+002, 1.688473e+002
1.611065e+002, 1.687785e+002
1.615886e+002, 1.686143e+002
1.620707e+002, 1.679659e+002
1.625528e+002, 1.662444e+002
1.630349e+002, 1.646375e+002
1.635170e+002, 1.639322e+002
1.639991e+002, 1.640542e+002
1.644813e+002, 1.643092e+002
1.649634e+002, 1.643912e+002
1.654455e+002, 1.642698e+002
1.659276e+002, 1.639033e+002
1.664097e+002, 1.630644e+002
1.668918e+002, 1.621511e+002
1.673740e+002, 1.617400e+002
1.678561e+002, 1.619808e+002
1.683382e+002, 1.620138e+002
1.688203e+002, 1.609984e+002
1.693024e+002, 1.595529e+002
1.697845e+002, 1.584311e+002
1.702667e+002, 1.580231e+002
1.707488e+002, 1.580513e+002
1.712309e+002, 1.578583e+002
1.717130e+002, 1.572760e+002
1.721951e+002, 1.567828e+002
1.726772e+002, 1.566150e+002
1.731594e+002, 1.566267e+002
1.736415e+002, 1.566259e+002
1.741236e+002, 1.565286e+002
1.746057e+002, 1.563251e+002
1.750878e+002, 1.559465e+002
1.755699e+002, 1.552659e+002
1.760521e+002, 1.545330e+002
1.765342e+002, 1.536517e+002
1.770163e+002, 1.527752e+002
1.774984e+002, 1.522091e+002
1.779805e+002, 1.522528e+002
1.784626e+002, 1.529156e+002
1.789448e+002, 1.529310e+002
1.794269e+002, 1.514209e+002
1.799090e+002, 1.501281e+002
1.803911e+002, 1.497270e+002
1.808732e+002, 1.500172e+002
1.813553e+002, 1.503819e+002
1.818375e+002, 1.502810e+002
1.823196e+002, 1.496420e+002
1.828017e+002, 1.492433e+002
1.832838e+002, 1.492269e+002
1.837659e+002, 1.492633e+002
1.842480e+002, 1.492934e+002
1.847301e+002, 1.492624e+002
1.852123e+002, 1.490107e+002
1.856944e+002, 1.483335e+002
1.861765e+002, 1.471455e+002
1.866586e+002, 1.462921e+002
1.871407e+002, 1.459947e+002
1.876228e+002, 1.458645e+002
1.881050e+002, 1.455723e+002
1.885871e+002, 1.450935e+002
1.890692e+002, 1.447173e+002
1.895513e+002, 1.448354e+002
1.900334e+002, 1.454253e+002
1.905155e+002, 1.457034e+002
1.909977e+002, 1.454486e+002
1.914798e+002, 1.449053e+002
1.919619e+002, 1.442391e+002
1.924440e+002, 1.434125e+002
1.929261e+002, 1.427580e+002
1.934082e+002, 1.428552e+002
1.938904e+002, 1.434596e+002
1.943725e+002, 1.438087e+002
1.948546e+002, 1.435177e+002
1.953367e+002, 1.428408e+002
1.958188e+002, 1.422467e+002
1.963009e+002, 1.417439e+002
1.967831e+002, 1.413960e+002
1.972652e+002, 1.413219e+002
1.977473e+002, 1.414340e+002
1.982294e+002, 1.415163e+002
1.987115e+002, 1.414265e+002
1.991936e+002, 1.412073e+002
1.996758e+002, 1.410529e+002
2.001579e+002, 1.410347e+002
2.006400e+002, 1.409844e+002
2.011221e+002, 1.407074e+002
2.016042e+002, 1.403163e+002
2.020863e+002, 1.401018e+002
2.025685e+002, 1.404551e+002
2.030506e+002, 1.413127e+002
2.035327e+002, 1.415249e+002
2.040148e+002, 1.402641e+002
2.044969e+002, 1.391905e+002
2.049790e+002, 1.391241e+002
2.054612e+002, 1.397805e+002
2.059433e+002, 1.404090e+002
2.064254e+002, 1.403664e+002
2.069075e+002, 1.396122e+002
2.073896e+002, 1.389723e+002
2.078717e+002, 1.385856e+002
2.083539e+002, 1.381921e+002
2.088360e+002, 1.376155e+002
2.093181e+002, 1.369455e+002
2.098002e+002, 1.364381e+002
2.102823e+002, 1.363698e+002
2.107644e+002, 1.368282e+002
2.112466e+002, 1.369449e+002
2.117287e+002, 1.363312e+002
2.122108e+002, 1.357722e+002
2.126929e+002, 1.356696e+002
2.131750e+002, 1.359344e+002
2.136571e+002, 1.361968e+002
2.141393e+002, 1.361218e+002
2.146214e+002, 1.356686e+002
2.151035e+002, 1.351207e+002
2.155856e+002, 1.343730e+002
2.160677e+002, 1.336445e+002
2.165498e+002, 1.329617e+002
2.170320e+002, 1.323721e+002
2.175141e+002, 1.319967e+002
2.179962e+002, 1.319808e+002
2.184783e+002, 1.323823e+002
2.189604e+002, 1.326627e+002
2.194425e+002, 1.327502e+002
2.199247e+002, 1.327919e+002
2.204068e+002, 1.328923e+002
2.208889e+002, 1.330466e+002
2.213710e+002, 1.331685e+002
2.218531e+002, 1.331924e+002
2.223352e+002, 1.331031e+002
2.228174e+002, 1.329183e+002
2.232995e+002, 1.326534e+002
2.237816e+002, 1.322844e+002
2.242637e+002, 1.317163e+002
2.247458e+002, 1.309608e+002
2.252279e+002, 1.302645e+002
2.257100e+002, 1.298409e+002
2.261922e+002, 1.296762e+002
2.266743e+002, 1.295318e+002
2.271564e+002, 1.293649e+002
2.276385e+002, 1.292318e+002
2.281206e+002, 1.292562e+002
2.286027e+002, 1.294525e+002
2.290849e+002, 1.295260e+002
2.295670e+002, 1.290743e+002
2.300491e+002, 1.283348e+002
2.305312e+002, 1.279694e+002
2.310133e+002, 1.283123e+002
2.314954e+002, 1.289545e+002
2.319776e+002, 1.295130e+002
2.324597e+002, 1.300043e+002
2.329418e+002, 1.302962e+002
2.334239e+002, 1.301533e+002
2.339060e+002, 1.297762e+002
2.343881e+002, 1.294410e+002
2.348703e+002, 1.291185e+002
2.353524e+002, 1.289505e+002
2.358345e+002, 1.292427e+002
2.363166e+002, 1.301394e+002
2.367987e+002, 1.309008e+002
2.372808e+002, 1.310244e+002
2.377630e+002, 1.308379e+002
2.382451e+002, 1.306879e+002
2.387272e+002, 1.307252e+002
2.392093e+002, 1.307786e+002
2.396914e+002, 1.305096e+002
2.401735e+002, 1.297717e+002
2.406557e+002, 1.291815e+002
2.411378e+002, 1.290262e+002
2.416199e+002, 1.291058e+002
2.421020e+002, 1.292831e+002
2.425841e+002, 1.295362e+002
2.430662e+002, 1.297923e+002
2.435484e+002, 1.299276e+002
2.440305e+002, 1.299250e+002
2.445126e+002, 1.298417e+002
2.449947e+002, 1.296370e+002
2.454768e+002, 1.293953e+002
2.459589e+002, 1.292078e+002
2.464410e+002, 1.291098e+002
2.469232e+002, 1.290136e+002
2.474053e+002, 1.287396e+002
2.478874e+002, 1.281792e+002
2.483695e+002, 1.277019e+002
2.488516e+002, 1.274992e+002
2.493337e+002, 1.273220e+002
2.498159e+002, 1.269342e+002
2.502980e+002, 1.262702e+002
2.507801e+002, 1.255252e+002
2.512622e+002, 1.250176e+002
2.517443e+002, 1.248114e+002
2.522264e+002, 1.247225e+002
2.527086e+002, 1.248791e+002
2.531907e+002, 1.250324e+002
2.536728e+002, 1.250058e+002
2.541549e+002, 1.247553e+002
2.546370e+002, 1.243595e+002
2.551191e+002, 1.238950e+002
2.556013e+002, 1.232032e+002
2.560834e+002, 1.228128e+002
2.565655e+002, 1.230245e+002
2.570476e+002, 1.232734e+002
2.575297e+002, 1.230897e+002
2.580118e+002, 1.224407e+002
2.584940e+002, 1.217394e+002
2.589761e+002, 1.215973e+002
2.594582e+002, 1.224197e+002
2.599403e+002, 1.227662e+002
2.604224e+002, 1.222604e+002
2.609045e+002, 1.216753e+002
2.613867e+002, 1.215906e+002
2.618688e+002, 1.220022e+002
2.623509e+002, 1.224089e+002
2.628330e+002, 1.221931e+002
2.633151e+002, 1.210785e+002
2.637972e+002, 1.203484e+002
2.642794e+002, 1.200777e+002
2.647615e+002, 1.200439e+002
2.652436e+002, 1.202981e+002
2.657257e+002, 1.207345e+002
2.662078e+002, 1.210255e+002
2.666899e+002, 1.208004e+002
2.671721e+002, 1.199160e+002
2.676542e+002, 1.194609e+002
2.681363e+002, 1.197288e+002
2.686184e+002, 1.200643e+002
2.691005e+002, 1.201218e+002
2.695826e+002, 1.199410e+002
2.700648e+002, 1.197784e+002
2.705469e+002, 1.198521e+002
2.710290e+002, 1.201725e+002
2.715111e+002, 1.204089e+002
2.719932e+002, 1.204749e+002
2.724753e+002, 1.205594e+002
2.729575e+002, 1.208035e+002
2.734396e+002, 1.211418e+002
2.739217e+002, 1.213718e+002
2.744038e+002, 1.213319e+002
2.748859e+002, 1.210576e+002
2.753680e+002, 1.209968e+002
2.758501e+002, 1.212570e+002
2.763322e+002, 1.215568e+002
2.768144e+002, 1.219456e+002
2.772965e+002, 1.223075e+002
2.777786e+002, 1.223520e+002
2.782607e+002, 1.218719e+002
2.787428e+002, 1.210278e+002
2.792249e+002, 1.205177e+002
2.797071e+002, 1.205785e+002
2.801892e+002, 1.206188e+002
2.806713e+002, 1.205169e+002
2.811534e+002, 1.202931e+002
2.816355e+002, 1.199515e+002
2.821176e+002, 1.194742e+002
2.825998e+002, 1.189449e+002
2.830819e+002, 1.186127e+002
2.835640e+002, 1.186441e+002
2.840461e+002, 1.185295e+002
2.845282e+002, 1.179260e+002
2.850103e+002, 1.171770e+002
2.854925e+002, 1.168445e+002
2.859746e+002, 1.171426e+002
2.864567e+002, 1.177215e+002
2.869388e+002, 1.180100e+002
2.874209e+002, 1.179769e+002
2.879030e+002, 1.178011e+002
2.883852e+002, 1.173769e+002
2.888673e+002, 1.168754e+002
2.893494e+002, 1.164925e+002
2.898315e+002, 1.162717e+002
2.903136e+002, 1.161766e+002
2.907957e+002, 1.161752e+002
2.912779e+002, 1.162720e+002
2.917600e+002, 1.164421e+002
2.922421e+002, 1.168745e+002
2.927242e+002, 1.172711e+002
2.932063e+002, 1.172676e+002
2.936884e+002, 1.168248e+002
2.941706e+002, 1.163164e+002
2.946527e+002, 1.160983e+002
2.951348e+002, 1.161773e+002
2.956169e+002, 1.161588e+002
2.960990e+002, 1.158796e+002
2.965811e+002, 1.156068e+002
2.970633e+002, 1.156077e+002
2.975454e+002, 1.158658e+002
2.980275e+002, 1.161054e+002
2.985096e+002, 1.161951e+002
2.989917e+002, 1.160814e+002
2.994738e+002, 1.156529e+002
2.999560e+002, 1.143505e+002
3.004381e+002, 1.132486e+002
3.009202e+002, 1.130914e+002
3.014023e+002, 1.137281e+002
3.018844e+002, 1.144731e+002
3.023665e+002, 1.150531e+002
3.028487e+002, 1.154310e+002
3.033308e+002, 1.155323e+002
3.038129e+002, 1.151952e+002
3.042950e+002, 1.148745e+002
3.047771e+002, 1.148037e+002
3.052592e+002, 1.149059e+002
3.057414e+002, 1.149904e+002
3.062235e+002, 1.149938e+002
3.067056e+002, 1.149307e+002
3.071877e+002, 1.147987e+002
3.076698e+002, 1.145539e+002
3.081519e+002, 1.144084e+002
3.086341e+002, 1.145575e+002
3.091162e+002, 1.148252e+002
3.095983e+002, 1.148673e+002
3.100804e+002, 1.145623e+002
3.105625e+002, 1.141699e+002
3.110446e+002, 1.140631e+002
3.115268e+002, 1.142473e+002
3.120089e+002, 1.143861e+002
3.124910e+002, 1.143634e+002
3.129731e+002, 1.142845e+002
3.134552e+002, 1.143291e+002
3.139373e+002, 1.145313e+002
3.144195e+002, 1.146344e+002
3.149016e+002, 1.143353e+002
3.153837e+002, 1.136607e+002
3.158658e+002, 1.131219e+002
3.163479e+002, 1.127587e+002
3.168300e+002, 1.125466e+002
3.173121e+002, 1.125270e+002
3.177943e+002, 1.126827e+002
3.182764e+002, 1.128422e+002
3.187585e+002, 1.129269e+002
3.192406e+002, 1.129092e+002
3.197227e+002, 1.127362e+002
3.202048e+002, 1.121979e+002
3.206870e+002, 1.117165e+002
3.211691e+002, 1.116340e+002
3.216512e+002, 1.118306e+002
3.221333e+002, 1.118445e+002
3.226154e+002, 1.113940e+002
3.230975e+002, 1.107122e+002
3.235797e+002, 1.104237e+002
3.240618e+002, 1.106910e+002
3.245439e+002, 1.109176e+002
3.250260e+002, 1.108340e+002
3.255081e+002, 1.105748e+002
3.259902e+002, 1.103849e+002
3.264724e+002, 1.103380e+002
3.269545e+002, 1.103930e+002
3.274366e+002, 1.105447e+002
3.279187e+002, 1.108491e+002
3.284008e+002, 1.109407e+002
3.288829e+002, 1.106666e+002
3.293651e+002, 1.101824e+002
3.298472e+002, 1.095935e+002
3.303293e+002, 1.089176e+002
3.308114e+002, 1.083383e+002
3.312935e+002, 1.080829e+002
3.317756e+002, 1.081835e+002
3.322578e+002, 1.081434e+002
3.327399e+002, 1.078774e+002
3.332220e+002, 1.075191e+002
3.337041e+002, 1.070627e+002
3.341862e+002, 1.065556e+002
3.346683e+002, 1.062600e+002
3.351505e+002, 1.064434e+002
3.356326e+002, 1.069990e+002
3.361147e+002, 1.071400e+002
3.365968e+002, 1.065713e+002
3.370789e+002, 1.059546e+002
3.375610e+002, 1.055063e+002
3.380432e+002, 1.052194e+002
3.385253e+002, 1.051048e+002
3.390074e+002, 1.051979e+002
3.394895e+002, 1.053958e+002
3.399716e+002, 1.054156e+002
3.404537e+002, 1.052329e+002
3.409359e+002, 1.049554e+002
3.414180e+002, 1.045050e+002
3.419001e+002, 1.040054e+002
3.423822e+002, 1.036289e+002
3.428643e+002, 1.034259e+002
3.433464e+002, 1.033075e+002
3.438286e+002, 1.031552e+002
3.443107e+002, 1.029545e+002
3.447928e+002, 1.027575e+002
3.452749e+002, 1.026068e+002
3.457570e+002, 1.024319e+002
3.462391e+002, 1.021359e+002
3.467213e+002, 1.017357e+002
3.472034e+002, 1.013641e+002
3.476855e+002, 1.011380e+002
3.481676e+002, 1.010629e+002
3.486497e+002, 1.010910e+002
3.491318e+002, 1.014178e+002
3.496140e+002, 1.016363e+002
3.500961e+002, 1.014750e+002
3.505782e+002, 1.010647e+002
3.510603e+002, 1.007244e+002
3.515424e+002, 1.006481e+002
3.520245e+002, 1.007681e+002
3.525067e+002, 1.007943e+002
3.529888e+002, 1.006397e+002
3.534709e+002, 1.004995e+002
3.539530e+002, 1.004657e+002
3.544351e+002, 1.004312e+002
3.549172e+002, 1.002346e+002
3.553994e+002, 9.982524e+001
3.558815e+002, 9.934132e+001
3.563636e+002, 9.900941e+001
3.568457e+002, 9.886008e+001
3.573278e+002, 9.882708e+001
3.578099e+002, 9.900414e+001
3.582920e+002, 9.921523e+001
3.587741e+002, 9.938673e+001
3.592563e+002, 9.948515e+001
3.597384e+002, 9.945055e+001
3.602205e+002, 9.919625e+001
3.607026e+002, 9.868095e+001
3.611847e+002, 9.834994e+001
3.616668e+002, 9.838790e+001
3.621490e+002, 9.840641e+001
3.626311e+002, 9.823367e+001
3.631132e+002, 9.794890e+001
3.635953e+002, 9.774265e+001
3.640774e+002, 9.774397e+001
3.645595e+002, 9.787029e+001
3.650417e+002, 9.775466e+001
3.655238e+002, 9.706284e+001
3.660059e+002, 9.659007e+001
3.664880e+002, 9.656557e+001
3.669701e+002, 9.672280e+001
3.674522e+002, 9.680648e+001
3.679344e+002, 9.673378e+001
3.684165e+002, 9.658950e+001
3.688986e+002, 9.652979e+001
3.693807e+002, 9.665774e+001
3.698628e+002, 9.658062e+001
3.703449e+002, 9.604735e+001
3.708271e+002, 9.551948e+001
3.713092e+002, 9.521712e+001
3.717913e+002, 9.515318e+001
3.722734e+002, 9.523936e+001
3.727555e+002, 9.547242e+001
3.732376e+002, 9.583994e+001
3.737198e+002, 9.589648e+001
3.742019e+002, 9.535001e+001
3.746840e+002, 9.483913e+001
3.751661e+002, 9.454903e+001
3.756482e+002, 9.443459e+001
3.761303e+002, 9.444702e+001
3.766125e+002, 9.459537e+001
3.770946e+002, 9.477773e+001
3.775767e+002, 9.475375e+001
3.780588e+002, 9.446096e+001
3.785409e+002, 9.413506e+001
3.790230e+002, 9.377923e+001
3.795052e+002, 9.345197e+001
3.799873e+002, 9.318983e+001
3.804694e+002, 9.300072e+001
3.809515e+002, 9.290077e+001
3.814336e+002, 9.300123e+001
3.819157e+002, 9.329363e+001
3.823979e+002, 9.331145e+001
3.828800e+002, 9.279785e+001
3.833621e+002, 9.222140e+001
3.838442e+002, 9.189059e+001
3.843263e+002, 9.176721e+001
3.848084e+002, 9.169347e+001
3.852906e+002, 9.158059e+001
3.857727e+002, 9.146125e+001
3.862548e+002, 9.144137e+001
3.867369e+002, 9.156766e+001
3.872190e+002, 9.162319e+001
3.877011e+002, 9.136349e+001
3.881833e+002, 9.098709e+001
3.886654e+002, 9.079448e+001
3.891475e+002, 9.092309e+001
3.896296e+002, 9.109818e+001
3.901117e+002, 9.107304e+001
3.905938e+002, 9.086904e+001
3.910760e+002, 9.066196e+001
3.915581e+002, 9.054319e+001
3.920402e+002, 9.039986e+001
3.925223e+002, 8.997812e+001
3.930044e+002, 8.922980e+001
3.934865e+002, 8.878096e+001
3.939687e+002, 8.925777e+001
3.944508e+002, 9.006499e+001
3.949329e+002, 9.013004e+001
3.954150e+002, 8.924016e+001
3.958971e+002, 8.826472e+001
3.963792e+002, 8.797769e+001
3.968614e+002, 8.834011e+001
3.973435e+002, 8.862478e+001
3.978256e+002, 8.885893e+001
3.983077e+002, 8.895775e+001
3.987898e+002, 8.875024e+001
3.992719e+002, 8.833227e+001
3.997540e+002, 8.804852e+001
4.002361e+002, 8.808424e+001
4.007183e+002, 8.834438e+001
4.012004e+002, 8.858711e+001
4.016825e+002, 8.904501e+001
4.021646e+002, 8.909656e+001
4.026467e+002, 8.826518e+001
4.031288e+002, 8.713945e+001
4.036110e+002, 8.641567e+001
4.040931e+002, 8.624752e+001
4.045752e+002, 8.629604e+001
4.050573e+002, 8.614990e+001
4.055394e+002, 8.571553e+001
4.060215e+002, 8.559307e+001
4.065037e+002, 8.600565e+001
4.069858e+002, 8.647527e+001
4.074679e+002, 8.688602e+001
4.079500e+002, 8.716338e+001
4.084321e+002, 8.716628e+001
4.089142e+002, 8.678130e+001
4.093964e+002, 8.611156e+001
4.098785e+002, 8.562852e+001
4.103606e+002, 8.548587e+001
4.108427e+002, 8.534558e+001
4.113248e+002, 8.515383e+001
4.118069e+002, 8.496492e+001
4.122891e+002, 8.481606e+001
4.127712e+002, 8.472294e+001
4.132533e+002, 8.470467e+001
4.137354e+002, 8.481483e+001
4.142175e+002, 8.511408e+001
4.146996e+002, 8.529858e+001
4.151818e+002, 8.537711e+001
4.156639e+002, 8.532626e+001
4.161460e+002, 8.504068e+001
4.166281e+002, 8.461081e+001
4.171102e+002, 8.424059e+001
4.175923e+002, 8.406319e+001
4.180745e+002, 8.403475e+001
4.185566e+002, 8.400620e+001
4.190387e+002, 8.397518e+001
4.195208e+002, 8.395045e+001
4.200029e+002, 8.395045e+001
4.204850e+002, 8.394958e+001
4.209672e+002, 8.388316e+001
4.214493e+002, 8.373019e+001
4.219314e+002, 8.366199e+001
4.224135e+002, 8.394060e+001
4.228956e+002, 8.454168e+001
4.233777e+002, 8.498934e+001
4.238599e+002, 8.528764e+001
4.243420e+002, 8.529433e+001
4.248241e+002, 8.466774e+001
4.253062e+002, 8.362828e+001
4.257883e+002, 8.298764e+001
4.262704e+002, 8.341868e+001
4.267526e+002, 8.429287e+001
4.272347e+002, 8.467152e+001
4.277168e+002, 8.453127e+001
4.281989e+002, 8.426138e+001
4.286810e+002, 8.401368e+001
4.291631e+002, 8.379105e+001
4.296453e+002, 8.357613e+001
4.301274e+002, 8.331758e+001
4.306095e+002, 8.318271e+001
4.310916e+002, 8.334294e+001
4.315737e+002, 8.367191e+001
4.320558e+002, 8.394288e+001
4.325380e+002, 8.410696e+001
4.330201e+002, 8.413231e+001
4.335022e+002, 8.387659e+001
4.339843e+002, 8.326225e+001
4.344664e+002, 8.315087e+001
4.349485e+002, 8.426634e+001
4.354307e+002, 8.530136e+001
4.359128e+002, 8.518607e+001
4.363949e+002, 8.418339e+001
4.368770e+002, 8.332691e+001
4.373591e+002, 8.323565e+001
4.378412e+002, 8.370401e+001
4.383234e+002, 8.395232e+001
4.388055e+002, 8.380972e+001
4.392876e+002, 8.366171e+001
4.397697e+002, 8.345116e+001
4.402518e+002, 8.329331e+001
4.407339e+002, 8.339495e+001
4.412160e+002, 8.374649e+001
4.416982e+002, 8.403117e+001
4.421803e+002, 8.384291e+001
4.426624e+002, 8.308171e+001
4.431445e+002, 8.257879e+001
4.436266e+002, 8.256937e+001
4.441087e+002, 8.258017e+001
4.445909e+002, 8.246673e+001
4.450730e+002, 8.227766e+001
4.455551e+002, 8.211093e+001
4.460372e+002, 8.201963e+001
4.465193e+002, 8.196770e+001
4.470014e+002, 8.187558e+001
4.474836e+002, 8.173337e+001
4.479657e+002, 8.158030e+001
4.484478e+002, 8.136318e+001
4.489299e+002, 8.118128e+001
4.494120e+002, 8.106892e+001
4.498941e+002, 8.104231e+001
4.503763e+002, 8.115267e+001
4.508584e+002, 8.160683e+001
4.513405e+002, 8.226376e+001
4.518226e+002, 8.242171e+001
4.523047e+002, 8.184073e+001
4.527868e+002, 8.132912e+001
4.532690e+002, 8.155026e+001
4.537511e+002, 8.209739e+001
4.542332e+002, 8.238529e+001
4.547153e+002, 8.219878e+001
4.551974e+002, 8.190828e+001
4.556795e+002, 8.178629e+001
4.561617e+002, 8.181392e+001
4.566438e+002, 8.193661e+001
4.571259e+002, 8.219003e+001
4.576080e+002, 8.242482e+001
4.580901e+002, 8.239925e+001
4.585722e+002, 8.211753e+001
4.590544e+002, 8.189237e+001
4.595365e+002, 8.173856e+001
4.600186e+002, 8.169436e+001
4.605007e+002, 8.188034e+001
4.609828e+002, 8.224487e+001
4.614649e+002, 8.251077e+001
4.619471e+002, 8.249014e+001
4.624292e+002, 8.226073e+001
4.629113e+002, 8.214465e+001
4.633934e+002, 8.232322e+001
4.638755e+002, 8.237066e+001
4.643576e+002, 8.207126e+001
4.648398e+002, 8.170825e+001
4.653219e+002, 8.163619e+001
4.658040e+002, 8.188903e+001
4.662861e+002, 8.214563e+001
4.667682e+002, 8.201839e+001
4.672503e+002, 8.143555e+001
4.677325e+002, 8.115195e+001
4.682146e+002, 8.149373e+001
4.686967e+002, 8.179004e+001
4.691788e+002, 8.187064e+001
4.696609e+002, 8.178967e+001
4.701430e+002, 8.159921e+001
4.706252e+002, 8.131346e+001
4.711073e+002, 8.105952e+001
4.715894e+002, 8.114861e+001
4.720715e+002, 8.173235e+001
4.725536e+002, 8.198754e+001
4.730357e+002, 8.139347e+001
4.735179e+002, 8.078005e+001
4.740000e+002, 8.067384e+001
4.744821e+002, 8.099491e+001
4.749642e+002, 8.130704e+001
4.754463e+002, 8.137151e+001
4.759284e+002, 8.124644e+001
4.764106e+002, 8.100905e+001
4.768927e+002, 8.062864e+001
4.773748e+002, 8.034525e+001
4.778569e+002, 8.039137e+001
4.783390e+002, 8.053358e+001
4.788211e+002, 8.035045e+001
4.793033e+002, 7.969435e+001
4.797854e+002, 7.919614e+001
4.802675e+002, 7.934924e+001
4.807496e+002, 7.982886e+001
4.812317e+002, 8.000368e+001
4.817138e+002, 7.975241e+001
4.821959e+002, 7.944795e+001
4.826780e+002, 7.941582e+001
4.831602e+002, 7.965979e+001
4.836423e+002, 7.990547e+001
4.841244e+002, 8.029023e+001
4.846065e+002, 8.052883e+001
4.850886e+002, 8.042897e+001
4.855707e+002, 8.012041e+001
4.860529e+002, 7.980663e+001
4.865350e+002, 7.956413e+001
4.870171e+002, 7.939999e+001
4.874992e+002, 7.934632e+001
4.879813e+002, 7.951088e+001
4.884634e+002, 7.948221e+001
4.889456e+002, 7.907225e+001
4.894277e+002, 7.868265e+001
4.899098e+002, 7.852558e+001
4.903919e+002, 7.854781e+001
4.908740e+002, 7.859293e+001
4.913561e+002, 7.856629e+001
4.918383e+002, 7.850350e+001
4.923204e+002, 7.851340e+001
4.928025e+002, 7.863881e+001
4.932846e+002, 7.871877e+001
4.937667e+002, 7.879683e+001
4.942488e+002, 7.876015e+001
4.947310e+002, 7.840822e+001
4.952131e+002, 7.778838e+001
4.956952e+002, 7.731157e+001
4.961773e+002, 7.745010e+001
4.966594e+002, 7.793468e+001
4.971415e+002, 7.796096e+001
4.976237e+002, 7.741043e+001
4.981058e+002, 7.689524e+001
4.985879e+002, 7.687035e+001
4.990700e+002, 7.704313e+001
4.995521e+002, 7.681008e+001
5.000342e+002, 7.592610e+001
5.005164e+002, 7.516209e+001
5.009985e+002, 7.491893e+001
5.014806e+002, 7.504422e+001
5.019627e+002, 7.532081e+001
5.024448e+002, 7.570718e+001
5.029269e+002, 7.607923e+001
5.034091e+002, 7.629802e+001
5.038912e+002, 7.635802e+001
5.043733e+002, 7.655274e+001
5.048554e+002, 7.718657e+001
5.053375e+002, 7.760193e+001
5.058196e+002, 7.749186e+001
5.063018e+002, 7.703561e+001
5.067839e+002, 7.644267e+001
5.072660e+002, 7.580296e+001
5.077481e+002, 7.523257e+001
5.082302e+002, 7.492906e+001
5.087123e+002, 7.496656e+001
5.091945e+002, 7.500178e+001
5.096766e+002, 7.506789e+001
5.101587e+002, 7.509789e+001
5.106408e+002, 7.504825e+001
5.111229e+002, 7.494566e+001
5.116050e+002, 7.484482e+001
5.120872e+002, 7.477644e+001
5.125693e+002, 7.471044e+001
5.130514e+002, 7.456420e+001
5.135335e+002, 7.431348e+001
5.140156e+002, 7.416960e+001
5.144977e+002, 7.423286e+001
5.149799e+002, 7.436708e+001
5.154620e+002, 7.445866e+001
5.159441e+002, 7.451328e+001
5.164262e+002, 7.457915e+001
5.169083e+002, 7.474013e+001
5.173904e+002, 7.488698e+001
5.178726e+002, 7.487698e+001
5.183547e+002, 7.471335e+001
5.188368e+002, 7.443642e+001
5.193189e+002, 7.398441e+001
5.198010e+002, 7.352554e+001
5.202831e+002, 7.352486e+001
5.207653e+002, 7.419427e+001
5.212474e+002, 7.460574e+001
5.217295e+002, 7.441923e+001
5.222116e+002, 7.404107e+001
5.226937e+002, 7.382291e+001
5.231758e+002, 7.377407e+001
5.236580e+002, 7.370322e+001
5.241401e+002, 7.346078e+001
5.246222e+002, 7.310084e+001
5.251043e+002, 7.290661e+001
5.255864e+002, 7.310093e+001
5.260685e+002, 7.314381e+001
5.265507e+002, 7.278150e+001
5.270328e+002, 7.240028e+001
5.275149e+002, 7.237186e+001
5.279970e+002, 7.269743e+001
5.284791e+002, 7.305333e+001
5.289612e+002, 7.316393e+001
5.294434e+002, 7.305943e+001
5.299255e+002, 7.291684e+001
5.304076e+002, 7.273277e+001
5.308897e+002, 7.251966e+001
5.313718e+002, 7.223241e+001
5.318539e+002, 7.194375e+001
5.323361e+002, 7.171880e+001
5.328182e+002, 7.156502e+001
5.333003e+002, 7.149584e+001
5.337824e+002, 7.156166e+001
5.342645e+002, 7.170991e+001
5.347466e+002, 7.185439e+001
5.352288e+002, 7.199055e+001
5.357109e+002, 7.202458e+001
5.361930e+002, 7.181953e+001
5.366751e+002, 7.144614e+001
5.371572e+002, 7.133696e+001
5.376393e+002, 7.179199e+001
5.381215e+002, 7.211944e+001
5.386036e+002, 7.207101e+001
5.390857e+002, 7.181252e+001
5.395678e+002, 7.152514e+001
5.400499e+002, 7.125772e+001
5.405320e+002, 7.099076e+001
5.410142e+002, 7.069506e+001
5.414963e+002, 7.036652e+001
5.419784e+002, 7.014028e+001
5.424604e+002, 6.996789e+001
5.429426e+002, 6.997230e+001
5.434247e+002, 7.046404e+001
5.439068e+002, 7.100706e+001
5.443889e+002, 7.104287e+001
5.448710e+002, 7.044292e+001
5.453531e+002, 6.968106e+001
5.458353e+002, 6.922791e+001
5.463174e+002, 6.907097e+001
5.467995e+002, 6.913278e+001
5.472816e+002, 6.955173e+001
5.477637e+002, 6.988575e+001
5.482458e+002, 6.976723e+001
5.487280e+002, 6.939962e+001
5.492101e+002, 6.907882e+001
5.496922e+002, 6.882203e+001
5.501743e+002, 6.868733e+001
5.506564e+002, 6.876087e+001
5.511385e+002, 6.897388e+001
5.516207e+002, 6.922489e+001
5.521028e+002, 6.949668e+001
5.525849e+002, 6.966096e+001
5.530670e+002, 6.955580e+001
5.535491e+002, 6.917973e+001
5.540313e+002, 6.902451e+001
5.545134e+002, 6.945139e+001
5.549955e+002, 6.963503e+001
5.554776e+002, 6.913583e+001
5.559597e+002, 6.836528e+001
5.564418e+002, 6.786484e+001
5.569240e+002, 6.775597e+001
5.574061e+002, 6.773282e+001
5.578882e+002, 6.741743e+001
5.583703e+002, 6.679593e+001
5.588524e+002, 6.631133e+001
5.593345e+002, 6.593974e+001
5.598167e+002, 6.576142e+001
5.602988e+002, 6.585638e+001
5.607809e+002, 6.610695e+001
5.612630e+002, 6.643121e+001
5.617451e+002, 6.682777e+001
5.622272e+002, 6.707264e+001
5.627094e+002, 6.690745e+001
5.631915e+002, 6.642860e+001
5.636736e+002, 6.592068e+001
5.641557e+002, 6.538766e+001
5.646378e+002, 6.496724e+001
5.651199e+002, 6.478826e+001
5.656021e+002, 6.481062e+001
5.660842e+002, 6.481631e+001
5.665663e+002, 6.483791e+001
5.670484e+002, 6.479843e+001
5.675305e+002, 6.463473e+001
5.680126e+002, 6.441387e+001
5.684948e+002, 6.421713e+001
5.689769e+002, 6.406009e+001
5.694590e+002, 6.390779e+001
5.699411e+002, 6.372587e+001
5.704232e+002, 6.351762e+001
5.709053e+002, 6.335645e+001
5.713875e+002, 6.325406e+001
5.718696e+002, 6.318687e+001
5.723517e+002, 6.314907e+001
5.728338e+002, 6.314379e+001
5.733159e+002, 6.326581e+001
5.737980e+002, 6.348396e+001
5.742802e+002, 6.351159e+001
5.747623e+002, 6.292464e+001
5.752444e+002, 6.191748e+001
5.757265e+002, 6.131908e+001
5.762086e+002, 6.119105e+001
5.766907e+002, 6.122310e+001
5.771729e+002, 6.136740e+001
5.776550e+002, 6.153472e+001
5.781371e+002, 6.158435e+001
5.786192e+002, 6.149886e+001
5.791013e+002, 6.136400e+001
5.795834e+002, 6.117196e+001
5.800656e+002, 6.097111e+001
5.805477e+002, 6.085119e+001
5.810298e+002, 6.079530e+001
5.815119e+002, 6.063157e+001
5.819940e+002, 6.021157e+001
5.824761e+002, 5.968049e+001
5.829583e+002, 5.954590e+001
5.834404e+002, 6.034740e+001
5.839225e+002, 6.072008e+001
5.844046e+002, 6.028040e+001
5.848867e+002, 5.973450e+001
5.853688e+002, 5.953524e+001
5.858510e+002, 5.965602e+001
5.863331e+002, 5.985265e+001
5.868152e+002, 5.999001e+001
5.872973e+002, 6.007397e+001
5.877794e+002, 6.012004e+001
5.882615e+002, 6.013143e+001
5.887437e+002, 6.006643e+001
5.892258e+002, 5.980395e+001
5.897079e+002, 5.958678e+001
5.901900e+002, 5.975122e+001
5.906721e+002, 6.021402e+001
5.911542e+002, 6.041991e+001
5.916364e+002, 5.993120e+001
5.921185e+002, 5.934756e+001
5.926006e+002, 5.923587e+001
5.930827e+002, 5.945810e+001
5.935648e+002, 5.957395e+001
5.940469e+002, 5.941965e+001
5.945291e+002, 5.915614e+001
5.950112e+002, 5.898074e+001
5.954933e+002, 5.885382e+001
5.959754e+002, 5.901659e+001
5.964575e+002, 6.005981e+001
5.969396e+002, 6.069648e+001
5.974218e+002, 6.018739e+001
5.979039e+002, 5.909454e+001
5.983860e+002, 5.816313e+001
5.988681e+002, 5.765723e+001
5.993502e+002, 5.749866e+001
5.998323e+002, 5.774478e+001
6.003145e+002, 5.837043e+001
6.007966e+002, 5.858080e+001
6.012787e+002, 5.808922e+001
6.017608e+002, 5.772007e+001
6.022429e+002, 5.817617e+001
6.027250e+002, 5.898577e+001
6.032072e+002, 5.941345e+001
6.036893e+002, 5.927617e+001
6.041714e+002, 5.904916e+001
6.046535e+002, 5.895827e+001
6.051356e+002, 5.893113e+001
6.056177e+002, 5.887166e+001
6.060999e+002, 5.876645e+001
6.065820e+002, 5.862183e+001
6.070641e+002, 5.843118e+001
6.075462e+002, 5.821801e+001
6.080283e+002, 5.808791e+001
6.085104e+002, 5.810137e+001
6.089926e+002, 5.811762e+001
6.094747e+002, 5.828200e+001
6.099568e+002, 5.832647e+001
6.104389e+002, 5.794883e+001
6.109210e+002, 5.725887e+001
6.114031e+002, 5.665223e+001
6.118853e+002, 5.637351e+001
6.123674e+002, 5.633890e+001
6.128495e+002, 5.640507e+001
6.133316e+002, 5.658228e+001
6.138137e+002, 5.674133e+001
6.142958e+002, 5.683039e+001
6.147780e+002, 5.691956e+001
6.152601e+002, 5.714220e+001
6.157422e+002, 5.745949e+001
6.162243e+002, 5.760170e+001
6.167064e+002, 5.733740e+001
6.171885e+002, 5.705692e+001
6.176707e+002, 5.703069e+001
6.181528e+002, 5.716568e+001
6.186349e+002, 5.728231e+001
6.191170e+002, 5.732436e+001
6.195991e+002, 5.730632e+001
6.200812e+002, 5.724103e+001
6.205634e+002, 5.712566e+001
6.210455e+002, 5.699947e+001
6.215276e+002, 5.681896e+001
6.220097e+002, 5.668276e+001
6.224918e+002, 5.658870e+001
6.229739e+002, 5.656096e+001
6.234561e+002, 5.667436e+001
6.239382e+002, 5.692398e+001
6.244203e+002, 5.712212e+001
6.249023e+002, 5.708455e+001
6.253845e+002, 5.688354e+001
6.258666e+002, 5.672780e+001
6.263487e+002, 5.663125e+001
6.268308e+002, 5.644308e+001
6.273129e+002, 5.603486e+001
6.277950e+002, 5.555113e+001
6.282772e+002, 5.525415e+001
6.287593e+002, 5.513483e+001
6.292414e+002, 5.517208e+001
6.297235e+002, 5.547924e+001
6.302056e+002, 5.583779e+001
6.306877e+002, 5.617719e+001
6.311699e+002, 5.643806e+001
6.316520e+002, 5.650805e+001
6.321341e+002, 5.633519e+001
6.326162e+002, 5.601449e+001
6.330983e+002, 5.562371e+001
6.335804e+002, 5.505727e+001
6.340626e+002, 5.499380e+001
6.345447e+002, 5.592428e+001
6.350268e+002, 5.672877e+001
6.355089e+002, 5.681456e+001
6.359910e+002, 5.651122e+001
6.364731e+002, 5.630938e+001
6.369553e+002, 5.632958e+001
6.374374e+002, 5.643641e+001
6.379195e+002, 5.660030e+001
6.384016e+002, 5.676402e+001
6.388837e+002, 5.682069e+001
6.393658e+002, 5.675789e+001
6.398480e+002, 5.658245e+001
6.403301e+002, 5.623846e+001
6.408122e+002, 5.585254e+001
6.412943e+002, 5.585576e+001
6.417764e+002, 5.676995e+001
6.422585e+002, 5.730395e+001
6.427407e+002, 5.716310e+001
6.432228e+002, 5.690524e+001
6.437049e+002, 5.690123e+001
6.441870e+002, 5.708026e+001
6.446691e+002, 5.714523e+001
6.451512e+002, 5.691158e+001
6.456334e+002, 5.663145e+001
6.461155e+002, 5.679890e+001
6.465976e+002, 5.740875e+001
6.470797e+002, 5.777706e+001
6.475618e+002, 5.773193e+001
6.480439e+002, 5.757792e+001
6.485261e+002, 5.746938e+001
6.490082e+002, 5.743674e+001
6.494903e+002, 5.758783e+001
6.499724e+002, 5.806108e+001
6.504545e+002, 5.851725e+001
6.509366e+002, 5.890355e+001
6.514188e+002, 5.915618e+001
6.519009e+002, 5.912635e+001
6.523830e+002, 5.884668e+001
6.528651e+002, 5.852494e+001
6.533472e+002, 5.828242e+001
6.538293e+002, 5.818660e+001
6.543115e+002, 5.858290e+001
6.547936e+002, 5.987379e+001
6.552757e+002, 6.067433e+001
6.557578e+002, 6.042284e+001
6.562399e+002, 5.993946e+001
6.567220e+002, 5.952081e+001
6.572042e+002, 5.922887e+001
6.576863e+002, 5.916964e+001
6.581684e+002, 5.943241e+001
6.586505e+002, 5.986050e+001
6.591326e+002, 6.045599e+001
6.596147e+002, 6.109413e+001
6.600969e+002, 6.135210e+001
6.605790e+002, 6.112735e+001
6.610611e+002, 6.087828e+001
6.615432e+002, 6.101721e+001
6.620253e+002, 6.150441e+001
6.625074e+002, 6.190376e+001
6.629896e+002, 6.213042e+001
6.634717e+002, 6.238067e+001
6.639538e+002, 6.280011e+001
6.644359e+002, 6.315239e+001
6.649180e+002, 6.319708e+001
6.654001e+002, 6.298436e+001
6.658823e+002, 6.276038e+001
6.663644e+002, 6.265126e+001
6.668465e+002, 6.266007e+001
6.673286e+002, 6.282052e+001
6.678107e+002, 6.312849e+001
6.682928e+002, 6.344368e+001
6.687750e+002, 6.374017e+001
6.692571e+002, 6.402283e+001
6.697392e+002, 6.431902e+001
6.702213e+002, 6.461282e+001
6.707034e+002, 6.477513e+001
6.711855e+002, 6.475021e+001
6.716677e+002, 6.465913e+001
6.721498e+002, 6.447471e+001
6.726319e+002, 6.428120e+001
6.731140e+002, 6.417709e+001
6.735961e+002, 6.416566e+001
6.740782e+002, 6.419177e+001
6.745604e+002, 6.423613e+001
6.750425e+002, 6.424825e+001
6.755246e+002, 6.403903e+001
6.760067e+002, 6.355766e+001
6.764888e+002, 6.306087e+001
6.769709e+002, 6.239541e+001
6.774531e+002, 6.196590e+001
6.779352e+002, 6.229842e+001
6.784173e+002, 6.314837e+001
6.788994e+002, 6.362659e+001
6.793815e+002, 6.332317e+001
6.798636e+002, 6.286927e+001
6.803458e+002, 6.265314e+001
6.808279e+002, 6.251998e+001
6.813100e+002, 6.210701e+001
6.817921e+002, 6.141612e+001
6.822742e+002, 6.097257e+001
6.827563e+002, 6.126931e+001
6.832385e+002, 6.209536e+001
6.837206e+002, 6.238630e+001
6.842027e+002, 6.187544e+001
6.846848e+002, 6.141112e+001
6.851669e+002, 6.105622e+001
6.856490e+002, 6.082341e+001
6.861312e+002, 6.076059e+001
6.866133e+002, 6.083065e+001
6.870954e+002, 6.095071e+001
6.875775e+002, 6.118934e+001
6.880596e+002, 6.129019e+001
6.885417e+002, 6.086041e+001
6.890239e+002, 6.014559e+001
6.895060e+002, 5.975224e+001
6.899881e+002, 5.978326e+001
6.904702e+002, 5.989974e+001
6.909523e+002, 5.982452e+001
6.914344e+002, 5.962126e+001
6.919166e+002, 5.962157e+001
6.923987e+002, 6.012287e+001
6.928808e+002, 6.034752e+001
6.933629e+002, 6.003756e+001
6.938450e+002, 5.966199e+001
6.943271e+002, 5.951342e+001
6.948093e+002, 5.953461e+001
6.952914e+002, 5.953831e+001
6.957735e+002, 5.946434e+001
6.962556e+002, 5.927575e+001
6.967377e+002, 5.879056e+001
6.972198e+002, 5.814583e+001
6.977020e+002, 5.791276e+001
6.981841e+002, 5.821012e+001
6.986662e+002, 5.842753e+001
6.991483e+002, 5.807941e+001
6.996304e+002, 5.735719e+001
7.001125e+002, 5.699743e+001
7.005947e+002, 5.737410e+001
7.010768e+002, 5.754729e+001
7.015589e+002, 5.744212e+001
7.020410e+002, 5.719060e+001
7.025231e+002, 5.672861e+001
7.030052e+002, 5.620816e+001
7.034874e+002, 5.592923e+001
7.039695e+002, 5.603639e+001
7.044516e+002, 5.628788e+001
7.049337e+002, 5.644574e+001
7.054158e+002, 5.650159e+001
7.058979e+002, 5.634740e+001
7.063801e+002, 5.592574e+001
7.068622e+002, 5.564482e+001
7.073442e+002, 5.581591e+001
7.078264e+002, 5.623091e+001
7.083085e+002, 5.634016e+001
7.087906e+002, 5.597350e+001
7.092727e+002, 5.575187e+001
7.097548e+002, 5.601083e+001
7.102369e+002, 5.613601e+001
7.107191e+002, 5.558544e+001
7.112012e+002, 5.468962e+001
7.116833e+002, 5.409196e+001
7.121654e+002, 5.401800e+001
7.126475e+002, 5.409407e+001
7.131296e+002, 5.384486e+001
7.136118e+002, 5.335164e+001
7.140939e+002, 5.312421e+001
7.145760e+002, 5.324498e+001
7.150581e+002, 5.319025e+001
7.155402e+002, 5.263567e+001
7.160223e+002, 5.186623e+001
7.165045e+002, 5.135075e+001
7.169866e+002, 5.111071e+001
7.174687e+002, 5.096018e+001
7.179508e+002, 5.102004e+001
7.184329e+002, 5.102249e+001
7.189150e+002, 5.079693e+001
7.193972e+002, 5.044559e+001
7.198793e+002, 5.013580e+001
7.203614e+002, 4.990284e+001
7.208435e+002, 4.961674e+001
7.213256e+002, 4.903252e+001
7.218077e+002, 4.831700e+001
7.222899e+002, 4.828222e+001
7.227720e+002, 4.905190e+001
7.232541e+002, 4.943445e+001
7.237362e+002, 4.888283e+001
7.242183e+002, 4.804794e+001
7.247004e+002, 4.770171e+001
7.251826e+002, 4.783138e+001
7.256647e+002, 4.788007e+001
7.261468e+002, 4.789752e+001
7.266289e+002, 4.773513e+001
7.271110e+002, 4.711372e+001
7.275931e+002, 4.641748e+001
7.280753e+002, 4.616999e+001
7.285574e+002, 4.635583e+001
7.290395e+002, 4.648387e+001
7.295216e+002, 4.617420e+001
7.300037e+002, 4.561168e+001
7.304858e+002, 4.517183e+001
7.309680e+002, 4.485345e+001
7.314501e+002, 4.478358e+001
7.319322e+002, 4.512474e+001
7.324143e+002, 4.539726e+001
7.328964e+002, 4.517889e+001
7.333785e+002, 4.454408e+001
7.338607e+002, 4.393205e+001
7.343428e+002, 4.303978e+001
7.348249e+002, 4.263992e+001
7.353070e+002, 4.341085e+001
7.357891e+002, 4.431362e+001
7.362712e+002, 4.445916e+001
7.367534e+002, 4.396974e+001
7.372355e+002, 4.340986e+001
7.377176e+002, 4.304561e+001
7.381997e+002, 4.282149e+001
7.386818e+002, 4.273330e+001
7.391639e+002, 4.274865e+001
7.396461e+002, 4.247017e+001
7.401282e+002, 4.176553e+001
7.406103e+002, 4.126117e+001
7.410924e+002, 4.145064e+001
7.415745e+002, 4.196082e+001
7.420566e+002, 4.189425e+001
7.425388e+002, 4.099137e+001
7.430209e+002, 4.045770e+001
7.435030e+002, 4.067639e+001
7.439851e+002, 4.098893e+001
7.444672e+002, 4.105787e+001
7.449493e+002, 4.098780e+001
7.454315e+002, 4.104964e+001
7.459136e+002, 4.128755e+001
7.463957e+002, 4.133936e+001
7.468778e+002, 4.063667e+001
7.473599e+002, 3.951215e+001
7.478420e+002, 3.909054e+001
7.483242e+002, 3.939077e+001
7.488063e+002, 3.958289e+001
7.492884e+002, 3.936885e+001
7.497705e+002, 3.898991e+001
7.502526e+002, 3.866911e+001
7.507347e+002, 3.839989e+001
7.512169e+002, 3.841878e+001
7.516990e+002, 3.920197e+001
7.521811e+002, 3.963093e+001
7.526632e+002, 3.912964e+001
7.531453e+002, 3.841156e+001
7.536274e+002, 3.814199e+001
7.541096e+002, 3.830679e+001
7.545917e+002, 3.848009e+001
7.550738e+002, 3.842017e+001
7.555559e+002, 3.825906e+001
7.560380e+002, 3.822654e+001
7.565201e+002, 3.826299e+001
7.570023e+002, 3.804581e+001
7.574844e+002, 3.750256e+001
7.579665e+002, 3.702111e+001
7.584486e+002, 3.688001e+001
7.589307e+002, 3.700326e+001
7.594128e+002, 3.714225e+001
7.598950e+002, 3.739329e+001
7.603771e+002, 3.748004e+001
7.608592e+002, 3.725068e+001
7.613413e+002, 3.702809e+001
7.618234e+002, 3.705832e+001
7.623055e+002, 3.716308e+001
7.627877e+002, 3.700481e+001
7.632698e+002, 3.647963e+001
7.637519e+002, 3.597560e+001
7.642340e+002, 3.582682e+001
7.647161e+002, 3.585626e+001
7.651982e+002, 3.577523e+001
7.656804e+002, 3.559916e+001
7.661625e+002, 3.548661e+001
7.666446e+002, 3.549910e+001
7.671267e+002, 3.559738e+001
7.676088e+002, 3.577861e+001
7.680909e+002, 3.606313e+001
7.685731e+002, 3.588365e+001
7.690552e+002, 3.476183e+001
7.695373e+002, 3.395874e+001
7.700194e+002, 3.387350e+001
7.705015e+002, 3.409433e+001
7.709836e+002, 3.445350e+001
7.714658e+002, 3.486732e+001
7.719479e+002, 3.505254e+001
7.724300e+002, 3.473840e+001
7.729121e+002, 3.439900e+001
7.733942e+002, 3.444135e+001
7.738763e+002, 3.463834e+001
7.743585e+002, 3.458942e+001
7.748406e+002, 3.428596e+001
7.753227e+002, 3.407251e+001
7.758048e+002, 3.419987e+001
7.762869e+002, 3.444313e+001
7.767690e+002, 3.418776e+001
7.772512e+002, 3.330807e+001
7.777333e+002, 3.278161e+001
7.782154e+002, 3.277670e+001
7.786975e+002, 3.293629e+001
7.791796e+002, 3.320910e+001
7.796617e+002, 3.346645e+001
7.801439e+002, 3.343102e+001
7.806260e+002, 3.299027e+001
7.811081e+002, 3.278114e+001
7.815902e+002, 3.327691e+001
7.820723e+002, 3.373120e+001
7.825544e+002, 3.355394e+001
7.830366e+002, 3.304224e+001
7.835187e+002, 3.270367e+001
7.840008e+002, 3.267566e+001
7.844829e+002, 3.279710e+001
7.849650e+002, 3.297221e+001
7.854471e+002, 3.315102e+001
7.859293e+002, 3.313636e+001
7.864114e+002, 3.292403e+001
7.868935e+002, 3.283126e+001
7.873756e+002, 3.297636e+001
7.878577e+002, 3.313554e+001
7.883398e+002, 3.307011e+001
7.888220e+002, 3.282322e+001
7.893040e+002, 3.276390e+001
7.897861e+002, 3.309920e+001
7.902682e+002, 3.331536e+001
7.907504e+002, 3.345963e+001
7.912325e+002, 3.339536e+001
7.917146e+002, 3.287815e+001
7.921967e+002, 3.211547e+001
7.926788e+002, 3.150085e+001
7.931609e+002, 3.116946e+001
7.936431e+002, 3.107469e+001
7.941252e+002, 3.127394e+001
7.946073e+002, 3.164143e+001
7.950894e+002, 3.197444e+001
7.955715e+002, 3.225447e+001
7.960536e+002, 3.245808e+001
7.965358e+002, 3.257799e+001
7.970179e+002, 3.260126e+001
7.975000e+002, 3.249544e+001
7.979821e+002, 3.225257e+001
7.984642e+002, 3.206173e+001
7.989464e+002, 3.198406e+001
7.994285e+002, 3.184633e+001
7.999106e+002, 3.145031e+001
8.003927e+002, 3.110339e+001
8.008748e+002, 3.109984e+001
8.013569e+002, 3.137342e+001
8.018391e+002, 3.157797e+001
8.023212e+002, 3.165065e+001
8.028033e+002, 3.159727e+001
8.032854e+002, 3.130027e+001
8.037675e+002, 3.095401e+001
8.042496e+002, 3.084661e+001
8.047318e+002, 3.092565e+001
8.052139e+002, 3.086973e+001
8.056960e+002, 3.049435e+001
8.061781e+002, 3.006347e+001
8.066602e+002, 3.004963e+001
8.071423e+002, 3.041592e+001
8.076245e+002, 3.066224e+001
8.081066e+002, 3.076781e+001
8.085887e+002, 3.074632e+001
8.090708e+002, 3.055221e+001
8.095529e+002, 3.030428e+001
8.100350e+002, 3.018950e+001
8.105172e+002, 3.023681e+001
8.109993e+002, 3.023005e+001
8.114814e+002, 3.007702e+001
8.119635e+002, 2.998787e+001
8.124456e+002, 3.010084e+001
8.129277e+002, 3.024505e+001
8.134099e+002, 3.028379e+001
8.138920e+002, 3.019744e+001
8.143741e+002, 2.997442e+001
8.148562e+002, 2.949411e+001
8.153383e+002, 2.912054e+001
8.158204e+002, 2.940774e+001
8.163026e+002, 3.004786e+001
8.167847e+002, 3.034208e+001
8.172668e+002, 3.023111e+001
8.177489e+002, 3.001757e+001
8.182310e+002, 2.986039e+001
8.187131e+002, 2.978027e+001
8.191953e+002, 2.983299e+001
8.196774e+002, 3.004459e+001
8.201595e+002, 3.024313e+001
8.206416e+002, 3.052614e+001
8.211237e+002, 3.061018e+001
8.216058e+002, 3.024177e+001
8.220880e+002, 2.972266e+001
8.225701e+002, 2.933038e+001
8.230522e+002, 2.907217e+001
8.235343e+002, 2.902892e+001
8.240164e+002, 2.942920e+001
8.244985e+002, 2.979370e+001
8.249807e+002, 2.990690e+001
8.254628e+002, 2.988076e+001
8.259449e+002, 2.983690e+001
8.264270e+002, 2.978325e+001
8.269091e+002, 2.965000e+001
8.273912e+002, 2.937856e+001
8.278734e+002, 2.910119e+001
8.283555e+002, 2.897954e+001
8.288376e+002, 2.901075e+001
8.293197e+002, 2.927185e+001
8.298018e+002, 2.977026e+001
8.302839e+002, 3.005254e+001
8.307661e+002, 2.985343e+001
8.312482e+002, 2.943545e+001
8.317303e+002, 2.923630e+001
8.322124e+002, 2.930211e+001
8.326945e+002, 2.925146e+001
8.331766e+002, 2.891024e+001
8.336588e+002, 2.870670e+001
8.341409e+002, 2.882521e+001
8.346230e+002, 2.903907e+001
8.351051e+002, 2.918117e+001
8.355872e+002, 2.925029e+001
8.360693e+002, 2.930795e+001
8.365515e+002, 2.939593e+001
8.370336e+002, 2.943899e+001
8.375157e+002, 2.930546e+001
8.379978e+002, 2.916549e+001
8.384799e+002, 2.933395e+001
8.389620e+002, 2.969064e+001
8.394442e+002, 2.976231e+001
8.399263e+002, 2.932434e+001
8.404084e+002, 2.872120e+001
8.408905e+002, 2.841067e+001
8.413726e+002, 2.835289e+001
8.418547e+002, 2.835809e+001
8.423369e+002, 2.843196e+001
8.428190e+002, 2.840027e+001
8.433011e+002, 2.815383e+001
8.437832e+002, 2.791399e+001
8.442653e+002, 2.795674e+001
8.447474e+002, 2.827377e+001
8.452296e+002, 2.851275e+001
8.457117e+002, 2.868540e+001
8.461938e+002, 2.875626e+001
8.466759e+002, 2.862644e+001
8.471580e+002, 2.848801e+001
8.476401e+002, 2.845002e+001
8.481223e+002, 2.849809e+001
8.486044e+002, 2.859646e+001
8.490865e+002, 2.875516e+001
8.495686e+002, 2.887763e+001
8.500507e+002, 2.893359e+001
8.505328e+002, 2.891097e+001
8.510150e+002, 2.874341e+001
8.514971e+002, 2.849765e+001
8.519792e+002, 2.833149e+001
8.524613e+002, 2.828798e+001
8.529434e+002, 2.826627e+001
8.534255e+002, 2.815906e+001
8.539077e+002, 2.800672e+001
8.543898e+002, 2.794341e+001
8.548719e+002, 2.796888e+001
8.553540e+002, 2.800888e+001
8.558361e+002, 2.805819e+001
8.563182e+002, 2.807592e+001
8.568004e+002, 2.802305e+001
8.572825e+002, 2.792080e+001
8.577646e+002, 2.782892e+001
8.582467e+002, 2.767308e+001
8.587288e+002, 2.769247e+001
8.592109e+002, 2.815509e+001
8.596931e+002, 2.847503e+001
8.601752e+002, 2.830256e+001
8.606573e+002, 2.795755e+001
8.611394e+002, 2.783494e+001
8.616215e+002, 2.797289e+001
8.621036e+002, 2.812620e+001
8.625858e+002, 2.820326e+001
8.630679e+002, 2.825752e+001
8.635500e+002, 2.839258e+001
8.640321e+002, 2.849200e+001
8.645142e+002, 2.828339e+001
8.649963e+002, 2.784069e+001
8.654785e+002, 2.761222e+001
8.659606e+002, 2.787838e+001
8.664427e+002, 2.832172e+001
8.669248e+002, 2.845610e+001
8.674069e+002, 2.833212e+001
8.678890e+002, 2.821740e+001
8.683712e+002, 2.812845e+001
8.688533e+002, 2.799195e+001
8.693354e+002, 2.775763e+001
8.698175e+002, 2.753468e+001
8.702996e+002, 2.749436e+001
8.707817e+002, 2.763951e+001
8.712639e+002, 2.759601e+001
8.717459e+002, 2.709094e+001
8.722280e+002, 2.687833e+001
8.727101e+002, 2.745947e+001
8.731923e+002, 2.801710e+001
8.736744e+002, 2.796705e+001
8.741565e+002, 2.752774e+001
8.746386e+002, 2.725001e+001
8.751207e+002, 2.724246e+001
8.756028e+002, 2.733868e+001
8.760850e+002, 2.761456e+001
8.765671e+002, 2.784524e+001
8.770492e+002, 2.784663e+001
8.775313e+002, 2.769070e+001
8.780134e+002, 2.745979e+001
8.784955e+002, 2.720529e+001
8.789777e+002, 2.706731e+001
8.794598e+002, 2.719046e+001
8.799419e+002, 2.745176e+001
8.804240e+002, 2.770809e+001
8.809061e+002, 2.793061e+001
8.813882e+002, 2.798404e+001
8.818704e+002, 2.785580e+001
8.823525e+002, 2.770307e+001
8.828346e+002, 2.762606e+001
8.833167e+002, 2.758105e+001
8.837988e+002, 2.745794e+001
8.842809e+002, 2.722778e+001
8.847631e+002, 2.714423e+001
8.852452e+002, 2.725603e+001
8.857273e+002, 2.740024e+001
8.862094e+002, 2.757063e+001
8.866915e+002, 2.769740e+001
8.871736e+002, 2.767274e+001
8.876558e+002, 2.750888e+001
8.881379e+002, 2.740088e+001
8.886200e+002, 2.736217e+001
8.891021e+002, 2.736805e+001
8.895842e+002, 2.746902e+001
8.900663e+002, 2.756170e+001
8.905485e+002, 2.755569e+001
8.910306e+002, 2.749282e+001
8.915127e+002, 2.748963e+001
8.919948e+002, 2.758452e+001
8.924769e+002, 2.758611e+001
8.929590e+002, 2.729560e+001
8.934412e+002, 2.691513e+001
8.939233e+002, 2.653445e+001
8.944054e+002, 2.626685e+001
8.948875e+002, 2.647342e+001
8.953696e+002, 2.713131e+001
8.958517e+002, 2.762744e+001
8.963339e+002, 2.747423e+001
8.968160e+002, 2.698713e+001
8.972981e+002, 2.679532e+001
8.977802e+002, 2.686978e+001
8.982623e+002, 2.691615e+001
8.987444e+002, 2.690668e+001
8.992266e+002, 2.687893e+001
8.997087e+002, 2.683722e+001
9.001908e+002, 2.682989e+001
9.006729e+002, 2.696157e+001
9.011550e+002, 2.724961e+001
9.016371e+002, 2.725968e+001
9.021193e+002, 2.673765e+001
9.026014e+002, 2.641234e+001
9.030835e+002, 2.662598e+001
9.035656e+002, 2.687339e+001
9.040477e+002, 2.675401e+001
9.045298e+002, 2.641134e+001
9.050120e+002, 2.621517e+001
9.054941e+002, 2.622314e+001
9.059762e+002, 2.632544e+001
9.064583e+002, 2.662561e+001
9.069404e+002, 2.687537e+001
9.074225e+002, 2.690757e+001
9.079047e+002, 2.680503e+001
9.083868e+002, 2.663321e+001
9.088689e+002, 2.644085e+001
9.093510e+002, 2.637510e+001
9.098331e+002, 2.657669e+001
9.103152e+002, 2.685575e+001
9.107974e+002, 2.707725e+001
9.112795e+002, 2.721464e+001
9.117616e+002, 2.717533e+001
9.122437e+002, 2.698975e+001
9.127258e+002, 2.681860e+001
9.132079e+002, 2.673792e+001
9.136901e+002, 2.669937e+001
9.141722e+002, 2.661596e+001
9.146543e+002, 2.651546e+001
9.151364e+002, 2.658332e+001
9.156185e+002, 2.682633e+001
9.161006e+002, 2.707227e+001
9.165828e+002, 2.731142e+001
9.170649e+002, 2.738013e+001
9.175470e+002, 2.709241e+001
9.180291e+002, 2.657219e+001
9.185112e+002, 2.627300e+001
9.189933e+002, 2.626080e+001
9.194755e+002, 2.630602e+001
9.199576e+002, 2.652920e+001
9.204397e+002, 2.663469e+001
9.209218e+002, 2.638646e+001
9.214039e+002, 2.603979e+001
9.218860e+002, 2.583361e+001
9.223682e+002, 2.577528e+001
9.228503e+002, 2.588717e+001
9.233324e+002, 2.650248e+001
9.238145e+002, 2.684183e+001
9.242966e+002, 2.636527e+001
9.247787e+002, 2.581775e+001
9.252609e+002, 2.583098e+001
9.257430e+002, 2.622659e+001
9.262251e+002, 2.655351e+001
9.267072e+002, 2.667961e+001
9.271893e+002, 2.674110e+001
9.276714e+002, 2.681804e+001
9.281536e+002, 2.688093e+001
9.286357e+002, 2.689094e+001
9.291178e+002, 2.686776e+001
9.295999e+002, 2.684439e+001
9.300820e+002, 2.682975e+001
9.305641e+002, 2.683740e+001
9.310463e+002, 2.688494e+001
9.315284e+002, 2.690772e+001
9.320105e+002, 2.674685e+001
9.324926e+002, 2.647049e+001
9.329747e+002, 2.638471e+001
9.334568e+002, 2.649541e+001
9.339390e+002, 2.660306e+001
9.344211e+002, 2.663081e+001
9.349032e+002, 2.667251e+001
9.353853e+002, 2.685730e+001
9.358674e+002, 2.712884e+001
9.363495e+002, 2.709992e+001
9.368317e+002, 2.664133e+001
9.373138e+002, 2.647063e+001
9.377959e+002, 2.678016e+001
9.382780e+002, 2.713985e+001
9.387601e+002, 2.734158e+001
9.392422e+002, 2.743016e+001
9.397244e+002, 2.749945e+001
9.402065e+002, 2.757461e+001
9.406886e+002, 2.747961e+001
9.411707e+002, 2.705713e+001
9.416528e+002, 2.668518e+001
9.421349e+002, 2.622633e+001
9.426171e+002, 2.602833e+001
9.430992e+002, 2.657742e+001
9.435813e+002, 2.756161e+001
9.440634e+002, 2.817903e+001
9.445455e+002, 2.823942e+001
9.450276e+002, 2.806987e+001
9.455098e+002, 2.753023e+001
9.459919e+002, 2.706991e+001
9.464740e+002, 2.708145e+001
9.469561e+002, 2.730686e+001
9.474382e+002, 2.740604e+001
9.479203e+002, 2.733101e+001
9.484025e+002, 2.719904e+001
9.488846e+002, 2.705433e+001
9.493667e+002, 2.692150e+001
9.498488e+002, 2.687196e+001
9.503309e+002, 2.682117e+001
9.508130e+002, 2.657810e+001
9.512952e+002, 2.621018e+001
9.517773e+002, 2.595204e+001
9.522594e+002, 2.588543e+001
9.527415e+002, 2.595757e+001
9.532236e+002, 2.615474e+001
9.537057e+002, 2.640858e+001
9.541878e+002, 2.656293e+001
9.546699e+002, 2.662268e+001
9.551520e+002, 2.661107e+001
9.556342e+002, 2.653151e+001
9.561163e+002, 2.642105e+001
9.565984e+002, 2.629984e+001
9.570805e+002, 2.615269e+001
9.575626e+002, 2.593879e+001
9.580447e+002, 2.566012e+001
9.585269e+002, 2.551134e+001
9.590090e+002, 2.551369e+001
9.594911e+002, 2.556157e+001
9.599732e+002, 2.565691e+001
9.604553e+002, 2.573661e+001
9.609374e+002, 2.574966e+001
9.614196e+002, 2.571357e+001
9.619017e+002, 2.567728e+001
9.623838e+002, 2.564416e+001
9.628659e+002, 2.560064e+001
9.633480e+002, 2.558352e+001
9.638301e+002, 2.550452e+001
9.643123e+002, 2.531121e+001
9.647944e+002, 2.507220e+001
9.652765e+002, 2.474710e+001
9.657586e+002, 2.440927e+001
9.662407e+002, 2.439032e+001
9.667228e+002, 2.494538e+001
9.672050e+002, 2.538227e+001
9.676871e+002, 2.550100e+001
9.681692e+002, 2.552065e+001
9.686513e+002, 2.556479e+001
9.691334e+002, 2.558647e+001
9.696155e+002, 2.543181e+001
9.700977e+002, 2.513801e+001
9.705798e+002, 2.507291e+001
9.710619e+002, 2.557586e+001
9.715440e+002, 2.605931e+001
9.720261e+002, 2.597542e+001
9.725082e+002, 2.582438e+001
9.729904e+002, 2.633934e+001
9.734725e+002, 2.719211e+001
9.739546e+002, 2.749446e+001
9.744367e+002, 2.702243e+001
9.749188e+002, 2.645883e+001
9.754009e+002, 2.633146e+001
9.758831e+002, 2.642104e+001
9.763652e+002, 2.651702e+001
9.768473e+002, 2.657829e+001
9.773294e+002, 2.647097e+001
9.778115e+002, 2.622260e+001
9.782936e+002, 2.602526e+001
9.787758e+002, 2.596943e+001
9.792579e+002, 2.602627e+001
9.797400e+002, 2.621240e+001
9.802221e+002, 2.646374e+001
9.807042e+002, 2.653113e+001
9.811863e+002, 2.644076e+001
9.816685e+002, 2.640250e+001
9.821506e+002, 2.645799e+001
9.826327e+002, 2.656791e+001
9.831148e+002, 2.671651e+001
9.835969e+002, 2.685874e+001
9.840790e+002, 2.691568e+001
9.845612e+002, 2.688765e+001
9.850433e+002, 2.674817e+001
9.855254e+002, 2.647298e+001
9.860075e+002, 2.621665e+001
9.864896e+002, 2.599390e+001
9.869717e+002, 2.587981e+001
9.874539e+002, 2.594667e+001
9.879360e+002, 2.615964e+001
9.884181e+002, 2.644287e+001
9.889002e+002, 2.691257e+001
9.893823e+002, 2.701364e+001
9.898644e+002, 2.653771e+001
9.903466e+002, 2.608425e+001
9.908287e+002, 2.573312e+001
9.913108e+002, 2.559815e+001
9.917929e+002, 2.592698e+001
9.922750e+002, 2.660337e+001
9.927571e+002, 2.692576e+001
9.932393e+002, 2.667373e+001
9.937214e+002, 2.646620e+001
9.942035e+002, 2.629417e+001
9.946856e+002, 2.618833e+001
9.951677e+002, 2.616702e+001
9.956498e+002, 2.621373e+001
9.961320e+002, 2.637359e+001
9.966141e+002, 2.661024e+001
9.970962e+002, 2.667541e+001
9.975783e+002, 2.637066e+001
9.980604e+002, 2.614428e+001
9.985425e+002, 2.612698e+001
9.990247e+002, 2.620276e+001
9.995068e+002, 2.636057e+001
9.999889e+002, 2.653354e+001
1.000471e+003, 2.661695e+001
1.000953e+003, 2.661068e+001
1.001435e+003, 2.665202e+001
1.001917e+003, 2.694148e+001
1.002399e+003, 2.707107e+001
1.002882e+003, 2.662382e+001
1.003364e+003, 2.608582e+001
1.003846e+003, 2.592125e+001
1.004328e+003, 2.601924e+001
1.004810e+003, 2.610986e+001
1.005292e+003, 2.611693e+001
1.005774e+003, 2.607067e+001
1.006256e+003, 2.603058e+001
1.006739e+003, 2.589015e+001
1.007221e+003, 2.526071e+001
1.007703e+003, 2.464931e+001
1.008185e+003, 2.499370e+001
1.008667e+003, 2.600938e+001
1.009149e+003, 2.669044e+001
1.009631e+003, 2.669162e+001
1.010113e+003, 2.646651e+001
1.010595e+003, 2.636386e+001
1.011078e+003, 2.631829e+001
1.011560e+003, 2.625991e+001
1.012042e+003, 2.617322e+001
1.012524e+003, 2.596665e+001
1.013006e+003, 2.568024e+001
1.013488e+003, 2.553576e+001
1.013970e+003, 2.562802e+001
1.014452e+003, 2.582789e+001
1.014935e+003, 2.604093e+001
1.015417e+003, 2.621442e+001
1.015899e+003, 2.617572e+001
1.016381e+003, 2.597101e+001
1.016863e+003, 2.583503e+001
1.017345e+003, 2.579239e+001
1.017827e+003, 2.566470e+001
1.018309e+003, 2.535355e+001
1.018791e+003, 2.504484e+001
1.019274e+003, 2.504157e+001
1.019756e+003, 2.524897e+001
1.020238e+003, 2.514850e+001
1.020720e+003, 2.475693e+001
1.021202e+003, 2.452514e+001
1.021684e+003, 2.453688e+001
1.022166e+003, 2.461749e+001
1.022648e+003, 2.468305e+001
1.023130e+003, 2.467764e+001
1.023613e+003, 2.448178e+001
1.024095e+003, 2.411352e+001
1.024577e+003, 2.388297e+001
1.025059e+003, 2.379777e+001
1.025541e+003, 2.380085e+001
1.026023e+003, 2.389514e+001
1.026505e+003, 2.403693e+001
1.026987e+003, 2.424233e+001
1.027469e+003, 2.437580e+001
1.027952e+003, 2.412420e+001
1.028434e+003, 2.345256e+001
1.028916e+003, 2.328175e+001
1.029398e+003, 2.380145e+001
1.029880e+003, 2.416437e+001
1.030362e+003, 2.423489e+001
1.030844e+003, 2.404947e+001
1.031326e+003, 2.352440e+001
1.031809e+003, 2.286750e+001
1.032291e+003, 2.244624e+001
1.032773e+003, 2.221478e+001
1.033255e+003, 2.269474e+001
1.033737e+003, 2.462575e+001
1.034219e+003, 2.559167e+001
1.034701e+003, 2.451507e+001
1.035183e+003, 2.333328e+001
1.035666e+003, 2.345697e+001
1.036148e+003, 2.426158e+001
1.036630e+003, 2.439568e+001
1.037112e+003, 2.367691e+001
1.037594e+003, 2.331329e+001
1.038076e+003, 2.350660e+001
1.038558e+003, 2.373725e+001
1.039040e+003, 2.398683e+001
1.039522e+003, 2.417147e+001
1.040005e+003, 2.424885e+001
1.040487e+003, 2.421877e+001
1.040969e+003, 2.402885e+001
1.041451e+003, 2.359522e+001
1.041933e+003, 2.344208e+001
1.042415e+003, 2.385636e+001
1.042897e+003, 2.416152e+001
1.043379e+003, 2.427366e+001
1.043861e+003, 2.420048e+001
1.044344e+003, 2.374190e+001
1.044826e+003, 2.316996e+001
1.045308e+003, 2.304196e+001
1.045790e+003, 2.345749e+001
1.046272e+003, 2.385328e+001
1.046754e+003, 2.427552e+001
1.047236e+003, 2.452583e+001
1.047718e+003, 2.439193e+001
1.048201e+003, 2.422931e+001
1.048683e+003, 2.438129e+001
1.049165e+003, 2.464335e+001
1.049647e+003, 2.454869e+001
1.050129e+003, 2.399733e+001
1.050611e+003, 2.369241e+001
1.051093e+003, 2.400478e+001
1.051575e+003, 2.426028e+001
1.052057e+003, 2.418838e+001
1.052540e+003, 2.405856e+001
1.053022e+003, 2.402450e+001
1.053504e+003, 2.409262e+001
1.053986e+003, 2.433852e+001
1.054468e+003, 2.478417e+001
1.054950e+003, 2.488922e+001
1.055432e+003, 2.411827e+001
1.055914e+003, 2.351749e+001
1.056396e+003, 2.344676e+001
1.056879e+003, 2.367289e+001
1.057361e+003, 2.424714e+001
1.057843e+003, 2.489448e+001
1.058325e+003, 2.510210e+001
1.058807e+003, 2.480720e+001
1.059289e+003, 2.471527e+001
1.059771e+003, 2.542477e+001
1.060253e+003, 2.587772e+001
1.060736e+003, 2.541462e+001
1.061218e+003, 2.479926e+001
1.061700e+003, 2.459246e+001
1.062182e+003, 2.465155e+001
1.062664e+003, 2.469265e+001
1.063146e+003, 2.466660e+001
1.063628e+003, 2.463233e+001
1.064110e+003, 2.453060e+001
1.064593e+003, 2.453900e+001
1.065075e+003, 2.492887e+001
1.065557e+003, 2.526037e+001
1.066039e+003, 2.513748e+001
1.066521e+003, 2.475843e+001
1.067003e+003, 2.435352e+001
1.067485e+003, 2.401241e+001
1.067967e+003, 2.400313e+001
1.068449e+003, 2.462555e+001
1.068932e+003, 2.524730e+001
1.069414e+003, 2.568929e+001
1.069896e+003, 2.591929e+001
1.070378e+003, 2.588577e+001
1.070860e+003, 2.564302e+001
1.071342e+003, 2.511165e+001
1.071824e+003, 2.439990e+001
1.072306e+003, 2.406898e+001
1.072788e+003, 2.446786e+001
1.073271e+003, 2.494374e+001
1.073753e+003, 2.519299e+001
1.074235e+003, 2.541044e+001
1.074717e+003, 2.585112e+001
1.075199e+003, 2.627571e+001
1.075681e+003, 2.627397e+001
1.076163e+003, 2.591416e+001
1.076645e+003, 2.571362e+001
1.077127e+003, 2.588960e+001
1.077610e+003, 2.610699e+001
1.078092e+003, 2.608402e+001
1.078574e+003, 2.618904e+001
1.079056e+003, 2.692266e+001
1.079538e+003, 2.775206e+001
1.080020e+003, 2.791054e+001
1.080502e+003, 2.755433e+001
1.080984e+003, 2.747937e+001
1.081467e+003, 2.797281e+001
1.081949e+003, 2.853827e+001
1.082431e+003, 2.901307e+001
1.082913e+003, 2.942525e+001
1.083395e+003, 2.967525e+001
1.083877e+003, 2.995960e+001
1.084359e+003, 3.063595e+001
1.084841e+003, 3.150391e+001
1.085323e+003, 3.202720e+001
1.085806e+003, 3.206157e+001
1.086288e+003, 3.177488e+001
1.086770e+003, 3.108741e+001
1.087252e+003, 3.028387e+001
1.087734e+003, 2.945802e+001
1.088216e+003, 2.862221e+001
1.088698e+003, 2.766228e+001
1.089180e+003, 2.673721e+001
1.089662e+003, 2.622924e+001
1.090145e+003, 2.621374e+001
1.090627e+003, 2.616287e+001
1.091109e+003, 2.577220e+001
1.091591e+003, 2.544615e+001
1.092073e+003, 2.534745e+001
1.092555e+003, 2.538983e+001
1.093037e+003, 2.568242e+001
1.093519e+003, 2.598585e+001
1.094002e+003, 2.584795e+001
1.094484e+003, 2.524543e+001
1.094966e+003, 2.477086e+001
1.095448e+003, 2.467965e+001
1.095930e+003, 2.464287e+001
1.096412e+003, 2.453963e+001
1.096894e+003, 2.447215e+001
1.097376e+003, 2.455544e+001
1.097859e+003, 2.468299e+001
1.098341e+003, 2.466805e+001
1.098823e+003, 2.453436e+001
1.099305e+003, 2.454776e+001
1.099787e+003, 2.484892e+001
1.100269e+003, 2.513317e+001
1.100751e+003, 2.534347e+001
1.101233e+003, 2.549293e+001
1.101715e+003, 2.561407e+001
1.102198e+003, 2.565872e+001
1.102680e+003, 2.552276e+001
1.103162e+003, 2.526257e+001
1.103644e+003, 2.509375e+001
1.104126e+003, 2.507245e+001
1.104608e+003, 2.506122e+001
1.105090e+003, 2.509459e+001
1.105572e+003, 2.505832e+001
1.106054e+003, 2.477376e+001
1.106537e+003, 2.453124e+001
1.107019e+003, 2.469866e+001
1.107501e+003, 2.505989e+001
1.107983e+003, 2.502052e+001
1.108465e+003, 2.442232e+001
1.108947e+003, 2.409335e+001
1.109429e+003, 2.427858e+001
1.109911e+003, 2.449217e+001
1.110394e+003, 2.479973e+001
1.110876e+003, 2.493774e+001
1.111358e+003, 2.461277e+001
1.111840e+003, 2.408105e+001
1.112322e+003, 2.375116e+001
1.112804e+003, 2.363473e+001
1.113286e+003, 2.359125e+001
1.113768e+003, 2.374596e+001
1.114250e+003, 2.376455e+001
1.114733e+003, 2.356021e+001
1.115215e+003, 2.330140e+001
1.115697e+003, 2.298258e+001
1.116179e+003, 2.271583e+001
1.116661e+003, 2.265502e+001
1.117143e+003, 2.277136e+001
1.117625e+003, 2.285748e+001
1.118107e+003, 2.295904e+001
1.118589e+003, 2.290373e+001
1.119072e+003, 2.253152e+001
1.119554e+003, 2.233735e+001
1.120036e+003, 2.259107e+001
1.120518e+003, 2.287700e+001
1.121000e+003, 2.278839e+001
1.121482e+003, 2.249692e+001
1.121964e+003, 2.253855e+001
1.122446e+003, 2.300693e+001
1.122929e+003, 2.322372e+001
1.123411e+003, 2.311459e+001
1.123893e+003, 2.301036e+001
1.124375e+003, 2.299145e+001
1.124857e+003, 2.295278e+001
1.125339e+003, 2.281595e+001
1.125821e+003, 2.264704e+001
1.126303e+003, 2.257333e+001
1.126786e+003, 2.258433e+001
1.127268e+003, 2.245237e+001
1.127750e+003, 2.214267e+001
1.128232e+003, 2.203825e+001
1.128714e+003, 2.221949e+001
1.129196e+003, 2.238193e+001
1.129678e+003, 2.239259e+001
1.130160e+003, 2.228790e+001
1.130642e+003, 2.207454e+001
1.131125e+003, 2.183221e+001
1.131607e+003, 2.190595e+001
1.132089e+003, 2.226791e+001
1.132571e+003, 2.239332e+001
1.133053e+003, 2.225898e+001
1.133535e+003, 2.215203e+001
1.134017e+003, 2.216026e+001
1.134499e+003, 2.215266e+001
1.134981e+003, 2.201745e+001
1.135464e+003, 2.185936e+001
1.135946e+003, 2.192026e+001
1.136428e+003, 2.211501e+001
1.136910e+003, 2.204955e+001
1.137392e+003, 2.179860e+001
1.137874e+003, 2.179937e+001
1.138356e+003, 2.208667e+001
1.138838e+003, 2.226564e+001
1.139321e+003, 2.213377e+001
1.139803e+003, 2.192534e+001
1.140285e+003, 2.184687e+001
1.140767e+003, 2.191921e+001
1.141249e+003, 2.236909e+001
1.141731e+003, 2.292249e+001
1.142213e+003, 2.281838e+001
1.142695e+003, 2.222750e+001
1.143177e+003, 2.201917e+001
1.143660e+003, 2.241663e+001
1.144142e+003, 2.278114e+001
1.144624e+003, 2.264640e+001
1.145106e+003, 2.232999e+001
1.145588e+003, 2.210686e+001
1.146070e+003, 2.194127e+001
1.146552e+003, 2.169983e+001
1.147034e+003, 2.152177e+001
1.147516e+003, 2.180868e+001
1.147999e+003, 2.245514e+001
1.148481e+003, 2.277713e+001
1.148963e+003, 2.245325e+001
1.149445e+003, 2.199039e+001
1.149927e+003, 2.161984e+001
1.150409e+003, 2.132388e+001
1.150891e+003, 2.106503e+001
1.151373e+003, 2.089284e+001
1.151856e+003, 2.084662e+001
1.152338e+003, 2.093712e+001
1.152820e+003, 2.123437e+001
1.153302e+003, 2.175027e+001
1.153784e+003, 2.211619e+001
1.154266e+003, 2.218497e+001
1.154748e+003, 2.211988e+001
1.155230e+003, 2.187247e+001
1.155713e+003, 2.162048e+001
1.156195e+003, 2.147961e+001
1.156677e+003, 2.139468e+001
1.157159e+003, 2.123550e+001
1.157641e+003, 2.103590e+001
1.158123e+003, 2.107635e+001
1.158605e+003, 2.160995e+001
1.159087e+003, 2.189639e+001
1.159569e+003, 2.176477e+001
1.160052e+003, 2.155072e+001
1.160534e+003, 2.123364e+001
1.161016e+003, 2.098770e+001
1.161498e+003, 2.097955e+001
1.161980e+003, 2.111280e+001
1.162462e+003, 2.118371e+001
1.162944e+003, 2.118977e+001
1.163426e+003, 2.114784e+001
1.163908e+003, 2.099149e+001
1.164391e+003, 2.100092e+001
1.164873e+003, 2.127976e+001
1.165355e+003, 2.151821e+001
1.165837e+003, 2.154008e+001
1.166319e+003, 2.155411e+001
1.166801e+003, 2.186124e+001
1.167283e+003, 2.231186e+001
1.167765e+003, 2.216696e+001
1.168247e+003, 2.138911e+001
1.168730e+003, 2.129329e+001
1.169212e+003, 2.195948e+001
1.169694e+003, 2.235609e+001
1.170176e+003, 2.219804e+001
1.170658e+003, 2.190038e+001
1.171140e+003, 2.174405e+001
1.171622e+003, 2.163386e+001
1.172104e+003, 2.132511e+001
1.172587e+003, 2.097065e+001
1.173069e+003, 2.121706e+001
1.173551e+003, 2.187011e+001
1.174033e+003, 2.218387e+001
1.174515e+003, 2.211355e+001
1.174997e+003, 2.198358e+001
1.175479e+003, 2.192138e+001
1.175961e+003, 2.186921e+001
1.176443e+003, 2.174846e+001
1.176926e+003, 2.168284e+001
1.177408e+003, 2.196833e+001
1.177890e+003, 2.230219e+001
1.178372e+003, 2.220645e+001
1.178854e+003, 2.182464e+001
1.179336e+003, 2.141471e+001
1.179818e+003, 2.107123e+001
1.180300e+003, 2.092222e+001
1.180782e+003, 2.104048e+001
1.181265e+003, 2.118712e+001
1.181747e+003, 2.124516e+001
1.182229e+003, 2.125022e+001
1.182711e+003, 2.118146e+001
1.183193e+003, 2.110993e+001
1.183675e+003, 2.104560e+001
1.184157e+003, 2.105318e+001
1.184639e+003, 2.133094e+001
1.185122e+003, 2.187372e+001
1.185604e+003, 2.212375e+001
1.186086e+003, 2.168635e+001
1.186568e+003, 2.138485e+001
1.187050e+003, 2.148722e+001
1.187532e+003, 2.158747e+001
1.188014e+003, 2.142999e+001
1.188496e+003, 2.127181e+001
1.188979e+003, 2.142081e+001
1.189461e+003, 2.173787e+001
1.189943e+003, 2.179911e+001
1.190425e+003, 2.153845e+001
1.190907e+003, 2.142716e+001
1.191389e+003, 2.156986e+001
1.191871e+003, 2.153796e+001
1.192353e+003, 2.115712e+001
1.192835e+003, 2.093447e+001
1.193318e+003, 2.117879e+001
1.193800e+003, 2.153152e+001
1.194282e+003, 2.152955e+001
1.194764e+003, 2.130027e+001
1.195246e+003, 2.138309e+001
1.195728e+003, 2.176151e+001
1.196210e+003, 2.200526e+001
1.196692e+003, 2.209488e+001
1.197174e+003, 2.206936e+001
1.197657e+003, 2.194349e+001
1.198139e+003, 2.178882e+001
1.198621e+003, 2.164812e+001
1.199103e+003, 2.152138e+001
1.199585e+003, 2.137678e+001
1.200067e+003, 2.127139e+001
1.200549e+003, 2.139910e+001
1.201031e+003, 2.162185e+001
1.201514e+003, 2.159974e+001
1.201996e+003, 2.138684e+001
1.202478e+003, 2.123445e+001
1.202960e+003, 2.121541e+001
1.203442e+003, 2.127126e+001
1.203924e+003, 2.136886e+001
1.204406e+003, 2.152861e+001
1.204888e+003, 2.191822e+001
1.205370e+003, 2.221266e+001
1.205853e+003, 2.202846e+001
1.206335e+003, 2.167399e+001
1.206817e+003, 2.149931e+001
1.207299e+003, 2.149548e+001
1.207781e+003, 2.152640e+001
1.208263e+003, 2.156532e+001
1.208745e+003, 2.164569e+001
1.209227e+003, 2.187660e+001
1.209709e+003, 2.199728e+001
1.210192e+003, 2.186944e+001
1.210674e+003, 2.171951e+001
1.211156e+003, 2.165836e+001
1.211638e+003, 2.163117e+001
1.212120e+003, 2.160089e+001
1.212602e+003, 2.155483e+001
1.213084e+003, 2.144343e+001
1.213566e+003, 2.125637e+001
1.214049e+003, 2.102867e+001
1.214531e+003, 2.069416e+001
1.215013e+003, 2.060869e+001
1.215495e+003, 2.088389e+001
1.215977e+003, 2.120769e+001
1.216459e+003, 2.142663e+001
1.216941e+003, 2.155093e+001
1.217423e+003, 2.158245e+001
1.217906e+003, 2.154561e+001
1.218388e+003, 2.147647e+001
1.218870e+003, 2.140515e+001
1.219352e+003, 2.158028e+001
1.219834e+003, 2.192225e+001
1.220316e+003, 2.183026e+001
1.220798e+003, 2.128508e+001
1.221280e+003, 2.119034e+001
1.221762e+003, 2.205842e+001
1.222245e+003, 2.287393e+001
1.222727e+003, 2.236602e+001
1.223209e+003, 2.151899e+001
1.223691e+003, 2.140701e+001
1.224173e+003, 2.168217e+001
1.224655e+003, 2.208730e+001
1.225137e+003, 2.242434e+001
1.225619e+003, 2.233978e+001
1.226101e+003, 2.185764e+001
1.226584e+003, 2.145033e+001
1.227066e+003, 2.122803e+001
1.227548e+003, 2.125622e+001
1.228030e+003, 2.186548e+001
1.228512e+003, 2.232541e+001
1.228994e+003, 2.217409e+001
1.229476e+003, 2.190835e+001
1.229958e+003, 2.202895e+001
1.230441e+003, 2.224540e+001
1.230923e+003, 2.191651e+001
1.231405e+003, 2.107238e+001
1.231887e+003, 2.083199e+001
1.232369e+003, 2.146791e+001
1.232851e+003, 2.184909e+001
1.233333e+003, 2.182670e+001
1.233815e+003, 2.196062e+001
1.234297e+003, 2.249907e+001
1.234780e+003, 2.283932e+001
1.235262e+003, 2.249776e+001
1.235744e+003, 2.190133e+001
1.236226e+003, 2.179815e+001
1.236708e+003, 2.205998e+001
1.237190e+003, 2.219772e+001
1.237672e+003, 2.220690e+001
1.238154e+003, 2.205775e+001
1.238636e+003, 2.175899e+001
1.239119e+003, 2.125518e+001
1.239601e+003, 2.060199e+001
1.240083e+003, 2.027356e+001
1.240565e+003, 2.061245e+001
1.241047e+003, 2.115448e+001
1.241529e+003, 2.157317e+001
1.242011e+003, 2.185392e+001
1.242493e+003, 2.195737e+001
1.242975e+003, 2.193957e+001
1.243458e+003, 2.177455e+001
1.243940e+003, 2.158042e+001
1.244422e+003, 2.158178e+001
1.244904e+003, 2.180732e+001
1.245386e+003, 2.210819e+001
1.245868e+003, 2.273770e+001
1.246350e+003, 2.289813e+001
1.246832e+003, 2.188825e+001
1.247315e+003, 2.116251e+001
1.247797e+003, 2.145789e+001
1.248279e+003, 2.189046e+001
1.248761e+003, 2.177870e+001
1.249243e+003, 2.146899e+001
1.249725e+003, 2.162274e+001
1.250207e+003, 2.220200e+001
1.250689e+003, 2.255671e+001
1.251172e+003, 2.268007e+001
1.251654e+003, 2.260024e+001
1.252136e+003, 2.230892e+001
1.252618e+003, 2.213217e+001
1.253100e+003, 2.216684e+001
1.253582e+003, 2.215052e+001
1.254064e+003, 2.189619e+001
1.254546e+003, 2.157847e+001
1.255028e+003, 2.142353e+001
1.255510e+003, 2.138782e+001
1.255993e+003, 2.144886e+001
1.256475e+003, 2.153670e+001
1.256957e+003, 2.146382e+001
1.257439e+003, 2.131756e+001
1.257921e+003, 2.139444e+001
1.258403e+003, 2.169478e+001
1.258885e+003, 2.183046e+001
1.259367e+003, 2.157911e+001
1.259850e+003, 2.136909e+001
1.260332e+003, 2.147529e+001
1.260814e+003, 2.156960e+001
1.261296e+003, 2.140460e+001
1.261778e+003, 2.126165e+001
1.262260e+003, 2.138972e+001
1.262742e+003, 2.166697e+001
1.263224e+003, 2.193689e+001
1.263707e+003, 2.217833e+001
1.264189e+003, 2.219670e+001
1.264671e+003, 2.188210e+001
1.265153e+003, 2.171197e+001
1.265635e+003, 2.169283e+001
1.266117e+003, 2.183860e+001
1.266599e+003, 2.218923e+001
1.267081e+003, 2.245548e+001
1.267563e+003, 2.247820e+001
1.268046e+003, 2.231901e+001
1.268528e+003, 2.201760e+001
1.269010e+003, 2.164846e+001
1.269492e+003, 2.131285e+001
1.269974e+003, 2.107503e+001
1.270456e+003, 2.117404e+001
1.270938e+003, 2.149398e+001
1.271420e+003, 2.173249e+001
1.271902e+003, 2.183698e+001
1.272385e+003, 2.187213e+001
1.272867e+003, 2.186213e+001
1.273349e+003, 2.178793e+001
1.273831e+003, 2.153930e+001
1.274313e+003, 2.136111e+001
1.274795e+003, 2.139927e+001
1.275277e+003, 2.152086e+001
1.275759e+003, 2.174954e+001
1.276242e+003, 2.192509e+001
1.276724e+003, 2.171810e+001
1.277206e+003, 2.133714e+001
1.277688e+003, 2.153164e+001
1.278170e+003, 2.242115e+001
1.278652e+003, 2.276352e+001
1.279134e+003, 2.241765e+001
1.279616e+003, 2.197818e+001
1.280099e+003, 2.142664e+001
1.280581e+003, 2.128395e+001
1.281063e+003, 2.179184e+001
1.281545e+003, 2.224611e+001
1.282027e+003, 2.206619e+001
1.282509e+003, 2.164854e+001
1.282991e+003, 2.167591e+001
1.283473e+003, 2.196684e+001
1.283955e+003, 2.213818e+001
##END=



