##NAMES=Srebrodolskite
##RRUFFID=R130096
##IDEAL CHEMISTRY=Ca_2_Fe^3+^_2_O_5_
##LOCALITY=Kopeisk, South Ural, Russia
##OWNER=RRUFF
##SOURCE=Rock Currier
##DESCRIPTION=Dark brown grains, massive, associated with calcite. P-centered confirmed by X-ray diffraction.
##STATUS=The identification of this mineral has been confirmed only by single crystal X-ray diffraction.
##URL=rruff.info/R130096
8.936163e+001, 0.000000e+000
8.984375e+001, 2.002315e+002
9.032587e+001, 2.024334e+002
9.080798e+001, 2.029031e+002
9.129010e+001, 2.011194e+002
9.177222e+001, 1.982027e+002
9.225433e+001, 1.953194e+002
9.273645e+001, 1.924602e+002
9.321857e+001, 1.896546e+002
9.370068e+001, 1.871428e+002
9.418280e+001, 1.847681e+002
9.466492e+001, 1.820024e+002
9.514703e+001, 1.781162e+002
9.562915e+001, 1.738270e+002
9.611127e+001, 1.713419e+002
9.659338e+001, 1.709235e+002
9.707550e+001, 1.710794e+002
9.755762e+001, 1.698988e+002
9.803973e+001, 1.673480e+002
9.852185e+001, 1.649079e+002
9.900397e+001, 1.631868e+002
9.948608e+001, 1.621933e+002
9.996820e+001, 1.614284e+002
1.004503e+002, 1.611189e+002
1.009324e+002, 1.607607e+002
1.014146e+002, 1.591415e+002
1.018967e+002, 1.558530e+002
1.023788e+002, 1.524297e+002
1.028609e+002, 1.496048e+002
1.033430e+002, 1.474923e+002
1.038251e+002, 1.456882e+002
1.043073e+002, 1.441553e+002
1.047894e+002, 1.429174e+002
1.052715e+002, 1.422063e+002
1.057536e+002, 1.426503e+002
1.062357e+002, 1.429236e+002
1.067178e+002, 1.420367e+002
1.072000e+002, 1.389793e+002
1.076821e+002, 1.362399e+002
1.081642e+002, 1.342517e+002
1.086463e+002, 1.330793e+002
1.091284e+002, 1.317584e+002
1.096105e+002, 1.299900e+002
1.100927e+002, 1.282003e+002
1.105748e+002, 1.268040e+002
1.110569e+002, 1.260102e+002
1.115390e+002, 1.254186e+002
1.120211e+002, 1.251673e+002
1.125032e+002, 1.255765e+002
1.129854e+002, 1.251218e+002
1.134675e+002, 1.227873e+002
1.139496e+002, 1.196239e+002
1.144317e+002, 1.171195e+002
1.149138e+002, 1.160749e+002
1.153959e+002, 1.154494e+002
1.158781e+002, 1.148704e+002
1.163602e+002, 1.145001e+002
1.168423e+002, 1.136929e+002
1.173244e+002, 1.117239e+002
1.178065e+002, 1.090759e+002
1.182886e+002, 1.069778e+002
1.187708e+002, 1.064586e+002
1.192529e+002, 1.064336e+002
1.197350e+002, 1.060374e+002
1.202171e+002, 1.046792e+002
1.206992e+002, 1.033369e+002
1.211813e+002, 1.027384e+002
1.216635e+002, 1.027684e+002
1.221456e+002, 1.028117e+002
1.226277e+002, 1.026782e+002
1.231098e+002, 1.022852e+002
1.235919e+002, 1.015156e+002
1.240740e+002, 9.999174e+001
1.245562e+002, 9.827047e+001
1.250383e+002, 9.696404e+001
1.255204e+002, 9.606384e+001
1.260025e+002, 9.530599e+001
1.264846e+002, 9.462251e+001
1.269667e+002, 9.392446e+001
1.274489e+002, 9.298965e+001
1.279310e+002, 9.134016e+001
1.284131e+002, 8.945042e+001
1.288952e+002, 8.833543e+001
1.293773e+002, 8.810803e+001
1.298594e+002, 8.822878e+001
1.303416e+002, 8.813615e+001
1.308237e+002, 8.783608e+001
1.313058e+002, 8.736565e+001
1.317879e+002, 8.660830e+001
1.322700e+002, 8.565018e+001
1.327521e+002, 8.497575e+001
1.332343e+002, 8.472358e+001
1.337164e+002, 8.458298e+001
1.341985e+002, 8.391487e+001
1.346806e+002, 8.268777e+001
1.351627e+002, 8.134349e+001
1.356448e+002, 8.002218e+001
1.361270e+002, 7.870914e+001
1.366091e+002, 7.798594e+001
1.370912e+002, 7.814075e+001
1.375733e+002, 7.883192e+001
1.380554e+002, 7.893824e+001
1.385375e+002, 7.840897e+001
1.390197e+002, 7.743471e+001
1.395018e+002, 7.586380e+001
1.399839e+002, 7.336393e+001
1.404660e+002, 7.185262e+001
1.409481e+002, 7.201304e+001
1.414302e+002, 7.366439e+001
1.419124e+002, 7.439120e+001
1.423945e+002, 7.395616e+001
1.428766e+002, 7.293027e+001
1.433587e+002, 7.179598e+001
1.438408e+002, 7.041190e+001
1.443229e+002, 6.923971e+001
1.448051e+002, 6.848600e+001
1.452872e+002, 6.824095e+001
1.457693e+002, 6.760379e+001
1.462514e+002, 6.606657e+001
1.467335e+002, 6.444492e+001
1.472156e+002, 6.382181e+001
1.476978e+002, 6.522039e+001
1.481799e+002, 6.636246e+001
1.486620e+002, 6.662444e+001
1.491441e+002, 6.564131e+001
1.496262e+002, 6.475664e+001
1.501083e+002, 6.390968e+001
1.505905e+002, 6.318187e+001
1.510726e+002, 6.271855e+001
1.515547e+002, 6.294500e+001
1.520368e+002, 6.307335e+001
1.525189e+002, 6.285650e+001
1.530010e+002, 6.211819e+001
1.534832e+002, 6.133025e+001
1.539653e+002, 6.032217e+001
1.544474e+002, 5.927243e+001
1.549295e+002, 5.860961e+001
1.554116e+002, 5.879137e+001
1.558937e+002, 5.907801e+001
1.563759e+002, 5.914446e+001
1.568580e+002, 5.894757e+001
1.573401e+002, 5.852563e+001
1.578222e+002, 5.757666e+001
1.583043e+002, 5.631848e+001
1.587864e+002, 5.555398e+001
1.592686e+002, 5.584978e+001
1.597507e+002, 5.650404e+001
1.602328e+002, 5.707625e+001
1.607149e+002, 5.794564e+001
1.611970e+002, 5.823294e+001
1.616791e+002, 5.723284e+001
1.621613e+002, 5.517693e+001
1.626434e+002, 5.350070e+001
1.631255e+002, 5.287286e+001
1.636076e+002, 5.286030e+001
1.640897e+002, 5.307722e+001
1.645718e+002, 5.399284e+001
1.650540e+002, 5.461903e+001
1.655361e+002, 5.420560e+001
1.660182e+002, 5.279497e+001
1.665003e+002, 5.156216e+001
1.669824e+002, 5.131522e+001
1.674645e+002, 5.155288e+001
1.679467e+002, 5.165804e+001
1.684288e+002, 5.105798e+001
1.689109e+002, 5.047249e+001
1.693930e+002, 5.060815e+001
1.698751e+002, 5.152551e+001
1.703572e+002, 5.222094e+001
1.708394e+002, 5.162388e+001
1.713215e+002, 5.037434e+001
1.718036e+002, 4.956151e+001
1.722857e+002, 5.005437e+001
1.727678e+002, 5.099964e+001
1.732499e+002, 5.153957e+001
1.737321e+002, 5.158562e+001
1.742142e+002, 5.152138e+001
1.746963e+002, 5.161816e+001
1.751784e+002, 5.185208e+001
1.756605e+002, 5.216808e+001
1.761426e+002, 5.241178e+001
1.766248e+002, 5.276003e+001
1.771069e+002, 5.353424e+001
1.775890e+002, 5.484292e+001
1.780711e+002, 5.625126e+001
1.785532e+002, 5.716439e+001
1.790353e+002, 5.774569e+001
1.795175e+002, 5.854404e+001
1.799996e+002, 6.004958e+001
1.804817e+002, 6.196130e+001
1.809638e+002, 6.371134e+001
1.814459e+002, 6.520274e+001
1.819280e+002, 6.661469e+001
1.824102e+002, 6.831033e+001
1.828923e+002, 7.020322e+001
1.833744e+002, 7.194922e+001
1.838565e+002, 7.306948e+001
1.843386e+002, 7.383779e+001
1.848207e+002, 7.509155e+001
1.853029e+002, 7.712763e+001
1.857850e+002, 7.937281e+001
1.862671e+002, 8.085287e+001
1.867492e+002, 8.158993e+001
1.872313e+002, 8.221500e+001
1.877134e+002, 8.293184e+001
1.881956e+002, 8.383540e+001
1.886777e+002, 8.546737e+001
1.891598e+002, 8.823022e+001
1.896419e+002, 9.141828e+001
1.901240e+002, 9.339747e+001
1.906061e+002, 9.414297e+001
1.910883e+002, 9.470025e+001
1.915704e+002, 9.580593e+001
1.920525e+002, 9.744038e+001
1.925346e+002, 9.934935e+001
1.930167e+002, 1.015910e+002
1.934988e+002, 1.039317e+002
1.939810e+002, 1.054401e+002
1.944631e+002, 1.059587e+002
1.949452e+002, 1.064748e+002
1.954273e+002, 1.074458e+002
1.959094e+002, 1.088550e+002
1.963915e+002, 1.100968e+002
1.968737e+002, 1.110486e+002
1.973558e+002, 1.117606e+002
1.978379e+002, 1.123736e+002
1.983200e+002, 1.128623e+002
1.988021e+002, 1.133689e+002
1.992842e+002, 1.139598e+002
1.997664e+002, 1.146262e+002
2.002485e+002, 1.155474e+002
2.007306e+002, 1.168268e+002
2.012127e+002, 1.183962e+002
2.016948e+002, 1.199780e+002
2.021769e+002, 1.216552e+002
2.026591e+002, 1.231265e+002
2.031412e+002, 1.239348e+002
2.036233e+002, 1.239614e+002
2.041054e+002, 1.242939e+002
2.045875e+002, 1.252243e+002
2.050696e+002, 1.266880e+002
2.055518e+002, 1.281909e+002
2.060339e+002, 1.298086e+002
2.065160e+002, 1.313023e+002
2.069981e+002, 1.323723e+002
2.074802e+002, 1.329192e+002
2.079623e+002, 1.334828e+002
2.084445e+002, 1.342601e+002
2.089266e+002, 1.352310e+002
2.094087e+002, 1.357435e+002
2.098908e+002, 1.356056e+002
2.103729e+002, 1.353656e+002
2.108550e+002, 1.356938e+002
2.113372e+002, 1.367810e+002
2.118193e+002, 1.377426e+002
2.123014e+002, 1.383640e+002
2.127835e+002, 1.386422e+002
2.132656e+002, 1.387868e+002
2.137477e+002, 1.387161e+002
2.142299e+002, 1.386258e+002
2.147120e+002, 1.387685e+002
2.151941e+002, 1.392334e+002
2.156762e+002, 1.396784e+002
2.161583e+002, 1.400267e+002
2.166404e+002, 1.402726e+002
2.171226e+002, 1.404422e+002
2.176047e+002, 1.404654e+002
2.180868e+002, 1.404931e+002
2.185689e+002, 1.407396e+002
2.190510e+002, 1.413279e+002
2.195331e+002, 1.418411e+002
2.200153e+002, 1.421139e+002
2.204974e+002, 1.420974e+002
2.209795e+002, 1.424596e+002
2.214616e+002, 1.434448e+002
2.219437e+002, 1.445598e+002
2.224258e+002, 1.451645e+002
2.229080e+002, 1.450065e+002
2.233901e+002, 1.448708e+002
2.238722e+002, 1.449116e+002
2.243543e+002, 1.451065e+002
2.248364e+002, 1.457136e+002
2.253185e+002, 1.471075e+002
2.258007e+002, 1.485541e+002
2.262828e+002, 1.490349e+002
2.267649e+002, 1.479548e+002
2.272470e+002, 1.470741e+002
2.277291e+002, 1.469684e+002
2.282112e+002, 1.477848e+002
2.286934e+002, 1.481691e+002
2.291755e+002, 1.478945e+002
2.296576e+002, 1.473863e+002
2.301397e+002, 1.472316e+002
2.306218e+002, 1.476924e+002
2.311039e+002, 1.480218e+002
2.315861e+002, 1.479919e+002
2.320682e+002, 1.475406e+002
2.325503e+002, 1.471821e+002
2.330324e+002, 1.469086e+002
2.335145e+002, 1.467402e+002
2.339966e+002, 1.466934e+002
2.344788e+002, 1.467402e+002
2.349609e+002, 1.469738e+002
2.354430e+002, 1.475066e+002
2.359251e+002, 1.484299e+002
2.364072e+002, 1.489963e+002
2.368893e+002, 1.490286e+002
2.373715e+002, 1.488496e+002
2.378536e+002, 1.488680e+002
2.383357e+002, 1.492118e+002
2.388178e+002, 1.495203e+002
2.392999e+002, 1.496697e+002
2.397820e+002, 1.496168e+002
2.402642e+002, 1.497229e+002
2.407463e+002, 1.501096e+002
2.412284e+002, 1.505469e+002
2.417105e+002, 1.507305e+002
2.421926e+002, 1.504764e+002
2.426747e+002, 1.502954e+002
2.431569e+002, 1.503114e+002
2.436390e+002, 1.505395e+002
2.441211e+002, 1.508632e+002
2.446032e+002, 1.514324e+002
2.450853e+002, 1.519674e+002
2.455674e+002, 1.520951e+002
2.460496e+002, 1.515056e+002
2.465317e+002, 1.510932e+002
2.470138e+002, 1.511398e+002
2.474959e+002, 1.517117e+002
2.479780e+002, 1.519821e+002
2.484601e+002, 1.517864e+002
2.489423e+002, 1.514623e+002
2.494244e+002, 1.514074e+002
2.499065e+002, 1.518215e+002
2.503886e+002, 1.521184e+002
2.508707e+002, 1.521581e+002
2.513528e+002, 1.519326e+002
2.518350e+002, 1.516498e+002
2.523171e+002, 1.512233e+002
2.527992e+002, 1.508355e+002
2.532813e+002, 1.506844e+002
2.537634e+002, 1.508481e+002
2.542455e+002, 1.510725e+002
2.547277e+002, 1.512875e+002
2.552098e+002, 1.514899e+002
2.556919e+002, 1.518937e+002
2.561740e+002, 1.526975e+002
2.566561e+002, 1.534491e+002
2.571382e+002, 1.536553e+002
2.576204e+002, 1.530553e+002
2.581025e+002, 1.525397e+002
2.585846e+002, 1.522722e+002
2.590667e+002, 1.522433e+002
2.595488e+002, 1.522967e+002
2.600309e+002, 1.524217e+002
2.605131e+002, 1.526442e+002
2.609952e+002, 1.530608e+002
2.614773e+002, 1.538763e+002
2.619594e+002, 1.543048e+002
2.624415e+002, 1.540756e+002
2.629236e+002, 1.532776e+002
2.634058e+002, 1.528573e+002
2.638879e+002, 1.529458e+002
2.643700e+002, 1.531858e+002
2.648521e+002, 1.532769e+002
2.653342e+002, 1.531356e+002
2.658163e+002, 1.531292e+002
2.662985e+002, 1.533321e+002
2.667806e+002, 1.537131e+002
2.672627e+002, 1.541272e+002
2.677448e+002, 1.546053e+002
2.682269e+002, 1.550434e+002
2.687090e+002, 1.553670e+002
2.691912e+002, 1.555717e+002
2.696733e+002, 1.556861e+002
2.701554e+002, 1.557088e+002
2.706375e+002, 1.556429e+002
2.711196e+002, 1.554565e+002
2.716017e+002, 1.550721e+002
2.720839e+002, 1.547770e+002
2.725660e+002, 1.548316e+002
2.730481e+002, 1.553104e+002
2.735302e+002, 1.556206e+002
2.740123e+002, 1.556208e+002
2.744944e+002, 1.554757e+002
2.749766e+002, 1.557537e+002
2.754587e+002, 1.565856e+002
2.759408e+002, 1.573353e+002
2.764229e+002, 1.575607e+002
2.769050e+002, 1.572238e+002
2.773871e+002, 1.568640e+002
2.778693e+002, 1.564754e+002
2.783514e+002, 1.561355e+002
2.788335e+002, 1.560501e+002
2.793156e+002, 1.562539e+002
2.797977e+002, 1.565059e+002
2.802798e+002, 1.567199e+002
2.807620e+002, 1.568947e+002
2.812441e+002, 1.568837e+002
2.817262e+002, 1.566285e+002
2.822083e+002, 1.562744e+002
2.826904e+002, 1.560634e+002
2.831725e+002, 1.559977e+002
2.836547e+002, 1.560251e+002
2.841368e+002, 1.561136e+002
2.846189e+002, 1.562657e+002
2.851010e+002, 1.565704e+002
2.855831e+002, 1.570741e+002
2.860652e+002, 1.576039e+002
2.865474e+002, 1.579389e+002
2.870295e+002, 1.580795e+002
2.875116e+002, 1.580448e+002
2.879937e+002, 1.577086e+002
2.884758e+002, 1.571543e+002
2.889579e+002, 1.568961e+002
2.894401e+002, 1.569520e+002
2.899222e+002, 1.571870e+002
2.904043e+002, 1.575168e+002
2.908864e+002, 1.579216e+002
2.913685e+002, 1.582394e+002
2.918506e+002, 1.584189e+002
2.923328e+002, 1.584638e+002
2.928149e+002, 1.583052e+002
2.932970e+002, 1.579219e+002
2.937791e+002, 1.575802e+002
2.942612e+002, 1.576723e+002
2.947433e+002, 1.580769e+002
2.952255e+002, 1.582901e+002
2.957076e+002, 1.579559e+002
2.961897e+002, 1.574328e+002
2.966718e+002, 1.575780e+002
2.971539e+002, 1.583713e+002
2.976360e+002, 1.590905e+002
2.981182e+002, 1.589369e+002
2.986003e+002, 1.582243e+002
2.990824e+002, 1.577423e+002
2.995645e+002, 1.577672e+002
3.000466e+002, 1.580536e+002
3.005287e+002, 1.582395e+002
3.010109e+002, 1.583495e+002
3.014930e+002, 1.585696e+002
3.019751e+002, 1.592802e+002
3.024572e+002, 1.601468e+002
3.029393e+002, 1.605224e+002
3.034214e+002, 1.600709e+002
3.039036e+002, 1.594658e+002
3.043857e+002, 1.595335e+002
3.048678e+002, 1.601034e+002
3.053499e+002, 1.605495e+002
3.058320e+002, 1.603315e+002
3.063141e+002, 1.598347e+002
3.067963e+002, 1.595029e+002
3.072784e+002, 1.593987e+002
3.077605e+002, 1.594865e+002
3.082426e+002, 1.598829e+002
3.087247e+002, 1.604592e+002
3.092068e+002, 1.609079e+002
3.096890e+002, 1.609322e+002
3.101711e+002, 1.608368e+002
3.106532e+002, 1.609142e+002
3.111353e+002, 1.612363e+002
3.116174e+002, 1.615037e+002
3.120995e+002, 1.615173e+002
3.125817e+002, 1.613454e+002
3.130638e+002, 1.611019e+002
3.135459e+002, 1.607782e+002
3.140280e+002, 1.604357e+002
3.145101e+002, 1.600015e+002
3.149922e+002, 1.594485e+002
3.154744e+002, 1.592451e+002
3.159565e+002, 1.600260e+002
3.164386e+002, 1.611517e+002
3.169207e+002, 1.618842e+002
3.174028e+002, 1.617185e+002
3.178849e+002, 1.613822e+002
3.183671e+002, 1.611537e+002
3.188492e+002, 1.610337e+002
3.193313e+002, 1.608798e+002
3.198134e+002, 1.603639e+002
3.202955e+002, 1.599389e+002
3.207776e+002, 1.599685e+002
3.212598e+002, 1.612363e+002
3.217419e+002, 1.622108e+002
3.222240e+002, 1.623779e+002
3.227061e+002, 1.618813e+002
3.231882e+002, 1.614886e+002
3.236703e+002, 1.613011e+002
3.241525e+002, 1.612847e+002
3.246346e+002, 1.614373e+002
3.251167e+002, 1.621033e+002
3.255988e+002, 1.624666e+002
3.260809e+002, 1.622733e+002
3.265630e+002, 1.617108e+002
3.270452e+002, 1.612898e+002
3.275273e+002, 1.610539e+002
3.280094e+002, 1.609598e+002
3.284915e+002, 1.610264e+002
3.289736e+002, 1.614094e+002
3.294557e+002, 1.616095e+002
3.299379e+002, 1.615948e+002
3.304200e+002, 1.614063e+002
3.309021e+002, 1.610791e+002
3.313842e+002, 1.602342e+002
3.318663e+002, 1.597533e+002
3.323484e+002, 1.600187e+002
3.328306e+002, 1.612080e+002
3.333127e+002, 1.619225e+002
3.337948e+002, 1.619747e+002
3.342769e+002, 1.617173e+002
3.347590e+002, 1.615063e+002
3.352411e+002, 1.612868e+002
3.357233e+002, 1.612483e+002
3.362054e+002, 1.615130e+002
3.366875e+002, 1.620530e+002
3.371696e+002, 1.623003e+002
3.376517e+002, 1.621071e+002
3.381339e+002, 1.619113e+002
3.386160e+002, 1.621714e+002
3.390981e+002, 1.630511e+002
3.395802e+002, 1.635598e+002
3.400623e+002, 1.634617e+002
3.405444e+002, 1.629345e+002
3.410266e+002, 1.625858e+002
3.415087e+002, 1.624384e+002
3.419908e+002, 1.623226e+002
3.424729e+002, 1.621085e+002
3.429550e+002, 1.617966e+002
3.434371e+002, 1.615330e+002
3.439193e+002, 1.612994e+002
3.444014e+002, 1.611739e+002
3.448835e+002, 1.613567e+002
3.453656e+002, 1.618458e+002
3.458477e+002, 1.623682e+002
3.463298e+002, 1.629610e+002
3.468120e+002, 1.635186e+002
3.472941e+002, 1.633981e+002
3.477762e+002, 1.624772e+002
3.482583e+002, 1.614728e+002
3.487404e+002, 1.613252e+002
3.492225e+002, 1.618655e+002
3.497047e+002, 1.623740e+002
3.501868e+002, 1.625876e+002
3.506689e+002, 1.625921e+002
3.511510e+002, 1.624931e+002
3.516331e+002, 1.622921e+002
3.521152e+002, 1.620917e+002
3.525974e+002, 1.619251e+002
3.530795e+002, 1.618240e+002
3.535616e+002, 1.618687e+002
3.540437e+002, 1.621916e+002
3.545258e+002, 1.625251e+002
3.550079e+002, 1.625677e+002
3.554901e+002, 1.623695e+002
3.559722e+002, 1.621560e+002
3.564543e+002, 1.620522e+002
3.569364e+002, 1.620123e+002
3.574185e+002, 1.619956e+002
3.579006e+002, 1.620077e+002
3.583828e+002, 1.620103e+002
3.588649e+002, 1.619644e+002
3.593470e+002, 1.618926e+002
3.598291e+002, 1.618389e+002
3.603112e+002, 1.617849e+002
3.607933e+002, 1.617830e+002
3.612755e+002, 1.618953e+002
3.617576e+002, 1.621488e+002
3.622397e+002, 1.623477e+002
3.627218e+002, 1.622686e+002
3.632039e+002, 1.621466e+002
3.636860e+002, 1.622445e+002
3.641682e+002, 1.631026e+002
3.646503e+002, 1.637321e+002
3.651324e+002, 1.636617e+002
3.656145e+002, 1.629224e+002
3.660966e+002, 1.623812e+002
3.665787e+002, 1.623447e+002
3.670609e+002, 1.624488e+002
3.675430e+002, 1.624601e+002
3.680251e+002, 1.621718e+002
3.685072e+002, 1.620149e+002
3.689893e+002, 1.621730e+002
3.694714e+002, 1.625089e+002
3.699536e+002, 1.625501e+002
3.704357e+002, 1.619434e+002
3.709178e+002, 1.614151e+002
3.713999e+002, 1.612714e+002
3.718820e+002, 1.616670e+002
3.723641e+002, 1.620679e+002
3.728463e+002, 1.625917e+002
3.733284e+002, 1.630390e+002
3.738105e+002, 1.630218e+002
3.742926e+002, 1.622205e+002
3.747747e+002, 1.616837e+002
3.752568e+002, 1.618223e+002
3.757390e+002, 1.626465e+002
3.762211e+002, 1.630626e+002
3.767032e+002, 1.629670e+002
3.771853e+002, 1.626830e+002
3.776674e+002, 1.624979e+002
3.781495e+002, 1.624163e+002
3.786317e+002, 1.623849e+002
3.791138e+002, 1.623892e+002
3.795959e+002, 1.624393e+002
3.800780e+002, 1.625768e+002
3.805601e+002, 1.628066e+002
3.810422e+002, 1.630782e+002
3.815244e+002, 1.634524e+002
3.820065e+002, 1.638778e+002
3.824886e+002, 1.640056e+002
3.829707e+002, 1.637514e+002
3.834528e+002, 1.633487e+002
3.839349e+002, 1.630228e+002
3.844171e+002, 1.628008e+002
3.848992e+002, 1.628131e+002
3.853813e+002, 1.633640e+002
3.858634e+002, 1.641147e+002
3.863455e+002, 1.644872e+002
3.868276e+002, 1.644544e+002
3.873098e+002, 1.642164e+002
3.877919e+002, 1.637712e+002
3.882740e+002, 1.632576e+002
3.887561e+002, 1.629250e+002
3.892382e+002, 1.628693e+002
3.897203e+002, 1.630030e+002
3.902025e+002, 1.633618e+002
3.906846e+002, 1.638878e+002
3.911667e+002, 1.643222e+002
3.916488e+002, 1.645715e+002
3.921309e+002, 1.646316e+002
3.926130e+002, 1.644384e+002
3.930952e+002, 1.637888e+002
3.935773e+002, 1.633212e+002
3.940594e+002, 1.635097e+002
3.945415e+002, 1.640524e+002
3.950236e+002, 1.643889e+002
3.955057e+002, 1.641596e+002
3.959879e+002, 1.638617e+002
3.964700e+002, 1.637116e+002
3.969521e+002, 1.637596e+002
3.974342e+002, 1.637384e+002
3.979163e+002, 1.634333e+002
3.983984e+002, 1.631255e+002
3.988806e+002, 1.630712e+002
3.993627e+002, 1.636494e+002
3.998448e+002, 1.640633e+002
4.003269e+002, 1.640750e+002
4.008090e+002, 1.637739e+002
4.012911e+002, 1.638671e+002
4.017733e+002, 1.647670e+002
4.022554e+002, 1.655739e+002
4.027375e+002, 1.657515e+002
4.032196e+002, 1.648828e+002
4.037017e+002, 1.644776e+002
4.041838e+002, 1.647984e+002
4.046660e+002, 1.654043e+002
4.051481e+002, 1.653508e+002
4.056302e+002, 1.644046e+002
4.061123e+002, 1.636630e+002
4.065944e+002, 1.635709e+002
4.070765e+002, 1.640982e+002
4.075587e+002, 1.645939e+002
4.080408e+002, 1.650714e+002
4.085229e+002, 1.654741e+002
4.090050e+002, 1.656969e+002
4.094871e+002, 1.657526e+002
4.099692e+002, 1.658726e+002
4.104514e+002, 1.661523e+002
4.109335e+002, 1.664720e+002
4.114156e+002, 1.665784e+002
4.118977e+002, 1.664808e+002
4.123798e+002, 1.663052e+002
4.128619e+002, 1.659967e+002
4.133441e+002, 1.656966e+002
4.138262e+002, 1.657749e+002
4.143083e+002, 1.663598e+002
4.147904e+002, 1.668980e+002
4.152725e+002, 1.667187e+002
4.157546e+002, 1.661007e+002
4.162368e+002, 1.656166e+002
4.167189e+002, 1.656372e+002
4.172010e+002, 1.658188e+002
4.176831e+002, 1.658658e+002
4.181652e+002, 1.657861e+002
4.186473e+002, 1.658024e+002
4.191295e+002, 1.661721e+002
4.196116e+002, 1.666236e+002
4.200937e+002, 1.669082e+002
4.205758e+002, 1.669001e+002
4.210579e+002, 1.668190e+002
4.215400e+002, 1.665931e+002
4.220222e+002, 1.663425e+002
4.225043e+002, 1.663570e+002
4.229864e+002, 1.672813e+002
4.234685e+002, 1.679820e+002
4.239506e+002, 1.678941e+002
4.244327e+002, 1.666082e+002
4.249149e+002, 1.658244e+002
4.253970e+002, 1.658271e+002
4.258791e+002, 1.662297e+002
4.263612e+002, 1.666799e+002
4.268433e+002, 1.673195e+002
4.273254e+002, 1.677613e+002
4.278076e+002, 1.678527e+002
4.282897e+002, 1.676643e+002
4.287718e+002, 1.677357e+002
4.292539e+002, 1.682019e+002
4.297360e+002, 1.686446e+002
4.302181e+002, 1.686655e+002
4.307003e+002, 1.681017e+002
4.311824e+002, 1.683263e+002
4.316645e+002, 1.696825e+002
4.321466e+002, 1.713527e+002
4.326287e+002, 1.718371e+002
4.331108e+002, 1.711130e+002
4.335930e+002, 1.702877e+002
4.340751e+002, 1.696968e+002
4.345572e+002, 1.693418e+002
4.350393e+002, 1.693275e+002
4.355214e+002, 1.696650e+002
4.360035e+002, 1.699823e+002
4.364857e+002, 1.697738e+002
4.369678e+002, 1.692939e+002
4.374499e+002, 1.692244e+002
4.379320e+002, 1.699122e+002
4.384141e+002, 1.706595e+002
4.388962e+002, 1.705048e+002
4.393784e+002, 1.697417e+002
4.398605e+002, 1.692338e+002
4.403426e+002, 1.696582e+002
4.408247e+002, 1.703985e+002
4.413068e+002, 1.710206e+002
4.417889e+002, 1.714907e+002
4.422711e+002, 1.717097e+002
4.427532e+002, 1.713917e+002
4.432353e+002, 1.708903e+002
4.437174e+002, 1.705727e+002
4.441995e+002, 1.706197e+002
4.446816e+002, 1.707811e+002
4.451638e+002, 1.710849e+002
4.456459e+002, 1.714752e+002
4.461280e+002, 1.717152e+002
4.466101e+002, 1.712841e+002
4.470922e+002, 1.710979e+002
4.475743e+002, 1.717005e+002
4.480565e+002, 1.737635e+002
4.485386e+002, 1.748882e+002
4.490207e+002, 1.745995e+002
4.495028e+002, 1.736645e+002
4.499849e+002, 1.730703e+002
4.504670e+002, 1.729614e+002
4.509492e+002, 1.728582e+002
4.514313e+002, 1.726427e+002
4.519134e+002, 1.723433e+002
4.523955e+002, 1.721835e+002
4.528776e+002, 1.722045e+002
4.533597e+002, 1.722402e+002
4.538419e+002, 1.721075e+002
4.543240e+002, 1.718176e+002
4.548061e+002, 1.717713e+002
4.552882e+002, 1.720017e+002
4.557703e+002, 1.724861e+002
4.562524e+002, 1.734917e+002
4.567346e+002, 1.748820e+002
4.572167e+002, 1.756599e+002
4.576988e+002, 1.748961e+002
4.581809e+002, 1.734914e+002
4.586630e+002, 1.730812e+002
4.591451e+002, 1.736151e+002
4.596273e+002, 1.742514e+002
4.601094e+002, 1.743399e+002
4.605915e+002, 1.741491e+002
4.610736e+002, 1.740521e+002
4.615557e+002, 1.742271e+002
4.620378e+002, 1.742946e+002
4.625200e+002, 1.737105e+002
4.630021e+002, 1.728615e+002
4.634842e+002, 1.725129e+002
4.639663e+002, 1.734605e+002
4.644484e+002, 1.745463e+002
4.649305e+002, 1.752438e+002
4.654127e+002, 1.755123e+002
4.658948e+002, 1.756267e+002
4.663769e+002, 1.755343e+002
4.668590e+002, 1.753710e+002
4.673411e+002, 1.752335e+002
4.678232e+002, 1.749705e+002
4.683054e+002, 1.749453e+002
4.687875e+002, 1.752756e+002
4.692696e+002, 1.758291e+002
4.697517e+002, 1.763006e+002
4.702338e+002, 1.767112e+002
4.707159e+002, 1.769876e+002
4.711981e+002, 1.770805e+002
4.716802e+002, 1.769823e+002
4.721623e+002, 1.768665e+002
4.726444e+002, 1.767243e+002
4.731265e+002, 1.765901e+002
4.736086e+002, 1.764619e+002
4.740908e+002, 1.763416e+002
4.745729e+002, 1.763996e+002
4.750550e+002, 1.767102e+002
4.755371e+002, 1.771425e+002
4.760192e+002, 1.774457e+002
4.765013e+002, 1.776360e+002
4.769835e+002, 1.778374e+002
4.774656e+002, 1.782560e+002
4.779477e+002, 1.786832e+002
4.784298e+002, 1.786606e+002
4.789119e+002, 1.781545e+002
4.793940e+002, 1.777473e+002
4.798762e+002, 1.781711e+002
4.803583e+002, 1.788829e+002
4.808404e+002, 1.791379e+002
4.813225e+002, 1.783464e+002
4.818046e+002, 1.775718e+002
4.822867e+002, 1.774372e+002
4.827689e+002, 1.777513e+002
4.832510e+002, 1.780182e+002
4.837331e+002, 1.779330e+002
4.842152e+002, 1.778950e+002
4.846973e+002, 1.781492e+002
4.851794e+002, 1.788156e+002
4.856616e+002, 1.792507e+002
4.861437e+002, 1.792222e+002
4.866258e+002, 1.790484e+002
4.871079e+002, 1.789810e+002
4.875900e+002, 1.791897e+002
4.880721e+002, 1.791826e+002
4.885543e+002, 1.787984e+002
4.890364e+002, 1.782044e+002
4.895185e+002, 1.778377e+002
4.900006e+002, 1.776471e+002
4.904827e+002, 1.778579e+002
4.909648e+002, 1.788141e+002
4.914470e+002, 1.804495e+002
4.919291e+002, 1.812466e+002
4.924112e+002, 1.811048e+002
4.928933e+002, 1.805822e+002
4.933754e+002, 1.801170e+002
4.938575e+002, 1.797278e+002
4.943397e+002, 1.795317e+002
4.948218e+002, 1.796260e+002
4.953039e+002, 1.797976e+002
4.957860e+002, 1.796678e+002
4.962681e+002, 1.793457e+002
4.967502e+002, 1.792014e+002
4.972324e+002, 1.796294e+002
4.977145e+002, 1.802028e+002
4.981966e+002, 1.804217e+002
4.986787e+002, 1.802602e+002
4.991608e+002, 1.803260e+002
4.996429e+002, 1.814468e+002
5.001251e+002, 1.826690e+002
5.006072e+002, 1.831398e+002
5.010893e+002, 1.818979e+002
5.015714e+002, 1.809420e+002
5.020535e+002, 1.808761e+002
5.025356e+002, 1.813845e+002
5.030178e+002, 1.817451e+002
5.034999e+002, 1.818915e+002
5.039820e+002, 1.818928e+002
5.044641e+002, 1.816235e+002
5.049462e+002, 1.810504e+002
5.054283e+002, 1.811659e+002
5.059105e+002, 1.824455e+002
5.063926e+002, 1.836829e+002
5.068747e+002, 1.837958e+002
5.073568e+002, 1.825482e+002
5.078389e+002, 1.818294e+002
5.083210e+002, 1.818923e+002
5.088032e+002, 1.824265e+002
5.092853e+002, 1.830217e+002
5.097674e+002, 1.836636e+002
5.102495e+002, 1.841264e+002
5.107316e+002, 1.842764e+002
5.112137e+002, 1.842026e+002
5.116959e+002, 1.840089e+002
5.121780e+002, 1.837125e+002
5.126601e+002, 1.835446e+002
5.131422e+002, 1.838297e+002
5.136243e+002, 1.842797e+002
5.141064e+002, 1.845210e+002
5.145886e+002, 1.844597e+002
5.150707e+002, 1.842955e+002
5.155528e+002, 1.839761e+002
5.160349e+002, 1.836800e+002
5.165170e+002, 1.836585e+002
5.169991e+002, 1.843683e+002
5.174813e+002, 1.849894e+002
5.179634e+002, 1.852588e+002
5.184455e+002, 1.851978e+002
5.189276e+002, 1.850141e+002
5.194097e+002, 1.844275e+002
5.198918e+002, 1.839944e+002
5.203740e+002, 1.839646e+002
5.208561e+002, 1.844591e+002
5.213382e+002, 1.849805e+002
5.218203e+002, 1.856355e+002
5.223024e+002, 1.861872e+002
5.227845e+002, 1.862896e+002
5.232667e+002, 1.858339e+002
5.237488e+002, 1.855249e+002
5.242309e+002, 1.855187e+002
5.247130e+002, 1.857253e+002
5.251951e+002, 1.859504e+002
5.256772e+002, 1.861946e+002
5.261594e+002, 1.864313e+002
5.266415e+002, 1.867122e+002
5.271236e+002, 1.869680e+002
5.276057e+002, 1.869908e+002
5.280878e+002, 1.867738e+002
5.285699e+002, 1.865489e+002
5.290521e+002, 1.864906e+002
5.295342e+002, 1.865500e+002
5.300163e+002, 1.866812e+002
5.304984e+002, 1.869438e+002
5.309805e+002, 1.871436e+002
5.314626e+002, 1.871571e+002
5.319448e+002, 1.870309e+002
5.324269e+002, 1.868556e+002
5.329090e+002, 1.863940e+002
5.333911e+002, 1.861378e+002
5.338732e+002, 1.863451e+002
5.343553e+002, 1.870383e+002
5.348375e+002, 1.875835e+002
5.353196e+002, 1.879040e+002
5.358017e+002, 1.881231e+002
5.362838e+002, 1.883116e+002
5.367659e+002, 1.885035e+002
5.372480e+002, 1.885439e+002
5.377302e+002, 1.883678e+002
5.382123e+002, 1.881245e+002
5.386944e+002, 1.880570e+002
5.391765e+002, 1.881800e+002
5.396586e+002, 1.882767e+002
5.401407e+002, 1.882901e+002
5.406229e+002, 1.882432e+002
5.411050e+002, 1.881890e+002
5.415871e+002, 1.881278e+002
5.420692e+002, 1.880360e+002
5.425513e+002, 1.878034e+002
5.430334e+002, 1.875716e+002
5.435156e+002, 1.875471e+002
5.439977e+002, 1.877452e+002
5.444798e+002, 1.881196e+002
5.449619e+002, 1.888912e+002
5.454440e+002, 1.897132e+002
5.459261e+002, 1.901960e+002
5.464083e+002, 1.900610e+002
5.468904e+002, 1.898198e+002
5.473725e+002, 1.894859e+002
5.478546e+002, 1.891697e+002
5.483367e+002, 1.891021e+002
5.488188e+002, 1.896428e+002
5.493010e+002, 1.900840e+002
5.497831e+002, 1.902276e+002
5.502652e+002, 1.900764e+002
5.507473e+002, 1.899120e+002
5.512294e+002, 1.896245e+002
5.517115e+002, 1.895107e+002
5.521937e+002, 1.898511e+002
5.526758e+002, 1.907236e+002
5.531579e+002, 1.913255e+002
5.536400e+002, 1.916004e+002
5.541221e+002, 1.916803e+002
5.546042e+002, 1.916830e+002
5.550864e+002, 1.916263e+002
5.555685e+002, 1.916225e+002
5.560506e+002, 1.917486e+002
5.565327e+002, 1.918867e+002
5.570148e+002, 1.917551e+002
5.574969e+002, 1.914538e+002
5.579791e+002, 1.913643e+002
5.584612e+002, 1.920770e+002
5.589433e+002, 1.928316e+002
5.594254e+002, 1.929224e+002
5.599075e+002, 1.922929e+002
5.603896e+002, 1.916511e+002
5.608718e+002, 1.910675e+002
5.613539e+002, 1.907217e+002
5.618360e+002, 1.907669e+002
5.623181e+002, 1.915982e+002
5.628002e+002, 1.922665e+002
5.632823e+002, 1.927530e+002
5.637645e+002, 1.930440e+002
5.642466e+002, 1.930948e+002
5.647287e+002, 1.928346e+002
5.652108e+002, 1.924758e+002
5.656929e+002, 1.919342e+002
5.661750e+002, 1.913495e+002
5.666572e+002, 1.914807e+002
5.671393e+002, 1.924369e+002
5.676214e+002, 1.933086e+002
5.681035e+002, 1.933972e+002
5.685856e+002, 1.929352e+002
5.690677e+002, 1.929083e+002
5.695499e+002, 1.933757e+002
5.700320e+002, 1.938248e+002
5.705141e+002, 1.936685e+002
5.709962e+002, 1.931943e+002
5.714783e+002, 1.928620e+002
5.719604e+002, 1.927781e+002
5.724426e+002, 1.928651e+002
5.729247e+002, 1.931659e+002
5.734068e+002, 1.935889e+002
5.738889e+002, 1.939771e+002
5.743710e+002, 1.938089e+002
5.748531e+002, 1.940712e+002
5.753353e+002, 1.956425e+002
5.758174e+002, 1.983400e+002
5.762995e+002, 1.995862e+002
5.767816e+002, 1.982207e+002
5.772637e+002, 1.966976e+002
5.777458e+002, 1.961318e+002
5.782280e+002, 1.967660e+002
5.787101e+002, 1.970727e+002
5.791922e+002, 1.969769e+002
5.796743e+002, 1.967176e+002
5.801564e+002, 1.965453e+002
5.806385e+002, 1.964525e+002
5.811207e+002, 1.962621e+002
5.816028e+002, 1.958820e+002
5.820849e+002, 1.955326e+002
5.825670e+002, 1.955838e+002
5.830491e+002, 1.959525e+002
5.835313e+002, 1.963762e+002
5.840134e+002, 1.967774e+002
5.844955e+002, 1.971410e+002
5.849776e+002, 1.974363e+002
5.854597e+002, 1.976741e+002
5.859418e+002, 1.979128e+002
5.864240e+002, 1.983622e+002
5.869061e+002, 1.986789e+002
5.873882e+002, 1.985858e+002
5.878703e+002, 1.978878e+002
5.883524e+002, 1.974300e+002
5.888345e+002, 1.973856e+002
5.893167e+002, 1.975722e+002
5.897988e+002, 1.978711e+002
5.902809e+002, 1.983433e+002
5.907630e+002, 1.987918e+002
5.912451e+002, 1.992080e+002
5.917272e+002, 1.995929e+002
5.922094e+002, 1.999713e+002
5.926915e+002, 2.003471e+002
5.931736e+002, 2.006101e+002
5.936557e+002, 2.007001e+002
5.941378e+002, 2.006691e+002
5.946199e+002, 2.005963e+002
5.951021e+002, 2.004947e+002
5.955842e+002, 2.004598e+002
5.960663e+002, 2.006829e+002
5.965484e+002, 2.009397e+002
5.970305e+002, 2.009202e+002
5.975126e+002, 2.005897e+002
5.979948e+002, 2.002950e+002
5.984769e+002, 2.001672e+002
5.989590e+002, 2.001985e+002
5.994411e+002, 2.003984e+002
5.999232e+002, 2.009399e+002
6.004053e+002, 2.013703e+002
6.008875e+002, 2.015294e+002
6.013696e+002, 2.015717e+002
6.018517e+002, 2.017097e+002
6.023338e+002, 2.019917e+002
6.028159e+002, 2.022840e+002
6.032980e+002, 2.026109e+002
6.037802e+002, 2.029168e+002
6.042623e+002, 2.029626e+002
6.047444e+002, 2.027159e+002
6.052265e+002, 2.024736e+002
6.057086e+002, 2.022686e+002
6.061907e+002, 2.021869e+002
6.066729e+002, 2.026869e+002
6.071550e+002, 2.037509e+002
6.076371e+002, 2.047161e+002
6.081192e+002, 2.050202e+002
6.086013e+002, 2.049109e+002
6.090834e+002, 2.046263e+002
6.095656e+002, 2.041227e+002
6.100477e+002, 2.038044e+002
6.105298e+002, 2.041021e+002
6.110119e+002, 2.046213e+002
6.114940e+002, 2.049223e+002
6.119761e+002, 2.046474e+002
6.124583e+002, 2.044607e+002
6.129404e+002, 2.044462e+002
6.134225e+002, 2.045906e+002
6.139046e+002, 2.049129e+002
6.143867e+002, 2.055931e+002
6.148688e+002, 2.060469e+002
6.153510e+002, 2.059723e+002
6.158331e+002, 2.055124e+002
6.163152e+002, 2.056282e+002
6.167973e+002, 2.063571e+002
6.172794e+002, 2.072384e+002
6.177615e+002, 2.081580e+002
6.182437e+002, 2.089642e+002
6.187258e+002, 2.091140e+002
6.192079e+002, 2.085514e+002
6.196900e+002, 2.079859e+002
6.201721e+002, 2.080853e+002
6.206542e+002, 2.085055e+002
6.211364e+002, 2.087952e+002
6.216185e+002, 2.087480e+002
6.221006e+002, 2.088030e+002
6.225827e+002, 2.094307e+002
6.230648e+002, 2.101989e+002
6.235469e+002, 2.105032e+002
6.240291e+002, 2.097560e+002
6.245112e+002, 2.091283e+002
6.249933e+002, 2.087841e+002
6.254754e+002, 2.086821e+002
6.259575e+002, 2.086926e+002
6.264396e+002, 2.088434e+002
6.269218e+002, 2.090436e+002
6.274039e+002, 2.093178e+002
6.278860e+002, 2.096220e+002
6.283681e+002, 2.096107e+002
6.288502e+002, 2.092700e+002
6.293323e+002, 2.089626e+002
6.298145e+002, 2.088946e+002
6.302966e+002, 2.090652e+002
6.307787e+002, 2.095801e+002
6.312608e+002, 2.104808e+002
6.317429e+002, 2.112698e+002
6.322250e+002, 2.114496e+002
6.327072e+002, 2.113757e+002
6.331893e+002, 2.114476e+002
6.336714e+002, 2.119138e+002
6.341535e+002, 2.122682e+002
6.346356e+002, 2.121349e+002
6.351177e+002, 2.118768e+002
6.355999e+002, 2.121077e+002
6.360820e+002, 2.134519e+002
6.365641e+002, 2.142521e+002
6.370462e+002, 2.139897e+002
6.375283e+002, 2.130690e+002
6.380104e+002, 2.129595e+002
6.384926e+002, 2.138185e+002
6.389747e+002, 2.144776e+002
6.394568e+002, 2.141987e+002
6.399389e+002, 2.133570e+002
6.404210e+002, 2.132907e+002
6.409031e+002, 2.139640e+002
6.413853e+002, 2.147375e+002
6.418674e+002, 2.151781e+002
6.423495e+002, 2.154449e+002
6.428316e+002, 2.157410e+002
6.433137e+002, 2.161074e+002
6.437958e+002, 2.163400e+002
6.442780e+002, 2.161947e+002
6.447601e+002, 2.159493e+002
6.452422e+002, 2.158496e+002
6.457243e+002, 2.160532e+002
6.462064e+002, 2.162192e+002
6.466885e+002, 2.162903e+002
6.471707e+002, 2.163338e+002
6.476528e+002, 2.164153e+002
6.481349e+002, 2.164920e+002
6.486170e+002, 2.167668e+002
6.490991e+002, 2.173676e+002
6.495812e+002, 2.180972e+002
6.500634e+002, 2.184912e+002
6.505455e+002, 2.185700e+002
6.510276e+002, 2.185759e+002
6.515097e+002, 2.185271e+002
6.519918e+002, 2.185324e+002
6.524739e+002, 2.188382e+002
6.529561e+002, 2.193845e+002
6.534382e+002, 2.198747e+002
6.539203e+002, 2.201511e+002
6.544024e+002, 2.202921e+002
6.548845e+002, 2.202886e+002
6.553666e+002, 2.201160e+002
6.558488e+002, 2.200972e+002
6.563309e+002, 2.205332e+002
6.568130e+002, 2.209703e+002
6.572951e+002, 2.211068e+002
6.577772e+002, 2.207373e+002
6.582593e+002, 2.206434e+002
6.587415e+002, 2.209211e+002
6.592236e+002, 2.213207e+002
6.597057e+002, 2.215454e+002
6.601878e+002, 2.215988e+002
6.606699e+002, 2.216933e+002
6.611520e+002, 2.218763e+002
6.616342e+002, 2.220858e+002
6.621163e+002, 2.221956e+002
6.625984e+002, 2.222585e+002
6.630805e+002, 2.224229e+002
6.635626e+002, 2.229813e+002
6.640447e+002, 2.234192e+002
6.645269e+002, 2.230957e+002
6.650090e+002, 2.223298e+002
6.654911e+002, 2.220473e+002
6.659732e+002, 2.231234e+002
6.664553e+002, 2.241526e+002
6.669374e+002, 2.245959e+002
6.674196e+002, 2.244932e+002
6.679017e+002, 2.243445e+002
6.683838e+002, 2.240536e+002
6.688659e+002, 2.239051e+002
6.693480e+002, 2.241294e+002
6.698301e+002, 2.247193e+002
6.703123e+002, 2.249325e+002
6.707944e+002, 2.247067e+002
6.712765e+002, 2.245929e+002
6.717586e+002, 2.253448e+002
6.722407e+002, 2.265323e+002
6.727228e+002, 2.271642e+002
6.732050e+002, 2.270702e+002
6.736871e+002, 2.266724e+002
6.741692e+002, 2.258573e+002
6.746513e+002, 2.250899e+002
6.751334e+002, 2.249499e+002
6.756155e+002, 2.261100e+002
6.760977e+002, 2.270995e+002
6.765798e+002, 2.274783e+002
6.770619e+002, 2.275172e+002
6.775440e+002, 2.276320e+002
6.780261e+002, 2.279895e+002
6.785082e+002, 2.280464e+002
6.789904e+002, 2.275925e+002
6.794725e+002, 2.268706e+002
6.799546e+002, 2.265011e+002
6.804367e+002, 2.264944e+002
6.809188e+002, 2.265970e+002
6.814009e+002, 2.267598e+002
6.818831e+002, 2.269320e+002
6.823652e+002, 2.269688e+002
6.828473e+002, 2.269078e+002
6.833294e+002, 2.269253e+002
6.838115e+002, 2.271780e+002
6.842936e+002, 2.275080e+002
6.847758e+002, 2.278456e+002
6.852579e+002, 2.281802e+002
6.857400e+002, 2.284044e+002
6.862221e+002, 2.284064e+002
6.867042e+002, 2.283537e+002
6.871863e+002, 2.283337e+002
6.876685e+002, 2.283598e+002
6.881506e+002, 2.283213e+002
6.886327e+002, 2.281251e+002
6.891148e+002, 2.280449e+002
6.895969e+002, 2.284727e+002
6.900790e+002, 2.293541e+002
6.905612e+002, 2.297832e+002
6.910433e+002, 2.296097e+002
6.915254e+002, 2.292599e+002
6.920075e+002, 2.292689e+002
6.924896e+002, 2.294458e+002
6.929717e+002, 2.293909e+002
6.934539e+002, 2.287621e+002
6.939360e+002, 2.283428e+002
6.944181e+002, 2.288431e+002
6.949002e+002, 2.297831e+002
6.953823e+002, 2.304196e+002
6.958644e+002, 2.306261e+002
6.963466e+002, 2.304421e+002
6.968287e+002, 2.296085e+002
6.973108e+002, 2.284726e+002
6.977929e+002, 2.280247e+002
6.982750e+002, 2.284690e+002
6.987571e+002, 2.288703e+002
6.992393e+002, 2.289673e+002
6.997214e+002, 2.287934e+002
7.002035e+002, 2.283024e+002
7.006856e+002, 2.275453e+002
7.011677e+002, 2.269836e+002
7.016498e+002, 2.269455e+002
7.021320e+002, 2.272083e+002
7.026141e+002, 2.276656e+002
7.030962e+002, 2.282615e+002
7.035783e+002, 2.286016e+002
7.040604e+002, 2.283130e+002
7.045425e+002, 2.278669e+002
7.050247e+002, 2.274781e+002
7.055068e+002, 2.271343e+002
7.059889e+002, 2.270336e+002
7.064710e+002, 2.273406e+002
7.069531e+002, 2.276707e+002
7.074352e+002, 2.277722e+002
7.079174e+002, 2.276284e+002
7.083995e+002, 2.274399e+002
7.088816e+002, 2.272024e+002
7.093637e+002, 2.269682e+002
7.098458e+002, 2.267488e+002
7.103279e+002, 2.265816e+002
7.108101e+002, 2.265721e+002
7.112922e+002, 2.267660e+002
7.117743e+002, 2.270152e+002
7.122564e+002, 2.274335e+002
7.127385e+002, 2.277576e+002
7.132206e+002, 2.276534e+002
7.137028e+002, 2.265224e+002
7.141849e+002, 2.256729e+002
7.146670e+002, 2.255002e+002
7.151491e+002, 2.256861e+002
7.156312e+002, 2.258544e+002
7.161133e+002, 2.260746e+002
7.165955e+002, 2.260317e+002
7.170776e+002, 2.255396e+002
7.175597e+002, 2.249098e+002
7.180418e+002, 2.249965e+002
7.185239e+002, 2.257002e+002
7.190060e+002, 2.260280e+002
7.194882e+002, 2.252973e+002
7.199703e+002, 2.243108e+002
7.204524e+002, 2.241365e+002
7.209345e+002, 2.245413e+002
7.214166e+002, 2.248343e+002
7.218987e+002, 2.244766e+002
7.223809e+002, 2.241357e+002
7.228630e+002, 2.243071e+002
7.233451e+002, 2.248891e+002
7.238272e+002, 2.249223e+002
7.243093e+002, 2.240007e+002
7.247914e+002, 2.230841e+002
7.252736e+002, 2.224759e+002
7.257557e+002, 2.221756e+002
7.262378e+002, 2.222540e+002
7.267199e+002, 2.227669e+002
7.272020e+002, 2.232150e+002
7.276841e+002, 2.231887e+002
7.281663e+002, 2.228847e+002
7.286484e+002, 2.227348e+002
7.291305e+002, 2.227510e+002
7.296126e+002, 2.227879e+002
7.300947e+002, 2.228897e+002
7.305768e+002, 2.228737e+002
7.310590e+002, 2.225091e+002
7.315411e+002, 2.216595e+002
7.320232e+002, 2.210311e+002
7.325053e+002, 2.207880e+002
7.329874e+002, 2.207715e+002
7.334695e+002, 2.209731e+002
7.339517e+002, 2.215952e+002
7.344338e+002, 2.216590e+002
7.349159e+002, 2.210737e+002
7.353980e+002, 2.201873e+002
7.358801e+002, 2.191597e+002
7.363622e+002, 2.181116e+002
7.368444e+002, 2.176086e+002
7.373265e+002, 2.178003e+002
7.378086e+002, 2.182330e+002
7.382907e+002, 2.185651e+002
7.387728e+002, 2.188511e+002
7.392549e+002, 2.191689e+002
7.397371e+002, 2.196343e+002
7.402192e+002, 2.199770e+002
7.407013e+002, 2.201316e+002
7.411834e+002, 2.201140e+002
7.416655e+002, 2.199383e+002
7.421476e+002, 2.195011e+002
7.426298e+002, 2.191358e+002
7.431119e+002, 2.188361e+002
7.435940e+002, 2.186786e+002
7.440761e+002, 2.189321e+002
7.445582e+002, 2.195357e+002
7.450403e+002, 2.199042e+002
7.455225e+002, 2.197923e+002
7.460046e+002, 2.194799e+002
7.464867e+002, 2.192386e+002
7.469688e+002, 2.190640e+002
7.474509e+002, 2.189529e+002
7.479330e+002, 2.190230e+002
7.484152e+002, 2.190304e+002
7.488973e+002, 2.187478e+002
7.493794e+002, 2.183190e+002
7.498615e+002, 2.182459e+002
7.503436e+002, 2.188991e+002
7.508257e+002, 2.192392e+002
7.513079e+002, 2.188836e+002
7.517900e+002, 2.180835e+002
7.522721e+002, 2.178559e+002
7.527542e+002, 2.182012e+002
7.532363e+002, 2.183210e+002
7.537184e+002, 2.175520e+002
7.542006e+002, 2.165052e+002
7.546827e+002, 2.161630e+002
7.551648e+002, 2.164100e+002
7.556469e+002, 2.167776e+002
7.561290e+002, 2.171828e+002
7.566111e+002, 2.175005e+002
7.570933e+002, 2.176481e+002
7.575754e+002, 2.176252e+002
7.580575e+002, 2.175723e+002
7.585396e+002, 2.175663e+002
7.590217e+002, 2.174147e+002
7.595038e+002, 2.168989e+002
7.599860e+002, 2.160998e+002
7.604681e+002, 2.160595e+002
7.609502e+002, 2.168411e+002
7.614323e+002, 2.176271e+002
7.619144e+002, 2.178083e+002
7.623965e+002, 2.176495e+002
7.628787e+002, 2.176709e+002
7.633608e+002, 2.178630e+002
7.638429e+002, 2.179213e+002
7.643250e+002, 2.174096e+002
7.648071e+002, 2.168944e+002
7.652892e+002, 2.168384e+002
7.657714e+002, 2.173598e+002
7.662535e+002, 2.176637e+002
7.667356e+002, 2.176719e+002
7.672177e+002, 2.175048e+002
7.676998e+002, 2.171523e+002
7.681819e+002, 2.165847e+002
7.686641e+002, 2.163369e+002
7.691462e+002, 2.164309e+002
7.696283e+002, 2.166986e+002
7.701104e+002, 2.170415e+002
7.705925e+002, 2.174468e+002
7.710746e+002, 2.179774e+002
7.715568e+002, 2.186505e+002
7.720389e+002, 2.190720e+002
7.725210e+002, 2.188209e+002
7.730031e+002, 2.183337e+002
7.734852e+002, 2.179493e+002
7.739673e+002, 2.177604e+002
7.744495e+002, 2.174830e+002
7.749316e+002, 2.168914e+002
7.754137e+002, 2.164636e+002
7.758958e+002, 2.167107e+002
7.763779e+002, 2.177262e+002
7.768600e+002, 2.180797e+002
7.773422e+002, 2.176354e+002
7.778243e+002, 2.170881e+002
7.783064e+002, 2.172813e+002
7.787885e+002, 2.178362e+002
7.792706e+002, 2.179952e+002
7.797527e+002, 2.175835e+002
7.802349e+002, 2.171324e+002
7.807170e+002, 2.169552e+002
7.811991e+002, 2.168880e+002
7.816812e+002, 2.167782e+002
7.821633e+002, 2.164940e+002
7.826454e+002, 2.164139e+002
7.831276e+002, 2.166633e+002
7.836097e+002, 2.169690e+002
7.840918e+002, 2.169932e+002
7.845739e+002, 2.167263e+002
7.850560e+002, 2.167808e+002
7.855381e+002, 2.172747e+002
7.860203e+002, 2.177679e+002
7.865024e+002, 2.176808e+002
7.869845e+002, 2.172784e+002
7.874666e+002, 2.170118e+002
7.879487e+002, 2.169902e+002
7.884308e+002, 2.170738e+002
7.889130e+002, 2.172088e+002
7.893951e+002, 2.174023e+002
7.898772e+002, 2.176723e+002
7.903593e+002, 2.181268e+002
7.908414e+002, 2.184520e+002
7.913235e+002, 2.186292e+002
7.918057e+002, 2.186888e+002
7.922878e+002, 2.185929e+002
7.927699e+002, 2.183585e+002
7.932520e+002, 2.183254e+002
7.937341e+002, 2.185691e+002
7.942162e+002, 2.188891e+002
7.946984e+002, 2.190603e+002
7.951805e+002, 2.191684e+002
7.956626e+002, 2.194081e+002
7.961447e+002, 2.200814e+002
7.966268e+002, 2.203083e+002
7.971089e+002, 2.192124e+002
7.975911e+002, 2.178054e+002
7.980732e+002, 2.172508e+002
7.985553e+002, 2.180566e+002
7.990374e+002, 2.185163e+002
7.995195e+002, 2.184459e+002
8.000016e+002, 2.182001e+002
8.004838e+002, 2.181501e+002
8.009659e+002, 2.183106e+002
8.014480e+002, 2.188389e+002
8.019301e+002, 2.198628e+002
8.024122e+002, 2.208335e+002
8.028943e+002, 2.213445e+002
8.033765e+002, 2.214185e+002
8.038586e+002, 2.210391e+002
8.043407e+002, 2.197691e+002
8.048228e+002, 2.188369e+002
8.053049e+002, 2.185532e+002
8.057870e+002, 2.186913e+002
8.062692e+002, 2.191214e+002
8.067513e+002, 2.199867e+002
8.072334e+002, 2.205395e+002
8.077155e+002, 2.206570e+002
8.081976e+002, 2.205890e+002
8.086797e+002, 2.206797e+002
8.091619e+002, 2.208450e+002
8.096440e+002, 2.208258e+002
8.101261e+002, 2.205333e+002
8.106082e+002, 2.201748e+002
8.110903e+002, 2.196906e+002
8.115724e+002, 2.193289e+002
8.120546e+002, 2.193760e+002
8.125367e+002, 2.201615e+002
8.130188e+002, 2.209458e+002
8.135009e+002, 2.218385e+002
8.139830e+002, 2.225805e+002
8.144651e+002, 2.227899e+002
8.149473e+002, 2.224278e+002
8.154294e+002, 2.223023e+002
8.159115e+002, 2.225322e+002
8.163936e+002, 2.228438e+002
8.168757e+002, 2.229289e+002
8.173578e+002, 2.228727e+002
8.178400e+002, 2.228288e+002
8.183221e+002, 2.228437e+002
8.188042e+002, 2.228143e+002
8.192863e+002, 2.225874e+002
8.197684e+002, 2.223453e+002
8.202505e+002, 2.222749e+002
8.207327e+002, 2.224830e+002
8.212148e+002, 2.226041e+002
8.216969e+002, 2.225843e+002
8.221790e+002, 2.225635e+002
8.226611e+002, 2.227633e+002
8.231432e+002, 2.231227e+002
8.236254e+002, 2.231959e+002
8.241075e+002, 2.229044e+002
8.245896e+002, 2.225980e+002
8.250717e+002, 2.226020e+002
8.255538e+002, 2.227698e+002
8.260359e+002, 2.229697e+002
8.265181e+002, 2.232311e+002
8.270002e+002, 2.233439e+002
8.274823e+002, 2.229795e+002
8.279644e+002, 2.226890e+002
8.284465e+002, 2.229091e+002
8.289286e+002, 2.238260e+002
8.294108e+002, 2.243431e+002
8.298929e+002, 2.244151e+002
8.303750e+002, 2.242884e+002
8.308571e+002, 2.241553e+002
8.313392e+002, 2.240047e+002
8.318214e+002, 2.237612e+002
8.323035e+002, 2.234126e+002
8.327856e+002, 2.231804e+002
8.332677e+002, 2.232460e+002
8.337498e+002, 2.234500e+002
8.342319e+002, 2.237053e+002
8.347141e+002, 2.240416e+002
8.351962e+002, 2.242036e+002
8.356783e+002, 2.240662e+002
8.361604e+002, 2.239536e+002
8.366425e+002, 2.241859e+002
8.371246e+002, 2.247135e+002
8.376068e+002, 2.246226e+002
8.380889e+002, 2.239027e+002
8.385710e+002, 2.234529e+002
8.390531e+002, 2.243454e+002
8.395352e+002, 2.256387e+002
8.400173e+002, 2.263019e+002
8.404995e+002, 2.262743e+002
8.409816e+002, 2.261472e+002
8.414637e+002, 2.259828e+002
8.419458e+002, 2.258959e+002
8.424279e+002, 2.259464e+002
8.429100e+002, 2.261310e+002
8.433922e+002, 2.262857e+002
8.438743e+002, 2.263822e+002
8.443564e+002, 2.265935e+002
8.448385e+002, 2.272370e+002
8.453206e+002, 2.280081e+002
8.458027e+002, 2.281146e+002
8.462849e+002, 2.276466e+002
8.467670e+002, 2.271061e+002
8.472491e+002, 2.265812e+002
8.477312e+002, 2.262440e+002
8.482133e+002, 2.262864e+002
8.486954e+002, 2.266688e+002
8.491776e+002, 2.269436e+002
8.496597e+002, 2.271031e+002
8.501418e+002, 2.271458e+002
8.506239e+002, 2.269761e+002
8.511060e+002, 2.267426e+002
8.515881e+002, 2.271033e+002
8.520703e+002, 2.279704e+002
8.525524e+002, 2.285896e+002
8.530345e+002, 2.283229e+002
8.535166e+002, 2.278785e+002
8.539987e+002, 2.279776e+002
8.544808e+002, 2.284087e+002
8.549630e+002, 2.286386e+002
8.554451e+002, 2.281074e+002
8.559272e+002, 2.278566e+002
8.564093e+002, 2.282410e+002
8.568914e+002, 2.289494e+002
8.573735e+002, 2.292613e+002
8.578557e+002, 2.291407e+002
8.583378e+002, 2.290477e+002
8.588199e+002, 2.291255e+002
8.593020e+002, 2.292435e+002
8.597841e+002, 2.290606e+002
8.602662e+002, 2.287920e+002
8.607484e+002, 2.289032e+002
8.612305e+002, 2.298492e+002
8.617126e+002, 2.307616e+002
8.621947e+002, 2.315108e+002
8.626768e+002, 2.319441e+002
8.631589e+002, 2.318090e+002
8.636411e+002, 2.307545e+002
8.641232e+002, 2.301742e+002
8.646053e+002, 2.303012e+002
8.650874e+002, 2.306687e+002
8.655695e+002, 2.305901e+002
8.660516e+002, 2.302403e+002
8.665338e+002, 2.302584e+002
8.670159e+002, 2.308656e+002
8.674980e+002, 2.313128e+002
8.679801e+002, 2.306994e+002
8.684622e+002, 2.298815e+002
8.689443e+002, 2.297284e+002
8.694265e+002, 2.307592e+002
8.699086e+002, 2.315495e+002
8.703907e+002, 2.321217e+002
8.708728e+002, 2.324083e+002
8.713549e+002, 2.322596e+002
8.718370e+002, 2.317147e+002
8.723192e+002, 2.312267e+002
8.728013e+002, 2.308058e+002
8.732834e+002, 2.304737e+002
8.737655e+002, 2.300777e+002
8.742476e+002, 2.298858e+002
8.747297e+002, 2.303579e+002
8.752119e+002, 2.315571e+002
8.756940e+002, 2.323395e+002
8.761761e+002, 2.321366e+002
8.766582e+002, 2.317361e+002
8.771403e+002, 2.313550e+002
8.776224e+002, 2.310108e+002
8.781046e+002, 2.309771e+002
8.785867e+002, 2.312614e+002
8.790688e+002, 2.316906e+002
8.795509e+002, 2.323027e+002
8.800330e+002, 2.329118e+002
8.805151e+002, 2.332388e+002
8.809973e+002, 2.333250e+002
8.814794e+002, 2.333230e+002
8.819615e+002, 2.333946e+002
8.824436e+002, 2.332836e+002
8.829257e+002, 2.325880e+002
8.834078e+002, 2.316738e+002
8.838900e+002, 2.317298e+002
8.843721e+002, 2.330185e+002
8.848542e+002, 2.338503e+002
8.853363e+002, 2.335987e+002
8.858184e+002, 2.328652e+002
8.863005e+002, 2.325560e+002
8.867827e+002, 2.326184e+002
8.872648e+002, 2.329330e+002
8.877469e+002, 2.335643e+002
8.882290e+002, 2.342649e+002
8.887111e+002, 2.352868e+002
8.891932e+002, 2.361579e+002
8.896754e+002, 2.361369e+002
8.901575e+002, 2.347069e+002
8.906396e+002, 2.337612e+002
8.911217e+002, 2.335159e+002
8.916038e+002, 2.336374e+002
8.920859e+002, 2.337565e+002
8.925681e+002, 2.339005e+002
8.930502e+002, 2.341414e+002
8.935323e+002, 2.344833e+002
8.940144e+002, 2.349686e+002
8.944965e+002, 2.359753e+002
8.949786e+002, 2.369011e+002
8.954608e+002, 2.371581e+002
8.959429e+002, 2.364283e+002
8.964250e+002, 2.359418e+002
8.969071e+002, 2.356424e+002
8.973892e+002, 2.357043e+002
8.978713e+002, 2.365182e+002
8.983535e+002, 2.378737e+002
8.988356e+002, 2.384185e+002
8.993177e+002, 2.381845e+002
8.997998e+002, 2.377782e+002
9.002819e+002, 2.375102e+002
9.007640e+002, 2.373079e+002
9.012462e+002, 2.370506e+002
9.017283e+002, 2.367682e+002
9.022104e+002, 2.367912e+002
9.026925e+002, 2.375332e+002
9.031746e+002, 2.379042e+002
9.036567e+002, 2.373939e+002
9.041389e+002, 2.363963e+002
9.046210e+002, 2.362859e+002
9.051031e+002, 2.369600e+002
9.055852e+002, 2.374813e+002
9.060673e+002, 2.373930e+002
9.065494e+002, 2.370959e+002
9.070316e+002, 2.367464e+002
9.075137e+002, 2.364887e+002
9.079958e+002, 2.365758e+002
9.084779e+002, 2.374732e+002
9.089600e+002, 2.381857e+002
9.094421e+002, 2.386636e+002
9.099243e+002, 2.388798e+002
9.104064e+002, 2.386348e+002
9.108885e+002, 2.379763e+002
9.113706e+002, 2.378395e+002
9.118527e+002, 2.384387e+002
9.123348e+002, 2.390807e+002
9.128170e+002, 2.389535e+002
9.132991e+002, 2.385768e+002
9.137812e+002, 2.385819e+002
9.142633e+002, 2.391988e+002
9.147454e+002, 2.396638e+002
9.152275e+002, 2.398091e+002
9.157097e+002, 2.398425e+002
9.161918e+002, 2.398542e+002
9.166739e+002, 2.398460e+002
9.171560e+002, 2.398951e+002
9.176381e+002, 2.400005e+002
9.181202e+002, 2.401853e+002
9.186024e+002, 2.403901e+002
9.190845e+002, 2.407341e+002
9.195666e+002, 2.414490e+002
9.200487e+002, 2.424586e+002
9.205308e+002, 2.433552e+002
9.210129e+002, 2.443599e+002
9.214951e+002, 2.447800e+002
9.219772e+002, 2.442708e+002
9.224593e+002, 2.431392e+002
9.229414e+002, 2.422010e+002
9.234235e+002, 2.414644e+002
9.239056e+002, 2.411349e+002
9.243878e+002, 2.414263e+002
9.248699e+002, 2.418587e+002
9.253520e+002, 2.418843e+002
9.258341e+002, 2.416792e+002
9.263162e+002, 2.415209e+002
9.267983e+002, 2.414102e+002
9.272805e+002, 2.414951e+002
9.277626e+002, 2.419901e+002
9.282447e+002, 2.424832e+002
9.287268e+002, 2.425051e+002
9.292089e+002, 2.420573e+002
9.296910e+002, 2.416326e+002
9.301732e+002, 2.412554e+002
9.306553e+002, 2.410888e+002
9.311374e+002, 2.414619e+002
9.316195e+002, 2.420242e+002
9.321016e+002, 2.422999e+002
9.325837e+002, 2.422099e+002
9.330659e+002, 2.424636e+002
9.335480e+002, 2.438157e+002
9.340301e+002, 2.448100e+002
9.345122e+002, 2.447012e+002
9.349943e+002, 2.437028e+002
9.354764e+002, 2.433635e+002
9.359586e+002, 2.436581e+002
9.364407e+002, 2.439304e+002
9.369228e+002, 2.436100e+002
9.374049e+002, 2.433284e+002
9.378870e+002, 2.440421e+002
9.383691e+002, 2.452866e+002
9.388513e+002, 2.459726e+002
9.393334e+002, 2.452639e+002
9.398155e+002, 2.446888e+002
9.402976e+002, 2.444258e+002
9.407797e+002, 2.444296e+002
9.412618e+002, 2.447620e+002
9.417440e+002, 2.453861e+002
9.422261e+002, 2.457354e+002
9.427082e+002, 2.457019e+002
9.431903e+002, 2.454866e+002
9.436724e+002, 2.449993e+002
9.441545e+002, 2.445967e+002
9.446367e+002, 2.447260e+002
9.451188e+002, 2.456387e+002
9.456009e+002, 2.463211e+002
9.460830e+002, 2.466476e+002
9.465651e+002, 2.467915e+002
9.470472e+002, 2.468717e+002
9.475294e+002, 2.468605e+002
9.480115e+002, 2.464067e+002
9.484936e+002, 2.455613e+002
9.489757e+002, 2.449606e+002
9.494578e+002, 2.452404e+002
9.499399e+002, 2.457182e+002
9.504221e+002, 2.458154e+002
9.509042e+002, 2.456562e+002
9.513863e+002, 2.457851e+002
9.518684e+002, 2.465916e+002
9.523505e+002, 2.470580e+002
9.528326e+002, 2.469182e+002
9.533148e+002, 2.464841e+002
9.537969e+002, 2.463244e+002
9.542790e+002, 2.463868e+002
9.547611e+002, 2.464154e+002
9.552432e+002, 2.463133e+002
9.557253e+002, 2.462930e+002
9.562075e+002, 2.467603e+002
9.566896e+002, 2.472318e+002
9.571717e+002, 2.471256e+002
9.576538e+002, 2.460098e+002
9.581359e+002, 2.456143e+002
9.586180e+002, 2.461470e+002
9.591002e+002, 2.468608e+002
9.595823e+002, 2.472073e+002
9.600644e+002, 2.472935e+002
9.605465e+002, 2.473967e+002
9.610286e+002, 2.475320e+002
9.615107e+002, 2.477726e+002
9.619929e+002, 2.484287e+002
9.624750e+002, 2.489380e+002
9.629571e+002, 2.488517e+002
9.634392e+002, 2.483632e+002
9.639213e+002, 2.482016e+002
9.644034e+002, 2.484439e+002
9.648856e+002, 2.487391e+002
9.653677e+002, 2.490530e+002
9.658498e+002, 2.492786e+002
9.663319e+002, 2.490549e+002
9.668140e+002, 2.486512e+002
9.672961e+002, 2.487033e+002
9.677783e+002, 2.496388e+002
9.682604e+002, 2.503365e+002
9.687425e+002, 2.501787e+002
9.692246e+002, 2.497598e+002
9.697067e+002, 2.495601e+002
9.701888e+002, 2.496350e+002
9.706710e+002, 2.494329e+002
9.711531e+002, 2.488934e+002
9.716352e+002, 2.486562e+002
9.721173e+002, 2.496272e+002
9.725994e+002, 2.509347e+002
9.730815e+002, 2.513916e+002
9.735637e+002, 2.510794e+002
9.740458e+002, 2.507463e+002
9.745279e+002, 2.505584e+002
9.750100e+002, 2.504770e+002
9.754921e+002, 2.504558e+002
9.759742e+002, 2.505527e+002
9.764564e+002, 2.510147e+002
9.769385e+002, 2.518184e+002
9.774206e+002, 2.523909e+002
9.779027e+002, 2.525473e+002
9.783848e+002, 2.525466e+002
9.788669e+002, 2.525146e+002
9.793491e+002, 2.525343e+002
9.798312e+002, 2.527374e+002
9.803133e+002, 2.533211e+002
9.807954e+002, 2.536019e+002
9.812775e+002, 2.533681e+002
9.817596e+002, 2.531693e+002
9.822418e+002, 2.534913e+002
9.827239e+002, 2.542002e+002
9.832060e+002, 2.546611e+002
9.836881e+002, 2.548591e+002
9.841702e+002, 2.547370e+002
9.846523e+002, 2.538691e+002
9.851345e+002, 2.530408e+002
9.856166e+002, 2.528161e+002
9.860987e+002, 2.530267e+002
9.865808e+002, 2.529581e+002
9.870629e+002, 2.524403e+002
9.875450e+002, 2.522081e+002
9.880272e+002, 2.524783e+002
9.885093e+002, 2.529184e+002
9.889914e+002, 2.529705e+002
9.894735e+002, 2.528261e+002
9.899556e+002, 2.528999e+002
9.904377e+002, 2.533422e+002
9.909199e+002, 2.537567e+002
9.914020e+002, 2.540428e+002
9.918841e+002, 2.541868e+002
9.923662e+002, 2.541412e+002
9.928483e+002, 2.538970e+002
9.933304e+002, 2.538507e+002
9.938126e+002, 2.540130e+002
9.942947e+002, 2.541768e+002
9.947768e+002, 2.542188e+002
9.952589e+002, 2.541831e+002
9.957410e+002, 2.540967e+002
9.962231e+002, 2.539746e+002
9.967053e+002, 2.538585e+002
9.971874e+002, 2.536027e+002
9.976695e+002, 2.535820e+002
9.981516e+002, 2.539003e+002
9.986337e+002, 2.544046e+002
9.991158e+002, 2.550052e+002
9.995980e+002, 2.556380e+002
1.000080e+003, 2.557025e+002
1.000562e+003, 2.550366e+002
1.001044e+003, 2.545225e+002
1.001526e+003, 2.551112e+002
1.002009e+003, 2.559418e+002
1.002491e+003, 2.562921e+002
1.002973e+003, 2.560610e+002
1.003455e+003, 2.557761e+002
1.003937e+003, 2.554187e+002
1.004419e+003, 2.550689e+002
1.004901e+003, 2.546991e+002
1.005383e+003, 2.544149e+002
1.005865e+003, 2.545013e+002
1.006348e+003, 2.548633e+002
1.006830e+003, 2.552325e+002
1.007312e+003, 2.554290e+002
1.007794e+003, 2.556862e+002
1.008276e+003, 2.562870e+002
1.008758e+003, 2.568457e+002
1.009240e+003, 2.568532e+002
1.009722e+003, 2.562174e+002
1.010205e+003, 2.559903e+002
1.010687e+003, 2.562633e+002
1.011169e+003, 2.566709e+002
1.011651e+003, 2.570623e+002
1.012133e+003, 2.572990e+002
1.012615e+003, 2.570600e+002
1.013097e+003, 2.563777e+002
1.013579e+003, 2.561680e+002
1.014061e+003, 2.569873e+002
1.014544e+003, 2.576067e+002
1.015026e+003, 2.576631e+002
1.015508e+003, 2.573068e+002
1.015990e+003, 2.567545e+002
1.016472e+003, 2.560900e+002
1.016954e+003, 2.556440e+002
1.017436e+003, 2.554853e+002
1.017918e+003, 2.556394e+002
1.018401e+003, 2.564511e+002
1.018883e+003, 2.573739e+002
1.019365e+003, 2.578440e+002
1.019847e+003, 2.577483e+002
1.020329e+003, 2.577130e+002
1.020811e+003, 2.577394e+002
1.021293e+003, 2.578276e+002
1.021775e+003, 2.580716e+002
1.022257e+003, 2.583254e+002
1.022740e+003, 2.582036e+002
1.023222e+003, 2.578572e+002
1.023704e+003, 2.578670e+002
1.024186e+003, 2.590891e+002
1.024668e+003, 2.598224e+002
1.025150e+003, 2.595629e+002
1.025632e+003, 2.587988e+002
1.026114e+003, 2.582222e+002
1.026596e+003, 2.578534e+002
1.027079e+003, 2.578842e+002
1.027561e+003, 2.583892e+002
1.028043e+003, 2.589184e+002
1.028525e+003, 2.592093e+002
1.029007e+003, 2.592912e+002
1.029489e+003, 2.590485e+002
1.029971e+003, 2.584479e+002
1.030453e+003, 2.584328e+002
1.030936e+003, 2.592160e+002
1.031418e+003, 2.598839e+002
1.031900e+003, 2.600265e+002
1.032382e+003, 2.598488e+002
1.032864e+003, 2.596455e+002
1.033346e+003, 2.594550e+002
1.033828e+003, 2.593742e+002
1.034310e+003, 2.594444e+002
1.034792e+003, 2.596224e+002
1.035275e+003, 2.601014e+002
1.035757e+003, 2.605040e+002
1.036239e+003, 2.603692e+002
1.036721e+003, 2.596993e+002
1.037203e+003, 2.597062e+002
1.037685e+003, 2.604232e+002
1.038167e+003, 2.609164e+002
1.038649e+003, 2.601328e+002
1.039132e+003, 2.591605e+002
1.039614e+003, 2.588273e+002
1.040096e+003, 2.590988e+002
1.040578e+003, 2.595761e+002
1.041060e+003, 2.604229e+002
1.041542e+003, 2.609327e+002
1.042024e+003, 2.608854e+002
1.042506e+003, 2.606494e+002
1.042989e+003, 2.607944e+002
1.043471e+003, 2.611638e+002
1.043953e+003, 2.614128e+002
1.044435e+003, 2.614435e+002
1.044917e+003, 2.615432e+002
1.045399e+003, 2.619988e+002
1.045881e+003, 2.623669e+002
1.046363e+003, 2.624156e+002
1.046845e+003, 2.621776e+002
1.047328e+003, 2.618341e+002
1.047810e+003, 2.613991e+002
1.048292e+003, 2.611388e+002
1.048774e+003, 2.612684e+002
1.049256e+003, 2.614933e+002
1.049738e+003, 2.616293e+002
1.050220e+003, 2.616903e+002
1.050702e+003, 2.616992e+002
1.051184e+003, 2.617078e+002
1.051667e+003, 2.614370e+002
1.052149e+003, 2.606677e+002
1.052631e+003, 2.603137e+002
1.053113e+003, 2.618101e+002
1.053595e+003, 2.640304e+002
1.054077e+003, 2.646458e+002
1.054559e+003, 2.637602e+002
1.055041e+003, 2.627903e+002
1.055523e+003, 2.619999e+002
1.056006e+003, 2.616176e+002
1.056488e+003, 2.617565e+002
1.056970e+003, 2.622524e+002
1.057452e+003, 2.629171e+002
1.057934e+003, 2.636993e+002
1.058416e+003, 2.640490e+002
1.058898e+003, 2.638120e+002
1.059380e+003, 2.634696e+002
1.059863e+003, 2.634278e+002
1.060345e+003, 2.634407e+002
1.060827e+003, 2.632101e+002
1.061309e+003, 2.627067e+002
1.061791e+003, 2.627452e+002
1.062273e+003, 2.634820e+002
1.062755e+003, 2.639789e+002
1.063237e+003, 2.636478e+002
1.063719e+003, 2.630772e+002
1.064202e+003, 2.632161e+002
1.064684e+003, 2.637876e+002
1.065166e+003, 2.642728e+002
1.065648e+003, 2.645502e+002
1.066130e+003, 2.646448e+002
1.066612e+003, 2.644878e+002
1.067094e+003, 2.642783e+002
1.067576e+003, 2.640966e+002
1.068059e+003, 2.639877e+002
1.068541e+003, 2.643921e+002
1.069023e+003, 2.652259e+002
1.069505e+003, 2.657743e+002
1.069987e+003, 2.653374e+002
1.070469e+003, 2.647904e+002
1.070951e+003, 2.644699e+002
1.071433e+003, 2.643978e+002
1.071916e+003, 2.646826e+002
1.072398e+003, 2.653767e+002
1.072880e+003, 2.659469e+002
1.073362e+003, 2.663201e+002
1.073844e+003, 2.665478e+002
1.074326e+003, 2.666914e+002
1.074808e+003, 2.667074e+002
1.075290e+003, 2.664015e+002
1.075772e+003, 2.657696e+002
1.076255e+003, 2.657202e+002
1.076737e+003, 2.666706e+002
1.077219e+003, 2.672962e+002
1.077701e+003, 2.670203e+002
1.078183e+003, 2.663947e+002
1.078665e+003, 2.664567e+002
1.079147e+003, 2.670319e+002
1.079629e+003, 2.677899e+002
1.080111e+003, 2.688360e+002
1.080594e+003, 2.694810e+002
1.081076e+003, 2.689294e+002
1.081558e+003, 2.684420e+002
1.082040e+003, 2.689140e+002
1.082522e+003, 2.701861e+002
1.083004e+003, 2.704413e+002
1.083486e+003, 2.697891e+002
1.083968e+003, 2.692679e+002
1.084450e+003, 2.695397e+002
1.084933e+003, 2.700191e+002
1.085415e+003, 2.702277e+002
1.085897e+003, 2.704586e+002
1.086379e+003, 2.713488e+002
1.086861e+003, 2.734312e+002
1.087343e+003, 2.738016e+002
1.087825e+003, 2.721055e+002
1.088307e+003, 2.702295e+002
1.088790e+003, 2.700874e+002
1.089272e+003, 2.705279e+002
1.089754e+003, 2.699383e+002
1.090236e+003, 2.685310e+002
1.090718e+003, 2.678676e+002
1.091200e+003, 2.687142e+002
1.091682e+003, 2.694466e+002
1.092164e+003, 2.698147e+002
1.092646e+003, 2.699101e+002
1.093129e+003, 2.697127e+002
1.093611e+003, 2.693805e+002
1.094093e+003, 2.693491e+002
1.094575e+003, 2.697043e+002
1.095057e+003, 2.700120e+002
1.095539e+003, 2.700475e+002
1.096021e+003, 2.700151e+002
1.096503e+003, 2.700179e+002
1.096986e+003, 2.700195e+002
1.097468e+003, 2.697806e+002
1.097950e+003, 2.693563e+002
1.098432e+003, 2.692627e+002
1.098914e+003, 2.698107e+002
1.099396e+003, 2.703322e+002
1.099878e+003, 2.703019e+002
1.100360e+003, 2.700333e+002
1.100843e+003, 2.697988e+002
1.101325e+003, 2.695909e+002
1.101807e+003, 2.696893e+002
1.102289e+003, 2.701478e+002
1.102771e+003, 2.703346e+002
1.103253e+003, 2.695284e+002
1.103735e+003, 2.686211e+002
1.104217e+003, 2.688466e+002
1.104699e+003, 2.697098e+002
1.105182e+003, 2.702783e+002
1.105664e+003, 2.703119e+002
1.106146e+003, 2.700956e+002
1.106628e+003, 2.695279e+002
1.107110e+003, 2.689931e+002
1.107592e+003, 2.687701e+002
1.108074e+003, 2.688488e+002
1.108556e+003, 2.694398e+002
1.109038e+003, 2.703846e+002
1.109521e+003, 2.708721e+002
1.110003e+003, 2.699494e+002
1.110485e+003, 2.694059e+002
1.110967e+003, 2.697488e+002
1.111449e+003, 2.704643e+002
1.111931e+003, 2.707879e+002
1.112413e+003, 2.707994e+002
1.112895e+003, 2.707705e+002
1.113377e+003, 2.707290e+002
1.113860e+003, 2.710145e+002
1.114342e+003, 2.721790e+002
1.114824e+003, 2.733845e+002
1.115306e+003, 2.741436e+002
1.115788e+003, 2.745780e+002
1.116270e+003, 2.751490e+002
1.116752e+003, 2.758517e+002
1.117234e+003, 2.761605e+002
1.117717e+003, 2.759718e+002
1.118199e+003, 2.752398e+002
1.118681e+003, 2.731210e+002
1.119163e+003, 2.709951e+002
1.119645e+003, 2.704122e+002
1.120127e+003, 2.714991e+002
1.120609e+003, 2.719369e+002
1.121091e+003, 2.716115e+002
1.121573e+003, 2.713170e+002
1.122056e+003, 2.713038e+002
1.122538e+003, 2.716217e+002
1.123020e+003, 2.728866e+002
1.123502e+003, 2.743276e+002
1.123984e+003, 2.746809e+002
1.124466e+003, 2.729649e+002
1.124948e+003, 2.717940e+002
1.125430e+003, 2.712700e+002
1.125913e+003, 2.711321e+002
1.126395e+003, 2.714714e+002
1.126877e+003, 2.719528e+002
1.127359e+003, 2.715647e+002
1.127841e+003, 2.706745e+002
1.128323e+003, 2.703035e+002
1.128805e+003, 2.712242e+002
1.129287e+003, 2.721966e+002
1.129770e+003, 2.733059e+002
1.130252e+003, 2.740371e+002
1.130734e+003, 2.736390e+002
1.131216e+003, 2.724320e+002
1.131698e+003, 2.716330e+002
1.132180e+003, 2.712785e+002
1.132662e+003, 2.712689e+002
1.133144e+003, 2.718695e+002
1.133626e+003, 2.724229e+002
1.134109e+003, 2.727454e+002
1.134591e+003, 2.728494e+002
1.135073e+003, 2.726636e+002
1.135555e+003, 2.722225e+002
1.136037e+003, 2.719350e+002
1.136519e+003, 2.718481e+002
1.137001e+003, 2.718990e+002
1.137483e+003, 2.721903e+002
1.137965e+003, 2.724698e+002
1.138448e+003, 2.725829e+002
1.138930e+003, 2.725607e+002
1.139412e+003, 2.724322e+002
1.139894e+003, 2.721872e+002
1.140376e+003, 2.721541e+002
1.140858e+003, 2.724380e+002
1.141340e+003, 2.727702e+002
1.141822e+003, 2.729245e+002
1.142304e+003, 2.729955e+002
1.142787e+003, 2.730853e+002
1.143269e+003, 2.731953e+002
1.143751e+003, 2.731264e+002
1.144233e+003, 2.728075e+002
1.144715e+003, 2.727020e+002
1.145197e+003, 2.730287e+002
1.145679e+003, 2.734797e+002
1.146161e+003, 2.737160e+002
1.146644e+003, 2.737964e+002
1.147126e+003, 2.737822e+002
1.147608e+003, 2.736446e+002
1.148090e+003, 2.735332e+002
1.148572e+003, 2.734138e+002
1.149054e+003, 2.734534e+002
1.149536e+003, 2.738941e+002
1.150018e+003, 2.743614e+002
1.150500e+003, 2.740392e+002
1.150983e+003, 2.732833e+002
1.151465e+003, 2.727936e+002
1.151947e+003, 2.728201e+002
1.152429e+003, 2.730880e+002
1.152911e+003, 2.737915e+002
1.153393e+003, 2.742641e+002
1.153875e+003, 2.737898e+002
1.154357e+003, 2.728353e+002
1.154840e+003, 2.727619e+002
1.155322e+003, 2.733239e+002
1.155804e+003, 2.737401e+002
1.156286e+003, 2.733481e+002
1.156768e+003, 2.733219e+002
1.157250e+003, 2.739951e+002
1.157732e+003, 2.748010e+002
1.158214e+003, 2.753614e+002
1.158697e+003, 2.756098e+002
1.159179e+003, 2.750135e+002
1.159661e+003, 2.737293e+002
1.160143e+003, 2.727256e+002
1.160625e+003, 2.724442e+002
1.161107e+003, 2.725993e+002
1.161589e+003, 2.732839e+002
1.162071e+003, 2.741466e+002
1.162553e+003, 2.748518e+002
1.163036e+003, 2.753638e+002
1.163518e+003, 2.753335e+002
1.164000e+003, 2.747739e+002
1.164482e+003, 2.743044e+002
1.164964e+003, 2.744246e+002
1.165446e+003, 2.745902e+002
1.165928e+003, 2.744297e+002
1.166410e+003, 2.742144e+002
1.166892e+003, 2.745777e+002
1.167375e+003, 2.754637e+002
1.167857e+003, 2.759928e+002
1.168339e+003, 2.760508e+002
1.168821e+003, 2.758204e+002
1.169303e+003, 2.750633e+002
1.169785e+003, 2.744104e+002
1.170267e+003, 2.742944e+002
1.170749e+003, 2.745971e+002
1.171231e+003, 2.751353e+002
1.171714e+003, 2.759044e+002
1.172196e+003, 2.763216e+002
1.172678e+003, 2.762185e+002
1.173160e+003, 2.760299e+002
1.173642e+003, 2.763723e+002
1.174124e+003, 2.765760e+002
1.174606e+003, 2.756934e+002
1.175088e+003, 2.740550e+002
1.175571e+003, 2.739594e+002
1.176053e+003, 2.755162e+002
1.176535e+003, 2.763538e+002
1.177017e+003, 2.756187e+002
1.177499e+003, 2.746297e+002
1.177981e+003, 2.744610e+002
1.178463e+003, 2.748004e+002
1.178945e+003, 2.755806e+002
1.179427e+003, 2.767670e+002
1.179910e+003, 2.769960e+002
1.180392e+003, 2.761357e+002
1.180874e+003, 2.756960e+002
1.181356e+003, 2.764454e+002
1.181838e+003, 2.773570e+002
1.182320e+003, 2.772275e+002
1.182802e+003, 2.767017e+002
1.183284e+003, 2.766365e+002
1.183767e+003, 2.772401e+002
1.184249e+003, 2.770760e+002
1.184731e+003, 2.760039e+002
1.185213e+003, 2.751337e+002
1.185695e+003, 2.751059e+002
1.186177e+003, 2.753670e+002
1.186659e+003, 2.752301e+002
1.187141e+003, 2.749894e+002
1.187624e+003, 2.751330e+002
1.188106e+003, 2.759286e+002
1.188588e+003, 2.762395e+002
1.189070e+003, 2.759801e+002
1.189552e+003, 2.757400e+002
1.190034e+003, 2.759987e+002
1.190516e+003, 2.763095e+002
1.190998e+003, 2.759534e+002
1.191480e+003, 2.753032e+002
1.191963e+003, 2.750048e+002
1.192445e+003, 2.752654e+002
1.192927e+003, 2.756290e+002
1.193409e+003, 2.761207e+002
1.193891e+003, 2.765861e+002
1.194373e+003, 2.770206e+002
1.194855e+003, 2.772884e+002
1.195337e+003, 2.770779e+002
1.195819e+003, 2.765809e+002
1.196302e+003, 2.762093e+002
1.196784e+003, 2.758379e+002
1.197266e+003, 2.761487e+002
1.197748e+003, 2.773564e+002
1.198230e+003, 2.783805e+002
1.198712e+003, 2.781581e+002
1.199194e+003, 2.773761e+002
1.199676e+003, 2.767286e+002
1.200158e+003, 2.763100e+002
1.200641e+003, 2.763917e+002
1.201123e+003, 2.774145e+002
1.201605e+003, 2.779471e+002
1.202087e+003, 2.778471e+002
1.202569e+003, 2.775443e+002
1.203051e+003, 2.772434e+002
1.203533e+003, 2.771010e+002
1.204015e+003, 2.774213e+002
1.204498e+003, 2.780883e+002
1.204980e+003, 2.787164e+002
1.205462e+003, 2.794718e+002
1.205944e+003, 2.795682e+002
1.206426e+003, 2.787894e+002
1.206908e+003, 2.779293e+002
1.207390e+003, 2.778076e+002
1.207872e+003, 2.780426e+002
1.208354e+003, 2.781885e+002
1.208837e+003, 2.782404e+002
1.209319e+003, 2.782805e+002
1.209801e+003, 2.782226e+002
1.210283e+003, 2.784837e+002
1.210765e+003, 2.792505e+002
1.211247e+003, 2.798092e+002
1.211729e+003, 2.789550e+002
1.212211e+003, 2.777708e+002
1.212694e+003, 2.778366e+002
1.213176e+003, 2.789721e+002
1.213658e+003, 2.796040e+002
1.214140e+003, 2.794972e+002
1.214622e+003, 2.791797e+002
1.215104e+003, 2.786783e+002
1.215586e+003, 2.782148e+002
1.216068e+003, 2.781086e+002
1.216551e+003, 2.781248e+002
1.217033e+003, 2.779224e+002
1.217515e+003, 2.775374e+002
1.217997e+003, 2.773944e+002
1.218479e+003, 2.775596e+002
1.218961e+003, 2.778567e+002
1.219443e+003, 2.783282e+002
1.219925e+003, 2.786151e+002
1.220407e+003, 2.779985e+002
1.220890e+003, 2.771900e+002
1.221372e+003, 2.770350e+002
1.221854e+003, 2.775395e+002
1.222336e+003, 2.780396e+002
1.222818e+003, 2.785703e+002
1.223300e+003, 2.787835e+002
1.223782e+003, 2.785644e+002
1.224264e+003, 2.782229e+002
1.224746e+003, 2.779131e+002
1.225229e+003, 2.777989e+002
1.225711e+003, 2.782453e+002
1.226193e+003, 2.791700e+002
1.226675e+003, 2.794677e+002
1.227157e+003, 2.790114e+002
1.227639e+003, 2.785682e+002
1.228121e+003, 2.782809e+002
1.228603e+003, 2.781510e+002
1.229085e+003, 2.782120e+002
1.229568e+003, 2.784077e+002
1.230050e+003, 2.787244e+002
1.230532e+003, 2.791432e+002
1.231014e+003, 2.795797e+002
1.231496e+003, 2.800851e+002
1.231978e+003, 2.800732e+002
1.232460e+003, 2.792977e+002
1.232942e+003, 2.785405e+002
1.233425e+003, 2.787288e+002
1.233907e+003, 2.791281e+002
1.234389e+003, 2.790104e+002
1.234871e+003, 2.784690e+002
1.235353e+003, 2.782760e+002
1.235835e+003, 2.784508e+002
1.236317e+003, 2.785646e+002
1.236799e+003, 2.784907e+002
1.237281e+003, 2.784812e+002
1.237764e+003, 2.788604e+002
1.238246e+003, 2.793012e+002
1.238728e+003, 2.795815e+002
1.239210e+003, 2.796960e+002
1.239692e+003, 2.794792e+002
1.240174e+003, 2.789583e+002
1.240656e+003, 2.788268e+002
1.241138e+003, 2.793112e+002
1.241621e+003, 2.798349e+002
1.242103e+003, 2.800160e+002
1.242585e+003, 2.800317e+002
1.243067e+003, 2.799757e+002
1.243549e+003, 2.798626e+002
1.244031e+003, 2.796131e+002
1.244513e+003, 2.792874e+002
1.244995e+003, 2.795659e+002
1.245478e+003, 2.807780e+002
1.245960e+003, 2.815063e+002
1.246442e+003, 2.800354e+002
1.246924e+003, 2.787841e+002
1.247406e+003, 2.792518e+002
1.247888e+003, 2.807691e+002
1.248370e+003, 2.812598e+002
1.248852e+003, 2.809416e+002
1.249334e+003, 2.807646e+002
1.249817e+003, 2.809851e+002
1.250299e+003, 2.810710e+002
1.250781e+003, 2.805650e+002
1.251263e+003, 2.801270e+002
1.251745e+003, 2.800948e+002
1.252227e+003, 2.802383e+002
1.252709e+003, 2.798407e+002
1.253191e+003, 2.791541e+002
1.253673e+003, 2.789689e+002
1.254156e+003, 2.795186e+002
1.254638e+003, 2.799760e+002
1.255120e+003, 2.801985e+002
1.255602e+003, 2.800350e+002
1.256084e+003, 2.791527e+002
1.256566e+003, 2.782461e+002
1.257048e+003, 2.790776e+002
1.257530e+003, 2.808315e+002
1.258012e+003, 2.817042e+002
1.258495e+003, 2.812652e+002
1.258977e+003, 2.813718e+002
1.259459e+003, 2.827874e+002
1.259941e+003, 2.835747e+002
1.260423e+003, 2.829322e+002
1.260905e+003, 2.817533e+002
1.261387e+003, 2.812898e+002
1.261869e+003, 2.813119e+002
1.262352e+003, 2.815568e+002
1.262834e+003, 2.820060e+002
1.263316e+003, 2.823142e+002
1.263798e+003, 2.825278e+002
1.264280e+003, 2.823605e+002
1.264762e+003, 2.816495e+002
1.265244e+003, 2.807831e+002
1.265726e+003, 2.799235e+002
1.266208e+003, 2.793700e+002
1.266691e+003, 2.795848e+002
1.267173e+003, 2.806010e+002
1.267655e+003, 2.815279e+002
1.268137e+003, 2.823986e+002
1.268619e+003, 2.829308e+002
1.269101e+003, 2.830216e+002
1.269583e+003, 2.828601e+002
1.270065e+003, 2.825955e+002
1.270548e+003, 2.821803e+002
1.271030e+003, 2.814047e+002
1.271512e+003, 2.804268e+002
1.271994e+003, 2.799339e+002
1.272476e+003, 2.799259e+002
1.272958e+003, 2.802690e+002
1.273440e+003, 2.809813e+002
1.273922e+003, 2.816845e+002
1.274405e+003, 2.822109e+002
1.274887e+003, 2.825317e+002
1.275369e+003, 2.826583e+002
1.275851e+003, 2.825883e+002
1.276333e+003, 2.821733e+002
1.276815e+003, 2.815147e+002
1.277297e+003, 2.811221e+002
1.277779e+003, 2.810973e+002
1.278261e+003, 2.812518e+002
1.278744e+003, 2.817125e+002
1.279226e+003, 2.820249e+002
1.279708e+003, 2.818964e+002
1.280190e+003, 2.816845e+002
1.280672e+003, 2.824224e+002
1.281154e+003, 2.835663e+002
1.281636e+003, 2.834989e+002
1.282118e+003, 2.819980e+002
1.282600e+003, 2.809699e+002
1.283083e+003, 2.811559e+002
1.283565e+003, 2.815993e+002
1.284047e+003, 2.821892e+002
1.284529e+003, 2.827264e+002
1.285011e+003, 2.830436e+002
1.285493e+003, 2.830621e+002
1.285975e+003, 2.823777e+002
1.286457e+003, 2.810678e+002
1.286939e+003, 2.806715e+002
1.287422e+003, 2.816143e+002
1.287904e+003, 2.823374e+002
1.288386e+003, 2.825352e+002
1.288868e+003, 2.825101e+002
1.289350e+003, 2.825477e+002
1.289832e+003, 2.825597e+002
1.290314e+003, 2.824375e+002
1.290796e+003, 2.821973e+002
1.291279e+003, 2.819336e+002
1.291761e+003, 2.816200e+002
1.292243e+003, 2.815718e+002
1.292725e+003, 2.818546e+002
1.293207e+003, 2.820055e+002
1.293689e+003, 2.813131e+002
1.294171e+003, 2.806947e+002
1.294653e+003, 2.808804e+002
1.295135e+003, 2.815121e+002
1.295618e+003, 2.821033e+002
1.296100e+003, 2.826347e+002
1.296582e+003, 2.829401e+002
1.297064e+003, 2.830302e+002
1.297546e+003, 2.828900e+002
1.298028e+003, 2.820163e+002
1.298510e+003, 2.814629e+002
1.298992e+003, 2.816727e+002
1.299475e+003, 2.821984e+002
1.299957e+003, 2.823674e+002
1.300439e+003, 2.824073e+002
1.300921e+003, 2.831989e+002
1.301403e+003, 2.845854e+002
1.301885e+003, 2.853884e+002
##END=



