##NAMES=Steacyite
##RRUFFID=R120037
##IDEAL CHEMISTRY=K_0.3_(Na,Ca)_2_Th^4+^Si_8_O_20_
##LOCALITY=Mont Saint-Hilaire, Rouville RCM, Montérégie, Québec, Canada
##OWNER=RRUFF
##SOURCE=Donald Doell
##DESCRIPTION=Brown rectangular prism
##STATUS=The identification of this mineral is not yet confirmed.
##URL=rruff.info/R120037
8.975323e+001, 0.000000e+000
9.023535e+001, 6.117869e+003
9.071747e+001, 6.021526e+003
9.119958e+001, 5.964314e+003
9.168170e+001, 6.090347e+003
9.216382e+001, 6.207499e+003
9.264594e+001, 6.274174e+003
9.312805e+001, 6.304066e+003
9.361017e+001, 6.320162e+003
9.409229e+001, 6.322638e+003
9.457440e+001, 6.307614e+003
9.505651e+001, 6.284468e+003
9.553863e+001, 6.255085e+003
9.602074e+001, 6.224333e+003
9.650286e+001, 6.196308e+003
9.698498e+001, 6.168697e+003
9.746709e+001, 6.129916e+003
9.794921e+001, 6.095167e+003
9.843133e+001, 6.065968e+003
9.891344e+001, 6.039547e+003
9.939556e+001, 6.011940e+003
9.987768e+001, 5.984215e+003
1.003598e+002, 5.961620e+003
1.008419e+002, 5.947226e+003
1.013240e+002, 5.940647e+003
1.018061e+002, 5.936244e+003
1.022883e+002, 5.934463e+003
1.027704e+002, 5.933642e+003
1.032525e+002, 5.931709e+003
1.037346e+002, 5.927893e+003
1.042167e+002, 5.925234e+003
1.046988e+002, 5.924755e+003
1.051810e+002, 5.925192e+003
1.056631e+002, 5.925092e+003
1.061452e+002, 5.922728e+003
1.066273e+002, 5.918931e+003
1.071094e+002, 5.917669e+003
1.075915e+002, 5.920381e+003
1.080737e+002, 5.923656e+003
1.085558e+002, 5.926436e+003
1.090379e+002, 5.928545e+003
1.095200e+002, 5.929802e+003
1.100021e+002, 5.929844e+003
1.104842e+002, 5.928325e+003
1.109664e+002, 5.927318e+003
1.114485e+002, 5.924794e+003
1.119306e+002, 5.924299e+003
1.124127e+002, 5.928484e+003
1.128948e+002, 5.937206e+003
1.133769e+002, 5.947813e+003
1.138591e+002, 5.956460e+003
1.143412e+002, 5.962109e+003
1.148233e+002, 5.967364e+003
1.153054e+002, 5.973145e+003
1.157875e+002, 5.978105e+003
1.162696e+002, 5.980128e+003
1.167517e+002, 5.978252e+003
1.172339e+002, 5.974783e+003
1.177160e+002, 5.975474e+003
1.181981e+002, 5.981080e+003
1.186802e+002, 5.987685e+003
1.191623e+002, 5.995209e+003
1.196444e+002, 6.002957e+003
1.201266e+002, 6.009031e+003
1.206087e+002, 6.012116e+003
1.210908e+002, 6.013034e+003
1.215729e+002, 6.013865e+003
1.220550e+002, 6.014034e+003
1.225371e+002, 6.014978e+003
1.230193e+002, 6.019235e+003
1.235014e+002, 6.027499e+003
1.239835e+002, 6.033167e+003
1.244656e+002, 6.028599e+003
1.249477e+002, 6.021336e+003
1.254298e+002, 6.018576e+003
1.259120e+002, 6.023967e+003
1.263941e+002, 6.033858e+003
1.268762e+002, 6.039917e+003
1.273583e+002, 6.040267e+003
1.278404e+002, 6.039725e+003
1.283225e+002, 6.038369e+003
1.288047e+002, 6.037491e+003
1.292868e+002, 6.039047e+003
1.297689e+002, 6.044692e+003
1.302510e+002, 6.054039e+003
1.307331e+002, 6.061135e+003
1.312152e+002, 6.064002e+003
1.316974e+002, 6.066430e+003
1.321795e+002, 6.069709e+003
1.326616e+002, 6.073370e+003
1.331437e+002, 6.075955e+003
1.336258e+002, 6.076009e+003
1.341079e+002, 6.072889e+003
1.345901e+002, 6.071502e+003
1.350722e+002, 6.071619e+003
1.355543e+002, 6.073238e+003
1.360364e+002, 6.077119e+003
1.365185e+002, 6.083042e+003
1.370006e+002, 6.089217e+003
1.374828e+002, 6.093398e+003
1.379649e+002, 6.095049e+003
1.384470e+002, 6.097612e+003
1.389291e+002, 6.103063e+003
1.394112e+002, 6.108864e+003
1.398933e+002, 6.111467e+003
1.403755e+002, 6.109554e+003
1.408576e+002, 6.106542e+003
1.413397e+002, 6.106722e+003
1.418218e+002, 6.109710e+003
1.423039e+002, 6.113938e+003
1.427860e+002, 6.119094e+003
1.432681e+002, 6.125042e+003
1.437503e+002, 6.131529e+003
1.442324e+002, 6.139296e+003
1.447145e+002, 6.146533e+003
1.451966e+002, 6.151457e+003
1.456787e+002, 6.154045e+003
1.461608e+002, 6.156345e+003
1.466430e+002, 6.160542e+003
1.471251e+002, 6.166971e+003
1.476072e+002, 6.171953e+003
1.480893e+002, 6.172446e+003
1.485714e+002, 6.172749e+003
1.490535e+002, 6.175583e+003
1.495357e+002, 6.181422e+003
1.500178e+002, 6.188307e+003
1.504999e+002, 6.193024e+003
1.509820e+002, 6.193886e+003
1.514641e+002, 6.196401e+003
1.519462e+002, 6.202875e+003
1.524284e+002, 6.209922e+003
1.529105e+002, 6.214794e+003
1.533926e+002, 6.216463e+003
1.538747e+002, 6.216061e+003
1.543568e+002, 6.216338e+003
1.548389e+002, 6.216124e+003
1.553211e+002, 6.218311e+003
1.558032e+002, 6.223923e+003
1.562853e+002, 6.231683e+003
1.567674e+002, 6.240632e+003
1.572495e+002, 6.250447e+003
1.577316e+002, 6.260354e+003
1.582138e+002, 6.266826e+003
1.586959e+002, 6.266628e+003
1.591780e+002, 6.267128e+003
1.596601e+002, 6.269993e+003
1.601422e+002, 6.274853e+003
1.606243e+002, 6.280843e+003
1.611065e+002, 6.287500e+003
1.615886e+002, 6.294950e+003
1.620707e+002, 6.303291e+003
1.625528e+002, 6.313833e+003
1.630349e+002, 6.323951e+003
1.635170e+002, 6.331935e+003
1.639991e+002, 6.337951e+003
1.644813e+002, 6.343372e+003
1.649634e+002, 6.348952e+003
1.654455e+002, 6.354503e+003
1.659276e+002, 6.359587e+003
1.664097e+002, 6.363635e+003
1.668918e+002, 6.367641e+003
1.673740e+002, 6.373036e+003
1.678561e+002, 6.380188e+003
1.683382e+002, 6.386921e+003
1.688203e+002, 6.390623e+003
1.693024e+002, 6.393401e+003
1.697845e+002, 6.398271e+003
1.702667e+002, 6.407902e+003
1.707488e+002, 6.419383e+003
1.712309e+002, 6.425063e+003
1.717130e+002, 6.420391e+003
1.721951e+002, 6.418348e+003
1.726772e+002, 6.425478e+003
1.731594e+002, 6.437717e+003
1.736415e+002, 6.449461e+003
1.741236e+002, 6.457433e+003
1.746057e+002, 6.462228e+003
1.750878e+002, 6.467223e+003
1.755699e+002, 6.473205e+003
1.760521e+002, 6.478534e+003
1.765342e+002, 6.482161e+003
1.770163e+002, 6.484885e+003
1.774984e+002, 6.488003e+003
1.779805e+002, 6.492445e+003
1.784626e+002, 6.498231e+003
1.789448e+002, 6.504802e+003
1.794269e+002, 6.511978e+003
1.799090e+002, 6.520094e+003
1.803911e+002, 6.530041e+003
1.808732e+002, 6.541144e+003
1.813553e+002, 6.551669e+003
1.818375e+002, 6.559973e+003
1.823196e+002, 6.565635e+003
1.828017e+002, 6.572991e+003
1.832838e+002, 6.581305e+003
1.837659e+002, 6.591375e+003
1.842480e+002, 6.605568e+003
1.847301e+002, 6.622768e+003
1.852123e+002, 6.638005e+003
1.856944e+002, 6.646111e+003
1.861765e+002, 6.645752e+003
1.866586e+002, 6.648168e+003
1.871407e+002, 6.654467e+003
1.876228e+002, 6.662568e+003
1.881050e+002, 6.671321e+003
1.885871e+002, 6.680511e+003
1.890692e+002, 6.689978e+003
1.895513e+002, 6.700119e+003
1.900334e+002, 6.710771e+003
1.905155e+002, 6.719132e+003
1.909977e+002, 6.722196e+003
1.914798e+002, 6.724041e+003
1.919619e+002, 6.730273e+003
1.924440e+002, 6.742386e+003
1.929261e+002, 6.754479e+003
1.934082e+002, 6.757853e+003
1.938904e+002, 6.755651e+003
1.943725e+002, 6.758398e+003
1.948546e+002, 6.774493e+003
1.953367e+002, 6.796906e+003
1.958188e+002, 6.810767e+003
1.963009e+002, 6.811637e+003
1.967831e+002, 6.811028e+003
1.972652e+002, 6.817853e+003
1.977473e+002, 6.830042e+003
1.982294e+002, 6.842521e+003
1.987115e+002, 6.853085e+003
1.991936e+002, 6.861948e+003
1.996758e+002, 6.869677e+003
2.001579e+002, 6.875102e+003
2.006400e+002, 6.881085e+003
2.011221e+002, 6.889011e+003
2.016042e+002, 6.898547e+003
2.020863e+002, 6.908747e+003
2.025685e+002, 6.918612e+003
2.030506e+002, 6.928271e+003
2.035327e+002, 6.940049e+003
2.040148e+002, 6.956939e+003
2.044969e+002, 6.972800e+003
2.049790e+002, 6.984531e+003
2.054612e+002, 6.993177e+003
2.059433e+002, 7.001650e+003
2.064254e+002, 7.012576e+003
2.069075e+002, 7.026173e+003
2.073896e+002, 7.037747e+003
2.078717e+002, 7.045630e+003
2.083539e+002, 7.052866e+003
2.088360e+002, 7.059622e+003
2.093181e+002, 7.066395e+003
2.098002e+002, 7.074161e+003
2.102823e+002, 7.084150e+003
2.107644e+002, 7.096857e+003
2.112466e+002, 7.106993e+003
2.117287e+002, 7.111243e+003
2.122108e+002, 7.116279e+003
2.126929e+002, 7.125114e+003
2.131750e+002, 7.137315e+003
2.136571e+002, 7.150705e+003
2.141393e+002, 7.163333e+003
2.146214e+002, 7.175075e+003
2.151035e+002, 7.187107e+003
2.155856e+002, 7.200495e+003
2.160677e+002, 7.213262e+003
2.165498e+002, 7.224337e+003
2.170320e+002, 7.233803e+003
2.175141e+002, 7.242425e+003
2.179962e+002, 7.250437e+003
2.184783e+002, 7.257545e+003
2.189604e+002, 7.268275e+003
2.194425e+002, 7.284431e+003
2.199247e+002, 7.302264e+003
2.204068e+002, 7.320544e+003
2.208889e+002, 7.338789e+003
2.213710e+002, 7.355461e+003
2.218531e+002, 7.368621e+003
2.223352e+002, 7.378016e+003
2.228174e+002, 7.390222e+003
2.232995e+002, 7.407264e+003
2.237816e+002, 7.425578e+003
2.242637e+002, 7.442539e+003
2.247458e+002, 7.458031e+003
2.252279e+002, 7.473308e+003
2.257100e+002, 7.490304e+003
2.261922e+002, 7.508147e+003
2.266743e+002, 7.521786e+003
2.271564e+002, 7.523156e+003
2.276385e+002, 7.524990e+003
2.281206e+002, 7.542135e+003
2.286027e+002, 7.575753e+003
2.290849e+002, 7.608408e+003
2.295670e+002, 7.625496e+003
2.300491e+002, 7.631535e+003
2.305312e+002, 7.639408e+003
2.310133e+002, 7.652269e+003
2.314954e+002, 7.667235e+003
2.319776e+002, 7.680763e+003
2.324597e+002, 7.692508e+003
2.329418e+002, 7.705231e+003
2.334239e+002, 7.720984e+003
2.339060e+002, 7.738929e+003
2.343881e+002, 7.758196e+003
2.348703e+002, 7.779405e+003
2.353524e+002, 7.801124e+003
2.358345e+002, 7.821618e+003
2.363166e+002, 7.840928e+003
2.367987e+002, 7.859228e+003
2.372808e+002, 7.876321e+003
2.377630e+002, 7.892591e+003
2.382451e+002, 7.908495e+003
2.387272e+002, 7.924224e+003
2.392093e+002, 7.939563e+003
2.396914e+002, 7.952982e+003
2.401735e+002, 7.962695e+003
2.406557e+002, 7.976599e+003
2.411378e+002, 8.001600e+003
2.416199e+002, 8.030505e+003
2.421020e+002, 8.056895e+003
2.425841e+002, 8.078520e+003
2.430662e+002, 8.096784e+003
2.435484e+002, 8.113851e+003
2.440305e+002, 8.129556e+003
2.445126e+002, 8.144446e+003
2.449947e+002, 8.157792e+003
2.454768e+002, 8.170887e+003
2.459589e+002, 8.184695e+003
2.464410e+002, 8.199548e+003
2.469232e+002, 8.215400e+003
2.474053e+002, 8.233152e+003
2.478874e+002, 8.255053e+003
2.483695e+002, 8.273081e+003
2.488516e+002, 8.281407e+003
2.493337e+002, 8.288295e+003
2.498159e+002, 8.300937e+003
2.502980e+002, 8.321396e+003
2.507801e+002, 8.344793e+003
2.512622e+002, 8.363029e+003
2.517443e+002, 8.373771e+003
2.522264e+002, 8.384115e+003
2.527086e+002, 8.395177e+003
2.531907e+002, 8.405860e+003
2.536728e+002, 8.414310e+003
2.541549e+002, 8.420467e+003
2.546370e+002, 8.427330e+003
2.551191e+002, 8.440363e+003
2.556013e+002, 8.464569e+003
2.560834e+002, 8.484067e+003
2.565655e+002, 8.497714e+003
2.570476e+002, 8.508217e+003
2.575297e+002, 8.515843e+003
2.580118e+002, 8.521385e+003
2.584940e+002, 8.527582e+003
2.589761e+002, 8.538868e+003
2.594582e+002, 8.559753e+003
2.599403e+002, 8.574057e+003
2.604224e+002, 8.577774e+003
2.609045e+002, 8.579596e+003
2.613867e+002, 8.585246e+003
2.618688e+002, 8.595073e+003
2.623509e+002, 8.605174e+003
2.628330e+002, 8.610808e+003
2.633151e+002, 8.609933e+003
2.637972e+002, 8.612057e+003
2.642794e+002, 8.619731e+003
2.647615e+002, 8.627668e+003
2.652436e+002, 8.632624e+003
2.657257e+002, 8.634737e+003
2.662078e+002, 8.636229e+003
2.666899e+002, 8.639041e+003
2.671721e+002, 8.642999e+003
2.676542e+002, 8.649871e+003
2.681363e+002, 8.664777e+003
2.686184e+002, 8.677408e+003
2.691005e+002, 8.681407e+003
2.695826e+002, 8.678012e+003
2.700648e+002, 8.672925e+003
2.705469e+002, 8.670683e+003
2.710290e+002, 8.671399e+003
2.715111e+002, 8.671813e+003
2.719932e+002, 8.670783e+003
2.724753e+002, 8.670580e+003
2.729575e+002, 8.672528e+003
2.734396e+002, 8.676158e+003
2.739217e+002, 8.680364e+003
2.744038e+002, 8.684712e+003
2.748859e+002, 8.688974e+003
2.753680e+002, 8.689992e+003
2.758501e+002, 8.684297e+003
2.763322e+002, 8.679911e+003
2.768144e+002, 8.679883e+003
2.772965e+002, 8.683208e+003
2.777786e+002, 8.687737e+003
2.782607e+002, 8.692542e+003
2.787428e+002, 8.697307e+003
2.792249e+002, 8.700563e+003
2.797071e+002, 8.701305e+003
2.801892e+002, 8.702081e+003
2.806713e+002, 8.704086e+003
2.811534e+002, 8.706507e+003
2.816355e+002, 8.707800e+003
2.821176e+002, 8.707229e+003
2.825998e+002, 8.705428e+003
2.830819e+002, 8.704021e+003
2.835640e+002, 8.703450e+003
2.840461e+002, 8.702459e+003
2.845282e+002, 8.699397e+003
2.850103e+002, 8.696157e+003
2.854925e+002, 8.695630e+003
2.859746e+002, 8.698863e+003
2.864567e+002, 8.704614e+003
2.869388e+002, 8.711276e+003
2.874209e+002, 8.719385e+003
2.879030e+002, 8.726512e+003
2.883852e+002, 8.731279e+003
2.888673e+002, 8.735216e+003
2.893494e+002, 8.740442e+003
2.898315e+002, 8.747481e+003
2.903136e+002, 8.754575e+003
2.907957e+002, 8.759626e+003
2.912779e+002, 8.762399e+003
2.917600e+002, 8.764263e+003
2.922421e+002, 8.762972e+003
2.927242e+002, 8.762120e+003
2.932063e+002, 8.765594e+003
2.936884e+002, 8.773857e+003
2.941706e+002, 8.784224e+003
2.946527e+002, 8.795499e+003
2.951348e+002, 8.807407e+003
2.956169e+002, 8.814393e+003
2.960990e+002, 8.809256e+003
2.965811e+002, 8.804199e+003
2.970633e+002, 8.810450e+003
2.975454e+002, 8.827553e+003
2.980275e+002, 8.845360e+003
2.985096e+002, 8.857205e+003
2.989917e+002, 8.863418e+003
2.994738e+002, 8.869123e+003
2.999560e+002, 8.873551e+003
3.004381e+002, 8.878128e+003
3.009202e+002, 8.883709e+003
3.014023e+002, 8.890173e+003
3.018844e+002, 8.896967e+003
3.023665e+002, 8.903692e+003
3.028487e+002, 8.910687e+003
3.033308e+002, 8.919114e+003
3.038129e+002, 8.930890e+003
3.042950e+002, 8.940947e+003
3.047771e+002, 8.944292e+003
3.052592e+002, 8.943982e+003
3.057414e+002, 8.949021e+003
3.062235e+002, 8.964425e+003
3.067056e+002, 8.983729e+003
3.071877e+002, 8.993063e+003
3.076698e+002, 8.989906e+003
3.081519e+002, 8.989262e+003
3.086341e+002, 8.998612e+003
3.091162e+002, 9.013095e+003
3.095983e+002, 9.024631e+003
3.100804e+002, 9.031220e+003
3.105625e+002, 9.034181e+003
3.110446e+002, 9.033038e+003
3.115268e+002, 9.027318e+003
3.120089e+002, 9.026651e+003
3.124910e+002, 9.036705e+003
3.129731e+002, 9.051047e+003
3.134552e+002, 9.062198e+003
3.139373e+002, 9.068996e+003
3.144195e+002, 9.074337e+003
3.149016e+002, 9.081293e+003
3.153837e+002, 9.089521e+003
3.158658e+002, 9.094718e+003
3.163479e+002, 9.094104e+003
3.168300e+002, 9.092015e+003
3.173121e+002, 9.091422e+003
3.177943e+002, 9.092514e+003
3.182764e+002, 9.095319e+003
3.187585e+002, 9.099963e+003
3.192406e+002, 9.106544e+003
3.197227e+002, 9.114537e+003
3.202048e+002, 9.127116e+003
3.206870e+002, 9.138056e+003
3.211691e+002, 9.143619e+003
3.216512e+002, 9.144642e+003
3.221333e+002, 9.143676e+003
3.226154e+002, 9.141186e+003
3.230975e+002, 9.138316e+003
3.235797e+002, 9.137815e+003
3.240618e+002, 9.139290e+003
3.245439e+002, 9.143283e+003
3.250260e+002, 9.152110e+003
3.255081e+002, 9.163315e+003
3.259902e+002, 9.172308e+003
3.264724e+002, 9.177580e+003
3.269545e+002, 9.180498e+003
3.274366e+002, 9.182559e+003
3.279187e+002, 9.183342e+003
3.284008e+002, 9.185521e+003
3.288829e+002, 9.191438e+003
3.293651e+002, 9.198097e+003
3.298472e+002, 9.200916e+003
3.303293e+002, 9.199069e+003
3.308114e+002, 9.197705e+003
3.312935e+002, 9.202191e+003
3.317756e+002, 9.213096e+003
3.322578e+002, 9.223989e+003
3.327399e+002, 9.235781e+003
3.332220e+002, 9.246537e+003
3.337041e+002, 9.253105e+003
3.341862e+002, 9.256256e+003
3.346683e+002, 9.262158e+003
3.351505e+002, 9.275960e+003
3.356326e+002, 9.296299e+003
3.361147e+002, 9.312114e+003
3.365968e+002, 9.323387e+003
3.370789e+002, 9.331064e+003
3.375610e+002, 9.333314e+003
3.380432e+002, 9.332266e+003
3.385253e+002, 9.332903e+003
3.390074e+002, 9.337679e+003
3.394895e+002, 9.345259e+003
3.399716e+002, 9.352024e+003
3.404537e+002, 9.356816e+003
3.409359e+002, 9.363053e+003
3.414180e+002, 9.371291e+003
3.419001e+002, 9.381389e+003
3.423822e+002, 9.393923e+003
3.428643e+002, 9.409017e+003
3.433464e+002, 9.424286e+003
3.438286e+002, 9.435983e+003
3.443107e+002, 9.441623e+003
3.447928e+002, 9.451218e+003
3.452749e+002, 9.465863e+003
3.457570e+002, 9.483671e+003
3.462391e+002, 9.505581e+003
3.467213e+002, 9.530354e+003
3.472034e+002, 9.552470e+003
3.476855e+002, 9.566040e+003
3.481676e+002, 9.570521e+003
3.486497e+002, 9.579201e+003
3.491318e+002, 9.593631e+003
3.496140e+002, 9.609960e+003
3.500961e+002, 9.626399e+003
3.505782e+002, 9.643359e+003
3.510603e+002, 9.662423e+003
3.515424e+002, 9.684621e+003
3.520245e+002, 9.709137e+003
3.525067e+002, 9.732674e+003
3.529888e+002, 9.750986e+003
3.534709e+002, 9.773499e+003
3.539530e+002, 9.803913e+003
3.544351e+002, 9.838038e+003
3.549172e+002, 9.872012e+003
3.553994e+002, 9.904298e+003
3.558815e+002, 9.934071e+003
3.563636e+002, 9.959864e+003
3.568457e+002, 9.977951e+003
3.573278e+002, 9.999505e+003
3.578099e+002, 1.002410e+004
3.582920e+002, 1.005203e+004
3.587741e+002, 1.008453e+004
3.592563e+002, 1.012106e+004
3.597384e+002, 1.015870e+004
3.602205e+002, 1.019479e+004
3.607026e+002, 1.022913e+004
3.611847e+002, 1.026387e+004
3.616668e+002, 1.029864e+004
3.621490e+002, 1.033409e+004
3.626311e+002, 1.037221e+004
3.631132e+002, 1.041117e+004
3.635953e+002, 1.044645e+004
3.640774e+002, 1.047504e+004
3.645595e+002, 1.049902e+004
3.650417e+002, 1.052724e+004
3.655238e+002, 1.055954e+004
3.660059e+002, 1.059700e+004
3.664880e+002, 1.064210e+004
3.669701e+002, 1.069071e+004
3.674522e+002, 1.073955e+004
3.679344e+002, 1.078717e+004
3.684165e+002, 1.083361e+004
3.688986e+002, 1.087924e+004
3.693807e+002, 1.092477e+004
3.698628e+002, 1.096730e+004
3.703449e+002, 1.100657e+004
3.708271e+002, 1.104338e+004
3.713092e+002, 1.107678e+004
3.717913e+002, 1.110776e+004
3.722734e+002, 1.114018e+004
3.727555e+002, 1.117753e+004
3.732376e+002, 1.121963e+004
3.737198e+002, 1.126192e+004
3.742019e+002, 1.130400e+004
3.746840e+002, 1.134709e+004
3.751661e+002, 1.139242e+004
3.756482e+002, 1.143887e+004
3.761303e+002, 1.148391e+004
3.766125e+002, 1.152614e+004
3.770946e+002, 1.156746e+004
3.775767e+002, 1.161279e+004
3.780588e+002, 1.166400e+004
3.785409e+002, 1.171390e+004
3.790230e+002, 1.175952e+004
3.795052e+002, 1.180367e+004
3.799873e+002, 1.184832e+004
3.804694e+002, 1.189386e+004
3.809515e+002, 1.193979e+004
3.814336e+002, 1.198605e+004
3.819157e+002, 1.203262e+004
3.823979e+002, 1.207664e+004
3.828800e+002, 1.211615e+004
3.833621e+002, 1.215465e+004
3.838442e+002, 1.219447e+004
3.843263e+002, 1.223524e+004
3.848084e+002, 1.227675e+004
3.852906e+002, 1.232016e+004
3.857727e+002, 1.236358e+004
3.862548e+002, 1.240321e+004
3.867369e+002, 1.243893e+004
3.872190e+002, 1.247075e+004
3.877011e+002, 1.249582e+004
3.881833e+002, 1.251780e+004
3.886654e+002, 1.254221e+004
3.891475e+002, 1.257178e+004
3.896296e+002, 1.260099e+004
3.901117e+002, 1.262400e+004
3.905938e+002, 1.264174e+004
3.910760e+002, 1.266072e+004
3.915581e+002, 1.268379e+004
3.920402e+002, 1.270830e+004
3.925223e+002, 1.273150e+004
3.930044e+002, 1.275382e+004
3.934865e+002, 1.277230e+004
3.939687e+002, 1.278565e+004
3.944508e+002, 1.279449e+004
3.949329e+002, 1.279870e+004
3.954150e+002, 1.279798e+004
3.958971e+002, 1.279580e+004
3.963792e+002, 1.279511e+004
3.968614e+002, 1.279568e+004
3.973435e+002, 1.279510e+004
3.978256e+002, 1.279127e+004
3.983077e+002, 1.278786e+004
3.987898e+002, 1.278863e+004
3.992719e+002, 1.279212e+004
3.997540e+002, 1.279331e+004
4.002361e+002, 1.278977e+004
4.007183e+002, 1.278204e+004
4.012004e+002, 1.277157e+004
4.016825e+002, 1.275937e+004
4.021646e+002, 1.274318e+004
4.026467e+002, 1.271799e+004
4.031288e+002, 1.269068e+004
4.036110e+002, 1.267100e+004
4.040931e+002, 1.266077e+004
4.045752e+002, 1.265179e+004
4.050573e+002, 1.263466e+004
4.055394e+002, 1.260849e+004
4.060215e+002, 1.257797e+004
4.065037e+002, 1.253800e+004
4.069858e+002, 1.249930e+004
4.074679e+002, 1.246904e+004
4.079500e+002, 1.244444e+004
4.084321e+002, 1.241739e+004
4.089142e+002, 1.238219e+004
4.093964e+002, 1.234121e+004
4.098785e+002, 1.230500e+004
4.103606e+002, 1.227891e+004
4.108427e+002, 1.225085e+004
4.113248e+002, 1.221932e+004
4.118069e+002, 1.218562e+004
4.122891e+002, 1.215067e+004
4.127712e+002, 1.211482e+004
4.132533e+002, 1.207834e+004
4.137354e+002, 1.204208e+004
4.142175e+002, 1.200676e+004
4.146996e+002, 1.196799e+004
4.151818e+002, 1.192217e+004
4.156639e+002, 1.187638e+004
4.161460e+002, 1.183230e+004
4.166281e+002, 1.179036e+004
4.171102e+002, 1.175152e+004
4.175923e+002, 1.171611e+004
4.180745e+002, 1.168417e+004
4.185566e+002, 1.165588e+004
4.190387e+002, 1.163364e+004
4.195208e+002, 1.161015e+004
4.200029e+002, 1.158195e+004
4.204850e+002, 1.155241e+004
4.209672e+002, 1.152596e+004
4.214493e+002, 1.150389e+004
4.219314e+002, 1.147994e+004
4.224135e+002, 1.144458e+004
4.228956e+002, 1.139872e+004
4.233777e+002, 1.136150e+004
4.238599e+002, 1.134172e+004
4.243420e+002, 1.132304e+004
4.248241e+002, 1.129019e+004
4.253062e+002, 1.124724e+004
4.257883e+002, 1.120875e+004
4.262704e+002, 1.118243e+004
4.267526e+002, 1.116335e+004
4.272347e+002, 1.114559e+004
4.277168e+002, 1.112913e+004
4.281989e+002, 1.111187e+004
4.286810e+002, 1.109247e+004
4.291631e+002, 1.107169e+004
4.296453e+002, 1.105108e+004
4.301274e+002, 1.102944e+004
4.306095e+002, 1.101059e+004
4.310916e+002, 1.099827e+004
4.315737e+002, 1.098982e+004
4.320558e+002, 1.097984e+004
4.325380e+002, 1.096695e+004
4.330201e+002, 1.095275e+004
4.335022e+002, 1.093884e+004
4.339843e+002, 1.092517e+004
4.344664e+002, 1.091194e+004
4.349485e+002, 1.089758e+004
4.354307e+002, 1.088485e+004
4.359128e+002, 1.087721e+004
4.363949e+002, 1.087316e+004
4.368770e+002, 1.086752e+004
4.373591e+002, 1.085721e+004
4.378412e+002, 1.084330e+004
4.383234e+002, 1.083004e+004
4.388055e+002, 1.081692e+004
4.392876e+002, 1.080523e+004
4.397697e+002, 1.079361e+004
4.402518e+002, 1.078441e+004
4.407339e+002, 1.078171e+004
4.412160e+002, 1.078545e+004
4.416982e+002, 1.078989e+004
4.421803e+002, 1.078813e+004
4.426624e+002, 1.077900e+004
4.431445e+002, 1.077229e+004
4.436266e+002, 1.076897e+004
4.441087e+002, 1.076718e+004
4.445909e+002, 1.076750e+004
4.450730e+002, 1.076881e+004
4.455551e+002, 1.076942e+004
4.460372e+002, 1.076845e+004
4.465193e+002, 1.076638e+004
4.470014e+002, 1.076389e+004
4.474836e+002, 1.076012e+004
4.479657e+002, 1.075847e+004
4.484478e+002, 1.076068e+004
4.489299e+002, 1.076444e+004
4.494120e+002, 1.076801e+004
4.498941e+002, 1.077149e+004
4.503763e+002, 1.077680e+004
4.508584e+002, 1.078719e+004
4.513405e+002, 1.080095e+004
4.518226e+002, 1.081006e+004
4.523047e+002, 1.081255e+004
4.527868e+002, 1.081475e+004
4.532690e+002, 1.082126e+004
4.537511e+002, 1.082953e+004
4.542332e+002, 1.083554e+004
4.547153e+002, 1.083685e+004
4.551974e+002, 1.083877e+004
4.556795e+002, 1.084708e+004
4.561617e+002, 1.086017e+004
4.566438e+002, 1.087132e+004
4.571259e+002, 1.087864e+004
4.576080e+002, 1.088343e+004
4.580901e+002, 1.088683e+004
4.585722e+002, 1.088890e+004
4.590544e+002, 1.089100e+004
4.595365e+002, 1.089358e+004
4.600186e+002, 1.089623e+004
4.605007e+002, 1.089842e+004
4.609828e+002, 1.090031e+004
4.614649e+002, 1.090296e+004
4.619471e+002, 1.090740e+004
4.624292e+002, 1.091281e+004
4.629113e+002, 1.091573e+004
4.633934e+002, 1.091254e+004
4.638755e+002, 1.091175e+004
4.643576e+002, 1.091576e+004
4.648398e+002, 1.092181e+004
4.653219e+002, 1.092732e+004
4.658040e+002, 1.093167e+004
4.662861e+002, 1.093549e+004
4.667682e+002, 1.093975e+004
4.672503e+002, 1.094479e+004
4.677325e+002, 1.094651e+004
4.682146e+002, 1.094105e+004
4.686967e+002, 1.093622e+004
4.691788e+002, 1.093472e+004
4.696609e+002, 1.093497e+004
4.701430e+002, 1.093437e+004
4.706252e+002, 1.093174e+004
4.711073e+002, 1.092841e+004
4.715894e+002, 1.092749e+004
4.720715e+002, 1.093040e+004
4.725536e+002, 1.092973e+004
4.730357e+002, 1.092252e+004
4.735179e+002, 1.091295e+004
4.740000e+002, 1.090294e+004
4.744821e+002, 1.089268e+004
4.749642e+002, 1.088193e+004
4.754463e+002, 1.087100e+004
4.759284e+002, 1.085942e+004
4.764106e+002, 1.084457e+004
4.768927e+002, 1.082536e+004
4.773748e+002, 1.081045e+004
4.778569e+002, 1.080707e+004
4.783390e+002, 1.080881e+004
4.788211e+002, 1.080526e+004
4.793033e+002, 1.079478e+004
4.797854e+002, 1.078348e+004
4.802675e+002, 1.077564e+004
4.807496e+002, 1.076868e+004
4.812317e+002, 1.075751e+004
4.817138e+002, 1.074111e+004
4.821959e+002, 1.072249e+004
4.826780e+002, 1.070329e+004
4.831602e+002, 1.068377e+004
4.836423e+002, 1.066814e+004
4.841244e+002, 1.065996e+004
4.846065e+002, 1.065157e+004
4.850886e+002, 1.064134e+004
4.855707e+002, 1.062841e+004
4.860529e+002, 1.061083e+004
4.865350e+002, 1.058788e+004
4.870171e+002, 1.056233e+004
4.874992e+002, 1.053884e+004
4.879813e+002, 1.051783e+004
4.884634e+002, 1.049745e+004
4.889456e+002, 1.047730e+004
4.894277e+002, 1.045811e+004
4.899098e+002, 1.044140e+004
4.903919e+002, 1.042599e+004
4.908740e+002, 1.040942e+004
4.913561e+002, 1.039029e+004
4.918383e+002, 1.036905e+004
4.923204e+002, 1.034697e+004
4.928025e+002, 1.032446e+004
4.932846e+002, 1.030014e+004
4.937667e+002, 1.027060e+004
4.942488e+002, 1.024157e+004
4.947310e+002, 1.021737e+004
4.952131e+002, 1.019799e+004
4.956952e+002, 1.017959e+004
4.961773e+002, 1.016089e+004
4.966594e+002, 1.014117e+004
4.971415e+002, 1.011782e+004
4.976237e+002, 1.008982e+004
4.981058e+002, 1.006242e+004
4.985879e+002, 1.003788e+004
4.990700e+002, 1.001581e+004
4.995521e+002, 9.995482e+003
5.000342e+002, 9.977177e+003
5.005164e+002, 9.959638e+003
5.009985e+002, 9.942653e+003
5.014806e+002, 9.925787e+003
5.019627e+002, 9.908059e+003
5.024448e+002, 9.889318e+003
5.029269e+002, 9.869815e+003
5.034091e+002, 9.849861e+003
5.038912e+002, 9.829302e+003
5.043733e+002, 9.807948e+003
5.048554e+002, 9.783863e+003
5.053375e+002, 9.761271e+003
5.058196e+002, 9.742062e+003
5.063018e+002, 9.725178e+003
5.067839e+002, 9.709933e+003
5.072660e+002, 9.695897e+003
5.077481e+002, 9.681059e+003
5.082302e+002, 9.661712e+003
5.087123e+002, 9.635326e+003
5.091945e+002, 9.613506e+003
5.096766e+002, 9.601660e+003
5.101587e+002, 9.589028e+003
5.106408e+002, 9.569847e+003
5.111229e+002, 9.547030e+003
5.116050e+002, 9.526615e+003
5.120872e+002, 9.511813e+003
5.125693e+002, 9.500065e+003
5.130514e+002, 9.486362e+003
5.135335e+002, 9.470104e+003
5.140156e+002, 9.456453e+003
5.144977e+002, 9.450301e+003
5.149799e+002, 9.443108e+003
5.154620e+002, 9.425849e+003
5.159441e+002, 9.400222e+003
5.164262e+002, 9.377893e+003
5.169083e+002, 9.366085e+003
5.173904e+002, 9.358775e+003
5.178726e+002, 9.348565e+003
5.183547e+002, 9.335465e+003
5.188368e+002, 9.321550e+003
5.193189e+002, 9.307542e+003
5.198010e+002, 9.293560e+003
5.202831e+002, 9.280137e+003
5.207653e+002, 9.267105e+003
5.212474e+002, 9.254714e+003
5.217295e+002, 9.244182e+003
5.222116e+002, 9.233526e+003
5.226937e+002, 9.221327e+003
5.231758e+002, 9.207432e+003
5.236580e+002, 9.191233e+003
5.241401e+002, 9.171616e+003
5.246222e+002, 9.150460e+003
5.251043e+002, 9.137551e+003
5.255864e+002, 9.143753e+003
5.260685e+002, 9.142849e+003
5.265507e+002, 9.127344e+003
5.270328e+002, 9.107861e+003
5.275149e+002, 9.093236e+003
5.279970e+002, 9.084285e+003
5.284791e+002, 9.075975e+003
5.289612e+002, 9.063621e+003
5.294434e+002, 9.048053e+003
5.299255e+002, 9.034063e+003
5.304076e+002, 9.021949e+003
5.308897e+002, 9.010916e+003
5.313718e+002, 9.000267e+003
5.318539e+002, 8.990798e+003
5.323361e+002, 8.984402e+003
5.328182e+002, 8.982122e+003
5.333003e+002, 8.977710e+003
5.337824e+002, 8.964853e+003
5.342645e+002, 8.947380e+003
5.347466e+002, 8.933426e+003
5.352288e+002, 8.924146e+003
5.357109e+002, 8.916890e+003
5.361930e+002, 8.910435e+003
5.366751e+002, 8.904376e+003
5.371572e+002, 8.896563e+003
5.376393e+002, 8.883972e+003
5.381215e+002, 8.873412e+003
5.386036e+002, 8.866456e+003
5.390857e+002, 8.862688e+003
5.395678e+002, 8.863798e+003
5.400499e+002, 8.869088e+003
5.405320e+002, 8.871886e+003
5.410142e+002, 8.864322e+003
5.414963e+002, 8.845920e+003
5.419784e+002, 8.832302e+003
5.424604e+002, 8.826505e+003
5.429426e+002, 8.822251e+003
5.434247e+002, 8.819446e+003
5.439068e+002, 8.816960e+003
5.443889e+002, 8.813626e+003
5.448710e+002, 8.809127e+003
5.453531e+002, 8.804025e+003
5.458353e+002, 8.799834e+003
5.463174e+002, 8.796169e+003
5.467995e+002, 8.787729e+003
5.472816e+002, 8.770933e+003
5.477637e+002, 8.756366e+003
5.482458e+002, 8.753551e+003
5.487280e+002, 8.756775e+003
5.492101e+002, 8.756922e+003
5.496922e+002, 8.751369e+003
5.501743e+002, 8.745052e+003
5.506564e+002, 8.741712e+003
5.511385e+002, 8.739749e+003
5.516207e+002, 8.735911e+003
5.521028e+002, 8.729547e+003
5.525849e+002, 8.721002e+003
5.530670e+002, 8.709424e+003
5.535491e+002, 8.694806e+003
5.540313e+002, 8.687874e+003
5.545134e+002, 8.694450e+003
5.549955e+002, 8.700624e+003
5.554776e+002, 8.704739e+003
5.559597e+002, 8.705412e+003
5.564418e+002, 8.698965e+003
5.569240e+002, 8.685445e+003
5.574061e+002, 8.672092e+003
5.578882e+002, 8.667767e+003
5.583703e+002, 8.672835e+003
5.588524e+002, 8.676477e+003
5.593345e+002, 8.679473e+003
5.598167e+002, 8.679470e+003
5.602988e+002, 8.673474e+003
5.607809e+002, 8.665315e+003
5.612630e+002, 8.659698e+003
5.617451e+002, 8.657919e+003
5.622272e+002, 8.657230e+003
5.627094e+002, 8.654638e+003
5.631915e+002, 8.651131e+003
5.636736e+002, 8.651237e+003
5.641557e+002, 8.656561e+003
5.646378e+002, 8.659650e+003
5.651199e+002, 8.653159e+003
5.656021e+002, 8.640025e+003
5.660842e+002, 8.633545e+003
5.665663e+002, 8.637982e+003
5.670484e+002, 8.643052e+003
5.675305e+002, 8.647351e+003
5.680126e+002, 8.649448e+003
5.684948e+002, 8.646470e+003
5.689769e+002, 8.638537e+003
5.694590e+002, 8.629484e+003
5.699411e+002, 8.622646e+003
5.704232e+002, 8.618060e+003
5.709053e+002, 8.616561e+003
5.713875e+002, 8.622946e+003
5.718696e+002, 8.625948e+003
5.723517e+002, 8.618582e+003
5.728338e+002, 8.610474e+003
5.733159e+002, 8.611985e+003
5.737980e+002, 8.623923e+003
5.742802e+002, 8.637067e+003
5.747623e+002, 8.643873e+003
5.752444e+002, 8.645269e+003
5.757265e+002, 8.644483e+003
5.762086e+002, 8.640812e+003
5.766907e+002, 8.637859e+003
5.771729e+002, 8.637108e+003
5.776550e+002, 8.638329e+003
5.781371e+002, 8.640984e+003
5.786192e+002, 8.645202e+003
5.791013e+002, 8.650258e+003
5.795834e+002, 8.656242e+003
5.800656e+002, 8.662702e+003
5.805477e+002, 8.670410e+003
5.810298e+002, 8.678646e+003
5.815119e+002, 8.683127e+003
5.819940e+002, 8.680336e+003
5.824761e+002, 8.673282e+003
5.829583e+002, 8.672339e+003
5.834404e+002, 8.682666e+003
5.839225e+002, 8.691426e+003
5.844046e+002, 8.698137e+003
5.848867e+002, 8.703472e+003
5.853688e+002, 8.707394e+003
5.858510e+002, 8.710272e+003
5.863331e+002, 8.712924e+003
5.868152e+002, 8.715810e+003
5.872973e+002, 8.718826e+003
5.877794e+002, 8.721715e+003
5.882615e+002, 8.724424e+003
5.887437e+002, 8.727056e+003
5.892258e+002, 8.728248e+003
5.897079e+002, 8.731015e+003
5.901900e+002, 8.740450e+003
5.906721e+002, 8.755001e+003
5.911542e+002, 8.764067e+003
5.916364e+002, 8.761463e+003
5.921185e+002, 8.754678e+003
5.926006e+002, 8.746210e+003
5.930827e+002, 8.738641e+003
5.935648e+002, 8.741514e+003
5.940469e+002, 8.759149e+003
5.945291e+002, 8.779699e+003
5.950112e+002, 8.785732e+003
5.954933e+002, 8.772456e+003
5.959754e+002, 8.766726e+003
5.964575e+002, 8.775491e+003
5.969396e+002, 8.783053e+003
5.974218e+002, 8.782382e+003
5.979039e+002, 8.777644e+003
5.983860e+002, 8.774736e+003
5.988681e+002, 8.775724e+003
5.993502e+002, 8.779449e+003
5.998323e+002, 8.783981e+003
6.003145e+002, 8.789427e+003
6.007966e+002, 8.800099e+003
6.012787e+002, 8.819027e+003
6.017608e+002, 8.836886e+003
6.022429e+002, 8.848441e+003
6.027250e+002, 8.855298e+003
6.032072e+002, 8.858594e+003
6.036893e+002, 8.856895e+003
6.041714e+002, 8.856173e+003
6.046535e+002, 8.860985e+003
6.051356e+002, 8.867911e+003
6.056177e+002, 8.871309e+003
6.060999e+002, 8.870862e+003
6.065820e+002, 8.871036e+003
6.070641e+002, 8.875271e+003
6.075462e+002, 8.882453e+003
6.080283e+002, 8.887476e+003
6.085104e+002, 8.886310e+003
6.089926e+002, 8.888896e+003
6.094747e+002, 8.899444e+003
6.099568e+002, 8.910706e+003
6.104389e+002, 8.917990e+003
6.109210e+002, 8.921267e+003
6.114031e+002, 8.922252e+003
6.118853e+002, 8.921123e+003
6.123674e+002, 8.919913e+003
6.128495e+002, 8.923878e+003
6.133316e+002, 8.933660e+003
6.138137e+002, 8.941152e+003
6.142958e+002, 8.942905e+003
6.147780e+002, 8.943733e+003
6.152601e+002, 8.950634e+003
6.157422e+002, 8.962035e+003
6.162243e+002, 8.967316e+003
6.167064e+002, 8.958736e+003
6.171885e+002, 8.948896e+003
6.176707e+002, 8.943137e+003
6.181528e+002, 8.942446e+003
6.186349e+002, 8.951542e+003
6.191170e+002, 8.971254e+003
6.195991e+002, 8.989777e+003
6.200812e+002, 8.991796e+003
6.205634e+002, 8.975604e+003
6.210455e+002, 8.968649e+003
6.215276e+002, 8.980521e+003
6.220097e+002, 8.990154e+003
6.224918e+002, 8.993340e+003
6.229739e+002, 8.992143e+003
6.234561e+002, 8.987154e+003
6.239382e+002, 8.979110e+003
6.244203e+002, 8.972675e+003
6.249023e+002, 8.973796e+003
6.253845e+002, 8.979154e+003
6.258666e+002, 8.978238e+003
6.263487e+002, 8.970051e+003
6.268308e+002, 8.966173e+003
6.273129e+002, 8.975147e+003
6.277950e+002, 8.988403e+003
6.282772e+002, 8.988162e+003
6.287593e+002, 8.971799e+003
6.292414e+002, 8.957748e+003
6.297235e+002, 8.949081e+003
6.302056e+002, 8.943161e+003
6.306877e+002, 8.938354e+003
6.311699e+002, 8.934728e+003
6.316520e+002, 8.933688e+003
6.321341e+002, 8.935904e+003
6.326162e+002, 8.938207e+003
6.330983e+002, 8.934550e+003
6.335804e+002, 8.923384e+003
6.340626e+002, 8.914376e+003
6.345447e+002, 8.910500e+003
6.350268e+002, 8.905141e+003
6.355089e+002, 8.893304e+003
6.359910e+002, 8.879027e+003
6.364731e+002, 8.869107e+003
6.369553e+002, 8.866198e+003
6.374374e+002, 8.863095e+003
6.379195e+002, 8.853549e+003
6.384016e+002, 8.840660e+003
6.388837e+002, 8.830074e+003
6.393658e+002, 8.822447e+003
6.398480e+002, 8.816049e+003
6.403301e+002, 8.810173e+003
6.408122e+002, 8.804181e+003
6.412943e+002, 8.795940e+003
6.417764e+002, 8.785240e+003
6.422585e+002, 8.772247e+003
6.427407e+002, 8.752649e+003
6.432228e+002, 8.734559e+003
6.437049e+002, 8.725459e+003
6.441870e+002, 8.722108e+003
6.446691e+002, 8.715385e+003
6.451512e+002, 8.700269e+003
6.456334e+002, 8.681087e+003
6.461155e+002, 8.663863e+003
6.465976e+002, 8.648644e+003
6.470797e+002, 8.637184e+003
6.475618e+002, 8.631452e+003
6.480439e+002, 8.626180e+003
6.485261e+002, 8.617771e+003
6.490082e+002, 8.606624e+003
6.494903e+002, 8.594152e+003
6.499724e+002, 8.580596e+003
6.504545e+002, 8.565547e+003
6.509366e+002, 8.547183e+003
6.514188e+002, 8.528167e+003
6.519009e+002, 8.512716e+003
6.523830e+002, 8.500576e+003
6.528651e+002, 8.486972e+003
6.533472e+002, 8.467829e+003
6.538293e+002, 8.445582e+003
6.543115e+002, 8.429783e+003
6.547936e+002, 8.423686e+003
6.552757e+002, 8.416126e+003
6.557578e+002, 8.404389e+003
6.562399e+002, 8.391732e+003
6.567220e+002, 8.380749e+003
6.572042e+002, 8.370331e+003
6.576863e+002, 8.356865e+003
6.581684e+002, 8.337398e+003
6.586505e+002, 8.316858e+003
6.591326e+002, 8.301338e+003
6.596147e+002, 8.288489e+003
6.600969e+002, 8.269778e+003
6.605790e+002, 8.243207e+003
6.610611e+002, 8.218454e+003
6.615432e+002, 8.204505e+003
6.620253e+002, 8.200253e+003
6.625074e+002, 8.193646e+003
6.629896e+002, 8.187523e+003
6.634717e+002, 8.175171e+003
6.639538e+002, 8.147864e+003
6.644359e+002, 8.120325e+003
6.649180e+002, 8.106330e+003
6.654001e+002, 8.103793e+003
6.658823e+002, 8.100023e+003
6.663644e+002, 8.087003e+003
6.668465e+002, 8.068486e+003
6.673286e+002, 8.050306e+003
6.678107e+002, 8.032481e+003
6.682928e+002, 8.015311e+003
6.687750e+002, 7.998119e+003
6.692571e+002, 7.983607e+003
6.697392e+002, 7.976094e+003
6.702213e+002, 7.974599e+003
6.707034e+002, 7.969155e+003
6.711855e+002, 7.957659e+003
6.716677e+002, 7.944504e+003
6.721498e+002, 7.930862e+003
6.726319e+002, 7.916405e+003
6.731140e+002, 7.900136e+003
6.735961e+002, 7.882358e+003
6.740782e+002, 7.864664e+003
6.745604e+002, 7.847975e+003
6.750425e+002, 7.832572e+003
6.755246e+002, 7.819570e+003
6.760067e+002, 7.809508e+003
6.764888e+002, 7.799612e+003
6.769709e+002, 7.789244e+003
6.774531e+002, 7.779031e+003
6.779352e+002, 7.769671e+003
6.784173e+002, 7.760961e+003
6.788994e+002, 7.752172e+003
6.793815e+002, 7.744494e+003
6.798636e+002, 7.735061e+003
6.803458e+002, 7.720728e+003
6.808279e+002, 7.704141e+003
6.813100e+002, 7.688670e+003
6.817921e+002, 7.675252e+003
6.822742e+002, 7.664703e+003
6.827563e+002, 7.658301e+003
6.832385e+002, 7.654599e+003
6.837206e+002, 7.645913e+003
6.842027e+002, 7.628507e+003
6.846848e+002, 7.614206e+003
6.851669e+002, 7.607138e+003
6.856490e+002, 7.601356e+003
6.861312e+002, 7.593734e+003
6.866133e+002, 7.584552e+003
6.870954e+002, 7.575114e+003
6.875775e+002, 7.565568e+003
6.880596e+002, 7.556586e+003
6.885417e+002, 7.549348e+003
6.890239e+002, 7.543096e+003
6.895060e+002, 7.536772e+003
6.899881e+002, 7.530073e+003
6.904702e+002, 7.520486e+003
6.909523e+002, 7.504985e+003
6.914344e+002, 7.485694e+003
6.919166e+002, 7.473148e+003
6.923987e+002, 7.472800e+003
6.928808e+002, 7.470688e+003
6.933629e+002, 7.466209e+003
6.938450e+002, 7.459877e+003
6.943271e+002, 7.450538e+003
6.948093e+002, 7.439628e+003
6.952914e+002, 7.430657e+003
6.957735e+002, 7.425568e+003
6.962556e+002, 7.421534e+003
6.967377e+002, 7.414651e+003
6.972198e+002, 7.406089e+003
6.977020e+002, 7.400617e+003
6.981841e+002, 7.399206e+003
6.986662e+002, 7.397429e+003
6.991483e+002, 7.392334e+003
6.996304e+002, 7.384405e+003
7.001125e+002, 7.375573e+003
7.005947e+002, 7.367094e+003
7.010768e+002, 7.355809e+003
7.015589e+002, 7.336487e+003
7.020410e+002, 7.319263e+003
7.025231e+002, 7.312409e+003
7.030052e+002, 7.312317e+003
7.034874e+002, 7.310243e+003
7.039695e+002, 7.302343e+003
7.044516e+002, 7.292839e+003
7.049337e+002, 7.287657e+003
7.054158e+002, 7.285658e+003
7.058979e+002, 7.280560e+003
7.063801e+002, 7.271269e+003
7.068622e+002, 7.262320e+003
7.073442e+002, 7.255894e+003
7.078264e+002, 7.251804e+003
7.083085e+002, 7.250216e+003
7.087906e+002, 7.253798e+003
7.092727e+002, 7.252757e+003
7.097548e+002, 7.243211e+003
7.102369e+002, 7.231882e+003
7.107191e+002, 7.221239e+003
7.112012e+002, 7.212067e+003
7.116833e+002, 7.205289e+003
7.121654e+002, 7.201176e+003
7.126475e+002, 7.198672e+003
7.131296e+002, 7.197531e+003
7.136118e+002, 7.197182e+003
7.140939e+002, 7.194609e+003
7.145760e+002, 7.189943e+003
7.150581e+002, 7.181505e+003
7.155402e+002, 7.165695e+003
7.160223e+002, 7.148761e+003
7.165045e+002, 7.142341e+003
7.169866e+002, 7.148279e+003
7.174687e+002, 7.152506e+003
7.179508e+002, 7.154879e+003
7.184329e+002, 7.154206e+003
7.189150e+002, 7.148132e+003
7.193972e+002, 7.139344e+003
7.198793e+002, 7.131646e+003
7.203614e+002, 7.125956e+003
7.208435e+002, 7.120161e+003
7.213256e+002, 7.110720e+003
7.218077e+002, 7.099769e+003
7.222899e+002, 7.097774e+003
7.227720e+002, 7.106269e+003
7.232541e+002, 7.110350e+003
7.237362e+002, 7.103647e+003
7.242183e+002, 7.093125e+003
7.247004e+002, 7.087583e+003
7.251826e+002, 7.086827e+003
7.256647e+002, 7.082073e+003
7.261468e+002, 7.066512e+003
7.266289e+002, 7.054535e+003
7.271110e+002, 7.054521e+003
7.275931e+002, 7.058979e+003
7.280753e+002, 7.058807e+003
7.285574e+002, 7.053583e+003
7.290395e+002, 7.050122e+003
7.295216e+002, 7.054701e+003
7.300037e+002, 7.061953e+003
7.304858e+002, 7.056822e+003
7.309680e+002, 7.038626e+003
7.314501e+002, 7.029424e+003
7.319322e+002, 7.037597e+003
7.324143e+002, 7.045742e+003
7.328964e+002, 7.037708e+003
7.333785e+002, 7.017042e+003
7.338607e+002, 7.003575e+003
7.343428e+002, 7.001684e+003
7.348249e+002, 7.000211e+003
7.353070e+002, 6.997435e+003
7.357891e+002, 6.993753e+003
7.362712e+002, 6.988879e+003
7.367534e+002, 6.983394e+003
7.372355e+002, 6.978884e+003
7.377176e+002, 6.976218e+003
7.381997e+002, 6.973653e+003
7.386818e+002, 6.968187e+003
7.391639e+002, 6.960177e+003
7.396461e+002, 6.952702e+003
7.401282e+002, 6.945773e+003
7.406103e+002, 6.940470e+003
7.410924e+002, 6.936929e+003
7.415745e+002, 6.935813e+003
7.420566e+002, 6.940445e+003
7.425388e+002, 6.955616e+003
7.430209e+002, 6.959907e+003
7.435030e+002, 6.942136e+003
7.439851e+002, 6.922918e+003
7.444672e+002, 6.912131e+003
7.449493e+002, 6.907475e+003
7.454315e+002, 6.904765e+003
7.459136e+002, 6.902657e+003
7.463957e+002, 6.901412e+003
7.468778e+002, 6.902267e+003
7.473599e+002, 6.904017e+003
7.478420e+002, 6.902678e+003
7.483242e+002, 6.898174e+003
7.488063e+002, 6.893102e+003
7.492884e+002, 6.888586e+003
7.497705e+002, 6.883063e+003
7.502526e+002, 6.873839e+003
7.507347e+002, 6.860567e+003
7.512169e+002, 6.851023e+003
7.516990e+002, 6.846613e+003
7.521811e+002, 6.843777e+003
7.526632e+002, 6.843509e+003
7.531453e+002, 6.843204e+003
7.536274e+002, 6.840730e+003
7.541096e+002, 6.835967e+003
7.545917e+002, 6.829756e+003
7.550738e+002, 6.822481e+003
7.555559e+002, 6.814127e+003
7.560380e+002, 6.803060e+003
7.565201e+002, 6.790604e+003
7.570023e+002, 6.783764e+003
7.574844e+002, 6.784002e+003
7.579665e+002, 6.784110e+003
7.584486e+002, 6.778210e+003
7.589307e+002, 6.769088e+003
7.594128e+002, 6.766346e+003
7.598950e+002, 6.776309e+003
7.603771e+002, 6.781096e+003
7.608592e+002, 6.777898e+003
7.613413e+002, 6.772782e+003
7.618234e+002, 6.768165e+003
7.623055e+002, 6.763670e+003
7.627877e+002, 6.757929e+003
7.632698e+002, 6.750488e+003
7.637519e+002, 6.743992e+003
7.642340e+002, 6.740688e+003
7.647161e+002, 6.739423e+003
7.651982e+002, 6.739243e+003
7.656804e+002, 6.739634e+003
7.661625e+002, 6.738258e+003
7.666446e+002, 6.734145e+003
7.671267e+002, 6.728772e+003
7.676088e+002, 6.724002e+003
7.680909e+002, 6.719807e+003
7.685731e+002, 6.716209e+003
7.690552e+002, 6.714906e+003
7.695373e+002, 6.711329e+003
7.700194e+002, 6.701732e+003
7.705015e+002, 6.691704e+003
7.709836e+002, 6.685967e+003
7.714658e+002, 6.684030e+003
7.719479e+002, 6.682117e+003
7.724300e+002, 6.679235e+003
7.729121e+002, 6.675578e+003
7.733942e+002, 6.670735e+003
7.738763e+002, 6.665489e+003
7.743585e+002, 6.662086e+003
7.748406e+002, 6.660087e+003
7.753227e+002, 6.655352e+003
7.758048e+002, 6.644885e+003
7.762869e+002, 6.631148e+003
7.767690e+002, 6.619143e+003
7.772512e+002, 6.608365e+003
7.777333e+002, 6.603489e+003
7.782154e+002, 6.608675e+003
7.786975e+002, 6.612735e+003
7.791796e+002, 6.608778e+003
7.796617e+002, 6.600196e+003
7.801439e+002, 6.592010e+003
7.806260e+002, 6.583678e+003
7.811081e+002, 6.578710e+003
7.815902e+002, 6.580964e+003
7.820723e+002, 6.583738e+003
7.825544e+002, 6.583779e+003
7.830366e+002, 6.580892e+003
7.835187e+002, 6.573686e+003
7.840008e+002, 6.562633e+003
7.844829e+002, 6.553280e+003
7.849650e+002, 6.551820e+003
7.854471e+002, 6.555278e+003
7.859293e+002, 6.554622e+003
7.864114e+002, 6.549788e+003
7.868935e+002, 6.544657e+003
7.873756e+002, 6.539910e+003
7.878577e+002, 6.535963e+003
7.883398e+002, 6.533083e+003
7.888220e+002, 6.531366e+003
7.893040e+002, 6.531534e+003
7.897861e+002, 6.538076e+003
7.902682e+002, 6.540058e+003
7.907504e+002, 6.533078e+003
7.912325e+002, 6.524682e+003
7.917146e+002, 6.519860e+003
7.921967e+002, 6.517462e+003
7.926788e+002, 6.513452e+003
7.931609e+002, 6.505978e+003
7.936431e+002, 6.500435e+003
7.941252e+002, 6.505935e+003
7.946073e+002, 6.514766e+003
7.950894e+002, 6.511257e+003
7.955715e+002, 6.495981e+003
7.960536e+002, 6.478175e+003
7.965358e+002, 6.461150e+003
7.970179e+002, 6.447831e+003
7.975000e+002, 6.443140e+003
7.979821e+002, 6.447542e+003
7.984642e+002, 6.448146e+003
7.989464e+002, 6.443301e+003
7.994285e+002, 6.437602e+003
7.999106e+002, 6.433708e+003
8.003927e+002, 6.428123e+003
8.008748e+002, 6.415732e+003
8.013569e+002, 6.398603e+003
8.018391e+002, 6.387007e+003
8.023212e+002, 6.386765e+003
8.028033e+002, 6.388088e+003
8.032854e+002, 6.385346e+003
8.037675e+002, 6.381866e+003
8.042496e+002, 6.383228e+003
8.047318e+002, 6.387987e+003
8.052139e+002, 6.388662e+003
8.056960e+002, 6.380938e+003
8.061781e+002, 6.370958e+003
8.066602e+002, 6.369702e+003
8.071423e+002, 6.376325e+003
8.076245e+002, 6.378934e+003
8.081066e+002, 6.376630e+003
8.085887e+002, 6.372181e+003
8.090708e+002, 6.365853e+003
8.095529e+002, 6.359341e+003
8.100350e+002, 6.355754e+003
8.105172e+002, 6.356007e+003
8.109993e+002, 6.352909e+003
8.114814e+002, 6.343070e+003
8.119635e+002, 6.334264e+003
8.124456e+002, 6.329077e+003
8.129277e+002, 6.325553e+003
8.134099e+002, 6.321514e+003
8.138920e+002, 6.317252e+003
8.143741e+002, 6.315334e+003
8.148562e+002, 6.318530e+003
8.153383e+002, 6.321399e+003
8.158204e+002, 6.317234e+003
8.163026e+002, 6.308705e+003
8.167847e+002, 6.300853e+003
8.172668e+002, 6.294581e+003
8.177489e+002, 6.291243e+003
8.182310e+002, 6.291851e+003
8.187131e+002, 6.294301e+003
8.191953e+002, 6.294592e+003
8.196774e+002, 6.292455e+003
8.201595e+002, 6.289493e+003
8.206416e+002, 6.285021e+003
8.211237e+002, 6.280911e+003
8.216058e+002, 6.278860e+003
8.220880e+002, 6.276768e+003
8.225701e+002, 6.271046e+003
8.230522e+002, 6.261923e+003
8.235343e+002, 6.257010e+003
8.240164e+002, 6.264400e+003
8.244985e+002, 6.268438e+003
8.249807e+002, 6.256977e+003
8.254628e+002, 6.242074e+003
8.259449e+002, 6.238939e+003
8.264270e+002, 6.246324e+003
8.269091e+002, 6.251997e+003
8.273912e+002, 6.248961e+003
8.278734e+002, 6.242006e+003
8.283555e+002, 6.237317e+003
8.288376e+002, 6.234519e+003
8.293197e+002, 6.232333e+003
8.298018e+002, 6.230670e+003
8.302839e+002, 6.228157e+003
8.307661e+002, 6.223752e+003
8.312482e+002, 6.219329e+003
8.317303e+002, 6.218482e+003
8.322124e+002, 6.222295e+003
8.326945e+002, 6.221640e+003
8.331766e+002, 6.211588e+003
8.336588e+002, 6.204150e+003
8.341409e+002, 6.204551e+003
8.346230e+002, 6.206434e+003
8.351051e+002, 6.204854e+003
8.355872e+002, 6.199947e+003
8.360693e+002, 6.193984e+003
8.365515e+002, 6.186311e+003
8.370336e+002, 6.179873e+003
8.375157e+002, 6.176726e+003
8.379978e+002, 6.175377e+003
8.384799e+002, 6.175179e+003
8.389620e+002, 6.175161e+003
8.394442e+002, 6.172451e+003
8.399263e+002, 6.165675e+003
8.404084e+002, 6.158932e+003
8.408905e+002, 6.159084e+003
8.413726e+002, 6.164614e+003
8.418547e+002, 6.166308e+003
8.423369e+002, 6.163797e+003
8.428190e+002, 6.161385e+003
8.433011e+002, 6.160884e+003
8.437832e+002, 6.160231e+003
8.442653e+002, 6.156622e+003
8.447474e+002, 6.150158e+003
8.452296e+002, 6.146163e+003
8.457117e+002, 6.147369e+003
8.461938e+002, 6.146995e+003
8.466759e+002, 6.143078e+003
8.471580e+002, 6.138697e+003
8.476401e+002, 6.136124e+003
8.481223e+002, 6.134490e+003
8.486044e+002, 6.131177e+003
8.490865e+002, 6.124765e+003
8.495686e+002, 6.120089e+003
8.500507e+002, 6.122156e+003
8.505328e+002, 6.125330e+003
8.510150e+002, 6.123690e+003
8.514971e+002, 6.118443e+003
8.519792e+002, 6.112561e+003
8.524613e+002, 6.107264e+003
8.529434e+002, 6.103553e+003
8.534255e+002, 6.103063e+003
8.539077e+002, 6.104435e+003
8.543898e+002, 6.103220e+003
8.548719e+002, 6.099412e+003
8.553540e+002, 6.095242e+003
8.558361e+002, 6.090817e+003
8.563182e+002, 6.087581e+003
8.568004e+002, 6.086943e+003
8.572825e+002, 6.088067e+003
8.577646e+002, 6.088440e+003
8.582467e+002, 6.088907e+003
8.587288e+002, 6.086650e+003
8.592109e+002, 6.078279e+003
8.596931e+002, 6.071186e+003
8.601752e+002, 6.068070e+003
8.606573e+002, 6.067578e+003
8.611394e+002, 6.068311e+003
8.616215e+002, 6.070044e+003
8.621036e+002, 6.072321e+003
8.625858e+002, 6.077647e+003
8.630679e+002, 6.080665e+003
8.635500e+002, 6.075600e+003
8.640321e+002, 6.067110e+003
8.645142e+002, 6.061329e+003
8.649963e+002, 6.058966e+003
8.654785e+002, 6.058688e+003
8.659606e+002, 6.059992e+003
8.664427e+002, 6.060745e+003
8.669248e+002, 6.055870e+003
8.674069e+002, 6.047111e+003
8.678890e+002, 6.044935e+003
8.683712e+002, 6.050152e+003
8.688533e+002, 6.054640e+003
8.693354e+002, 6.055410e+003
8.698175e+002, 6.052471e+003
8.702996e+002, 6.044871e+003
8.707817e+002, 6.032495e+003
8.712639e+002, 6.025932e+003
8.717459e+002, 6.029267e+003
8.722280e+002, 6.031222e+003
8.727101e+002, 6.027638e+003
8.731923e+002, 6.024362e+003
8.736744e+002, 6.025975e+003
8.741565e+002, 6.030489e+003
8.746386e+002, 6.032810e+003
8.751207e+002, 6.031539e+003
8.756028e+002, 6.029856e+003
8.760850e+002, 6.030360e+003
8.765671e+002, 6.029421e+003
8.770492e+002, 6.022252e+003
8.775313e+002, 6.012514e+003
8.780134e+002, 6.006038e+003
8.784955e+002, 6.004340e+003
8.789777e+002, 6.006175e+003
8.794598e+002, 6.012648e+003
8.799419e+002, 6.019662e+003
8.804240e+002, 6.018838e+003
8.809061e+002, 6.012654e+003
8.813882e+002, 6.011075e+003
8.818704e+002, 6.015390e+003
8.823525e+002, 6.018214e+003
8.828346e+002, 6.014446e+003
8.833167e+002, 6.008241e+003
8.837988e+002, 6.009111e+003
8.842809e+002, 6.018581e+003
8.847631e+002, 6.023583e+003
8.852452e+002, 6.023129e+003
8.857273e+002, 6.020476e+003
8.862094e+002, 6.015776e+003
8.866915e+002, 6.010299e+003
8.871736e+002, 6.003688e+003
8.876558e+002, 5.996445e+003
8.881379e+002, 5.996109e+003
8.886200e+002, 6.011216e+003
8.891021e+002, 6.021463e+003
8.895842e+002, 6.019901e+003
8.900663e+002, 6.015687e+003
8.905485e+002, 6.015669e+003
8.910306e+002, 6.017669e+003
8.915127e+002, 6.015867e+003
8.919948e+002, 6.008489e+003
8.924769e+002, 6.001667e+003
8.929590e+002, 6.000930e+003
8.934412e+002, 6.001371e+003
8.939233e+002, 5.997319e+003
8.944054e+002, 5.990499e+003
8.948875e+002, 5.984206e+003
8.953696e+002, 5.979507e+003
8.958517e+002, 5.977162e+003
8.963339e+002, 5.978022e+003
8.968160e+002, 5.980656e+003
8.972981e+002, 5.981413e+003
8.977802e+002, 5.980796e+003
8.982623e+002, 5.985534e+003
8.987444e+002, 5.996935e+003
8.992266e+002, 6.003864e+003
8.997087e+002, 5.999785e+003
9.001908e+002, 5.992336e+003
9.006729e+002, 5.993831e+003
9.011550e+002, 6.005021e+003
9.016371e+002, 6.007422e+003
9.021193e+002, 5.995613e+003
9.026014e+002, 5.984995e+003
9.030835e+002, 5.978563e+003
9.035656e+002, 5.974033e+003
9.040477e+002, 5.967351e+003
9.045298e+002, 5.961611e+003
9.050120e+002, 5.966489e+003
9.054941e+002, 5.989340e+003
9.059762e+002, 6.004704e+003
9.064583e+002, 6.001140e+003
9.069404e+002, 5.993977e+003
9.074225e+002, 5.992611e+003
9.079047e+002, 5.993245e+003
9.083868e+002, 5.988851e+003
9.088689e+002, 5.979239e+003
9.093510e+002, 5.971386e+003
9.098331e+002, 5.969979e+003
9.103152e+002, 5.971198e+003
9.107974e+002, 5.971604e+003
9.112795e+002, 5.971627e+003
9.117616e+002, 5.971434e+003
9.122437e+002, 5.971503e+003
9.127258e+002, 5.974171e+003
9.132079e+002, 5.980533e+003
9.136901e+002, 5.987058e+003
9.141722e+002, 5.988643e+003
9.146543e+002, 5.986135e+003
9.151364e+002, 5.983877e+003
9.156185e+002, 5.981734e+003
9.161006e+002, 5.984062e+003
9.165828e+002, 5.993136e+003
9.170649e+002, 6.001419e+003
9.175470e+002, 6.002391e+003
9.180291e+002, 5.997969e+003
9.185112e+002, 5.995033e+003
9.189933e+002, 5.993539e+003
9.194755e+002, 5.993988e+003
9.199576e+002, 6.000523e+003
9.204397e+002, 6.003132e+003
9.209218e+002, 5.992875e+003
9.214039e+002, 5.980021e+003
9.218860e+002, 5.977116e+003
9.223682e+002, 5.983813e+003
9.228503e+002, 5.987050e+003
9.233324e+002, 5.980078e+003
9.238145e+002, 5.976157e+003
9.242966e+002, 5.983603e+003
9.247787e+002, 5.991369e+003
9.252609e+002, 5.988586e+003
9.257430e+002, 5.979746e+003
9.262251e+002, 5.975692e+003
9.267072e+002, 5.979684e+003
9.271893e+002, 5.984683e+003
9.276714e+002, 5.985798e+003
9.281536e+002, 5.985835e+003
9.286357e+002, 5.987515e+003
9.291178e+002, 5.990307e+003
9.295999e+002, 5.993026e+003
9.300820e+002, 5.995545e+003
9.305641e+002, 5.999176e+003
9.310463e+002, 6.005292e+003
9.315284e+002, 6.009889e+003
9.320105e+002, 6.003938e+003
9.324926e+002, 5.990874e+003
9.329747e+002, 5.985852e+003
9.334568e+002, 5.989252e+003
9.339390e+002, 5.992484e+003
9.344211e+002, 5.992419e+003
9.349032e+002, 5.991117e+003
9.353853e+002, 5.991278e+003
9.358674e+002, 5.991901e+003
9.363495e+002, 5.985313e+003
9.368317e+002, 5.967826e+003
9.373138e+002, 5.960155e+003
9.377959e+002, 5.968734e+003
9.382780e+002, 5.978202e+003
9.387601e+002, 5.980102e+003
9.392422e+002, 5.977733e+003
9.397244e+002, 5.977003e+003
9.402065e+002, 5.978349e+003
9.406886e+002, 5.978453e+003
9.411707e+002, 5.974912e+003
9.416528e+002, 5.973330e+003
9.421349e+002, 5.976439e+003
9.426171e+002, 5.980293e+003
9.430992e+002, 5.982947e+003
9.435813e+002, 5.983886e+003
9.440634e+002, 5.981965e+003
9.445455e+002, 5.976227e+003
9.450276e+002, 5.970572e+003
9.455098e+002, 5.964039e+003
9.459919e+002, 5.960570e+003
9.464740e+002, 5.966451e+003
9.469561e+002, 5.975071e+003
9.474382e+002, 5.976219e+003
9.479203e+002, 5.970071e+003
9.484025e+002, 5.966087e+003
9.488846e+002, 5.970183e+003
9.493667e+002, 5.975963e+003
9.498488e+002, 5.977750e+003
9.503309e+002, 5.977005e+003
9.508130e+002, 5.975586e+003
9.512952e+002, 5.973749e+003
9.517773e+002, 5.971542e+003
9.522594e+002, 5.968990e+003
9.527415e+002, 5.966262e+003
9.532236e+002, 5.963455e+003
9.537057e+002, 5.960625e+003
9.541878e+002, 5.957860e+003
9.546699e+002, 5.955194e+003
9.551520e+002, 5.953453e+003
9.556342e+002, 5.952734e+003
9.561163e+002, 5.949463e+003
9.565984e+002, 5.941235e+003
9.570805e+002, 5.932059e+003
9.575626e+002, 5.928109e+003
9.580447e+002, 5.929366e+003
9.585269e+002, 5.936378e+003
9.590090e+002, 5.952905e+003
9.594911e+002, 5.957845e+003
9.599732e+002, 5.941408e+003
9.604553e+002, 5.924831e+003
9.609374e+002, 5.926205e+003
9.614196e+002, 5.937888e+003
9.619017e+002, 5.937709e+003
9.623838e+002, 5.919757e+003
9.628659e+002, 5.907965e+003
9.633480e+002, 5.903733e+003
9.638301e+002, 5.903805e+003
9.643123e+002, 5.910217e+003
9.647944e+002, 5.917976e+003
9.652765e+002, 5.922760e+003
9.657586e+002, 5.925058e+003
9.662407e+002, 5.928042e+003
9.667228e+002, 5.935364e+003
9.672050e+002, 5.936749e+003
9.676871e+002, 5.925408e+003
9.681692e+002, 5.912539e+003
9.686513e+002, 5.902201e+003
9.691334e+002, 5.895644e+003
9.696155e+002, 5.896185e+003
9.700977e+002, 5.902749e+003
9.705798e+002, 5.906061e+003
9.710619e+002, 5.900026e+003
9.715440e+002, 5.893128e+003
9.720261e+002, 5.890584e+003
9.725082e+002, 5.890030e+003
9.729904e+002, 5.890264e+003
9.734725e+002, 5.890060e+003
9.739546e+002, 5.886642e+003
9.744367e+002, 5.879559e+003
9.749188e+002, 5.873022e+003
9.754009e+002, 5.869974e+003
9.758831e+002, 5.869681e+003
9.763652e+002, 5.873048e+003
9.768473e+002, 5.877763e+003
9.773294e+002, 5.878668e+003
9.778115e+002, 5.875612e+003
9.782936e+002, 5.870852e+003
9.787758e+002, 5.865456e+003
9.792579e+002, 5.862016e+003
9.797400e+002, 5.865258e+003
9.802221e+002, 5.872541e+003
9.807042e+002, 5.874404e+003
9.811863e+002, 5.871555e+003
9.816685e+002, 5.869826e+003
9.821506e+002, 5.870406e+003
9.826327e+002, 5.870206e+003
9.831148e+002, 5.867248e+003
9.835969e+002, 5.862316e+003
9.840790e+002, 5.856150e+003
9.845612e+002, 5.848749e+003
9.850433e+002, 5.845625e+003
9.855254e+002, 5.847746e+003
9.860075e+002, 5.847726e+003
9.864896e+002, 5.842161e+003
9.869717e+002, 5.838960e+003
9.874539e+002, 5.845948e+003
9.879360e+002, 5.858875e+003
9.884181e+002, 5.864146e+003
9.889002e+002, 5.859337e+003
9.893823e+002, 5.855075e+003
9.898644e+002, 5.850927e+003
9.903466e+002, 5.848236e+003
9.908287e+002, 5.849251e+003
9.913108e+002, 5.849808e+003
9.917929e+002, 5.844162e+003
9.922750e+002, 5.834089e+003
9.927571e+002, 5.830385e+003
9.932393e+002, 5.839327e+003
9.937214e+002, 5.843439e+003
9.942035e+002, 5.838319e+003
9.946856e+002, 5.833412e+003
9.951677e+002, 5.832995e+003
9.956498e+002, 5.834188e+003
9.961320e+002, 5.833616e+003
9.966141e+002, 5.831452e+003
9.970962e+002, 5.830388e+003
9.975783e+002, 5.831718e+003
9.980604e+002, 5.832792e+003
9.985425e+002, 5.831501e+003
9.990247e+002, 5.831183e+003
9.995068e+002, 5.837845e+003
9.999889e+002, 5.844683e+003
1.000471e+003, 5.838437e+003
1.000953e+003, 5.819677e+003
1.001435e+003, 5.809236e+003
1.001917e+003, 5.822764e+003
1.002399e+003, 5.835822e+003
1.002882e+003, 5.832560e+003
1.003364e+003, 5.824994e+003
1.003846e+003, 5.824608e+003
1.004328e+003, 5.828729e+003
1.004810e+003, 5.830029e+003
1.005292e+003, 5.826904e+003
1.005774e+003, 5.823500e+003
1.006256e+003, 5.822712e+003
1.006739e+003, 5.822423e+003
1.007221e+003, 5.819217e+003
1.007703e+003, 5.816209e+003
1.008185e+003, 5.820718e+003
1.008667e+003, 5.829311e+003
1.009149e+003, 5.829806e+003
1.009631e+003, 5.818603e+003
1.010113e+003, 5.806928e+003
1.010595e+003, 5.804936e+003
1.011078e+003, 5.807879e+003
1.011560e+003, 5.809578e+003
1.012042e+003, 5.810307e+003
1.012524e+003, 5.810482e+003
1.013006e+003, 5.810317e+003
1.013488e+003, 5.810328e+003
1.013970e+003, 5.810735e+003
1.014452e+003, 5.811648e+003
1.014935e+003, 5.812907e+003
1.015417e+003, 5.814964e+003
1.015899e+003, 5.820499e+003
1.016381e+003, 5.828131e+003
1.016863e+003, 5.830742e+003
1.017345e+003, 5.827633e+003
1.017827e+003, 5.823181e+003
1.018309e+003, 5.819552e+003
1.018791e+003, 5.817436e+003
1.019274e+003, 5.818062e+003
1.019756e+003, 5.820979e+003
1.020238e+003, 5.824779e+003
1.020720e+003, 5.829320e+003
1.021202e+003, 5.829959e+003
1.021684e+003, 5.825772e+003
1.022166e+003, 5.819278e+003
1.022648e+003, 5.811160e+003
1.023130e+003, 5.805333e+003
1.023613e+003, 5.809118e+003
1.024095e+003, 5.821748e+003
1.024577e+003, 5.831132e+003
1.025059e+003, 5.837545e+003
1.025541e+003, 5.836689e+003
1.026023e+003, 5.826125e+003
1.026505e+003, 5.814888e+003
1.026987e+003, 5.807828e+003
1.027469e+003, 5.805246e+003
1.027952e+003, 5.808751e+003
1.028434e+003, 5.818810e+003
1.028916e+003, 5.822769e+003
1.029398e+003, 5.818392e+003
1.029880e+003, 5.816071e+003
1.030362e+003, 5.818880e+003
1.030844e+003, 5.821499e+003
1.031326e+003, 5.820384e+003
1.031809e+003, 5.816961e+003
1.032291e+003, 5.813873e+003
1.032773e+003, 5.811067e+003
1.033255e+003, 5.809346e+003
1.033737e+003, 5.807141e+003
1.034219e+003, 5.810184e+003
1.034701e+003, 5.824479e+003
1.035183e+003, 5.836843e+003
1.035666e+003, 5.837463e+003
1.036148e+003, 5.830809e+003
1.036630e+003, 5.825646e+003
1.037112e+003, 5.821651e+003
1.037594e+003, 5.820817e+003
1.038076e+003, 5.825241e+003
1.038558e+003, 5.829333e+003
1.039040e+003, 5.832527e+003
1.039522e+003, 5.834516e+003
1.040005e+003, 5.834107e+003
1.040487e+003, 5.832566e+003
1.040969e+003, 5.832640e+003
1.041451e+003, 5.834553e+003
1.041933e+003, 5.836726e+003
1.042415e+003, 5.838889e+003
1.042897e+003, 5.841681e+003
1.043379e+003, 5.848971e+003
1.043861e+003, 5.853287e+003
1.044344e+003, 5.846013e+003
1.044826e+003, 5.833682e+003
1.045308e+003, 5.830069e+003
1.045790e+003, 5.837826e+003
1.046272e+003, 5.841930e+003
1.046754e+003, 5.837047e+003
1.047236e+003, 5.833644e+003
1.047718e+003, 5.835241e+003
1.048201e+003, 5.838251e+003
1.048683e+003, 5.840364e+003
1.049165e+003, 5.842003e+003
1.049647e+003, 5.844565e+003
1.050129e+003, 5.848365e+003
1.050611e+003, 5.850500e+003
1.051093e+003, 5.847931e+003
1.051575e+003, 5.846858e+003
1.052057e+003, 5.850265e+003
1.052540e+003, 5.854582e+003
1.053022e+003, 5.855783e+003
1.053504e+003, 5.856517e+003
1.053986e+003, 5.863191e+003
1.054468e+003, 5.876930e+003
1.054950e+003, 5.886508e+003
1.055432e+003, 5.888555e+003
1.055914e+003, 5.886546e+003
1.056396e+003, 5.876335e+003
1.056879e+003, 5.867703e+003
1.057361e+003, 5.869992e+003
1.057843e+003, 5.878272e+003
1.058325e+003, 5.883240e+003
1.058807e+003, 5.883524e+003
1.059289e+003, 5.884630e+003
1.059771e+003, 5.890173e+003
1.060253e+003, 5.894433e+003
1.060736e+003, 5.894423e+003
1.061218e+003, 5.893158e+003
1.061700e+003, 5.892636e+003
1.062182e+003, 5.892625e+003
1.062664e+003, 5.891954e+003
1.063146e+003, 5.890648e+003
1.063628e+003, 5.891321e+003
1.064110e+003, 5.897867e+003
1.064593e+003, 5.902397e+003
1.065075e+003, 5.898302e+003
1.065557e+003, 5.894315e+003
1.066039e+003, 5.899489e+003
1.066521e+003, 5.908114e+003
1.067003e+003, 5.909201e+003
1.067485e+003, 5.902424e+003
1.067967e+003, 5.900247e+003
1.068449e+003, 5.912267e+003
1.068932e+003, 5.921000e+003
1.069414e+003, 5.914063e+003
1.069896e+003, 5.905510e+003
1.070378e+003, 5.906099e+003
1.070860e+003, 5.911747e+003
1.071342e+003, 5.915998e+003
1.071824e+003, 5.918089e+003
1.072306e+003, 5.920766e+003
1.072788e+003, 5.925749e+003
1.073271e+003, 5.929726e+003
1.073753e+003, 5.931706e+003
1.074235e+003, 5.931506e+003
1.074717e+003, 5.925740e+003
1.075199e+003, 5.919745e+003
1.075681e+003, 5.921729e+003
1.076163e+003, 5.930736e+003
1.076645e+003, 5.937951e+003
1.077127e+003, 5.940159e+003
1.077610e+003, 5.941049e+003
1.078092e+003, 5.941299e+003
1.078574e+003, 5.941998e+003
1.079056e+003, 5.943854e+003
1.079538e+003, 5.946640e+003
1.080020e+003, 5.950718e+003
1.080502e+003, 5.955445e+003
1.080984e+003, 5.959142e+003
1.081467e+003, 5.961499e+003
1.081949e+003, 5.961736e+003
1.082431e+003, 5.954984e+003
1.082913e+003, 5.951260e+003
1.083395e+003, 5.960545e+003
1.083877e+003, 5.973068e+003
1.084359e+003, 5.977581e+003
1.084841e+003, 5.976030e+003
1.085323e+003, 5.976625e+003
1.085806e+003, 5.981659e+003
1.086288e+003, 5.987049e+003
1.086770e+003, 5.991507e+003
1.087252e+003, 5.995312e+003
1.087734e+003, 5.997344e+003
1.088216e+003, 5.999908e+003
1.088698e+003, 6.007852e+003
1.089180e+003, 6.017172e+003
1.089662e+003, 6.018069e+003
1.090145e+003, 6.008508e+003
1.090627e+003, 6.001190e+003
1.091109e+003, 5.998710e+003
1.091591e+003, 6.002308e+003
1.092073e+003, 6.019508e+003
1.092555e+003, 6.036259e+003
1.093037e+003, 6.040308e+003
1.093519e+003, 6.036523e+003
1.094002e+003, 6.033832e+003
1.094484e+003, 6.033538e+003
1.094966e+003, 6.032492e+003
1.095448e+003, 6.027778e+003
1.095930e+003, 6.025044e+003
1.096412e+003, 6.028413e+003
1.096894e+003, 6.031880e+003
1.097376e+003, 6.029676e+003
1.097859e+003, 6.026436e+003
1.098341e+003, 6.029755e+003
1.098823e+003, 6.038998e+003
1.099305e+003, 6.045067e+003
1.099787e+003, 6.042739e+003
1.100269e+003, 6.043716e+003
1.100751e+003, 6.054083e+003
1.101233e+003, 6.064758e+003
1.101715e+003, 6.072749e+003
1.102198e+003, 6.077723e+003
1.102680e+003, 6.078687e+003
1.103162e+003, 6.076502e+003
1.103644e+003, 6.073820e+003
1.104126e+003, 6.069999e+003
1.104608e+003, 6.069058e+003
1.105090e+003, 6.072098e+003
1.105572e+003, 6.077686e+003
1.106054e+003, 6.087131e+003
1.106537e+003, 6.097291e+003
1.107019e+003, 6.107860e+003
1.107501e+003, 6.116729e+003
1.107983e+003, 6.116947e+003
1.108465e+003, 6.104542e+003
1.108947e+003, 6.103662e+003
1.109429e+003, 6.130142e+003
1.109911e+003, 6.148694e+003
1.110394e+003, 6.146916e+003
1.110876e+003, 6.140797e+003
1.111358e+003, 6.137890e+003
1.111840e+003, 6.137767e+003
1.112322e+003, 6.139635e+003
1.112804e+003, 6.143466e+003
1.113286e+003, 6.149068e+003
1.113768e+003, 6.158169e+003
1.114250e+003, 6.166146e+003
1.114733e+003, 6.172769e+003
1.115215e+003, 6.178117e+003
1.115697e+003, 6.181623e+003
1.116179e+003, 6.184472e+003
1.116661e+003, 6.187877e+003
1.117143e+003, 6.191874e+003
1.117625e+003, 6.196730e+003
1.118107e+003, 6.204288e+003
1.118589e+003, 6.207908e+003
1.119072e+003, 6.203033e+003
1.119554e+003, 6.203757e+003
1.120036e+003, 6.217350e+003
1.120518e+003, 6.233498e+003
1.121000e+003, 6.243920e+003
1.121482e+003, 6.249766e+003
1.121964e+003, 6.253770e+003
1.122446e+003, 6.254875e+003
1.122929e+003, 6.261422e+003
1.123411e+003, 6.276830e+003
1.123893e+003, 6.284848e+003
1.124375e+003, 6.278825e+003
1.124857e+003, 6.274696e+003
1.125339e+003, 6.283437e+003
1.125821e+003, 6.298139e+003
1.126303e+003, 6.306835e+003
1.126786e+003, 6.309905e+003
1.127268e+003, 6.314810e+003
1.127750e+003, 6.321708e+003
1.128232e+003, 6.328846e+003
1.128714e+003, 6.336144e+003
1.129196e+003, 6.342392e+003
1.129678e+003, 6.347158e+003
1.130160e+003, 6.349524e+003
1.130642e+003, 6.347427e+003
1.131125e+003, 6.343657e+003
1.131607e+003, 6.349643e+003
1.132089e+003, 6.364632e+003
1.132571e+003, 6.373983e+003
1.133053e+003, 6.377092e+003
1.133535e+003, 6.381203e+003
1.134017e+003, 6.388546e+003
1.134499e+003, 6.397525e+003
1.134981e+003, 6.407219e+003
1.135464e+003, 6.416129e+003
1.135946e+003, 6.419674e+003
1.136428e+003, 6.420296e+003
1.136910e+003, 6.428833e+003
1.137392e+003, 6.443553e+003
1.137874e+003, 6.455027e+003
1.138356e+003, 6.462056e+003
1.138838e+003, 6.470778e+003
1.139321e+003, 6.484390e+003
1.139803e+003, 6.496797e+003
1.140285e+003, 6.499008e+003
1.140767e+003, 6.497670e+003
1.141249e+003, 6.505975e+003
1.141731e+003, 6.519901e+003
1.142213e+003, 6.531620e+003
1.142695e+003, 6.540259e+003
1.143177e+003, 6.546063e+003
1.143660e+003, 6.549564e+003
1.144142e+003, 6.553627e+003
1.144624e+003, 6.560246e+003
1.145106e+003, 6.568513e+003
1.145588e+003, 6.580034e+003
1.146070e+003, 6.590650e+003
1.146552e+003, 6.591479e+003
1.147034e+003, 6.589053e+003
1.147516e+003, 6.597607e+003
1.147999e+003, 6.616421e+003
1.148481e+003, 6.631196e+003
1.148963e+003, 6.635231e+003
1.149445e+003, 6.638921e+003
1.149927e+003, 6.649056e+003
1.150409e+003, 6.660845e+003
1.150891e+003, 6.671313e+003
1.151373e+003, 6.681108e+003
1.151856e+003, 6.691088e+003
1.152338e+003, 6.701029e+003
1.152820e+003, 6.709409e+003
1.153302e+003, 6.715935e+003
1.153784e+003, 6.726115e+003
1.154266e+003, 6.745978e+003
1.154748e+003, 6.763907e+003
1.155230e+003, 6.775617e+003
1.155713e+003, 6.784767e+003
1.156195e+003, 6.792133e+003
1.156677e+003, 6.799382e+003
1.157159e+003, 6.809254e+003
1.157641e+003, 6.821290e+003
1.158123e+003, 6.831003e+003
1.158605e+003, 6.836356e+003
1.159087e+003, 6.843187e+003
1.159569e+003, 6.852459e+003
1.160052e+003, 6.862557e+003
1.160534e+003, 6.872390e+003
1.161016e+003, 6.883823e+003
1.161498e+003, 6.899636e+003
1.161980e+003, 6.917178e+003
1.162462e+003, 6.930265e+003
1.162944e+003, 6.938319e+003
1.163426e+003, 6.948407e+003
1.163908e+003, 6.961403e+003
1.164391e+003, 6.973579e+003
1.164873e+003, 6.983806e+003
1.165355e+003, 6.994714e+003
1.165837e+003, 7.007454e+003
1.166319e+003, 7.021757e+003
1.166801e+003, 7.037570e+003
1.167283e+003, 7.054450e+003
1.167765e+003, 7.071338e+003
1.168247e+003, 7.088328e+003
1.168730e+003, 7.101016e+003
1.169212e+003, 7.108961e+003
1.169694e+003, 7.121479e+003
1.170176e+003, 7.141159e+003
1.170658e+003, 7.161805e+003
1.171140e+003, 7.179412e+003
1.171622e+003, 7.193706e+003
1.172104e+003, 7.201260e+003
1.172587e+003, 7.206275e+003
1.173069e+003, 7.227459e+003
1.173551e+003, 7.258598e+003
1.174033e+003, 7.272751e+003
1.174515e+003, 7.270879e+003
1.174997e+003, 7.277252e+003
1.175479e+003, 7.300538e+003
1.175961e+003, 7.326309e+003
1.176443e+003, 7.342569e+003
1.176926e+003, 7.355837e+003
1.177408e+003, 7.373514e+003
1.177890e+003, 7.393882e+003
1.178372e+003, 7.417319e+003
1.178854e+003, 7.440268e+003
1.179336e+003, 7.454915e+003
1.179818e+003, 7.462185e+003
1.180300e+003, 7.470353e+003
1.180782e+003, 7.482725e+003
1.181265e+003, 7.497490e+003
1.181747e+003, 7.514119e+003
1.182229e+003, 7.532097e+003
1.182711e+003, 7.553326e+003
1.183193e+003, 7.573712e+003
1.183675e+003, 7.587628e+003
1.184157e+003, 7.598524e+003
1.184639e+003, 7.612907e+003
1.185122e+003, 7.631721e+003
1.185604e+003, 7.652856e+003
1.186086e+003, 7.680411e+003
1.186568e+003, 7.702950e+003
1.187050e+003, 7.714336e+003
1.187532e+003, 7.725608e+003
1.188014e+003, 7.740492e+003
1.188496e+003, 7.758038e+003
1.188979e+003, 7.777526e+003
1.189461e+003, 7.798694e+003
1.189943e+003, 7.820256e+003
1.190425e+003, 7.841841e+003
1.190907e+003, 7.865910e+003
1.191389e+003, 7.893740e+003
1.191871e+003, 7.920202e+003
1.192353e+003, 7.944292e+003
1.192835e+003, 7.967235e+003
1.193318e+003, 7.989566e+003
1.193800e+003, 8.010954e+003
1.194282e+003, 8.030175e+003
1.194764e+003, 8.048896e+003
1.195246e+003, 8.074274e+003
1.195728e+003, 8.106015e+003
1.196210e+003, 8.136491e+003
1.196692e+003, 8.165227e+003
1.197174e+003, 8.193964e+003
1.197657e+003, 8.222869e+003
1.198139e+003, 8.248206e+003
1.198621e+003, 8.267255e+003
1.199103e+003, 8.286830e+003
1.199585e+003, 8.317208e+003
1.200067e+003, 8.353246e+003
1.200549e+003, 8.386747e+003
1.201031e+003, 8.417355e+003
1.201514e+003, 8.444139e+003
1.201996e+003, 8.467632e+003
1.202478e+003, 8.487534e+003
1.202960e+003, 8.505178e+003
1.203442e+003, 8.528905e+003
1.203924e+003, 8.566207e+003
1.204406e+003, 8.603191e+003
1.204888e+003, 8.626801e+003
1.205370e+003, 8.648372e+003
1.205853e+003, 8.679329e+003
1.206335e+003, 8.712106e+003
1.206817e+003, 8.733312e+003
1.207299e+003, 8.749001e+003
1.207781e+003, 8.779134e+003
1.208263e+003, 8.828645e+003
1.208745e+003, 8.871989e+003
1.209227e+003, 8.897370e+003
1.209709e+003, 8.924191e+003
1.210192e+003, 8.957657e+003
1.210674e+003, 8.992349e+003
1.211156e+003, 9.024246e+003
1.211638e+003, 9.057185e+003
1.212120e+003, 9.096704e+003
1.212602e+003, 9.140143e+003
1.213084e+003, 9.176337e+003
1.213566e+003, 9.202657e+003
1.214049e+003, 9.234520e+003
1.214531e+003, 9.272253e+003
1.215013e+003, 9.315390e+003
1.215495e+003, 9.365771e+003
1.215977e+003, 9.412629e+003
1.216459e+003, 9.450322e+003
1.216941e+003, 9.479785e+003
1.217423e+003, 9.499091e+003
1.217906e+003, 9.516091e+003
1.218388e+003, 9.560032e+003
1.218870e+003, 9.623888e+003
1.219352e+003, 9.671634e+003
1.219834e+003, 9.704230e+003
1.220316e+003, 9.736689e+003
1.220798e+003, 9.772699e+003
1.221280e+003, 9.809714e+003
1.221762e+003, 9.846480e+003
1.222245e+003, 9.884128e+003
1.222727e+003, 9.921240e+003
1.223209e+003, 9.962432e+003
1.223691e+003, 1.001770e+004
1.224173e+003, 1.007671e+004
1.224655e+003, 1.012547e+004
1.225137e+003, 1.016660e+004
1.225619e+003, 1.020723e+004
1.226101e+003, 1.024838e+004
1.226584e+003, 1.028762e+004
1.227066e+003, 1.032212e+004
1.227548e+003, 1.035989e+004
1.228030e+003, 1.040396e+004
1.228512e+003, 1.045133e+004
1.228994e+003, 1.050278e+004
1.229476e+003, 1.055526e+004
1.229958e+003, 1.060544e+004
1.230441e+003, 1.065574e+004
1.230923e+003, 1.071106e+004
1.231405e+003, 1.077140e+004
1.231887e+003, 1.083018e+004
1.232369e+003, 1.088900e+004
1.232851e+003, 1.093962e+004
1.233333e+003, 1.097758e+004
1.233815e+003, 1.102257e+004
1.234297e+003, 1.108120e+004
1.234780e+003, 1.114641e+004
1.235262e+003, 1.121487e+004
1.235744e+003, 1.128046e+004
1.236226e+003, 1.133000e+004
1.236708e+003, 1.136904e+004
1.237190e+003, 1.142319e+004
1.237672e+003, 1.148898e+004
1.238154e+003, 1.155404e+004
1.238636e+003, 1.161652e+004
1.239119e+003, 1.167680e+004
1.239601e+003, 1.173481e+004
1.240083e+003, 1.178929e+004
1.240565e+003, 1.183883e+004
1.241047e+003, 1.188838e+004
1.241529e+003, 1.194134e+004
1.242011e+003, 1.199821e+004
1.242493e+003, 1.206183e+004
1.242975e+003, 1.212865e+004
1.243458e+003, 1.219778e+004
1.243940e+003, 1.226564e+004
1.244422e+003, 1.232305e+004
1.244904e+003, 1.237021e+004
1.245386e+003, 1.242400e+004
1.245868e+003, 1.249422e+004
1.246350e+003, 1.256107e+004
1.246832e+003, 1.261727e+004
1.247315e+003, 1.267530e+004
1.247797e+003, 1.274352e+004
1.248279e+003, 1.280956e+004
1.248761e+003, 1.286262e+004
1.249243e+003, 1.290967e+004
1.249725e+003, 1.296378e+004
1.250207e+003, 1.302433e+004
1.250689e+003, 1.308510e+004
1.251172e+003, 1.314635e+004
1.251654e+003, 1.320199e+004
1.252136e+003, 1.325138e+004
1.252618e+003, 1.330307e+004
1.253100e+003, 1.335958e+004
1.253582e+003, 1.341590e+004
1.254064e+003, 1.346847e+004
1.254546e+003, 1.351728e+004
1.255028e+003, 1.356256e+004
1.255510e+003, 1.360313e+004
1.255993e+003, 1.363264e+004
1.256475e+003, 1.365773e+004
1.256957e+003, 1.369186e+004
1.257439e+003, 1.373163e+004
1.257921e+003, 1.376610e+004
1.258403e+003, 1.379336e+004
1.258885e+003, 1.381893e+004
1.259367e+003, 1.384453e+004
1.259850e+003, 1.387091e+004
1.260332e+003, 1.390467e+004
1.260814e+003, 1.393105e+004
1.261296e+003, 1.393458e+004
1.261778e+003, 1.393676e+004
1.262260e+003, 1.395617e+004
1.262742e+003, 1.398390e+004
1.263224e+003, 1.400671e+004
1.263707e+003, 1.402419e+004
1.264189e+003, 1.403227e+004
1.264671e+003, 1.402865e+004
1.265153e+003, 1.402301e+004
1.265635e+003, 1.401512e+004
1.266117e+003, 1.400535e+004
1.266599e+003, 1.399275e+004
1.267081e+003, 1.398656e+004
1.267563e+003, 1.399278e+004
1.268046e+003, 1.399994e+004
1.268528e+003, 1.399446e+004
1.269010e+003, 1.397976e+004
1.269492e+003, 1.396311e+004
1.269974e+003, 1.394395e+004
1.270456e+003, 1.391858e+004
1.270938e+003, 1.388996e+004
1.271420e+003, 1.386734e+004
1.271902e+003, 1.385019e+004
1.272385e+003, 1.383077e+004
1.272867e+003, 1.380617e+004
1.273349e+003, 1.377574e+004
1.273831e+003, 1.373225e+004
1.274313e+003, 1.369222e+004
1.274795e+003, 1.366865e+004
1.275277e+003, 1.364556e+004
1.275759e+003, 1.361145e+004
1.276242e+003, 1.357251e+004
1.276724e+003, 1.353628e+004
1.277206e+003, 1.350156e+004
1.277688e+003, 1.346484e+004
1.278170e+003, 1.342637e+004
1.278652e+003, 1.338218e+004
1.279134e+003, 1.332920e+004
1.279616e+003, 1.328208e+004
1.280099e+003, 1.324279e+004
1.280581e+003, 1.320841e+004
1.281063e+003, 1.317849e+004
1.281545e+003, 1.314562e+004
1.282027e+003, 1.310328e+004
1.282509e+003, 1.305588e+004
1.282991e+003, 1.300951e+004
1.283473e+003, 1.296442e+004
1.283955e+003, 1.292409e+004
##END=



