##NAMES=Steacyite
##RRUFFID=R130053
##IDEAL CHEMISTRY=K_0.3_(Na,Ca)_2_Th^4+^Si_8_O_20_
##LOCALITY=Mont Saint-Hilaire, Rouville RCM, Monteregie, Quebec, Canada
##OWNER=RRUFF
##SOURCE=Don Doell
##DESCRIPTION=Light-brown rectangular prism
##STATUS=The identification of this mineral has been confirmed only by single crystal X-ray diffraction.
##URL=rruff.info/R130053
8.936163e+001, 0.000000e+000
8.984375e+001, 1.597290e+002
9.032587e+001, 1.615391e+002
9.080798e+001, 1.618678e+002
9.129010e+001, 1.600696e+002
9.177222e+001, 1.575409e+002
9.225433e+001, 1.561808e+002
9.273645e+001, 1.558691e+002
9.321857e+001, 1.553598e+002
9.370068e+001, 1.534041e+002
9.418280e+001, 1.503580e+002
9.466492e+001, 1.473817e+002
9.514703e+001, 1.447861e+002
9.562915e+001, 1.425410e+002
9.611127e+001, 1.404418e+002
9.659338e+001, 1.384725e+002
9.707550e+001, 1.368020e+002
9.755762e+001, 1.358175e+002
9.803973e+001, 1.355311e+002
9.852185e+001, 1.350724e+002
9.900397e+001, 1.339037e+002
9.948608e+001, 1.319949e+002
9.996820e+001, 1.306476e+002
1.004503e+002, 1.300706e+002
1.009324e+002, 1.298017e+002
1.014146e+002, 1.288246e+002
1.018967e+002, 1.269354e+002
1.023788e+002, 1.248954e+002
1.028609e+002, 1.230377e+002
1.033430e+002, 1.213666e+002
1.038251e+002, 1.199274e+002
1.043073e+002, 1.187914e+002
1.047894e+002, 1.179070e+002
1.052715e+002, 1.170199e+002
1.057536e+002, 1.161580e+002
1.062357e+002, 1.152544e+002
1.067178e+002, 1.142237e+002
1.072000e+002, 1.127986e+002
1.076821e+002, 1.116539e+002
1.081642e+002, 1.110304e+002
1.086463e+002, 1.109897e+002
1.091284e+002, 1.106128e+002
1.096105e+002, 1.098600e+002
1.100927e+002, 1.087845e+002
1.105748e+002, 1.074450e+002
1.110569e+002, 1.053186e+002
1.115390e+002, 1.034212e+002
1.120211e+002, 1.020110e+002
1.125032e+002, 1.011795e+002
1.129854e+002, 1.005374e+002
1.134675e+002, 1.003126e+002
1.139496e+002, 1.001987e+002
1.144317e+002, 9.974674e+001
1.149138e+002, 9.841927e+001
1.153959e+002, 9.705477e+001
1.158781e+002, 9.611354e+001
1.163602e+002, 9.598864e+001
1.168423e+002, 9.558083e+001
1.173244e+002, 9.424220e+001
1.178065e+002, 9.229125e+001
1.182886e+002, 9.053853e+001
1.187708e+002, 8.927797e+001
1.192529e+002, 8.837208e+001
1.197350e+002, 8.774775e+001
1.202171e+002, 8.751858e+001
1.206992e+002, 8.740369e+001
1.211813e+002, 8.736468e+001
1.216635e+002, 8.735366e+001
1.221456e+002, 8.710022e+001
1.226277e+002, 8.637456e+001
1.231098e+002, 8.531985e+001
1.235919e+002, 8.411826e+001
1.240740e+002, 8.258842e+001
1.245562e+002, 8.108395e+001
1.250383e+002, 8.003594e+001
1.255204e+002, 7.943656e+001
1.260025e+002, 7.899813e+001
1.264846e+002, 7.855160e+001
1.269667e+002, 7.808269e+001
1.274489e+002, 7.755578e+001
1.279310e+002, 7.688985e+001
1.284131e+002, 7.616609e+001
1.288952e+002, 7.555547e+001
1.293773e+002, 7.507363e+001
1.298594e+002, 7.464217e+001
1.303416e+002, 7.418026e+001
1.308237e+002, 7.368922e+001
1.313058e+002, 7.314769e+001
1.317879e+002, 7.252608e+001
1.322700e+002, 7.183851e+001
1.327521e+002, 7.111672e+001
1.332343e+002, 7.030340e+001
1.337164e+002, 6.955931e+001
1.341985e+002, 6.925710e+001
1.346806e+002, 6.943362e+001
1.351627e+002, 6.956398e+001
1.356448e+002, 6.930436e+001
1.361270e+002, 6.865079e+001
1.366091e+002, 6.786143e+001
1.370912e+002, 6.688681e+001
1.375733e+002, 6.583879e+001
1.380554e+002, 6.505171e+001
1.385375e+002, 6.457272e+001
1.390197e+002, 6.421325e+001
1.395018e+002, 6.384843e+001
1.399839e+002, 6.349749e+001
1.404660e+002, 6.305767e+001
1.409481e+002, 6.243710e+001
1.414302e+002, 6.167128e+001
1.419124e+002, 6.124854e+001
1.423945e+002, 6.138543e+001
1.428766e+002, 6.156873e+001
1.433587e+002, 6.122758e+001
1.438408e+002, 6.001616e+001
1.443229e+002, 5.900138e+001
1.448051e+002, 5.850012e+001
1.452872e+002, 5.861204e+001
1.457693e+002, 5.842714e+001
1.462514e+002, 5.778267e+001
1.467335e+002, 5.694255e+001
1.472156e+002, 5.621426e+001
1.476978e+002, 5.548859e+001
1.481799e+002, 5.502349e+001
1.486620e+002, 5.498339e+001
1.491441e+002, 5.570166e+001
1.496262e+002, 5.593408e+001
1.501083e+002, 5.532855e+001
1.505905e+002, 5.429264e+001
1.510726e+002, 5.353522e+001
1.515547e+002, 5.323456e+001
1.520368e+002, 5.306387e+001
1.525189e+002, 5.296273e+001
1.530010e+002, 5.315932e+001
1.534832e+002, 5.301984e+001
1.539653e+002, 5.218980e+001
1.544474e+002, 5.097789e+001
1.549295e+002, 5.012527e+001
1.554116e+002, 5.008512e+001
1.558937e+002, 5.016164e+001
1.563759e+002, 5.003589e+001
1.568580e+002, 4.945523e+001
1.573401e+002, 4.895142e+001
1.578222e+002, 4.862887e+001
1.583043e+002, 4.846379e+001
1.587864e+002, 4.836821e+001
1.592686e+002, 4.842331e+001
1.597507e+002, 4.847937e+001
1.602328e+002, 4.844063e+001
1.607149e+002, 4.823046e+001
1.611970e+002, 4.797696e+001
1.616791e+002, 4.770807e+001
1.621613e+002, 4.742834e+001
1.626434e+002, 4.714122e+001
1.631255e+002, 4.681588e+001
1.636076e+002, 4.650041e+001
1.640897e+002, 4.623758e+001
1.645718e+002, 4.601783e+001
1.650540e+002, 4.587321e+001
1.655361e+002, 4.585172e+001
1.660182e+002, 4.594849e+001
1.665003e+002, 4.604492e+001
1.669824e+002, 4.619429e+001
1.674645e+002, 4.627681e+001
1.679467e+002, 4.614465e+001
1.684288e+002, 4.544158e+001
1.689109e+002, 4.470919e+001
1.693930e+002, 4.435242e+001
1.698751e+002, 4.439432e+001
1.703572e+002, 4.456246e+001
1.708394e+002, 4.465942e+001
1.713215e+002, 4.475710e+001
1.718036e+002, 4.497405e+001
1.722857e+002, 4.555056e+001
1.727678e+002, 4.617530e+001
1.732499e+002, 4.642065e+001
1.737321e+002, 4.619443e+001
1.742142e+002, 4.611270e+001
1.746963e+002, 4.686171e+001
1.751784e+002, 4.817302e+001
1.756605e+002, 4.941585e+001
1.761426e+002, 5.015656e+001
1.766248e+002, 5.066665e+001
1.771069e+002, 5.126689e+001
1.775890e+002, 5.196886e+001
1.780711e+002, 5.285005e+001
1.785532e+002, 5.403037e+001
1.790353e+002, 5.548014e+001
1.795175e+002, 5.704555e+001
1.799996e+002, 5.876343e+001
1.804817e+002, 6.052752e+001
1.809638e+002, 6.214301e+001
1.814459e+002, 6.355622e+001
1.819280e+002, 6.490954e+001
1.824102e+002, 6.643395e+001
1.828923e+002, 6.808495e+001
1.833744e+002, 6.976453e+001
1.838565e+002, 7.146095e+001
1.843386e+002, 7.313536e+001
1.848207e+002, 7.458811e+001
1.853029e+002, 7.574680e+001
1.857850e+002, 7.678619e+001
1.862671e+002, 7.800071e+001
1.867492e+002, 7.938256e+001
1.872313e+002, 8.086253e+001
1.877134e+002, 8.237200e+001
1.881956e+002, 8.393969e+001
1.886777e+002, 8.565147e+001
1.891598e+002, 8.759547e+001
1.896419e+002, 8.963108e+001
1.901240e+002, 9.144236e+001
1.906061e+002, 9.304342e+001
1.910883e+002, 9.460787e+001
1.915704e+002, 9.631509e+001
1.920525e+002, 9.815827e+001
1.925346e+002, 9.989650e+001
1.930167e+002, 1.014230e+002
1.934988e+002, 1.027915e+002
1.939810e+002, 1.039898e+002
1.944631e+002, 1.049308e+002
1.949452e+002, 1.059616e+002
1.954273e+002, 1.069642e+002
1.959094e+002, 1.079388e+002
1.963915e+002, 1.088925e+002
1.968737e+002, 1.098124e+002
1.973558e+002, 1.107156e+002
1.978379e+002, 1.116909e+002
1.983200e+002, 1.127433e+002
1.988021e+002, 1.138334e+002
1.992842e+002, 1.149207e+002
1.997664e+002, 1.160130e+002
2.002485e+002, 1.171053e+002
2.007306e+002, 1.182351e+002
2.012127e+002, 1.193768e+002
2.016948e+002, 1.203557e+002
2.021769e+002, 1.211179e+002
2.026591e+002, 1.219017e+002
2.031412e+002, 1.229940e+002
2.036233e+002, 1.244657e+002
2.041054e+002, 1.257367e+002
2.045875e+002, 1.265616e+002
2.050696e+002, 1.270270e+002
2.055518e+002, 1.280520e+002
2.060339e+002, 1.298764e+002
2.065160e+002, 1.317128e+002
2.069981e+002, 1.326570e+002
2.074802e+002, 1.325112e+002
2.079623e+002, 1.323896e+002
2.084445e+002, 1.325823e+002
2.089266e+002, 1.330702e+002
2.094087e+002, 1.333767e+002
2.098908e+002, 1.334408e+002
2.103729e+002, 1.334383e+002
2.108550e+002, 1.335368e+002
2.113372e+002, 1.337177e+002
2.118193e+002, 1.340702e+002
2.123014e+002, 1.347475e+002
2.127835e+002, 1.357473e+002
2.132656e+002, 1.361661e+002
2.137477e+002, 1.357999e+002
2.142299e+002, 1.351465e+002
2.147120e+002, 1.347494e+002
2.151941e+002, 1.345862e+002
2.156762e+002, 1.347309e+002
2.161583e+002, 1.353264e+002
2.166404e+002, 1.364103e+002
2.171226e+002, 1.370589e+002
2.176047e+002, 1.370638e+002
2.180868e+002, 1.368822e+002
2.185689e+002, 1.371188e+002
2.190510e+002, 1.380201e+002
2.195331e+002, 1.387563e+002
2.200153e+002, 1.390615e+002
2.204974e+002, 1.388778e+002
2.209795e+002, 1.389572e+002
2.214616e+002, 1.394166e+002
2.219437e+002, 1.400195e+002
2.224258e+002, 1.404725e+002
2.229080e+002, 1.406980e+002
2.233901e+002, 1.409385e+002
2.238722e+002, 1.412438e+002
2.243543e+002, 1.416154e+002
2.248364e+002, 1.420649e+002
2.253185e+002, 1.426478e+002
2.258007e+002, 1.432474e+002
2.262828e+002, 1.437352e+002
2.267649e+002, 1.441260e+002
2.272470e+002, 1.443550e+002
2.277291e+002, 1.443506e+002
2.282112e+002, 1.440638e+002
2.286934e+002, 1.439150e+002
2.291755e+002, 1.439833e+002
2.296576e+002, 1.441174e+002
2.301397e+002, 1.441221e+002
2.306218e+002, 1.439597e+002
2.311039e+002, 1.437379e+002
2.315861e+002, 1.434707e+002
2.320682e+002, 1.431421e+002
2.325503e+002, 1.428824e+002
2.330324e+002, 1.427465e+002
2.335145e+002, 1.426410e+002
2.339966e+002, 1.424237e+002
2.344788e+002, 1.419668e+002
2.349609e+002, 1.416385e+002
2.354430e+002, 1.415747e+002
2.359251e+002, 1.418288e+002
2.364072e+002, 1.419499e+002
2.368893e+002, 1.417861e+002
2.373715e+002, 1.416119e+002
2.378536e+002, 1.418074e+002
2.383357e+002, 1.426578e+002
2.388178e+002, 1.433707e+002
2.392999e+002, 1.436781e+002
2.397820e+002, 1.434892e+002
2.402642e+002, 1.435674e+002
2.407463e+002, 1.440780e+002
2.412284e+002, 1.447102e+002
2.417105e+002, 1.450800e+002
2.421926e+002, 1.450730e+002
2.426747e+002, 1.450012e+002
2.431569e+002, 1.449011e+002
2.436390e+002, 1.447502e+002
2.441211e+002, 1.447713e+002
2.446032e+002, 1.451125e+002
2.450853e+002, 1.454937e+002
2.455674e+002, 1.455597e+002
2.460496e+002, 1.450877e+002
2.465317e+002, 1.447221e+002
2.470138e+002, 1.446730e+002
2.474959e+002, 1.449924e+002
2.479780e+002, 1.450280e+002
2.484601e+002, 1.446218e+002
2.489423e+002, 1.440959e+002
2.494244e+002, 1.437878e+002
2.499065e+002, 1.437023e+002
2.503886e+002, 1.438441e+002
2.508707e+002, 1.443334e+002
2.513528e+002, 1.451996e+002
2.518350e+002, 1.456637e+002
2.523171e+002, 1.455656e+002
2.527992e+002, 1.452365e+002
2.532813e+002, 1.449954e+002
2.537634e+002, 1.448492e+002
2.542455e+002, 1.447790e+002
2.547277e+002, 1.448144e+002
2.552098e+002, 1.449572e+002
2.556919e+002, 1.449754e+002
2.561740e+002, 1.448039e+002
2.566561e+002, 1.445842e+002
2.571382e+002, 1.444258e+002
2.576204e+002, 1.442672e+002
2.581025e+002, 1.443305e+002
2.585846e+002, 1.447769e+002
2.590667e+002, 1.455743e+002
2.595488e+002, 1.459175e+002
2.600309e+002, 1.455707e+002
2.605131e+002, 1.451077e+002
2.609952e+002, 1.451060e+002
2.614773e+002, 1.458418e+002
2.619594e+002, 1.462591e+002
2.624415e+002, 1.461043e+002
2.629236e+002, 1.454391e+002
2.634058e+002, 1.448823e+002
2.638879e+002, 1.444164e+002
2.643700e+002, 1.440821e+002
2.648521e+002, 1.439217e+002
2.653342e+002, 1.439795e+002
2.658163e+002, 1.440576e+002
2.662985e+002, 1.440862e+002
2.667806e+002, 1.441052e+002
2.672627e+002, 1.444249e+002
2.677448e+002, 1.452180e+002
2.682269e+002, 1.459416e+002
2.687090e+002, 1.461485e+002
2.691912e+002, 1.457108e+002
2.696733e+002, 1.452951e+002
2.701554e+002, 1.449594e+002
2.706375e+002, 1.447057e+002
2.711196e+002, 1.445400e+002
2.716017e+002, 1.444338e+002
2.720839e+002, 1.444893e+002
2.725660e+002, 1.448960e+002
2.730481e+002, 1.457690e+002
2.735302e+002, 1.462112e+002
2.740123e+002, 1.460036e+002
2.744944e+002, 1.454025e+002
2.749766e+002, 1.451691e+002
2.754587e+002, 1.453703e+002
2.759408e+002, 1.456829e+002
2.764229e+002, 1.459679e+002
2.769050e+002, 1.462423e+002
2.773871e+002, 1.462798e+002
2.778693e+002, 1.459805e+002
2.783514e+002, 1.455345e+002
2.788335e+002, 1.453991e+002
2.793156e+002, 1.456229e+002
2.797977e+002, 1.458644e+002
2.802798e+002, 1.458835e+002
2.807620e+002, 1.456773e+002
2.812441e+002, 1.457109e+002
2.817262e+002, 1.461005e+002
2.822083e+002, 1.465651e+002
2.826904e+002, 1.464311e+002
2.831725e+002, 1.456334e+002
2.836547e+002, 1.451508e+002
2.841368e+002, 1.457746e+002
2.846189e+002, 1.473594e+002
2.851010e+002, 1.481432e+002
2.855831e+002, 1.479596e+002
2.860652e+002, 1.473360e+002
2.865474e+002, 1.469877e+002
2.870295e+002, 1.469106e+002
2.875116e+002, 1.468951e+002
2.879937e+002, 1.468986e+002
2.884758e+002, 1.469023e+002
2.889579e+002, 1.467562e+002
2.894401e+002, 1.464284e+002
2.899222e+002, 1.461118e+002
2.904043e+002, 1.460924e+002
2.908864e+002, 1.463332e+002
2.913685e+002, 1.465320e+002
2.918506e+002, 1.465158e+002
2.923328e+002, 1.463792e+002
2.928149e+002, 1.464282e+002
2.932970e+002, 1.466750e+002
2.937791e+002, 1.469509e+002
2.942612e+002, 1.470784e+002
2.947433e+002, 1.470849e+002
2.952255e+002, 1.470701e+002
2.957076e+002, 1.470317e+002
2.961897e+002, 1.470119e+002
2.966718e+002, 1.471728e+002
2.971539e+002, 1.475067e+002
2.976360e+002, 1.477309e+002
2.981182e+002, 1.473790e+002
2.986003e+002, 1.467210e+002
2.990824e+002, 1.464714e+002
2.995645e+002, 1.470596e+002
3.000466e+002, 1.478880e+002
3.005287e+002, 1.480455e+002
3.010109e+002, 1.476097e+002
3.014930e+002, 1.471297e+002
3.019751e+002, 1.470621e+002
3.024572e+002, 1.472085e+002
3.029393e+002, 1.472208e+002
3.034214e+002, 1.469721e+002
3.039036e+002, 1.466664e+002
3.043857e+002, 1.464598e+002
3.048678e+002, 1.463651e+002
3.053499e+002, 1.464265e+002
3.058320e+002, 1.468628e+002
3.063141e+002, 1.473989e+002
3.067963e+002, 1.476329e+002
3.072784e+002, 1.473814e+002
3.077605e+002, 1.471805e+002
3.082426e+002, 1.476007e+002
3.087247e+002, 1.484258e+002
3.092068e+002, 1.491380e+002
3.096890e+002, 1.495645e+002
3.101711e+002, 1.497071e+002
3.106532e+002, 1.494402e+002
3.111353e+002, 1.486513e+002
3.116174e+002, 1.479809e+002
3.120995e+002, 1.479587e+002
3.125817e+002, 1.483125e+002
3.130638e+002, 1.486017e+002
3.135459e+002, 1.485409e+002
3.140280e+002, 1.484411e+002
3.145101e+002, 1.484755e+002
3.149922e+002, 1.486578e+002
3.154744e+002, 1.489552e+002
3.159565e+002, 1.496230e+002
3.164386e+002, 1.503127e+002
3.169207e+002, 1.506210e+002
3.174028e+002, 1.501707e+002
3.178849e+002, 1.495582e+002
3.183671e+002, 1.488644e+002
3.188492e+002, 1.481145e+002
3.193313e+002, 1.477430e+002
3.198134e+002, 1.482977e+002
3.202955e+002, 1.490803e+002
3.207776e+002, 1.495279e+002
3.212598e+002, 1.490374e+002
3.217419e+002, 1.487127e+002
3.222240e+002, 1.489601e+002
3.227061e+002, 1.496509e+002
3.231882e+002, 1.501130e+002
3.236703e+002, 1.499136e+002
3.241525e+002, 1.496576e+002
3.246346e+002, 1.496886e+002
3.251167e+002, 1.504339e+002
3.255988e+002, 1.509311e+002
3.260809e+002, 1.510178e+002
3.265630e+002, 1.507910e+002
3.270452e+002, 1.505140e+002
3.275273e+002, 1.497378e+002
3.280094e+002, 1.493215e+002
3.284915e+002, 1.496856e+002
3.289736e+002, 1.515063e+002
3.294557e+002, 1.525938e+002
3.299379e+002, 1.526564e+002
3.304200e+002, 1.520764e+002
3.309021e+002, 1.514375e+002
3.313842e+002, 1.504805e+002
3.318663e+002, 1.498011e+002
3.323484e+002, 1.496347e+002
3.328306e+002, 1.500851e+002
3.333127e+002, 1.503599e+002
3.337948e+002, 1.503337e+002
3.342769e+002, 1.502425e+002
3.347590e+002, 1.503787e+002
3.352411e+002, 1.509153e+002
3.357233e+002, 1.512861e+002
3.362054e+002, 1.512985e+002
3.366875e+002, 1.509890e+002
3.371696e+002, 1.509459e+002
3.376517e+002, 1.512425e+002
3.381339e+002, 1.516695e+002
3.386160e+002, 1.520878e+002
3.390981e+002, 1.525249e+002
3.395802e+002, 1.528307e+002
3.400623e+002, 1.529627e+002
3.405444e+002, 1.529554e+002
3.410266e+002, 1.529196e+002
3.415087e+002, 1.528570e+002
3.419908e+002, 1.527449e+002
3.424729e+002, 1.525428e+002
3.429550e+002, 1.522510e+002
3.434371e+002, 1.519768e+002
3.439193e+002, 1.517144e+002
3.444014e+002, 1.514995e+002
3.448835e+002, 1.514116e+002
3.453656e+002, 1.514502e+002
3.458477e+002, 1.515506e+002
3.463298e+002, 1.518449e+002
3.468120e+002, 1.522153e+002
3.472941e+002, 1.519657e+002
3.477762e+002, 1.509629e+002
3.482583e+002, 1.499796e+002
3.487404e+002, 1.500849e+002
3.492225e+002, 1.510590e+002
3.497047e+002, 1.519617e+002
3.501868e+002, 1.523108e+002
3.506689e+002, 1.524167e+002
3.511510e+002, 1.529951e+002
3.516331e+002, 1.540278e+002
3.521152e+002, 1.547937e+002
3.525974e+002, 1.544474e+002
3.530795e+002, 1.534379e+002
3.535616e+002, 1.525805e+002
3.540437e+002, 1.520520e+002
3.545258e+002, 1.518240e+002
3.550079e+002, 1.520538e+002
3.554901e+002, 1.526320e+002
3.559722e+002, 1.530719e+002
3.564543e+002, 1.529131e+002
3.569364e+002, 1.525412e+002
3.574185e+002, 1.523496e+002
3.579006e+002, 1.524391e+002
3.583828e+002, 1.526373e+002
3.588649e+002, 1.529994e+002
3.593470e+002, 1.533897e+002
3.598291e+002, 1.535382e+002
3.603112e+002, 1.530408e+002
3.607933e+002, 1.524803e+002
3.612755e+002, 1.522039e+002
3.617576e+002, 1.522705e+002
3.622397e+002, 1.524194e+002
3.627218e+002, 1.526106e+002
3.632039e+002, 1.528091e+002
3.636860e+002, 1.529760e+002
3.641682e+002, 1.530251e+002
3.646503e+002, 1.531157e+002
3.651324e+002, 1.533617e+002
3.656145e+002, 1.537535e+002
3.660966e+002, 1.539854e+002
3.665787e+002, 1.538405e+002
3.670609e+002, 1.536252e+002
3.675430e+002, 1.535363e+002
3.680251e+002, 1.538032e+002
3.685072e+002, 1.539456e+002
3.689893e+002, 1.538044e+002
3.694714e+002, 1.534964e+002
3.699536e+002, 1.534185e+002
3.704357e+002, 1.538379e+002
3.709178e+002, 1.542066e+002
3.713999e+002, 1.542781e+002
3.718820e+002, 1.538710e+002
3.723641e+002, 1.536414e+002
3.728463e+002, 1.536548e+002
3.733284e+002, 1.538039e+002
3.738105e+002, 1.539139e+002
3.742926e+002, 1.539296e+002
3.747747e+002, 1.540346e+002
3.752568e+002, 1.543242e+002
3.757390e+002, 1.548019e+002
3.762211e+002, 1.551488e+002
3.767032e+002, 1.553935e+002
3.771853e+002, 1.554496e+002
3.776674e+002, 1.551420e+002
3.781495e+002, 1.544085e+002
3.786317e+002, 1.538473e+002
3.791138e+002, 1.535603e+002
3.795959e+002, 1.535241e+002
3.800780e+002, 1.537474e+002
3.805601e+002, 1.542581e+002
3.810422e+002, 1.547180e+002
3.815244e+002, 1.548752e+002
3.820065e+002, 1.547739e+002
3.824886e+002, 1.545977e+002
3.829707e+002, 1.543144e+002
3.834528e+002, 1.541120e+002
3.839349e+002, 1.544755e+002
3.844171e+002, 1.552612e+002
3.848992e+002, 1.556893e+002
3.853813e+002, 1.548897e+002
3.858634e+002, 1.536431e+002
3.863455e+002, 1.534051e+002
3.868276e+002, 1.542526e+002
3.873098e+002, 1.552884e+002
3.877919e+002, 1.558819e+002
3.882740e+002, 1.561125e+002
3.887561e+002, 1.561084e+002
3.892382e+002, 1.556676e+002
3.897203e+002, 1.552482e+002
3.902025e+002, 1.553192e+002
3.906846e+002, 1.557858e+002
3.911667e+002, 1.562091e+002
3.916488e+002, 1.562884e+002
3.921309e+002, 1.562440e+002
3.926130e+002, 1.562647e+002
3.930952e+002, 1.564194e+002
3.935773e+002, 1.565713e+002
3.940594e+002, 1.567530e+002
3.945415e+002, 1.568851e+002
3.950236e+002, 1.568198e+002
3.955057e+002, 1.562220e+002
3.959879e+002, 1.556765e+002
3.964700e+002, 1.554144e+002
3.969521e+002, 1.554751e+002
3.974342e+002, 1.556835e+002
3.979163e+002, 1.561706e+002
3.983984e+002, 1.567195e+002
3.988806e+002, 1.571325e+002
3.993627e+002, 1.574099e+002
3.998448e+002, 1.575303e+002
4.003269e+002, 1.573876e+002
4.008090e+002, 1.570346e+002
4.012911e+002, 1.568800e+002
4.017733e+002, 1.570130e+002
4.022554e+002, 1.572351e+002
4.027375e+002, 1.574499e+002
4.032196e+002, 1.576570e+002
4.037017e+002, 1.578728e+002
4.041838e+002, 1.581516e+002
4.046660e+002, 1.583965e+002
4.051481e+002, 1.583421e+002
4.056302e+002, 1.578533e+002
4.061123e+002, 1.575694e+002
4.065944e+002, 1.578084e+002
4.070765e+002, 1.585379e+002
4.075587e+002, 1.590393e+002
4.080408e+002, 1.593095e+002
4.085229e+002, 1.593759e+002
4.090050e+002, 1.591414e+002
4.094871e+002, 1.586384e+002
4.099692e+002, 1.583403e+002
4.104514e+002, 1.583700e+002
4.109335e+002, 1.586331e+002
4.114156e+002, 1.590347e+002
4.118977e+002, 1.595510e+002
4.123798e+002, 1.599525e+002
4.128619e+002, 1.600021e+002
4.133441e+002, 1.598413e+002
4.138262e+002, 1.597840e+002
4.143083e+002, 1.599037e+002
4.147904e+002, 1.599362e+002
4.152725e+002, 1.594232e+002
4.157546e+002, 1.586385e+002
4.162368e+002, 1.581365e+002
4.167189e+002, 1.584146e+002
4.172010e+002, 1.589046e+002
4.176831e+002, 1.592579e+002
4.181652e+002, 1.594537e+002
4.186473e+002, 1.593868e+002
4.191295e+002, 1.586102e+002
4.196116e+002, 1.577385e+002
4.200937e+002, 1.573437e+002
4.205758e+002, 1.578329e+002
4.210579e+002, 1.584138e+002
4.215400e+002, 1.589272e+002
4.220222e+002, 1.593478e+002
4.225043e+002, 1.596281e+002
4.229864e+002, 1.597498e+002
4.234685e+002, 1.597348e+002
4.239506e+002, 1.595484e+002
4.244327e+002, 1.591008e+002
4.249149e+002, 1.587897e+002
4.253970e+002, 1.585461e+002
4.258791e+002, 1.584878e+002
4.263612e+002, 1.587752e+002
4.268433e+002, 1.598568e+002
4.273254e+002, 1.605359e+002
4.278076e+002, 1.604000e+002
4.282897e+002, 1.596303e+002
4.287718e+002, 1.596515e+002
4.292539e+002, 1.608946e+002
4.297360e+002, 1.620453e+002
4.302181e+002, 1.621607e+002
4.307003e+002, 1.610213e+002
4.311824e+002, 1.603230e+002
4.316645e+002, 1.602208e+002
4.321466e+002, 1.604370e+002
4.326287e+002, 1.605300e+002
4.331108e+002, 1.604978e+002
4.335930e+002, 1.604688e+002
4.340751e+002, 1.604784e+002
4.345572e+002, 1.605334e+002
4.350393e+002, 1.606607e+002
4.355214e+002, 1.608618e+002
4.360035e+002, 1.611043e+002
4.364857e+002, 1.614518e+002
4.369678e+002, 1.618147e+002
4.374499e+002, 1.619570e+002
4.379320e+002, 1.617564e+002
4.384141e+002, 1.614594e+002
4.388962e+002, 1.613306e+002
4.393784e+002, 1.613257e+002
4.398605e+002, 1.613169e+002
4.403426e+002, 1.611458e+002
4.408247e+002, 1.609958e+002
4.413068e+002, 1.610843e+002
4.417889e+002, 1.614548e+002
4.422711e+002, 1.617164e+002
4.427532e+002, 1.616244e+002
4.432353e+002, 1.613400e+002
4.437174e+002, 1.610305e+002
4.441995e+002, 1.605527e+002
4.446816e+002, 1.602552e+002
4.451638e+002, 1.603386e+002
4.456459e+002, 1.607168e+002
4.461280e+002, 1.609966e+002
4.466101e+002, 1.610625e+002
4.470922e+002, 1.610668e+002
4.475743e+002, 1.610768e+002
4.480565e+002, 1.611214e+002
4.485386e+002, 1.611001e+002
4.490207e+002, 1.609749e+002
4.495028e+002, 1.608081e+002
4.499849e+002, 1.606928e+002
4.504670e+002, 1.606853e+002
4.509492e+002, 1.605858e+002
4.514313e+002, 1.602564e+002
4.519134e+002, 1.597748e+002
4.523955e+002, 1.597956e+002
4.528776e+002, 1.604522e+002
4.533597e+002, 1.611530e+002
4.538419e+002, 1.615276e+002
4.543240e+002, 1.615771e+002
4.548061e+002, 1.613452e+002
4.552882e+002, 1.607484e+002
4.557703e+002, 1.601054e+002
4.562524e+002, 1.599253e+002
4.567346e+002, 1.601611e+002
4.572167e+002, 1.605165e+002
4.576988e+002, 1.610688e+002
4.581809e+002, 1.615726e+002
4.586630e+002, 1.614660e+002
4.591451e+002, 1.607878e+002
4.596273e+002, 1.601649e+002
4.601094e+002, 1.601339e+002
4.605915e+002, 1.604250e+002
4.610736e+002, 1.606864e+002
4.615557e+002, 1.608100e+002
4.620378e+002, 1.609652e+002
4.625200e+002, 1.613336e+002
4.630021e+002, 1.618112e+002
4.634842e+002, 1.621868e+002
4.639663e+002, 1.624176e+002
4.644484e+002, 1.625000e+002
4.649305e+002, 1.623849e+002
4.654127e+002, 1.620627e+002
4.658948e+002, 1.617558e+002
4.663769e+002, 1.613380e+002
4.668590e+002, 1.610579e+002
4.673411e+002, 1.611001e+002
4.678232e+002, 1.620269e+002
4.683054e+002, 1.625424e+002
4.687875e+002, 1.624043e+002
4.692696e+002, 1.618619e+002
4.697517e+002, 1.615290e+002
4.702338e+002, 1.615000e+002
4.707159e+002, 1.615041e+002
4.711981e+002, 1.614142e+002
4.716802e+002, 1.612186e+002
4.721623e+002, 1.612816e+002
4.726444e+002, 1.616989e+002
4.731265e+002, 1.621108e+002
4.736086e+002, 1.621272e+002
4.740908e+002, 1.617534e+002
4.745729e+002, 1.613059e+002
4.750550e+002, 1.607621e+002
4.755371e+002, 1.602942e+002
4.760192e+002, 1.603609e+002
4.765013e+002, 1.608882e+002
4.769835e+002, 1.613017e+002
4.774656e+002, 1.611170e+002
4.779477e+002, 1.606746e+002
4.784298e+002, 1.605234e+002
4.789119e+002, 1.606905e+002
4.793940e+002, 1.610029e+002
4.798762e+002, 1.616455e+002
4.803583e+002, 1.622495e+002
4.808404e+002, 1.622928e+002
4.813225e+002, 1.611644e+002
4.818046e+002, 1.600796e+002
4.822867e+002, 1.597222e+002
4.827689e+002, 1.598986e+002
4.832510e+002, 1.601073e+002
4.837331e+002, 1.602781e+002
4.842152e+002, 1.603722e+002
4.846973e+002, 1.603086e+002
4.851794e+002, 1.600054e+002
4.856616e+002, 1.599515e+002
4.861437e+002, 1.606311e+002
4.866258e+002, 1.613066e+002
4.871079e+002, 1.613731e+002
4.875900e+002, 1.602670e+002
4.880721e+002, 1.595539e+002
4.885543e+002, 1.595090e+002
4.890364e+002, 1.598983e+002
4.895185e+002, 1.600332e+002
4.900006e+002, 1.598181e+002
4.904827e+002, 1.596396e+002
4.909648e+002, 1.596951e+002
4.914470e+002, 1.599687e+002
4.919291e+002, 1.601550e+002
4.924112e+002, 1.602436e+002
4.928933e+002, 1.602914e+002
4.933754e+002, 1.603875e+002
4.938575e+002, 1.605048e+002
4.943397e+002, 1.604855e+002
4.948218e+002, 1.602271e+002
4.953039e+002, 1.599550e+002
4.957860e+002, 1.600533e+002
4.962681e+002, 1.604229e+002
4.967502e+002, 1.607209e+002
4.972324e+002, 1.606820e+002
4.977145e+002, 1.605410e+002
4.981966e+002, 1.605226e+002
4.986787e+002, 1.606384e+002
4.991608e+002, 1.607543e+002
4.996429e+002, 1.607496e+002
5.001251e+002, 1.607359e+002
5.006072e+002, 1.608237e+002
5.010893e+002, 1.612525e+002
5.015714e+002, 1.614782e+002
5.020535e+002, 1.612768e+002
5.025356e+002, 1.607930e+002
5.030178e+002, 1.603577e+002
5.034999e+002, 1.597517e+002
5.039820e+002, 1.594677e+002
5.044641e+002, 1.597776e+002
5.049462e+002, 1.607215e+002
5.054283e+002, 1.612093e+002
5.059105e+002, 1.610169e+002
5.063926e+002, 1.607162e+002
5.068747e+002, 1.607815e+002
5.073568e+002, 1.612908e+002
5.078389e+002, 1.616460e+002
5.083210e+002, 1.617856e+002
5.088032e+002, 1.617554e+002
5.092853e+002, 1.616133e+002
5.097674e+002, 1.613605e+002
5.102495e+002, 1.610204e+002
5.107316e+002, 1.604670e+002
5.112137e+002, 1.598848e+002
5.116959e+002, 1.596893e+002
5.121780e+002, 1.598643e+002
5.126601e+002, 1.601989e+002
5.131422e+002, 1.607677e+002
5.136243e+002, 1.613130e+002
5.141064e+002, 1.614069e+002
5.145886e+002, 1.608166e+002
5.150707e+002, 1.603603e+002
5.155528e+002, 1.608527e+002
5.160349e+002, 1.617244e+002
5.165170e+002, 1.621589e+002
5.169991e+002, 1.613525e+002
5.174813e+002, 1.606263e+002
5.179634e+002, 1.604874e+002
5.184455e+002, 1.608714e+002
5.189276e+002, 1.611662e+002
5.194097e+002, 1.612883e+002
5.198918e+002, 1.613164e+002
5.203740e+002, 1.612478e+002
5.208561e+002, 1.609969e+002
5.213382e+002, 1.609332e+002
5.218203e+002, 1.611161e+002
5.223024e+002, 1.614124e+002
5.227845e+002, 1.617095e+002
5.232667e+002, 1.620329e+002
5.237488e+002, 1.621808e+002
5.242309e+002, 1.620582e+002
5.247130e+002, 1.617821e+002
5.251951e+002, 1.616349e+002
5.256772e+002, 1.616152e+002
5.261594e+002, 1.616576e+002
5.266415e+002, 1.617481e+002
5.271236e+002, 1.618721e+002
5.276057e+002, 1.620333e+002
5.280878e+002, 1.622351e+002
5.285699e+002, 1.623430e+002
5.290521e+002, 1.622082e+002
5.295342e+002, 1.619270e+002
5.300163e+002, 1.615961e+002
5.304984e+002, 1.611316e+002
5.309805e+002, 1.608329e+002
5.314626e+002, 1.610152e+002
5.319448e+002, 1.614694e+002
5.324269e+002, 1.617891e+002
5.329090e+002, 1.616195e+002
5.333911e+002, 1.615266e+002
5.338732e+002, 1.617713e+002
5.343553e+002, 1.623728e+002
5.348375e+002, 1.628035e+002
5.353196e+002, 1.630690e+002
5.358017e+002, 1.631345e+002
5.362838e+002, 1.629106e+002
5.367659e+002, 1.621322e+002
5.372480e+002, 1.618495e+002
5.377302e+002, 1.622575e+002
5.382123e+002, 1.629030e+002
5.386944e+002, 1.630581e+002
5.391765e+002, 1.626824e+002
5.396586e+002, 1.624435e+002
5.401407e+002, 1.626084e+002
5.406229e+002, 1.629549e+002
5.411050e+002, 1.628920e+002
5.415871e+002, 1.624617e+002
5.420692e+002, 1.620653e+002
5.425513e+002, 1.619492e+002
5.430334e+002, 1.620302e+002
5.435156e+002, 1.622359e+002
5.439977e+002, 1.625699e+002
5.444798e+002, 1.628386e+002
5.449619e+002, 1.628819e+002
5.454440e+002, 1.627934e+002
5.459261e+002, 1.626685e+002
5.464083e+002, 1.624792e+002
5.468904e+002, 1.623283e+002
5.473725e+002, 1.622149e+002
5.478546e+002, 1.621629e+002
5.483367e+002, 1.622233e+002
5.488188e+002, 1.625170e+002
5.493010e+002, 1.627986e+002
5.497831e+002, 1.630060e+002
5.502652e+002, 1.631389e+002
5.507473e+002, 1.632763e+002
5.512294e+002, 1.634757e+002
5.517115e+002, 1.635825e+002
5.521937e+002, 1.634755e+002
5.526758e+002, 1.631318e+002
5.531579e+002, 1.628034e+002
5.536400e+002, 1.624935e+002
5.541221e+002, 1.622295e+002
5.546042e+002, 1.620091e+002
5.550864e+002, 1.618507e+002
5.555685e+002, 1.618913e+002
5.560506e+002, 1.622837e+002
5.565327e+002, 1.627477e+002
5.570148e+002, 1.628051e+002
5.574969e+002, 1.625612e+002
5.579791e+002, 1.624149e+002
5.584612e+002, 1.627189e+002
5.589433e+002, 1.631264e+002
5.594254e+002, 1.633544e+002
5.599075e+002, 1.633816e+002
5.603896e+002, 1.633574e+002
5.608718e+002, 1.634230e+002
5.613539e+002, 1.634115e+002
5.618360e+002, 1.631763e+002
5.623181e+002, 1.622308e+002
5.628002e+002, 1.617863e+002
5.632823e+002, 1.621964e+002
5.637645e+002, 1.630098e+002
5.642466e+002, 1.635657e+002
5.647287e+002, 1.638504e+002
5.652108e+002, 1.638828e+002
5.656929e+002, 1.635492e+002
5.661750e+002, 1.629824e+002
5.666572e+002, 1.628248e+002
5.671393e+002, 1.631296e+002
5.676214e+002, 1.634589e+002
5.681035e+002, 1.635124e+002
5.685856e+002, 1.633689e+002
5.690677e+002, 1.633334e+002
5.695499e+002, 1.634165e+002
5.700320e+002, 1.635758e+002
5.705141e+002, 1.638694e+002
5.709962e+002, 1.641870e+002
5.714783e+002, 1.643320e+002
5.719604e+002, 1.641860e+002
5.724426e+002, 1.640070e+002
5.729247e+002, 1.639716e+002
5.734068e+002, 1.640173e+002
5.738889e+002, 1.640313e+002
5.743710e+002, 1.638450e+002
5.748531e+002, 1.637576e+002
5.753353e+002, 1.639836e+002
5.758174e+002, 1.644860e+002
5.762995e+002, 1.647082e+002
5.767816e+002, 1.644703e+002
5.772637e+002, 1.641486e+002
5.777458e+002, 1.638728e+002
5.782280e+002, 1.636212e+002
5.787101e+002, 1.635544e+002
5.791922e+002, 1.637050e+002
5.796743e+002, 1.639677e+002
5.801564e+002, 1.642280e+002
5.806385e+002, 1.644886e+002
5.811207e+002, 1.648967e+002
5.816028e+002, 1.655844e+002
5.820849e+002, 1.661783e+002
5.825670e+002, 1.660016e+002
5.830491e+002, 1.652349e+002
5.835313e+002, 1.644515e+002
5.840134e+002, 1.637456e+002
5.844955e+002, 1.632780e+002
5.849776e+002, 1.632558e+002
5.854597e+002, 1.636328e+002
5.859418e+002, 1.641482e+002
5.864240e+002, 1.649883e+002
5.869061e+002, 1.656898e+002
5.873882e+002, 1.659319e+002
5.878703e+002, 1.655354e+002
5.883524e+002, 1.652350e+002
5.888345e+002, 1.651831e+002
5.893167e+002, 1.652169e+002
5.897988e+002, 1.652117e+002
5.902809e+002, 1.651348e+002
5.907630e+002, 1.650938e+002
5.912451e+002, 1.651026e+002
5.917272e+002, 1.651446e+002
5.922094e+002, 1.652263e+002
5.926915e+002, 1.653584e+002
5.931736e+002, 1.653567e+002
5.936557e+002, 1.651284e+002
5.941378e+002, 1.647471e+002
5.946199e+002, 1.642117e+002
5.951021e+002, 1.635874e+002
5.955842e+002, 1.633663e+002
5.960663e+002, 1.644290e+002
5.965484e+002, 1.657780e+002
5.970305e+002, 1.660895e+002
5.975126e+002, 1.652211e+002
5.979948e+002, 1.644792e+002
5.984769e+002, 1.648812e+002
5.989590e+002, 1.655758e+002
5.994411e+002, 1.658037e+002
5.999232e+002, 1.649351e+002
6.004053e+002, 1.643963e+002
6.008875e+002, 1.647215e+002
6.013696e+002, 1.653819e+002
6.018517e+002, 1.656147e+002
6.023338e+002, 1.650842e+002
6.028159e+002, 1.648014e+002
6.032980e+002, 1.650401e+002
6.037802e+002, 1.656304e+002
6.042623e+002, 1.660127e+002
6.047444e+002, 1.661898e+002
6.052265e+002, 1.661030e+002
6.057086e+002, 1.654630e+002
6.061907e+002, 1.645283e+002
6.066729e+002, 1.642799e+002
6.071550e+002, 1.647046e+002
6.076371e+002, 1.652442e+002
6.081192e+002, 1.655224e+002
6.086013e+002, 1.656161e+002
6.090834e+002, 1.655776e+002
6.095656e+002, 1.653676e+002
6.100477e+002, 1.652392e+002
6.105298e+002, 1.655615e+002
6.110119e+002, 1.659485e+002
6.114940e+002, 1.659694e+002
6.119761e+002, 1.649003e+002
6.124583e+002, 1.642124e+002
6.129404e+002, 1.643493e+002
6.134225e+002, 1.649770e+002
6.139046e+002, 1.653652e+002
6.143867e+002, 1.653866e+002
6.148688e+002, 1.654266e+002
6.153510e+002, 1.656000e+002
6.158331e+002, 1.658849e+002
6.163152e+002, 1.661961e+002
6.167973e+002, 1.665475e+002
6.172794e+002, 1.667541e+002
6.177615e+002, 1.665356e+002
6.182437e+002, 1.660765e+002
6.187258e+002, 1.659592e+002
6.192079e+002, 1.662227e+002
6.196900e+002, 1.664703e+002
6.201721e+002, 1.662126e+002
6.206542e+002, 1.657999e+002
6.211364e+002, 1.657079e+002
6.216185e+002, 1.662069e+002
6.221006e+002, 1.666703e+002
6.225827e+002, 1.668382e+002
6.230648e+002, 1.668072e+002
6.235469e+002, 1.667116e+002
6.240291e+002, 1.662926e+002
6.245112e+002, 1.661790e+002
6.249933e+002, 1.667236e+002
6.254754e+002, 1.676277e+002
6.259575e+002, 1.677739e+002
6.264396e+002, 1.668641e+002
6.269218e+002, 1.660865e+002
6.274039e+002, 1.659516e+002
6.278860e+002, 1.663452e+002
6.283681e+002, 1.666020e+002
6.288502e+002, 1.667204e+002
6.293323e+002, 1.667340e+002
6.298145e+002, 1.664920e+002
6.302966e+002, 1.662056e+002
6.307787e+002, 1.663939e+002
6.312608e+002, 1.671470e+002
6.317429e+002, 1.677906e+002
6.322250e+002, 1.676502e+002
6.327072e+002, 1.672100e+002
6.331893e+002, 1.669979e+002
6.336714e+002, 1.672726e+002
6.341535e+002, 1.675625e+002
6.346356e+002, 1.677591e+002
6.351177e+002, 1.678910e+002
6.355999e+002, 1.679993e+002
6.360820e+002, 1.679628e+002
6.365641e+002, 1.681284e+002
6.370462e+002, 1.687310e+002
6.375283e+002, 1.695257e+002
6.380104e+002, 1.695724e+002
6.384926e+002, 1.687298e+002
6.389747e+002, 1.680471e+002
6.394568e+002, 1.680190e+002
6.399389e+002, 1.685081e+002
6.404210e+002, 1.692383e+002
6.409031e+002, 1.701856e+002
6.413853e+002, 1.707946e+002
6.418674e+002, 1.703102e+002
6.423495e+002, 1.694408e+002
6.428316e+002, 1.691341e+002
6.433137e+002, 1.695589e+002
6.437958e+002, 1.698159e+002
6.442780e+002, 1.691866e+002
6.447601e+002, 1.683328e+002
6.452422e+002, 1.678455e+002
6.457243e+002, 1.681568e+002
6.462064e+002, 1.683178e+002
6.466885e+002, 1.681884e+002
6.471707e+002, 1.679364e+002
6.476528e+002, 1.677477e+002
6.481349e+002, 1.675524e+002
6.486170e+002, 1.676862e+002
6.490991e+002, 1.683752e+002
6.495812e+002, 1.692611e+002
6.500634e+002, 1.694288e+002
6.505455e+002, 1.689267e+002
6.510276e+002, 1.684352e+002
6.515097e+002, 1.682041e+002
6.519918e+002, 1.682085e+002
6.524739e+002, 1.684869e+002
6.529561e+002, 1.689939e+002
6.534382e+002, 1.695105e+002
6.539203e+002, 1.699892e+002
6.544024e+002, 1.703648e+002
6.548845e+002, 1.706347e+002
6.553666e+002, 1.708088e+002
6.558488e+002, 1.707078e+002
6.563309e+002, 1.699716e+002
6.568130e+002, 1.691918e+002
6.572951e+002, 1.687132e+002
6.577772e+002, 1.685761e+002
6.582593e+002, 1.686684e+002
6.587415e+002, 1.690932e+002
6.592236e+002, 1.695821e+002
6.597057e+002, 1.698086e+002
6.601878e+002, 1.697778e+002
6.606699e+002, 1.697642e+002
6.611520e+002, 1.698458e+002
6.616342e+002, 1.698876e+002
6.621163e+002, 1.695851e+002
6.625984e+002, 1.690824e+002
6.630805e+002, 1.687681e+002
6.635626e+002, 1.690408e+002
6.640447e+002, 1.693054e+002
6.645269e+002, 1.689644e+002
6.650090e+002, 1.682593e+002
6.654911e+002, 1.678884e+002
6.659732e+002, 1.684124e+002
6.664553e+002, 1.689684e+002
6.669374e+002, 1.692428e+002
6.674196e+002, 1.692541e+002
6.679017e+002, 1.692431e+002
6.683838e+002, 1.691448e+002
6.688659e+002, 1.691555e+002
6.693480e+002, 1.694781e+002
6.698301e+002, 1.701043e+002
6.703123e+002, 1.702564e+002
6.707944e+002, 1.698805e+002
6.712765e+002, 1.694434e+002
6.717586e+002, 1.692224e+002
6.722407e+002, 1.692639e+002
6.727228e+002, 1.698548e+002
6.732050e+002, 1.711686e+002
6.736871e+002, 1.721570e+002
6.741692e+002, 1.715795e+002
6.746513e+002, 1.704319e+002
6.751334e+002, 1.699177e+002
6.756155e+002, 1.710715e+002
6.760977e+002, 1.717598e+002
6.765798e+002, 1.709392e+002
6.770619e+002, 1.695559e+002
6.775440e+002, 1.690627e+002
6.780261e+002, 1.699827e+002
6.785082e+002, 1.706983e+002
6.789904e+002, 1.709171e+002
6.794725e+002, 1.707806e+002
6.799546e+002, 1.705854e+002
6.804367e+002, 1.703347e+002
6.809188e+002, 1.702234e+002
6.814009e+002, 1.704676e+002
6.818831e+002, 1.708202e+002
6.823652e+002, 1.707691e+002
6.828473e+002, 1.703833e+002
6.833294e+002, 1.700028e+002
6.838115e+002, 1.697830e+002
6.842936e+002, 1.696746e+002
6.847758e+002, 1.696531e+002
6.852579e+002, 1.697157e+002
6.857400e+002, 1.698111e+002
6.862221e+002, 1.698968e+002
6.867042e+002, 1.700371e+002
6.871863e+002, 1.702895e+002
6.876685e+002, 1.707105e+002
6.881506e+002, 1.709761e+002
6.886327e+002, 1.710431e+002
6.891148e+002, 1.710462e+002
6.895969e+002, 1.710864e+002
6.900790e+002, 1.711630e+002
6.905612e+002, 1.713044e+002
6.910433e+002, 1.715240e+002
6.915254e+002, 1.717379e+002
6.920075e+002, 1.719041e+002
6.924896e+002, 1.719796e+002
6.929717e+002, 1.718340e+002
6.934539e+002, 1.712160e+002
6.939360e+002, 1.708019e+002
6.944181e+002, 1.713340e+002
6.949002e+002, 1.722372e+002
6.953823e+002, 1.726197e+002
6.958644e+002, 1.714714e+002
6.963466e+002, 1.708091e+002
6.968287e+002, 1.711468e+002
6.973108e+002, 1.720957e+002
6.977929e+002, 1.726809e+002
6.982750e+002, 1.729109e+002
6.987571e+002, 1.727114e+002
6.992393e+002, 1.717981e+002
6.997214e+002, 1.705905e+002
7.002035e+002, 1.705645e+002
7.006856e+002, 1.715911e+002
7.011677e+002, 1.725549e+002
7.016498e+002, 1.726823e+002
7.021320e+002, 1.724709e+002
7.026141e+002, 1.724953e+002
7.030962e+002, 1.727356e+002
7.035783e+002, 1.728854e+002
7.040604e+002, 1.727716e+002
7.045425e+002, 1.725459e+002
7.050247e+002, 1.722022e+002
7.055068e+002, 1.716495e+002
7.059889e+002, 1.715649e+002
7.064710e+002, 1.723063e+002
7.069531e+002, 1.730500e+002
7.074352e+002, 1.732140e+002
7.079174e+002, 1.727381e+002
7.083995e+002, 1.723464e+002
7.088816e+002, 1.720358e+002
7.093637e+002, 1.718889e+002
7.098458e+002, 1.721041e+002
7.103279e+002, 1.725434e+002
7.108101e+002, 1.728961e+002
7.112922e+002, 1.731321e+002
7.117743e+002, 1.731665e+002
7.122564e+002, 1.726847e+002
7.127385e+002, 1.720708e+002
7.132206e+002, 1.717942e+002
7.137028e+002, 1.723606e+002
7.141849e+002, 1.727489e+002
7.146670e+002, 1.726034e+002
7.151491e+002, 1.722455e+002
7.156312e+002, 1.720877e+002
7.161133e+002, 1.721477e+002
7.165955e+002, 1.723991e+002
7.170776e+002, 1.729437e+002
7.175597e+002, 1.735463e+002
7.180418e+002, 1.735445e+002
7.185239e+002, 1.730165e+002
7.190060e+002, 1.727634e+002
7.194882e+002, 1.732856e+002
7.199703e+002, 1.740291e+002
7.204524e+002, 1.743089e+002
7.209345e+002, 1.742366e+002
7.214166e+002, 1.741552e+002
7.218987e+002, 1.742991e+002
7.223809e+002, 1.743962e+002
7.228630e+002, 1.742385e+002
7.233451e+002, 1.738703e+002
7.238272e+002, 1.737030e+002
7.243093e+002, 1.738787e+002
7.247914e+002, 1.740706e+002
7.252736e+002, 1.741495e+002
7.257557e+002, 1.741319e+002
7.262378e+002, 1.742397e+002
7.267199e+002, 1.744985e+002
7.272020e+002, 1.746962e+002
7.276841e+002, 1.746500e+002
7.281663e+002, 1.744567e+002
7.286484e+002, 1.742983e+002
7.291305e+002, 1.741854e+002
7.296126e+002, 1.741624e+002
7.300947e+002, 1.743105e+002
7.305768e+002, 1.745258e+002
7.310590e+002, 1.747648e+002
7.315411e+002, 1.750596e+002
7.320232e+002, 1.751629e+002
7.325053e+002, 1.747342e+002
7.329874e+002, 1.743376e+002
7.334695e+002, 1.743537e+002
7.339517e+002, 1.749607e+002
7.344338e+002, 1.753306e+002
7.349159e+002, 1.754179e+002
7.353980e+002, 1.753989e+002
7.358801e+002, 1.755123e+002
7.363622e+002, 1.756930e+002
7.368444e+002, 1.755964e+002
7.373265e+002, 1.751031e+002
7.378086e+002, 1.746812e+002
7.382907e+002, 1.749408e+002
7.387728e+002, 1.754796e+002
7.392549e+002, 1.757513e+002
7.397371e+002, 1.753732e+002
7.402192e+002, 1.751323e+002
7.407013e+002, 1.754226e+002
7.411834e+002, 1.758990e+002
7.416655e+002, 1.760937e+002
7.421476e+002, 1.758721e+002
7.426298e+002, 1.756844e+002
7.431119e+002, 1.755925e+002
7.435940e+002, 1.755394e+002
7.440761e+002, 1.753249e+002
7.445582e+002, 1.749900e+002
7.450403e+002, 1.749896e+002
7.455225e+002, 1.755680e+002
7.460046e+002, 1.763483e+002
7.464867e+002, 1.769937e+002
7.469688e+002, 1.774780e+002
7.474509e+002, 1.777402e+002
7.479330e+002, 1.776072e+002
7.484152e+002, 1.774024e+002
7.488973e+002, 1.772563e+002
7.493794e+002, 1.771375e+002
7.498615e+002, 1.769346e+002
7.503436e+002, 1.765396e+002
7.508257e+002, 1.762598e+002
7.513079e+002, 1.762095e+002
7.517900e+002, 1.763206e+002
7.522721e+002, 1.763873e+002
7.527542e+002, 1.764126e+002
7.532363e+002, 1.762847e+002
7.537184e+002, 1.757142e+002
7.542006e+002, 1.751147e+002
7.546827e+002, 1.752823e+002
7.551648e+002, 1.760491e+002
7.556469e+002, 1.767060e+002
7.561290e+002, 1.769984e+002
7.566111e+002, 1.769887e+002
7.570933e+002, 1.764820e+002
7.575754e+002, 1.755426e+002
7.580575e+002, 1.751419e+002
7.585396e+002, 1.755047e+002
7.590217e+002, 1.761448e+002
7.595038e+002, 1.770474e+002
7.599860e+002, 1.781341e+002
7.604681e+002, 1.784626e+002
7.609502e+002, 1.779707e+002
7.614323e+002, 1.774218e+002
7.619144e+002, 1.773464e+002
7.623965e+002, 1.775477e+002
7.628787e+002, 1.777892e+002
7.633608e+002, 1.780314e+002
7.638429e+002, 1.779672e+002
7.643250e+002, 1.768094e+002
7.648071e+002, 1.757424e+002
7.652892e+002, 1.757506e+002
7.657714e+002, 1.770951e+002
7.662535e+002, 1.779880e+002
7.667356e+002, 1.781836e+002
7.672177e+002, 1.781069e+002
7.676998e+002, 1.779382e+002
7.681819e+002, 1.776665e+002
7.686641e+002, 1.774673e+002
7.691462e+002, 1.773338e+002
7.696283e+002, 1.773446e+002
7.701104e+002, 1.777431e+002
7.705925e+002, 1.782834e+002
7.710746e+002, 1.784040e+002
7.715568e+002, 1.780343e+002
7.720389e+002, 1.777576e+002
7.725210e+002, 1.780661e+002
7.730031e+002, 1.785252e+002
7.734852e+002, 1.788068e+002
7.739673e+002, 1.788396e+002
7.744495e+002, 1.787539e+002
7.749316e+002, 1.784371e+002
7.754137e+002, 1.781466e+002
7.758958e+002, 1.780771e+002
7.763779e+002, 1.782398e+002
7.768600e+002, 1.785462e+002
7.773422e+002, 1.790394e+002
7.778243e+002, 1.794027e+002
7.783064e+002, 1.791990e+002
7.787885e+002, 1.786707e+002
7.792706e+002, 1.782086e+002
7.797527e+002, 1.778439e+002
7.802349e+002, 1.777872e+002
7.807170e+002, 1.785960e+002
7.811991e+002, 1.795207e+002
7.816812e+002, 1.798743e+002
7.821633e+002, 1.791572e+002
7.826454e+002, 1.786193e+002
7.831276e+002, 1.782471e+002
7.836097e+002, 1.780721e+002
7.840918e+002, 1.781987e+002
7.845739e+002, 1.786330e+002
7.850560e+002, 1.789509e+002
7.855381e+002, 1.791087e+002
7.860203e+002, 1.791478e+002
7.865024e+002, 1.790406e+002
7.869845e+002, 1.788648e+002
7.874666e+002, 1.787279e+002
7.879487e+002, 1.786096e+002
7.884308e+002, 1.786766e+002
7.889130e+002, 1.791847e+002
7.893951e+002, 1.798244e+002
7.898772e+002, 1.802891e+002
7.903593e+002, 1.806208e+002
7.908414e+002, 1.805886e+002
7.913235e+002, 1.799231e+002
7.918057e+002, 1.792632e+002
7.922878e+002, 1.795672e+002
7.927699e+002, 1.807538e+002
7.932520e+002, 1.814576e+002
7.937341e+002, 1.814313e+002
7.942162e+002, 1.811475e+002
7.946984e+002, 1.810308e+002
7.951805e+002, 1.810275e+002
7.956626e+002, 1.810668e+002
7.961447e+002, 1.811758e+002
7.966268e+002, 1.812238e+002
7.971089e+002, 1.810798e+002
7.975911e+002, 1.808983e+002
7.980732e+002, 1.808502e+002
7.985553e+002, 1.809752e+002
7.990374e+002, 1.811768e+002
7.995195e+002, 1.815219e+002
8.000016e+002, 1.818158e+002
8.004838e+002, 1.816889e+002
8.009659e+002, 1.812460e+002
8.014480e+002, 1.811140e+002
8.019301e+002, 1.814575e+002
8.024122e+002, 1.819282e+002
8.028943e+002, 1.822724e+002
8.033765e+002, 1.825038e+002
8.038586e+002, 1.826406e+002
8.043407e+002, 1.826511e+002
8.048228e+002, 1.826308e+002
8.053049e+002, 1.824226e+002
8.057870e+002, 1.822981e+002
8.062692e+002, 1.825773e+002
8.067513e+002, 1.833974e+002
8.072334e+002, 1.841176e+002
8.077155e+002, 1.847359e+002
8.081976e+002, 1.850667e+002
8.086797e+002, 1.846001e+002
8.091619e+002, 1.836418e+002
8.096440e+002, 1.831247e+002
8.101261e+002, 1.833263e+002
8.106082e+002, 1.836811e+002
8.110903e+002, 1.838814e+002
8.115724e+002, 1.839561e+002
8.120546e+002, 1.839284e+002
8.125367e+002, 1.836716e+002
8.130188e+002, 1.835368e+002
8.135009e+002, 1.835608e+002
8.139830e+002, 1.836951e+002
8.144651e+002, 1.839263e+002
8.149473e+002, 1.842710e+002
8.154294e+002, 1.845023e+002
8.159115e+002, 1.845984e+002
8.163936e+002, 1.845908e+002
8.168757e+002, 1.844803e+002
8.173578e+002, 1.843013e+002
8.178400e+002, 1.840598e+002
8.183221e+002, 1.836658e+002
8.188042e+002, 1.835291e+002
8.192863e+002, 1.840744e+002
8.197684e+002, 1.848318e+002
8.202505e+002, 1.853542e+002
8.207327e+002, 1.855616e+002
8.212148e+002, 1.856340e+002
8.216969e+002, 1.855042e+002
8.221790e+002, 1.853504e+002
8.226611e+002, 1.854594e+002
8.231432e+002, 1.857519e+002
8.236254e+002, 1.856352e+002
8.241075e+002, 1.849955e+002
8.245896e+002, 1.843893e+002
8.250717e+002, 1.843901e+002
8.255538e+002, 1.846807e+002
8.260359e+002, 1.849457e+002
8.265181e+002, 1.851831e+002
8.270002e+002, 1.852050e+002
8.274823e+002, 1.847689e+002
8.279644e+002, 1.842702e+002
8.284465e+002, 1.839485e+002
8.289286e+002, 1.838228e+002
8.294108e+002, 1.838468e+002
8.298929e+002, 1.840543e+002
8.303750e+002, 1.842814e+002
8.308571e+002, 1.844019e+002
8.313392e+002, 1.844254e+002
8.318214e+002, 1.843070e+002
8.323035e+002, 1.840346e+002
8.327856e+002, 1.838965e+002
8.332677e+002, 1.841980e+002
8.337498e+002, 1.846137e+002
8.342319e+002, 1.849206e+002
8.347141e+002, 1.850913e+002
8.351962e+002, 1.850784e+002
8.356783e+002, 1.846857e+002
8.361604e+002, 1.844306e+002
8.366425e+002, 1.848426e+002
8.371246e+002, 1.858386e+002
8.376068e+002, 1.859895e+002
8.380889e+002, 1.852816e+002
8.385710e+002, 1.846971e+002
8.390531e+002, 1.852994e+002
8.395352e+002, 1.862347e+002
8.400173e+002, 1.864924e+002
8.404995e+002, 1.860195e+002
8.409816e+002, 1.856956e+002
8.414637e+002, 1.861315e+002
8.419458e+002, 1.864605e+002
8.424279e+002, 1.861923e+002
8.429100e+002, 1.853448e+002
8.433922e+002, 1.850596e+002
8.438743e+002, 1.854511e+002
8.443564e+002, 1.857661e+002
8.448385e+002, 1.852982e+002
8.453206e+002, 1.844996e+002
8.458027e+002, 1.845713e+002
8.462849e+002, 1.853656e+002
8.467670e+002, 1.860624e+002
8.472491e+002, 1.861933e+002
8.477312e+002, 1.861051e+002
8.482133e+002, 1.859229e+002
8.486954e+002, 1.856733e+002
8.491776e+002, 1.855094e+002
8.496597e+002, 1.854964e+002
8.501418e+002, 1.854464e+002
8.506239e+002, 1.852609e+002
8.511060e+002, 1.850170e+002
8.515881e+002, 1.849869e+002
8.520703e+002, 1.851542e+002
8.525524e+002, 1.853755e+002
8.530345e+002, 1.856428e+002
8.535166e+002, 1.858692e+002
8.539987e+002, 1.860107e+002
8.544808e+002, 1.860473e+002
8.549630e+002, 1.859299e+002
8.554451e+002, 1.852392e+002
8.559272e+002, 1.849101e+002
8.564093e+002, 1.853791e+002
8.568914e+002, 1.861905e+002
8.573735e+002, 1.861702e+002
8.578557e+002, 1.852159e+002
8.583378e+002, 1.847049e+002
8.588199e+002, 1.851339e+002
8.593020e+002, 1.858954e+002
8.597841e+002, 1.861259e+002
8.602662e+002, 1.860023e+002
8.607484e+002, 1.858767e+002
8.612305e+002, 1.858338e+002
8.617126e+002, 1.858694e+002
8.621947e+002, 1.861395e+002
8.626768e+002, 1.864212e+002
8.631589e+002, 1.863679e+002
8.636411e+002, 1.857541e+002
8.641232e+002, 1.854685e+002
8.646053e+002, 1.856431e+002
8.650874e+002, 1.860359e+002
8.655695e+002, 1.864795e+002
8.660516e+002, 1.868826e+002
8.665338e+002, 1.869203e+002
8.670159e+002, 1.864769e+002
8.674980e+002, 1.859518e+002
8.679801e+002, 1.854423e+002
8.684622e+002, 1.850934e+002
8.689443e+002, 1.850611e+002
8.694265e+002, 1.855346e+002
8.699086e+002, 1.859532e+002
8.703907e+002, 1.863459e+002
8.708728e+002, 1.866345e+002
8.713549e+002, 1.867934e+002
8.718370e+002, 1.868087e+002
8.723192e+002, 1.863445e+002
8.728013e+002, 1.853671e+002
8.732834e+002, 1.846754e+002
8.737655e+002, 1.853816e+002
8.742476e+002, 1.863982e+002
8.747297e+002, 1.864540e+002
8.752119e+002, 1.854021e+002
8.756940e+002, 1.848057e+002
8.761761e+002, 1.854118e+002
8.766582e+002, 1.861848e+002
8.771403e+002, 1.868109e+002
8.776224e+002, 1.872776e+002
8.781046e+002, 1.873708e+002
8.785867e+002, 1.870810e+002
8.790688e+002, 1.866586e+002
8.795509e+002, 1.860456e+002
8.800330e+002, 1.855215e+002
8.805151e+002, 1.856331e+002
8.809973e+002, 1.862258e+002
8.814794e+002, 1.866982e+002
8.819615e+002, 1.867375e+002
8.824436e+002, 1.866820e+002
8.829257e+002, 1.866389e+002
8.834078e+002, 1.866004e+002
8.838900e+002, 1.865356e+002
8.843721e+002, 1.864463e+002
8.848542e+002, 1.862963e+002
8.853363e+002, 1.860109e+002
8.858184e+002, 1.857617e+002
8.863005e+002, 1.858996e+002
8.867827e+002, 1.863163e+002
8.872648e+002, 1.867417e+002
8.877469e+002, 1.871353e+002
8.882290e+002, 1.874245e+002
8.887111e+002, 1.875253e+002
8.891932e+002, 1.875185e+002
8.896754e+002, 1.875100e+002
8.901575e+002, 1.874408e+002
8.906396e+002, 1.875894e+002
8.911217e+002, 1.880962e+002
8.916038e+002, 1.885402e+002
8.920859e+002, 1.882581e+002
8.925681e+002, 1.874843e+002
8.930502e+002, 1.868937e+002
8.935323e+002, 1.865867e+002
8.940144e+002, 1.865688e+002
8.944965e+002, 1.872105e+002
8.949786e+002, 1.879036e+002
8.954608e+002, 1.880566e+002
8.959429e+002, 1.873604e+002
8.964250e+002, 1.870578e+002
8.969071e+002, 1.872289e+002
8.973892e+002, 1.876351e+002
8.978713e+002, 1.882938e+002
8.983535e+002, 1.890932e+002
8.988356e+002, 1.892104e+002
8.993177e+002, 1.886864e+002
8.997998e+002, 1.882030e+002
9.002819e+002, 1.883687e+002
9.007640e+002, 1.886268e+002
9.012462e+002, 1.884465e+002
9.017283e+002, 1.878815e+002
9.022104e+002, 1.876737e+002
9.026925e+002, 1.880885e+002
9.031746e+002, 1.885551e+002
9.036567e+002, 1.889880e+002
9.041389e+002, 1.893141e+002
9.046210e+002, 1.892066e+002
9.051031e+002, 1.887185e+002
9.055852e+002, 1.883152e+002
9.060673e+002, 1.881715e+002
9.065494e+002, 1.882112e+002
9.070316e+002, 1.883248e+002
9.075137e+002, 1.885783e+002
9.079958e+002, 1.890941e+002
9.084779e+002, 1.906373e+002
9.089600e+002, 1.913691e+002
9.094421e+002, 1.907862e+002
9.099243e+002, 1.897141e+002
9.104064e+002, 1.892809e+002
9.108885e+002, 1.894518e+002
9.113706e+002, 1.896013e+002
9.118527e+002, 1.896714e+002
9.123348e+002, 1.894945e+002
9.128170e+002, 1.884573e+002
9.132991e+002, 1.873269e+002
9.137812e+002, 1.870660e+002
9.142633e+002, 1.880701e+002
9.147454e+002, 1.889415e+002
9.152275e+002, 1.894827e+002
9.157097e+002, 1.898224e+002
9.161918e+002, 1.899688e+002
9.166739e+002, 1.899275e+002
9.171560e+002, 1.901205e+002
9.176381e+002, 1.905488e+002
9.181202e+002, 1.908566e+002
9.186024e+002, 1.906676e+002
9.190845e+002, 1.903169e+002
9.195666e+002, 1.901991e+002
9.200487e+002, 1.902710e+002
9.205308e+002, 1.902175e+002
9.210129e+002, 1.897139e+002
9.214951e+002, 1.893525e+002
9.219772e+002, 1.892855e+002
9.224593e+002, 1.894559e+002
9.229414e+002, 1.897366e+002
9.234235e+002, 1.901214e+002
9.239056e+002, 1.904756e+002
9.243878e+002, 1.907516e+002
9.248699e+002, 1.909832e+002
9.253520e+002, 1.913372e+002
9.258341e+002, 1.916391e+002
9.263162e+002, 1.916105e+002
9.267983e+002, 1.908554e+002
9.272805e+002, 1.902387e+002
9.277626e+002, 1.897794e+002
9.282447e+002, 1.895653e+002
9.287268e+002, 1.897454e+002
9.292089e+002, 1.903234e+002
9.296910e+002, 1.910651e+002
9.301732e+002, 1.920043e+002
9.306553e+002, 1.925100e+002
9.311374e+002, 1.913739e+002
9.316195e+002, 1.898634e+002
9.321016e+002, 1.895845e+002
9.325837e+002, 1.907798e+002
9.330659e+002, 1.915684e+002
9.335480e+002, 1.910459e+002
9.340301e+002, 1.905956e+002
9.345122e+002, 1.908159e+002
9.349943e+002, 1.915759e+002
9.354764e+002, 1.919624e+002
9.359586e+002, 1.919852e+002
9.364407e+002, 1.919965e+002
9.369228e+002, 1.922656e+002
9.374049e+002, 1.925221e+002
9.378870e+002, 1.924431e+002
9.383691e+002, 1.921373e+002
9.388513e+002, 1.918586e+002
9.393334e+002, 1.917556e+002
9.398155e+002, 1.915651e+002
9.402976e+002, 1.911758e+002
9.407797e+002, 1.907752e+002
9.412618e+002, 1.906756e+002
9.417440e+002, 1.908646e+002
9.422261e+002, 1.911780e+002
9.427082e+002, 1.916301e+002
9.431903e+002, 1.919947e+002
9.436724e+002, 1.919297e+002
9.441545e+002, 1.917321e+002
9.446367e+002, 1.917130e+002
9.451188e+002, 1.919590e+002
9.456009e+002, 1.922393e+002
9.460830e+002, 1.926607e+002
9.465651e+002, 1.928944e+002
9.470472e+002, 1.925828e+002
9.475294e+002, 1.918449e+002
9.480115e+002, 1.919164e+002
9.484936e+002, 1.927126e+002
9.489757e+002, 1.932754e+002
9.494578e+002, 1.927562e+002
9.499399e+002, 1.919866e+002
9.504221e+002, 1.915618e+002
9.509042e+002, 1.914344e+002
9.513863e+002, 1.913691e+002
9.518684e+002, 1.913927e+002
9.523505e+002, 1.913828e+002
9.528326e+002, 1.913138e+002
9.533148e+002, 1.912221e+002
9.537969e+002, 1.911307e+002
9.542790e+002, 1.910679e+002
9.547611e+002, 1.911794e+002
9.552432e+002, 1.915591e+002
9.557253e+002, 1.919033e+002
9.562075e+002, 1.918664e+002
9.566896e+002, 1.917556e+002
9.571717e+002, 1.919339e+002
9.576538e+002, 1.926499e+002
9.581359e+002, 1.928473e+002
9.586180e+002, 1.922949e+002
9.591002e+002, 1.917888e+002
9.595823e+002, 1.920230e+002
9.600644e+002, 1.927486e+002
9.605465e+002, 1.932482e+002
9.610286e+002, 1.935213e+002
9.615107e+002, 1.936795e+002
9.619929e+002, 1.937141e+002
9.624750e+002, 1.937259e+002
9.629571e+002, 1.937133e+002
9.634392e+002, 1.937225e+002
9.639213e+002, 1.939501e+002
9.644034e+002, 1.944980e+002
9.648856e+002, 1.948230e+002
9.653677e+002, 1.947180e+002
9.658498e+002, 1.944907e+002
9.663319e+002, 1.947576e+002
9.668140e+002, 1.952528e+002
9.672961e+002, 1.953835e+002
9.677783e+002, 1.948529e+002
9.682604e+002, 1.943315e+002
9.687425e+002, 1.939143e+002
9.692246e+002, 1.937364e+002
9.697067e+002, 1.939535e+002
9.701888e+002, 1.946447e+002
9.706710e+002, 1.951211e+002
9.711531e+002, 1.953650e+002
9.716352e+002, 1.955141e+002
9.721173e+002, 1.955968e+002
9.725994e+002, 1.956864e+002
9.730815e+002, 1.959461e+002
9.735637e+002, 1.963290e+002
9.740458e+002, 1.965642e+002
9.745279e+002, 1.966711e+002
9.750100e+002, 1.964308e+002
9.754921e+002, 1.955186e+002
9.759742e+002, 1.944000e+002
9.764564e+002, 1.944191e+002
9.769385e+002, 1.955020e+002
9.774206e+002, 1.961565e+002
9.779027e+002, 1.958448e+002
9.783848e+002, 1.954610e+002
9.788669e+002, 1.961051e+002
9.793491e+002, 1.970564e+002
9.798312e+002, 1.973921e+002
9.803133e+002, 1.965444e+002
9.807954e+002, 1.961488e+002
9.812775e+002, 1.964426e+002
9.817596e+002, 1.968637e+002
9.822418e+002, 1.970418e+002
9.827239e+002, 1.970038e+002
9.832060e+002, 1.967907e+002
9.836881e+002, 1.964417e+002
9.841702e+002, 1.963125e+002
9.846523e+002, 1.966510e+002
9.851345e+002, 1.972415e+002
9.856166e+002, 1.983053e+002
9.860987e+002, 1.995203e+002
9.865808e+002, 1.997738e+002
9.870629e+002, 1.986886e+002
9.875450e+002, 1.978282e+002
9.880272e+002, 1.975025e+002
9.885093e+002, 1.975086e+002
9.889914e+002, 1.977472e+002
9.894735e+002, 1.980448e+002
9.899556e+002, 1.979374e+002
9.904377e+002, 1.971548e+002
9.909199e+002, 1.967185e+002
9.914020e+002, 1.975976e+002
9.918841e+002, 1.984980e+002
9.923662e+002, 1.984423e+002
9.928483e+002, 1.973878e+002
9.933304e+002, 1.970098e+002
9.938126e+002, 1.973400e+002
9.942947e+002, 1.977955e+002
9.947768e+002, 1.980154e+002
9.952589e+002, 1.981554e+002
9.957410e+002, 1.984819e+002
9.962231e+002, 1.988882e+002
9.967053e+002, 1.990770e+002
9.971874e+002, 1.986770e+002
9.976695e+002, 1.984440e+002
9.981516e+002, 1.985778e+002
9.986337e+002, 1.988034e+002
9.991158e+002, 1.985641e+002
9.995980e+002, 1.979714e+002
1.000080e+003, 1.979198e+002
1.000562e+003, 1.986025e+002
1.001044e+003, 1.992460e+002
1.001526e+003, 1.991692e+002
1.002009e+003, 1.988709e+002
1.002491e+003, 1.987235e+002
1.002973e+003, 1.987654e+002
1.003455e+003, 1.990517e+002
1.003937e+003, 1.997180e+002
1.004419e+003, 2.002041e+002
1.004901e+003, 2.002105e+002
1.005383e+003, 1.999150e+002
1.005865e+003, 1.995644e+002
1.006348e+003, 1.992350e+002
1.006830e+003, 1.991349e+002
1.007312e+003, 1.996127e+002
1.007794e+003, 2.000135e+002
1.008276e+003, 1.999948e+002
1.008758e+003, 1.998875e+002
1.009240e+003, 2.001344e+002
1.009722e+003, 2.008135e+002
1.010205e+003, 2.008827e+002
1.010687e+003, 2.002094e+002
1.011169e+003, 1.995706e+002
1.011651e+003, 1.997474e+002
1.012133e+003, 2.002579e+002
1.012615e+003, 2.006565e+002
1.013097e+003, 2.009026e+002
1.013579e+003, 2.010135e+002
1.014061e+003, 2.010783e+002
1.014544e+003, 2.008257e+002
1.015026e+003, 1.999161e+002
1.015508e+003, 1.988878e+002
1.015990e+003, 1.993866e+002
1.016472e+003, 2.009983e+002
1.016954e+003, 2.019724e+002
1.017436e+003, 2.015589e+002
1.017918e+003, 2.009592e+002
1.018401e+003, 2.008458e+002
1.018883e+003, 2.009697e+002
1.019365e+003, 2.011218e+002
1.019847e+003, 2.013631e+002
1.020329e+003, 2.012039e+002
1.020811e+003, 2.005449e+002
1.021293e+003, 2.000346e+002
1.021775e+003, 2.003657e+002
1.022257e+003, 2.010129e+002
1.022740e+003, 2.011401e+002
1.023222e+003, 2.008405e+002
1.023704e+003, 2.005250e+002
1.024186e+003, 2.000922e+002
1.024668e+003, 2.000135e+002
1.025150e+003, 2.005663e+002
1.025632e+003, 2.013250e+002
1.026114e+003, 2.015437e+002
1.026596e+003, 2.012749e+002
1.027079e+003, 2.010459e+002
1.027561e+003, 2.009499e+002
1.028043e+003, 2.008088e+002
1.028525e+003, 2.002619e+002
1.029007e+003, 1.997634e+002
1.029489e+003, 1.997936e+002
1.029971e+003, 2.004258e+002
1.030453e+003, 2.008753e+002
1.030936e+003, 2.011734e+002
1.031418e+003, 2.011567e+002
1.031900e+003, 2.005752e+002
1.032382e+003, 1.998400e+002
1.032864e+003, 1.998885e+002
1.033346e+003, 2.004306e+002
1.033828e+003, 2.007710e+002
1.034310e+003, 2.004107e+002
1.034792e+003, 2.002118e+002
1.035275e+003, 2.005434e+002
1.035757e+003, 2.009762e+002
1.036239e+003, 2.011426e+002
1.036721e+003, 2.010427e+002
1.037203e+003, 2.009278e+002
1.037685e+003, 2.008087e+002
1.038167e+003, 2.006093e+002
1.038649e+003, 2.000429e+002
1.039132e+003, 1.995745e+002
1.039614e+003, 1.996799e+002
1.040096e+003, 2.002519e+002
1.040578e+003, 2.006737e+002
1.041060e+003, 2.009704e+002
1.041542e+003, 2.009157e+002
1.042024e+003, 2.003239e+002
1.042506e+003, 1.996830e+002
1.042989e+003, 1.998564e+002
1.043471e+003, 2.004966e+002
1.043953e+003, 2.008586e+002
1.044435e+003, 2.007556e+002
1.044917e+003, 2.006511e+002
1.045399e+003, 2.007334e+002
1.045881e+003, 2.008497e+002
1.046363e+003, 2.009251e+002
1.046845e+003, 2.009674e+002
1.047328e+003, 2.010279e+002
1.047810e+003, 2.011091e+002
1.048292e+003, 2.012117e+002
1.048774e+003, 2.013824e+002
1.049256e+003, 2.015182e+002
1.049738e+003, 2.016388e+002
1.050220e+003, 2.016377e+002
1.050702e+003, 2.012803e+002
1.051184e+003, 2.001118e+002
1.051667e+003, 1.997668e+002
1.052149e+003, 2.005013e+002
1.052631e+003, 2.013213e+002
1.053113e+003, 2.011525e+002
1.053595e+003, 2.005370e+002
1.054077e+003, 2.006706e+002
1.054559e+003, 2.014653e+002
1.055041e+003, 2.019953e+002
1.055523e+003, 2.016238e+002
1.056006e+003, 2.012428e+002
1.056488e+003, 2.010699e+002
1.056970e+003, 2.010626e+002
1.057452e+003, 2.012639e+002
1.057934e+003, 2.016174e+002
1.058416e+003, 2.014426e+002
1.058898e+003, 2.004878e+002
1.059380e+003, 1.997994e+002
1.059863e+003, 2.006170e+002
1.060345e+003, 2.017804e+002
1.060827e+003, 2.022883e+002
1.061309e+003, 2.020695e+002
1.061791e+003, 2.018753e+002
1.062273e+003, 2.016758e+002
1.062755e+003, 2.016441e+002
1.063237e+003, 2.019277e+002
1.063719e+003, 2.023198e+002
1.064202e+003, 2.025798e+002
1.064684e+003, 2.026937e+002
1.065166e+003, 2.026234e+002
1.065648e+003, 2.021454e+002
1.066130e+003, 2.018713e+002
1.066612e+003, 2.019604e+002
1.067094e+003, 2.021113e+002
1.067576e+003, 2.020181e+002
1.068059e+003, 2.017560e+002
1.068541e+003, 2.018109e+002
1.069023e+003, 2.021522e+002
1.069505e+003, 2.024760e+002
1.069987e+003, 2.026431e+002
1.070469e+003, 2.027003e+002
1.070951e+003, 2.026165e+002
1.071433e+003, 2.024524e+002
1.071916e+003, 2.022867e+002
1.072398e+003, 2.021026e+002
1.072880e+003, 2.021130e+002
1.073362e+003, 2.023764e+002
1.073844e+003, 2.026417e+002
1.074326e+003, 2.026161e+002
1.074808e+003, 2.024841e+002
1.075290e+003, 2.024451e+002
1.075772e+003, 2.025200e+002
1.076255e+003, 2.025632e+002
1.076737e+003, 2.025562e+002
1.077219e+003, 2.025211e+002
1.077701e+003, 2.023947e+002
1.078183e+003, 2.023505e+002
1.078665e+003, 2.028714e+002
1.079147e+003, 2.037224e+002
1.079629e+003, 2.043771e+002
1.080111e+003, 2.047241e+002
1.080594e+003, 2.047889e+002
1.081076e+003, 2.042127e+002
1.081558e+003, 2.037079e+002
1.082040e+003, 2.037988e+002
1.082522e+003, 2.043863e+002
1.083004e+003, 2.043048e+002
1.083486e+003, 2.036408e+002
1.083968e+003, 2.032381e+002
1.084450e+003, 2.038337e+002
1.084933e+003, 2.045340e+002
1.085415e+003, 2.048627e+002
1.085897e+003, 2.048862e+002
1.086379e+003, 2.046697e+002
1.086861e+003, 2.040240e+002
1.087343e+003, 2.040707e+002
1.087825e+003, 2.049816e+002
1.088307e+003, 2.057818e+002
1.088790e+003, 2.053206e+002
1.089272e+003, 2.044691e+002
1.089754e+003, 2.042988e+002
1.090236e+003, 2.047446e+002
1.090718e+003, 2.051667e+002
1.091200e+003, 2.054646e+002
1.091682e+003, 2.057039e+002
1.092164e+003, 2.059049e+002
1.092646e+003, 2.060318e+002
1.093129e+003, 2.059592e+002
1.093611e+003, 2.057801e+002
1.094093e+003, 2.057536e+002
1.094575e+003, 2.059311e+002
1.095057e+003, 2.060442e+002
1.095539e+003, 2.057029e+002
1.096021e+003, 2.055911e+002
1.096503e+003, 2.061704e+002
1.096986e+003, 2.071433e+002
1.097468e+003, 2.072991e+002
1.097950e+003, 2.067296e+002
1.098432e+003, 2.062057e+002
1.098914e+003, 2.059559e+002
1.099396e+003, 2.058582e+002
1.099878e+003, 2.058152e+002
1.100360e+003, 2.058935e+002
1.100843e+003, 2.061796e+002
1.101325e+003, 2.066920e+002
1.101807e+003, 2.072415e+002
1.102289e+003, 2.078546e+002
1.102771e+003, 2.082533e+002
1.103253e+003, 2.081423e+002
1.103735e+003, 2.078669e+002
1.104217e+003, 2.077549e+002
1.104699e+003, 2.077975e+002
1.105182e+003, 2.079939e+002
1.105664e+003, 2.086618e+002
1.106146e+003, 2.088176e+002
1.106628e+003, 2.082570e+002
1.107110e+003, 2.076646e+002
1.107592e+003, 2.076610e+002
1.108074e+003, 2.080603e+002
1.108556e+003, 2.085991e+002
1.109038e+003, 2.092088e+002
1.109521e+003, 2.096256e+002
1.110003e+003, 2.096409e+002
1.110485e+003, 2.095755e+002
1.110967e+003, 2.094391e+002
1.111449e+003, 2.093311e+002
1.111931e+003, 2.094234e+002
1.112413e+003, 2.096797e+002
1.112895e+003, 2.100188e+002
1.113377e+003, 2.104392e+002
1.113860e+003, 2.105719e+002
1.114342e+003, 2.097224e+002
1.114824e+003, 2.090150e+002
1.115306e+003, 2.092883e+002
1.115788e+003, 2.101438e+002
1.116270e+003, 2.101115e+002
1.116752e+003, 2.092157e+002
1.117234e+003, 2.088464e+002
1.117717e+003, 2.094786e+002
1.118199e+003, 2.102056e+002
1.118681e+003, 2.102496e+002
1.119163e+003, 2.099842e+002
1.119645e+003, 2.096863e+002
1.120127e+003, 2.093708e+002
1.120609e+003, 2.092906e+002
1.121091e+003, 2.094671e+002
1.121573e+003, 2.097532e+002
1.122056e+003, 2.102016e+002
1.122538e+003, 2.105391e+002
1.123020e+003, 2.102854e+002
1.123502e+003, 2.097355e+002
1.123984e+003, 2.093598e+002
1.124466e+003, 2.093994e+002
1.124948e+003, 2.092464e+002
1.125430e+003, 2.087566e+002
1.125913e+003, 2.084407e+002
1.126395e+003, 2.088751e+002
1.126877e+003, 2.096146e+002
1.127359e+003, 2.094758e+002
1.127841e+003, 2.087874e+002
1.128323e+003, 2.084598e+002
1.128805e+003, 2.094761e+002
1.129287e+003, 2.099099e+002
1.129770e+003, 2.092316e+002
1.130252e+003, 2.083547e+002
1.130734e+003, 2.081860e+002
1.131216e+003, 2.085755e+002
1.131698e+003, 2.090800e+002
1.132180e+003, 2.096159e+002
1.132662e+003, 2.097432e+002
1.133144e+003, 2.085973e+002
1.133626e+003, 2.077564e+002
1.134109e+003, 2.079523e+002
1.134591e+003, 2.086172e+002
1.135073e+003, 2.089475e+002
1.135555e+003, 2.089543e+002
1.136037e+003, 2.086777e+002
1.136519e+003, 2.081081e+002
1.137001e+003, 2.078656e+002
1.137483e+003, 2.088355e+002
1.137965e+003, 2.098616e+002
1.138448e+003, 2.102218e+002
1.138930e+003, 2.100441e+002
1.139412e+003, 2.096460e+002
1.139894e+003, 2.090172e+002
1.140376e+003, 2.083155e+002
1.140858e+003, 2.075047e+002
1.141340e+003, 2.070170e+002
1.141822e+003, 2.076463e+002
1.142304e+003, 2.084972e+002
1.142787e+003, 2.086878e+002
1.143269e+003, 2.081604e+002
1.143751e+003, 2.077456e+002
1.144233e+003, 2.074077e+002
1.144715e+003, 2.074169e+002
1.145197e+003, 2.079640e+002
1.145679e+003, 2.086548e+002
1.146161e+003, 2.090205e+002
1.146644e+003, 2.091881e+002
1.147126e+003, 2.093336e+002
1.147608e+003, 2.095064e+002
1.148090e+003, 2.095509e+002
1.148572e+003, 2.094992e+002
1.149054e+003, 2.091840e+002
1.149536e+003, 2.083062e+002
1.150018e+003, 2.073710e+002
1.150500e+003, 2.073538e+002
1.150983e+003, 2.079301e+002
1.151465e+003, 2.084566e+002
1.151947e+003, 2.087480e+002
1.152429e+003, 2.090304e+002
1.152911e+003, 2.094471e+002
1.153393e+003, 2.096069e+002
1.153875e+003, 2.090258e+002
1.154357e+003, 2.080655e+002
1.154840e+003, 2.078132e+002
1.155322e+003, 2.080473e+002
1.155804e+003, 2.080741e+002
1.156286e+003, 2.071665e+002
1.156768e+003, 2.067032e+002
1.157250e+003, 2.070291e+002
1.157732e+003, 2.075860e+002
1.158214e+003, 2.078827e+002
1.158697e+003, 2.079688e+002
1.159179e+003, 2.079820e+002
1.159661e+003, 2.079615e+002
1.160143e+003, 2.081014e+002
1.160625e+003, 2.087083e+002
1.161107e+003, 2.092316e+002
1.161589e+003, 2.096274e+002
1.162071e+003, 2.097475e+002
1.162553e+003, 2.091777e+002
1.163036e+003, 2.080746e+002
1.163518e+003, 2.075871e+002
1.164000e+003, 2.077711e+002
1.164482e+003, 2.081446e+002
1.164964e+003, 2.087070e+002
1.165446e+003, 2.090627e+002
1.165928e+003, 2.088524e+002
1.166410e+003, 2.084168e+002
1.166892e+003, 2.084223e+002
1.167375e+003, 2.088334e+002
1.167857e+003, 2.090989e+002
1.168339e+003, 2.091434e+002
1.168821e+003, 2.091504e+002
1.169303e+003, 2.091605e+002
1.169785e+003, 2.092627e+002
1.170267e+003, 2.096114e+002
1.170749e+003, 2.100798e+002
1.171231e+003, 2.103092e+002
1.171714e+003, 2.103002e+002
1.172196e+003, 2.102026e+002
1.172678e+003, 2.100113e+002
1.173160e+003, 2.099656e+002
1.173642e+003, 2.105832e+002
1.174124e+003, 2.111738e+002
1.174606e+003, 2.109364e+002
1.175088e+003, 2.100871e+002
1.175571e+003, 2.100173e+002
1.176053e+003, 2.107688e+002
1.176535e+003, 2.115284e+002
1.177017e+003, 2.121302e+002
1.177499e+003, 2.124689e+002
1.177981e+003, 2.122457e+002
1.178463e+003, 2.118515e+002
1.178945e+003, 2.116325e+002
1.179427e+003, 2.116089e+002
1.179910e+003, 2.118680e+002
1.180392e+003, 2.124723e+002
1.180874e+003, 2.126922e+002
1.181356e+003, 2.120976e+002
1.181838e+003, 2.113776e+002
1.182320e+003, 2.113397e+002
1.182802e+003, 2.115522e+002
1.183284e+003, 2.114245e+002
1.183767e+003, 2.108033e+002
1.184249e+003, 2.107937e+002
1.184731e+003, 2.114993e+002
1.185213e+003, 2.121275e+002
1.185695e+003, 2.123336e+002
1.186177e+003, 2.122342e+002
1.186659e+003, 2.116606e+002
1.187141e+003, 2.110018e+002
1.187624e+003, 2.109272e+002
1.188106e+003, 2.118344e+002
1.188588e+003, 2.119803e+002
1.189070e+003, 2.112289e+002
1.189552e+003, 2.105070e+002
1.190034e+003, 2.103711e+002
1.190516e+003, 2.105277e+002
1.190998e+003, 2.107965e+002
1.191480e+003, 2.110353e+002
1.191963e+003, 2.109593e+002
1.192445e+003, 2.102569e+002
1.192927e+003, 2.099832e+002
1.193409e+003, 2.102130e+002
1.193891e+003, 2.105130e+002
1.194373e+003, 2.105202e+002
1.194855e+003, 2.104693e+002
1.195337e+003, 2.107407e+002
1.195819e+003, 2.111798e+002
1.196302e+003, 2.114347e+002
1.196784e+003, 2.113220e+002
1.197266e+003, 2.113173e+002
1.197748e+003, 2.114319e+002
1.198230e+003, 2.116406e+002
1.198712e+003, 2.120902e+002
1.199194e+003, 2.125045e+002
1.199676e+003, 2.124172e+002
1.200158e+003, 2.119885e+002
1.200641e+003, 2.116620e+002
1.201123e+003, 2.115651e+002
1.201605e+003, 2.114255e+002
1.202087e+003, 2.111883e+002
1.202569e+003, 2.110849e+002
1.203051e+003, 2.115443e+002
1.203533e+003, 2.121115e+002
1.204015e+003, 2.119921e+002
1.204498e+003, 2.114330e+002
1.204980e+003, 2.114147e+002
1.205462e+003, 2.124866e+002
1.205944e+003, 2.130556e+002
1.206426e+003, 2.129234e+002
1.206908e+003, 2.125392e+002
1.207390e+003, 2.122228e+002
1.207872e+003, 2.120029e+002
1.208354e+003, 2.118646e+002
1.208837e+003, 2.118432e+002
1.209319e+003, 2.121500e+002
1.209801e+003, 2.130688e+002
1.210283e+003, 2.135499e+002
1.210765e+003, 2.133864e+002
1.211247e+003, 2.130963e+002
1.211729e+003, 2.132842e+002
1.212211e+003, 2.136235e+002
1.212694e+003, 2.136963e+002
1.213176e+003, 2.135196e+002
1.213658e+003, 2.133269e+002
1.214140e+003, 2.130958e+002
1.214622e+003, 2.130178e+002
1.215104e+003, 2.131515e+002
1.215586e+003, 2.133260e+002
1.216068e+003, 2.132703e+002
1.216551e+003, 2.132133e+002
1.217033e+003, 2.135477e+002
1.217515e+003, 2.142087e+002
1.217997e+003, 2.145006e+002
1.218479e+003, 2.142705e+002
1.218961e+003, 2.140812e+002
1.219443e+003, 2.140141e+002
1.219925e+003, 2.140631e+002
1.220407e+003, 2.143755e+002
1.220890e+003, 2.146886e+002
1.221372e+003, 2.145182e+002
1.221854e+003, 2.139536e+002
1.222336e+003, 2.141470e+002
1.222818e+003, 2.154720e+002
1.223300e+003, 2.160508e+002
1.223782e+003, 2.153777e+002
1.224264e+003, 2.145235e+002
1.224746e+003, 2.148514e+002
1.225229e+003, 2.154873e+002
1.225711e+003, 2.153975e+002
1.226193e+003, 2.146075e+002
1.226675e+003, 2.143431e+002
1.227157e+003, 2.147014e+002
1.227639e+003, 2.151746e+002
1.228121e+003, 2.157213e+002
1.228603e+003, 2.160344e+002
1.229085e+003, 2.154727e+002
1.229568e+003, 2.147578e+002
1.230050e+003, 2.146546e+002
1.230532e+003, 2.151348e+002
1.231014e+003, 2.153481e+002
1.231496e+003, 2.152282e+002
1.231978e+003, 2.155218e+002
1.232460e+003, 2.165185e+002
1.232942e+003, 2.173655e+002
1.233425e+003, 2.171423e+002
1.233907e+003, 2.164900e+002
1.234389e+003, 2.158343e+002
1.234871e+003, 2.152484e+002
1.235353e+003, 2.150261e+002
1.235835e+003, 2.151864e+002
1.236317e+003, 2.153360e+002
1.236799e+003, 2.153907e+002
1.237281e+003, 2.153712e+002
1.237764e+003, 2.151966e+002
1.238246e+003, 2.150417e+002
1.238728e+003, 2.150609e+002
1.239210e+003, 2.152230e+002
1.239692e+003, 2.154157e+002
1.240174e+003, 2.156368e+002
1.240656e+003, 2.159494e+002
1.241138e+003, 2.163965e+002
1.241621e+003, 2.167428e+002
1.242103e+003, 2.167933e+002
1.242585e+003, 2.166829e+002
1.243067e+003, 2.164293e+002
1.243549e+003, 2.161122e+002
1.244031e+003, 2.159718e+002
1.244513e+003, 2.160158e+002
1.244995e+003, 2.164153e+002
1.245478e+003, 2.172996e+002
1.245960e+003, 2.179749e+002
1.246442e+003, 2.179715e+002
1.246924e+003, 2.176553e+002
1.247406e+003, 2.171255e+002
1.247888e+003, 2.165446e+002
1.248370e+003, 2.166054e+002
1.248852e+003, 2.171068e+002
1.249334e+003, 2.170535e+002
1.249817e+003, 2.160851e+002
1.250299e+003, 2.155276e+002
1.250781e+003, 2.165494e+002
1.251263e+003, 2.174943e+002
1.251745e+003, 2.176362e+002
1.252227e+003, 2.173292e+002
1.252709e+003, 2.174559e+002
1.253191e+003, 2.178641e+002
1.253673e+003, 2.181020e+002
1.254156e+003, 2.180602e+002
1.254638e+003, 2.180046e+002
1.255120e+003, 2.181127e+002
1.255602e+003, 2.180411e+002
1.256084e+003, 2.175352e+002
1.256566e+003, 2.169826e+002
1.257048e+003, 2.172873e+002
1.257530e+003, 2.180977e+002
1.258012e+003, 2.187150e+002
1.258495e+003, 2.190124e+002
1.258977e+003, 2.191972e+002
1.259459e+003, 2.194212e+002
1.259941e+003, 2.192068e+002
1.260423e+003, 2.181439e+002
1.260905e+003, 2.171169e+002
1.261387e+003, 2.179230e+002
1.261869e+003, 2.194958e+002
1.262352e+003, 2.202613e+002
1.262834e+003, 2.199408e+002
1.263316e+003, 2.194721e+002
1.263798e+003, 2.188062e+002
1.264280e+003, 2.184118e+002
1.264762e+003, 2.184504e+002
1.265244e+003, 2.187505e+002
1.265726e+003, 2.193705e+002
1.266208e+003, 2.199598e+002
1.266691e+003, 2.200502e+002
1.267173e+003, 2.196089e+002
1.267655e+003, 2.193092e+002
1.268137e+003, 2.191536e+002
1.268619e+003, 2.191332e+002
1.269101e+003, 2.192880e+002
1.269583e+003, 2.193860e+002
1.270065e+003, 2.191107e+002
1.270548e+003, 2.187560e+002
1.271030e+003, 2.185910e+002
1.271512e+003, 2.185836e+002
1.271994e+003, 2.186141e+002
1.272476e+003, 2.186803e+002
1.272958e+003, 2.186286e+002
1.273440e+003, 2.184105e+002
1.273922e+003, 2.182016e+002
1.274405e+003, 2.179764e+002
1.274887e+003, 2.179803e+002
1.275369e+003, 2.184345e+002
1.275851e+003, 2.191642e+002
1.276333e+003, 2.197709e+002
1.276815e+003, 2.202310e+002
1.277297e+003, 2.203566e+002
1.277779e+003, 2.200853e+002
1.278261e+003, 2.198897e+002
1.278744e+003, 2.202910e+002
1.279226e+003, 2.204240e+002
1.279708e+003, 2.198099e+002
1.280190e+003, 2.189622e+002
1.280672e+003, 2.188988e+002
1.281154e+003, 2.193841e+002
1.281636e+003, 2.198020e+002
1.282118e+003, 2.200684e+002
1.282600e+003, 2.205135e+002
1.283083e+003, 2.215918e+002
1.283565e+003, 2.221757e+002
1.284047e+003, 2.218500e+002
1.284529e+003, 2.213128e+002
1.285011e+003, 2.217939e+002
1.285493e+003, 2.226010e+002
1.285975e+003, 2.225325e+002
1.286457e+003, 2.215575e+002
1.286939e+003, 2.209739e+002
1.287422e+003, 2.210416e+002
1.287904e+003, 2.209640e+002
1.288386e+003, 2.205436e+002
1.288868e+003, 2.201888e+002
1.289350e+003, 2.203704e+002
1.289832e+003, 2.208170e+002
1.290314e+003, 2.214373e+002
1.290796e+003, 2.220769e+002
1.291279e+003, 2.221317e+002
1.291761e+003, 2.215171e+002
1.292243e+003, 2.211709e+002
1.292725e+003, 2.212323e+002
1.293207e+003, 2.213790e+002
1.293689e+003, 2.213206e+002
1.294171e+003, 2.212851e+002
1.294653e+003, 2.215497e+002
1.295135e+003, 2.218762e+002
1.295618e+003, 2.217157e+002
1.296100e+003, 2.211608e+002
1.296582e+003, 2.213163e+002
1.297064e+003, 2.222500e+002
1.297546e+003, 2.228257e+002
1.298028e+003, 2.216944e+002
1.298510e+003, 2.209377e+002
1.298992e+003, 2.214112e+002
1.299475e+003, 2.222705e+002
1.299957e+003, 2.223683e+002
1.300439e+003, 2.219752e+002
1.300921e+003, 2.217071e+002
1.301403e+003, 2.216642e+002
1.301885e+003, 2.220412e+002
##END=



