##NAMES=Stephanite
##RRUFFID=R050309
##IDEAL CHEMISTRY=Ag^1+^_5_Sb^3+^S^2-^_4_
##LOCALITY=Sonora, Mexico
##OWNER=RRUFF
##SOURCE=Eugene Schlepp
##DESCRIPTION=Black fragment in quartz, associated with pyrargyrite. Electron microscope image shows two fine-scale phases.
##STATUS=The identification of this mineral is confirmed by single-crystal X-ray diffraction and chemical analysis.
##URL=rruff.info/R050309
##MEASURED CHEMISTRY=Ag_5.22_(Sb_0.93_As_0.10_)_Î£=1.03_S_4.00_
130.4407, 7.624604
130.9229, 8.089095
131.4050, 8.514841
131.8871, 8.943781
132.3692, 9.258786
132.8513, 9.022740
133.3334, 8.170412
133.8156, 7.342976
134.2977, 7.255468
134.7798, 7.898334
135.2619, 8.418783
135.7440, 8.657076
136.2261, 8.630589
136.7083, 8.314179
137.1904, 7.596243
137.6725, 6.936216
138.1546, 6.858199
138.6367, 7.458233
139.1188, 8.081525
139.6010, 8.614619
140.0831, 9.058290
140.5652, 9.280505
141.0473, 9.258626
141.5294, 9.060817
142.0115, 8.718680
142.4937, 8.076945
142.9758, 7.646444
143.4579, 7.637009
143.9400, 8.176582
144.4221, 8.489909
144.9042, 8.443032
145.3864, 8.249754
145.8685, 8.304729
146.3506, 8.918361
146.8327, 9.359224
147.3148, 9.352492
147.7969, 8.614210
148.2791, 8.072235
148.7612, 7.793956
149.2433, 7.702929
149.7254, 7.620635
150.2075, 7.406165
150.6896, 7.321996
151.1718, 7.483655
151.6539, 8.282736
152.1360, 8.757181
152.6181, 8.714190
153.1002, 8.309935
153.5823, 8.010086
154.0645, 7.985175
154.5466, 7.968229
155.0287, 7.827666
155.5108, 7.164598
155.9929, 6.836581
156.4750, 7.208665
156.9572, 8.094475
157.4393, 8.729203
157.9214, 8.812627
158.4035, 8.686549
158.8856, 8.565332
159.3677, 8.301363
159.8499, 8.240217
160.3320, 8.703003
160.8141, 9.567652
161.2962, 10.09000
161.7783, 9.689951
162.2604, 8.980715
162.7426, 8.468121
163.2247, 8.412274
163.7068, 8.485846
164.1889, 8.592033
164.6710, 8.723375
165.1531, 8.812696
165.6353, 8.728748
166.1174, 8.618052
166.5995, 8.638365
167.0816, 9.003142
167.5637, 9.400153
168.0458, 9.650391
168.5280, 9.748197
169.0101, 9.732889
169.4922, 9.520666
169.9743, 9.230969
170.4564, 9.032105
170.9385, 8.962812
171.4207, 9.030480
171.9028, 9.368111
172.3849, 9.998715
172.8670, 10.45157
173.3491, 10.19407
173.8312, 9.508209
174.3134, 8.931292
174.7955, 8.765450
175.2776, 8.818262
175.7597, 8.886850
176.2418, 8.964687
176.7239, 9.039920
177.2061, 9.087626
177.6882, 9.123121
178.1703, 9.186696
178.6524, 9.366335
179.1345, 9.570692
179.6166, 9.635093
180.0988, 9.540140
180.5809, 9.365045
181.0630, 9.088213
181.5451, 8.766970
182.0272, 8.643530
182.5093, 9.034990
182.9915, 9.707972
183.4736, 10.06940
183.9557, 10.04654
184.4378, 9.844080
184.9199, 9.692319
185.4020, 9.591510
185.8842, 9.524645
186.3663, 9.500445
186.8484, 9.506655
187.3305, 9.498388
187.8126, 9.469454
188.2947, 9.432647
188.7769, 9.397013
189.2590, 9.363794
189.7411, 9.359812
190.2232, 9.474425
190.7053, 9.665178
191.1874, 9.616693
191.6696, 9.229658
192.1517, 8.734637
192.6338, 8.593195
193.1159, 8.816851
193.5980, 9.076621
194.0801, 9.134965
194.5623, 9.013418
195.0444, 9.051384
195.5265, 9.325733
196.0086, 9.706631
196.4907, 9.923426
196.9728, 9.965912
197.4550, 9.931669
197.9371, 9.861041
198.4192, 9.753354
198.9013, 9.651007
199.3834, 9.555040
199.8655, 9.469340
200.3477, 9.379762
200.8298, 9.267656
201.3119, 9.240309
201.7940, 9.414988
202.2761, 9.820102
202.7582, 10.10218
203.2404, 10.21148
203.7225, 10.19356
204.2046, 10.15122
204.6867, 10.06476
205.1688, 10.02125
205.6509, 10.09539
206.1331, 10.31074
206.6152, 10.48687
207.0973, 10.59567
207.5794, 10.66229
208.0615, 10.79656
208.5436, 11.06140
209.0258, 11.22857
209.5079, 11.08467
209.9900, 10.51722
210.4721, 10.19538
210.9542, 10.27267
211.4363, 10.59739
211.9185, 10.61443
212.4006, 10.18006
212.8827, 9.747179
213.3648, 9.608534
213.8469, 9.828065
214.3290, 10.12358
214.8112, 10.58928
215.2933, 11.09014
215.7754, 11.05781
216.2575, 10.16708
216.7396, 9.355822
217.2217, 9.281320
217.7039, 10.29954
218.1860, 10.94473
218.6681, 11.00403
219.1502, 10.63663
219.6323, 10.42520
220.1144, 10.45101
220.5966, 10.49667
221.0787, 10.44266
221.5608, 10.27236
222.0429, 10.02880
222.5250, 9.612254
223.0071, 9.134559
223.4893, 9.064363
223.9714, 9.631691
224.4535, 10.24238
224.9356, 10.57099
225.4177, 10.49536
225.8998, 10.41991
226.3820, 10.33718
226.8641, 10.27076
227.3462, 10.32673
227.8283, 10.61356
228.3104, 10.85721
228.7925, 10.88830
229.2747, 10.54550
229.7568, 10.36424
230.2389, 10.43025
230.7210, 10.65759
231.2031, 10.76880
231.6852, 10.71445
232.1674, 10.61732
232.6495, 10.52963
233.1316, 10.43423
233.6137, 10.39501
234.0958, 10.46847
234.5779, 10.58825
235.0601, 10.53990
235.5422, 10.15071
236.0243, 9.842971
236.5064, 9.839971
236.9885, 10.38138
237.4706, 10.68596
237.9528, 10.64780
238.4349, 10.39701
238.9170, 10.25260
239.3991, 10.24165
239.8812, 10.29715
240.3633, 10.42135
240.8455, 10.72828
241.3276, 10.79947
241.8097, 10.47451
242.2918, 9.972525
242.7739, 9.806171
243.2560, 10.21783
243.7382, 10.58977
244.2203, 10.65971
244.7024, 10.26740
245.1845, 10.03192
245.6666, 10.02524
246.1487, 10.14127
246.6309, 10.17109
247.1130, 10.05622
247.5951, 9.949534
248.0772, 9.892366
248.5593, 9.867126
249.0414, 9.978261
249.5236, 10.37612
250.0057, 10.81509
250.4878, 10.85312
250.9699, 10.22675
251.4520, 9.669895
251.9341, 9.463723
252.4163, 9.717115
252.8984, 9.753881
253.3805, 9.434122
253.8626, 9.004068
254.3447, 8.836340
254.8268, 9.009371
255.3090, 9.284748
255.7911, 9.657263
256.2732, 10.17465
256.7553, 10.37925
257.2374, 10.12877
257.7195, 9.704979
258.2017, 9.449177
258.6838, 9.401472
259.1659, 9.432899
259.6480, 9.568045
260.1301, 9.818295
260.6122, 9.810575
261.0944, 9.399560
261.5765, 8.909793
262.0586, 8.701913
262.5407, 8.874354
263.0228, 9.057379
263.5049, 9.174344
263.9871, 9.228784
264.4692, 9.281477
264.9513, 9.327851
265.4334, 9.380568
265.9155, 9.476664
266.3976, 9.662195
266.8798, 9.719641
267.3619, 9.557427
267.8440, 9.215342
268.3261, 9.032536
268.8082, 9.039390
269.2903, 9.141052
269.7725, 9.283629
270.2546, 9.483405
270.7367, 9.647035
271.2188, 9.779375
271.7009, 9.861644
272.1830, 9.771147
272.6652, 9.433546
273.1473, 9.128820
273.6294, 9.108628
274.1115, 9.450760
274.5936, 9.578979
275.0757, 9.379307
275.5579, 8.971087
276.0400, 8.691837
276.5221, 8.553124
277.0042, 8.496327
277.4863, 8.505585
277.9684, 8.586096
278.4506, 8.671471
278.9327, 8.778909
279.4148, 8.861888
279.8969, 8.772731
280.3790, 8.477106
280.8611, 8.250940
281.3433, 8.315434
281.8254, 8.667116
282.3075, 8.780055
282.7896, 8.590783
283.2717, 8.268942
283.7538, 8.042270
284.2360, 7.909099
284.7181, 7.910995
285.2002, 8.159261
285.6823, 8.609785
286.1644, 8.847258
286.6465, 8.846315
287.1287, 8.717603
287.6108, 8.572321
288.0929, 8.411978
288.5750, 8.261446
289.0571, 8.082875
289.5392, 7.919770
290.0214, 8.044363
290.5035, 8.500597
290.9856, 8.881762
291.4677, 8.564672
291.9498, 7.691026
292.4319, 7.173753
292.9141, 7.473039
293.3962, 8.201357
293.8783, 8.413439
294.3604, 8.101282
294.8425, 7.700138
295.3246, 7.555988
295.8068, 7.622024
296.2889, 7.757332
296.7710, 7.973807
297.2531, 8.190472
297.7352, 8.237478
298.2173, 8.132870
298.6995, 8.031721
299.1816, 8.120287
299.6637, 8.287721
300.1458, 8.269745
300.6279, 7.955690
301.1100, 7.581565
301.5922, 7.414770
302.0743, 7.436790
302.5564, 7.572187
303.0385, 7.905156
303.5206, 8.282355
304.0027, 8.480967
304.4849, 8.454169
304.9670, 8.315255
305.4491, 8.083778
305.9312, 7.815910
306.4133, 7.646340
306.8954, 7.782928
307.3776, 7.975264
307.8597, 7.940217
308.3418, 7.642834
308.8239, 7.315848
309.3060, 7.065289
309.7881, 6.906791
310.2703, 6.872097
310.7524, 7.026789
311.2345, 7.268159
311.7166, 7.593065
312.1987, 7.991154
312.6808, 8.250768
313.1630, 8.160001
313.6451, 7.904708
314.1272, 7.684567
314.6093, 7.667724
315.0914, 7.606532
315.5735, 7.278293
316.0557, 6.753654
316.5378, 6.408017
317.0199, 6.473805
317.5020, 6.736858
317.9841, 7.060053
318.4662, 7.508807
318.9484, 7.860125
319.4305, 8.094963
319.9126, 8.182590
320.3947, 8.041976
320.8768, 7.254266
321.3589, 6.531831
321.8411, 6.272174
322.3232, 6.738889
322.8053, 7.149345
323.2874, 7.297503
323.7695, 7.309970
324.2516, 7.387214
324.7338, 7.759467
325.2159, 8.017308
325.6980, 7.995561
326.1801, 7.614130
326.6622, 7.281531
327.1443, 6.880207
327.6265, 6.600266
328.1086, 6.638404
328.5907, 7.518780
329.0728, 8.127481
329.5549, 8.167597
330.0370, 7.631163
330.5192, 7.357103
331.0013, 7.520329
331.4834, 7.795002
331.9655, 7.959686
332.4476, 7.952938
332.9297, 7.937766
333.4119, 7.901405
333.8940, 7.863708
334.3761, 7.937243
334.8582, 8.231049
335.3403, 8.460959
335.8224, 8.456625
336.3046, 8.110537
336.7867, 7.842631
337.2688, 7.646783
337.7509, 7.541826
338.2330, 7.610939
338.7151, 7.941425
339.1973, 8.167933
339.6794, 8.097723
340.1615, 7.711703
340.6436, 7.500049
341.1257, 7.533296
341.6078, 7.592511
342.0900, 7.314684
342.5721, 6.666375
343.0542, 6.207404
343.5363, 6.167850
344.0184, 6.446540
344.5005, 6.598660
344.9827, 6.608598
345.4648, 6.597633
345.9469, 6.673739
346.4290, 6.829660
346.9111, 7.016921
347.3932, 7.269937
347.8754, 7.491689
348.3575, 7.440334
348.8396, 7.137292
349.3217, 6.821890
349.8038, 6.607973
350.2859, 6.505516
350.7681, 6.594949
351.2502, 6.940028
351.7323, 7.266214
352.2144, 7.201050
352.6965, 6.844740
353.1786, 6.501911
353.6608, 6.280639
354.1429, 6.178065
354.6250, 6.229726
355.1071, 6.441103
355.5892, 6.664490
356.0714, 6.798231
356.5535, 6.868169
357.0356, 6.912392
357.5177, 6.948864
357.9998, 6.961358
358.4819, 6.919905
358.9641, 6.834853
359.4462, 6.764922
359.9283, 6.757745
360.4104, 6.769738
360.8925, 6.771928
361.3746, 6.792584
361.8568, 6.742025
362.3389, 6.470296
362.8210, 6.098671
363.3031, 5.895855
363.7852, 6.149264
364.2673, 6.427742
364.7495, 6.501672
365.2316, 6.269229
365.7137, 6.119757
366.1958, 6.196094
366.6779, 6.372694
367.1600, 6.502673
367.6422, 6.536639
368.1243, 6.556877
368.6064, 6.627277
369.0885, 6.757133
369.5706, 6.686296
370.0527, 6.136317
370.5349, 5.600572
371.0170, 5.406645
371.4991, 5.780788
371.9812, 6.125743
372.4633, 6.472661
372.9454, 6.761648
373.4276, 6.730254
373.9097, 6.143275
374.3918, 5.645296
374.8739, 5.583453
375.3560, 6.085477
375.8381, 6.447035
376.3203, 6.660468
376.8024, 6.739033
377.2845, 6.651468
377.7666, 6.354671
378.2487, 6.138450
378.7308, 6.156835
379.2130, 6.353518
379.6951, 6.290156
380.1772, 5.913631
380.6593, 5.547910
381.1414, 5.538894
381.6235, 5.847722
382.1057, 6.114963
382.5878, 6.267001
383.0699, 6.337807
383.5520, 6.392473
384.0341, 6.428468
384.5162, 6.415160
384.9984, 6.264146
385.4805, 6.058836
385.9626, 6.007213
386.4447, 6.155038
386.9268, 6.320038
387.4089, 6.343193
387.8911, 6.242442
388.3732, 6.057185
388.8553, 5.589967
389.3374, 5.180973
389.8195, 5.259799
390.3016, 5.798393
390.7838, 6.313159
391.2659, 6.488200
391.7480, 6.485904
392.2301, 6.474161
392.7122, 6.513467
393.1943, 6.531722
393.6765, 6.521525
394.1586, 6.466899
394.6407, 6.323800
395.1228, 5.910187
395.6049, 5.536096
396.0870, 5.347889
396.5692, 5.379895
397.0513, 5.549432
397.5334, 6.043336
398.0155, 6.602664
398.4976, 6.897685
398.9797, 6.598674
399.4619, 6.354369
399.9440, 6.325123
400.4261, 6.509551
400.9082, 6.593680
401.3903, 6.538125
401.8724, 6.419481
402.3546, 6.273387
402.8367, 6.049987
403.3188, 5.914543
403.8009, 5.900998
404.2830, 5.969964
404.7651, 6.031245
405.2473, 6.094761
405.7294, 6.118348
406.2115, 6.036807
406.6936, 5.842238
407.1757, 5.899558
407.6578, 6.293555
408.1400, 6.710183
408.6221, 6.705210
409.1042, 6.290990
409.5863, 6.059268
410.0684, 6.273990
410.5505, 6.685771
411.0327, 6.619373
411.5148, 6.090888
411.9969, 5.613179
412.4790, 5.639375
412.9611, 5.980494
413.4432, 6.165673
413.9254, 6.103931
414.4075, 6.000721
414.8896, 6.103875
415.3717, 6.338567
415.8538, 6.528516
416.3359, 6.625040
416.8181, 6.614903
417.3002, 6.422174
417.7823, 6.052866
418.2644, 5.746234
418.7465, 5.711631
419.2286, 5.767139
419.7108, 5.721458
420.1929, 5.301334
420.6750, 5.074701
421.1571, 5.511135
421.6392, 6.326217
422.1213, 6.770291
422.6035, 6.220066
423.0856, 5.622652
423.5677, 5.367681
424.0498, 5.564897
424.5319, 5.825854
425.0140, 6.354762
425.4962, 6.825125
425.9783, 6.885762
426.4604, 6.040776
426.9425, 5.523768
427.4246, 5.659305
427.9067, 6.323213
428.3889, 6.608823
428.8710, 6.333063
429.3531, 6.002967
429.8352, 5.927125
430.3173, 6.182511
430.7994, 6.301464
431.2816, 6.253843
431.7637, 6.095393
432.2458, 5.843422
432.7279, 5.480785
433.2100, 5.325209
433.6921, 5.602766
434.1743, 6.157193
434.6564, 6.370260
435.1385, 6.235426
435.6206, 6.050272
436.1027, 6.128305
436.5848, 6.357768
437.0670, 6.398521
437.5491, 6.116271
438.0312, 5.805026
438.5133, 5.832863
438.9954, 6.107491
439.4775, 6.372610
439.9597, 6.503298
440.4418, 6.561521
440.9239, 6.603681
441.4060, 6.633183
441.8881, 6.619693
442.3702, 6.503249
442.8524, 6.355234
443.3345, 6.244998
443.8166, 6.263383
444.2987, 6.237008
444.7808, 6.024726
445.2629, 5.715388
445.7451, 5.568518
446.2272, 5.827191
446.7093, 6.094785
447.1914, 6.186028
447.6735, 5.982264
448.1556, 5.990773
448.6378, 6.471289
449.1199, 6.989383
449.6020, 7.065375
450.0841, 6.402253
450.5662, 5.919188
451.0483, 5.782238
451.5305, 5.928690
452.0126, 6.114100
452.4947, 6.384714
452.9768, 6.556563
453.4589, 6.454065
453.9410, 6.065768
454.4232, 5.923102
454.9053, 6.088181
455.3874, 6.327352
455.8695, 6.307035
456.3516, 6.065611
456.8337, 5.887941
457.3159, 5.881227
457.7980, 5.977199
458.2801, 6.082696
458.7622, 6.191530
459.2443, 6.262211
459.7264, 6.211641
460.2086, 6.126384
460.6907, 6.138989
461.1728, 6.291355
461.6549, 6.432863
462.1370, 6.459462
462.6191, 6.404124
463.1013, 6.313561
463.5834, 6.062912
464.0655, 5.913095
464.5476, 6.085218
465.0297, 6.527764
465.5118, 6.805379
465.9940, 6.722523
466.4761, 6.495667
466.9582, 6.224802
467.4403, 5.790434
467.9224, 5.538805
468.4045, 5.505013
468.8867, 5.642210
469.3688, 5.919734
469.8509, 6.516728
470.3330, 6.913224
470.8151, 6.936977
471.2972, 6.629225
471.7794, 6.416636
472.2615, 6.308976
472.7436, 6.264591
473.2257, 6.283083
473.7078, 6.366491
474.1899, 6.368862
474.6721, 6.259345
475.1542, 6.121502
475.6363, 6.095532
476.1184, 6.162980
476.6005, 6.204115
477.0826, 6.141715
477.5648, 6.041747
478.0469, 6.030341
478.5290, 6.097087
479.0111, 6.147424
479.4932, 6.077215
479.9753, 5.969290
480.4575, 5.917978
480.9396, 5.941108
481.4217, 6.019444
481.9038, 6.181731
482.3859, 6.381591
482.8680, 6.548920
483.3502, 6.713115
483.8323, 6.789822
484.3144, 6.710885
484.7965, 6.488004
485.2786, 6.287922
485.7607, 6.077401
486.2429, 5.944286
486.7250, 5.939072
487.2071, 6.131855
487.6892, 6.300464
488.1713, 6.422533
488.6534, 6.535907
489.1356, 6.750642
489.6177, 7.203063
490.0998, 7.318852
490.5819, 6.791766
491.0640, 5.830515
491.5461, 5.595265
492.0283, 6.168450
492.5104, 6.840230
492.9925, 7.119179
493.4746, 7.071519
493.9567, 7.009959
494.4388, 6.953932
494.9210, 6.901045
495.4031, 6.882319
495.8852, 6.865560
496.3673, 6.759649
496.8494, 6.398056
497.3315, 6.060985
497.8137, 6.092835
498.2958, 6.408601
498.7779, 6.657615
499.2600, 6.585008
499.7421, 6.431222
500.2242, 6.372975
500.7064, 6.458214
501.1885, 6.517556
501.6706, 6.484742
502.1527, 6.408029
502.6348, 6.336289
503.1169, 6.264087
503.5991, 6.210311
504.0812, 6.152158
504.5633, 6.110951
505.0454, 6.188677
505.5275, 6.501108
506.0096, 6.727707
506.4918, 6.688419
506.9739, 6.344302
507.4560, 6.234694
507.9381, 6.419103
508.4202, 6.677316
508.9023, 6.786825
509.3845, 6.754504
509.8666, 6.700059
510.3487, 6.648463
510.8308, 6.579518
511.3129, 6.416989
511.7950, 6.190352
512.2772, 6.037227
512.7593, 6.123425
513.2414, 6.273619
513.7235, 6.188989
514.2056, 5.883802
514.6877, 5.757796
515.1699, 6.371960
515.6520, 7.123703
516.1341, 7.423106
516.6162, 6.906499
517.0983, 6.391196
517.5804, 6.162337
518.0626, 6.100609
518.5447, 6.010337
519.0268, 5.698735
519.5089, 5.532734
519.9910, 5.666232
520.4731, 6.072403
520.9553, 6.314781
521.4374, 6.287789
521.9195, 6.250972
522.4016, 6.393511
522.8837, 6.794221
523.3658, 6.925070
523.8480, 6.717619
524.3301, 6.376150
524.8122, 6.143170
525.2943, 6.017921
525.7764, 5.994318
526.2585, 6.112107
526.7407, 6.283406
527.2228, 6.352532
527.7049, 6.329698
528.1870, 6.274004
528.6691, 6.197038
529.1512, 6.118883
529.6334, 6.050970
530.1155, 5.992321
530.5976, 5.984146
531.0797, 6.083194
531.5618, 6.229353
532.0439, 6.363743
532.5261, 6.488174
533.0082, 6.578035
533.4903, 6.586571
533.9724, 6.560557
534.4545, 6.602500
534.9366, 6.881539
535.4188, 7.042038
535.9009, 6.949463
536.3830, 6.612495
536.8651, 6.424225
537.3472, 6.445495
537.8293, 6.496031
538.3115, 6.441407
538.7936, 6.269439
539.2757, 6.169875
539.7578, 6.156710
540.2399, 6.204766
540.7220, 6.339291
541.2042, 6.528340
541.6863, 6.585319
542.1684, 6.374467
542.6505, 6.096959
543.1326, 6.043988
543.6147, 6.177018
544.0969, 6.350373
544.5790, 6.562819
545.0611, 6.720960
545.5432, 6.700425
546.0253, 6.481035
546.5074, 6.323897
546.9896, 6.429027
547.4717, 6.592719
547.9538, 6.648415
548.4359, 6.439380
548.9180, 6.296702
549.4001, 6.217090
549.8823, 6.225708
550.3644, 6.405613
550.8465, 6.990151
551.3286, 7.292826
551.8107, 7.031709
552.2928, 6.313895
552.7750, 5.959714
553.2571, 6.016772
553.7392, 6.189162
554.2213, 6.318403
554.7034, 6.405045
555.1855, 6.442367
555.6677, 6.421980
556.1498, 6.412612
556.6319, 6.569072
557.1140, 6.782082
557.5961, 6.797965
558.0782, 6.415631
558.5604, 6.031501
559.0425, 6.032863
559.5246, 6.277452
560.0067, 6.449852
560.4888, 6.264171
560.9709, 6.119039
561.4531, 6.287199
561.9352, 6.773866
562.4173, 7.026868
562.8994, 6.732123
563.3815, 6.379562
563.8636, 6.219108
564.3458, 6.346238
564.8279, 6.411602
565.3100, 6.402102
565.7921, 6.348429
566.2742, 6.276715
566.7563, 6.180975
567.2385, 6.119383
567.7206, 6.099782
568.2027, 6.127827
568.6848, 6.247627
569.1669, 6.445696
569.6490, 6.608782
570.1312, 6.709711
570.6133, 6.725714
571.0954, 6.549598
571.5775, 6.196144
572.0596, 5.943636
572.5417, 6.037882
573.0239, 6.269154
573.5060, 6.462655
573.9881, 6.590337
574.4702, 6.675702
574.9523, 6.712925
575.4344, 6.717469
575.9166, 6.708671
576.3987, 6.693124
576.8808, 6.657489
577.3629, 6.590854
577.8450, 6.503839
578.3271, 6.435997
578.8093, 6.401682
579.2914, 6.341973
579.7735, 6.205952
580.2556, 6.015166
580.7377, 5.946916
581.2198, 6.011755
581.7020, 6.088482
582.1841, 6.065449
582.6662, 5.979148
583.1483, 5.915233
583.6304, 5.887142
584.1125, 5.875097
584.5947, 5.845194
585.0768, 5.824697
585.5589, 5.855305
586.0410, 6.036851
586.5231, 6.176209
587.0052, 6.118730
587.4874, 5.952388
587.9695, 5.913720
588.4516, 6.173414
588.9337, 6.437354
589.4158, 6.621597
589.8979, 6.725800
590.3801, 6.836512
590.8622, 6.992965
591.3443, 7.086557
591.8264, 7.026768
592.3085, 6.802275
592.7906, 6.595338
593.2728, 6.406840
593.7549, 6.251405
594.2370, 6.140792
594.7191, 6.074793
595.2012, 6.056573
595.6833, 6.093240
596.1655, 6.163708
596.6476, 6.237600
597.1297, 6.326927
597.6118, 6.461097
598.0939, 6.832432
598.5760, 7.093012
599.0582, 6.941512
599.5403, 6.434392
600.0224, 6.093896
600.5045, 6.189761
600.9866, 6.346859
601.4688, 6.393414
601.9509, 6.299396
602.4330, 6.211634
602.9151, 6.084119
603.3972, 6.028185
603.8793, 6.205303
604.3615, 6.655914
604.8436, 6.895865
605.3257, 6.828001
605.8078, 6.622542
606.2899, 6.546854
606.7720, 6.571912
607.2542, 6.565372
607.7363, 6.474998
608.2184, 6.332437
608.7005, 6.120679
609.1826, 5.875690
609.6647, 5.729902
610.1469, 5.766387
610.6290, 5.908240
611.1111, 6.171179
611.5932, 6.564002
612.0753, 6.803847
612.5574, 6.718493
613.0396, 6.555376
613.5217, 6.454080
614.0038, 6.431600
614.4859, 6.428131
614.9680, 6.452796
615.4501, 6.484080
615.9323, 6.486398
616.4144, 6.456140
616.8965, 6.469911
617.3786, 6.558017
617.8607, 6.666435
618.3428, 6.704329
618.8250, 6.680589
619.3071, 6.632318
619.7892, 6.565885
620.2713, 6.491117
620.7534, 6.379802
621.2355, 6.254375
621.7177, 6.224190
622.1998, 6.466580
622.6819, 6.718118
623.1640, 6.807220
623.6461, 6.687594
624.1282, 6.637225
624.6104, 6.805227
625.0925, 6.945975
625.5746, 6.902231
626.0567, 6.621369
626.5388, 6.255341
627.0209, 5.698905
627.5031, 5.246608
627.9852, 5.472701
628.4673, 6.329044
628.9494, 6.832883
629.4315, 6.646533
629.9136, 6.195133
630.3958, 6.135144
630.8779, 6.359685
631.3600, 6.550788
631.8421, 6.505660
632.3242, 6.407565
632.8063, 6.400623
633.2885, 6.468356
633.7706, 6.508218
634.2527, 6.491826
634.7348, 6.432835
635.2169, 6.318593
635.6990, 6.132089
636.1812, 5.989753
636.6633, 5.799542
637.1454, 5.770175
637.6275, 6.187943
638.1096, 7.205958
638.5917, 7.537098
639.0739, 6.971671
639.5560, 6.164170
640.0381, 5.973928
640.5202, 6.271602
641.0023, 6.489333
641.4844, 6.462410
641.9666, 6.346824
642.4487, 6.288817
642.9308, 6.270636
643.4129, 6.254327
643.8950, 6.229831
644.3771, 6.197392
644.8593, 6.102257
645.3414, 5.979064
645.8235, 6.005067
646.3056, 6.490678
646.7877, 6.829919
647.2698, 6.744637
647.7520, 6.209742
648.2341, 6.027493
648.7162, 6.309629
649.1983, 6.637320
649.6804, 6.682706
650.1625, 6.477879
650.6447, 6.316532
651.1268, 6.212549
651.6089, 6.165114
652.0910, 6.202199
652.5731, 6.290148
653.0552, 6.380481
653.5374, 6.485521
654.0195, 6.529402
654.5016, 6.396623
654.9837, 6.192872
655.4658, 6.072597
655.9479, 6.050269
656.4301, 6.145776
656.9122, 6.509475
657.3943, 6.989644
657.8764, 7.146749
658.3585, 6.838764
658.8406, 6.538323
659.3228, 6.377769
659.8049, 6.345464
660.2870, 6.425342
660.7691, 6.622437
661.2512, 6.792082
661.7333, 6.810920
662.2155, 6.745720
662.6976, 6.747930
663.1797, 6.818698
663.6618, 6.822482
664.1439, 6.496642
664.6260, 6.162856
665.1082, 6.165703
665.5903, 6.706159
666.0724, 7.074865
666.5545, 7.026849
667.0366, 6.770468
667.5187, 6.485760
668.0009, 6.052901
668.4830, 5.855505
668.9651, 5.982036
669.4472, 6.274858
669.9293, 6.516754
670.4114, 6.708200
670.8936, 6.816486
671.3757, 6.823865
671.8578, 6.757528
672.3399, 6.616800
672.8220, 6.431129
673.3041, 6.303290
673.7863, 6.283618
674.2684, 6.340009
674.7505, 6.511657
675.2326, 6.761909
675.7147, 6.911783
676.1968, 6.813836
676.6790, 6.690384
677.1611, 6.614273
677.6432, 6.581580
678.1253, 6.686677
678.6074, 7.041998
679.0895, 7.323342
679.5717, 7.272578
680.0538, 6.889344
680.5359, 6.626953
681.0180, 6.501943
681.5001, 6.440132
681.9822, 6.383837
682.4644, 6.336082
682.9465, 6.288310
683.4286, 6.219186
683.9107, 6.231656
684.3928, 6.552951
684.8749, 6.936606
685.3571, 7.089576
685.8392, 6.598620
686.3213, 6.291170
686.8034, 6.454412
687.2855, 6.823773
687.7676, 6.982949
688.2498, 6.859303
688.7319, 6.706085
689.2140, 6.560363
689.6961, 6.428719
690.1782, 6.314625
690.6603, 6.221269
691.1425, 6.213058
691.6246, 6.384671
692.1067, 6.617830
692.5888, 6.748263
693.0709, 6.781559
693.5530, 6.738350
694.0352, 6.538094
694.5173, 6.339396
694.9994, 6.221517
695.4815, 6.190181
695.9636, 6.268120
696.4457, 6.643268
696.9279, 6.946055
697.4100, 6.958833
697.8921, 6.604591
698.3742, 6.526164
698.8563, 6.815928
699.3384, 7.097047
699.8206, 6.877892
700.3027, 6.321661
700.7848, 6.292890
701.2669, 6.950260
701.7490, 7.609736
702.2311, 7.514670
702.7133, 7.051387
703.1954, 6.772356
703.6775, 6.941112
704.1596, 7.045886
704.6417, 6.775564
705.1238, 6.365803
705.6060, 6.155225
706.0881, 6.330717
706.5702, 6.412422
707.0523, 6.296971
707.5344, 6.106715
708.0165, 6.138448
708.4987, 6.412745
708.9808, 6.571082
709.4629, 6.444659
709.9450, 6.218443
710.4271, 6.321647
710.9092, 6.649703
711.3914, 6.818076
711.8735, 6.356876
712.3556, 5.892827
712.8377, 5.933423
713.3198, 6.388535
713.8019, 6.774324
714.2841, 6.975838
714.7662, 7.066045
715.2483, 7.054386
715.7304, 6.944559
716.2125, 6.817273
716.6946, 6.650443
717.1768, 6.523963
717.6589, 6.496444
718.1410, 6.556276
718.6231, 6.616978
719.1052, 6.679066
719.5873, 6.754161
720.0695, 6.939179
720.5516, 7.103068
721.0337, 7.010930
721.5158, 6.595808
721.9979, 6.309543
722.4800, 6.533363
722.9622, 6.862569
723.4443, 6.953411
723.9264, 6.571986
724.4085, 6.403574
724.8906, 6.549082
725.3727, 6.787225
725.8549, 6.907637
726.3370, 6.907716
726.8191, 6.814262
727.3012, 6.602021
727.7833, 6.402580
728.2654, 6.427474
728.7476, 6.598639
729.2297, 6.739600
729.7118, 6.822349
730.1939, 6.816296
730.6760, 6.628592
731.1581, 6.356854
731.6403, 6.148566
732.1224, 6.088058
732.6045, 6.031945
733.0866, 5.928791
733.5687, 5.828012
734.0508, 5.847820
734.5330, 6.020977
735.0151, 6.180756
735.4972, 6.286356
735.9793, 6.350574
736.4614, 6.393912
736.9435, 6.419044
737.4257, 6.439681
737.9078, 6.490441
738.3899, 6.518132
738.8720, 6.441257
739.3541, 6.293023
739.8362, 6.191367
740.3184, 6.194684
740.8005, 6.235944
741.2826, 6.308063
741.7647, 6.403921
742.2468, 6.471492
742.7289, 6.514382
743.2111, 6.517949
743.6932, 6.452586
744.1753, 6.338984
744.6574, 6.272332
745.1395, 6.254849
745.6216, 6.346218
746.1038, 6.767474
746.5859, 7.222194
747.0680, 7.251970
747.5501, 6.858457
748.0322, 6.578620
748.5143, 6.806079
748.9965, 7.105414
749.4786, 7.216384
749.9607, 7.093530
750.4428, 6.912178
750.9249, 6.591393
751.4070, 6.343354
751.8892, 6.357636
752.3713, 6.629153
752.8534, 6.831325
753.3355, 6.955851
753.8176, 7.023250
754.2997, 6.994676
754.7819, 6.943428
755.2640, 7.024894
755.7461, 7.298586
756.2282, 7.462344
756.7103, 7.291307
757.1924, 6.977124
757.6746, 6.674114
758.1567, 6.337204
758.6388, 6.151253
759.1209, 6.180736
759.6030, 6.281032
760.0851, 6.295096
760.5673, 6.218885
761.0494, 6.190998
761.5315, 6.233698
762.0136, 6.296861
762.4957, 6.281632
762.9778, 6.251245
763.4600, 6.345320
763.9421, 6.662348
764.4242, 6.948428
764.9063, 7.049037
765.3884, 7.045812
765.8705, 7.037953
766.3527, 7.031480
766.8348, 7.036521
767.3169, 7.074834
767.7990, 7.105555
768.2811, 7.046515
768.7632, 6.890892
769.2454, 6.792102
769.7275, 6.792211
770.2096, 6.834142
770.6917, 6.883204
771.1738, 6.909050
771.6559, 6.834229
772.1381, 6.515942
772.6202, 6.254205
773.1023, 6.294542
773.5844, 6.482362
774.0665, 6.540915
774.5486, 6.294536
775.0308, 6.123530
775.5129, 6.084262
775.9950, 6.140290
776.4771, 6.227195
776.9592, 6.347430
777.4413, 6.448860
777.9235, 6.516931
778.4056, 6.559125
778.8877, 6.588727
779.3698, 6.601850
779.8519, 6.588351
780.3340, 6.499412
780.8162, 6.428803
781.2983, 6.459960
781.7804, 6.542623
782.2625, 6.532116
782.7446, 6.320292
783.2267, 6.181970
783.7089, 6.183390
784.1910, 6.287528
784.6731, 6.389543
785.1552, 6.489998
785.6373, 6.626535
786.1194, 6.873199
786.6016, 7.095339
787.0837, 7.051650
787.5658, 6.814604
788.0479, 6.583091
788.5300, 6.302837
789.0121, 6.202569
789.4943, 6.612471
789.9764, 7.324075
790.4585, 7.488658
790.9406, 6.692314
791.4227, 6.150460
791.9048, 6.309521
792.3870, 6.893897
792.8691, 6.936811
793.3512, 6.479707
793.8333, 6.158243
794.3154, 6.384604
794.7975, 6.807552
795.2797, 7.077047
795.7618, 7.194706
796.2439, 7.154073
796.7260, 6.728152
797.2081, 6.379527
797.6902, 6.388656
798.1724, 6.639051
798.6545, 6.630067
799.1366, 6.190989
799.6187, 5.971704
800.1008, 6.305794
800.5829, 6.931711
801.0651, 6.966273
801.5472, 6.504827
802.0293, 6.164088
802.5114, 6.457483
802.9935, 6.877269
803.4756, 6.926337
803.9578, 6.703658
804.4399, 6.545579
804.9220, 6.620084
805.4041, 6.698293
805.8862, 6.701927
806.3683, 6.655290
806.8505, 6.672681
807.3326, 6.775102
807.8147, 6.837807
808.2968, 6.805846
808.7789, 6.711582
809.2610, 6.574768
809.7432, 6.425867
810.2253, 6.389088
810.7074, 6.608736
811.1895, 6.888000
811.6716, 7.170518
812.1537, 7.421206
812.6359, 7.519065
813.1180, 7.382003
813.6001, 7.170390
814.0822, 6.862645
814.5643, 6.520651
815.0464, 6.404829
815.5286, 6.519456
816.0107, 6.627952
816.4928, 6.625375
816.9749, 6.570970
817.4570, 6.534056
817.9391, 6.518538
818.4213, 6.534645
818.9034, 6.668677
819.3855, 6.749784
819.8676, 6.604230
820.3497, 6.343930
820.8318, 6.365491
821.3140, 6.850512
821.7961, 7.187447
822.2782, 7.208579
822.7603, 7.005379
823.2424, 6.736247
823.7245, 6.421979
824.2067, 6.204218
824.6888, 6.156568
825.1709, 6.205186
825.6530, 6.300954
826.1351, 6.440146
826.6172, 6.610075
827.0994, 6.987836
827.5815, 7.167599
828.0636, 6.974504
828.5457, 6.589187
829.0278, 6.373053
829.5099, 6.337419
829.9921, 6.426666
830.4742, 6.675379
830.9563, 6.948263
831.4384, 7.010607
831.9205, 6.923335
832.4026, 6.842614
832.8848, 6.826131
833.3669, 6.827273
833.8490, 6.890250
834.3311, 6.937608
834.8132, 6.810848
835.2953, 6.263904
835.7775, 6.021263
836.2596, 6.233780
836.7417, 6.683035
837.2238, 7.101380
837.7059, 7.472953
838.1880, 7.579087
838.6702, 7.311404
839.1523, 6.960650
839.6344, 6.815295
840.1165, 6.778443
840.5986, 6.705765
841.0807, 6.433548
841.5629, 6.335076
842.0450, 6.663787
842.5271, 7.075907
843.0092, 7.218517
843.4913, 7.044131
843.9734, 6.844514
844.4556, 6.621730
844.9377, 6.465837
845.4198, 6.581287
845.9019, 6.824924
846.3840, 6.845496
846.8661, 6.507096
847.3483, 6.288457
847.8304, 6.677017
848.3125, 7.176744
848.7946, 7.305172
849.2767, 6.807111
849.7589, 6.538206
850.2410, 6.568858
850.7231, 6.695406
851.2052, 6.754771
851.6873, 6.753599
852.1694, 6.729144
852.6516, 6.682161
853.1337, 6.646534
853.6158, 6.658653
854.0979, 6.689763
854.5800, 6.680570
855.0621, 6.604225
855.5443, 6.680984
856.0264, 7.163332
856.5085, 7.588945
856.9906, 7.711982
857.4727, 7.532545
857.9548, 7.371699
858.4370, 7.226186
858.9191, 7.132083
859.4012, 7.160594
859.8833, 7.233456
860.3654, 7.230696
860.8475, 7.152525
861.3297, 7.038126
861.8118, 6.827671
862.2939, 6.658018
862.7760, 6.596663
863.2581, 6.635453
863.7402, 6.756110
864.2224, 6.998580
864.7045, 7.184135
865.1866, 7.231390
865.6687, 7.175431
866.1508, 7.060094
866.6329, 6.908022
867.1151, 6.821677
867.5972, 6.969163
868.0793, 7.087031
868.5614, 6.986958
869.0435, 6.729189
869.5256, 6.497357
870.0078, 6.212888
870.4899, 6.137911
870.9720, 6.396515
871.4541, 6.816197
871.9362, 7.028349
872.4183, 7.048931
872.9005, 6.983675
873.3826, 6.806093
873.8647, 6.680987
874.3468, 6.856837
874.8289, 7.164163
875.3110, 7.344271
875.7932, 7.164281
876.2753, 7.071115
876.7574, 7.155053
877.2395, 7.291020
877.7216, 7.359344
878.2037, 7.364130
878.6859, 7.147919
879.1680, 6.633122
879.6501, 6.191924
880.1322, 6.363920
880.6143, 6.811141
881.0964, 7.008440
881.5786, 6.790896
882.0607, 6.648388
882.5428, 6.801074
883.0249, 7.056606
883.5070, 7.319871
883.9891, 7.638885
884.4713, 7.629220
884.9534, 7.232820
885.4355, 6.804732
885.9176, 6.636346
886.3997, 6.632979
886.8818, 6.610594
887.3640, 6.562849
887.8461, 6.531437
888.3282, 6.542678
888.8103, 6.573476
889.2924, 6.562129
889.7745, 6.524741
890.2567, 6.767869
890.7388, 7.447380
891.2209, 7.918113
891.7030, 7.817932
892.1851, 7.390768
892.6672, 7.311431
893.1494, 7.494567
893.6315, 7.573684
894.1136, 7.192689
894.5957, 6.825250
895.0778, 6.772306
895.5599, 6.934769
896.0421, 7.063731
896.5242, 7.187414
897.0063, 7.170230
897.4884, 6.924340
897.9705, 6.622070
898.4526, 6.607556
898.9348, 6.827462
899.4169, 7.059587
899.8990, 7.294258
900.3811, 7.391397
900.8632, 7.055106
901.3453, 6.608745
901.8275, 6.428426
902.3096, 6.802699
902.7917, 7.068925
903.2738, 7.237917
903.7559, 7.274638
904.2380, 7.055730
904.7202, 6.627211
905.2023, 6.506582
905.6844, 6.731894
906.1665, 6.945113
906.6486, 6.748229
907.1307, 6.476671
907.6129, 6.482985
908.0950, 6.820403
908.5771, 7.022004
909.0592, 6.893782
909.5413, 6.806647
910.0234, 6.942970
910.5056, 7.252366
910.9877, 7.446909
911.4698, 7.525904
911.9519, 7.474471
912.4340, 7.119180
912.9161, 6.758975
913.3983, 6.770345
913.8804, 7.030039
914.3625, 7.195208
914.8446, 7.117920
915.3267, 7.000249
915.8088, 6.867986
916.2910, 6.723132
916.7731, 6.522447
917.2552, 6.271055
917.7373, 6.229037
918.2194, 6.502328
918.7015, 6.846639
919.1837, 7.025718
919.6658, 7.097647
920.1479, 7.136613
920.6300, 7.139449
921.1121, 7.156663
921.5942, 7.207487
922.0764, 7.261860
922.5585, 7.315418
923.0406, 7.371632
923.5227, 7.286368
924.0048, 7.046460
924.4869, 6.825500
924.9691, 6.767131
925.4512, 6.801279
925.9333, 6.874809
926.4154, 6.978804
926.8975, 7.045152
927.3796, 7.054846
927.8618, 7.017437
928.3439, 6.906779
928.8260, 6.751753
929.3081, 6.694551
929.7902, 6.734172
930.2723, 6.859914
930.7545, 7.144979
931.2366, 7.420390
931.7187, 7.437170
932.2008, 7.301038
932.6829, 7.229093
933.1650, 7.347622
933.6472, 7.459373
934.1293, 7.588613
934.6114, 7.653358
935.0935, 7.481859
935.5756, 7.076437
936.0577, 6.819054
936.5399, 6.776785
937.0220, 6.804339
937.5041, 6.760314
937.9862, 6.707030
938.4683, 6.718511
938.9504, 6.813179
939.4326, 6.940770
939.9147, 7.144237
940.3968, 7.306867
940.8789, 7.329341
941.3610, 7.233458
941.8431, 7.394485
942.3253, 7.798600
942.8074, 8.012695
943.2895, 7.548763
943.7716, 6.941819
944.2537, 6.691344
944.7358, 6.720819
945.2180, 6.704699
945.7001, 6.380372
946.1822, 6.294006
946.6643, 6.644743
947.1464, 7.188102
947.6285, 7.399732
948.1107, 7.316616
948.5928, 7.193120
949.0749, 7.073577
949.5570, 6.994025
950.0391, 6.988429
950.5212, 7.039843
951.0034, 7.146953
951.4855, 7.416715
951.9676, 7.452303
952.4497, 7.110242
952.9318, 6.778733
953.4139, 6.816150
953.8961, 7.144351
954.3782, 7.319932
954.8603, 7.335471
955.3424, 7.252676
955.8245, 6.944503
956.3066, 6.698587
956.7888, 6.786227
957.2709, 7.163133
957.7530, 7.397003
958.2351, 7.439243
958.7172, 7.423355
959.1993, 7.388024
959.6815, 7.312711
960.1636, 7.061881
960.6457, 6.726558
961.1278, 6.628976
961.6099, 7.018207
962.0920, 7.373209
962.5742, 7.337707
963.0563, 7.143114
963.5384, 7.053743
964.0205, 7.109095
964.5026, 7.198628
964.9847, 7.349776
965.4669, 7.433881
965.9490, 7.239085
966.4311, 6.920093
966.9132, 6.818002
967.3953, 6.939737
967.8774, 7.069747
968.3596, 7.103149
968.8417, 7.114923
969.3238, 7.111951
969.8059, 7.114408
970.2880, 7.252248
970.7701, 7.555024
971.2523, 7.743970
971.7344, 7.689764
972.2165, 7.538444
972.6986, 7.458473
973.1807, 7.444932
973.6628, 7.496280
974.1450, 7.754668
974.6271, 7.837472
975.1092, 7.560368
975.5913, 7.186831
976.0734, 6.934495
976.5555, 6.804239
977.0377, 6.789436
977.5198, 6.894750
978.0019, 7.026320
978.4840, 7.145223
978.9661, 7.227410
979.4482, 7.206171
979.9304, 7.091001
980.4125, 7.100428
980.8946, 7.415732
981.3767, 7.613643
981.8588, 7.526973
982.3409, 7.276409
982.8231, 7.199693
983.3052, 7.271201
983.7873, 7.369305
984.2694, 7.504973
984.7515, 7.547935
985.2336, 7.293685
985.7158, 6.942452
986.1979, 6.761889
986.6800, 6.816238
987.1621, 6.954767
987.6442, 7.236896
988.1263, 7.435641
988.6085, 7.200802
989.0906, 6.758233
989.5727, 6.712646
990.0548, 7.059403
990.5369, 7.412367
991.0190, 7.713399
991.5012, 7.825279
991.9833, 7.565444
992.4654, 7.069645
992.9475, 6.790303
993.4296, 6.746933
993.9117, 6.757799
994.3939, 6.771668
994.8760, 6.811636
995.3581, 6.915370
995.8402, 7.063975
996.3223, 7.246379
996.8044, 7.555647
997.2866, 7.672007
997.7687, 7.433215
998.2508, 7.141840
998.7329, 7.043106
999.2150, 7.125665
999.6971, 7.086761
1000.179, 6.929794
1000.661, 6.808914
1001.143, 6.902137
1001.626, 7.012000
1002.108, 6.915732
1002.590, 6.681495
1003.072, 6.685925
1003.554, 7.094095
1004.036, 7.376839
1004.518, 7.405135
1005.000, 7.296805
1005.483, 7.251987
1005.965, 7.231658
1006.447, 7.102997
1006.929, 6.782031
1007.411, 6.570082
1007.893, 6.714772
1008.375, 6.945006
1008.857, 7.041068
1009.339, 6.985200
1009.822, 7.099203
1010.304, 7.409728
1010.786, 7.595112
1011.268, 7.265582
1011.750, 6.823863
1012.232, 6.857045
1012.714, 7.210433
1013.196, 7.431319
1013.679, 7.230937
1014.161, 7.090399
1014.643, 7.091395
1015.125, 7.167152
1015.607, 7.241480
1016.089, 7.309031
1016.571, 7.330517
1017.053, 7.296557
1017.535, 7.256016
1018.018, 7.218176
1018.500, 7.210474
1018.982, 7.259518
1019.464, 7.367810
1019.946, 7.527730
1020.428, 7.802798
1020.910, 7.877809
1021.392, 7.505013
1021.875, 6.972733
1022.357, 6.880993
1022.839, 7.074882
1023.321, 7.191438
1023.803, 6.954248
1024.285, 6.835829
1024.767, 7.109737
1025.249, 7.415370
1025.731, 7.337478
1026.214, 6.869136
1026.696, 6.752635
1027.178, 7.030856
1027.660, 7.336877
1028.142, 7.332797
1028.624, 7.272414
1029.106, 7.476837
1029.588, 7.884614
1030.071, 7.904671
1030.553, 7.257369
1031.035, 6.841174
1031.517, 6.942941
1031.999, 7.263544
1032.481, 7.257053
1032.963, 7.036322
1033.445, 6.882023
1033.927, 6.858466
1034.410, 6.917235
1034.892, 7.192622
1035.374, 7.403656
1035.856, 7.301206
1036.338, 6.872243
1036.820, 6.783084
1037.302, 7.040719
1037.784, 7.336993
1038.266, 7.518411
1038.749, 7.619143
1039.231, 7.637876
1039.713, 7.603814
1040.195, 7.588706
1040.677, 7.682740
1041.159, 7.639182
1041.641, 7.374703
1042.123, 7.090889
1042.605, 7.056712
1043.088, 7.198942
1043.570, 7.345286
1044.052, 7.476925
1044.534, 7.498097
1045.016, 7.224134
1045.498, 6.960252
1045.980, 6.876173
1046.462, 6.934573
1046.945, 6.951807
1047.427, 6.923907
1047.909, 7.014683
1048.391, 7.384702
1048.873, 7.642310
1049.355, 7.081052
1049.837, 6.271463
1050.319, 6.010919
1050.802, 6.792577
1051.284, 7.357207
1051.766, 7.653003
1052.248, 7.797433
1052.730, 7.845212
1053.212, 7.807197
1053.694, 7.671189
1054.176, 7.467108
1054.658, 7.331795
1055.141, 7.421875
1055.623, 7.486848
1056.105, 7.350764
1056.587, 7.185767
1057.069, 7.301482
1057.551, 7.710517
1058.033, 7.925739
1058.515, 7.869427
1058.998, 7.779009
1059.480, 7.928525
1059.962, 8.103508
1060.444, 8.075384
1060.926, 7.822820
1061.408, 7.636521
1061.890, 7.520290
1062.372, 7.496374
1062.854, 7.612443
1063.337, 7.764679
1063.819, 7.716826
1064.301, 7.556183
1064.783, 7.488170
1065.265, 7.645522
1065.747, 7.717397
1066.229, 7.510189
1066.711, 7.282167
1067.193, 7.200240
1067.676, 7.257130
1068.158, 7.309582
1068.640, 7.356389
1069.122, 7.378337
1069.604, 7.388212
1070.086, 7.345177
1070.568, 7.107666
1071.050, 6.824586
1071.532, 6.834992
1072.015, 7.250890
1072.497, 7.587624
1072.979, 7.802581
1073.461, 7.926582
1073.943, 7.985622
1074.425, 7.979861
1074.907, 7.865242
1075.389, 7.649503
1075.872, 7.537179
1076.354, 7.674232
1076.836, 7.792735
1077.318, 7.842321
1077.800, 7.807139
1078.282, 7.607912
1078.764, 7.287557
1079.246, 6.976831
1079.729, 6.662677
1080.211, 6.525832
1080.693, 6.836860
1081.175, 7.224214
1081.657, 7.397744
1082.139, 7.358095
1082.621, 7.326975
1083.103, 7.303395
1083.585, 7.339698
1084.068, 7.569829
1084.550, 7.759824
1085.032, 7.628129
1085.514, 7.310646
1085.996, 7.038003
1086.478, 6.715626
1086.960, 6.754385
1087.442, 7.259149
1087.925, 7.835393
1088.407, 8.204691
1088.889, 8.348608
1089.371, 8.086031
1089.853, 7.503530
1090.335, 7.167035
1090.817, 7.551740
1091.299, 7.869214
1091.781, 7.909258
1092.264, 7.811503
1092.746, 7.850037
1093.228, 7.983930
1093.710, 7.995612
1094.192, 7.834670
1094.674, 7.681913
1095.156, 7.601126
1095.638, 7.620853
1096.120, 7.862123
1096.603, 8.252011
1097.085, 8.174507
1097.567, 7.606084
1098.049, 7.189477
1098.531, 7.218036
1099.013, 7.366351
1099.495, 7.263707
1099.977, 7.087522
1100.459, 7.079254
1100.942, 7.351055
1101.424, 7.564483
1101.906, 7.734106
1102.388, 7.797353
1102.870, 7.616538
1103.352, 7.355917
1103.834, 7.355752
1104.316, 7.544088
1104.799, 7.718454
1105.281, 7.890574
1105.763, 7.902411
1106.245, 7.621469
1106.727, 7.348619
1107.209, 7.525397
1107.691, 8.009848
1108.173, 8.156262
1108.656, 7.950250
1109.138, 7.741399
1109.620, 7.887197
1110.102, 7.893571
1110.584, 7.337943
1111.066, 6.569942
1111.548, 6.357032
1112.030, 6.687951
1112.512, 7.064179
1112.995, 7.414303
1113.477, 7.692262
1113.959, 7.858595
1114.441, 7.936347
1114.923, 7.910728
1115.405, 7.789846
1115.887, 7.729719
1116.369, 7.729983
1116.852, 7.810750
1117.334, 8.039869
1117.816, 8.226135
1118.298, 8.020282
1118.780, 7.645940
1119.262, 7.436277
1119.744, 7.532540
1120.226, 7.584719
1120.708, 7.593932
1121.191, 7.521163
1121.673, 7.259792
1122.155, 6.948798
1122.637, 6.938448
1123.119, 7.153281
1123.601, 7.384937
1124.083, 7.572717
1124.565, 7.745303
1125.047, 7.936282
1125.530, 8.080066
1126.012, 8.115249
1126.494, 8.050156
1126.976, 7.857955
1127.458, 7.570296
1127.940, 7.447392
1128.422, 7.905291
1128.904, 8.256661
1129.386, 8.089954
1129.869, 7.694329
1130.351, 7.491093
1130.833, 7.477982
1131.315, 7.537573
1131.797, 7.660620
1132.279, 7.786892
1132.761, 7.913836
1133.243, 7.986431
1133.726, 7.928273
1134.208, 7.771249
1134.690, 7.671709
1135.172, 7.634947
1135.654, 7.603754
1136.136, 7.547452
1136.618, 7.556562
1137.100, 7.858456
1137.583, 8.200518
1138.065, 8.256135
1138.547, 7.926528
1139.029, 7.833344
1139.511, 8.068486
1139.993, 8.248243
1140.475, 8.217878
1140.957, 8.056618
1141.439, 7.818775
1141.922, 7.562254
1142.404, 7.365610
1142.886, 7.188436
1143.368, 7.290672
1143.850, 7.818063
1144.332, 8.322542
1144.814, 8.560732
1145.296, 8.553765
1145.779, 8.242050
1146.261, 7.729903
1146.743, 7.312858
1147.225, 7.013155
1147.707, 6.996217
1148.189, 7.465461
1148.671, 7.944118
1149.153, 7.928983
1149.635, 7.548285
1150.118, 7.427102
1150.600, 7.553953
1151.082, 7.730725
1151.564, 7.935453
1152.046, 8.071812
1152.528, 8.068804
1153.010, 8.008275
1153.492, 8.026320
1153.974, 8.105299
1154.457, 7.966115
1154.939, 7.591081
1155.421, 7.364344
1155.903, 7.764463
1156.385, 8.172276
1156.867, 8.148295
1157.349, 7.879101
1157.831, 7.804788
1158.313, 7.929903
1158.796, 7.864599
1159.278, 7.515014
1159.760, 7.208895
1160.242, 7.247457
1160.724, 7.425102
1161.206, 7.630807
1161.688, 7.837288
1162.170, 7.884588
1162.653, 7.752220
1163.135, 7.684468
1163.617, 7.758292
1164.099, 7.889719
1164.581, 8.090658
1165.063, 8.239878
1165.545, 8.140491
1166.027, 7.738305
1166.510, 7.654752
1166.992, 7.966827
1167.474, 8.157845
1167.956, 7.977583
1168.438, 7.649626
1168.920, 7.351986
1169.402, 7.143621
1169.884, 7.117755
1170.366, 7.351617
1170.849, 7.611010
1171.331, 7.928435
1171.813, 8.159087
1172.295, 8.217596
1172.777, 8.146969
1173.259, 7.892364
1173.741, 7.589662
1174.223, 7.520316
1174.706, 8.079943
1175.188, 8.271934
1175.670, 7.966081
1176.152, 7.608621
1176.634, 7.541392
1177.116, 7.651474
1177.598, 7.773164
1178.080, 7.876521
1178.563, 7.880754
1179.045, 7.663122
1179.527, 7.480378
1180.009, 7.335515
1180.491, 7.261815
1180.973, 7.332370
1181.455, 7.481563
1181.937, 7.563975
1182.419, 7.580826
1182.901, 7.570244
1183.384, 7.428167
1183.866, 7.445236
1184.348, 7.720664
1184.830, 8.072024
1185.312, 8.330603
1185.794, 8.470772
1186.276, 8.359607
1186.758, 8.015092
1187.240, 7.732557
1187.723, 7.629954
1188.205, 7.638927
1188.687, 7.799205
1189.169, 7.979254
1189.651, 7.926826
1190.133, 7.716920
1190.615, 7.596769
1191.097, 7.598480
1191.580, 7.558394
1192.062, 7.180228
1192.544, 7.055315
1193.026, 7.495812
1193.508, 8.171412
1193.990, 8.336157
1194.472, 8.113303
1194.954, 7.928044
1195.437, 7.862050
1195.919, 7.793119
1196.401, 7.648849
1196.883, 7.504013
1197.365, 7.364141
1197.847, 7.263150
1198.329, 7.318299
1198.811, 7.502053
1199.293, 7.719160
1199.776, 7.961709
1200.258, 8.165747
1200.740, 8.406296
1201.222, 8.460940
1201.704, 8.098670
1202.186, 7.513497
1202.668, 7.611449
1203.150, 8.208794
1203.633, 8.561118
1204.115, 8.376177
1204.597, 8.084431
1205.079, 7.782123
1205.561, 7.531657
1206.043, 7.364738
1206.525, 7.283539
1207.007, 7.339956
1207.490, 7.509216
1207.972, 7.695895
1208.454, 7.943790
1208.936, 8.036090
1209.418, 7.628606
1209.900, 7.274423
1210.382, 7.406711
1210.864, 7.925752
1211.346, 8.109098
1211.828, 8.021453
1212.311, 7.976908
1212.793, 8.272651
1213.275, 8.392535
1213.757, 7.923811
1214.239, 7.424340
1214.721, 7.344734
1215.203, 7.621934
1215.685, 7.782336
1216.167, 7.842217
1216.650, 7.892707
1217.132, 8.055091
1217.614, 8.110033
1218.096, 7.884409
1218.578, 7.636154
1219.060, 7.609231
1219.542, 7.768848
1220.024, 7.860428
1220.507, 7.900425
1220.989, 8.008421
1221.471, 8.457882
1221.953, 8.688673
1222.435, 8.407833
1222.917, 8.013842
1223.399, 7.897646
1223.881, 8.022875
1224.364, 8.321650
1224.846, 8.730374
1225.328, 8.887739
1225.810, 8.310303
1226.292, 7.879110
1226.774, 7.902863
1227.256, 8.024038
1227.738, 7.709758
1228.220, 7.144910
1228.703, 7.032123
1229.185, 7.357184
1229.667, 7.747546
1230.149, 8.226879
1230.631, 8.462702
1231.113, 8.296113
1231.595, 8.014940
1232.077, 8.025094
1232.560, 8.209700
1233.042, 8.209105
1233.524, 8.028301
1234.006, 7.919617
1234.488, 8.110900
1234.970, 8.202363
1235.452, 8.082148
1235.934, 7.901412
1236.417, 7.927367
1236.899, 8.027572
1237.381, 7.804047
1237.863, 7.283431
1238.345, 7.015872
1238.827, 7.359498
1239.309, 7.724158
1239.791, 8.035673
1240.273, 8.294905
1240.755, 8.580091
1241.238, 8.786711
1241.720, 8.615478
1242.202, 8.088610
1242.684, 7.787723
1243.166, 7.949294
1243.648, 8.068408
1244.130, 8.034309
1244.612, 7.973259
1245.094, 8.125270
1245.577, 8.319014
1246.059, 8.201307
1246.541, 7.782449
1247.023, 7.712479
1247.505, 8.184773
1247.987, 8.595098
1248.469, 8.838144
1248.951, 8.906028
1249.434, 8.689613
1249.916, 8.353842
1250.398, 8.045186
1250.880, 7.796148
1251.362, 7.739376
1251.844, 7.936539
1252.326, 8.050567
1252.808, 8.000100
1253.291, 7.877696
1253.773, 7.618051
1254.255, 7.461629
1254.737, 7.796545
1255.219, 8.548155
1255.701, 8.804205
1256.183, 8.502020
1256.665, 8.241907
1257.147, 8.156977
1257.630, 8.160742
1258.112, 8.293752
1258.594, 8.381830
1259.076, 8.175905
1259.558, 7.784415
1260.040, 7.730255
1260.522, 8.008368
1261.004, 8.138160
1261.487, 7.985692
1261.969, 7.871227
1262.451, 8.168381
1262.933, 8.454193
1263.415, 8.379217
1263.897, 8.092557
1264.379, 8.150844
1264.861, 8.493870
1265.344, 8.661643
1265.826, 8.537127
1266.308, 8.375641
1266.790, 8.371824
1267.272, 8.303480
1267.754, 8.004872
1268.236, 7.622945
1268.718, 7.541060
1269.200, 7.709075
1269.682, 7.992382
1270.165, 8.389570
1270.647, 8.655651
1271.129, 8.624828
1271.611, 8.506971
1272.093, 8.343184
1272.575, 8.164459
1273.057, 8.010650
1273.539, 7.892699
1274.021, 7.856149
1274.504, 7.917625
1274.986, 7.923928
1275.468, 7.787184
1275.950, 7.732571
1276.432, 7.862312
1276.914, 8.028749
1277.396, 7.913945
##END=



