##NAMES=Stephanite
##RRUFFID=R050309
##IDEAL CHEMISTRY=Ag^1+^_5_Sb^3+^S^2-^_4_
##LOCALITY=Sonora, Mexico
##OWNER=RRUFF
##SOURCE=Eugene Schlepp
##DESCRIPTION=Black fragment in quartz, associated with pyrargyrite. Electron microscope image shows two fine-scale phases.
##STATUS=The identification of this mineral is confirmed by single-crystal X-ray diffraction and chemical analysis.
##URL=rruff.info/R050309
##MEASURED CHEMISTRY=Ag_5.22_(Sb_0.93_As_0.10_)_Î£=1.03_S_4.00_
131.5749, 15.35150
132.0570, 15.16559
132.5391, 15.01464
133.0212, 14.93894
133.5033, 14.94662
133.9855, 14.99033
134.4676, 15.15534
134.9497, 15.28257
135.4318, 15.24373
135.9139, 15.04304
136.3960, 14.82081
136.8782, 14.73531
137.3603, 14.81450
137.8424, 14.92026
138.3245, 15.07814
138.8066, 15.24619
139.2887, 15.37237
139.7709, 15.44182
140.2530, 15.48080
140.7351, 15.53024
141.2172, 15.59008
141.6993, 15.60823
142.1814, 15.49080
142.6636, 15.29539
143.1457, 15.26114
143.6278, 15.58279
144.1099, 15.91575
144.5920, 15.94557
145.0741, 15.67307
145.5563, 15.35154
146.0384, 15.17450
146.5205, 15.14500
147.0026, 15.23479
147.4847, 15.63502
147.9668, 16.02975
148.4490, 16.23859
148.9311, 16.22521
149.4132, 16.08569
149.8953, 15.93665
150.3774, 15.69218
150.8595, 15.63289
151.3417, 15.91020
151.8238, 16.27088
152.3059, 16.51083
152.7880, 16.55314
153.2701, 16.47015
153.7522, 16.44272
154.2344, 16.51942
154.7165, 16.60418
155.1986, 16.69258
155.6807, 16.78753
156.1628, 16.90283
156.6449, 17.04883
157.1271, 17.20643
157.6092, 17.29179
158.0913, 17.24474
158.5734, 17.20871
159.0555, 17.24066
159.5376, 17.31716
160.0198, 17.37473
160.5019, 17.37339
160.9840, 17.32827
161.4661, 17.30081
161.9482, 17.25922
162.4303, 17.26478
162.9125, 17.39712
163.3946, 17.64987
163.8767, 17.86652
164.3588, 17.90635
164.8409, 17.86294
165.3230, 17.89738
165.8052, 18.06329
166.2873, 18.29290
166.7694, 18.51580
167.2515, 18.74970
167.7336, 18.91562
168.2157, 18.92797
168.6979, 18.86785
169.1800, 18.82845
169.6621, 18.85908
170.1442, 18.92851
170.6263, 18.93801
171.1084, 18.81333
171.5906, 18.75113
172.0727, 18.80178
172.5548, 18.94493
173.0369, 19.16912
173.5190, 19.49248
174.0011, 19.88784
174.4833, 20.12368
174.9654, 19.98800
175.4475, 19.89251
175.9296, 19.97573
176.4117, 20.16216
176.8938, 20.30143
177.3760, 20.27439
177.8581, 20.07542
178.3402, 19.92818
178.8223, 19.81202
179.3044, 19.75910
179.7865, 19.80596
180.2687, 19.93295
180.7508, 20.09529
181.2329, 20.26807
181.7150, 20.45769
182.1971, 20.51328
182.6792, 20.29367
183.1614, 20.07717
183.6435, 20.07992
184.1256, 20.28736
184.6077, 20.45795
185.0898, 20.35455
185.5719, 19.95314
186.0540, 19.63925
186.5362, 19.39099
187.0183, 19.25060
187.5004, 19.29789
187.9825, 19.54916
188.4646, 19.84785
188.9467, 20.12435
189.4289, 20.35097
189.9110, 20.37663
190.3931, 19.98203
190.8752, 19.42091
191.3573, 19.08106
191.8394, 19.01735
192.3216, 19.10461
192.8037, 19.31927
193.2858, 19.60976
193.7679, 19.85899
194.2500, 20.02048
194.7321, 20.10080
195.2143, 20.11135
195.6964, 20.00445
196.1785, 19.90039
196.6606, 19.86876
197.1427, 19.88888
197.6248, 19.91520
198.1070, 19.90595
198.5891, 19.86935
199.0712, 19.90001
199.5533, 20.14677
200.0354, 20.28889
200.5175, 20.11946
200.9997, 19.74640
201.4818, 19.41362
201.9639, 19.32942
202.4460, 19.50097
202.9281, 19.61598
203.4102, 19.65539
203.8924, 19.64913
204.3745, 19.55370
204.8566, 19.41053
205.3387, 19.31459
205.8208, 19.35796
206.3029, 19.56178
206.7851, 19.71030
207.2672, 19.85550
207.7493, 19.90723
208.2314, 19.74825
208.7135, 19.43914
209.1956, 19.16752
209.6778, 19.11627
210.1599, 19.32922
210.6420, 19.42139
211.1241, 19.29090
211.6062, 19.15304
212.0883, 19.12847
212.5705, 19.21062
213.0526, 19.32113
213.5347, 19.15171
214.0168, 19.38370
214.4989, 19.48754
214.9810, 19.47111
215.4632, 18.91946
215.9453, 19.10078
216.4274, 19.01394
216.9095, 18.93363
217.3916, 19.27032
217.8737, 18.89050
218.3559, 19.25740
218.8380, 19.35177
219.3201, 19.59749
219.8022, 19.43216
220.2843, 19.02811
220.7664, 18.56000
221.2486, 18.32414
221.7307, 18.28243
222.2128, 18.26810
222.6949, 18.25614
223.1770, 18.26242
223.6591, 18.30786
224.1413, 18.39547
224.6234, 18.50539
225.1055, 18.70149
225.5876, 18.90441
226.0697, 18.94359
226.5518, 18.63445
227.0340, 18.20929
227.5161, 18.04864
227.9982, 18.23356
228.4803, 18.40108
228.9624, 18.24457
229.4445, 17.96180
229.9267, 17.82578
230.4088, 18.01161
230.8909, 18.33650
231.3730, 18.41505
231.8551, 18.12137
232.3372, 17.90164
232.8194, 18.07640
233.3015, 18.38096
233.7836, 18.47903
234.2657, 18.17659
234.7478, 17.67823
235.2299, 17.48197
235.7121, 17.79771
236.1942, 17.99151
236.6763, 17.78552
237.1584, 17.41856
237.6405, 17.14030
238.1227, 17.06180
238.6048, 17.11185
239.0869, 17.10509
239.5690, 16.98234
240.0511, 16.90824
240.5332, 16.94958
241.0154, 17.03102
241.4975, 17.08178
241.9796, 17.07181
242.4617, 17.01435
242.9438, 16.93703
243.4259, 16.79959
243.9081, 16.70867
244.3902, 16.78984
244.8723, 16.86522
245.3544, 16.71393
245.8365, 16.25662
246.3186, 15.67142
246.8007, 15.37745
247.2829, 15.74096
247.7650, 15.86992
248.2471, 15.51541
248.7292, 15.03248
249.2113, 14.76513
249.6934, 14.82631
250.1756, 15.05836
250.6577, 15.15422
251.1398, 15.00778
251.6219, 14.86366
252.1040, 14.67055
252.5861, 14.50718
253.0683, 14.47485
253.5504, 14.59477
254.0325, 14.76368
254.5146, 14.80962
254.9967, 14.62980
255.4788, 14.50974
255.9610, 14.55267
256.4431, 14.59684
256.9252, 14.46282
257.4073, 14.11812
257.8894, 13.72658
258.3716, 13.51455
258.8537, 13.58611
259.3358, 13.57668
259.8179, 13.42235
260.3000, 13.22550
260.7821, 13.05495
261.2643, 12.92663
261.7464, 12.85768
262.2285, 12.88021
262.7106, 13.02389
263.1927, 13.11650
263.6748, 13.14658
264.1570, 13.13002
264.6391, 13.06672
265.1212, 12.95986
265.6033, 12.84053
266.0854, 12.73682
266.5675, 12.65009
267.0497, 12.56324
267.5318, 12.41619
268.0139, 12.31064
268.4960, 12.38577
268.9781, 12.63498
269.4602, 12.83310
269.9424, 12.79758
270.4245, 12.54529
270.9066, 12.30872
271.3887, 12.07206
271.8708, 11.86757
272.3529, 11.70933
272.8351, 11.59922
273.3172, 11.56779
273.7993, 11.68321
274.2814, 11.88040
274.7635, 11.95233
275.2456, 11.81712
275.7278, 11.64295
276.2099, 11.53980
276.6920, 11.50190
277.1741, 11.48241
277.6562, 11.46154
278.1383, 11.44656
278.6204, 11.45585
279.1025, 11.51294
279.5847, 11.54375
280.0668, 11.45803
280.5489, 11.28265
281.0310, 11.18742
281.5131, 11.26799
281.9952, 11.42270
282.4774, 11.49900
282.9595, 11.48556
283.4416, 11.46302
283.9237, 11.48672
284.4058, 11.54367
284.8879, 11.58016
285.3701, 11.58318
285.8522, 11.55961
286.3343, 11.51249
286.8164, 11.44317
287.2985, 11.37853
287.7806, 11.29665
288.2628, 11.22602
288.7449, 11.28891
289.2270, 11.58704
289.7091, 11.86458
290.1912, 11.82949
290.6733, 11.57559
291.1555, 11.44946
291.6376, 11.73216
292.1197, 12.24544
292.6018, 12.54446
293.0839, 12.52395
293.5660, 12.48880
294.0482, 12.65431
294.5303, 12.94505
295.0124, 13.23328
295.4945, 13.43707
295.9766, 13.62520
296.4587, 13.95623
296.9409, 14.49138
297.4230, 14.95921
297.9051, 15.17423
298.3872, 15.25688
298.8693, 15.33870
299.3514, 15.46736
299.8336, 15.59118
300.3157, 15.61238
300.7978, 15.50240
301.2799, 15.46702
301.7620, 15.76079
302.2441, 16.07161
302.7263, 16.07354
303.2084, 15.66883
303.6905, 15.18856
304.1726, 15.00791
304.6547, 15.14375
305.1368, 15.17932
305.6190, 14.93826
306.1011, 14.61822
306.5832, 14.33110
307.0653, 14.09041
307.5474, 13.95509
308.0295, 14.05310
308.5117, 14.35518
308.9938, 14.49138
309.4759, 14.28737
309.9580, 14.05494
310.4401, 14.03621
310.9222, 14.18107
311.4044, 14.28917
311.8865, 14.21569
312.3686, 13.99676
312.8507, 13.76885
313.3328, 13.46678
313.8149, 13.28142
314.2971, 13.34765
314.7792, 13.58174
315.2613, 13.84045
315.7434, 14.08807
316.2255, 14.30197
316.7076, 14.42759
317.1898, 14.44687
317.6719, 14.42851
318.1540, 14.36551
318.6361, 14.29656
319.1182, 14.26090
319.6003, 14.26689
320.0825, 14.31838
320.5646, 14.41725
321.0467, 14.56155
321.5288, 14.76552
322.0109, 15.03604
322.4930, 15.37311
322.9752, 15.79465
323.4573, 16.30348
323.9394, 16.84174
324.4215, 17.32327
324.9036, 17.74851
325.3857, 18.30501
325.8679, 19.06770
326.3500, 19.94021
326.8321, 20.77712
327.3142, 21.61490
327.7963, 22.66898
328.2784, 24.16347
328.7606, 26.01934
329.2427, 27.90463
329.7248, 29.92382
330.2069, 31.74356
330.6890, 32.89735
331.1711, 33.72640
331.6533, 34.98551
332.1354, 37.21240
332.6175, 39.98144
333.0996, 42.53177
333.5817, 44.95999
334.0638, 46.88698
334.5460, 47.68157
335.0281, 48.01199
335.5102, 48.68490
335.9923, 50.11173
336.4744, 51.47087
336.9565, 51.84439
337.4387, 51.20738
337.9208, 49.97947
338.4029, 48.03435
338.8850, 45.69151
339.3671, 43.24594
339.8492, 40.70363
340.3314, 38.13703
340.8135, 35.58467
341.2956, 33.03325
341.7777, 30.52563
342.2598, 28.04158
342.7419, 25.64969
343.2241, 23.33987
343.7062, 21.12393
344.1883, 19.14511
344.6704, 17.50388
345.1525, 16.13970
345.6346, 14.92570
346.1168, 13.85518
346.5989, 12.93949
347.0810, 12.25206
347.5631, 11.72651
348.0452, 11.27059
348.5273, 10.90011
349.0095, 10.55473
349.4916, 10.15743
349.9737, 9.708249
350.4558, 9.272602
350.9379, 8.866661
351.4200, 8.507217
351.9022, 8.209201
352.3843, 7.974503
352.8664, 7.802118
353.3485, 7.756666
353.8306, 7.790681
354.3127, 7.697638
354.7949, 7.371664
355.2770, 6.979431
355.7591, 6.710095
356.2412, 6.555328
356.7233, 6.496191
357.2054, 6.605066
357.6876, 6.780464
358.1697, 6.863675
358.6518, 6.831190
359.1339, 6.727557
359.6160, 6.540114
360.0981, 6.298541
360.5803, 6.169231
361.0624, 6.267148
361.5445, 6.413780
362.0266, 6.501479
362.5087, 6.521605
362.9908, 6.414697
363.4730, 6.087439
363.9551, 5.645556
364.4372, 5.406619
364.9193, 5.438723
365.4014, 5.537953
365.8835, 5.660787
366.3657, 5.788101
366.8478, 5.883625
367.3299, 5.935662
367.8120, 5.948432
368.2941, 5.912148
368.7762, 5.803812
369.2584, 5.750142
369.7405, 5.874261
370.2226, 5.999450
370.7047, 5.925297
371.1868, 5.635501
371.6689, 5.291156
372.1511, 5.015750
372.6332, 4.814648
373.1153, 4.724614
373.5974, 4.833731
374.0795, 4.954616
374.5616, 4.971263
375.0438, 4.924920
375.5259, 4.947309
376.0080, 5.124141
376.4901, 5.387214
376.9722, 5.490202
377.4543, 5.302588
377.9365, 5.126755
378.4186, 4.985394
378.9007, 4.873969
379.3828, 4.776869
379.8649, 4.692889
380.3470, 4.657814
380.8292, 4.732146
381.3113, 4.981245
381.7934, 5.144117
382.2755, 5.219287
382.7576, 5.223225
383.2397, 5.120214
383.7219, 4.945164
384.2040, 4.801649
384.6861, 4.783114
385.1682, 4.875154
385.6503, 4.845489
386.1324, 4.477311
386.6146, 4.226479
387.0967, 4.249204
387.5788, 4.409456
388.0609, 4.539492
388.5430, 4.567327
389.0251, 4.526757
389.5073, 4.484722
389.9894, 4.449317
390.4715, 4.393664
390.9536, 4.233991
391.4357, 4.118618
391.9178, 4.192234
392.4000, 4.434132
392.8821, 4.667738
393.3642, 4.699972
393.8463, 4.522094
394.3284, 4.441233
394.8105, 4.549792
395.2927, 4.652681
395.7748, 4.705530
396.2569, 4.704246
396.7390, 4.629981
397.2211, 4.448534
397.7032, 4.242341
398.1854, 4.234034
398.6675, 4.525604
399.1496, 4.704355
399.6317, 4.509269
400.1138, 4.246184
400.5959, 4.164618
401.0780, 4.304281
401.5602, 4.477577
402.0423, 4.494660
402.5244, 4.373023
403.0065, 4.319280
403.4886, 4.419794
403.9707, 4.498109
404.4529, 4.371799
404.9350, 4.120295
405.4171, 3.971255
405.8992, 4.096222
406.3813, 4.342247
406.8634, 4.469736
407.3456, 4.469322
407.8277, 4.434317
408.3098, 4.383853
408.7919, 4.339266
409.2740, 4.353291
409.7561, 4.477850
410.2383, 4.531514
410.7204, 4.300164
411.2025, 3.903659
411.6846, 3.724133
412.1667, 3.906984
412.6488, 4.185214
413.1310, 4.194333
413.6131, 3.943092
414.0952, 3.802835
414.5773, 3.936370
415.0594, 4.140980
415.5415, 4.242571
416.0237, 4.233902
416.5058, 4.165703
416.9879, 4.053679
417.4700, 3.914438
417.9521, 3.838577
418.4342, 3.840123
418.9164, 3.875391
419.3985, 3.970330
419.8806, 4.080767
420.3627, 4.117786
420.8448, 4.054453
421.3269, 3.988301
421.8091, 4.076775
422.2912, 4.417092
422.7733, 4.629406
423.2554, 4.663445
423.7375, 4.624796
424.2196, 4.548622
424.7018, 4.451651
425.1839, 4.355026
425.6660, 4.273903
426.1481, 4.206578
426.6302, 4.138060
427.1123, 4.027672
427.5945, 3.970862
428.0766, 4.034113
428.5587, 4.127786
429.0408, 4.155457
429.5229, 4.090629
430.0050, 3.989022
430.4872, 3.928687
430.9693, 3.920316
431.4514, 3.909413
431.9335, 3.920686
432.4156, 3.904606
432.8977, 3.783893
433.3799, 3.615856
433.8620, 3.548905
434.3441, 3.718432
434.8262, 4.017869
435.3083, 4.106512
435.7904, 3.879651
436.2726, 3.731925
436.7547, 3.905787
437.2368, 4.169430
437.7189, 4.320536
438.2010, 4.318089
438.6831, 4.260793
439.1653, 4.218116
439.6474, 4.188894
440.1295, 4.158558
440.6116, 4.104282
441.0937, 4.089942
441.5758, 4.235375
442.0580, 4.477179
442.5401, 4.608573
443.0222, 4.482626
443.5043, 4.282045
443.9864, 4.191421
444.4685, 4.201279
444.9507, 4.219162
445.4328, 4.214697
445.9149, 4.178372
446.3970, 4.065248
446.8791, 3.807880
447.3612, 3.672276
447.8434, 3.856652
448.3255, 4.143849
448.8076, 4.245931
449.2897, 4.121274
449.7718, 3.950279
450.2539, 3.902618
450.7361, 3.985642
451.2182, 4.047793
451.7003, 4.044124
452.1824, 4.071475
452.6645, 4.215932
453.1466, 4.404739
453.6288, 4.511945
454.1109, 4.482398
454.5930, 4.366102
455.0751, 4.262350
455.5572, 4.193063
456.0393, 4.091834
456.5215, 3.867698
457.0036, 3.693435
457.4857, 3.716425
457.9678, 3.893422
458.4499, 4.049550
458.9320, 4.034269
459.4142, 3.891754
459.8963, 3.905402
460.3784, 4.240259
460.8605, 4.432350
461.3426, 4.286337
461.8247, 3.998777
462.3069, 3.722900
462.7890, 3.497688
463.2711, 3.372968
463.7532, 3.448332
464.2353, 3.707142
464.7174, 3.915035
465.1996, 4.064709
465.6817, 4.125677
466.1638, 4.021258
466.6459, 3.815711
467.1280, 3.671980
467.6101, 3.668865
468.0923, 3.728328
468.5744, 3.759787
469.0565, 3.769970
469.5386, 3.837747
470.0207, 4.029849
470.5028, 4.249660
470.9850, 4.335697
471.4671, 4.299737
471.9492, 4.141710
472.4313, 3.677453
472.9134, 3.197428
473.3955, 3.039018
473.8777, 3.215283
474.3598, 3.509719
474.8419, 3.778821
475.3240, 4.019531
475.8061, 4.192915
476.2882, 4.362280
476.7704, 4.399169
477.2525, 4.142818
477.7346, 3.798435
478.2167, 3.623670
478.6988, 3.680704
479.1809, 3.827198
479.6631, 3.882422
480.1452, 3.825495
480.6273, 3.781837
481.1094, 3.715345
481.5915, 3.700323
482.0736, 3.822067
482.5558, 4.001611
483.0379, 4.105444
483.5200, 4.067207
484.0021, 3.935798
484.4842, 3.770326
484.9663, 3.533262
485.4485, 3.436965
485.9306, 3.665126
486.4127, 3.928130
486.8948, 4.042844
487.3769, 4.015589
487.8590, 3.936826
488.3412, 3.793274
488.8233, 3.652379
489.3054, 3.697206
489.7875, 3.955608
490.2696, 4.126615
490.7517, 4.013928
491.2339, 3.736072
491.7160, 3.547372
492.1981, 3.475951
492.6802, 3.413771
493.1623, 3.262004
493.6444, 3.112284
494.1266, 3.140038
494.6087, 3.369915
495.0908, 3.609702
495.5729, 3.683225
496.0550, 3.592199
496.5371, 3.557782
497.0193, 3.641539
497.5014, 3.701463
497.9835, 3.648555
498.4656, 3.561480
498.9477, 3.564043
499.4298, 3.693073
499.9120, 3.869593
500.3941, 3.987805
500.8762, 4.056005
501.3583, 4.033465
501.8404, 3.763149
502.3225, 3.562050
502.8047, 3.574556
503.2868, 3.734772
503.7689, 3.937277
504.2510, 4.149007
504.7331, 4.303119
505.2152, 4.230704
505.6974, 3.878070
506.1795, 3.634904
506.6616, 3.665427
507.1437, 3.751892
507.6258, 3.700035
508.1079, 3.541208
508.5901, 3.465931
509.0722, 3.682199
509.5543, 3.977786
510.0364, 4.007554
510.5185, 3.773877
511.0006, 3.542288
511.4828, 3.415698
511.9649, 3.386649
512.4470, 3.461257
512.9291, 3.686413
513.4112, 3.839897
513.8933, 3.846166
514.3754, 3.763889
514.8575, 3.606497
515.3397, 3.400130
515.8218, 3.256563
516.3039, 3.263226
516.7860, 3.402374
517.2681, 3.544738
517.7502, 3.738041
518.2324, 3.872632
518.7145, 3.907359
519.1966, 3.898606
519.6787, 3.914894
520.1608, 3.958421
520.6429, 3.957833
521.1251, 3.818366
521.6072, 3.545791
522.0893, 3.372861
522.5714, 3.333174
523.0535, 3.344278
523.5356, 3.363306
524.0178, 3.416380
524.4999, 3.559968
524.9820, 3.818870
525.4641, 4.057341
525.9462, 4.152447
526.4283, 4.121372
526.9105, 4.025069
527.3926, 3.845681
527.8747, 3.681055
528.3568, 3.627635
528.8389, 3.653536
529.3210, 3.646423
529.8032, 3.573398
530.2853, 3.490497
530.7674, 3.421847
531.2495, 3.366095
531.7316, 3.310768
532.2137, 3.251463
532.6959, 3.226769
533.1780, 3.291959
533.6601, 3.468005
534.1422, 3.604578
534.6243, 3.691889
535.1064, 3.758289
535.5886, 3.828957
536.0707, 3.881253
536.5528, 3.861803
537.0349, 3.752254
537.5170, 3.623146
537.9991, 3.601668
538.4813, 3.718257
538.9634, 3.784734
539.4455, 3.756933
539.9276, 3.716482
540.4097, 3.702321
540.8918, 3.703120
541.3740, 3.689748
541.8561, 3.639673
542.3382, 3.594815
542.8203, 3.645160
543.3024, 3.772004
543.7845, 3.770552
544.2667, 3.531991
544.7488, 3.266789
545.2309, 3.253891
545.7130, 3.459333
546.1951, 3.564306
546.6772, 3.432587
547.1594, 3.268657
547.6415, 3.179837
548.1236, 3.166118
548.6057, 3.226225
549.0878, 3.362110
549.5699, 3.530967
550.0521, 3.666885
550.5342, 3.777900
551.0163, 3.824630
551.4984, 3.779862
551.9805, 3.709233
552.4626, 3.611398
552.9448, 3.514031
553.4269, 3.463329
553.9090, 3.482801
554.3911, 3.541655
554.8732, 3.604286
555.3553, 3.682882
555.8375, 3.672463
556.3196, 3.448348
556.8017, 3.262738
557.2838, 3.348835
557.7659, 3.600745
558.2480, 3.710748
558.7302, 3.472109
559.2123, 3.162999
559.6944, 3.073262
560.1765, 3.163334
560.6586, 3.259654
561.1407, 3.310058
561.6229, 3.349535
562.1050, 3.427860
562.5871, 3.554837
563.0692, 3.643214
563.5513, 3.655650
564.0334, 3.665598
564.5156, 3.766514
564.9977, 3.879674
565.4798, 3.830328
565.9619, 3.553144
566.4440, 3.205470
566.9261, 3.044904
567.4083, 3.122456
567.8904, 3.179976
568.3725, 3.187437
568.8546, 3.205655
569.3367, 3.278410
569.8188, 3.369962
570.3010, 3.418514
570.7831, 3.398117
571.2652, 3.348246
571.7473, 3.298595
572.2294, 3.253984
572.7115, 3.258010
573.1937, 3.329952
573.6758, 3.421283
574.1579, 3.509999
574.6400, 3.587126
575.1221, 3.616080
575.6042, 3.532222
576.0864, 3.469050
576.5685, 3.577383
577.0506, 3.725378
577.5327, 3.633174
578.0148, 3.247196
578.4969, 2.857021
578.9791, 2.786614
579.4612, 3.051581
579.9433, 3.242890
580.4254, 3.342939
580.9075, 3.385986
581.3896, 3.315803
581.8718, 3.224399
582.3539, 3.249154
582.8360, 3.403684
583.3181, 3.513798
583.8002, 3.314328
584.2823, 2.874672
584.7645, 2.765998
585.2466, 3.133116
585.7287, 3.417388
586.2108, 3.207804
586.6929, 2.815197
587.1750, 2.700725
587.6572, 2.948788
588.1393, 3.243611
588.6214, 3.526103
589.1035, 3.730352
589.5856, 3.718596
590.0677, 3.503355
590.5499, 3.280998
591.0320, 3.174574
591.5141, 3.161830
591.9962, 3.162720
592.4783, 3.205224
592.9604, 3.221263
593.4426, 3.166592
593.9247, 3.121326
594.4068, 3.173701
594.8889, 3.290921
595.3710, 3.349091
595.8531, 3.250015
596.3353, 3.078892
596.8174, 3.051440
597.2995, 3.197163
597.7816, 3.317455
598.2637, 3.348430
598.7458, 3.361462
599.2280, 3.468365
599.7101, 3.632509
600.1922, 3.653347
600.6743, 3.295263
601.1564, 2.918268
601.6385, 2.859783
602.1207, 3.032465
602.6028, 3.186327
603.0849, 3.240881
603.5670, 3.212905
604.0491, 3.099634
604.5313, 2.859669
605.0134, 2.799244
605.4955, 3.063340
605.9776, 3.314979
606.4597, 3.505394
606.9418, 3.597547
607.4240, 3.500285
607.9061, 3.206972
608.3882, 2.905082
608.8703, 2.830838
609.3524, 2.964846
609.8345, 3.038557
610.3167, 3.017663
610.7988, 3.016389
611.2809, 3.147165
611.7630, 3.304613
612.2451, 3.334887
612.7272, 3.202792
613.2094, 3.051270
613.6915, 2.870315
614.1736, 2.747086
614.6557, 2.859654
615.1378, 3.176230
615.6199, 3.425386
616.1021, 3.437725
616.5842, 3.282588
617.0663, 3.152772
617.5484, 3.021587
618.0305, 2.964491
618.5126, 3.062956
618.9948, 3.152936
619.4769, 3.122559
619.9590, 3.008755
620.4411, 2.911897
620.9232, 2.882384
621.4053, 2.890842
621.8875, 2.892913
622.3696, 2.888825
622.8517, 2.892354
623.3338, 2.903220
623.8159, 2.927251
624.2980, 2.974206
624.7802, 3.038770
625.2623, 3.105160
625.7444, 3.188952
626.2265, 3.251855
626.7086, 3.278813
627.1907, 3.273496
627.6729, 3.220114
628.1550, 3.125880
628.6371, 3.060211
629.1192, 3.092521
629.6013, 3.205197
630.0834, 3.251160
630.5656, 3.196487
631.0477, 3.129199
631.5298, 2.982378
632.0119, 2.890429
632.4940, 3.037453
632.9761, 3.365915
633.4583, 3.560526
633.9404, 3.331280
634.4225, 2.947370
634.9046, 2.882800
635.3867, 3.108632
635.8688, 3.250355
636.3510, 3.187408
636.8331, 3.003320
637.3152, 2.743138
637.7973, 2.385833
638.2794, 2.267875
638.7615, 2.575805
639.2437, 2.919456
639.7258, 3.196262
640.2079, 3.386605
640.6900, 3.436683
641.1721, 3.351857
641.6542, 3.260924
642.1364, 3.323951
642.6185, 3.520825
643.1006, 3.573068
643.5827, 3.415147
644.0648, 3.256747
644.5469, 3.132861
645.0291, 3.066683
645.5112, 3.115371
645.9933, 3.280027
646.4754, 3.400814
646.9575, 3.378021
647.4396, 3.295957
647.9218, 3.230744
648.4039, 3.185857
648.8860, 3.156724
649.3681, 3.140489
649.8502, 3.149126
650.3323, 3.215768
650.8145, 3.383708
651.2966, 3.407375
651.7787, 3.105432
652.2608, 2.874453
652.7429, 2.877090
653.2250, 2.999558
653.7072, 3.111859
654.1893, 3.176577
654.6714, 3.195683
655.1535, 3.147384
655.6356, 3.055272
656.1177, 3.008992
656.5999, 3.018965
657.0820, 3.001827
657.5641, 2.896872
658.0462, 2.763279
658.5283, 2.713530
659.0104, 2.753620
659.4926, 2.819598
659.9747, 2.893587
660.4568, 2.999324
660.9389, 3.234715
661.4210, 3.498507
661.9031, 3.561374
662.3853, 3.339722
662.8674, 3.023730
663.3495, 2.868640
663.8316, 2.880717
664.3137, 2.975521
664.7958, 3.245340
665.2780, 3.429179
665.7601, 3.322777
666.2422, 3.110512
666.7243, 3.013658
667.2064, 3.070681
667.6885, 3.109849
668.1707, 3.004498
668.6528, 2.870509
669.1349, 2.857928
669.6170, 2.946673
670.0991, 3.011476
670.5812, 2.991238
671.0634, 2.944184
671.5455, 2.983179
672.0276, 3.158298
672.5097, 3.227470
672.9918, 3.070650
673.4739, 2.937799
673.9561, 2.903529
674.4382, 2.936497
674.9203, 3.006516
675.4024, 3.105381
675.8845, 3.190498
676.3666, 3.218732
676.8488, 3.210635
677.3309, 3.234712
677.8130, 3.291267
678.2951, 3.241242
678.7772, 2.978137
679.2593, 2.647517
679.7415, 2.522172
680.2236, 2.692797
680.7057, 2.797621
681.1878, 2.769036
681.6699, 2.749088
682.1520, 2.821105
682.6342, 2.936449
683.1163, 3.030472
683.5984, 3.080567
684.0805, 3.073653
684.5626, 2.944866
685.0447, 2.734459
685.5269, 2.691270
686.0090, 2.856874
686.4911, 2.965093
686.9732, 2.840343
687.4553, 2.650774
687.9374, 2.715407
688.4196, 3.074596
688.9017, 3.279039
689.3838, 3.093194
689.8659, 2.900901
690.3480, 3.013743
690.8301, 3.257340
691.3123, 3.268332
691.7944, 2.950036
692.2765, 2.600882
692.7586, 2.588285
693.2407, 2.883133
693.7228, 3.069567
694.2050, 3.124129
694.6871, 3.137179
695.1692, 3.141582
695.6513, 3.116017
696.1334, 2.997772
696.6155, 2.789493
697.0977, 2.700892
697.5798, 2.925184
698.0619, 3.166607
698.5440, 3.174850
699.0261, 3.043429
699.5082, 2.990247
699.9904, 3.071335
700.4725, 3.134080
700.9546, 2.972033
701.4367, 2.619355
701.9188, 2.654725
702.4009, 3.417904
702.8831, 3.890862
703.3652, 3.537416
703.8473, 3.011998
704.3294, 2.768862
704.8115, 2.804255
705.2936, 2.909882
705.7758, 3.063130
706.2579, 3.197675
706.7400, 3.275555
707.2221, 3.290998
707.7042, 3.203366
708.1863, 3.010754
708.6685, 2.825369
709.1505, 2.750986
709.6326, 2.774601
710.1147, 2.800861
710.5969, 2.822604
711.0790, 2.860493
711.5611, 2.946737
712.0432, 3.023397
712.5253, 3.043313
713.0074, 3.021009
713.4896, 3.010141
713.9717, 3.049165
714.4538, 3.072625
714.9359, 2.972892
715.4180, 2.822964
715.9001, 2.822021
716.3823, 2.992394
716.8644, 3.141603
717.3465, 3.123317
717.8286, 2.984805
718.3107, 2.903065
718.7928, 2.933131
719.2750, 2.915742
719.7571, 2.759005
720.2392, 2.643903
720.7213, 2.693856
721.2034, 2.843915
721.6855, 2.965395
722.1677, 3.013928
722.6498, 3.039913
723.1319, 3.103122
723.6140, 3.168448
724.0961, 3.128982
724.5782, 2.989836
725.0604, 2.939619
725.5425, 3.107192
726.0246, 3.339356
726.5067, 3.297677
726.9888, 2.808082
727.4709, 2.577473
727.9531, 2.872537
728.4352, 3.117327
728.9173, 3.084969
729.3994, 2.910630
729.8815, 2.745407
730.3636, 2.627031
730.8458, 2.590306
731.3279, 2.710173
731.8100, 2.901224
732.2921, 3.029279
732.7742, 3.097227
733.2563, 3.164004
733.7385, 3.260487
734.2206, 3.287620
734.7027, 3.079542
735.1848, 2.602398
735.6669, 2.404286
736.1490, 2.757419
736.6312, 3.047213
737.1133, 3.177367
737.5954, 3.205491
738.0775, 3.157293
738.5596, 3.051613
739.0417, 2.936828
739.5239, 2.803025
740.0060, 2.713622
740.4881, 2.825464
740.9702, 3.042311
741.4523, 2.999127
741.9344, 2.622482
742.4166, 2.314922
742.8987, 2.443727
743.3808, 2.894155
743.8629, 3.080592
744.3450, 2.768899
744.8271, 2.619433
745.3093, 2.805043
745.7914, 3.017476
746.2735, 3.133447
746.7556, 3.145380
747.2377, 3.036093
747.7198, 2.763362
748.2020, 2.530082
748.6841, 2.519655
749.1662, 2.638122
749.6483, 2.739526
750.1304, 2.810686
750.6125, 2.873163
751.0947, 2.940420
751.5768, 2.987256
752.0589, 2.957633
752.5410, 2.820404
753.0231, 2.756918
753.5052, 2.844808
753.9874, 2.902730
754.4695, 2.850070
754.9516, 2.757467
755.4337, 2.682719
755.9158, 2.636173
756.3979, 2.651886
756.8801, 2.820161
757.3622, 2.995252
757.8443, 3.019749
758.3264, 2.941641
758.8085, 2.870917
759.2906, 2.838921
759.7728, 2.835040
760.2549, 2.855285
760.7370, 2.891297
761.2191, 2.879561
761.7012, 2.774522
762.1833, 2.750176
762.6655, 2.971489
763.1476, 3.138957
763.6297, 2.958040
764.1118, 2.570819
764.5939, 2.383093
765.0760, 2.558387
765.5582, 2.776938
766.0403, 2.925655
766.5224, 3.009227
767.0045, 3.024783
767.4866, 2.979316
767.9688, 2.871385
768.4509, 2.696738
768.9330, 2.538569
769.4151, 2.563267
769.8972, 2.780471
770.3793, 2.909107
770.8615, 2.896986
771.3436, 2.931164
771.8257, 3.181148
772.3078, 3.455905
772.7899, 3.436072
773.2720, 3.093653
773.7542, 2.845115
774.2363, 2.789245
774.7184, 2.804075
775.2005, 2.903109
775.6826, 2.998780
776.1647, 2.955374
776.6469, 2.771130
777.1290, 2.574603
777.6111, 2.445332
778.0932, 2.401016
778.5753, 2.544818
779.0574, 2.865332
779.5396, 3.004423
780.0217, 2.848724
780.5038, 2.667211
780.9859, 2.669661
781.4680, 2.816062
781.9501, 2.933739
782.4323, 3.037314
782.9144, 3.088411
783.3965, 3.080118
783.8786, 3.023772
784.3607, 2.872650
784.8428, 2.694111
785.3250, 2.619809
785.8071, 2.691877
786.2892, 2.761639
786.7713, 2.637802
787.2534, 2.454090
787.7355, 2.507572
788.2177, 2.766267
788.6998, 2.936785
789.1819, 2.905532
789.6640, 2.817184
790.1461, 2.857570
790.6282, 3.025709
791.1104, 3.083407
791.5925, 2.910217
792.0746, 2.830439
792.5567, 3.034650
793.0388, 3.231115
793.5209, 3.175103
794.0031, 2.932723
794.4852, 2.760321
794.9673, 2.775311
795.4494, 2.792263
795.9315, 2.629163
796.4136, 2.440084
796.8958, 2.485703
797.3779, 2.718739
797.8600, 2.832011
798.3421, 2.661495
798.8242, 2.412597
799.3063, 2.470405
799.7885, 2.852009
800.2706, 3.004355
800.7527, 2.839353
801.2348, 2.709049
801.7169, 2.781159
802.1990, 2.931287
802.6812, 2.984661
803.1633, 2.941380
803.6454, 2.920261
804.1275, 2.935980
804.6096, 2.970731
805.0917, 3.030848
805.5739, 3.098100
806.0560, 3.172833
806.5381, 3.239187
807.0202, 3.248436
807.5023, 3.160488
807.9844, 3.038344
808.4666, 2.974799
808.9487, 2.952733
809.4308, 2.882210
809.9129, 2.750957
810.3950, 2.704828
810.8771, 2.851087
811.3593, 3.075810
811.8414, 3.137462
812.3235, 2.968670
812.8056, 2.891817
813.2877, 3.004089
813.7698, 3.087587
814.2520, 3.076526
814.7341, 3.014677
815.2162, 2.913827
815.6983, 2.790226
816.1804, 2.746614
816.6625, 2.885968
817.1447, 3.056547
817.6268, 3.206480
818.1089, 3.287498
818.5910, 3.165977
819.0731, 2.869368
819.5552, 2.610688
820.0374, 2.524916
820.5195, 2.577651
821.0016, 2.749601
821.4837, 3.048527
821.9658, 3.154627
822.4479, 2.981603
822.9301, 2.830729
823.4122, 2.877698
823.8943, 3.015140
824.3764, 3.047187
824.8585, 2.944312
825.3406, 2.892260
825.8228, 2.932014
826.3049, 2.981070
826.7870, 3.033131
827.2691, 3.066183
827.7512, 3.038535
828.2333, 2.964304
828.7155, 2.924566
829.1976, 2.987218
829.6797, 3.056771
830.1618, 2.982789
830.6439, 2.842287
831.1260, 2.838430
831.6082, 2.982697
832.0903, 3.137111
832.5724, 3.226768
833.0545, 3.256894
833.5366, 3.223090
834.0187, 3.106502
834.5009, 3.068257
834.9830, 3.176703
835.4651, 3.223666
835.9472, 3.082438
836.4293, 2.883312
836.9114, 2.763327
837.3936, 2.720969
837.8757, 2.705577
838.3578, 2.733836
838.8399, 2.756701
839.3220, 2.744562
839.8041, 2.726597
840.2863, 2.729910
840.7684, 2.755258
841.2505, 2.798068
841.7326, 2.860289
842.2147, 2.909936
842.6968, 2.895199
843.1790, 2.839835
843.6611, 2.816277
844.1432, 2.825914
844.6253, 2.819738
845.1074, 2.774249
845.5895, 2.720068
846.0717, 2.689152
846.5538, 2.681089
847.0359, 2.777002
847.5180, 3.095358
848.0001, 3.282791
848.4822, 3.191963
848.9644, 3.020165
849.4465, 2.858857
849.9286, 2.726961
850.4107, 2.676824
850.8928, 2.746583
851.3749, 2.830506
851.8571, 2.940202
852.3392, 3.006481
852.8213, 2.909722
853.3034, 2.741153
853.7855, 2.715040
854.2676, 2.885899
854.7498, 3.045196
855.2319, 2.939625
855.7140, 2.709702
856.1961, 2.718475
856.6782, 2.924222
857.1603, 3.012772
857.6425, 2.900524
858.1246, 2.761502
858.6067, 2.740047
859.0888, 2.806286
859.5709, 2.844454
860.0530, 2.825140
860.5352, 2.858025
861.0173, 2.991911
861.4994, 3.119012
861.9815, 3.197685
862.4636, 3.239590
862.9457, 3.263169
863.4279, 3.270892
863.9100, 3.235098
864.3921, 3.111751
864.8742, 2.984964
865.3563, 2.899480
865.8384, 2.835505
866.3206, 2.747585
866.8027, 2.651220
867.2848, 2.633624
867.7669, 2.762662
868.2490, 2.919265
868.7311, 2.941718
869.2133, 2.868448
869.6954, 2.784970
870.1775, 2.705718
870.6596, 2.698243
871.1417, 2.795007
871.6238, 2.965836
872.1060, 3.195972
872.5881, 3.483128
873.0702, 3.564477
873.5523, 3.358636
874.0344, 3.151711
874.5165, 2.975020
874.9987, 2.849453
875.4808, 2.821512
875.9629, 2.857524
876.4450, 2.856327
876.9271, 2.787505
877.4092, 2.734301
877.8914, 2.664373
878.3735, 2.664253
878.8556, 2.886219
879.3377, 3.170455
879.8198, 3.238289
880.3019, 3.050535
880.7841, 2.874623
881.2662, 2.919648
881.7483, 3.046480
882.2304, 3.125917
882.7125, 3.142853
883.1946, 2.991335
883.6768, 2.696018
884.1589, 2.561962
884.6410, 2.806889
885.1231, 3.191223
885.6052, 3.185800
886.0873, 2.775561
886.5695, 2.599828
887.0516, 2.728298
887.5337, 2.865799
888.0158, 2.915406
888.4979, 2.898598
888.9800, 2.810046
889.4622, 2.650334
889.9443, 2.620637
890.4264, 2.854358
890.9085, 3.024439
891.3906, 3.083817
891.8727, 3.088407
892.3549, 3.049684
892.8370, 2.988617
893.3191, 2.937111
893.8012, 2.901591
894.2833, 2.878609
894.7654, 2.871943
895.2476, 2.871867
895.7297, 2.842601
896.2118, 2.825332
896.6939, 2.926296
897.1760, 3.135152
897.6581, 3.297606
898.1403, 3.314618
898.6224, 3.205860
899.1045, 2.925715
899.5866, 2.538819
900.0687, 2.328884
900.5508, 2.320874
901.0330, 2.435440
901.5151, 2.651659
901.9972, 2.885550
902.4793, 3.020066
902.9614, 3.055192
903.4435, 2.983002
903.9257, 2.750944
904.4078, 2.544393
904.8899, 2.372514
905.3720, 2.272925
905.8541, 2.276489
906.3362, 2.376540
906.8184, 2.573196
907.3005, 2.991071
907.7826, 3.195587
908.2647, 2.914916
908.7468, 2.654681
909.2289, 2.722365
909.7111, 2.913993
910.1932, 2.973820
910.6753, 2.871061
911.1574, 2.711224
911.6395, 2.473330
912.1216, 2.305049
912.6038, 2.363554
913.0859, 2.543653
913.5680, 2.741946
914.0501, 2.918611
914.5322, 2.991783
915.0143, 2.928122
915.4965, 2.850763
915.9786, 2.965356
916.4607, 3.176728
916.9428, 3.049463
917.4249, 2.624350
917.9070, 2.540438
918.3892, 2.987931
918.8713, 3.383964
919.3534, 3.231631
919.8355, 2.741153
920.3176, 2.570912
920.7997, 2.824128
921.2819, 3.017163
921.7640, 3.174187
922.2461, 3.208467
922.7282, 3.025959
923.2103, 2.752959
923.6924, 2.495362
924.1746, 2.258418
924.6567, 2.201309
925.1388, 2.517839
925.6209, 2.750149
926.1030, 2.793296
926.5851, 2.748878
927.0673, 2.629099
927.5494, 2.491632
928.0315, 2.420262
928.5136, 2.435490
928.9957, 2.513144
929.4778, 2.688333
929.9600, 2.872947
930.4421, 3.049411
930.9242, 3.162132
931.4063, 3.098205
931.8884, 2.877852
932.3705, 2.619728
932.8527, 2.372108
933.3348, 2.237754
933.8169, 2.446179
934.2990, 2.850391
934.7811, 3.034014
935.2632, 3.004503
935.7454, 2.955536
936.2275, 2.950615
936.7096, 2.941925
937.1917, 2.877443
937.6738, 2.779020
938.1559, 2.736876
938.6381, 2.760370
939.1202, 2.759565
939.6023, 2.711053
940.0844, 2.687236
940.5665, 2.731060
941.0486, 2.813012
941.5308, 2.895947
942.0129, 2.985790
942.4950, 3.013593
942.9771, 2.965747
943.4592, 2.875362
943.9413, 2.631191
944.4235, 2.460221
944.9056, 2.580254
945.3877, 2.859777
945.8698, 3.005137
946.3519, 2.953646
946.8340, 2.887561
947.3162, 2.807851
947.7983, 2.776878
948.2804, 2.883914
948.7625, 3.020036
949.2446, 3.060881
949.7267, 3.006080
950.2089, 2.920312
950.6910, 2.814513
951.1731, 2.742836
951.6552, 2.823138
952.1373, 2.906807
952.6194, 2.716204
953.1016, 2.386977
953.5837, 2.298194
954.0658, 2.533816
954.5479, 2.833542
955.0300, 2.999996
955.5121, 3.073689
955.9943, 3.120310
956.4763, 3.139844
956.9584, 3.136054
957.4406, 3.107823
957.9227, 3.023987
958.4048, 2.864877
958.8869, 2.710377
959.3690, 2.676804
959.8511, 2.744700
960.3333, 2.738110
960.8154, 2.634107
961.2975, 2.642331
961.7796, 2.836881
962.2617, 3.024992
962.7438, 3.082774
963.2260, 3.049063
963.7081, 3.003747
964.1902, 2.946764
964.6723, 2.874386
965.1544, 2.734038
965.6365, 2.667460
966.1187, 2.769383
966.6008, 2.897169
967.0829, 2.964242
967.5650, 2.969033
968.0471, 2.892122
968.5292, 2.660527
969.0114, 2.538781
969.4935, 2.644042
969.9756, 2.769837
970.4577, 2.844604
970.9398, 2.879204
971.4219, 2.868216
971.9041, 2.829584
972.3862, 2.835377
972.8683, 2.936663
973.3504, 3.025846
973.8325, 3.074501
974.3146, 3.063371
974.7968, 2.922351
975.2789, 2.729357
975.7610, 2.626310
976.2431, 2.635277
976.7252, 2.655801
977.2073, 2.603290
977.6895, 2.569413
978.1716, 2.718620
978.6537, 2.922588
979.1358, 2.922335
979.6179, 2.760788
980.1000, 2.688593
980.5822, 2.793020
981.0643, 2.916489
981.5464, 2.897661
982.0285, 2.788058
982.5106, 2.674173
982.9927, 2.572639
983.4749, 2.574117
983.9570, 2.687304
984.4391, 2.863611
984.9212, 3.087508
985.4033, 3.250499
985.8854, 3.152264
986.3676, 2.842206
986.8497, 2.806708
987.3318, 3.084402
987.8139, 3.137680
988.2960, 2.799037
988.7781, 2.539665
989.2603, 2.703235
989.7424, 3.080883
990.2245, 3.239151
990.7066, 3.151186
991.1887, 3.053762
991.6708, 2.917559
992.1530, 2.850055
992.6351, 2.941339
993.1172, 3.007658
993.5993, 2.856804
994.0814, 2.585315
994.5635, 2.494470
995.0457, 2.647083
995.5278, 2.803435
996.0099, 3.128330
996.4920, 3.242905
996.9741, 2.791776
997.4562, 2.310433
997.9384, 2.324368
998.4205, 2.695066
998.9026, 2.877754
999.3847, 2.681304
999.8668, 2.620872
1000.349, 3.049754
1000.831, 3.068494
1001.313, 3.333220
1001.795, 3.455307
1002.277, 3.442624
1002.760, 2.880116
1003.242, 3.036194
1003.724, 2.909622
1004.206, 2.775072
1004.688, 3.043037
1005.170, 2.579988
1005.652, 2.849161
1006.134, 2.831314
1006.616, 2.950314
1007.099, 2.784854
1007.581, 2.712224
1008.063, 2.931637
1008.545, 2.995194
1009.027, 2.811676
1009.509, 2.961743
1009.991, 2.526293
1010.473, 2.611713
1010.956, 2.924020
1011.438, 2.773829
1011.920, 2.948001
1012.402, 3.003838
1012.884, 2.921861
1013.366, 2.831206
1013.848, 2.613637
1014.330, 2.648748
1014.812, 2.882569
1015.295, 3.032626
1015.777, 3.012071
1016.259, 2.915914
1016.741, 2.799063
1017.223, 2.717554
1017.705, 2.831307
1018.187, 3.065299
1018.669, 3.134105
1019.151, 3.036747
1019.634, 2.960662
1020.116, 2.975417
1020.598, 3.015521
1021.080, 3.016313
1021.562, 2.988724
1022.044, 2.968799
1022.526, 2.952882
1023.008, 2.884825
1023.491, 2.758840
1023.973, 2.689846
1024.455, 2.731118
1024.937, 2.798505
1025.419, 2.794103
1025.901, 2.734941
1026.383, 2.694077
1026.865, 2.670638
1027.348, 2.692571
1027.830, 2.777381
1028.312, 2.810381
1028.794, 2.728001
1029.276, 2.607770
1029.758, 2.539680
1030.240, 2.523878
1030.722, 2.579803
1031.204, 2.738328
1031.687, 2.823823
1032.169, 2.801003
1032.651, 2.757432
1033.133, 2.726112
1033.615, 2.706256
1034.097, 2.693188
1034.579, 2.688908
1035.061, 2.734344
1035.543, 2.881144
1036.026, 2.934095
1036.508, 2.807726
1036.990, 2.716409
1037.472, 2.772215
1037.954, 2.903170
1038.436, 3.033340
1038.918, 3.160412
1039.400, 3.218367
1039.883, 3.204709
1040.365, 3.121244
1040.847, 2.843232
1041.329, 2.662769
1041.811, 2.786579
1042.293, 3.023683
1042.775, 3.135889
1043.257, 3.125477
1043.740, 3.094701
1044.222, 3.013463
1044.704, 2.958444
1045.186, 2.964967
1045.668, 2.961588
1046.150, 2.892636
1046.632, 2.812458
1047.114, 2.796682
1047.596, 2.841248
1048.078, 2.861845
1048.561, 2.799093
1049.043, 2.791494
1049.525, 2.917579
1050.007, 3.030449
1050.489, 3.043019
1050.971, 3.015107
1051.453, 3.030737
1051.935, 3.084364
1052.418, 3.088445
1052.900, 3.001258
1053.382, 2.911597
1053.864, 2.767686
1054.346, 2.702677
1054.828, 2.853061
1055.310, 3.075455
1055.792, 3.193014
1056.275, 3.210804
1056.757, 3.258371
1057.239, 3.421035
1057.721, 3.496719
1058.203, 3.346941
1058.685, 3.191239
1059.167, 3.157930
1059.649, 3.180379
1060.131, 3.202396
1060.614, 3.202295
1061.096, 3.117952
1061.578, 2.870526
1062.060, 2.706701
1062.542, 2.696319
1063.024, 2.809204
1063.506, 3.239517
1063.988, 3.634583
1064.470, 3.455253
1064.953, 2.858284
1065.435, 2.582323
1065.917, 2.917743
1066.399, 3.247551
1066.881, 3.385354
1067.363, 3.381904
1067.845, 3.144576
1068.327, 2.872477
1068.810, 2.784871
1069.292, 2.858834
1069.774, 2.953019
1070.256, 3.033535
1070.738, 3.104969
1071.220, 3.212775
1071.702, 3.259850
1072.184, 3.121542
1072.667, 2.947009
1073.149, 2.908935
1073.631, 2.969154
1074.113, 2.992551
1074.595, 2.943184
1075.077, 2.864248
1075.559, 2.720191
1076.041, 2.618765
1076.523, 2.638087
1077.005, 2.713859
1077.488, 2.828365
1077.970, 2.934084
1078.452, 2.920587
1078.934, 2.762511
1079.416, 2.670094
1079.898, 2.772151
1080.380, 2.917732
1080.862, 3.090564
1081.344, 3.216409
1081.827, 3.187037
1082.309, 3.077350
1082.791, 3.027112
1083.273, 3.062026
1083.755, 3.120012
1084.237, 3.247948
1084.719, 3.290515
1085.201, 3.063854
1085.684, 2.829511
1086.166, 2.820457
1086.648, 2.936485
1087.130, 3.010171
1087.612, 3.018271
1088.094, 3.029983
1088.576, 3.099989
1089.058, 3.119422
1089.541, 3.031588
1090.023, 2.886744
1090.505, 2.592998
1090.987, 2.344383
1091.469, 2.461415
1091.951, 2.882472
1092.433, 3.185085
1092.915, 3.215996
1093.397, 3.187602
1093.880, 3.125549
1094.362, 3.093362
1094.844, 3.164400
1095.326, 3.258500
1095.808, 3.262724
1096.290, 3.211321
1096.772, 3.262805
1097.254, 3.503634
1097.736, 3.596744
1098.219, 3.267577
1098.701, 2.969968
1099.183, 2.969677
1099.665, 3.037656
1100.147, 2.930172
1100.629, 2.733401
1101.111, 2.677127
1101.593, 2.808486
1102.076, 2.948939
1102.558, 3.101757
1103.040, 3.188108
1103.522, 3.175794
1104.004, 3.095558
1104.486, 2.889851
1104.968, 2.669318
1105.450, 2.619226
1105.932, 2.752964
1106.415, 2.898713
1106.897, 3.140966
1107.379, 3.218180
1107.861, 2.917408
1108.343, 2.626291
1108.825, 2.579757
1109.307, 2.629272
1109.789, 2.547739
1110.271, 2.365641
1110.754, 2.374756
1111.236, 2.815760
1111.718, 3.027561
1112.200, 2.690180
1112.682, 2.450180
1113.164, 2.625389
1113.646, 2.911589
1114.128, 3.071775
1114.611, 3.114481
1115.093, 3.064878
1115.575, 2.861789
1116.057, 2.761006
1116.539, 2.820765
1117.021, 2.895595
1117.503, 2.981801
1117.985, 3.045689
1118.468, 3.043962
1118.950, 3.018051
1119.432, 3.065553
1119.914, 3.202996
1120.396, 3.204353
1120.878, 2.976425
1121.360, 2.815928
1121.842, 2.793425
1122.324, 2.772721
1122.807, 2.664220
1123.289, 2.555334
1123.771, 2.558370
1124.253, 2.664144
1124.735, 2.812121
1125.217, 3.064396
1125.699, 3.126974
1126.181, 2.925833
1126.663, 2.714507
1127.146, 2.556988
1127.628, 2.479274
1128.110, 2.509810
1128.592, 2.634036
1129.074, 2.839156
1129.556, 3.147979
1130.038, 3.263982
1130.520, 3.158160
1131.003, 3.054581
1131.485, 2.997823
1131.967, 2.997721
1132.449, 3.072653
1132.931, 3.159464
1133.413, 3.155455
1133.895, 3.068422
1134.377, 2.918098
1134.859, 2.710039
1135.342, 2.685759
1135.824, 2.873005
1136.306, 2.975702
1136.788, 2.862130
1137.270, 2.713673
1137.752, 2.725507
1138.234, 2.833755
1138.716, 2.875907
1139.198, 2.875095
1139.681, 2.964850
1140.163, 3.122053
1140.645, 3.145146
1141.127, 2.994629
1141.609, 2.864045
1142.091, 2.894088
1142.573, 2.953958
1143.055, 2.787873
1143.538, 2.561232
1144.020, 2.661641
1144.502, 2.970685
1144.984, 3.204632
1145.466, 3.309295
1145.948, 3.281187
1146.430, 3.122796
1146.912, 2.961017
1147.395, 2.904916
1147.877, 2.905352
1148.359, 2.920204
1148.841, 2.946915
1149.323, 3.019141
1149.805, 3.088765
1150.287, 3.016339
1150.769, 2.801330
1151.251, 2.662987
1151.734, 2.755788
1152.216, 2.851988
1152.698, 2.772263
1153.180, 2.664189
1153.662, 2.635981
1154.144, 2.663860
1154.626, 2.700979
1155.108, 2.755897
1155.590, 2.910414
1156.073, 3.228890
1156.555, 3.363822
1157.037, 3.023713
1157.519, 2.701961
1158.001, 2.579785
1158.483, 2.571586
1158.965, 2.688285
1159.447, 2.831298
1159.930, 2.810674
1160.412, 2.616139
1160.894, 2.535883
1161.376, 2.715832
1161.858, 2.830363
1162.340, 2.780792
1162.822, 2.754237
1163.304, 2.863425
1163.786, 2.979635
1164.269, 2.965381
1164.751, 2.864435
1165.233, 2.825589
1165.715, 2.853340
1166.197, 2.933431
1166.679, 3.107885
1167.161, 3.209810
1167.643, 3.179914
1168.125, 3.153366
1168.608, 3.236262
1169.090, 3.301117
1169.572, 3.129000
1170.054, 2.769878
1170.536, 2.611695
1171.018, 2.659822
1171.500, 2.804390
1171.982, 3.042110
1172.465, 3.206268
1172.947, 3.237295
1173.429, 3.227195
1173.911, 3.254074
1174.393, 3.284471
1174.875, 3.226333
1175.357, 3.121261
1175.839, 3.170770
1176.322, 3.322581
1176.804, 3.307068
1177.286, 3.119395
1177.768, 3.035910
1178.250, 3.178579
1178.732, 3.340037
1179.214, 3.317670
1179.696, 3.212666
1180.178, 3.165390
1180.661, 3.122957
1181.143, 2.945063
1181.625, 2.722048
1182.107, 2.687847
1182.589, 2.858269
1183.071, 3.045615
1183.553, 3.180667
1184.035, 3.236439
1184.517, 3.137989
1185.000, 3.019778
1185.482, 2.965115
1185.964, 2.949830
1186.446, 2.971252
1186.928, 2.999730
1187.410, 2.959585
1187.892, 2.835543
1188.374, 2.784025
1188.857, 2.887834
1189.339, 2.998395
1189.821, 3.098475
1190.303, 3.182472
1190.785, 3.284271
1191.267, 3.338989
1191.749, 3.219056
1192.231, 2.999234
1192.714, 2.991020
1193.196, 3.301388
1193.678, 3.393421
1194.160, 3.158306
1194.642, 3.012965
1195.124, 3.080170
1195.606, 3.121791
1196.088, 2.985389
1196.570, 2.796816
1197.052, 2.736293
1197.535, 2.773840
1198.017, 2.734761
1198.499, 2.624297
1198.981, 2.689444
1199.463, 2.937364
1199.945, 3.157377
1200.427, 3.287421
1200.909, 3.310064
1201.392, 3.207935
1201.874, 3.046483
1202.356, 2.839723
1202.838, 2.686997
1203.320, 2.905796
1203.802, 3.308736
1204.284, 3.468485
1204.766, 3.391802
1205.249, 3.269560
1205.731, 3.169724
1206.213, 3.089290
1206.695, 3.026512
1207.177, 2.981179
1207.659, 2.923030
1208.141, 2.913955
1208.623, 3.097466
1209.105, 3.298467
1209.588, 3.267435
1210.070, 3.057456
1210.552, 2.887732
1211.034, 2.803515
1211.516, 2.761324
1211.998, 2.744670
1212.480, 2.777295
1212.962, 2.924913
1213.444, 3.053097
1213.927, 3.053596
1214.409, 3.030973
1214.891, 3.126576
1215.373, 3.294336
1215.855, 3.318506
1216.337, 3.155588
1216.819, 3.041306
1217.301, 2.988529
1217.784, 2.922585
1218.266, 2.807546
1218.748, 2.796982
1219.230, 3.001036
1219.712, 3.223432
1220.194, 3.195354
1220.676, 3.007424
1221.158, 2.945714
1221.641, 2.992078
1222.123, 3.090142
1222.605, 3.207278
1223.087, 3.179289
1223.569, 2.993817
1224.051, 2.844847
1224.533, 2.840249
1225.015, 2.911251
1225.497, 3.067463
1225.979, 3.183363
1226.462, 2.989413
1226.944, 2.759352
1227.426, 2.952738
1227.908, 3.361424
1228.390, 3.492253
1228.872, 3.298370
1229.354, 3.126407
1229.836, 3.116408
1230.319, 3.074156
1230.801, 2.831934
1231.283, 2.676867
1231.765, 2.826308
1232.247, 3.016118
1232.729, 3.055588
1233.211, 2.982682
1233.693, 2.840091
1234.176, 2.635848
1234.658, 2.614428
1235.140, 2.826266
1235.622, 3.113130
1236.104, 3.588742
1236.586, 3.634255
1237.068, 2.949861
1237.550, 2.365805
1238.032, 2.506736
1238.515, 2.999438
1238.997, 3.256729
1239.479, 3.315550
1239.961, 3.291135
1240.443, 3.207961
1240.925, 3.207565
1241.407, 3.266679
1241.889, 3.168011
1242.371, 2.888901
1242.854, 2.758185
1243.336, 3.011835
1243.818, 3.268580
1244.300, 3.081634
1244.782, 2.821330
1245.264, 2.878099
1245.746, 3.049744
1246.228, 3.100740
1246.711, 3.056156
1247.193, 3.013177
1247.675, 2.987725
1248.157, 2.945464
1248.639, 2.825505
1249.121, 2.794933
1249.603, 2.946324
1250.085, 3.105483
1250.568, 3.274229
1251.050, 3.360505
1251.532, 3.272632
1252.014, 3.095145
1252.496, 2.966564
1252.978, 2.881982
1253.460, 2.782659
1253.942, 2.663800
1254.424, 2.558722
1254.906, 2.465689
1255.389, 2.559941
1255.871, 2.884635
1256.353, 3.126987
1256.835, 3.081210
1257.317, 2.923996
1257.799, 2.855762
1258.281, 2.853468
1258.763, 2.884076
1259.246, 2.945273
1259.728, 3.060555
1260.210, 3.193709
1260.692, 3.269679
1261.174, 3.276288
1261.656, 3.235720
1262.138, 3.145798
1262.620, 3.068244
1263.103, 3.030911
1263.585, 3.013511
1264.067, 3.012023
1264.549, 3.021924
1265.031, 3.056399
1265.513, 3.089726
1265.995, 3.082915
1266.477, 3.043032
1266.959, 3.000624
1267.442, 2.932727
1267.924, 2.969555
1268.406, 3.141990
1268.888, 3.289731
1269.370, 3.392061
1269.852, 3.381112
1270.334, 3.213664
1270.816, 3.010680
1271.298, 2.896419
1271.781, 2.846818
1272.263, 2.836882
1272.745, 2.841573
1273.227, 2.769048
1273.709, 2.669632
1274.191, 2.687134
1274.673, 2.807997
##END=



