##NAMES=Stephanite
##RRUFFID=R050306
##IDEAL CHEMISTRY=Ag^1+^_5_Sb^3+^S^2-^_4_
##LOCALITY=Atlanta, Idaho, USA
##OWNER=RRUFF
##SOURCE=Eugene Schlepp
##DESCRIPTION=Dark gray metallic crystals associated with quartz
##STATUS=The identification of this mineral is confirmed by single-crystal X-ray diffraction and chemical analysis.
##URL=rruff.info/R050306
##MEASURED CHEMISTRY=Ag_5.00_Sb_1.00_S_4.00_
122.2448, 1.825572
122.7269, 2.174594
123.2090, 2.616385
123.6911, 2.848053
124.1732, 2.817096
124.6553, 2.662286
125.1375, 2.396364
125.6196, 2.081413
126.1017, 1.913893
126.5838, 2.205518
127.0659, 2.693115
127.5480, 2.857842
128.0302, 2.529123
128.5123, 2.062652
128.9944, 1.997627
129.4765, 2.294760
129.9586, 2.586877
130.4407, 2.517119
130.9229, 2.192966
131.4050, 2.077464
131.8871, 2.339467
132.3692, 2.790452
132.8513, 2.969332
133.3334, 2.850654
133.8156, 2.689348
134.2977, 2.737691
134.7798, 2.995313
135.2619, 3.243863
135.7440, 3.468728
136.2261, 3.646516
136.7083, 3.629595
137.1904, 3.363357
137.6725, 3.079337
138.1546, 3.080475
138.6367, 3.451054
139.1188, 3.626373
139.6010, 3.383450
140.0831, 2.722383
140.5652, 2.331505
141.0473, 2.262397
141.5294, 2.374803
142.0115, 2.491862
142.4937, 2.598911
142.9758, 2.749373
143.4579, 3.001233
143.9400, 3.419418
144.4221, 3.607517
144.9042, 3.471236
145.3864, 3.163453
145.8685, 2.941264
146.3506, 2.804883
146.8327, 2.747866
147.3148, 2.777921
147.7969, 2.945729
148.2791, 3.088167
148.7612, 3.254291
149.2433, 3.392274
149.7254, 3.377125
150.2075, 2.940055
150.6896, 2.584016
151.1718, 2.504632
151.6539, 2.994630
152.1360, 3.329980
152.6181, 3.473303
153.1002, 3.450818
153.5823, 3.338766
154.0645, 2.984153
154.5466, 2.655412
155.0287, 2.476650
155.5108, 2.521723
155.9929, 2.638976
156.4750, 2.875870
156.9572, 3.189850
157.4393, 3.400845
157.9214, 3.336429
158.4035, 3.240724
158.8856, 3.265592
159.3677, 3.656320
159.8499, 3.959054
160.3320, 4.037282
160.8141, 3.912851
161.2962, 3.704129
161.7783, 3.333242
162.2604, 2.952705
162.7426, 2.688259
163.2247, 2.571234
163.7068, 2.581428
164.1889, 2.799555
164.6710, 3.202582
165.1531, 3.500966
165.6353, 3.438759
166.1174, 3.235911
166.5995, 3.129180
167.0816, 3.398040
167.5637, 3.646011
168.0458, 3.541442
168.5280, 3.083225
169.0101, 2.681159
169.4922, 2.651794
169.9743, 2.832305
170.4564, 2.996483
170.9385, 3.019507
171.4207, 3.006029
171.9028, 3.065193
172.3849, 3.204843
172.8670, 3.322370
173.3491, 3.340856
173.8312, 3.281979
174.3134, 3.186553
174.7955, 2.985203
175.2776, 2.796342
175.7597, 2.810185
176.2418, 3.061270
176.7239, 3.305115
177.2061, 3.236984
177.6882, 2.969417
178.1703, 2.809237
178.6524, 3.036656
179.1345, 3.432731
179.6166, 3.619772
180.0988, 3.561975
180.5809, 3.385687
181.0630, 3.197225
181.5451, 3.000560
182.0272, 2.819817
182.5093, 2.612731
182.9915, 2.430479
183.4736, 2.429343
183.9557, 2.649865
184.4378, 2.939808
184.9199, 3.110986
185.4020, 3.170472
185.8842, 3.189747
186.3663, 3.188315
186.8484, 3.174173
187.3305, 3.180137
187.8126, 3.213793
188.2947, 3.254757
188.7769, 3.281053
189.2590, 3.291933
189.7411, 3.269739
190.2232, 3.158636
190.7053, 2.984956
191.1874, 2.934726
191.6696, 3.055106
192.1517, 3.241668
192.6338, 3.283613
193.1159, 3.175515
193.5980, 3.070897
194.0801, 3.084934
194.5623, 3.206043
195.0444, 3.260534
195.5265, 3.213827
196.0086, 3.120010
196.4907, 3.094828
196.9728, 3.143865
197.4550, 3.213796
197.9371, 3.284096
198.4192, 3.355289
198.9013, 3.388086
199.3834, 3.361553
199.8655, 3.312698
200.3477, 3.360002
200.8298, 3.534317
201.3119, 3.663253
201.7940, 3.607559
202.2761, 3.344212
202.7582, 3.156101
203.2404, 3.071216
203.7225, 3.073757
204.2046, 3.141295
204.6867, 3.297067
205.1688, 3.438698
205.6509, 3.503823
206.1331, 3.488473
206.6152, 3.419580
207.0973, 3.274844
207.5794, 3.090569
208.0615, 2.978976
208.5436, 2.949474
209.0257, 2.967573
209.5079, 3.027040
209.9900, 3.144366
210.4721, 3.224783
210.9542, 3.259176
211.4363, 3.252114
211.9184, 3.200772
212.4006, 3.064879
212.8827, 2.971701
213.3648, 3.026530
213.8469, 3.292939
214.3290, 3.471726
214.8111, 3.521529
215.2933, 3.471628
215.7754, 3.426322
216.2575, 3.390400
216.7396, 3.349788
217.2217, 3.280351
217.7038, 3.140774
218.1860, 3.111954
218.6681, 3.269311
219.1502, 3.536651
219.6323, 3.612231
220.1144, 3.398349
220.5965, 3.159298
221.0787, 3.057254
221.5608, 3.160130
222.0429, 3.215101
222.5250, 3.199449
223.0071, 3.126271
223.4892, 3.033978
223.9714, 2.883933
224.4535, 2.774093
224.9356, 2.767327
225.4177, 2.919113
225.8998, 3.044251
226.3819, 3.148925
226.8641, 3.219615
227.3462, 3.180195
227.8283, 2.908329
228.3104, 2.712477
228.7925, 2.795622
229.2746, 3.400227
229.7568, 3.722498
230.2389, 3.625477
230.7210, 3.248015
231.2031, 3.026788
231.6852, 2.984056
232.1673, 3.063686
232.6495, 3.275405
233.1316, 3.780960
233.6137, 4.045025
234.0958, 3.960160
234.5779, 3.643471
235.0600, 3.419473
235.5422, 3.305843
236.0243, 3.256000
236.5064, 3.259693
236.9885, 3.363123
237.4706, 3.414710
237.9527, 3.387668
238.4349, 3.315268
238.9170, 3.283916
239.3991, 3.324700
239.8812, 3.360132
240.3633, 3.359462
240.8454, 3.319638
241.3276, 3.244005
241.8097, 3.086935
242.2918, 2.912017
242.7739, 2.869436
243.2560, 3.032039
243.7381, 3.214445
244.2203, 3.346274
244.7024, 3.406805
245.1845, 3.480591
245.6666, 3.604927
246.1487, 3.724516
246.6308, 3.715559
247.1130, 3.461714
247.5951, 3.271217
248.0772, 3.286958
248.5593, 3.609857
249.0414, 3.759725
249.5235, 3.652041
250.0057, 3.424434
250.4878, 3.305025
250.9699, 3.346226
251.4520, 3.403811
251.9341, 3.445784
252.4162, 3.485638
252.8984, 3.433685
253.3805, 3.225513
253.8626, 2.974100
254.3447, 2.857086
254.8268, 2.930088
255.3089, 3.021479
255.7911, 3.095740
256.2732, 3.159336
256.7553, 3.139637
257.2374, 2.959448
257.7195, 2.772176
258.2017, 2.796089
258.6838, 3.165112
259.1659, 3.436814
259.6480, 3.469970
260.1301, 3.252189
260.6122, 3.131726
261.0944, 3.144706
261.5765, 3.210284
262.0586, 3.258698
262.5407, 3.316769
263.0228, 3.275203
263.5049, 3.056126
263.9871, 2.671722
264.4692, 2.498835
264.9513, 2.608716
265.4334, 2.813072
265.9155, 2.941060
266.3976, 2.965481
266.8798, 3.001923
267.3619, 3.089714
267.8440, 3.213504
268.3261, 3.222827
268.8082, 3.066783
269.2903, 2.903377
269.7725, 2.882253
270.2546, 3.047577
270.7367, 3.149233
271.2188, 3.136688
271.7009, 3.036744
272.1830, 2.964611
272.6652, 2.933193
273.1473, 2.895577
273.6294, 2.802074
274.1115, 2.633802
274.5936, 2.528697
275.0757, 2.503888
275.5579, 2.546937
276.0400, 2.651580
276.5221, 2.846394
277.0042, 2.987234
277.4863, 2.969634
277.9684, 2.781753
278.4506, 2.575795
278.9327, 2.317252
279.4148, 2.101821
279.8969, 2.204417
280.3790, 2.678623
280.8611, 3.094068
281.3433, 3.176613
281.8254, 2.929457
282.3075, 2.787766
282.7896, 2.777309
283.2717, 2.844605
283.7538, 2.937667
284.2360, 3.060107
284.7181, 3.116414
285.2002, 3.002212
285.6823, 2.749772
286.1644, 2.689426
286.6465, 2.862182
287.1287, 3.079804
287.6108, 3.051967
288.0929, 2.795684
288.5750, 2.626577
289.0571, 2.704840
289.5392, 2.965395
290.0214, 3.176933
290.5035, 3.344939
290.9856, 3.418295
291.4677, 3.253472
291.9498, 2.901071
292.4319, 2.683674
292.9141, 2.737107
293.3962, 2.965047
293.8783, 3.183491
294.3604, 3.392199
294.8425, 3.527135
295.3246, 3.522772
295.8068, 3.398293
296.2889, 3.203319
296.7710, 2.896497
297.2531, 2.585777
297.7352, 2.482817
298.2173, 2.568698
298.6995, 2.680398
299.1816, 2.677808
299.6637, 2.617570
300.1458, 2.620903
300.6279, 2.718154
301.1100, 2.866428
301.5922, 3.050859
302.0743, 3.252959
302.5564, 3.397622
303.0385, 3.383948
303.5206, 3.304613
304.0027, 3.329757
304.4849, 3.521317
304.9670, 3.649644
305.4491, 3.378201
305.9312, 2.862398
306.4133, 2.474851
306.8954, 2.467186
307.3776, 2.642540
307.8597, 2.837273
308.3418, 3.047351
308.8239, 3.208978
309.3060, 3.284000
309.7881, 3.279398
310.2703, 3.204419
310.7524, 2.980426
311.2345, 2.748105
311.7166, 2.586353
312.1987, 2.498676
312.6808, 2.512884
313.1630, 2.760694
313.6451, 3.075330
314.1272, 3.279581
314.6093, 3.287463
315.0914, 3.196117
315.5735, 2.988687
316.0557, 2.694110
316.5378, 2.466141
317.0199, 2.392734
317.5020, 2.398041
317.9841, 2.424667
318.4662, 2.434601
318.9484, 2.502702
319.4305, 2.709478
319.9126, 2.998878
320.3947, 3.223609
320.8768, 3.358362
321.3589, 3.404722
321.8411, 3.355599
322.3232, 3.186635
322.8053, 2.981416
323.2874, 2.618988
323.7695, 2.254331
324.2516, 2.132926
324.7338, 2.606982
325.2159, 3.039941
325.6980, 3.198653
326.1801, 2.991349
326.6622, 2.878476
327.1443, 2.962281
327.6265, 3.123582
328.1086, 3.243496
328.5907, 3.322017
329.0728, 3.354348
329.5549, 3.302737
330.0370, 3.165475
330.5192, 3.129875
331.0013, 3.278475
331.4834, 3.458366
331.9655, 3.557617
332.4476, 3.472085
332.9297, 3.491009
333.4118, 3.697165
333.8940, 4.032610
334.3761, 4.237460
334.8582, 4.269866
335.3403, 4.232389
335.8224, 4.175639
336.3045, 4.109370
336.7867, 3.990811
337.2688, 3.806696
337.7509, 3.578843
338.2330, 3.322046
338.7151, 2.998559
339.1972, 2.772106
339.6794, 2.735797
340.1615, 2.900867
340.6436, 3.006269
341.1257, 3.032720
341.6078, 3.039435
342.0899, 3.135155
342.5721, 3.332465
343.0542, 3.423011
343.5363, 3.303860
344.0184, 3.032130
344.5005, 2.845035
344.9826, 2.746700
345.4648, 2.713545
345.9469, 2.773664
346.4290, 2.907103
346.9111, 2.940735
347.3932, 2.809742
347.8753, 2.606322
348.3575, 2.511822
348.8396, 2.519193
349.3217, 2.545546
349.8038, 2.548409
350.2859, 2.528302
350.7680, 2.477770
351.2502, 2.387526
351.7323, 2.299403
352.2144, 2.245576
352.6965, 2.230071
353.1786, 2.266845
353.6607, 2.433087
354.1429, 2.622785
354.6250, 2.692402
355.1071, 2.633427
355.5892, 2.541096
356.0713, 2.466139
356.5534, 2.410025
357.0356, 2.374911
357.5177, 2.361357
357.9998, 2.369200
358.4819, 2.458287
358.9640, 2.598254
359.4461, 2.613998
359.9283, 2.156084
360.4104, 1.672536
360.8925, 1.570726
361.3746, 2.174592
361.8567, 2.766401
362.3388, 3.080807
362.8210, 3.167352
363.3031, 3.147278
363.7852, 2.973592
364.2673, 2.769500
364.7494, 2.584765
365.2315, 2.420499
365.7137, 2.290812
366.1958, 2.194130
366.6779, 2.136338
367.1600, 2.123533
367.6421, 2.225553
368.1242, 2.301095
368.6064, 2.281273
369.0885, 2.156662
369.5706, 2.163055
370.0527, 2.485011
370.5348, 2.795394
371.0169, 2.872699
371.4991, 2.530560
371.9812, 2.268960
372.4633, 2.122415
372.9454, 2.078884
373.4275, 2.110218
373.9096, 2.268418
374.3918, 2.411681
374.8739, 2.469287
375.3560, 2.424302
375.8381, 2.375998
376.3202, 2.331296
376.8023, 2.275097
377.2845, 2.158123
377.7666, 1.955350
378.2487, 1.838922
378.7308, 1.904758
379.2129, 2.116382
379.6950, 2.215416
380.1772, 2.190284
380.6593, 2.116544
381.1414, 2.042133
381.6235, 1.971696
382.1056, 1.948552
382.5877, 1.996326
383.0699, 2.076239
383.5520, 2.121884
384.0341, 2.134533
384.5162, 2.123020
384.9983, 2.087195
385.4804, 2.032019
385.9626, 1.947380
386.4447, 1.817990
386.9268, 1.736382
387.4089, 1.898927
387.8910, 2.185133
388.3731, 2.319964
388.8553, 1.980832
389.3374, 1.560242
389.8195, 1.479885
390.3016, 1.725524
390.7837, 1.974263
391.2658, 1.987059
391.7480, 1.914003
392.2301, 1.916278
392.7122, 2.107318
393.1943, 2.285610
393.6764, 2.343667
394.1585, 2.311830
394.6407, 2.275642
395.1228, 2.237882
395.6049, 2.224216
396.0870, 2.261424
396.5691, 2.382463
397.0512, 2.455065
397.5334, 2.439721
398.0155, 2.366925
398.4976, 2.275409
398.9797, 2.062117
399.4618, 1.944576
399.9439, 2.008117
400.4261, 2.251412
400.9082, 2.411965
401.3903, 2.421471
401.8724, 2.413037
402.3545, 2.486166
402.8366, 2.740220
403.3188, 2.848796
403.8009, 2.737689
404.2830, 2.495014
404.7651, 2.334146
405.2472, 2.256638
405.7293, 2.263231
406.2115, 2.410049
406.6936, 2.705267
407.1757, 2.782877
407.6578, 2.597617
408.1399, 2.317027
408.6220, 2.109664
409.1042, 1.975221
409.5863, 1.911638
410.0684, 1.954083
410.5505, 2.039246
411.0326, 1.991981
411.5147, 1.816589
411.9969, 1.654479
412.4790, 1.584116
412.9611, 1.602335
413.4432, 1.740120
413.9253, 2.041965
414.4074, 2.309247
414.8896, 2.237319
415.3717, 1.961260
415.8538, 1.799457
416.3359, 2.080384
416.8180, 2.431055
417.3001, 2.441787
417.7823, 2.118860
418.2644, 1.884177
418.7465, 2.098301
419.2286, 2.461456
419.7107, 2.677991
420.1928, 2.581530
420.6750, 2.451669
421.1571, 2.367375
421.6392, 2.327787
422.1213, 2.333384
422.6034, 2.401206
423.0855, 2.499164
423.5677, 2.643100
424.0498, 2.882699
424.5319, 2.987319
425.0140, 2.830794
425.4961, 2.583083
425.9782, 2.413929
426.4604, 2.356004
426.9425, 2.331188
427.4246, 2.349810
427.9067, 2.400001
428.3888, 2.391272
428.8709, 2.292367
429.3531, 2.189985
429.8352, 2.131331
430.3173, 2.123585
430.7994, 2.133855
431.2815, 2.173764
431.7636, 2.211298
432.2458, 2.164653
432.7279, 2.024482
433.2100, 1.964588
433.6921, 2.110178
434.1742, 2.373777
434.6563, 2.401605
435.1385, 2.187835
435.6206, 1.934385
436.1027, 1.789230
436.5848, 1.738648
437.0669, 1.751930
437.5490, 1.833977
438.0312, 1.951661
438.5133, 2.094636
438.9954, 2.247181
439.4775, 2.365535
439.9596, 2.455212
440.4417, 2.483141
440.9239, 2.396394
441.4060, 2.192008
441.8881, 1.976774
442.3702, 1.739270
442.8523, 1.555910
443.3344, 1.502019
443.8166, 1.739928
444.2987, 1.943033
444.7808, 1.949569
445.2629, 1.836840
445.7450, 1.831486
446.2271, 2.166446
446.7093, 2.453537
447.1914, 2.518899
447.6735, 2.264052
448.1556, 2.093592
448.6377, 2.053876
449.1198, 2.068753
449.6020, 2.063631
450.0841, 2.030418
450.5662, 1.990206
451.0483, 1.923767
451.5304, 1.853594
452.0125, 1.897282
452.4947, 2.090827
452.9768, 2.288252
453.4589, 2.439933
453.9410, 2.547903
454.4231, 2.458220
454.9052, 2.108290
455.3874, 1.752931
455.8695, 1.811301
456.3516, 2.214730
456.8337, 2.441879
457.3158, 2.215789
457.7979, 1.808828
458.2801, 1.740510
458.7622, 1.970109
459.2443, 2.211816
459.7264, 2.264963
460.2085, 2.214536
460.6906, 2.157290
461.1728, 2.099188
461.6549, 2.073091
462.1370, 2.146783
462.6191, 2.258709
463.1012, 2.316843
463.5833, 2.229359
464.0655, 2.134688
464.5476, 2.106185
465.0297, 2.135297
465.5118, 2.138198
465.9939, 2.017411
466.4760, 1.919253
466.9582, 1.937917
467.4403, 2.232093
467.9224, 2.366549
468.4045, 2.194969
468.8866, 1.918730
469.3687, 1.838403
469.8509, 2.101564
470.3330, 2.291977
470.8151, 2.287663
471.2972, 2.113257
471.7793, 2.022974
472.2614, 2.021526
472.7436, 2.089290
473.2257, 2.265801
473.7078, 2.555686
474.1899, 2.665843
474.6720, 2.543504
475.1541, 2.324815
475.6363, 2.186498
476.1184, 2.124484
476.6005, 2.115017
477.0826, 2.176159
477.5647, 2.267673
478.0468, 2.342175
478.5290, 2.395969
479.0111, 2.395295
479.4932, 2.222171
479.9753, 2.021683
480.4574, 2.003534
480.9395, 2.277602
481.4217, 2.492502
481.9038, 2.324182
482.3859, 1.981579
482.8680, 1.773436
483.3501, 1.957248
483.8322, 2.141145
484.3144, 2.149250
484.7965, 1.994488
485.2786, 1.922090
485.7607, 2.074799
486.2428, 2.235033
486.7249, 2.293405
487.2071, 2.204155
487.6892, 2.102057
488.1713, 1.932077
488.6534, 1.787883
489.1355, 1.845112
489.6176, 2.223451
490.0998, 2.435365
490.5819, 2.286593
491.0640, 1.885585
491.5461, 1.837619
492.0282, 2.188825
492.5103, 2.547464
492.9925, 2.620328
493.4746, 2.458304
493.9567, 2.309869
494.4388, 2.187569
494.9209, 2.098840
495.4030, 2.035926
495.8852, 2.011410
496.3673, 2.063753
496.8494, 2.320937
497.3315, 2.551564
497.8136, 2.447695
498.2957, 2.094712
498.7779, 1.848176
499.2600, 2.017168
499.7421, 2.271918
500.2242, 2.375651
500.7063, 2.270139
501.1884, 2.150007
501.6706, 2.045461
502.1527, 1.967958
502.6348, 1.931270
503.1169, 1.987041
503.5990, 2.022892
504.0811, 1.984100
504.5633, 1.911600
505.0454, 1.983170
505.5275, 2.337780
506.0096, 2.591904
506.4917, 2.538506
506.9738, 2.135605
507.4560, 1.953639
507.9381, 2.041927
508.4202, 2.217881
508.9023, 2.322844
509.3844, 2.356288
509.8665, 2.284926
510.3487, 2.056096
510.8308, 1.805525
511.3129, 1.795173
511.7950, 1.980445
512.2772, 2.153211
512.7593, 2.202474
513.2414, 2.179362
513.7235, 2.134068
514.2056, 2.069309
514.6877, 2.003830
515.1699, 1.885880
515.6520, 1.805772
516.1341, 1.864863
516.6162, 2.183205
517.0983, 2.449509
517.5804, 2.535842
518.0626, 2.511762
518.5447, 2.491383
519.0268, 2.554957
519.5089, 2.554944
519.9910, 2.416652
520.4731, 2.154355
520.9553, 2.008204
521.4374, 2.041952
521.9195, 2.098743
522.4016, 2.087943
522.8837, 1.993332
523.3658, 1.906321
523.8480, 1.810151
524.3301, 1.759067
524.8122, 1.886101
525.2943, 2.173648
525.7764, 2.327146
526.2585, 2.215442
526.7407, 1.984416
527.2228, 1.896565
527.7049, 1.933531
528.1870, 1.989240
528.6691, 1.981418
529.1512, 1.966735
529.6334, 2.024018
530.1155, 2.161480
530.5976, 2.294336
531.0797, 2.402556
531.5618, 2.468037
532.0439, 2.468382
532.5261, 2.341821
533.0082, 2.230875
533.4903, 2.166745
533.9724, 2.142256
534.4545, 2.141904
534.9366, 2.259929
535.4188, 2.287244
535.9009, 2.097066
536.3830, 1.700432
536.8651, 1.629142
537.3472, 2.038266
537.8293, 2.466886
538.3115, 2.573257
538.7936, 2.327723
539.2757, 2.198386
539.7578, 2.235688
540.2399, 2.313221
540.7220, 2.210526
541.2042, 1.973720
541.6863, 1.872698
542.1684, 2.066595
542.6505, 2.345764
543.1326, 2.393782
543.6147, 2.259443
544.0969, 2.129007
544.5790, 2.147291
545.0611, 2.193007
545.5432, 2.149390
546.0253, 2.001775
546.5074, 1.885279
546.9896, 1.832137
547.4717, 1.848993
547.9538, 1.944894
548.4359, 2.262490
548.9180, 2.464741
549.4001, 2.434641
549.8823, 2.303563
550.3644, 2.308946
550.8465, 2.580303
551.3286, 2.736333
551.8107, 2.628407
552.2928, 2.310265
552.7750, 2.209327
553.2571, 2.366328
553.7392, 2.536117
554.2213, 2.563717
554.7034, 2.465428
555.1855, 2.312224
555.6677, 2.096539
556.1498, 1.907353
556.6319, 1.840513
557.1140, 1.870557
557.5961, 1.955847
558.0782, 2.121368
558.5604, 2.276133
559.0425, 2.377610
559.5246, 2.411838
560.0067, 2.345039
560.4888, 1.989158
560.9709, 1.687649
561.4531, 1.651808
561.9352, 1.885801
562.4173, 2.029377
562.8994, 1.901795
563.3815, 1.780419
563.8636, 1.823583
564.3458, 2.150868
564.8279, 2.308509
565.3100, 2.237345
565.7921, 2.073440
566.2742, 1.975906
566.7563, 1.943801
567.2385, 1.995278
567.7206, 2.176261
568.2027, 2.390379
568.6848, 2.361745
569.1669, 2.128863
569.6490, 1.983277
570.1312, 2.226142
570.6133, 2.583420
571.0954, 2.623697
571.5775, 2.355406
572.0596, 2.050556
572.5417, 1.802981
573.0239, 1.641107
573.5060, 1.616210
573.9881, 1.801739
574.4702, 1.942685
574.9523, 1.890411
575.4344, 1.779527
575.9166, 1.783033
576.3987, 2.121273
576.8808, 2.290401
577.3629, 2.147942
577.8450, 1.808120
578.3271, 1.657498
578.8092, 1.750546
579.2913, 1.872667
579.7734, 1.948630
580.2556, 1.979209
580.7377, 1.950528
581.2198, 1.853945
581.7019, 1.795042
582.1840, 1.899992
582.6661, 2.105013
583.1483, 2.272431
583.6304, 2.387591
584.1125, 2.429728
584.5946, 2.292917
585.0767, 2.093617
585.5588, 2.004633
586.0410, 2.215274
586.5231, 2.401022
587.0052, 2.404346
587.4873, 2.277730
587.9694, 2.162543
588.4515, 2.079185
588.9337, 2.017698
589.4158, 1.991880
589.8979, 2.002275
590.3800, 1.936111
590.8621, 1.718951
591.3442, 1.556525
591.8264, 1.628411
592.3085, 1.959072
592.7906, 2.121732
593.2727, 2.078090
593.7548, 1.956569
594.2369, 1.870032
594.7191, 1.826405
595.2012, 1.868417
595.6833, 2.039923
596.1654, 2.233051
596.6475, 2.333295
597.1296, 2.362584
597.6118, 2.374271
598.0939, 2.410298
598.5760, 2.419311
599.0581, 2.343934
599.5402, 2.198621
600.0223, 2.104670
600.5045, 2.168915
600.9866, 2.220843
601.4687, 2.165806
601.9508, 1.957763
602.4329, 1.844274
602.9150, 1.840680
603.3972, 1.911978
603.8793, 2.071100
604.3614, 2.341602
604.8435, 2.436538
605.3256, 2.283036
605.8077, 2.033990
606.2899, 1.914486
606.7720, 1.909003
607.2541, 1.953709
607.7362, 2.054876
608.2183, 2.163067
608.7004, 2.232186
609.1826, 2.260928
609.6647, 2.242347
610.1468, 2.098738
610.6289, 1.966861
611.1110, 1.947180
611.5931, 2.048267
612.0753, 2.131132
612.5574, 2.150542
613.0395, 2.158320
613.5216, 2.187194
614.0037, 2.259300
614.4858, 2.297245
614.9680, 2.301423
615.4501, 2.270986
615.9322, 2.175231
616.4143, 2.006062
616.8964, 1.942379
617.3785, 2.051258
617.8607, 2.218965
618.3428, 2.231851
618.8249, 2.124062
619.3070, 2.038594
619.7891, 2.102413
620.2712, 2.177649
620.7534, 2.052896
621.2355, 1.788481
621.7176, 1.670089
622.1997, 2.011191
622.6818, 2.395241
623.1639, 2.587814
623.6461, 2.547791
624.1282, 2.462249
624.6103, 2.260074
625.0924, 2.095476
625.5745, 2.090993
626.0566, 2.364841
626.5388, 2.432963
627.0209, 2.204340
627.5030, 1.905091
627.9851, 1.890610
628.4672, 2.142902
628.9493, 2.270234
629.4315, 2.121873
629.9136, 1.913378
630.3957, 2.066751
630.8778, 2.452075
631.3599, 2.677879
631.8420, 2.322518
632.3242, 1.922845
632.8063, 1.959101
633.2884, 2.348323
633.7705, 2.608189
634.2526, 2.453204
634.7347, 2.229774
635.2169, 2.104619
635.6990, 2.107300
636.1811, 2.070143
636.6632, 1.922329
637.1453, 1.824111
637.6274, 1.946391
638.1096, 2.356435
638.5917, 2.491256
639.0738, 2.266548
639.5559, 1.938868
640.0380, 1.839328
640.5201, 1.921274
641.0023, 1.978597
641.4844, 1.946162
641.9665, 1.896335
642.4486, 1.912186
642.9307, 1.969306
643.4128, 2.014182
643.8950, 2.019753
644.3771, 2.012642
644.8592, 1.996900
645.3413, 1.976459
645.8234, 1.969438
646.3055, 1.989102
646.7877, 2.010863
647.2698, 2.008166
647.7519, 1.976821
648.2340, 2.087604
648.7161, 2.416609
649.1982, 2.678783
649.6804, 2.578410
650.1625, 2.170006
650.6446, 2.013511
651.1267, 2.164482
651.6088, 2.351630
652.0909, 2.243392
652.5731, 1.986307
653.0552, 1.846799
653.5373, 1.927199
654.0194, 2.045678
654.5015, 2.119116
654.9836, 2.151294
655.4658, 2.148590
655.9479, 2.060432
656.4300, 1.997905
656.9121, 1.986452
657.3942, 2.015912
657.8763, 2.065514
658.3585, 2.154075
658.8406, 2.214713
659.3227, 2.199197
659.8048, 2.139709
660.2869, 2.256809
660.7690, 2.560125
661.2512, 2.776809
661.7333, 2.622181
662.2154, 2.291012
662.6975, 2.185897
663.1796, 2.314682
663.6617, 2.436908
664.1439, 2.335746
664.6260, 2.183575
665.1081, 2.146898
665.5902, 2.295502
666.0723, 2.411416
666.5544, 2.418624
667.0366, 2.383168
667.5187, 2.364504
668.0008, 2.355209
668.4829, 2.393851
668.9650, 2.539475
669.4471, 2.666745
669.9293, 2.502380
670.4114, 2.041280
670.8935, 1.757444
671.3756, 1.823802
671.8577, 2.058454
672.3398, 2.209632
672.8220, 2.281044
673.3041, 2.283848
673.7862, 2.195191
674.2683, 2.064819
674.7504, 1.842068
675.2325, 1.578043
675.7147, 1.519831
676.1968, 2.033752
676.6789, 2.499919
677.1610, 2.598011
677.6431, 2.309520
678.1252, 2.155897
678.6074, 2.192504
679.0895, 2.263074
679.5716, 2.261395
680.0537, 2.187491
680.5358, 2.182281
681.0179, 2.261180
681.5001, 2.311769
681.9822, 2.145736
682.4643, 1.883159
682.9464, 1.795137
683.4285, 1.966726
683.9106, 2.156909
684.3928, 2.214730
684.8749, 2.186006
685.3570, 2.128284
685.8391, 1.996730
686.3212, 1.909703
686.8033, 1.900749
687.2855, 1.941850
687.7676, 1.988316
688.2497, 2.025941
688.7318, 2.122853
689.2139, 2.347903
689.6960, 2.596550
690.1782, 2.504513
690.6603, 2.093389
691.1424, 1.785040
691.6245, 1.850946
692.1066, 2.083104
692.5887, 2.160364
693.0709, 2.113312
693.5530, 2.073554
694.0351, 2.156104
694.5172, 2.233471
694.9993, 2.195145
695.4814, 2.030710
695.9636, 1.956570
696.4457, 2.138102
696.9278, 2.284699
697.4099, 2.227326
697.8920, 1.907574
698.3741, 1.802220
698.8563, 1.964500
699.3384, 2.177383
699.8205, 2.276147
700.3026, 2.263986
700.7847, 2.118001
701.2668, 1.813126
701.7490, 1.546612
702.2311, 1.524450
702.7132, 1.651727
703.1953, 1.812362
703.6774, 2.031415
704.1595, 2.164313
704.6417, 2.102563
705.1238, 1.942116
705.6059, 1.811070
706.0880, 1.644557
706.5701, 1.633679
707.0522, 1.860743
707.5344, 2.207190
708.0165, 2.446773
708.4986, 2.579890
708.9807, 2.582793
709.4628, 2.393987
709.9449, 2.137522
710.4271, 2.058135
710.9092, 2.118882
711.3913, 2.179901
711.8734, 2.128353
712.3555, 2.085189
712.8376, 2.180315
713.3198, 2.375875
713.8019, 2.478457
714.2840, 2.342199
714.7661, 2.196776
715.2482, 2.132202
715.7303, 2.145279
716.2125, 2.117443
716.6946, 2.006869
717.1767, 1.969180
717.6588, 2.164619
718.1409, 2.544374
718.6230, 2.688622
719.1052, 2.593760
719.5873, 2.468466
720.0694, 2.509447
720.5515, 2.604655
721.0336, 2.601129
721.5157, 2.470790
721.9979, 2.329849
722.4800, 2.204034
722.9621, 2.106825
723.4442, 2.048499
723.9263, 2.029828
724.4084, 2.057328
724.8906, 2.168015
725.3727, 2.281679
725.8548, 2.290071
726.3369, 2.179720
726.8190, 2.212773
727.3011, 2.468274
727.7833, 2.695803
728.2654, 2.440276
728.7475, 1.908391
729.2296, 1.607754
729.7117, 1.766576
730.1938, 2.011688
730.6760, 2.107815
731.1581, 2.121075
731.6402, 2.155192
732.1223, 2.330281
732.6044, 2.403435
733.0865, 2.276797
733.5687, 2.054164
734.0508, 1.963330
734.5329, 2.039054
735.0150, 2.101232
735.4971, 2.099644
735.9792, 2.059711
736.4614, 2.052592
736.9435, 2.065189
737.4256, 2.030010
737.9077, 1.835550
738.3898, 1.638260
738.8719, 1.573827
739.3541, 1.627351
739.8362, 1.748644
740.3183, 2.040325
740.8004, 2.276748
741.2825, 2.313113
741.7646, 2.185975
742.2468, 2.219003
742.7289, 2.497268
743.2110, 2.721472
743.6931, 2.741736
744.1752, 2.589222
744.6573, 2.409508
745.1395, 2.206328
745.6216, 2.057804
746.1037, 2.075550
746.5858, 2.149458
747.0679, 2.117378
747.5500, 1.978551
748.0322, 1.908035
748.5143, 2.072455
748.9964, 2.261238
749.4785, 2.338604
749.9606, 2.268884
750.4427, 2.241492
750.9249, 2.299502
751.4070, 2.326642
751.8891, 2.206810
752.3712, 1.943106
752.8533, 1.795207
753.3354, 1.773193
753.8176, 1.824789
754.2997, 1.955311
754.7818, 2.106624
755.2639, 2.177310
755.7460, 2.137875
756.2281, 2.105957
756.7103, 2.158389
757.1924, 2.236888
757.6745, 2.295232
758.1566, 2.355811
758.6387, 2.325898
759.1208, 2.126203
759.6030, 1.931579
760.0851, 1.955632
760.5672, 2.208013
761.0493, 2.386682
761.5314, 2.458241
762.0135, 2.451342
762.4957, 2.327379
762.9778, 2.164521
763.4599, 2.127031
763.9420, 2.317255
764.4241, 2.487203
764.9063, 2.455245
765.3884, 2.344211
765.8705, 2.306581
766.3526, 2.539200
766.8347, 2.573260
767.3168, 2.269461
767.7990, 1.867674
768.2811, 1.754028
768.7632, 1.943617
769.2453, 2.107310
769.7274, 2.171937
770.2095, 2.200801
770.6917, 2.316837
771.1738, 2.462411
771.6559, 2.504192
772.1380, 2.304281
772.6201, 2.115927
773.1022, 2.082667
773.5844, 2.150363
774.0665, 2.227648
774.5486, 2.381286
775.0307, 2.416690
775.5128, 2.237140
775.9949, 1.974318
776.4771, 1.940700
776.9592, 2.143750
777.4413, 2.354281
777.9234, 2.515815
778.4055, 2.635830
778.8876, 2.772960
779.3698, 2.879523
779.8519, 2.832359
780.3340, 2.341920
780.8161, 1.928240
781.2982, 1.900352
781.7803, 2.131913
782.2625, 2.278841
782.7446, 2.274199
783.2267, 2.252465
783.7088, 2.241990
784.1909, 2.230242
784.6730, 2.161520
785.1552, 2.036431
785.6373, 1.962025
786.1194, 2.001220
786.6015, 2.091207
787.0836, 2.147072
787.5657, 2.178079
788.0479, 2.209454
788.5300, 2.261800
789.0121, 2.306964
789.4942, 2.340444
789.9763, 2.356928
790.4584, 2.334328
790.9406, 2.233933
791.4227, 2.174827
791.9048, 2.212863
792.3869, 2.302560
792.8690, 2.277018
793.3511, 2.144742
793.8333, 2.040445
794.3154, 2.049768
794.7975, 2.101343
795.2796, 2.123898
795.7617, 2.118003
796.2438, 2.084681
796.7260, 1.983108
797.2081, 1.897197
797.6902, 1.860878
798.1723, 1.867559
798.6544, 1.895370
799.1365, 1.952108
799.6187, 2.009403
800.1008, 2.059723
800.5829, 2.103053
801.0650, 2.150886
801.5471, 2.197270
802.0292, 2.203999
802.5114, 2.108363
802.9935, 1.996607
803.4756, 1.932857
803.9577, 1.917491
804.4398, 1.951633
804.9219, 2.121581
805.4041, 2.243450
805.8862, 2.235441
806.3683, 2.138232
806.8504, 2.132110
807.3325, 2.239632
807.8146, 2.331388
808.2968, 2.373792
808.7789, 2.357344
809.2610, 2.191256
809.7431, 1.927655
810.2252, 1.779112
810.7073, 1.939841
811.1895, 2.174599
811.6716, 2.394306
812.1537, 2.574189
812.6358, 2.632184
813.1179, 2.475199
813.6000, 2.303165
814.0822, 2.139457
814.5643, 1.997926
815.0464, 1.933829
815.5285, 1.947668
816.0106, 2.014189
816.4927, 2.183346
816.9749, 2.336687
817.4570, 2.192656
817.9391, 1.873930
818.4212, 1.730052
818.9033, 2.186029
819.3854, 2.571754
819.8676, 2.523824
820.3497, 2.175910
820.8318, 2.002928
821.3139, 2.066678
821.7960, 2.171058
822.2781, 2.294557
822.7603, 2.404140
823.2424, 2.407955
823.7245, 2.319636
824.2066, 2.228052
824.6887, 2.171385
825.1708, 2.122905
825.6530, 2.015024
826.1351, 1.898523
826.6172, 1.888008
827.0993, 2.163247
827.5814, 2.365212
828.0635, 2.395202
828.5457, 2.325052
829.0278, 2.319931
829.5099, 2.401291
829.9920, 2.385781
830.4741, 2.185412
830.9562, 1.952147
831.4384, 1.939327
831.9205, 2.089586
832.4026, 2.264145
832.8847, 2.511678
833.3668, 2.630858
833.8489, 2.379653
834.3311, 1.968737
834.8132, 1.770268
835.2953, 1.925225
835.7774, 2.050127
836.2595, 2.091403
836.7416, 2.105583
837.2238, 2.239068
837.7059, 2.463104
838.1880, 2.467304
838.6701, 2.116385
839.1522, 1.736760
839.6343, 1.666354
840.1165, 1.777499
840.5986, 1.893497
841.0807, 1.977545
841.5628, 2.043952
842.0449, 2.099295
842.5270, 2.134955
843.0092, 2.134827
843.4913, 2.089741
843.9734, 2.055081
844.4555, 2.030093
844.9376, 2.037284
845.4197, 2.143957
845.9019, 2.294837
846.3840, 2.372211
846.8661, 2.345754
847.3482, 2.284896
847.8303, 2.182117
848.3124, 2.091012
848.7946, 2.074013
849.2767, 2.204923
849.7588, 2.218256
850.2409, 2.087391
850.7230, 1.889221
851.2051, 1.603963
851.6873, 1.282166
852.1694, 1.314933
852.6515, 1.741528
853.1336, 2.162642
853.6157, 2.241843
854.0978, 2.163781
854.5800, 2.081872
855.0621, 2.007333
855.5442, 2.005904
856.0263, 2.196445
856.5084, 2.350331
856.9905, 2.324490
857.4727, 2.118790
857.9548, 2.076455
858.4369, 2.212478
858.9190, 2.348481
859.4011, 2.296990
859.8832, 2.196055
860.3654, 2.323048
860.8475, 2.648122
861.3296, 2.869025
861.8117, 2.769657
862.2938, 2.607985
862.7759, 2.503908
863.2581, 2.451370
863.7402, 2.385686
864.2223, 2.313002
864.7044, 2.200475
865.1865, 1.994776
865.6686, 1.766679
866.1508, 1.717885
866.6329, 1.820083
867.1150, 1.952923
867.5971, 2.092505
868.0792, 2.205504
868.5613, 2.260369
869.0435, 2.272255
869.5256, 2.285852
870.0077, 2.306096
870.4898, 2.324377
870.9719, 2.329106
871.4540, 2.341171
871.9362, 2.447922
872.4183, 2.626610
872.9004, 2.681269
873.3825, 2.496044
873.8646, 2.283755
874.3467, 2.237729
874.8289, 2.304131
875.3110, 2.403027
875.7931, 2.679538
876.2752, 2.744064
876.7573, 2.459553
877.2394, 2.060431
877.7216, 1.815532
878.2037, 1.732559
878.6858, 1.696081
879.1679, 1.694909
879.6500, 1.728077
880.1321, 1.852398
880.6143, 1.987310
881.0964, 1.986595
881.5785, 1.779661
882.0606, 1.646145
882.5427, 1.744708
883.0248, 1.906294
883.5070, 2.022158
883.9891, 2.094693
884.4712, 2.091016
884.9533, 1.991553
885.4354, 1.915772
885.9175, 2.006905
886.3997, 2.174165
886.8818, 2.216438
887.3639, 2.135060
887.8460, 2.053987
888.3281, 2.018752
888.8102, 2.022825
889.2924, 2.120404
889.7745, 2.292625
890.2566, 2.230742
890.7387, 1.818681
891.2208, 1.531143
891.7029, 1.614596
892.1851, 1.923458
892.6672, 2.110139
893.1493, 2.187124
893.6314, 2.205715
894.1135, 2.183311
894.5956, 2.119831
895.0778, 1.918622
895.5599, 1.682097
896.0420, 1.698488
896.5241, 2.179317
897.0062, 2.481522
897.4883, 2.462391
897.9705, 2.271596
898.4526, 2.150462
898.9347, 2.093132
899.4168, 2.076532
899.8989, 2.101884
900.3810, 2.144100
900.8632, 2.230337
901.3453, 2.299911
901.8274, 2.278022
902.3095, 2.051964
902.7916, 1.919590
903.2737, 1.917481
903.7559, 1.957026
904.2380, 1.934734
904.7201, 1.867057
905.2022, 1.942813
905.6843, 2.175034
906.1664, 2.402865
906.6486, 2.554091
907.1307, 2.596900
907.6128, 2.429826
908.0949, 2.027327
908.5770, 1.826204
909.0591, 2.009842
909.5413, 2.228043
910.0234, 2.366190
910.5055, 2.420349
910.9876, 2.305636
911.4697, 2.035135
911.9518, 1.856097
912.4340, 2.010591
912.9161, 2.241045
913.3982, 2.288612
913.8803, 2.198973
914.3624, 2.099226
914.8445, 1.967329
915.3267, 1.905103
915.8088, 1.945958
916.2909, 2.052133
916.7730, 2.183896
917.2551, 2.338086
917.7372, 2.346812
918.2194, 2.127725
918.7015, 1.897634
919.1836, 1.927035
919.6657, 2.079619
920.1478, 2.164296
920.6299, 2.087646
921.1121, 2.050958
921.5942, 2.114949
922.0763, 2.191942
922.5584, 2.225075
923.0405, 2.215317
923.5226, 2.094464
924.0048, 1.851431
924.4869, 1.659741
924.9690, 1.706239
925.4511, 1.850948
925.9332, 1.952265
926.4153, 1.999603
926.8975, 2.005162
927.3796, 1.890123
927.8617, 1.828512
928.3438, 1.903088
928.8259, 2.077691
929.3080, 2.160195
929.7902, 2.152495
930.2723, 2.135218
930.7544, 2.168165
931.2365, 2.180565
931.7186, 2.006845
932.2007, 1.761964
932.6829, 1.682012
933.1650, 2.037197
933.6471, 2.294917
934.1292, 2.364372
934.6113, 2.325945
935.0934, 2.269817
935.5756, 2.196130
936.0577, 2.166556
936.5398, 2.193027
937.0219, 2.241863
937.5040, 2.300193
937.9861, 2.351368
938.4683, 2.378876
938.9504, 2.383199
939.4325, 2.344730
939.9146, 2.240160
940.3967, 2.120504
940.8788, 2.004295
941.3610, 1.893535
941.8431, 1.796513
942.3252, 1.713941
942.8073, 1.688338
943.2894, 1.810182
943.7715, 1.949299
944.2537, 1.938142
944.7358, 1.833813
945.2179, 1.854649
945.7000, 2.206557
946.1821, 2.466048
946.6642, 2.544893
947.1464, 2.510601
947.6285, 2.511501
948.1106, 2.536288
948.5927, 2.483948
949.0748, 2.302357
949.5569, 2.125910
950.0391, 2.091200
950.5212, 2.119350
951.0033, 2.121204
951.4854, 2.070105
951.9675, 2.011992
952.4496, 1.925510
952.9318, 1.871055
953.4139, 1.931250
953.8960, 2.074106
954.3781, 2.075616
954.8602, 1.943496
955.3423, 1.864712
955.8245, 2.048209
956.3066, 2.256362
956.7887, 2.314701
957.2708, 2.233497
957.7529, 2.167314
958.2350, 2.120223
958.7172, 2.089033
959.1993, 2.060817
959.6814, 2.063345
960.1635, 2.245341
960.6456, 2.516306
961.1277, 2.556334
961.6099, 2.116245
962.0920, 1.718924
962.5741, 1.709442
963.0562, 1.875107
963.5383, 1.968387
964.0204, 1.930253
964.5026, 1.981967
964.9847, 2.153488
965.4668, 2.311630
965.9489, 2.307963
966.4310, 2.209512
966.9131, 2.148609
967.3953, 2.133429
967.8774, 2.143770
968.3595, 2.212352
968.8416, 2.261686
969.3237, 2.264408
969.8058, 2.218297
970.2880, 2.075083
970.7701, 1.810812
971.2522, 1.650823
971.7343, 1.704742
972.2164, 1.840197
972.6985, 1.853761
973.1807, 1.810926
973.6628, 1.841272
974.1449, 2.067786
974.6270, 2.233731
975.1091, 2.298618
975.5912, 2.280038
976.0734, 2.145940
976.5555, 1.891133
977.0376, 1.838007
977.5197, 2.012654
978.0018, 2.186319
978.4839, 2.136605
978.9661, 2.019348
979.4482, 2.007568
979.9303, 2.103309
980.4124, 2.131725
980.8945, 2.016684
981.3766, 1.911059
981.8588, 1.854482
982.3409, 1.839347
982.8230, 1.852109
983.3051, 1.889243
983.7872, 1.929720
984.2693, 1.953140
984.7515, 2.002976
985.2336, 2.209117
985.7157, 2.415973
986.1978, 2.390517
986.6799, 1.893862
987.1620, 1.732412
987.6442, 2.002462
988.1263, 2.339831
988.6084, 2.396023
989.0905, 2.271756
989.5726, 2.209765
990.0547, 2.216125
990.5369, 2.209425
991.0190, 2.098437
991.5011, 2.014661
991.9832, 2.035956
992.4653, 2.134350
992.9474, 2.237898
993.4296, 2.355585
993.9117, 2.373451
994.3938, 2.220482
994.8759, 2.036227
995.3580, 1.997163
995.8401, 2.059204
996.3223, 2.165551
996.8044, 2.391981
997.2865, 2.449570
997.7686, 2.177288
998.2507, 1.878572
998.7328, 1.798066
999.2150, 1.924626
999.6971, 1.980345
1000.179, 1.964999
1000.661, 1.971209
1001.143, 2.103527
1001.626, 2.247215
1002.108, 2.320939
1002.590, 2.327454
1003.072, 2.297867
1003.554, 2.206583
1004.036, 2.156749
1004.518, 2.184800
1005.000, 2.235696
1005.482, 2.225044
1005.965, 2.160605
1006.447, 2.040493
1006.929, 1.829172
1007.411, 1.707415
1007.893, 1.827892
1008.375, 2.023544
1008.857, 2.192324
1009.339, 2.343446
1009.822, 2.296623
1010.304, 2.028953
1010.786, 1.817545
1011.268, 1.904231
1011.750, 2.102506
1012.232, 2.173986
1012.714, 2.158800
1013.196, 2.176712
1013.678, 2.383363
1014.161, 2.448792
1014.643, 2.260968
1015.125, 1.993030
1015.607, 1.899657
1016.089, 1.957662
1016.571, 2.029828
1017.053, 2.097422
1017.535, 2.165456
1018.018, 2.249941
1018.500, 2.326969
1018.982, 2.378836
1019.464, 2.404046
1019.946, 2.416908
1020.428, 2.428516
1020.910, 2.382567
1021.392, 2.227692
1021.874, 2.029944
1022.357, 1.905390
1022.839, 1.842358
1023.321, 1.814127
1023.803, 1.766719
1024.285, 1.820600
1024.767, 2.102642
1025.249, 2.416306
1025.731, 2.583462
1026.214, 2.604632
1026.696, 2.515949
1027.178, 2.315219
1027.660, 2.118501
1028.142, 1.987704
1028.624, 1.921654
1029.106, 1.983884
1029.588, 2.139180
1030.070, 2.099054
1030.553, 1.677816
1031.035, 1.485666
1031.517, 1.738518
1031.999, 2.177322
1032.481, 2.361653
1032.963, 2.356475
1033.445, 2.319572
1033.927, 2.275826
1034.410, 2.254147
1034.892, 2.308015
1035.374, 2.352540
1035.856, 2.310216
1036.338, 2.176726
1036.820, 2.176505
1037.302, 2.312107
1037.784, 2.445638
1038.266, 2.482572
1038.749, 2.485146
1039.231, 2.502620
1039.713, 2.535394
1040.195, 2.587905
1040.677, 2.750275
1041.159, 2.759377
1041.641, 2.548187
1042.123, 2.266843
1042.605, 2.061045
1043.088, 1.936247
1043.570, 1.952626
1044.052, 2.115736
1044.534, 2.233031
1045.016, 2.135396
1045.498, 2.032394
1045.980, 2.060467
1046.462, 2.175309
1046.945, 2.150505
1047.427, 1.980105
1047.909, 1.833214
1048.391, 1.760242
1048.873, 1.746963
1049.355, 1.810191
1049.837, 1.910386
1050.319, 1.995580
1050.802, 2.054083
1051.284, 2.095211
1051.766, 2.107150
1052.248, 2.128015
1052.730, 2.199938
1053.212, 2.299473
1053.694, 2.363729
1054.176, 2.390418
1054.658, 2.370701
1055.141, 2.250693
1055.623, 2.141123
1056.105, 2.090354
1056.587, 2.067769
1057.069, 2.020257
1057.551, 1.945673
1058.033, 1.927085
1058.515, 1.977966
1058.997, 2.057349
1059.480, 2.142581
1059.962, 2.228883
1060.444, 2.320233
1060.926, 2.414818
1061.408, 2.475224
1061.890, 2.510691
1062.372, 2.484634
1062.854, 2.377231
1063.337, 2.213145
1063.819, 1.987616
1064.301, 1.752073
1064.783, 1.631518
1065.265, 1.711812
1065.747, 1.786723
1066.229, 1.774405
1066.711, 1.755823
1067.193, 1.782672
1067.676, 1.852668
1068.158, 1.915997
1068.640, 1.976119
1069.122, 2.077605
1069.604, 2.325625
1070.086, 2.547414
1070.568, 2.617178
1071.050, 2.579955
1071.532, 2.545196
1072.015, 2.526999
1072.497, 2.461635
1072.979, 2.327023
1073.461, 2.211383
1073.943, 2.242329
1074.425, 2.332461
1074.907, 2.359955
1075.389, 2.315826
1075.871, 2.262481
1076.354, 2.230911
1076.836, 2.161495
1077.318, 2.001727
1077.800, 1.832766
1078.282, 1.869521
1078.764, 2.058136
1079.246, 2.200281
1079.728, 2.240685
1080.211, 2.246034
1080.693, 2.238205
1081.175, 2.220075
1081.657, 2.184557
1082.139, 2.131553
1082.621, 2.148742
1083.103, 2.237587
1083.585, 2.320616
1084.068, 2.379196
1084.550, 2.388112
1085.032, 2.257379
1085.514, 2.077074
1085.996, 2.027289
1086.478, 2.272701
1086.960, 2.290922
1087.442, 1.992380
1087.924, 1.697061
1088.406, 1.801702
1088.889, 2.075424
1089.371, 2.021051
1089.853, 1.685221
1090.335, 1.508564
1090.817, 1.827835
1091.299, 2.108805
1091.781, 2.233970
1092.263, 2.246815
1092.746, 2.195036
1093.228, 2.095280
1093.710, 2.033741
1094.192, 2.029105
1094.674, 2.023849
1095.156, 1.963879
1095.638, 1.905893
1096.120, 1.895894
1096.603, 1.925155
1097.085, 1.912830
1097.567, 1.854818
1098.049, 1.870153
1098.531, 2.035927
1099.013, 2.221429
1099.495, 2.300420
1099.977, 2.312696
1100.459, 2.303480
1100.942, 2.259291
1101.424, 2.275780
1101.906, 2.390280
1102.388, 2.442766
1102.870, 2.235592
1103.352, 1.947331
1103.834, 1.968070
1104.316, 2.199772
1104.798, 2.366104
1105.281, 2.323832
1105.763, 2.271405
1106.245, 2.224806
1106.727, 2.194403
1107.209, 2.225560
1107.691, 2.286191
1108.173, 2.185413
1108.655, 1.930686
1109.138, 1.785269
1109.620, 2.050141
1110.102, 2.291076
1110.584, 2.274715
1111.066, 2.110006
1111.548, 2.009116
1112.030, 1.971208
1112.512, 2.012955
1112.995, 2.154422
1113.477, 2.259297
1113.959, 2.135289
1114.441, 1.979424
1114.923, 1.981666
1115.405, 2.144138
1115.887, 2.251541
1116.369, 2.306262
1116.851, 2.281580
1117.333, 2.121925
1117.816, 1.975025
1118.298, 2.119702
1118.780, 2.370538
1119.262, 2.436841
1119.744, 2.146653
1120.226, 2.030269
1120.708, 2.165203
1121.190, 2.324899
1121.673, 2.371480
1122.155, 2.351562
1122.637, 2.403214
1123.119, 2.484808
1123.601, 2.481338
1124.083, 2.241250
1124.565, 2.060297
1125.047, 1.973423
1125.530, 1.968395
1126.012, 2.067742
1126.494, 2.245425
1126.976, 2.380734
1127.458, 2.463594
1127.940, 2.448646
1128.422, 2.233308
1128.904, 1.997844
1129.386, 1.750858
1129.869, 1.573708
1130.351, 1.647880
1130.833, 1.967621
1131.315, 2.194189
1131.797, 2.286878
1132.279, 2.324613
1132.761, 2.332903
1133.243, 2.343227
1133.725, 2.418846
1134.208, 2.523273
1134.690, 2.456714
1135.172, 2.186226
1135.654, 1.992569
1136.136, 1.948424
1136.618, 1.969943
1137.100, 1.995638
1137.582, 2.016136
1138.065, 2.009202
1138.547, 1.963964
1139.029, 1.989369
1139.511, 2.113305
1139.993, 2.219085
1140.475, 2.266502
1140.957, 2.261914
1141.439, 2.166599
1141.922, 2.042306
1142.404, 1.998385
1142.886, 2.095729
1143.368, 2.194243
1143.850, 2.312371
1144.332, 2.361993
1144.814, 2.242861
1145.296, 2.039083
1145.778, 1.962815
1146.260, 1.988150
1146.743, 2.037282
1147.225, 2.096196
1147.707, 2.154468
1148.189, 2.229934
1148.671, 2.280425
1149.153, 2.259896
1149.635, 2.181286
1150.117, 2.094660
1150.600, 2.004927
1151.082, 1.935125
1151.564, 1.842230
1152.046, 1.843125
1152.528, 2.085653
1153.010, 2.359162
1153.492, 2.318147
1153.974, 2.003928
1154.457, 1.925923
1154.939, 2.126008
1155.421, 2.304492
1155.903, 2.165968
1156.385, 2.038696
1156.867, 2.234051
1157.349, 2.553269
1157.831, 2.479098
1158.313, 2.002531
1158.796, 1.710737
1159.278, 1.705121
1159.760, 1.852933
1160.242, 2.211888
1160.724, 2.538636
1161.206, 2.623573
1161.688, 2.481021
1162.170, 2.217329
1162.652, 1.802378
1163.135, 1.589294
1163.617, 1.712804
1164.099, 1.948370
1164.581, 2.118056
1165.063, 2.239273
1165.545, 2.334430
1166.027, 2.406915
1166.509, 2.398810
1166.992, 2.293804
1167.474, 2.201988
1167.956, 2.180766
1168.438, 2.170720
1168.920, 2.060116
1169.402, 1.925061
1169.884, 1.869960
1170.366, 1.918807
1170.849, 2.082026
1171.331, 2.426329
1171.813, 2.645333
1172.295, 2.476564
1172.777, 2.166431
1173.259, 2.131368
1173.741, 2.257173
1174.223, 2.319492
1174.705, 2.230133
1175.188, 2.112189
1175.670, 1.943665
1176.152, 1.807451
1176.634, 1.746360
1177.116, 1.769131
1177.598, 1.973702
1178.080, 2.278149
1178.562, 2.438304
1179.044, 2.265593
1179.527, 2.093832
1180.009, 1.920699
1180.491, 1.812364
1180.973, 1.866593
1181.455, 2.018937
1181.937, 2.141510
1182.419, 2.225083
1182.901, 2.257843
1183.384, 2.159202
1183.866, 2.123115
1184.348, 2.214444
1184.830, 2.318647
1185.312, 2.278664
1185.794, 2.140205
1186.276, 1.990792
1186.758, 1.846549
1187.240, 1.800994
1187.723, 2.024038
1188.205, 2.171484
1188.687, 2.114538
1189.169, 2.006877
1189.651, 2.171565
1190.133, 2.490645
1190.615, 2.559935
1191.097, 2.326081
1191.579, 2.117871
1192.062, 2.114841
1192.544, 2.117712
1193.026, 2.042147
1193.508, 1.950938
1193.990, 2.021665
1194.472, 2.196376
1194.954, 2.260357
1195.436, 2.164978
1195.919, 2.055691
1196.401, 1.967409
1196.883, 1.916504
1197.365, 1.908718
1197.847, 1.941790
1198.329, 2.063209
1198.811, 2.225369
1199.293, 2.206179
1199.776, 1.887083
1200.258, 1.685488
1200.740, 1.960242
1201.222, 2.223291
1201.704, 2.196970
1202.186, 1.979936
1202.668, 1.977598
1203.150, 2.139751
1203.632, 2.267949
1204.115, 2.298723
1204.597, 2.290298
1205.079, 2.238755
1205.561, 2.184696
1206.043, 2.152503
1206.525, 2.138005
1207.007, 2.126238
1207.489, 2.115189
1207.971, 2.088737
1208.454, 1.997584
1208.936, 1.977747
1209.418, 2.168971
1209.900, 2.376623
1210.382, 2.473979
1210.864, 2.475930
1211.346, 2.471047
1211.828, 2.459552
1212.311, 2.444719
1212.793, 2.466802
1213.275, 2.424587
1213.757, 2.204289
1214.239, 1.979275
1214.721, 1.886990
1215.203, 1.910437
1215.685, 1.937025
1216.167, 1.960353
1216.650, 1.947432
1217.132, 1.795277
1217.614, 1.719736
1218.096, 1.826458
1218.578, 1.994635
1219.060, 2.173310
1219.542, 2.334452
1220.024, 2.188750
1220.506, 1.808749
1220.989, 1.618149
1221.471, 2.111849
1221.953, 2.439961
1222.435, 2.249884
1222.917, 1.934059
1223.399, 1.913067
1223.881, 2.119597
1224.363, 2.227881
1224.846, 2.237128
1225.328, 2.213601
1225.810, 2.168848
1226.292, 2.119797
1226.774, 2.052348
1227.256, 2.006181
1227.738, 2.033328
1228.220, 2.120946
1228.703, 2.250302
1229.185, 2.406699
1229.667, 2.503742
1230.149, 2.487265
1230.631, 2.416953
1231.113, 2.285083
1231.595, 2.144214
1232.077, 2.035705
1232.559, 1.976575
1233.042, 2.065297
1233.524, 2.281290
1234.006, 2.414391
1234.488, 2.276996
1234.970, 2.187866
1235.452, 2.219703
1235.934, 2.300226
1236.416, 2.385080
1236.898, 2.428182
1237.381, 2.256703
1237.863, 1.892984
1238.345, 1.664574
1238.827, 1.769345
1239.309, 1.895416
1239.791, 2.006095
1240.273, 2.092769
1240.755, 2.157609
1241.238, 2.186233
1241.720, 2.108673
1242.202, 1.937187
1242.684, 1.889451
1243.166, 2.089829
1243.648, 2.245092
1244.130, 2.308739
1244.612, 2.289313
1245.094, 2.134833
1245.577, 1.938680
1246.059, 1.865745
1246.541, 1.917107
1247.023, 1.884709
1247.505, 1.677755
1247.987, 1.609258
1248.469, 1.772232
1248.951, 1.994457
1249.433, 2.068260
1249.916, 2.069801
1250.398, 2.094629
1250.880, 2.144624
1251.362, 2.118355
1251.844, 1.975829
1252.326, 1.935367
1252.808, 2.063267
1253.290, 2.228835
1253.773, 2.316075
1254.255, 2.351284
1254.737, 2.364902
1255.219, 2.352073
1255.701, 2.248169
1256.183, 2.029511
1256.665, 1.942877
1257.147, 2.063313
1257.630, 2.221000
1258.112, 2.289047
1258.594, 2.301242
1259.076, 2.251934
1259.558, 2.169472
1260.040, 2.182638
1260.522, 2.289680
1261.004, 2.355426
1261.486, 2.350281
1261.969, 2.299923
1262.451, 2.132792
1262.933, 2.020673
1263.415, 2.135489
1263.897, 2.375129
1264.379, 2.366360
1264.861, 2.147846
1265.343, 2.001960
1265.825, 1.993492
1266.308, 2.033938
1266.790, 2.125260
1267.272, 2.193318
1267.754, 2.207492
1268.236, 2.173034
1268.718, 2.066625
1269.200, 1.921657
1269.682, 1.879440
1270.165, 1.980012
1270.647, 2.045366
1271.129, 1.958497
1271.611, 1.873697
1272.093, 1.830500
1272.575, 1.829938
1273.057, 1.923764
1273.539, 2.048320
1274.021, 2.020201
1274.504, 1.785948
1274.986, 1.712608
1275.468, 1.959657
1275.950, 2.162995
1276.432, 2.208921
1276.914, 2.175620
1277.396, 2.171151
1277.878, 2.176597
1278.360, 2.156769
1278.843, 2.105595
1279.325, 2.080095
1279.807, 2.077388
1280.289, 2.139297
1280.771, 2.315014
1281.253, 2.438719
1281.735, 2.181823
1282.217, 1.854744
1282.700, 1.845929
1283.182, 2.155528
1283.664, 2.296780
1284.146, 2.253530
1284.628, 2.228174
1285.110, 2.273930
1285.592, 2.334214
1286.074, 2.396209
1286.557, 2.418548
1287.039, 2.338397
1287.521, 2.194245
1288.003, 2.133644
1288.485, 2.147788
1288.967, 2.121540
1289.449, 2.022502
1289.931, 1.950552
1290.413, 1.957047
1290.896, 2.029824
1291.378, 2.208108
1291.860, 2.401392
1292.342, 2.324955
1292.824, 2.067593
1293.306, 1.946813
1293.788, 2.025284
1294.270, 2.109960
1294.752, 2.108549
1295.235, 2.135815
1295.717, 2.259704
1296.199, 2.360703
1296.681, 2.128280
1297.163, 1.767435
##END=



