##NAMES=Stibnite
##RRUFFID=R120137
##IDEAL CHEMISTRY=Sb^3+^_2_S^2-^_3_
##LOCALITY=Green Prospect, Churchill County, Nevada, USA
##OWNER=RRUFF
##SOURCE=Benjamin N. Schumer
##DESCRIPTION=Lead-gray prismatic crystals on matrix of senarmontite, sulphur and selenium
##STATUS=The identification of this mineral has been confirmed by single-crystal X-ray diffraction.
##URL=rruff.info/R120137
8.975323e+001, 0.000000e+000
9.023535e+001, 9.282540e+002
9.071747e+001, 9.069778e+002
9.119958e+001, 8.958401e+002
9.168170e+001, 9.197621e+002
9.216382e+001, 9.444336e+002
9.264594e+001, 9.611159e+002
9.312805e+001, 9.714227e+002
9.361017e+001, 9.799069e+002
9.409229e+001, 9.881326e+002
9.457440e+001, 9.949700e+002
9.505651e+001, 1.003277e+003
9.553863e+001, 1.014070e+003
9.602074e+001, 1.026397e+003
9.650286e+001, 1.039484e+003
9.698498e+001, 1.052326e+003
9.746709e+001, 1.063043e+003
9.794921e+001, 1.074735e+003
9.843133e+001, 1.088882e+003
9.891344e+001, 1.102606e+003
9.939556e+001, 1.114575e+003
9.987768e+001, 1.125234e+003
1.003598e+002, 1.136025e+003
1.008419e+002, 1.147960e+003
1.013240e+002, 1.160641e+003
1.018061e+002, 1.172295e+003
1.022883e+002, 1.183352e+003
1.027704e+002, 1.193072e+003
1.032525e+002, 1.200871e+003
1.037346e+002, 1.206839e+003
1.042167e+002, 1.210447e+003
1.046988e+002, 1.210717e+003
1.051810e+002, 1.208271e+003
1.056631e+002, 1.203502e+003
1.061452e+002, 1.196452e+003
1.066273e+002, 1.187159e+003
1.071094e+002, 1.175753e+003
1.075915e+002, 1.161676e+003
1.080737e+002, 1.145701e+003
1.085558e+002, 1.128000e+003
1.090379e+002, 1.108785e+003
1.095200e+002, 1.088633e+003
1.100021e+002, 1.067575e+003
1.104842e+002, 1.045177e+003
1.109664e+002, 1.024666e+003
1.114485e+002, 1.005925e+003
1.119306e+002, 9.888740e+002
1.124127e+002, 9.732129e+002
1.128948e+002, 9.591094e+002
1.133769e+002, 9.470660e+002
1.138591e+002, 9.379601e+002
1.143412e+002, 9.326240e+002
1.148233e+002, 9.293282e+002
1.153054e+002, 9.301285e+002
1.157875e+002, 9.319196e+002
1.162696e+002, 9.330148e+002
1.167517e+002, 9.330715e+002
1.172339e+002, 9.297785e+002
1.177160e+002, 9.160665e+002
1.181981e+002, 8.888068e+002
1.186802e+002, 8.605958e+002
1.191623e+002, 8.328323e+002
1.196444e+002, 8.065317e+002
1.201266e+002, 7.842043e+002
1.206087e+002, 7.668311e+002
1.210908e+002, 7.552079e+002
1.215729e+002, 7.485160e+002
1.220550e+002, 7.477284e+002
1.225371e+002, 7.501417e+002
1.230193e+002, 7.537387e+002
1.235014e+002, 7.585062e+002
1.239835e+002, 7.646024e+002
1.244656e+002, 7.729935e+002
1.249477e+002, 7.824515e+002
1.254298e+002, 7.920617e+002
1.259120e+002, 8.014076e+002
1.263941e+002, 8.107517e+002
1.268762e+002, 8.205818e+002
1.273583e+002, 8.311589e+002
1.278404e+002, 8.419167e+002
1.283225e+002, 8.520486e+002
1.288047e+002, 8.623787e+002
1.292868e+002, 8.739255e+002
1.297689e+002, 8.873511e+002
1.302510e+002, 9.026004e+002
1.307331e+002, 9.188646e+002
1.312152e+002, 9.359089e+002
1.316974e+002, 9.544172e+002
1.321795e+002, 9.743518e+002
1.326616e+002, 9.959125e+002
1.331437e+002, 1.019296e+003
1.336258e+002, 1.044773e+003
1.341079e+002, 1.072622e+003
1.345901e+002, 1.102075e+003
1.350722e+002, 1.132762e+003
1.355543e+002, 1.164987e+003
1.360364e+002, 1.198581e+003
1.365185e+002, 1.233596e+003
1.370006e+002, 1.270687e+003
1.374828e+002, 1.310567e+003
1.379649e+002, 1.354210e+003
1.384470e+002, 1.396892e+003
1.389291e+002, 1.439128e+003
1.394112e+002, 1.480121e+003
1.398933e+002, 1.520020e+003
1.403755e+002, 1.559422e+003
1.408576e+002, 1.594766e+003
1.413397e+002, 1.622775e+003
1.418218e+002, 1.644699e+003
1.423039e+002, 1.654883e+003
1.427860e+002, 1.651043e+003
1.432681e+002, 1.633553e+003
1.437503e+002, 1.603365e+003
1.442324e+002, 1.558084e+003
1.447145e+002, 1.501235e+003
1.451966e+002, 1.436360e+003
1.456787e+002, 1.363729e+003
1.461608e+002, 1.287849e+003
1.466430e+002, 1.210953e+003
1.471251e+002, 1.132425e+003
1.476072e+002, 1.057821e+003
1.480893e+002, 9.872827e+002
1.485714e+002, 9.211912e+002
1.490535e+002, 8.598616e+002
1.495357e+002, 8.036594e+002
1.500178e+002, 7.524308e+002
1.504999e+002, 7.068282e+002
1.509820e+002, 6.675767e+002
1.514641e+002, 6.322709e+002
1.519462e+002, 6.001276e+002
1.524284e+002, 5.710032e+002
1.529105e+002, 5.447770e+002
1.533926e+002, 5.215172e+002
1.538747e+002, 5.008162e+002
1.543568e+002, 4.817693e+002
1.548389e+002, 4.647713e+002
1.553211e+002, 4.494176e+002
1.558032e+002, 4.361306e+002
1.562853e+002, 4.242884e+002
1.567674e+002, 4.132567e+002
1.572495e+002, 4.027000e+002
1.577316e+002, 3.927442e+002
1.582138e+002, 3.840564e+002
1.586959e+002, 3.771994e+002
1.591780e+002, 3.707429e+002
1.596601e+002, 3.641874e+002
1.601422e+002, 3.577855e+002
1.606243e+002, 3.521222e+002
1.611065e+002, 3.475805e+002
1.615886e+002, 3.441086e+002
1.620707e+002, 3.412055e+002
1.625528e+002, 3.390520e+002
1.630349e+002, 3.372367e+002
1.635170e+002, 3.352298e+002
1.639991e+002, 3.331319e+002
1.644813e+002, 3.319725e+002
1.649634e+002, 3.322670e+002
1.654455e+002, 3.341479e+002
1.659276e+002, 3.375125e+002
1.664097e+002, 3.418593e+002
1.668918e+002, 3.481098e+002
1.673740e+002, 3.573785e+002
1.678561e+002, 3.698141e+002
1.683382e+002, 3.844977e+002
1.688203e+002, 4.029147e+002
1.693024e+002, 4.227262e+002
1.697845e+002, 4.414738e+002
1.702667e+002, 4.592728e+002
1.707488e+002, 4.747528e+002
1.712309e+002, 4.841718e+002
1.717130e+002, 4.848658e+002
1.721951e+002, 4.839738e+002
1.726772e+002, 4.830526e+002
1.731594e+002, 4.828540e+002
1.736415e+002, 4.844046e+002
1.741236e+002, 4.881808e+002
1.746057e+002, 4.942005e+002
1.750878e+002, 5.026053e+002
1.755699e+002, 5.141559e+002
1.760521e+002, 5.276869e+002
1.765342e+002, 5.432194e+002
1.770163e+002, 5.603958e+002
1.774984e+002, 5.785374e+002
1.779805e+002, 5.972538e+002
1.784626e+002, 6.165847e+002
1.789448e+002, 6.367031e+002
1.794269e+002, 6.577499e+002
1.799090e+002, 6.794568e+002
1.803911e+002, 7.009324e+002
1.808732e+002, 7.228878e+002
1.813553e+002, 7.465106e+002
1.818375e+002, 7.726193e+002
1.823196e+002, 8.010111e+002
1.828017e+002, 8.348851e+002
1.832838e+002, 8.711796e+002
1.837659e+002, 9.139949e+002
1.842480e+002, 9.646208e+002
1.847301e+002, 1.023358e+003
1.852123e+002, 1.090960e+003
1.856944e+002, 1.168764e+003
1.861765e+002, 1.258527e+003
1.866586e+002, 1.347713e+003
1.871407e+002, 1.464097e+003
1.876228e+002, 1.560420e+003
1.881050e+002, 1.607727e+003
1.885871e+002, 1.601891e+003
1.890692e+002, 1.541975e+003
1.895513e+002, 1.407383e+003
1.900334e+002, 1.200308e+003
1.905155e+002, 1.012059e+003
1.909977e+002, 8.482980e+002
1.914798e+002, 7.106155e+002
1.919619e+002, 6.030975e+002
1.924440e+002, 5.280107e+002
1.929261e+002, 4.730989e+002
1.934082e+002, 4.338568e+002
1.938904e+002, 4.066945e+002
1.943725e+002, 3.845616e+002
1.948546e+002, 3.664134e+002
1.953367e+002, 3.516159e+002
1.958188e+002, 3.391216e+002
1.963009e+002, 3.293480e+002
1.967831e+002, 3.209237e+002
1.972652e+002, 3.127741e+002
1.977473e+002, 3.049730e+002
1.982294e+002, 2.980175e+002
1.987115e+002, 2.923095e+002
1.991936e+002, 2.876596e+002
1.996758e+002, 2.833496e+002
2.001579e+002, 2.794739e+002
2.006400e+002, 2.757972e+002
2.011221e+002, 2.721538e+002
2.016042e+002, 2.685845e+002
2.020863e+002, 2.652343e+002
2.025685e+002, 2.621803e+002
2.030506e+002, 2.594165e+002
2.035327e+002, 2.569709e+002
2.040148e+002, 2.549872e+002
2.044969e+002, 2.532292e+002
2.049790e+002, 2.516943e+002
2.054612e+002, 2.503232e+002
2.059433e+002, 2.489777e+002
2.064254e+002, 2.474907e+002
2.069075e+002, 2.458323e+002
2.073896e+002, 2.446128e+002
2.078717e+002, 2.444322e+002
2.083539e+002, 2.441643e+002
2.088360e+002, 2.433020e+002
2.093181e+002, 2.420148e+002
2.098002e+002, 2.408348e+002
2.102823e+002, 2.402779e+002
2.107644e+002, 2.404523e+002
2.112466e+002, 2.403170e+002
2.117287e+002, 2.395038e+002
2.122108e+002, 2.387560e+002
2.126929e+002, 2.384242e+002
2.131750e+002, 2.384466e+002
2.136571e+002, 2.385139e+002
2.141393e+002, 2.383217e+002
2.146214e+002, 2.377902e+002
2.151035e+002, 2.375896e+002
2.155856e+002, 2.380812e+002
2.160677e+002, 2.385094e+002
2.165498e+002, 2.383373e+002
2.170320e+002, 2.376725e+002
2.175141e+002, 2.371065e+002
2.179962e+002, 2.371969e+002
2.184783e+002, 2.380400e+002
2.189604e+002, 2.388292e+002
2.194425e+002, 2.394350e+002
2.199247e+002, 2.400986e+002
2.204068e+002, 2.410398e+002
2.208889e+002, 2.422308e+002
2.213710e+002, 2.433772e+002
2.218531e+002, 2.441516e+002
2.223352e+002, 2.445384e+002
2.228174e+002, 2.454158e+002
2.232995e+002, 2.466318e+002
2.237816e+002, 2.484300e+002
2.242637e+002, 2.511422e+002
2.247458e+002, 2.547520e+002
2.252279e+002, 2.586557e+002
2.257100e+002, 2.622277e+002
2.261922e+002, 2.656383e+002
2.266743e+002, 2.700070e+002
2.271564e+002, 2.750462e+002
2.276385e+002, 2.812907e+002
2.281206e+002, 2.889296e+002
2.286027e+002, 2.979289e+002
2.290849e+002, 3.089589e+002
2.295670e+002, 3.222350e+002
2.300491e+002, 3.380467e+002
2.305312e+002, 3.572431e+002
2.310133e+002, 3.799906e+002
2.314954e+002, 4.061549e+002
2.319776e+002, 4.365043e+002
2.324597e+002, 4.715353e+002
2.329418e+002, 5.072624e+002
2.334239e+002, 5.437416e+002
2.339060e+002, 5.788997e+002
2.343881e+002, 6.090546e+002
2.348703e+002, 6.326169e+002
2.353524e+002, 6.513122e+002
2.358345e+002, 6.664830e+002
2.363166e+002, 6.772044e+002
2.367987e+002, 6.886055e+002
2.372808e+002, 7.021784e+002
2.377630e+002, 7.183281e+002
2.382451e+002, 7.380245e+002
2.387272e+002, 7.614406e+002
2.392093e+002, 7.887513e+002
2.396914e+002, 8.201404e+002
2.401735e+002, 8.559322e+002
2.406557e+002, 8.954216e+002
2.411378e+002, 9.395674e+002
2.416199e+002, 9.865770e+002
2.421020e+002, 1.034821e+003
2.425841e+002, 1.083379e+003
2.430662e+002, 1.133650e+003
2.435484e+002, 1.187700e+003
2.440305e+002, 1.245020e+003
2.445126e+002, 1.307697e+003
2.449947e+002, 1.374935e+003
2.454768e+002, 1.447648e+003
2.459589e+002, 1.526428e+003
2.464410e+002, 1.611535e+003
2.469232e+002, 1.703808e+003
2.474053e+002, 1.807118e+003
2.478874e+002, 1.924762e+003
2.483695e+002, 2.045722e+003
2.488516e+002, 2.177759e+003
2.493337e+002, 2.305996e+003
2.498159e+002, 2.428634e+003
2.502980e+002, 2.543641e+003
2.507801e+002, 2.629281e+003
2.512622e+002, 2.651721e+003
2.517443e+002, 2.609448e+003
2.522264e+002, 2.498629e+003
2.527086e+002, 2.289587e+003
2.531907e+002, 2.044252e+003
2.536728e+002, 1.791785e+003
2.541549e+002, 1.544905e+003
2.546370e+002, 1.315895e+003
2.551191e+002, 1.122361e+003
2.556013e+002, 9.707256e+002
2.560834e+002, 8.466951e+002
2.565655e+002, 7.526448e+002
2.570476e+002, 6.777032e+002
2.575297e+002, 6.172762e+002
2.580118e+002, 5.693422e+002
2.584940e+002, 5.309189e+002
2.589761e+002, 4.984354e+002
2.594582e+002, 4.730392e+002
2.599403e+002, 4.514079e+002
2.604224e+002, 4.340792e+002
2.609045e+002, 4.190146e+002
2.613867e+002, 4.053601e+002
2.618688e+002, 3.927793e+002
2.623509e+002, 3.812427e+002
2.628330e+002, 3.706425e+002
2.633151e+002, 3.610034e+002
2.637972e+002, 3.523902e+002
2.642794e+002, 3.451483e+002
2.647615e+002, 3.384427e+002
2.652436e+002, 3.318364e+002
2.657257e+002, 3.253405e+002
2.662078e+002, 3.192411e+002
2.666899e+002, 3.138686e+002
2.671721e+002, 3.093754e+002
2.676542e+002, 3.047615e+002
2.681363e+002, 2.998262e+002
2.686184e+002, 2.949768e+002
2.691005e+002, 2.904085e+002
2.695826e+002, 2.861230e+002
2.700648e+002, 2.820371e+002
2.705469e+002, 2.780704e+002
2.710290e+002, 2.742433e+002
2.715111e+002, 2.706997e+002
2.719932e+002, 2.676269e+002
2.724753e+002, 2.645937e+002
2.729575e+002, 2.614040e+002
2.734396e+002, 2.581052e+002
2.739217e+002, 2.548464e+002
2.744038e+002, 2.517005e+002
2.748859e+002, 2.486807e+002
2.753680e+002, 2.460552e+002
2.758501e+002, 2.440791e+002
2.763322e+002, 2.421105e+002
2.768144e+002, 2.398941e+002
2.772965e+002, 2.375105e+002
2.777786e+002, 2.351740e+002
2.782607e+002, 2.330049e+002
2.787428e+002, 2.309637e+002
2.792249e+002, 2.288606e+002
2.797071e+002, 2.265383e+002
2.801892e+002, 2.243406e+002
2.806713e+002, 2.223293e+002
2.811534e+002, 2.205020e+002
2.816355e+002, 2.188970e+002
2.821176e+002, 2.175617e+002
2.825998e+002, 2.163647e+002
2.830819e+002, 2.149939e+002
2.835640e+002, 2.133896e+002
2.840461e+002, 2.117522e+002
2.845282e+002, 2.099610e+002
2.850103e+002, 2.082024e+002
2.854925e+002, 2.068070e+002
2.859746e+002, 2.059081e+002
2.864567e+002, 2.052346e+002
2.869388e+002, 2.042956e+002
2.874209e+002, 2.029734e+002
2.879030e+002, 2.018218e+002
2.883852e+002, 2.011670e+002
2.888673e+002, 2.006371e+002
2.893494e+002, 1.997005e+002
2.898315e+002, 1.982207e+002
2.903136e+002, 1.966641e+002
2.907957e+002, 1.956460e+002
2.912779e+002, 1.952655e+002
2.917600e+002, 1.946649e+002
2.922421e+002, 1.935817e+002
2.927242e+002, 1.923419e+002
2.932063e+002, 1.911707e+002
2.936884e+002, 1.901008e+002
2.941706e+002, 1.893152e+002
2.946527e+002, 1.891380e+002
2.951348e+002, 1.895629e+002
2.956169e+002, 1.894639e+002
2.960990e+002, 1.884151e+002
2.965811e+002, 1.871094e+002
2.970633e+002, 1.859562e+002
2.975454e+002, 1.850038e+002
2.980275e+002, 1.843782e+002
2.985096e+002, 1.843246e+002
2.989917e+002, 1.846971e+002
2.994738e+002, 1.845682e+002
2.999560e+002, 1.834277e+002
3.004381e+002, 1.822628e+002
3.009202e+002, 1.816433e+002
3.014023e+002, 1.815001e+002
3.018844e+002, 1.815176e+002
3.023665e+002, 1.816277e+002
3.028487e+002, 1.817091e+002
3.033308e+002, 1.814044e+002
3.038129e+002, 1.804122e+002
3.042950e+002, 1.795547e+002
3.047771e+002, 1.793351e+002
3.052592e+002, 1.795390e+002
3.057414e+002, 1.796050e+002
3.062235e+002, 1.793044e+002
3.067056e+002, 1.788020e+002
3.071877e+002, 1.784211e+002
3.076698e+002, 1.781933e+002
3.081519e+002, 1.779338e+002
3.086341e+002, 1.775838e+002
3.091162e+002, 1.771646e+002
3.095983e+002, 1.766903e+002
3.100804e+002, 1.761501e+002
3.105625e+002, 1.756272e+002
3.110446e+002, 1.752499e+002
3.115268e+002, 1.750150e+002
3.120089e+002, 1.748135e+002
3.124910e+002, 1.746521e+002
3.129731e+002, 1.745005e+002
3.134552e+002, 1.743317e+002
3.139373e+002, 1.741428e+002
3.144195e+002, 1.739101e+002
3.149016e+002, 1.735840e+002
3.153837e+002, 1.731728e+002
3.158658e+002, 1.728226e+002
3.163479e+002, 1.725160e+002
3.168300e+002, 1.722952e+002
3.173121e+002, 1.722869e+002
3.177943e+002, 1.724660e+002
3.182764e+002, 1.725124e+002
3.187585e+002, 1.721541e+002
3.192406e+002, 1.714872e+002
3.197227e+002, 1.710173e+002
3.202048e+002, 1.708588e+002
3.206870e+002, 1.707744e+002
3.211691e+002, 1.706013e+002
3.216512e+002, 1.703862e+002
3.221333e+002, 1.703153e+002
3.226154e+002, 1.705226e+002
3.230975e+002, 1.708723e+002
3.235797e+002, 1.710103e+002
3.240618e+002, 1.708820e+002
3.245439e+002, 1.707123e+002
3.250260e+002, 1.705894e+002
3.255081e+002, 1.704783e+002
3.259902e+002, 1.702651e+002
3.264724e+002, 1.698772e+002
3.269545e+002, 1.695152e+002
3.274366e+002, 1.695551e+002
3.279187e+002, 1.700661e+002
3.284008e+002, 1.704804e+002
3.288829e+002, 1.706620e+002
3.293651e+002, 1.707066e+002
3.298472e+002, 1.706699e+002
3.303293e+002, 1.705609e+002
3.308114e+002, 1.705173e+002
3.312935e+002, 1.706855e+002
3.317756e+002, 1.710868e+002
3.322578e+002, 1.715305e+002
3.327399e+002, 1.721582e+002
3.332220e+002, 1.727110e+002
3.337041e+002, 1.728324e+002
3.341862e+002, 1.726003e+002
3.346683e+002, 1.726184e+002
3.351505e+002, 1.733636e+002
3.356326e+002, 1.747331e+002
3.361147e+002, 1.758551e+002
3.365968e+002, 1.767490e+002
3.370789e+002, 1.774266e+002
3.375610e+002, 1.778244e+002
3.380432e+002, 1.780109e+002
3.385253e+002, 1.780940e+002
3.390074e+002, 1.780846e+002
3.394895e+002, 1.780932e+002
3.399716e+002, 1.784502e+002
3.404537e+002, 1.792801e+002
3.409359e+002, 1.801662e+002
3.414180e+002, 1.811598e+002
3.419001e+002, 1.821227e+002
3.423822e+002, 1.828876e+002
3.428643e+002, 1.834047e+002
3.433464e+002, 1.836713e+002
3.438286e+002, 1.835942e+002
3.443107e+002, 1.828391e+002
3.447928e+002, 1.828322e+002
3.452749e+002, 1.842317e+002
3.457570e+002, 1.859313e+002
3.462391e+002, 1.870577e+002
3.467213e+002, 1.875625e+002
3.472034e+002, 1.879754e+002
3.476855e+002, 1.887860e+002
3.481676e+002, 1.900293e+002
3.486497e+002, 1.909210e+002
3.491318e+002, 1.910163e+002
3.496140e+002, 1.912677e+002
3.500961e+002, 1.921289e+002
3.505782e+002, 1.934648e+002
3.510603e+002, 1.949492e+002
3.515424e+002, 1.964031e+002
3.520245e+002, 1.978196e+002
3.525067e+002, 1.991806e+002
3.529888e+002, 2.006328e+002
3.534709e+002, 2.018456e+002
3.539530e+002, 2.027328e+002
3.544351e+002, 2.033746e+002
3.549172e+002, 2.038079e+002
3.553994e+002, 2.040530e+002
3.558815e+002, 2.042393e+002
3.563636e+002, 2.045954e+002
3.568457e+002, 2.052431e+002
3.573278e+002, 2.058167e+002
3.578099e+002, 2.064107e+002
3.582920e+002, 2.068688e+002
3.587741e+002, 2.067830e+002
3.592563e+002, 2.063110e+002
3.597384e+002, 2.062417e+002
3.602205e+002, 2.074121e+002
3.607026e+002, 2.099711e+002
3.611847e+002, 2.123533e+002
3.616668e+002, 2.141483e+002
3.621490e+002, 2.161952e+002
3.626311e+002, 2.187630e+002
3.631132e+002, 2.218024e+002
3.635953e+002, 2.250882e+002
3.640774e+002, 2.284661e+002
3.645595e+002, 2.320574e+002
3.650417e+002, 2.364029e+002
3.655238e+002, 2.420426e+002
3.660059e+002, 2.477502e+002
3.664880e+002, 2.531728e+002
3.669701e+002, 2.586690e+002
3.674522e+002, 2.648390e+002
3.679344e+002, 2.717797e+002
3.684165e+002, 2.787274e+002
3.688986e+002, 2.846160e+002
3.693807e+002, 2.895164e+002
3.698628e+002, 2.930297e+002
3.703449e+002, 2.961376e+002
3.708271e+002, 2.971710e+002
3.713092e+002, 2.949225e+002
3.717913e+002, 2.895923e+002
3.722734e+002, 2.823064e+002
3.727555e+002, 2.737837e+002
3.732376e+002, 2.640759e+002
3.737198e+002, 2.541950e+002
3.742019e+002, 2.434308e+002
3.746840e+002, 2.334089e+002
3.751661e+002, 2.246175e+002
3.756482e+002, 2.168493e+002
3.761303e+002, 2.098524e+002
3.766125e+002, 2.034663e+002
3.770946e+002, 1.977495e+002
3.775767e+002, 1.928106e+002
3.780588e+002, 1.886848e+002
3.785409e+002, 1.852653e+002
3.790230e+002, 1.827698e+002
3.795052e+002, 1.808015e+002
3.799873e+002, 1.791175e+002
3.804694e+002, 1.776670e+002
3.809515e+002, 1.764779e+002
3.814336e+002, 1.757117e+002
3.819157e+002, 1.753548e+002
3.823979e+002, 1.747832e+002
3.828800e+002, 1.737148e+002
3.833621e+002, 1.726543e+002
3.838442e+002, 1.719319e+002
3.843263e+002, 1.714995e+002
3.848084e+002, 1.711516e+002
3.852906e+002, 1.704510e+002
3.857727e+002, 1.698195e+002
3.862548e+002, 1.706608e+002
3.867369e+002, 1.736170e+002
3.872190e+002, 1.757051e+002
3.877011e+002, 1.742246e+002
3.881833e+002, 1.710552e+002
3.886654e+002, 1.687950e+002
3.891475e+002, 1.681154e+002
3.896296e+002, 1.680991e+002
3.901117e+002, 1.680695e+002
3.905938e+002, 1.680325e+002
3.910760e+002, 1.680456e+002
3.915581e+002, 1.681770e+002
3.920402e+002, 1.683051e+002
3.925223e+002, 1.682053e+002
3.930044e+002, 1.678489e+002
3.934865e+002, 1.676476e+002
3.939687e+002, 1.678767e+002
3.944508e+002, 1.683249e+002
3.949329e+002, 1.686895e+002
3.954150e+002, 1.689356e+002
3.958971e+002, 1.690415e+002
3.963792e+002, 1.689670e+002
3.968614e+002, 1.687121e+002
3.973435e+002, 1.683966e+002
3.978256e+002, 1.679141e+002
3.983077e+002, 1.674645e+002
3.987898e+002, 1.672610e+002
3.992719e+002, 1.672210e+002
3.997540e+002, 1.670200e+002
4.002361e+002, 1.664605e+002
4.007183e+002, 1.656917e+002
4.012004e+002, 1.651659e+002
4.016825e+002, 1.650304e+002
4.021646e+002, 1.648359e+002
4.026467e+002, 1.644653e+002
4.031288e+002, 1.640138e+002
4.036110e+002, 1.635875e+002
4.040931e+002, 1.632133e+002
4.045752e+002, 1.628515e+002
4.050573e+002, 1.624352e+002
4.055394e+002, 1.619152e+002
4.060215e+002, 1.616374e+002
4.065037e+002, 1.619167e+002
4.069858e+002, 1.621102e+002
4.074679e+002, 1.618460e+002
4.079500e+002, 1.612298e+002
4.084321e+002, 1.605467e+002
4.089142e+002, 1.599495e+002
4.093964e+002, 1.594693e+002
4.098785e+002, 1.592449e+002
4.103606e+002, 1.596563e+002
4.108427e+002, 1.598318e+002
4.113248e+002, 1.594957e+002
4.118069e+002, 1.590071e+002
4.122891e+002, 1.587271e+002
4.127712e+002, 1.587400e+002
4.132533e+002, 1.588503e+002
4.137354e+002, 1.587858e+002
4.142175e+002, 1.584816e+002
4.146996e+002, 1.582601e+002
4.151818e+002, 1.581667e+002
4.156639e+002, 1.581180e+002
4.161460e+002, 1.581053e+002
4.166281e+002, 1.581132e+002
4.171102e+002, 1.580938e+002
4.175923e+002, 1.579667e+002
4.180745e+002, 1.578356e+002
4.185566e+002, 1.581003e+002
4.190387e+002, 1.589550e+002
4.195208e+002, 1.597753e+002
4.200029e+002, 1.603754e+002
4.204850e+002, 1.608503e+002
4.209672e+002, 1.612434e+002
4.214493e+002, 1.615605e+002
4.219314e+002, 1.619018e+002
4.224135e+002, 1.624238e+002
4.228956e+002, 1.631109e+002
4.233777e+002, 1.636102e+002
4.238599e+002, 1.636111e+002
4.243420e+002, 1.637835e+002
4.248241e+002, 1.647121e+002
4.253062e+002, 1.662359e+002
4.257883e+002, 1.677903e+002
4.262704e+002, 1.689824e+002
4.267526e+002, 1.701446e+002
4.272347e+002, 1.716207e+002
4.277168e+002, 1.733992e+002
4.281989e+002, 1.759283e+002
4.286810e+002, 1.797411e+002
4.291631e+002, 1.843457e+002
4.296453e+002, 1.884694e+002
4.301274e+002, 1.917593e+002
4.306095e+002, 1.953708e+002
4.310916e+002, 1.999694e+002
4.315737e+002, 2.052575e+002
4.320558e+002, 2.107270e+002
4.325380e+002, 2.162421e+002
4.330201e+002, 2.218069e+002
4.335022e+002, 2.274760e+002
4.339843e+002, 2.332761e+002
4.344664e+002, 2.387829e+002
4.349485e+002, 2.434586e+002
4.354307e+002, 2.482801e+002
4.359128e+002, 2.539476e+002
4.363949e+002, 2.603257e+002
4.368770e+002, 2.667799e+002
4.373591e+002, 2.728738e+002
4.378412e+002, 2.788886e+002
4.383234e+002, 2.858086e+002
4.388055e+002, 2.939516e+002
4.392876e+002, 3.026530e+002
4.397697e+002, 3.116122e+002
4.402518e+002, 3.212322e+002
4.407339e+002, 3.318560e+002
4.412160e+002, 3.435073e+002
4.416982e+002, 3.560833e+002
4.421803e+002, 3.694224e+002
4.426624e+002, 3.836118e+002
4.431445e+002, 3.981715e+002
4.436266e+002, 4.130724e+002
4.441087e+002, 4.283486e+002
4.445909e+002, 4.442839e+002
4.450730e+002, 4.604503e+002
4.455551e+002, 4.767852e+002
4.460372e+002, 4.933295e+002
4.465193e+002, 5.089000e+002
4.470014e+002, 5.211158e+002
4.474836e+002, 5.302159e+002
4.479657e+002, 5.351578e+002
4.484478e+002, 5.359941e+002
4.489299e+002, 5.323479e+002
4.494120e+002, 5.232406e+002
4.498941e+002, 5.088564e+002
4.503763e+002, 4.908293e+002
4.508584e+002, 4.693516e+002
4.513405e+002, 4.450494e+002
4.518226e+002, 4.207875e+002
4.523047e+002, 3.962089e+002
4.527868e+002, 3.729768e+002
4.532690e+002, 3.521922e+002
4.537511e+002, 3.333703e+002
4.542332e+002, 3.160443e+002
4.547153e+002, 3.000594e+002
4.551974e+002, 2.858166e+002
4.556795e+002, 2.739173e+002
4.561617e+002, 2.641195e+002
4.566438e+002, 2.552296e+002
4.571259e+002, 2.470244e+002
4.576080e+002, 2.393620e+002
4.580901e+002, 2.319985e+002
4.585722e+002, 2.248879e+002
4.590544e+002, 2.185777e+002
4.595365e+002, 2.133487e+002
4.600186e+002, 2.088600e+002
4.605007e+002, 2.050105e+002
4.609828e+002, 2.016943e+002
4.614649e+002, 1.985160e+002
4.619471e+002, 1.951965e+002
4.624292e+002, 1.918425e+002
4.629113e+002, 1.888257e+002
4.633934e+002, 1.861783e+002
4.638755e+002, 1.837958e+002
4.643576e+002, 1.817846e+002
4.648398e+002, 1.799459e+002
4.653219e+002, 1.780515e+002
4.658040e+002, 1.760652e+002
4.662861e+002, 1.741666e+002
4.667682e+002, 1.725427e+002
4.672503e+002, 1.711835e+002
4.677325e+002, 1.700776e+002
4.682146e+002, 1.696037e+002
4.686967e+002, 1.689771e+002
4.691788e+002, 1.678132e+002
4.696609e+002, 1.664113e+002
4.701430e+002, 1.652664e+002
4.706252e+002, 1.646045e+002
4.711073e+002, 1.641386e+002
4.715894e+002, 1.632968e+002
4.720715e+002, 1.619297e+002
4.725536e+002, 1.608569e+002
4.730357e+002, 1.605523e+002
4.735179e+002, 1.602779e+002
4.740000e+002, 1.594938e+002
4.744821e+002, 1.583274e+002
4.749642e+002, 1.573580e+002
4.754463e+002, 1.571059e+002
4.759284e+002, 1.572257e+002
4.764106e+002, 1.568891e+002
4.768927e+002, 1.560083e+002
4.773748e+002, 1.552335e+002
4.778569e+002, 1.549080e+002
4.783390e+002, 1.548548e+002
4.788211e+002, 1.548419e+002
4.793033e+002, 1.549424e+002
4.797854e+002, 1.547814e+002
4.802675e+002, 1.539285e+002
4.807496e+002, 1.527468e+002
4.812317e+002, 1.518877e+002
4.817138e+002, 1.514682e+002
4.821959e+002, 1.512929e+002
4.826780e+002, 1.512641e+002
4.831602e+002, 1.513685e+002
4.836423e+002, 1.512180e+002
4.841244e+002, 1.504976e+002
4.846065e+002, 1.498802e+002
4.850886e+002, 1.497704e+002
4.855707e+002, 1.499199e+002
4.860529e+002, 1.498660e+002
4.865350e+002, 1.494376e+002
4.870171e+002, 1.488447e+002
4.874992e+002, 1.484276e+002
4.879813e+002, 1.482112e+002
4.884634e+002, 1.481084e+002
4.889456e+002, 1.482183e+002
4.894277e+002, 1.483283e+002
4.899098e+002, 1.483971e+002
4.903919e+002, 1.483807e+002
4.908740e+002, 1.481904e+002
4.913561e+002, 1.477509e+002
4.918383e+002, 1.471672e+002
4.923204e+002, 1.467264e+002
4.928025e+002, 1.464634e+002
4.932846e+002, 1.462507e+002
4.937667e+002, 1.461690e+002
4.942488e+002, 1.460535e+002
4.947310e+002, 1.457332e+002
4.952131e+002, 1.452290e+002
4.956952e+002, 1.447867e+002
4.961773e+002, 1.446029e+002
4.966594e+002, 1.446098e+002
4.971415e+002, 1.446400e+002
4.976237e+002, 1.446986e+002
4.981058e+002, 1.447365e+002
4.985879e+002, 1.446917e+002
4.990700e+002, 1.446230e+002
4.995521e+002, 1.446527e+002
5.000342e+002, 1.448379e+002
5.005164e+002, 1.449966e+002
5.009985e+002, 1.450763e+002
5.014806e+002, 1.450599e+002
5.019627e+002, 1.448467e+002
5.024448e+002, 1.444125e+002
5.029269e+002, 1.440498e+002
5.034091e+002, 1.440842e+002
5.038912e+002, 1.445346e+002
5.043733e+002, 1.447062e+002
5.048554e+002, 1.444180e+002
5.053375e+002, 1.440883e+002
5.058196e+002, 1.437956e+002
5.063018e+002, 1.435777e+002
5.067839e+002, 1.435006e+002
5.072660e+002, 1.435833e+002
5.077481e+002, 1.437476e+002
5.082302e+002, 1.438626e+002
5.087123e+002, 1.438815e+002
5.091945e+002, 1.440217e+002
5.096766e+002, 1.445163e+002
5.101587e+002, 1.448977e+002
5.106408e+002, 1.449493e+002
5.111229e+002, 1.447619e+002
5.116050e+002, 1.445011e+002
5.120872e+002, 1.442247e+002
5.125693e+002, 1.439951e+002
5.130514e+002, 1.439718e+002
5.135335e+002, 1.441958e+002
5.140156e+002, 1.442973e+002
5.144977e+002, 1.440667e+002
5.149799e+002, 1.438201e+002
5.154620e+002, 1.438825e+002
5.159441e+002, 1.441993e+002
5.164262e+002, 1.443956e+002
5.169083e+002, 1.442545e+002
5.173904e+002, 1.439418e+002
5.178726e+002, 1.435986e+002
5.183547e+002, 1.432419e+002
5.188368e+002, 1.430720e+002
5.193189e+002, 1.432685e+002
5.198010e+002, 1.436064e+002
5.202831e+002, 1.435123e+002
5.207653e+002, 1.427850e+002
5.212474e+002, 1.423019e+002
5.217295e+002, 1.423509e+002
5.222116e+002, 1.426048e+002
5.226937e+002, 1.428452e+002
5.231758e+002, 1.430227e+002
5.236580e+002, 1.431171e+002
5.241401e+002, 1.431178e+002
5.246222e+002, 1.430178e+002
5.251043e+002, 1.427651e+002
5.255864e+002, 1.421563e+002
5.260685e+002, 1.416900e+002
5.265507e+002, 1.413823e+002
5.270328e+002, 1.412413e+002
5.275149e+002, 1.413701e+002
5.279970e+002, 1.417183e+002
5.284791e+002, 1.420202e+002
5.289612e+002, 1.420374e+002
5.294434e+002, 1.418052e+002
5.299255e+002, 1.415322e+002
5.304076e+002, 1.412285e+002
5.308897e+002, 1.408632e+002
5.313718e+002, 1.402733e+002
5.318539e+002, 1.396886e+002
5.323361e+002, 1.393885e+002
5.328182e+002, 1.394525e+002
5.333003e+002, 1.395391e+002
5.337824e+002, 1.393997e+002
5.342645e+002, 1.391287e+002
5.347466e+002, 1.389354e+002
5.352288e+002, 1.388518e+002
5.357109e+002, 1.387676e+002
5.361930e+002, 1.385753e+002
5.366751e+002, 1.383103e+002
5.371572e+002, 1.381884e+002
5.376393e+002, 1.383654e+002
5.381215e+002, 1.384807e+002
5.386036e+002, 1.384434e+002
5.390857e+002, 1.382835e+002
5.395678e+002, 1.379760e+002
5.400499e+002, 1.375452e+002
5.405320e+002, 1.371685e+002
5.410142e+002, 1.370612e+002
5.414963e+002, 1.372360e+002
5.419784e+002, 1.372222e+002
5.424604e+002, 1.368025e+002
5.429426e+002, 1.364464e+002
5.434247e+002, 1.362146e+002
5.439068e+002, 1.361104e+002
5.443889e+002, 1.362446e+002
5.448710e+002, 1.366195e+002
5.453531e+002, 1.368515e+002
5.458353e+002, 1.363536e+002
5.463174e+002, 1.352110e+002
5.467995e+002, 1.344732e+002
5.472816e+002, 1.342810e+002
5.477637e+002, 1.343137e+002
5.482458e+002, 1.345946e+002
5.487280e+002, 1.349235e+002
5.492101e+002, 1.349326e+002
5.496922e+002, 1.344333e+002
5.501743e+002, 1.338830e+002
5.506564e+002, 1.335415e+002
5.511385e+002, 1.333596e+002
5.516207e+002, 1.332210e+002
5.521028e+002, 1.331004e+002
5.525849e+002, 1.330970e+002
5.530670e+002, 1.333583e+002
5.535491e+002, 1.338866e+002
5.540313e+002, 1.340949e+002
5.545134e+002, 1.338090e+002
5.549955e+002, 1.334659e+002
5.554776e+002, 1.331227e+002
5.559597e+002, 1.328162e+002
5.564418e+002, 1.325929e+002
5.569240e+002, 1.324605e+002
5.574061e+002, 1.323861e+002
5.578882e+002, 1.323521e+002
5.583703e+002, 1.323634e+002
5.588524e+002, 1.322764e+002
5.593345e+002, 1.320907e+002
5.598167e+002, 1.317953e+002
5.602988e+002, 1.311308e+002
5.607809e+002, 1.304793e+002
5.612630e+002, 1.303968e+002
5.617451e+002, 1.310691e+002
5.622272e+002, 1.318043e+002
5.627094e+002, 1.319511e+002
5.631915e+002, 1.316706e+002
5.636736e+002, 1.314754e+002
5.641557e+002, 1.314120e+002
5.646378e+002, 1.315132e+002
5.651199e+002, 1.319464e+002
5.656021e+002, 1.325597e+002
5.660842e+002, 1.327181e+002
5.665663e+002, 1.321046e+002
5.670484e+002, 1.314953e+002
5.675305e+002, 1.311323e+002
5.680126e+002, 1.309309e+002
5.684948e+002, 1.308204e+002
5.689769e+002, 1.307710e+002
5.694590e+002, 1.307079e+002
5.699411e+002, 1.305488e+002
5.704232e+002, 1.303049e+002
5.709053e+002, 1.302048e+002
5.713875e+002, 1.305069e+002
5.718696e+002, 1.305992e+002
5.723517e+002, 1.301047e+002
5.728338e+002, 1.295448e+002
5.733159e+002, 1.294811e+002
5.737980e+002, 1.299564e+002
5.742802e+002, 1.304700e+002
5.747623e+002, 1.305903e+002
5.752444e+002, 1.303873e+002
5.757265e+002, 1.301037e+002
5.762086e+002, 1.296901e+002
5.766907e+002, 1.294136e+002
5.771729e+002, 1.295303e+002
5.776550e+002, 1.297874e+002
5.781371e+002, 1.297490e+002
5.786192e+002, 1.293313e+002
5.791013e+002, 1.289663e+002
5.795834e+002, 1.287761e+002
5.800656e+002, 1.287475e+002
5.805477e+002, 1.289201e+002
5.810298e+002, 1.292629e+002
5.815119e+002, 1.296427e+002
5.819940e+002, 1.300030e+002
5.824761e+002, 1.302830e+002
5.829583e+002, 1.302677e+002
5.834404e+002, 1.295931e+002
5.839225e+002, 1.291733e+002
5.844046e+002, 1.292823e+002
5.848867e+002, 1.294156e+002
5.853688e+002, 1.291626e+002
5.858510e+002, 1.286202e+002
5.863331e+002, 1.281676e+002
5.868152e+002, 1.280261e+002
5.872973e+002, 1.281521e+002
5.877794e+002, 1.285498e+002
5.882615e+002, 1.292985e+002
5.887437e+002, 1.297744e+002
5.892258e+002, 1.297939e+002
5.897079e+002, 1.295158e+002
5.901900e+002, 1.289887e+002
5.906721e+002, 1.282683e+002
5.911542e+002, 1.277277e+002
5.916364e+002, 1.275422e+002
5.921185e+002, 1.275311e+002
5.926006e+002, 1.276133e+002
5.930827e+002, 1.277505e+002
5.935648e+002, 1.278502e+002
5.940469e+002, 1.278827e+002
5.945291e+002, 1.278257e+002
5.950112e+002, 1.276093e+002
5.954933e+002, 1.271256e+002
5.959754e+002, 1.269923e+002
5.964575e+002, 1.276636e+002
5.969396e+002, 1.281298e+002
5.974218e+002, 1.278685e+002
5.979039e+002, 1.272424e+002
5.983860e+002, 1.267450e+002
5.988681e+002, 1.265503e+002
5.993502e+002, 1.265837e+002
5.998323e+002, 1.268780e+002
6.003145e+002, 1.274134e+002
6.007966e+002, 1.275578e+002
6.012787e+002, 1.270746e+002
6.017608e+002, 1.266437e+002
6.022429e+002, 1.267432e+002
6.027250e+002, 1.271157e+002
6.032072e+002, 1.273961e+002
6.036893e+002, 1.275459e+002
6.041714e+002, 1.275901e+002
6.046535e+002, 1.275190e+002
6.051356e+002, 1.273598e+002
6.056177e+002, 1.271307e+002
6.060999e+002, 1.268433e+002
6.065820e+002, 1.265457e+002
6.070641e+002, 1.262632e+002
6.075462e+002, 1.260112e+002
6.080283e+002, 1.258558e+002
6.085104e+002, 1.257930e+002
6.089926e+002, 1.258473e+002
6.094747e+002, 1.261016e+002
6.099568e+002, 1.264030e+002
6.104389e+002, 1.267617e+002
6.109210e+002, 1.270829e+002
6.114031e+002, 1.270922e+002
6.118853e+002, 1.265031e+002
6.123674e+002, 1.256849e+002
6.128495e+002, 1.254759e+002
6.133316e+002, 1.259338e+002
6.138137e+002, 1.263153e+002
6.142958e+002, 1.264417e+002
6.147780e+002, 1.264324e+002
6.152601e+002, 1.263749e+002
6.157422e+002, 1.262783e+002
6.162243e+002, 1.261983e+002
6.167064e+002, 1.260943e+002
6.171885e+002, 1.260609e+002
6.176707e+002, 1.262198e+002
6.181528e+002, 1.264820e+002
6.186349e+002, 1.266911e+002
6.191170e+002, 1.267968e+002
6.195991e+002, 1.267780e+002
6.200812e+002, 1.265787e+002
6.205634e+002, 1.261727e+002
6.210455e+002, 1.259697e+002
6.215276e+002, 1.261776e+002
6.220097e+002, 1.263391e+002
6.224918e+002, 1.264100e+002
6.229739e+002, 1.263620e+002
6.234561e+002, 1.260674e+002
6.239382e+002, 1.255413e+002
6.244203e+002, 1.251531e+002
6.249023e+002, 1.252845e+002
6.253845e+002, 1.257723e+002
6.258666e+002, 1.262548e+002
6.263487e+002, 1.267453e+002
6.268308e+002, 1.269516e+002
6.273129e+002, 1.266211e+002
6.277950e+002, 1.260453e+002
6.282772e+002, 1.258117e+002
6.287593e+002, 1.260074e+002
6.292414e+002, 1.260605e+002
6.297235e+002, 1.256767e+002
6.302056e+002, 1.253116e+002
6.306877e+002, 1.253245e+002
6.311699e+002, 1.256111e+002
6.316520e+002, 1.258998e+002
6.321341e+002, 1.260653e+002
6.326162e+002, 1.261245e+002
6.330983e+002, 1.260705e+002
6.335804e+002, 1.258556e+002
6.340626e+002, 1.257845e+002
6.345447e+002, 1.260309e+002
6.350268e+002, 1.261980e+002
6.355089e+002, 1.260815e+002
6.359910e+002, 1.257955e+002
6.364731e+002, 1.254851e+002
6.369553e+002, 1.251583e+002
6.374374e+002, 1.249341e+002
6.379195e+002, 1.249331e+002
6.384016e+002, 1.250829e+002
6.388837e+002, 1.253259e+002
6.393658e+002, 1.256401e+002
6.398480e+002, 1.257342e+002
6.403301e+002, 1.253448e+002
6.408122e+002, 1.246778e+002
6.412943e+002, 1.244267e+002
6.417764e+002, 1.250437e+002
6.422585e+002, 1.254202e+002
6.427407e+002, 1.254487e+002
6.432228e+002, 1.253328e+002
6.437049e+002, 1.251527e+002
6.441870e+002, 1.249399e+002
6.446691e+002, 1.247075e+002
6.451512e+002, 1.244491e+002
6.456334e+002, 1.242428e+002
6.461155e+002, 1.242810e+002
6.465976e+002, 1.245609e+002
6.470797e+002, 1.246592e+002
6.475618e+002, 1.244466e+002
6.480439e+002, 1.241865e+002
6.485261e+002, 1.240622e+002
6.490082e+002, 1.240518e+002
6.494903e+002, 1.240904e+002
6.499724e+002, 1.241790e+002
6.504545e+002, 1.243079e+002
6.509366e+002, 1.246225e+002
6.514188e+002, 1.248932e+002
6.519009e+002, 1.247361e+002
6.523830e+002, 1.241873e+002
6.528651e+002, 1.236845e+002
6.533472e+002, 1.235454e+002
6.538293e+002, 1.237155e+002
6.543115e+002, 1.240384e+002
6.547936e+002, 1.246689e+002
6.552757e+002, 1.250712e+002
6.557578e+002, 1.250022e+002
6.562399e+002, 1.248244e+002
6.567220e+002, 1.247457e+002
6.572042e+002, 1.247217e+002
6.576863e+002, 1.245742e+002
6.581684e+002, 1.241324e+002
6.586505e+002, 1.237085e+002
6.591326e+002, 1.236926e+002
6.596147e+002, 1.239285e+002
6.600969e+002, 1.239332e+002
6.605790e+002, 1.235970e+002
6.610611e+002, 1.232518e+002
6.615432e+002, 1.231956e+002
6.620253e+002, 1.233997e+002
6.625074e+002, 1.235485e+002
6.629896e+002, 1.236843e+002
6.634717e+002, 1.237063e+002
6.639538e+002, 1.234950e+002
6.644359e+002, 1.232522e+002
6.649180e+002, 1.230604e+002
6.654001e+002, 1.229788e+002
6.658823e+002, 1.231616e+002
6.663644e+002, 1.238401e+002
6.668465e+002, 1.246095e+002
6.673286e+002, 1.246088e+002
6.678107e+002, 1.238662e+002
6.682928e+002, 1.233598e+002
6.687750e+002, 1.233108e+002
6.692571e+002, 1.235489e+002
6.697392e+002, 1.240713e+002
6.702213e+002, 1.248106e+002
6.707034e+002, 1.251349e+002
6.711855e+002, 1.246091e+002
6.716677e+002, 1.241894e+002
6.721498e+002, 1.243071e+002
6.726319e+002, 1.246060e+002
6.731140e+002, 1.246741e+002
6.735961e+002, 1.244877e+002
6.740782e+002, 1.243101e+002
6.745604e+002, 1.243504e+002
6.750425e+002, 1.245332e+002
6.755246e+002, 1.245852e+002
6.760067e+002, 1.244468e+002
6.764888e+002, 1.244535e+002
6.769709e+002, 1.247916e+002
6.774531e+002, 1.251598e+002
6.779352e+002, 1.253504e+002
6.784173e+002, 1.253797e+002
6.788994e+002, 1.252824e+002
6.793815e+002, 1.248319e+002
6.798636e+002, 1.245592e+002
6.803458e+002, 1.249416e+002
6.808279e+002, 1.256408e+002
6.813100e+002, 1.261059e+002
6.817921e+002, 1.262574e+002
6.822742e+002, 1.263840e+002
6.827563e+002, 1.267184e+002
6.832385e+002, 1.272279e+002
6.837206e+002, 1.277937e+002
6.842027e+002, 1.286037e+002
6.846848e+002, 1.290533e+002
6.851669e+002, 1.286036e+002
6.856490e+002, 1.281709e+002
6.861312e+002, 1.283426e+002
6.866133e+002, 1.289769e+002
6.870954e+002, 1.295771e+002
6.875775e+002, 1.299223e+002
6.880596e+002, 1.302369e+002
6.885417e+002, 1.307798e+002
6.890239e+002, 1.314332e+002
6.895060e+002, 1.319047e+002
6.899881e+002, 1.321464e+002
6.904702e+002, 1.322948e+002
6.909523e+002, 1.324198e+002
6.914344e+002, 1.325711e+002
6.919166e+002, 1.330123e+002
6.923987e+002, 1.340047e+002
6.928808e+002, 1.348763e+002
6.933629e+002, 1.355385e+002
6.938450e+002, 1.361267e+002
6.943271e+002, 1.366670e+002
6.948093e+002, 1.372071e+002
6.952914e+002, 1.378354e+002
6.957735e+002, 1.385972e+002
6.962556e+002, 1.394369e+002
6.967377e+002, 1.403374e+002
6.972198e+002, 1.412675e+002
6.977020e+002, 1.421224e+002
6.981841e+002, 1.428759e+002
6.986662e+002, 1.436260e+002
6.991483e+002, 1.444538e+002
6.996304e+002, 1.453227e+002
7.001125e+002, 1.460793e+002
7.005947e+002, 1.465217e+002
7.010768e+002, 1.471624e+002
7.015589e+002, 1.482301e+002
7.020410e+002, 1.492940e+002
7.025231e+002, 1.500479e+002
7.030052e+002, 1.505969e+002
7.034874e+002, 1.512435e+002
7.039695e+002, 1.521286e+002
7.044516e+002, 1.530037e+002
7.049337e+002, 1.534666e+002
7.054158e+002, 1.536225e+002
7.058979e+002, 1.540632e+002
7.063801e+002, 1.549024e+002
7.068622e+002, 1.555991e+002
7.073442e+002, 1.558320e+002
7.078264e+002, 1.557170e+002
7.083085e+002, 1.555197e+002
7.087906e+002, 1.551503e+002
7.092727e+002, 1.549271e+002
7.097548e+002, 1.550224e+002
7.102369e+002, 1.551181e+002
7.107191e+002, 1.555073e+002
7.112012e+002, 1.556306e+002
7.116833e+002, 1.543865e+002
7.121654e+002, 1.513939e+002
7.126475e+002, 1.478191e+002
7.131296e+002, 1.448214e+002
7.136118e+002, 1.423787e+002
7.140939e+002, 1.403750e+002
7.145760e+002, 1.388782e+002
7.150581e+002, 1.374454e+002
7.155402e+002, 1.359011e+002
7.160223e+002, 1.343097e+002
7.165045e+002, 1.327286e+002
7.169866e+002, 1.311184e+002
7.174687e+002, 1.297639e+002
7.179508e+002, 1.288358e+002
7.184329e+002, 1.280182e+002
7.189150e+002, 1.272071e+002
7.193972e+002, 1.263862e+002
7.198793e+002, 1.255063e+002
7.203614e+002, 1.245753e+002
7.208435e+002, 1.237244e+002
7.213256e+002, 1.231195e+002
7.218077e+002, 1.226890e+002
7.222899e+002, 1.221148e+002
7.227720e+002, 1.213545e+002
7.232541e+002, 1.207741e+002
7.237362e+002, 1.205165e+002
7.242183e+002, 1.204494e+002
7.247004e+002, 1.205204e+002
7.251826e+002, 1.207219e+002
7.256647e+002, 1.206247e+002
7.261468e+002, 1.199757e+002
7.266289e+002, 1.193013e+002
7.271110e+002, 1.186507e+002
7.275931e+002, 1.181573e+002
7.280753e+002, 1.180741e+002
7.285574e+002, 1.183480e+002
7.290395e+002, 1.186019e+002
7.295216e+002, 1.185597e+002
7.300037e+002, 1.183182e+002
7.304858e+002, 1.180650e+002
7.309680e+002, 1.177975e+002
7.314501e+002, 1.176153e+002
7.319322e+002, 1.175622e+002
7.324143e+002, 1.175367e+002
7.328964e+002, 1.174229e+002
7.333785e+002, 1.172625e+002
7.338607e+002, 1.172720e+002
7.343428e+002, 1.177863e+002
7.348249e+002, 1.179521e+002
7.353070e+002, 1.172270e+002
7.357891e+002, 1.163839e+002
7.362712e+002, 1.161292e+002
7.367534e+002, 1.163251e+002
7.372355e+002, 1.163798e+002
7.377176e+002, 1.159826e+002
7.381997e+002, 1.154902e+002
7.386818e+002, 1.154707e+002
7.391639e+002, 1.158722e+002
7.396461e+002, 1.162361e+002
7.401282e+002, 1.165659e+002
7.406103e+002, 1.166593e+002
7.410924e+002, 1.163144e+002
7.415745e+002, 1.157238e+002
7.420566e+002, 1.153137e+002
7.425388e+002, 1.151281e+002
7.430209e+002, 1.149508e+002
7.435030e+002, 1.146222e+002
7.439851e+002, 1.144461e+002
7.444672e+002, 1.147305e+002
7.449493e+002, 1.152167e+002
7.454315e+002, 1.155165e+002
7.459136e+002, 1.155188e+002
7.463957e+002, 1.153699e+002
7.468778e+002, 1.151359e+002
7.473599e+002, 1.148730e+002
7.478420e+002, 1.147865e+002
7.483242e+002, 1.148810e+002
7.488063e+002, 1.149682e+002
7.492884e+002, 1.150233e+002
7.497705e+002, 1.149403e+002
7.502526e+002, 1.144674e+002
7.507347e+002, 1.135558e+002
7.512169e+002, 1.133278e+002
7.516990e+002, 1.144268e+002
7.521811e+002, 1.153132e+002
7.526632e+002, 1.156496e+002
7.531453e+002, 1.156347e+002
7.536274e+002, 1.153145e+002
7.541096e+002, 1.148096e+002
7.545917e+002, 1.144311e+002
7.550738e+002, 1.143983e+002
7.555559e+002, 1.144805e+002
7.560380e+002, 1.143178e+002
7.565201e+002, 1.139808e+002
7.570023e+002, 1.138133e+002
7.574844e+002, 1.138826e+002
7.579665e+002, 1.139267e+002
7.584486e+002, 1.137447e+002
7.589307e+002, 1.134123e+002
7.594128e+002, 1.131740e+002
7.598950e+002, 1.129147e+002
7.603771e+002, 1.129705e+002
7.608592e+002, 1.137789e+002
7.613413e+002, 1.144190e+002
7.618234e+002, 1.143418e+002
7.623055e+002, 1.138485e+002
7.627877e+002, 1.133816e+002
7.632698e+002, 1.130552e+002
7.637519e+002, 1.129488e+002
7.642340e+002, 1.133517e+002
7.647161e+002, 1.138919e+002
7.651982e+002, 1.138807e+002
7.656804e+002, 1.134057e+002
7.661625e+002, 1.130959e+002
7.666446e+002, 1.132005e+002
7.671267e+002, 1.134528e+002
7.676088e+002, 1.134926e+002
7.680909e+002, 1.133065e+002
7.685731e+002, 1.132326e+002
7.690552e+002, 1.129728e+002
7.695373e+002, 1.133280e+002
7.700194e+002, 1.150767e+002
7.705015e+002, 1.170005e+002
7.709836e+002, 1.184653e+002
7.714658e+002, 1.192983e+002
7.719479e+002, 1.189908e+002
7.724300e+002, 1.165014e+002
7.729121e+002, 1.139843e+002
7.733942e+002, 1.130680e+002
7.738763e+002, 1.130433e+002
7.743585e+002, 1.128733e+002
7.748406e+002, 1.124092e+002
7.753227e+002, 1.118980e+002
7.758048e+002, 1.114780e+002
7.762869e+002, 1.112245e+002
7.767690e+002, 1.113928e+002
7.772512e+002, 1.120825e+002
7.777333e+002, 1.125214e+002
7.782154e+002, 1.125692e+002
7.786975e+002, 1.125349e+002
7.791796e+002, 1.126114e+002
7.796617e+002, 1.126957e+002
7.801439e+002, 1.125579e+002
7.806260e+002, 1.120944e+002
7.811081e+002, 1.118877e+002
7.815902e+002, 1.124764e+002
7.820723e+002, 1.129653e+002
7.825544e+002, 1.126635e+002
7.830366e+002, 1.119032e+002
7.835187e+002, 1.111740e+002
7.840008e+002, 1.106535e+002
7.844829e+002, 1.104557e+002
7.849650e+002, 1.108097e+002
7.854471e+002, 1.114893e+002
7.859293e+002, 1.117617e+002
7.864114e+002, 1.116185e+002
7.868935e+002, 1.116163e+002
7.873756e+002, 1.119693e+002
7.878577e+002, 1.122568e+002
7.883398e+002, 1.120318e+002
7.888220e+002, 1.113736e+002
7.893040e+002, 1.109628e+002
7.897861e+002, 1.108919e+002
7.902682e+002, 1.109225e+002
7.907504e+002, 1.112482e+002
7.912325e+002, 1.114763e+002
7.917146e+002, 1.111574e+002
7.921967e+002, 1.105814e+002
7.926788e+002, 1.104247e+002
7.931609e+002, 1.109715e+002
7.936431e+002, 1.116015e+002
7.941252e+002, 1.118003e+002
7.946073e+002, 1.116999e+002
7.950894e+002, 1.114587e+002
7.955715e+002, 1.111242e+002
7.960536e+002, 1.109140e+002
7.965358e+002, 1.109194e+002
7.970179e+002, 1.110577e+002
7.975000e+002, 1.112323e+002
7.979821e+002, 1.114485e+002
7.984642e+002, 1.115792e+002
7.989464e+002, 1.115957e+002
7.994285e+002, 1.115792e+002
7.999106e+002, 1.115709e+002
8.003927e+002, 1.115189e+002
8.008748e+002, 1.113325e+002
8.013569e+002, 1.110526e+002
8.018391e+002, 1.108787e+002
8.023212e+002, 1.109424e+002
8.028033e+002, 1.110076e+002
8.032854e+002, 1.109812e+002
8.037675e+002, 1.108726e+002
8.042496e+002, 1.105395e+002
8.047318e+002, 1.101177e+002
8.052139e+002, 1.101238e+002
8.056960e+002, 1.108657e+002
8.061781e+002, 1.117904e+002
8.066602e+002, 1.119494e+002
8.071423e+002, 1.114050e+002
8.076245e+002, 1.109977e+002
8.081066e+002, 1.107646e+002
8.085887e+002, 1.106577e+002
8.090708e+002, 1.107016e+002
8.095529e+002, 1.107977e+002
8.100350e+002, 1.107728e+002
8.105172e+002, 1.105825e+002
8.109993e+002, 1.105805e+002
8.114814e+002, 1.111447e+002
8.119635e+002, 1.114147e+002
8.124456e+002, 1.109032e+002
8.129277e+002, 1.101752e+002
8.134099e+002, 1.097050e+002
8.138920e+002, 1.095422e+002
8.143741e+002, 1.095729e+002
8.148562e+002, 1.097964e+002
8.153383e+002, 1.100712e+002
8.158204e+002, 1.102791e+002
8.163026e+002, 1.104170e+002
8.167847e+002, 1.104501e+002
8.172668e+002, 1.103885e+002
8.177489e+002, 1.103549e+002
8.182310e+002, 1.104290e+002
8.187131e+002, 1.105090e+002
8.191953e+002, 1.103336e+002
8.196774e+002, 1.097937e+002
8.201595e+002, 1.097272e+002
8.206416e+002, 1.104412e+002
8.211237e+002, 1.110478e+002
8.216058e+002, 1.111917e+002
8.220880e+002, 1.110769e+002
8.225701e+002, 1.108798e+002
8.230522e+002, 1.106082e+002
8.235343e+002, 1.103837e+002
8.240164e+002, 1.102403e+002
8.244985e+002, 1.101381e+002
8.249807e+002, 1.100795e+002
8.254628e+002, 1.100398e+002
8.259449e+002, 1.099519e+002
8.264270e+002, 1.098506e+002
8.269091e+002, 1.099083e+002
8.273912e+002, 1.102648e+002
8.278734e+002, 1.106185e+002
8.283555e+002, 1.104315e+002
8.288376e+002, 1.098621e+002
8.293197e+002, 1.096182e+002
8.298018e+002, 1.097644e+002
8.302839e+002, 1.098884e+002
8.307661e+002, 1.097894e+002
8.312482e+002, 1.095459e+002
8.317303e+002, 1.092525e+002
8.322124e+002, 1.088686e+002
8.326945e+002, 1.087485e+002
8.331766e+002, 1.091795e+002
8.336588e+002, 1.094604e+002
8.341409e+002, 1.092556e+002
8.346230e+002, 1.089905e+002
8.351051e+002, 1.091018e+002
8.355872e+002, 1.095000e+002
8.360693e+002, 1.096551e+002
8.365515e+002, 1.092520e+002
8.370336e+002, 1.088240e+002
8.375157e+002, 1.086040e+002
8.379978e+002, 1.085521e+002
8.384799e+002, 1.086906e+002
8.389620e+002, 1.089545e+002
8.394442e+002, 1.091881e+002
8.399263e+002, 1.093184e+002
8.404084e+002, 1.093527e+002
8.408905e+002, 1.092970e+002
8.413726e+002, 1.091529e+002
8.418547e+002, 1.088880e+002
8.423369e+002, 1.084906e+002
8.428190e+002, 1.081756e+002
8.433011e+002, 1.080046e+002
8.437832e+002, 1.080012e+002
8.442653e+002, 1.082336e+002
8.447474e+002, 1.086934e+002
8.452296e+002, 1.090241e+002
8.457117e+002, 1.092913e+002
8.461938e+002, 1.093193e+002
8.466759e+002, 1.088056e+002
8.471580e+002, 1.083270e+002
8.476401e+002, 1.083324e+002
8.481223e+002, 1.086349e+002
8.486044e+002, 1.087737e+002
8.490865e+002, 1.086066e+002
8.495686e+002, 1.083858e+002
8.500507e+002, 1.082252e+002
8.505328e+002, 1.080949e+002
8.510150e+002, 1.079725e+002
8.514971e+002, 1.078530e+002
8.519792e+002, 1.077067e+002
8.524613e+002, 1.075365e+002
8.529434e+002, 1.074376e+002
8.534255e+002, 1.075321e+002
8.539077e+002, 1.077467e+002
8.543898e+002, 1.078453e+002
8.548719e+002, 1.078280e+002
8.553540e+002, 1.077868e+002
8.558361e+002, 1.077120e+002
8.563182e+002, 1.077559e+002
8.568004e+002, 1.081097e+002
8.572825e+002, 1.086104e+002
8.577646e+002, 1.087183e+002
8.582467e+002, 1.081795e+002
8.587288e+002, 1.077958e+002
8.592109e+002, 1.075969e+002
8.596931e+002, 1.075129e+002
8.601752e+002, 1.076313e+002
8.606573e+002, 1.077881e+002
8.611394e+002, 1.077693e+002
8.616215e+002, 1.075599e+002
8.621036e+002, 1.073654e+002
8.625858e+002, 1.072119e+002
8.630679e+002, 1.071600e+002
8.635500e+002, 1.073743e+002
8.640321e+002, 1.076511e+002
8.645142e+002, 1.077145e+002
8.649963e+002, 1.075409e+002
8.654785e+002, 1.071859e+002
8.659606e+002, 1.066512e+002
8.664427e+002, 1.061919e+002
8.669248e+002, 1.063265e+002
8.674069e+002, 1.069148e+002
8.678890e+002, 1.071788e+002
8.683712e+002, 1.070638e+002
8.688533e+002, 1.069578e+002
8.693354e+002, 1.070362e+002
8.698175e+002, 1.071317e+002
8.702996e+002, 1.069879e+002
8.707817e+002, 1.066003e+002
8.712639e+002, 1.064992e+002
8.717459e+002, 1.070485e+002
8.722280e+002, 1.072427e+002
8.727101e+002, 1.065730e+002
8.731923e+002, 1.058204e+002
8.736744e+002, 1.054088e+002
8.741565e+002, 1.052802e+002
8.746386e+002, 1.052532e+002
8.751207e+002, 1.052840e+002
8.756028e+002, 1.054679e+002
8.760850e+002, 1.061219e+002
8.765671e+002, 1.066674e+002
8.770492e+002, 1.064760e+002
8.775313e+002, 1.059476e+002
8.780134e+002, 1.058633e+002
8.784955e+002, 1.063466e+002
8.789777e+002, 1.067745e+002
8.794598e+002, 1.066502e+002
8.799419e+002, 1.062051e+002
8.804240e+002, 1.056610e+002
8.809061e+002, 1.051178e+002
8.813882e+002, 1.050450e+002
8.818704e+002, 1.054863e+002
8.823525e+002, 1.058722e+002
8.828346e+002, 1.058285e+002
8.833167e+002, 1.055695e+002
8.837988e+002, 1.055507e+002
8.842809e+002, 1.058113e+002
8.847631e+002, 1.060300e+002
8.852452e+002, 1.062470e+002
8.857273e+002, 1.063114e+002
8.862094e+002, 1.060717e+002
8.866915e+002, 1.057595e+002
8.871736e+002, 1.056557e+002
8.876558e+002, 1.057427e+002
8.881379e+002, 1.057422e+002
8.886200e+002, 1.054632e+002
8.891021e+002, 1.053545e+002
8.895842e+002, 1.056329e+002
8.900663e+002, 1.059736e+002
8.905485e+002, 1.062111e+002
8.910306e+002, 1.063240e+002
8.915127e+002, 1.062663e+002
8.919948e+002, 1.060157e+002
8.924769e+002, 1.058387e+002
8.929590e+002, 1.061385e+002
8.934412e+002, 1.064009e+002
8.939233e+002, 1.058424e+002
8.944054e+002, 1.048834e+002
8.948875e+002, 1.044978e+002
8.953696e+002, 1.048257e+002
8.958517e+002, 1.052214e+002
8.963339e+002, 1.051985e+002
8.968160e+002, 1.049737e+002
8.972981e+002, 1.050002e+002
8.977802e+002, 1.052471e+002
8.982623e+002, 1.054353e+002
8.987444e+002, 1.055473e+002
8.992266e+002, 1.054575e+002
8.997087e+002, 1.050443e+002
9.001908e+002, 1.045783e+002
9.006729e+002, 1.044999e+002
9.011550e+002, 1.048379e+002
9.016371e+002, 1.048821e+002
9.021193e+002, 1.044206e+002
9.026014e+002, 1.040576e+002
9.030835e+002, 1.039368e+002
9.035656e+002, 1.039177e+002
9.040477e+002, 1.039356e+002
9.045298e+002, 1.039773e+002
9.050120e+002, 1.040228e+002
9.054941e+002, 1.041097e+002
9.059762e+002, 1.040886e+002
9.064583e+002, 1.037641e+002
9.069404e+002, 1.034916e+002
9.074225e+002, 1.035357e+002
9.079047e+002, 1.037395e+002
9.083868e+002, 1.038963e+002
9.088689e+002, 1.039638e+002
9.093510e+002, 1.039894e+002
9.098331e+002, 1.040040e+002
9.103152e+002, 1.039831e+002
9.107974e+002, 1.038444e+002
9.112795e+002, 1.036753e+002
9.117616e+002, 1.036881e+002
9.122437e+002, 1.038503e+002
9.127258e+002, 1.039125e+002
9.132079e+002, 1.037561e+002
9.136901e+002, 1.035000e+002
9.141722e+002, 1.032517e+002
9.146543e+002, 1.030408e+002
9.151364e+002, 1.031120e+002
9.156185e+002, 1.034817e+002
9.161006e+002, 1.036084e+002
9.165828e+002, 1.033176e+002
9.170649e+002, 1.029283e+002
9.175470e+002, 1.026861e+002
9.180291e+002, 1.025680e+002
9.185112e+002, 1.024745e+002
9.189933e+002, 1.023171e+002
9.194755e+002, 1.024286e+002
9.199576e+002, 1.031089e+002
9.204397e+002, 1.036283e+002
9.209218e+002, 1.035891e+002
9.214039e+002, 1.033181e+002
9.218860e+002, 1.031358e+002
9.223682e+002, 1.030476e+002
9.228503e+002, 1.029936e+002
9.233324e+002, 1.030876e+002
9.238145e+002, 1.030505e+002
9.242966e+002, 1.026739e+002
9.247787e+002, 1.022532e+002
9.252609e+002, 1.019490e+002
9.257430e+002, 1.018041e+002
9.262251e+002, 1.019267e+002
9.267072e+002, 1.023586e+002
9.271893e+002, 1.026750e+002
9.276714e+002, 1.024608e+002
9.281536e+002, 1.021143e+002
9.286357e+002, 1.020377e+002
9.291178e+002, 1.021325e+002
9.295999e+002, 1.022325e+002
9.300820e+002, 1.022823e+002
9.305641e+002, 1.022114e+002
9.310463e+002, 1.019603e+002
9.315284e+002, 1.016546e+002
9.320105e+002, 1.014509e+002
9.324926e+002, 1.013635e+002
9.329747e+002, 1.015326e+002
9.334568e+002, 1.019413e+002
9.339390e+002, 1.021538e+002
9.344211e+002, 1.019908e+002
9.349032e+002, 1.017709e+002
9.353853e+002, 1.018656e+002
9.358674e+002, 1.021919e+002
9.363495e+002, 1.022366e+002
9.368317e+002, 1.019238e+002
9.373138e+002, 1.016408e+002
9.377959e+002, 1.013610e+002
9.382780e+002, 1.012801e+002
9.387601e+002, 1.016044e+002
9.392422e+002, 1.021153e+002
9.397244e+002, 1.024542e+002
9.402065e+002, 1.026319e+002
9.406886e+002, 1.025653e+002
9.411707e+002, 1.019331e+002
9.416528e+002, 1.015023e+002
9.421349e+002, 1.015694e+002
9.426171e+002, 1.017473e+002
9.430992e+002, 1.017631e+002
9.435813e+002, 1.016578e+002
9.440634e+002, 1.015802e+002
9.445455e+002, 1.015717e+002
9.450276e+002, 1.015439e+002
9.455098e+002, 1.014497e+002
9.459919e+002, 1.013439e+002
9.464740e+002, 1.012451e+002
9.469561e+002, 1.011689e+002
9.474382e+002, 1.011902e+002
9.479203e+002, 1.012702e+002
9.484025e+002, 1.011824e+002
9.488846e+002, 1.007145e+002
9.493667e+002, 1.002760e+002
9.498488e+002, 1.003037e+002
9.503309e+002, 1.005851e+002
9.508130e+002, 1.008320e+002
9.512952e+002, 1.010223e+002
9.517773e+002, 1.012192e+002
9.522594e+002, 1.014330e+002
9.527415e+002, 1.015277e+002
9.532236e+002, 1.013287e+002
9.537057e+002, 1.009739e+002
9.541878e+002, 1.008008e+002
9.546699e+002, 1.007854e+002
9.551520e+002, 1.007930e+002
9.556342e+002, 1.008036e+002
9.561163e+002, 1.007246e+002
9.565984e+002, 1.004870e+002
9.570805e+002, 1.002401e+002
9.575626e+002, 1.002322e+002
9.580447e+002, 1.004598e+002
9.585269e+002, 1.007138e+002
9.590090e+002, 1.010399e+002
9.594911e+002, 1.011933e+002
9.599732e+002, 1.010828e+002
9.604553e+002, 1.008810e+002
9.609374e+002, 1.007292e+002
9.614196e+002, 1.005718e+002
9.619017e+002, 1.002162e+002
9.623838e+002, 9.946635e+001
9.628659e+002, 9.912672e+001
9.633480e+002, 9.953310e+001
9.638301e+002, 9.989615e+001
9.643123e+002, 9.994238e+001
9.647944e+002, 9.991079e+001
9.652765e+002, 1.000322e+002
9.657586e+002, 1.002631e+002
9.662407e+002, 1.003943e+002
9.667228e+002, 1.004740e+002
9.672050e+002, 1.003036e+002
9.676871e+002, 9.950290e+001
9.681692e+002, 9.880627e+001
9.686513e+002, 9.864915e+001
9.691334e+002, 9.884490e+001
9.696155e+002, 9.921907e+001
9.700977e+002, 9.969302e+001
9.705798e+002, 1.000428e+002
9.710619e+002, 1.002314e+002
9.715440e+002, 1.001715e+002
9.720261e+002, 9.955381e+001
9.725082e+002, 9.886016e+001
9.729904e+002, 9.863985e+001
9.734725e+002, 9.877416e+001
9.739546e+002, 9.892786e+001
9.744367e+002, 9.898711e+001
9.749188e+002, 9.896396e+001
9.754009e+002, 9.880983e+001
9.758831e+002, 9.864075e+001
9.763652e+002, 9.867062e+001
9.768473e+002, 9.878430e+001
9.773294e+002, 9.864171e+001
9.778115e+002, 9.829386e+001
9.782936e+002, 9.824577e+001
9.787758e+002, 9.873490e+001
9.792579e+002, 9.927395e+001
9.797400e+002, 9.922688e+001
9.802221e+002, 9.875423e+001
9.807042e+002, 9.829827e+001
9.811863e+002, 9.788892e+001
9.816685e+002, 9.784550e+001
9.821506e+002, 9.823032e+001
9.826327e+002, 9.854647e+001
9.831148e+002, 9.845773e+001
9.835969e+002, 9.817088e+001
9.840790e+002, 9.809446e+001
9.845612e+002, 9.823121e+001
9.850433e+002, 9.821207e+001
9.855254e+002, 9.800010e+001
9.860075e+002, 9.783682e+001
9.864896e+002, 9.775973e+001
9.869717e+002, 9.784594e+001
9.874539e+002, 9.823770e+001
9.879360e+002, 9.876604e+001
9.884181e+002, 9.886646e+001
9.889002e+002, 9.835538e+001
9.893823e+002, 9.807803e+001
9.898644e+002, 9.819816e+001
9.903466e+002, 9.822784e+001
9.908287e+002, 9.791199e+001
9.913108e+002, 9.755860e+001
9.917929e+002, 9.745995e+001
9.922750e+002, 9.758472e+001
9.927571e+002, 9.775262e+001
9.932393e+002, 9.805010e+001
9.937214e+002, 9.823608e+001
9.942035e+002, 9.837020e+001
9.946856e+002, 9.831914e+001
9.951677e+002, 9.778637e+001
9.956498e+002, 9.721339e+001
9.961320e+002, 9.709510e+001
9.966141e+002, 9.740639e+001
9.970962e+002, 9.777536e+001
9.975783e+002, 9.819923e+001
9.980604e+002, 9.856291e+001
9.985425e+002, 9.896076e+001
9.990247e+002, 9.915752e+001
9.995068e+002, 9.892730e+001
9.999889e+002, 9.843849e+001
1.000471e+003, 9.785625e+001
1.000953e+003, 9.724232e+001
1.001435e+003, 9.678938e+001
1.001917e+003, 9.649141e+001
1.002399e+003, 9.650567e+001
1.002882e+003, 9.726474e+001
1.003364e+003, 9.807267e+001
1.003846e+003, 9.824199e+001
1.004328e+003, 9.796290e+001
1.004810e+003, 9.769520e+001
1.005292e+003, 9.755737e+001
1.005774e+003, 9.741017e+001
1.006256e+003, 9.708613e+001
1.006739e+003, 9.682346e+001
1.007221e+003, 9.695043e+001
1.007703e+003, 9.721445e+001
1.008185e+003, 9.722837e+001
1.008667e+003, 9.704797e+001
1.009149e+003, 9.693953e+001
1.009631e+003, 9.699661e+001
1.010113e+003, 9.712712e+001
1.010595e+003, 9.728762e+001
1.011078e+003, 9.743247e+001
1.011560e+003, 9.752188e+001
1.012042e+003, 9.753194e+001
1.012524e+003, 9.731203e+001
1.013006e+003, 9.693165e+001
1.013488e+003, 9.681374e+001
1.013970e+003, 9.713371e+001
1.014452e+003, 9.745829e+001
1.014935e+003, 9.722505e+001
1.015417e+003, 9.669646e+001
1.015899e+003, 9.654471e+001
1.016381e+003, 9.669988e+001
1.016863e+003, 9.687096e+001
1.017345e+003, 9.700476e+001
1.017827e+003, 9.707215e+001
1.018309e+003, 9.705886e+001
1.018791e+003, 9.695618e+001
1.019274e+003, 9.669400e+001
1.019756e+003, 9.634953e+001
1.020238e+003, 9.637931e+001
1.020720e+003, 9.676208e+001
1.021202e+003, 9.683907e+001
1.021684e+003, 9.647248e+001
1.022166e+003, 9.630892e+001
1.022648e+003, 9.676598e+001
1.023130e+003, 9.740353e+001
1.023613e+003, 9.746949e+001
1.024095e+003, 9.701167e+001
1.024577e+003, 9.686428e+001
1.025059e+003, 9.706822e+001
1.025541e+003, 9.724693e+001
1.026023e+003, 9.734183e+001
1.026505e+003, 9.735731e+001
1.026987e+003, 9.729857e+001
1.027469e+003, 9.715023e+001
1.027952e+003, 9.685406e+001
1.028434e+003, 9.639310e+001
1.028916e+003, 9.618351e+001
1.029398e+003, 9.633224e+001
1.029880e+003, 9.633512e+001
1.030362e+003, 9.601958e+001
1.030844e+003, 9.572537e+001
1.031326e+003, 9.566659e+001
1.031809e+003, 9.578511e+001
1.032291e+003, 9.598096e+001
1.032773e+003, 9.627322e+001
1.033255e+003, 9.648141e+001
1.033737e+003, 9.654906e+001
1.034219e+003, 9.667156e+001
1.034701e+003, 9.699805e+001
1.035183e+003, 9.721739e+001
1.035666e+003, 9.710130e+001
1.036148e+003, 9.674941e+001
1.036630e+003, 9.632410e+001
1.037112e+003, 9.575937e+001
1.037594e+003, 9.549374e+001
1.038076e+003, 9.570609e+001
1.038558e+003, 9.593398e+001
1.039040e+003, 9.620510e+001
1.039522e+003, 9.634980e+001
1.040005e+003, 9.615035e+001
1.040487e+003, 9.577898e+001
1.040969e+003, 9.561147e+001
1.041451e+003, 9.569151e+001
1.041933e+003, 9.573717e+001
1.042415e+003, 9.580721e+001
1.042897e+003, 9.575276e+001
1.043379e+003, 9.529283e+001
1.043861e+003, 9.495444e+001
1.044344e+003, 9.527434e+001
1.044826e+003, 9.589300e+001
1.045308e+003, 9.604504e+001
1.045790e+003, 9.558636e+001
1.046272e+003, 9.536266e+001
1.046754e+003, 9.575864e+001
1.047236e+003, 9.599331e+001
1.047718e+003, 9.573055e+001
1.048201e+003, 9.538865e+001
1.048683e+003, 9.525316e+001
1.049165e+003, 9.524729e+001
1.049647e+003, 9.518674e+001
1.050129e+003, 9.503991e+001
1.050611e+003, 9.497903e+001
1.051093e+003, 9.514028e+001
1.051575e+003, 9.524908e+001
1.052057e+003, 9.510276e+001
1.052540e+003, 9.499108e+001
1.053022e+003, 9.521793e+001
1.053504e+003, 9.559396e+001
1.053986e+003, 9.570922e+001
1.054468e+003, 9.549679e+001
1.054950e+003, 9.546087e+001
1.055432e+003, 9.604646e+001
1.055914e+003, 9.640660e+001
1.056396e+003, 9.598451e+001
1.056879e+003, 9.549226e+001
1.057361e+003, 9.552088e+001
1.057843e+003, 9.583875e+001
1.058325e+003, 9.599847e+001
1.058807e+003, 9.593038e+001
1.059289e+003, 9.581586e+001
1.059771e+003, 9.574071e+001
1.060253e+003, 9.559367e+001
1.060736e+003, 9.527953e+001
1.061218e+003, 9.492934e+001
1.061700e+003, 9.458259e+001
1.062182e+003, 9.429561e+001
1.062664e+003, 9.404365e+001
1.063146e+003, 9.386328e+001
1.063628e+003, 9.418353e+001
1.064110e+003, 9.576653e+001
1.064593e+003, 9.701808e+001
1.065075e+003, 9.720158e+001
1.065557e+003, 9.688843e+001
1.066039e+003, 9.628215e+001
1.066521e+003, 9.559337e+001
1.067003e+003, 9.508852e+001
1.067485e+003, 9.479395e+001
1.067967e+003, 9.451389e+001
1.068449e+003, 9.407116e+001
1.068932e+003, 9.381369e+001
1.069414e+003, 9.403172e+001
1.069896e+003, 9.435694e+001
1.070378e+003, 9.460429e+001
1.070860e+003, 9.472840e+001
1.071342e+003, 9.462231e+001
1.071824e+003, 9.433442e+001
1.072306e+003, 9.419022e+001
1.072788e+003, 9.439870e+001
1.073271e+003, 9.455885e+001
1.073753e+003, 9.405943e+001
1.074235e+003, 9.388943e+001
1.074717e+003, 9.535667e+001
1.075199e+003, 9.722133e+001
1.075681e+003, 9.778326e+001
1.076163e+003, 9.704582e+001
1.076645e+003, 9.611323e+001
1.077127e+003, 9.521031e+001
1.077610e+003, 9.463771e+001
1.078092e+003, 9.478268e+001
1.078574e+003, 9.503097e+001
1.079056e+003, 9.494743e+001
1.079538e+003, 9.474321e+001
1.080020e+003, 9.477952e+001
1.080502e+003, 9.496028e+001
1.080984e+003, 9.479565e+001
1.081467e+003, 9.403269e+001
1.081949e+003, 9.344494e+001
1.082431e+003, 9.350539e+001
1.082913e+003, 9.369719e+001
1.083395e+003, 9.371592e+001
1.083877e+003, 9.369349e+001
1.084359e+003, 9.381569e+001
1.084841e+003, 9.402808e+001
1.085323e+003, 9.415079e+001
1.085806e+003, 9.413387e+001
1.086288e+003, 9.405276e+001
1.086770e+003, 9.389277e+001
1.087252e+003, 9.373402e+001
1.087734e+003, 9.356432e+001
1.088216e+003, 9.345937e+001
1.088698e+003, 9.352837e+001
1.089180e+003, 9.370457e+001
1.089662e+003, 9.386872e+001
1.090145e+003, 9.399731e+001
1.090627e+003, 9.401116e+001
1.091109e+003, 9.373812e+001
1.091591e+003, 9.353479e+001
1.092073e+003, 9.370419e+001
1.092555e+003, 9.385721e+001
1.093037e+003, 9.358285e+001
1.093519e+003, 9.312260e+001
1.094002e+003, 9.291940e+001
1.094484e+003, 9.302318e+001
1.094966e+003, 9.312939e+001
1.095448e+003, 9.317718e+001
1.095930e+003, 9.316224e+001
1.096412e+003, 9.304577e+001
1.096894e+003, 9.290626e+001
1.097376e+003, 9.269638e+001
1.097859e+003, 9.255263e+001
1.098341e+003, 9.274934e+001
1.098823e+003, 9.322466e+001
1.099305e+003, 9.345617e+001
1.099787e+003, 9.321610e+001
1.100269e+003, 9.295192e+001
1.100751e+003, 9.271608e+001
1.101233e+003, 9.255666e+001
1.101715e+003, 9.259444e+001
1.102198e+003, 9.264554e+001
1.102680e+003, 9.244506e+001
1.103162e+003, 9.208212e+001
1.103644e+003, 9.192576e+001
1.104126e+003, 9.205432e+001
1.104608e+003, 9.230918e+001
1.105090e+003, 9.286540e+001
1.105572e+003, 9.327988e+001
1.106054e+003, 9.342343e+001
1.106537e+003, 9.334570e+001
1.107019e+003, 9.290819e+001
1.107501e+003, 9.232356e+001
1.107983e+003, 9.212734e+001
1.108465e+003, 9.244572e+001
1.108947e+003, 9.263921e+001
1.109429e+003, 9.260097e+001
1.109911e+003, 9.250537e+001
1.110394e+003, 9.225018e+001
1.110876e+003, 9.209025e+001
1.111358e+003, 9.223369e+001
1.111840e+003, 9.254310e+001
1.112322e+003, 9.284434e+001
1.112804e+003, 9.314438e+001
1.113286e+003, 9.320877e+001
1.113768e+003, 9.288418e+001
1.114250e+003, 9.257525e+001
1.114733e+003, 9.224179e+001
1.115215e+003, 9.200956e+001
1.115697e+003, 9.170934e+001
1.116179e+003, 9.174788e+001
1.116661e+003, 9.273233e+001
1.117143e+003, 9.452297e+001
1.117625e+003, 9.616404e+001
1.118107e+003, 9.833216e+001
1.118589e+003, 9.860246e+001
1.119072e+003, 9.576092e+001
1.119554e+003, 9.343426e+001
1.120036e+003, 9.294937e+001
1.120518e+003, 9.302042e+001
1.121000e+003, 9.253573e+001
1.121482e+003, 9.176604e+001
1.121964e+003, 9.154177e+001
1.122446e+003, 9.197514e+001
1.122929e+003, 9.226653e+001
1.123411e+003, 9.237166e+001
1.123893e+003, 9.250990e+001
1.124375e+003, 9.279168e+001
1.124857e+003, 9.288810e+001
1.125339e+003, 9.250976e+001
1.125821e+003, 9.199864e+001
1.126303e+003, 9.197690e+001
1.126786e+003, 9.240880e+001
1.127268e+003, 9.265297e+001
1.127750e+003, 9.270210e+001
1.128232e+003, 9.257300e+001
1.128714e+003, 9.222883e+001
1.129196e+003, 9.203814e+001
1.129678e+003, 9.220076e+001
1.130160e+003, 9.238222e+001
1.130642e+003, 9.216251e+001
1.131125e+003, 9.171471e+001
1.131607e+003, 9.167664e+001
1.132089e+003, 9.202502e+001
1.132571e+003, 9.242747e+001
1.133053e+003, 9.285368e+001
1.133535e+003, 9.281899e+001
1.134017e+003, 9.217737e+001
1.134499e+003, 9.159900e+001
1.134981e+003, 9.161953e+001
1.135464e+003, 9.192882e+001
1.135946e+003, 9.194547e+001
1.136428e+003, 9.177109e+001
1.136910e+003, 9.182634e+001
1.137392e+003, 9.206495e+001
1.137874e+003, 9.223089e+001
1.138356e+003, 9.228592e+001
1.138838e+003, 9.237902e+001
1.139321e+003, 9.258781e+001
1.139803e+003, 9.266946e+001
1.140285e+003, 9.220644e+001
1.140767e+003, 9.157211e+001
1.141249e+003, 9.152832e+001
1.141731e+003, 9.181435e+001
1.142213e+003, 9.180813e+001
1.142695e+003, 9.157124e+001
1.143177e+003, 9.162727e+001
1.143660e+003, 9.208622e+001
1.144142e+003, 9.236887e+001
1.144624e+003, 9.196164e+001
1.145106e+003, 9.146394e+001
1.145588e+003, 9.158379e+001
1.146070e+003, 9.191115e+001
1.146552e+003, 9.192837e+001
1.147034e+003, 9.175573e+001
1.147516e+003, 9.165611e+001
1.147999e+003, 9.166850e+001
1.148481e+003, 9.170640e+001
1.148963e+003, 9.173148e+001
1.149445e+003, 9.178719e+001
1.149927e+003, 9.196308e+001
1.150409e+003, 9.210748e+001
1.150891e+003, 9.206702e+001
1.151373e+003, 9.197145e+001
1.151856e+003, 9.201955e+001
1.152338e+003, 9.211584e+001
1.152820e+003, 9.195519e+001
1.153302e+003, 9.147641e+001
1.153784e+003, 9.118858e+001
1.154266e+003, 9.136404e+001
1.154748e+003, 9.161103e+001
1.155230e+003, 9.191378e+001
1.155713e+003, 9.212466e+001
1.156195e+003, 9.208876e+001
1.156677e+003, 9.195055e+001
1.157159e+003, 9.187960e+001
1.157641e+003, 9.188599e+001
1.158123e+003, 9.195034e+001
1.158605e+003, 9.217483e+001
1.159087e+003, 9.223635e+001
1.159569e+003, 9.193799e+001
1.160052e+003, 9.171900e+001
1.160534e+003, 9.170913e+001
1.161016e+003, 9.180408e+001
1.161498e+003, 9.199329e+001
1.161980e+003, 9.219646e+001
1.162462e+003, 9.222720e+001
1.162944e+003, 9.206726e+001
1.163426e+003, 9.193993e+001
1.163908e+003, 9.189739e+001
1.164391e+003, 9.169539e+001
1.164873e+003, 9.117393e+001
1.165355e+003, 9.090039e+001
1.165837e+003, 9.123557e+001
1.166319e+003, 9.167977e+001
1.166801e+003, 9.159724e+001
1.167283e+003, 9.117574e+001
1.167765e+003, 9.122964e+001
1.168247e+003, 9.177770e+001
1.168730e+003, 9.226982e+001
1.169212e+003, 9.268694e+001
1.169694e+003, 9.282100e+001
1.170176e+003, 9.261134e+001
1.170658e+003, 9.216002e+001
1.171140e+003, 9.146317e+001
1.171622e+003, 9.110802e+001
1.172104e+003, 9.243912e+001
1.172587e+003, 9.472929e+001
1.173069e+003, 9.556789e+001
1.173551e+003, 9.519366e+001
1.174033e+003, 9.425024e+001
1.174515e+003, 9.300883e+001
1.174997e+003, 9.218755e+001
1.175479e+003, 9.203449e+001
1.175961e+003, 9.209285e+001
1.176443e+003, 9.198251e+001
1.176926e+003, 9.189588e+001
1.177408e+003, 9.219164e+001
1.177890e+003, 9.257537e+001
1.178372e+003, 9.261785e+001
1.178854e+003, 9.240829e+001
1.179336e+003, 9.207279e+001
1.179818e+003, 9.172205e+001
1.180300e+003, 9.167329e+001
1.180782e+003, 9.210957e+001
1.181265e+003, 9.242510e+001
1.181747e+003, 9.209254e+001
1.182229e+003, 9.171082e+001
1.182711e+003, 9.170621e+001
1.183193e+003, 9.180849e+001
1.183675e+003, 9.174058e+001
1.184157e+003, 9.158135e+001
1.184639e+003, 9.153107e+001
1.185122e+003, 9.161121e+001
1.185604e+003, 9.164971e+001
1.186086e+003, 9.163795e+001
1.186568e+003, 9.153333e+001
1.187050e+003, 9.113062e+001
1.187532e+003, 9.087987e+001
1.188014e+003, 9.111473e+001
1.188496e+003, 9.146019e+001
1.188979e+003, 9.155119e+001
1.189461e+003, 9.148326e+001
1.189943e+003, 9.154919e+001
1.190425e+003, 9.180404e+001
1.190907e+003, 9.184911e+001
1.191389e+003, 9.157640e+001
1.191871e+003, 9.138932e+001
1.192353e+003, 9.133672e+001
1.192835e+003, 9.140219e+001
1.193318e+003, 9.154064e+001
1.193800e+003, 9.194566e+001
1.194282e+003, 9.299274e+001
1.194764e+003, 9.433388e+001
1.195246e+003, 9.444805e+001
1.195728e+003, 9.339152e+001
1.196210e+003, 9.260609e+001
1.196692e+003, 9.215700e+001
1.197174e+003, 9.189360e+001
1.197657e+003, 9.177102e+001
1.198139e+003, 9.166817e+001
1.198621e+003, 9.150476e+001
1.199103e+003, 9.140556e+001
1.199585e+003, 9.162247e+001
1.200067e+003, 9.195316e+001
1.200549e+003, 9.202742e+001
1.201031e+003, 9.188322e+001
1.201514e+003, 9.146144e+001
1.201996e+003, 9.092260e+001
1.202478e+003, 9.077103e+001
1.202960e+003, 9.107837e+001
1.203442e+003, 9.128512e+001
1.203924e+003, 9.099995e+001
1.204406e+003, 9.072269e+001
1.204888e+003, 9.087449e+001
1.205370e+003, 9.114584e+001
1.205853e+003, 9.133176e+001
1.206335e+003, 9.144873e+001
1.206817e+003, 9.160939e+001
1.207299e+003, 9.171880e+001
1.207781e+003, 9.143301e+001
1.208263e+003, 9.064539e+001
1.208745e+003, 9.019498e+001
1.209227e+003, 9.049349e+001
1.209709e+003, 9.083237e+001
1.210192e+003, 9.120762e+001
1.210674e+003, 9.141933e+001
1.211156e+003, 9.112695e+001
1.211638e+003, 9.083559e+001
1.212120e+003, 9.116499e+001
1.212602e+003, 9.189682e+001
1.213084e+003, 9.221857e+001
1.213566e+003, 9.213245e+001
1.214049e+003, 9.150895e+001
1.214531e+003, 9.005721e+001
1.215013e+003, 8.927294e+001
1.215495e+003, 8.952987e+001
1.215977e+003, 9.007228e+001
1.216459e+003, 9.055546e+001
1.216941e+003, 9.083521e+001
1.217423e+003, 9.068335e+001
1.217906e+003, 9.027139e+001
1.218388e+003, 9.010143e+001
1.218870e+003, 9.015395e+001
1.219352e+003, 9.040020e+001
1.219834e+003, 9.078352e+001
1.220316e+003, 9.108257e+001
1.220798e+003, 9.122704e+001
1.221280e+003, 9.110346e+001
1.221762e+003, 9.063725e+001
1.222245e+003, 9.021857e+001
1.222727e+003, 9.030718e+001
1.223209e+003, 9.058118e+001
1.223691e+003, 9.078513e+001
1.224173e+003, 9.086301e+001
1.224655e+003, 9.061015e+001
1.225137e+003, 9.022948e+001
1.225619e+003, 9.012241e+001
1.226101e+003, 9.032666e+001
1.226584e+003, 9.058960e+001
1.227066e+003, 9.088448e+001
1.227548e+003, 9.105177e+001
1.228030e+003, 9.106751e+001
1.228512e+003, 9.090526e+001
1.228994e+003, 9.027602e+001
1.229476e+003, 8.973788e+001
1.229958e+003, 8.984631e+001
1.230441e+003, 9.028269e+001
1.230923e+003, 9.043425e+001
1.231405e+003, 9.031545e+001
1.231887e+003, 9.044613e+001
1.232369e+003, 9.103894e+001
1.232851e+003, 9.118471e+001
1.233333e+003, 9.069397e+001
1.233815e+003, 9.026450e+001
1.234297e+003, 9.007063e+001
1.234780e+003, 9.019297e+001
1.235262e+003, 9.076218e+001
1.235744e+003, 9.137402e+001
1.236226e+003, 9.124543e+001
1.236708e+003, 9.061081e+001
1.237190e+003, 9.046082e+001
1.237672e+003, 9.070588e+001
1.238154e+003, 9.109996e+001
1.238636e+003, 9.149982e+001
1.239119e+003, 9.128760e+001
1.239601e+003, 9.040588e+001
1.240083e+003, 8.981360e+001
1.240565e+003, 9.016989e+001
1.241047e+003, 9.074267e+001
1.241529e+003, 9.086119e+001
1.242011e+003, 9.082215e+001
1.242493e+003, 9.086073e+001
1.242975e+003, 9.096308e+001
1.243458e+003, 9.119923e+001
1.243940e+003, 9.143815e+001
1.244422e+003, 9.133517e+001
1.244904e+003, 9.088016e+001
1.245386e+003, 9.069390e+001
1.245868e+003, 9.129194e+001
1.246350e+003, 9.151219e+001
1.246832e+003, 9.069402e+001
1.247315e+003, 9.010189e+001
1.247797e+003, 9.031677e+001
1.248279e+003, 9.071157e+001
1.248761e+003, 9.090264e+001
1.249243e+003, 9.093210e+001
1.249725e+003, 9.084664e+001
1.250207e+003, 9.065926e+001
1.250689e+003, 9.062366e+001
1.251172e+003, 9.075340e+001
1.251654e+003, 9.085363e+001
1.252136e+003, 9.090382e+001
1.252618e+003, 9.115644e+001
1.253100e+003, 9.168479e+001
1.253582e+003, 9.199639e+001
1.254064e+003, 9.173421e+001
1.254546e+003, 9.127877e+001
1.255028e+003, 9.114131e+001
1.255510e+003, 9.118970e+001
1.255993e+003, 9.123562e+001
1.256475e+003, 9.125108e+001
1.256957e+003, 9.114101e+001
1.257439e+003, 9.096609e+001
1.257921e+003, 9.085242e+001
1.258403e+003, 9.084260e+001
1.258885e+003, 9.097195e+001
1.259367e+003, 9.128077e+001
1.259850e+003, 9.163430e+001
1.260332e+003, 9.222236e+001
1.260814e+003, 9.250826e+001
1.261296e+003, 9.193922e+001
1.261778e+003, 9.127532e+001
1.262260e+003, 9.110442e+001
1.262742e+003, 9.121983e+001
1.263224e+003, 9.124971e+001
1.263707e+003, 9.121516e+001
1.264189e+003, 9.134042e+001
1.264671e+003, 9.170918e+001
1.265153e+003, 9.194965e+001
1.265635e+003, 9.203829e+001
1.266117e+003, 9.209154e+001
1.266599e+003, 9.213626e+001
1.267081e+003, 9.213535e+001
1.267563e+003, 9.206595e+001
1.268046e+003, 9.195202e+001
1.268528e+003, 9.179583e+001
1.269010e+003, 9.166387e+001
1.269492e+003, 9.174191e+001
1.269974e+003, 9.195188e+001
1.270456e+003, 9.213279e+001
1.270938e+003, 9.226156e+001
1.271420e+003, 9.229404e+001
1.271902e+003, 9.224734e+001
1.272385e+003, 9.220544e+001
1.272867e+003, 9.220058e+001
1.273349e+003, 9.219486e+001
1.273831e+003, 9.213436e+001
1.274313e+003, 9.211080e+001
1.274795e+003, 9.218971e+001
1.275277e+003, 9.229911e+001
1.275759e+003, 9.247544e+001
1.276242e+003, 9.259071e+001
1.276724e+003, 9.243253e+001
1.277206e+003, 9.210479e+001
1.277688e+003, 9.196799e+001
1.278170e+003, 9.205065e+001
1.278652e+003, 9.203118e+001
1.279134e+003, 9.177953e+001
1.279616e+003, 9.197112e+001
1.280099e+003, 9.279985e+001
1.280581e+003, 9.340957e+001
1.281063e+003, 9.348576e+001
1.281545e+003, 9.326794e+001
1.282027e+003, 9.290520e+001
1.282509e+003, 9.258892e+001
1.282991e+003, 9.276968e+001
1.283473e+003, 9.317200e+001
1.283955e+003, 9.322554e+001
##END=



