##NAMES=Stibarsen
##RRUFFID=R070299
##IDEAL CHEMISTRY=SbAs
##LOCALITY=Varutrask, Skelleftea, Vasterbotten, Sweden
##OWNER=RRUFF
##SOURCE=James Shigley
##DESCRIPTION=Grey metallic platy fragment associated with arsenic
##STATUS=The identification of this mineral has been confirmed by X-ray diffraction and chemical analysis
##URL=rruff.info/R070299
##MEASURED CHEMISTRY=gray: (Sb_0.92_As_0.08_)_Σ=1_As_1.00_; black rings: (As_0.98_Sb_0.02_)_Σ=1_ (arsenic)
136.1626, 2135.318
136.6447, 2257.246
137.1268, 2379.924
137.6089, 2502.084
138.0910, 2626.288
138.5731, 2753.185
139.0553, 2886.932
139.5374, 3009.987
140.0195, 3116.998
140.5016, 3213.026
140.9837, 3312.046
141.4658, 3412.255
141.9480, 3519.820
142.4301, 3639.127
142.9122, 3775.186
143.3943, 3912.901
143.8764, 4060.081
144.3585, 4214.675
144.8407, 4335.753
145.3228, 4422.475
145.8049, 4475.313
146.2870, 4492.917
146.7691, 4465.617
147.2512, 4415.661
147.7334, 4343.285
148.2155, 4242.748
148.6976, 4142.182
149.1797, 4035.213
149.6618, 3929.820
150.1439, 3837.429
150.6261, 3767.558
151.1082, 3703.213
151.5903, 3641.284
152.0724, 3582.623
152.5545, 3524.479
153.0366, 3459.894
153.5188, 3396.244
154.0009, 3348.236
154.4830, 3337.520
154.9651, 3327.857
155.4472, 3302.295
155.9293, 3245.720
156.4115, 3192.490
156.8936, 3145.868
157.3757, 3106.853
157.8578, 3077.955
158.3399, 3067.267
158.8221, 3062.757
159.3042, 3056.461
159.7863, 3045.040
160.2684, 3032.991
160.7505, 3019.737
161.2326, 3005.860
161.7148, 2996.867
162.1969, 2999.733
162.6790, 3006.797
163.1611, 3010.625
163.6432, 3004.606
164.1253, 2998.076
164.6075, 2995.092
165.0896, 2995.770
165.5717, 3000.350
166.0538, 3011.250
166.5359, 3025.769
167.0180, 3040.041
167.5002, 3049.192
167.9823, 3059.637
168.4644, 3074.095
168.9465, 3091.819
169.4286, 3120.154
169.9107, 3176.791
170.3929, 3248.358
170.8750, 3308.175
171.3571, 3328.118
171.8392, 3334.959
172.3213, 3356.497
172.8034, 3396.593
173.2856, 3449.347
173.7677, 3515.581
174.2498, 3592.074
174.7319, 3666.508
175.2140, 3721.791
175.6961, 3772.551
176.1783, 3843.434
176.6604, 3944.446
177.1425, 4055.318
177.6246, 4151.239
178.1067, 4233.287
178.5888, 4314.975
179.0710, 4403.898
179.5531, 4498.327
180.0352, 4592.463
180.5173, 4680.980
180.9994, 4771.689
181.4815, 4875.837
181.9637, 4994.113
182.4458, 5119.062
182.9279, 5245.333
183.4100, 5373.956
183.8921, 5510.564
184.3742, 5655.506
184.8564, 5810.345
185.3385, 5973.461
185.8206, 6146.013
186.3027, 6329.790
186.7848, 6525.720
187.2669, 6734.486
187.7491, 6968.045
188.2312, 7250.026
188.7133, 7559.747
189.1954, 7831.325
189.6775, 8063.825
190.1596, 8253.905
190.6418, 8397.237
191.1239, 8493.262
191.6060, 8553.640
192.0881, 8596.008
192.5702, 8614.047
193.0524, 8548.151
193.5345, 8392.673
194.0166, 8169.309
194.4987, 7904.689
194.9808, 7597.589
195.4629, 7266.209
195.9451, 6909.561
196.4272, 6524.132
196.9093, 6169.681
197.3914, 5847.224
197.8735, 5557.020
198.3556, 5302.554
198.8378, 5086.660
199.3199, 4893.243
199.8020, 4715.900
200.2841, 4556.040
200.7662, 4414.669
201.2483, 4293.283
201.7305, 4189.179
202.2126, 4095.774
202.6947, 4012.637
203.1768, 3941.822
203.6589, 3888.750
204.1410, 3857.346
204.6232, 3817.519
205.1053, 3761.114
205.5874, 3697.006
206.0695, 3655.327
206.5516, 3639.394
207.0337, 3637.187
207.5159, 3644.016
207.9980, 3662.850
208.4801, 3676.732
208.9622, 3685.890
209.4443, 3688.470
209.9264, 3675.674
210.4086, 3647.483
210.8907, 3603.702
211.3728, 3541.358
211.8549, 3453.518
212.3370, 3368.542
212.8191, 3288.112
213.3013, 3213.393
213.7834, 3149.630
214.2655, 3100.952
214.7476, 3056.386
215.2297, 3005.771
215.7118, 2943.739
216.1940, 2889.284
216.6761, 2846.736
217.1582, 2815.493
217.6403, 2787.522
218.1224, 2765.123
218.6045, 2743.360
219.0867, 2716.376
219.5688, 2680.105
220.0509, 2648.799
220.5330, 2626.942
221.0151, 2614.448
221.4972, 2601.320
221.9794, 2585.728
222.4615, 2571.410
222.9436, 2562.936
223.4257, 2563.993
223.9078, 2563.032
224.3899, 2555.733
224.8721, 2540.908
225.3542, 2535.150
225.8363, 2544.816
226.3184, 2557.480
226.8005, 2556.885
227.2827, 2533.282
227.7648, 2515.252
228.2469, 2512.436
228.7290, 2527.964
229.2111, 2534.020
229.6932, 2526.506
230.1754, 2512.779
230.6575, 2501.251
231.1396, 2488.863
231.6217, 2484.545
232.1038, 2493.379
232.5859, 2519.342
233.0681, 2537.451
233.5502, 2548.347
234.0323, 2550.950
234.5144, 2542.296
234.9965, 2515.326
235.4786, 2488.948
235.9608, 2467.450
236.4429, 2450.079
236.9250, 2443.028
237.4071, 2452.714
237.8892, 2468.800
238.3713, 2474.095
238.8535, 2461.251
239.3356, 2449.979
239.8177, 2447.874
240.2998, 2459.140
240.7819, 2462.942
241.2640, 2455.703
241.7462, 2443.143
242.2283, 2435.461
242.7104, 2436.387
243.1925, 2435.951
243.6746, 2429.112
244.1567, 2410.754
244.6389, 2404.368
245.1210, 2415.748
245.6031, 2435.608
246.0852, 2447.524
246.5673, 2448.690
247.0494, 2446.662
247.5316, 2443.731
248.0137, 2439.667
248.4958, 2435.040
248.9779, 2427.744
249.4600, 2421.112
249.9421, 2422.503
250.4243, 2437.319
250.9064, 2450.486
251.3885, 2456.010
251.8706, 2451.318
252.3527, 2447.642
252.8348, 2445.957
253.3170, 2444.697
253.7991, 2440.124
254.2812, 2429.135
254.7633, 2420.893
255.2454, 2419.743
255.7275, 2428.358
256.2097, 2433.906
256.6918, 2434.638
257.1739, 2433.445
257.6560, 2437.191
258.1381, 2451.264
258.6202, 2459.002
259.1024, 2450.492
259.5845, 2418.046
260.0666, 2402.823
260.5487, 2411.444
261.0308, 2432.317
261.5129, 2443.919
261.9951, 2442.056
262.4772, 2440.736
262.9593, 2446.696
263.4414, 2462.888
263.9235, 2472.528
264.4056, 2475.104
264.8878, 2471.666
265.3699, 2461.273
265.8520, 2438.438
266.3341, 2424.156
266.8162, 2430.033
267.2983, 2460.684
267.7805, 2481.735
268.2626, 2492.299
268.7447, 2493.969
269.2268, 2486.890
269.7089, 2467.669
270.1910, 2452.000
270.6732, 2448.926
271.1553, 2460.894
271.6374, 2459.027
272.1195, 2437.451
272.6016, 2410.643
273.0837, 2405.100
273.5659, 2425.064
274.0480, 2444.318
274.5301, 2452.505
275.0122, 2449.187
275.4943, 2445.547
275.9764, 2441.506
276.4586, 2437.294
276.9407, 2431.950
277.4228, 2424.884
277.9049, 2422.232
278.3870, 2428.379
278.8691, 2442.800
279.3513, 2454.006
279.8334, 2462.381
280.3155, 2466.549
280.7976, 2461.422
281.2798, 2446.434
281.7619, 2436.573
282.2440, 2441.162
282.7261, 2457.417
283.2082, 2462.721
283.6903, 2455.179
284.1725, 2443.652
284.6546, 2436.915
285.1367, 2435.088
285.6188, 2440.406
286.1009, 2459.297
286.5830, 2486.528
287.0652, 2498.065
287.5473, 2492.326
288.0294, 2479.743
288.5115, 2467.954
288.9936, 2457.664
289.4757, 2455.461
289.9579, 2470.275
290.4400, 2493.078
290.9221, 2494.970
291.4042, 2474.335
291.8863, 2452.982
292.3684, 2457.073
292.8506, 2480.780
293.3327, 2498.282
293.8148, 2496.088
294.2969, 2485.871
294.7790, 2493.319
295.2611, 2518.519
295.7433, 2544.178
296.2254, 2557.035
296.7075, 2558.804
297.1896, 2553.444
297.6717, 2537.754
298.1538, 2519.275
298.6360, 2508.961
299.1181, 2506.469
299.6002, 2508.826
300.0823, 2513.917
300.5644, 2522.216
301.0465, 2535.668
301.5287, 2559.613
302.0108, 2582.825
302.4929, 2589.490
302.9750, 2582.151
303.4571, 2575.014
303.9392, 2577.791
304.4214, 2586.485
304.9035, 2596.683
305.3856, 2610.005
305.8677, 2619.870
306.3498, 2616.264
306.8319, 2602.953
307.3141, 2593.159
307.7962, 2595.549
308.2783, 2604.931
308.7604, 2617.502
309.2425, 2634.959
309.7246, 2649.530
310.2068, 2653.104
310.6889, 2649.537
311.1710, 2648.889
311.6531, 2657.630
312.1352, 2670.167
312.6173, 2683.445
313.0995, 2698.500
313.5816, 2709.340
314.0637, 2711.374
314.5458, 2707.372
315.0279, 2702.611
315.5100, 2694.796
315.9922, 2690.006
316.4743, 2691.654
316.9564, 2700.736
317.4385, 2713.762
317.9206, 2737.425
318.4027, 2762.569
318.8849, 2776.401
319.3670, 2762.290
319.8491, 2747.890
320.3312, 2744.760
320.8133, 2755.981
321.2954, 2764.787
321.7776, 2765.382
322.2597, 2763.001
322.7418, 2763.223
323.2239, 2772.465
323.7060, 2778.777
324.1881, 2777.238
324.6703, 2766.732
325.1524, 2761.169
325.6345, 2767.573
326.1166, 2776.126
326.5987, 2778.938
327.0808, 2768.890
327.5630, 2761.385
328.0451, 2757.263
328.5272, 2756.619
329.0093, 2762.070
329.4914, 2779.834
329.9735, 2797.917
330.4557, 2808.666
330.9378, 2810.888
331.4199, 2807.084
331.9020, 2791.758
332.3841, 2769.587
332.8662, 2765.463
333.3484, 2790.978
333.8305, 2817.015
334.3126, 2826.526
334.7947, 2812.803
335.2768, 2803.081
335.7589, 2799.692
336.2411, 2800.508
336.7232, 2799.915
337.2053, 2797.147
337.6874, 2795.229
338.1695, 2796.612
338.6516, 2802.095
339.1338, 2802.896
339.6159, 2796.969
340.0980, 2789.335
340.5801, 2789.280
341.0622, 2797.568
341.5443, 2806.534
342.0265, 2814.396
342.5086, 2820.792
342.9907, 2823.072
343.4728, 2821.255
343.9549, 2815.145
344.4370, 2782.911
344.9192, 2802.217
345.4013, 2812.252
345.8834, 2813.514
346.3655, 2779.726
346.8476, 2791.197
347.3297, 2784.531
347.8119, 2777.120
348.2940, 2794.962
348.7761, 2766.272
349.2582, 2783.713
349.7403, 2782.740
350.2225, 2790.194
350.7046, 2779.398
351.1867, 2774.239
351.6688, 2787.336
352.1509, 2790.325
352.6331, 2777.428
353.1152, 2785.418
353.5973, 2756.091
354.0794, 2759.510
354.5615, 2777.058
355.0436, 2765.079
355.5258, 2773.403
356.0079, 2773.994
356.4900, 2763.030
356.9721, 2772.085
357.4542, 2783.760
357.9363, 2790.257
358.4185, 2782.652
358.9006, 2767.385
359.3827, 2755.599
359.8648, 2754.293
360.3469, 2755.481
360.8290, 2754.925
361.3112, 2751.885
361.7933, 2749.830
362.2754, 2752.283
362.7575, 2755.376
363.2396, 2754.904
363.7217, 2740.714
364.2039, 2732.075
364.6860, 2739.632
365.1681, 2763.704
365.6502, 2774.944
366.1323, 2759.200
366.6144, 2736.270
367.0966, 2719.655
367.5787, 2708.677
368.0608, 2705.862
368.5429, 2718.500
369.0250, 2741.733
369.5071, 2749.610
369.9893, 2729.047
370.4714, 2708.355
370.9535, 2702.662
371.4356, 2723.559
371.9177, 2732.205
372.3998, 2721.649
372.8820, 2701.866
373.3641, 2696.690
373.8462, 2712.365
374.3283, 2726.321
374.8104, 2726.630
375.2925, 2711.070
375.7747, 2710.130
376.2568, 2728.097
376.7389, 2752.159
377.2210, 2764.026
377.7031, 2762.813
378.1852, 2762.503
378.6674, 2769.620
379.1495, 2780.967
379.6316, 2781.267
380.1137, 2769.520
380.5958, 2755.749
381.0779, 2748.976
381.5601, 2748.215
382.0422, 2749.003
382.5243, 2750.312
383.0064, 2752.692
383.4885, 2760.734
383.9706, 2772.961
384.4528, 2777.975
384.9349, 2756.939
385.4170, 2726.451
385.8991, 2716.349
386.3812, 2735.938
386.8633, 2760.004
387.3455, 2765.132
387.8276, 2756.733
388.3097, 2747.185
388.7918, 2744.012
389.2739, 2741.414
389.7560, 2732.117
390.2382, 2714.500
390.7203, 2703.181
391.2024, 2712.441
391.6845, 2730.151
392.1666, 2742.462
392.6487, 2742.373
393.1309, 2738.197
393.6130, 2730.730
394.0951, 2720.609
394.5772, 2714.239
395.0593, 2715.271
395.5414, 2719.279
396.0236, 2723.500
396.5057, 2727.292
396.9878, 2731.616
397.4699, 2735.879
397.9520, 2740.640
398.4341, 2747.761
398.9163, 2763.090
399.3984, 2774.663
399.8805, 2776.931
400.3626, 2764.729
400.8447, 2759.049
401.3268, 2764.230
401.8090, 2772.729
402.2911, 2772.352
402.7732, 2757.315
403.2553, 2748.999
403.7374, 2756.535
404.2195, 2778.477
404.7017, 2786.709
405.1838, 2777.507
405.6659, 2764.636
406.1480, 2761.896
406.6301, 2769.473
407.1122, 2772.533
407.5944, 2765.944
408.0765, 2755.874
408.5586, 2759.118
409.0407, 2775.426
409.5228, 2791.710
410.0049, 2799.646
410.4871, 2800.771
410.9692, 2798.545
411.4513, 2792.553
411.9334, 2786.259
412.4155, 2784.602
412.8976, 2785.962
413.3798, 2785.746
413.8619, 2777.961
414.3440, 2769.780
414.8261, 2769.793
415.3082, 2778.155
415.7903, 2787.147
416.2725, 2792.051
416.7546, 2794.712
417.2367, 2797.307
417.7188, 2800.929
418.2009, 2804.086
418.6830, 2807.201
419.1652, 2809.585
419.6473, 2808.586
420.1294, 2797.394
420.6115, 2786.957
421.0937, 2783.414
421.5758, 2790.366
422.0579, 2798.393
422.5400, 2807.482
423.0221, 2816.682
423.5042, 2824.589
423.9864, 2828.814
424.4685, 2834.339
424.9506, 2843.670
425.4327, 2857.367
425.9148, 2866.117
426.3969, 2869.708
426.8791, 2868.610
427.3612, 2862.011
427.8433, 2847.189
428.3254, 2835.518
428.8075, 2828.959
429.2896, 2826.523
429.7718, 2825.914
430.2539, 2827.814
430.7360, 2828.006
431.2181, 2821.902
431.7002, 2810.260
432.1823, 2805.007
432.6645, 2807.783
433.1466, 2813.452
433.6287, 2814.853
434.1108, 2812.793
434.5929, 2811.282
435.0750, 2812.318
435.5572, 2814.792
436.0393, 2817.179
436.5214, 2819.446
437.0035, 2820.927
437.4856, 2818.959
437.9677, 2816.493
438.4499, 2818.082
438.9320, 2827.017
439.4141, 2836.625
439.8962, 2841.078
440.3783, 2842.373
440.8604, 2845.796
441.3426, 2857.896
441.8247, 2869.538
442.3068, 2875.458
442.7889, 2874.437
443.2710, 2870.784
443.7531, 2864.707
444.2353, 2856.950
444.7174, 2848.232
445.1995, 2832.120
445.6816, 2822.350
446.1637, 2824.207
446.6458, 2836.334
447.1280, 2844.421
447.6101, 2844.196
448.0922, 2844.663
448.5743, 2851.429
449.0564, 2868.491
449.5385, 2881.713
450.0207, 2891.321
450.5028, 2896.395
450.9849, 2893.178
451.4670, 2879.692
451.9491, 2868.070
452.4312, 2862.876
452.9134, 2863.649
453.3955, 2867.820
453.8776, 2875.980
454.3597, 2883.223
454.8418, 2884.072
455.3239, 2879.671
455.8061, 2874.086
456.2882, 2866.432
456.7703, 2860.738
457.2524, 2865.103
457.7345, 2877.255
458.2166, 2888.059
458.6988, 2892.326
459.1809, 2892.183
459.6630, 2887.496
460.1451, 2876.938
460.6272, 2871.519
461.1093, 2885.868
461.5915, 2907.071
462.0736, 2918.765
462.5557, 2905.314
463.0378, 2891.494
463.5199, 2886.071
464.0020, 2888.463
464.4842, 2892.986
464.9663, 2900.081
465.4484, 2907.828
465.9305, 2915.847
466.4126, 2930.292
466.8947, 2933.878
467.3769, 2918.976
467.8590, 2896.586
468.3411, 2884.662
468.8232, 2887.038
469.3053, 2892.742
469.7874, 2900.410
470.2696, 2909.705
470.7517, 2913.455
471.2338, 2910.087
471.7159, 2906.000
472.1980, 2905.896
472.6801, 2909.802
473.1623, 2919.385
473.6444, 2937.900
474.1265, 2956.385
474.6086, 2955.505
475.0907, 2938.285
475.5728, 2924.283
476.0550, 2929.143
476.5371, 2941.973
477.0192, 2944.645
477.5013, 2936.496
477.9834, 2925.437
478.4655, 2911.576
478.9477, 2900.316
479.4298, 2899.205
479.9119, 2916.131
480.3940, 2907.165
480.8761, 2940.569
481.3582, 2960.066
481.8404, 2966.404
482.3225, 2920.165
482.8046, 2941.817
483.2867, 2936.262
483.7688, 2929.591
484.2509, 2960.798
484.7331, 2922.207
485.2152, 2952.813
485.6973, 2955.797
486.1794, 2971.423
486.6615, 2959.674
487.1436, 2956.380
487.6258, 2980.470
488.1079, 2989.398
488.5900, 2974.497
489.0721, 2990.927
489.5542, 2951.379
490.0363, 2960.952
490.5185, 2991.719
491.0006, 2969.594
491.4827, 2976.953
491.9648, 2985.575
492.4470, 2995.176
492.9291, 3004.510
493.4112, 3016.004
493.8933, 3024.328
494.3754, 3015.974
494.8575, 2993.830
495.3397, 2976.569
495.8218, 2980.518
496.3039, 2993.658
496.7860, 3004.525
497.2681, 3012.994
497.7502, 3013.490
498.2324, 2991.301
498.7145, 2962.696
499.1966, 2949.384
499.6787, 2974.252
500.1608, 2998.957
500.6429, 3012.799
501.1251, 3015.875
501.6072, 3014.479
502.0893, 2998.779
502.5714, 2987.806
503.0535, 2992.411
503.5356, 3025.294
504.0178, 3042.667
504.4999, 3039.099
504.9820, 3024.744
505.4641, 3013.711
505.9462, 3005.887
506.4283, 3002.193
506.9105, 3003.682
507.3926, 3009.381
507.8747, 3017.122
508.3568, 3027.218
508.8389, 3033.837
509.3210, 3030.882
509.8032, 3021.196
510.2853, 3011.604
510.7674, 3002.178
511.2495, 2996.216
511.7316, 2999.261
512.2137, 3008.181
512.6959, 3016.525
513.1780, 3024.361
513.6601, 3028.502
514.1422, 3023.209
514.6243, 3010.412
515.1064, 3003.132
515.5886, 3009.568
516.0707, 3020.944
516.5528, 3031.985
517.0349, 3041.561
517.5170, 3051.965
517.9991, 3069.287
518.4813, 3085.189
518.9634, 3088.358
519.4455, 3072.053
519.9276, 3054.039
520.4097, 3034.467
520.8918, 3015.511
521.3740, 3012.149
521.8561, 3028.931
522.3382, 3046.236
522.8203, 3051.713
523.3024, 3045.784
523.7845, 3033.360
524.2667, 3011.802
524.7488, 2994.714
525.2309, 3004.987
525.7130, 3034.814
526.1951, 3056.852
526.6772, 3060.246
527.1594, 3052.801
527.6415, 3038.123
528.1236, 3018.721
528.6057, 3005.347
529.0878, 3008.375
529.5699, 3017.164
530.0521, 3022.961
530.5342, 3023.018
531.0163, 3027.698
531.4984, 3045.296
531.9805, 3067.117
532.4626, 3083.989
532.9448, 3095.453
533.4269, 3100.745
533.9090, 3097.149
534.3911, 3087.032
534.8732, 3079.352
535.3553, 3073.380
535.8375, 3071.166
536.3196, 3074.788
536.8017, 3084.695
537.2838, 3092.405
537.7659, 3098.458
538.2480, 3100.741
538.7302, 3094.520
539.2123, 3081.250
539.6944, 3071.120
540.1765, 3065.940
540.6586, 3065.562
541.1407, 3073.877
541.6229, 3087.816
542.1050, 3096.512
542.5871, 3088.419
543.0692, 3076.219
543.5513, 3071.776
544.0334, 3075.706
544.5156, 3080.007
544.9977, 3077.936
545.4798, 3076.427
545.9619, 3081.454
546.4440, 3102.880
546.9261, 3117.858
547.4083, 3121.865
547.8904, 3117.671
548.3725, 3109.074
548.8546, 3085.941
549.3367, 3075.783
549.8188, 3092.124
550.3010, 3131.081
550.7831, 3143.222
551.2652, 3121.018
551.7473, 3097.076
552.2294, 3098.356
552.7115, 3121.720
553.1937, 3136.192
553.6758, 3139.109
554.1579, 3134.002
554.6400, 3119.567
555.1221, 3100.010
555.6042, 3087.717
556.0864, 3089.723
556.5685, 3098.039
557.0506, 3106.247
557.5327, 3114.549
558.0148, 3123.576
558.4969, 3140.150
558.9791, 3152.651
559.4612, 3150.136
559.9433, 3126.642
560.4254, 3113.784
560.9075, 3127.050
561.3896, 3148.010
561.8718, 3160.626
562.3539, 3161.975
562.8360, 3159.719
563.3181, 3153.586
563.8002, 3144.609
564.2823, 3133.596
564.7645, 3118.970
565.2466, 3110.042
565.7287, 3112.979
566.2108, 3124.861
566.6929, 3130.997
567.1750, 3131.145
567.6572, 3129.918
568.1393, 3131.327
568.6214, 3134.099
569.1035, 3135.044
569.5856, 3132.898
570.0677, 3132.102
570.5499, 3139.847
571.0320, 3150.658
571.5141, 3155.940
571.9962, 3144.037
572.4783, 3134.476
572.9604, 3137.330
573.4426, 3150.188
573.9247, 3160.236
574.4068, 3162.747
574.8889, 3164.454
575.3710, 3168.459
575.8531, 3175.948
576.3353, 3179.327
576.8174, 3178.105
577.2995, 3173.455
577.7816, 3163.483
578.2637, 3146.799
578.7458, 3142.131
579.2280, 3155.561
579.7101, 3175.967
580.1922, 3184.088
580.6743, 3181.311
581.1564, 3175.468
581.6385, 3164.306
582.1207, 3155.257
582.6028, 3163.053
583.0849, 3185.108
583.5670, 3201.714
584.0491, 3195.367
584.5313, 3182.657
585.0134, 3177.164
585.4955, 3183.941
585.9776, 3188.093
586.4597, 3178.436
586.9418, 3167.378
587.4240, 3169.735
587.9061, 3200.735
588.3882, 3221.998
588.8703, 3228.870
589.3524, 3223.542
589.8345, 3209.438
590.3167, 3182.603
590.7988, 3162.350
591.2809, 3160.567
591.7630, 3172.917
592.2451, 3175.152
592.7272, 3166.741
593.2094, 3161.155
593.6915, 3175.455
594.1736, 3199.367
594.6557, 3211.587
595.1378, 3205.815
595.6199, 3199.605
596.1021, 3211.661
596.5842, 3230.065
597.0663, 3237.850
597.5485, 3213.330
598.0306, 3194.117
598.5127, 3199.325
598.9948, 3221.707
599.4769, 3229.085
599.9590, 3206.206
600.4412, 3184.316
600.9233, 3172.841
601.4054, 3171.976
601.8875, 3179.468
602.3696, 3199.702
602.8517, 3217.372
603.3339, 3216.216
603.8160, 3197.923
604.2981, 3183.577
604.7802, 3175.209
605.2623, 3172.752
605.7444, 3179.568
606.2266, 3192.609
606.7087, 3203.214
607.1908, 3204.703
607.6729, 3206.392
608.1550, 3221.717
608.6371, 3244.479
609.1193, 3255.066
609.6014, 3226.922
610.0835, 3200.686
610.5656, 3201.451
611.0477, 3236.425
611.5298, 3251.652
612.0120, 3226.272
612.4941, 3199.719
612.9762, 3201.734
613.4583, 3245.516
613.9404, 3269.011
614.4225, 3265.839
614.9047, 3248.487
615.3868, 3229.861
615.8689, 3210.640
616.3510, 3203.042
616.8331, 3215.688
617.3152, 3235.085
617.7974, 3239.429
618.2795, 3232.013
618.7616, 3225.924
619.2437, 3228.079
619.7258, 3234.500
620.2079, 3245.871
620.6901, 3261.883
621.1722, 3269.056
621.6543, 3249.184
622.1364, 3228.408
622.6185, 3225.335
623.1006, 3253.490
623.5828, 3271.240
624.0649, 3276.144
624.5470, 3272.881
625.0291, 3265.170
625.5112, 3251.310
625.9933, 3242.883
626.4755, 3244.108
626.9576, 3249.108
627.4397, 3242.532
627.9218, 3226.469
628.4039, 3216.867
628.8860, 3223.999
629.3682, 3240.893
629.8503, 3263.772
630.3324, 3290.686
630.8145, 3306.896
631.2966, 3288.906
631.7787, 3267.347
632.2609, 3240.047
632.7430, 3273.175
633.2251, 3292.395
633.7072, 3298.455
634.1893, 3251.940
634.6714, 3273.315
635.1536, 3267.483
635.6357, 3260.535
636.1178, 3291.465
636.5999, 3252.597
637.0820, 3282.926
637.5641, 3285.634
638.0463, 3300.983
638.5284, 3288.957
639.0105, 3285.386
639.4926, 3309.199
639.9747, 3317.850
640.4568, 3302.672
640.9390, 3318.825
641.4211, 3279.000
641.9032, 3288.297
642.3853, 3318.787
642.8674, 3304.985
643.3495, 3299.257
643.8317, 3306.936
644.3138, 3313.509
644.7959, 3320.207
645.2780, 3321.694
645.7601, 3315.748
646.2422, 3306.566
646.7244, 3298.652
647.2065, 3292.102
647.6886, 3286.115
648.1707, 3279.259
648.6528, 3274.816
649.1349, 3283.620
649.6171, 3303.225
650.0992, 3316.670
650.5813, 3312.014
651.0634, 3299.377
651.5455, 3286.905
652.0276, 3275.869
652.5098, 3273.766
652.9919, 3294.674
653.4740, 3317.908
653.9561, 3330.602
654.4382, 3330.251
654.9203, 3326.736
655.4025, 3313.538
655.8846, 3303.846
656.3667, 3308.504
656.8488, 3335.838
657.3309, 3351.476
657.8130, 3351.168
658.2952, 3344.709
658.7773, 3347.942
659.2594, 3359.568
659.7415, 3362.496
660.2236, 3348.218
660.7057, 3329.967
661.1879, 3326.876
661.6700, 3335.442
662.1521, 3346.019
662.6342, 3360.791
663.1163, 3370.146
663.5984, 3362.344
664.0806, 3340.347
664.5627, 3328.495
665.0448, 3341.804
665.5269, 3358.570
666.0090, 3370.576
666.4911, 3377.764
666.9733, 3380.339
667.4554, 3379.292
667.9375, 3371.665
668.4196, 3349.323
668.9017, 3313.152
669.3839, 3294.097
669.8660, 3296.281
670.3481, 3309.249
670.8302, 3325.394
671.3123, 3342.839
671.7944, 3358.289
672.2766, 3374.416
672.7587, 3381.966
673.2408, 3365.944
673.7229, 3338.099
674.2050, 3321.120
674.6871, 3328.142
675.1693, 3339.517
675.6514, 3354.096
676.1335, 3369.804
676.6156, 3374.732
677.0977, 3364.825
677.5798, 3353.202
678.0620, 3343.872
678.5441, 3337.256
679.0262, 3339.399
679.5083, 3350.683
679.9904, 3364.799
680.4725, 3383.248
680.9547, 3399.162
681.4368, 3396.770
681.9189, 3372.249
682.4010, 3348.930
682.8831, 3343.381
683.3652, 3346.705
683.8474, 3350.248
684.3295, 3352.719
684.8116, 3354.333
685.2937, 3353.172
685.7758, 3352.054
686.2579, 3355.223
686.7401, 3365.016
687.2222, 3372.644
687.7043, 3376.344
688.1864, 3377.103
688.6685, 3378.359
689.1506, 3379.798
689.6328, 3376.045
690.1149, 3356.021
690.5970, 3335.019
691.0791, 3343.077
691.5612, 3373.960
692.0433, 3395.695
692.5255, 3380.578
693.0076, 3359.673
693.4897, 3354.247
693.9718, 3367.601
694.4539, 3375.303
694.9360, 3369.686
695.4182, 3361.624
695.9003, 3356.128
696.3824, 3352.966
696.8645, 3354.960
697.3466, 3364.234
697.8287, 3373.093
698.3109, 3369.480
698.7930, 3356.838
699.2751, 3355.109
699.7572, 3370.118
700.2393, 3387.928
700.7214, 3394.818
701.2036, 3394.348
701.6857, 3392.339
702.1678, 3386.127
702.6499, 3384.255
703.1320, 3396.177
703.6141, 3414.656
704.0963, 3420.811
704.5784, 3401.269
705.0605, 3389.190
705.5426, 3395.895
706.0247, 3415.151
706.5068, 3416.478
706.9890, 3397.541
707.4711, 3380.399
707.9532, 3377.685
708.4353, 3384.906
708.9174, 3392.451
709.3995, 3400.072
709.8817, 3404.924
710.3638, 3399.311
710.8459, 3393.751
711.3280, 3400.016
711.8101, 3421.210
712.2922, 3436.971
712.7744, 3441.140
713.2565, 3438.164
713.7386, 3430.785
714.2207, 3415.883
714.7028, 3404.387
715.1849, 3395.948
715.6671, 3391.349
716.1492, 3393.111
716.6313, 3400.535
717.1134, 3403.913
717.5955, 3399.458
718.0776, 3397.365
718.5598, 3419.038
719.0419, 3450.993
719.5240, 3466.716
720.0061, 3445.035
720.4882, 3419.553
720.9703, 3403.568
721.4525, 3395.052
721.9346, 3389.324
722.4167, 3388.153
722.8988, 3386.093
723.3809, 3378.970
723.8630, 3370.518
724.3452, 3377.745
724.8273, 3402.549
725.3094, 3429.447
725.7915, 3456.638
726.2736, 3478.595
726.7557, 3473.615
727.2379, 3445.428
727.7200, 3423.439
728.2021, 3435.789
728.6842, 3455.938
729.1663, 3460.852
729.6484, 3448.116
730.1306, 3437.489
730.6127, 3435.950
731.0948, 3437.024
731.5769, 3437.663
732.0590, 3438.661
732.5411, 3435.573
733.0233, 3427.548
733.5054, 3417.347
733.9875, 3400.875
734.4696, 3381.538
734.9517, 3391.559
735.4338, 3439.614
735.9160, 3486.196
736.3981, 3483.893
736.8802, 3456.487
737.3623, 3439.212
737.8444, 3445.468
738.3266, 3455.208
738.8087, 3463.856
739.2908, 3470.434
739.7729, 3473.311
740.2551, 3471.279
740.7372, 3467.612
741.2193, 3461.094
741.7014, 3454.464
742.1835, 3455.569
742.6656, 3464.529
743.1478, 3468.427
743.6299, 3460.223
744.1120, 3448.392
744.5941, 3448.715
745.0762, 3457.083
745.5583, 3460.733
746.0405, 3439.174
746.5226, 3424.365
747.0047, 3445.841
747.4868, 3494.631
747.9689, 3516.569
748.4510, 3484.250
748.9332, 3451.177
749.4153, 3432.017
749.8974, 3426.381
750.3795, 3431.108
750.8616, 3447.748
751.3438, 3462.532
751.8259, 3464.803
752.3080, 3459.189
752.7901, 3456.086
753.2722, 3455.726
753.7543, 3457.016
754.2365, 3461.444
754.7186, 3465.692
755.2007, 3467.340
755.6828, 3466.158
756.1649, 3462.042
756.6470, 3449.209
757.1292, 3438.489
757.6113, 3437.608
758.0934, 3449.988
758.5755, 3455.890
759.0576, 3453.673
759.5397, 3450.628
760.0219, 3457.619
760.5040, 3470.208
760.9861, 3471.237
761.4682, 3455.254
761.9503, 3443.132
762.4324, 3460.423
762.9146, 3487.044
763.3967, 3498.557
763.8788, 3474.304
764.3609, 3458.828
764.8430, 3467.386
765.3251, 3483.813
765.8073, 3490.883
766.2894, 3488.013
766.7715, 3476.665
767.2536, 3453.948
767.7357, 3428.708
768.2178, 3413.996
768.7000, 3409.342
769.1821, 3413.429
769.6642, 3428.610
770.1463, 3447.751
770.6284, 3470.197
771.1105, 3491.453
771.5927, 3502.831
772.0748, 3496.778
772.5569, 3485.812
773.0390, 3467.352
773.5211, 3447.166
774.0032, 3442.312
774.4854, 3458.023
774.9675, 3469.173
775.4496, 3466.850
775.9317, 3456.396
776.4138, 3449.449
776.8959, 3446.067
777.3781, 3446.221
777.8602, 3452.237
778.3423, 3459.925
778.8244, 3467.052
779.3065, 3473.154
779.7886, 3476.527
780.2708, 3475.154
780.7529, 3472.397
781.2350, 3468.619
781.7171, 3464.152
782.1992, 3462.495
782.6813, 3464.302
783.1635, 3466.382
783.6456, 3467.250
784.1277, 3467.118
784.6098, 3462.531
785.0919, 3454.985
785.5740, 3458.589
786.0562, 3500.069
786.5383, 3543.854
787.0204, 3557.081
787.5025, 3538.052
787.9846, 3518.625
788.4667, 3504.178
788.9489, 3493.223
789.4310, 3485.551
789.9131, 3481.372
790.3952, 3477.898
790.8773, 3475.376
791.3594, 3472.549
791.8416, 3465.002
792.3237, 3456.909
792.8058, 3462.520
793.2879, 3482.294
793.7700, 3499.835
794.2521, 3501.904
794.7343, 3498.216
795.2164, 3496.329
795.6985, 3497.539
796.1806, 3498.946
796.6627, 3499.855
797.1448, 3501.239
797.6270, 3505.746
798.1091, 3515.236
798.5912, 3509.218
799.0733, 3484.329
799.5554, 3461.108
800.0375, 3464.507
800.5197, 3482.531
801.0018, 3491.062
801.4839, 3485.555
801.9660, 3481.330
802.4481, 3489.281
802.9302, 3501.581
803.4124, 3512.287
803.8945, 3523.098
804.3766, 3525.243
804.8587, 3512.953
805.3408, 3499.614
805.8229, 3499.368
806.3051, 3512.100
806.7872, 3519.752
807.2693, 3520.730
807.7514, 3516.964
808.2335, 3506.724
808.7156, 3494.360
809.1978, 3487.273
809.6799, 3489.039
810.1620, 3489.219
810.6441, 3476.961
811.1262, 3464.828
811.6083, 3465.912
812.0905, 3488.660
812.5726, 3505.602
813.0547, 3515.674
813.5368, 3520.638
814.0189, 3523.329
814.5010, 3523.008
814.9832, 3512.361
815.4653, 3487.362
815.9474, 3466.263
816.4295, 3468.897
816.9116, 3483.947
817.3937, 3497.747
817.8759, 3507.399
818.3580, 3514.652
818.8401, 3523.066
819.3222, 3526.927
819.8043, 3517.048
820.2864, 3486.651
820.7686, 3476.157
821.2507, 3493.135
821.7328, 3518.751
822.2149, 3530.588
822.6970, 3531.533
823.1791, 3527.296
823.6613, 3516.489
824.1434, 3509.740
824.6255, 3520.594
825.1076, 3536.478
825.5897, 3543.243
826.0718, 3528.071
826.5540, 3518.308
827.0361, 3514.294
827.5182, 3515.260
828.0003, 3523.028
828.4824, 3537.382
828.9645, 3543.307
829.4467, 3536.945
829.9288, 3528.510
830.4109, 3530.911
830.8930, 3538.529
831.3751, 3542.187
831.8572, 3536.624
832.3394, 3533.541
832.8215, 3545.255
833.3036, 3556.799
833.7857, 3548.881
834.2678, 3505.670
834.7499, 3492.756
835.2321, 3522.215
835.7142, 3563.930
836.1963, 3581.755
836.6784, 3580.035
837.1605, 3572.334
837.6426, 3559.705
838.1248, 3548.708
838.6069, 3543.754
839.0890, 3543.562
839.5711, 3547.166
840.0532, 3558.068
840.5353, 3566.297
841.0175, 3574.101
841.4996, 3576.232
841.9817, 3562.295
842.4638, 3530.911
842.9459, 3519.806
843.4280, 3535.517
843.9102, 3556.116
844.3923, 3557.556
844.8744, 3547.722
845.3565, 3538.544
845.8386, 3531.774
846.3207, 3527.982
846.8029, 3530.610
847.2850, 3534.269
847.7671, 3533.412
848.2492, 3522.720
848.7313, 3522.846
849.2134, 3536.610
849.6956, 3554.007
850.1777, 3568.672
850.6598, 3578.952
851.1419, 3575.745
851.6240, 3556.428
852.1061, 3539.600
852.5883, 3543.433
853.0704, 3553.745
853.5525, 3557.007
854.0346, 3547.794
854.5167, 3541.645
854.9988, 3536.995
855.4810, 3538.613
855.9631, 3554.023
856.4452, 3583.676
856.9273, 3596.961
857.4094, 3592.070
857.8915, 3585.422
858.3737, 3597.541
858.8558, 3613.316
859.3379, 3609.760
859.8200, 3582.611
860.3021, 3561.670
860.7842, 3558.597
861.2664, 3565.472
861.7485, 3581.083
862.2306, 3608.101
862.7127, 3614.347
863.1948, 3595.160
863.6769, 3575.943
864.1591, 3578.776
864.6412, 3594.014
865.1233, 3596.578
865.6054, 3586.847
866.0875, 3580.394
866.5696, 3593.232
867.0518, 3606.683
867.5339, 3608.506
868.0160, 3597.183
868.4981, 3584.450
868.9802, 3567.426
869.4623, 3555.079
869.9445, 3552.191
870.4266, 3557.495
870.9087, 3566.793
871.3908, 3579.778
871.8729, 3591.912
872.3550, 3598.224
872.8372, 3604.476
873.3193, 3619.499
873.8014, 3640.492
874.2835, 3650.715
874.7656, 3636.966
875.2477, 3622.890
875.7299, 3613.664
876.2120, 3608.686
876.6941, 3604.036
877.1762, 3599.719
877.6583, 3603.127
878.1404, 3625.515
878.6226, 3648.900
879.1047, 3646.210
879.5869, 3625.219
880.0690, 3605.900
880.5511, 3592.862
881.0332, 3586.045
881.5153, 3588.794
881.9974, 3596.631
882.4796, 3600.671
882.9617, 3600.195
883.4438, 3600.512
883.9259, 3604.089
884.4080, 3606.529
884.8901, 3596.074
885.3723, 3579.320
885.8544, 3572.215
886.3365, 3586.253
886.8186, 3601.240
887.3007, 3612.401
887.7828, 3617.341
888.2650, 3611.438
888.7471, 3586.401
889.2292, 3573.507
889.7113, 3576.675
890.1934, 3589.505
890.6755, 3611.017
891.1577, 3635.453
891.6398, 3642.650
892.1219, 3625.626
892.6040, 3607.664
893.0861, 3604.390
893.5682, 3608.270
894.0504, 3612.843
894.5325, 3618.671
895.0146, 3620.769
895.4967, 3616.558
895.9788, 3613.371
896.4609, 3620.600
896.9431, 3635.430
897.4252, 3637.712
897.9073, 3626.230
898.3894, 3615.826
898.8715, 3618.869
899.3536, 3626.926
899.8358, 3633.383
900.3179, 3637.440
900.8000, 3640.986
901.2821, 3646.245
901.7642, 3648.011
902.2463, 3641.889
902.7285, 3629.719
903.2106, 3626.086
903.6927, 3630.686
904.1748, 3634.904
904.6569, 3626.877
905.1390, 3620.862
905.6212, 3637.429
906.1033, 3670.321
906.5854, 3692.492
907.0675, 3690.250
907.5496, 3682.979
908.0317, 3674.427
908.5139, 3664.458
908.9960, 3648.900
909.4781, 3627.774
909.9602, 3620.187
910.4423, 3641.034
910.9244, 3665.389
911.4066, 3655.823
911.8887, 3629.216
912.3708, 3616.558
912.8529, 3646.809
913.3350, 3668.313
913.8171, 3668.758
914.2993, 3658.416
914.7814, 3648.298
915.2635, 3637.854
915.7456, 3635.941
916.2277, 3644.882
916.7098, 3657.931
917.1920, 3672.084
917.6741, 3683.328
918.1562, 3683.616
918.6383, 3666.950
919.1204, 3655.309
919.6025, 3661.535
920.0847, 3669.987
920.5668, 3669.772
921.0489, 3659.229
921.5310, 3650.870
922.0131, 3644.424
922.4952, 3642.477
922.9774, 3648.237
923.4595, 3659.328
923.9416, 3675.644
924.4237, 3696.143
924.9058, 3708.843
925.3879, 3701.822
925.8701, 3693.253
926.3522, 3690.613
926.8343, 3693.276
927.3164, 3698.199
927.7985, 3706.517
928.2806, 3706.431
928.7628, 3686.081
929.2449, 3660.365
929.7270, 3654.659
930.2091, 3662.909
930.6912, 3668.553
931.1733, 3660.049
931.6555, 3653.552
932.1376, 3655.034
932.6197, 3661.016
933.1018, 3667.411
933.5839, 3675.271
934.0660, 3673.681
934.5482, 3657.082
935.0303, 3641.664
935.5124, 3657.512
935.9945, 3686.613
936.4766, 3693.598
936.9587, 3656.365
937.4409, 3635.869
937.9230, 3670.919
938.4051, 3715.719
938.8872, 3734.588
939.3693, 3722.582
939.8514, 3713.265
940.3336, 3706.638
940.8157, 3704.048
941.2978, 3707.194
941.7799, 3714.820
942.2620, 3730.112
942.7441, 3751.818
943.2263, 3760.224
943.7084, 3731.431
944.1905, 3704.514
944.6726, 3695.934
945.1547, 3702.793
945.6368, 3707.791
946.1190, 3710.955
946.6011, 3712.433
947.0832, 3712.337
947.5653, 3710.548
948.0474, 3703.686
948.5295, 3695.190
949.0117, 3693.060
949.4938, 3703.905
949.9759, 3717.071
950.4580, 3735.475
950.9401, 3751.403
951.4222, 3749.487
951.9044, 3729.288
952.3865, 3718.523
952.8686, 3722.828
953.3507, 3731.443
953.8328, 3738.034
954.3149, 3739.672
954.7971, 3729.657
955.2792, 3700.664
955.7613, 3684.692
956.2434, 3695.151
956.7255, 3709.144
957.2076, 3711.182
957.6898, 3701.903
958.1719, 3708.000
958.6540, 3729.193
959.1361, 3743.339
959.6182, 3722.735
960.1003, 3698.009
960.5825, 3702.514
961.0646, 3731.031
961.5467, 3746.848
962.0288, 3733.459
962.5109, 3721.824
962.9930, 3719.746
963.4752, 3723.450
963.9573, 3722.247
964.4394, 3717.639
964.9215, 3720.362
965.4036, 3740.284
965.8857, 3755.746
966.3679, 3743.203
966.8500, 3718.362
967.3321, 3701.537
967.8142, 3695.586
968.2963, 3700.217
968.7784, 3721.619
969.2606, 3741.050
969.7427, 3731.853
970.2248, 3704.430
970.7069, 3701.246
971.1890, 3725.159
971.6711, 3743.652
972.1533, 3726.457
972.6354, 3703.964
973.1175, 3697.621
973.5996, 3707.882
974.0817, 3713.487
974.5638, 3711.420
975.0460, 3716.122
975.5281, 3738.801
976.0102, 3767.306
976.4923, 3772.910
976.9744, 3762.330
977.4565, 3755.302
977.9387, 3765.284
978.4208, 3774.600
978.9029, 3777.789
979.3850, 3776.366
979.8671, 3772.073
980.3492, 3764.782
980.8314, 3753.424
981.3135, 3735.843
981.7956, 3723.332
982.2777, 3735.868
982.7598, 3757.783
983.2419, 3764.507
983.7241, 3750.184
984.2062, 3740.052
984.6883, 3743.221
985.1704, 3751.125
985.6525, 3763.000
986.1346, 3777.480
986.6168, 3778.002
987.0989, 3764.950
987.5810, 3750.352
988.0631, 3736.830
988.5452, 3728.503
989.0273, 3733.880
989.5095, 3747.452
989.9916, 3754.837
990.4737, 3742.131
990.9558, 3742.298
991.4379, 3765.723
991.9200, 3794.153
992.4022, 3794.103
992.8843, 3773.062
993.3664, 3765.023
993.8485, 3778.132
994.3306, 3792.835
994.8127, 3798.544
995.2949, 3797.939
995.7770, 3789.663
996.2591, 3770.665
996.7412, 3771.919
997.2233, 3800.144
997.7054, 3824.068
998.1876, 3821.458
998.6697, 3802.510
999.1518, 3783.402
999.6339, 3766.872
1000.116, 3763.353
1000.598, 3796.434
1001.080, 3821.230
1001.562, 3814.123
1002.044, 3792.949
1002.527, 3791.134
1003.009, 3810.402
1003.491, 3825.026
1003.973, 3830.740
1004.455, 3828.296
1004.937, 3809.629
1005.419, 3787.479
1005.901, 3780.000
1006.384, 3795.187
1006.866, 3803.932
1007.348, 3797.737
1007.830, 3792.343
1008.312, 3797.560
1008.794, 3811.317
1009.276, 3825.859
1009.758, 3839.628
1010.240, 3840.576
1010.723, 3800.989
1011.205, 3766.766
1011.687, 3773.309
1012.169, 3807.306
1012.651, 3832.240
1013.133, 3849.965
1013.615, 3847.481
1014.097, 3816.209
1014.580, 3781.844
1015.062, 3786.533
1015.544, 3812.328
1016.026, 3823.405
1016.508, 3810.208
1016.990, 3799.668
1017.472, 3802.462
1017.954, 3811.661
1018.436, 3825.929
1018.919, 3844.475
1019.401, 3849.600
1019.883, 3841.268
1020.365, 3833.535
1020.847, 3839.177
1021.329, 3845.402
1021.811, 3833.249
1022.293, 3812.084
1022.776, 3805.104
1023.258, 3827.192
1023.740, 3847.319
1024.222, 3864.813
1024.704, 3875.480
1025.186, 3869.597
1025.668, 3851.842
1026.150, 3837.034
1026.632, 3826.893
1027.115, 3823.613
1027.597, 3838.670
1028.079, 3852.354
1028.561, 3847.105
1029.043, 3824.252
1029.525, 3819.376
1030.007, 3834.708
1030.489, 3850.351
1030.972, 3858.387
1031.454, 3860.313
1031.936, 3852.842
1032.418, 3841.660
1032.900, 3839.006
1033.382, 3866.583
1033.864, 3875.330
1034.346, 3846.880
1034.828, 3816.581
1035.311, 3834.500
1035.793, 3890.488
1036.275, 3911.524
1036.757, 3891.740
1037.239, 3870.680
1037.721, 3879.712
1038.203, 3894.663
1038.685, 3899.794
1039.167, 3894.934
1039.650, 3885.993
1040.132, 3871.398
1040.614, 3859.884
1041.096, 3854.802
1041.578, 3853.998
1042.060, 3854.715
1042.542, 3857.178
1043.024, 3862.232
1043.507, 3873.188
1043.989, 3880.753
1044.471, 3887.395
1044.953, 3885.757
1045.435, 3861.575
1045.917, 3818.578
1046.399, 3811.630
1046.881, 3840.193
1047.364, 3870.608
1047.846, 3884.786
1048.328, 3888.718
1048.810, 3881.014
1049.292, 3865.698
1049.774, 3859.061
1050.256, 3863.055
1050.738, 3870.136
1051.220, 3880.421
1051.703, 3888.837
1052.185, 3884.243
1052.667, 3873.831
1053.149, 3871.321
1053.631, 3882.344
1054.113, 3887.035
1054.595, 3875.575
1055.077, 3861.486
1055.559, 3849.190
1056.042, 3839.817
1056.524, 3842.152
1057.006, 3855.214
1057.488, 3870.990
1057.970, 3892.333
1058.452, 3907.549
1058.934, 3906.215
1059.416, 3894.560
1059.899, 3884.696
1060.381, 3877.201
1060.863, 3869.489
1061.345, 3860.129
1061.827, 3855.757
1062.309, 3868.763
1062.791, 3888.367
1063.273, 3898.535
1063.755, 3898.034
1064.238, 3894.283
1064.720, 3885.224
1065.202, 3878.693
1065.684, 3878.290
1066.166, 3881.085
1066.648, 3875.845
1067.130, 3865.605
1067.612, 3866.091
1068.094, 3890.183
1068.577, 3907.064
1069.059, 3885.456
1069.541, 3856.404
1070.023, 3850.657
1070.505, 3872.797
1070.987, 3896.457
1071.469, 3923.070
1071.951, 3940.279
1072.434, 3932.114
1072.916, 3915.503
1073.398, 3909.979
1073.880, 3913.253
1074.362, 3916.204
1074.844, 3918.192
1075.326, 3917.076
1075.808, 3910.858
1076.291, 3904.490
1076.773, 3907.489
1077.255, 3915.754
1077.737, 3915.359
1078.219, 3903.715
1078.701, 3896.817
1079.183, 3910.691
1079.665, 3923.358
1080.147, 3922.775
1080.630, 3911.511
1081.112, 3903.206
1081.594, 3897.967
1082.076, 3900.145
1082.558, 3915.820
1083.040, 3930.970
1083.522, 3928.188
1084.004, 3919.431
1084.486, 3922.228
1084.969, 3947.526
1085.451, 3957.454
1085.933, 3949.503
1086.415, 3935.377
1086.897, 3917.564
1087.379, 3902.764
1087.861, 3907.927
1088.343, 3928.086
1088.826, 3941.474
1089.308, 3941.063
1089.790, 3929.482
1090.272, 3898.151
1090.754, 3867.460
1091.236, 3877.911
1091.718, 3918.850
1092.200, 3937.700
1092.682, 3924.830
1093.165, 3915.201
1093.647, 3937.377
1094.129, 3963.744
1094.611, 3977.336
1095.093, 3979.489
1095.575, 3980.465
1096.057, 3980.386
1096.539, 3975.072
1097.022, 3959.297
1097.504, 3945.262
1097.986, 3950.682
1098.468, 3963.569
1098.950, 3967.025
1099.432, 3954.614
1099.914, 3942.682
1100.396, 3931.026
1100.879, 3921.175
1101.361, 3910.172
1101.843, 3903.699
1102.325, 3920.224
1102.807, 3952.410
1103.289, 3972.377
1103.771, 3959.875
1104.253, 3946.769
1104.735, 3935.848
1105.218, 3930.292
1105.700, 3939.439
1106.182, 3958.810
1106.664, 3964.075
1107.146, 3952.393
1107.628, 3943.041
1108.110, 3957.380
1108.592, 3967.395
1109.074, 3947.355
1109.557, 3910.335
1110.039, 3919.135
1110.521, 3974.690
1111.003, 4003.980
1111.485, 3977.249
1111.967, 3942.944
1112.449, 3948.942
1112.931, 3971.467
1113.414, 3986.383
1113.896, 3991.620
1114.378, 3980.490
1114.860, 3945.947
1115.342, 3926.630
1115.824, 3960.749
1116.306, 4009.311
1116.788, 4000.154
1117.271, 3957.875
1117.753, 3937.255
1118.235, 3980.007
1118.717, 4009.461
1119.199, 4020.386
1119.681, 4018.211
1120.163, 3998.943
1120.645, 3972.268
1121.127, 3974.843
1121.609, 4003.791
1122.092, 4018.025
1122.574, 3974.955
1123.056, 3940.757
1123.538, 3940.461
1124.020, 3958.915
1124.502, 3967.031
1124.984, 3965.995
1125.466, 3964.570
1125.949, 3963.674
1126.431, 3968.200
1126.913, 3993.106
1127.395, 4014.761
1127.877, 4011.296
1128.359, 3986.890
1128.841, 3976.038
1129.323, 3979.608
1129.806, 3980.001
1130.288, 3968.123
1130.770, 3956.320
1131.252, 3960.462
1131.734, 3970.674
1132.216, 3972.494
1132.698, 3958.491
1133.180, 3958.724
1133.662, 3975.452
1134.145, 3997.039
1134.627, 4021.247
1135.109, 4042.524
1135.591, 4052.144
1136.073, 4051.570
1136.555, 4044.261
1137.037, 4025.128
1137.519, 4006.472
1138.001, 3984.895
1138.484, 3972.724
1138.966, 3995.413
1139.448, 4034.317
1139.930, 4036.132
1140.412, 4003.148
1140.894, 3982.372
1141.376, 4006.571
1141.858, 4028.504
1142.341, 4035.566
1142.823, 4033.828
1143.305, 4034.308
1143.787, 4035.980
1144.269, 4034.091
1144.751, 4027.700
1145.233, 4019.414
1145.715, 4003.453
1146.198, 3993.800
1146.680, 4000.371
1147.162, 4018.739
1147.644, 4027.171
1148.126, 4026.478
1148.608, 4026.640
1149.090, 4029.430
1149.572, 4037.848
1150.054, 4067.582
1150.536, 4094.259
1151.019, 4089.413
1151.501, 4049.056
1151.983, 4039.083
1152.465, 4061.041
1152.947, 4073.437
1153.429, 4041.378
1153.911, 4003.837
1154.393, 3996.384
1154.876, 4009.936
1155.358, 4031.809
1155.840, 4070.161
1156.322, 4082.883
1156.804, 4064.732
1157.286, 4045.540
1157.768, 4055.672
1158.250, 4074.145
1158.733, 4072.126
1159.215, 4054.802
1159.697, 4044.557
1160.179, 4046.420
1160.661, 4052.711
1161.143, 4064.770
1161.625, 4074.786
1162.107, 4072.055
1162.589, 4062.008
1163.072, 4050.657
1163.554, 4039.278
1164.036, 4038.192
1164.518, 4058.223
1165.000, 4074.997
1165.482, 4083.196
1165.964, 4084.667
1166.446, 4079.839
1166.928, 4071.500
1167.411, 4066.613
1167.893, 4067.298
1168.375, 4064.921
1168.857, 4047.191
1169.339, 4038.458
1169.821, 4051.391
1170.303, 4077.510
1170.785, 4097.193
1171.268, 4109.045
1171.750, 4107.052
1172.232, 4081.823
1172.714, 4062.154
1173.196, 4061.114
1173.678, 4068.522
1174.160, 4081.480
1174.642, 4098.243
1175.125, 4105.221
1175.607, 4103.812
1176.089, 4101.256
1176.571, 4097.808
1177.053, 4098.206
1177.535, 4114.153
1178.017, 4127.429
1178.499, 4114.781
1178.981, 4076.728
1179.464, 4074.792
1179.946, 4106.805
1180.428, 4128.387
1180.910, 4094.771
1181.392, 4061.676
1181.874, 4061.759
1182.356, 4079.835
1182.838, 4093.382
1183.320, 4102.364
1183.803, 4113.698
1184.285, 4128.289
1184.767, 4132.139
1185.249, 4094.157
1185.731, 4061.491
1186.213, 4077.260
1186.695, 4123.242
1187.177, 4145.193
1187.660, 4141.013
1188.142, 4147.527
1188.624, 4172.396
1189.106, 4194.137
1189.588, 4197.215
1190.070, 4186.463
1190.552, 4157.638
1191.034, 4115.892
1191.516, 4092.793
1191.999, 4089.264
1192.481, 4097.108
1192.963, 4116.545
1193.445, 4137.678
1193.927, 4153.885
1194.409, 4164.574
1194.891, 4167.550
1195.373, 4162.703
1195.855, 4157.987
1196.338, 4152.730
1196.820, 4153.997
1197.302, 4167.952
1197.784, 4182.379
1198.266, 4182.924
1198.748, 4176.487
1199.230, 4172.412
1199.712, 4173.380
1200.195, 4163.604
1200.677, 4140.607
1201.159, 4124.601
1201.641, 4131.424
1202.123, 4144.493
1202.605, 4143.599
1203.087, 4136.344
1203.569, 4136.250
1204.052, 4150.736
1204.534, 4152.278
1205.016, 4138.595
1205.498, 4125.711
1205.980, 4123.594
1206.462, 4129.041
1206.944, 4143.457
1207.426, 4161.705
1207.908, 4170.849
1208.391, 4165.553
1208.873, 4165.019
1209.355, 4170.989
1209.837, 4176.576
1210.319, 4175.366
1210.801, 4171.010
1211.283, 4163.956
1211.765, 4157.163
1212.247, 4162.318
1212.730, 4187.400
1213.212, 4198.252
1213.694, 4188.555
1214.176, 4177.704
1214.658, 4189.209
1215.140, 4206.507
1215.622, 4211.615
1216.104, 4204.575
1216.587, 4191.612
1217.069, 4169.124
1217.551, 4156.222
1218.033, 4156.977
1218.515, 4163.757
1218.997, 4168.674
1219.479, 4174.510
1219.961, 4188.855
1220.443, 4210.074
1220.926, 4211.784
1221.408, 4185.688
1221.890, 4171.139
1222.372, 4179.148
1222.854, 4195.051
1223.336, 4206.679
1223.818, 4212.943
1224.300, 4208.821
1224.782, 4193.535
1225.265, 4194.574
1225.747, 4217.307
1226.229, 4229.406
1226.711, 4217.372
1227.193, 4200.687
1227.675, 4205.914
1228.157, 4218.237
1228.639, 4216.372
1229.122, 4195.621
1229.604, 4199.958
1230.086, 4234.688
1230.568, 4257.861
1231.050, 4247.278
1231.532, 4231.021
1232.014, 4249.560
1232.496, 4276.749
1232.979, 4274.917
1233.461, 4236.077
1233.943, 4224.864
1234.425, 4243.933
1234.907, 4265.317
1235.389, 4278.328
1235.871, 4284.053
1236.353, 4282.567
1236.835, 4275.293
1237.318, 4261.505
1237.800, 4238.644
1238.282, 4236.003
1238.764, 4255.093
1239.246, 4263.097
1239.728, 4227.726
1240.210, 4191.685
1240.692, 4191.217
1241.175, 4212.611
1241.657, 4239.578
1242.139, 4275.512
1242.621, 4288.586
1243.103, 4278.742
1243.585, 4262.725
1244.067, 4242.336
1244.549, 4228.341
1245.031, 4232.437
1245.514, 4245.123
1245.996, 4252.354
1246.478, 4253.529
1246.960, 4256.051
1247.442, 4260.268
1247.924, 4271.455
1248.406, 4309.409
1248.888, 4336.937
1249.370, 4323.979
1249.853, 4293.544
1250.335, 4274.199
1250.817, 4265.865
1251.299, 4260.599
1251.781, 4258.136
1252.263, 4259.163
1252.745, 4263.271
1253.227, 4272.127
1253.710, 4289.797
1254.192, 4309.942
1254.674, 4328.000
1255.156, 4342.428
1255.638, 4336.206
1256.120, 4310.758
1256.602, 4293.787
1257.084, 4311.699
1257.567, 4326.222
1258.049, 4322.733
1258.531, 4312.924
1259.013, 4311.494
1259.495, 4317.585
1259.977, 4333.503
1260.459, 4357.266
1260.941, 4367.312
1261.423, 4334.411
1261.906, 4313.908
1262.388, 4322.792
1262.870, 4341.202
1263.352, 4338.302
1263.834, 4323.446
1264.316, 4321.040
1264.798, 4331.634
1265.280, 4332.538
1265.762, 4303.181
1266.245, 4286.580
1266.727, 4292.023
1267.209, 4308.896
1267.691, 4329.474
1268.173, 4348.260
1268.655, 4352.566
1269.137, 4342.726
1269.619, 4342.812
1270.102, 4360.185
1270.584, 4374.678
1271.066, 4382.866
1271.548, 4384.109
1272.030, 4367.286
1272.512, 4349.781
1272.994, 4358.622
1273.476, 4392.834
1273.958, 4405.114
1274.441, 4388.659
1274.923, 4378.405
1275.405, 4383.142
1275.887, 4390.843
1276.369, 4387.841
1276.851, 4382.632
1277.333, 4383.329
1277.815, 4389.574
1278.297, 4398.862
1278.780, 4411.824
1279.262, 4410.312
1279.744, 4387.627
1280.226, 4365.843
1280.708, 4359.828
1281.190, 4364.522
1281.672, 4380.816
1282.154, 4403.535
1282.637, 4413.083
1283.119, 4411.151
1283.601, 4414.759
1284.083, 4428.850
1284.565, 4439.279
1285.047, 4439.873
1285.529, 4430.499
1286.011, 4406.509
1286.494, 4377.267
1286.976, 4369.598
1287.458, 4379.998
1287.940, 4402.292
1288.422, 4438.751
1288.904, 4456.364
1289.386, 4419.247
1289.868, 4393.976
1290.350, 4406.857
1290.833, 4437.241
1291.315, 4449.031
1291.797, 4445.732
1292.279, 4429.646
1292.761, 4397.994
1293.243, 4384.580
1293.725, 4399.588
1294.207, 4412.839
1294.689, 4413.005
1295.172, 4410.375
1295.654, 4425.616
1296.136, 4444.164
1296.618, 4443.012
1297.100, 4416.518
1297.582, 4406.539
1298.064, 4414.702
1298.546, 4430.325
1299.029, 4453.599
1299.511, 4471.827
1299.993, 4467.649
1300.475, 4454.723
1300.957, 4444.419
1301.439, 4437.520
1301.921, 4434.859
1302.403, 4436.500
1302.885, 4446.419
1303.368, 4469.891
1303.850, 4483.588
1304.332, 4459.861
1304.814, 4432.067
##END=



