##NAMES=Stichtite
##RRUFFID=R050475
##IDEAL CHEMISTRY=Mg_6_Cr^3+^_2_CO_3_(OH)_16_&#183;4H_2_O
##LOCALITY=near Dundas, Tasmania, Australia
##OWNER=RRUFF
##SOURCE=California Institute of Technology
##DESCRIPTION=Aggregate of purple contorted plates
##STATUS=The identification of this mineral has been confirmed by X-ray diffraction and chemical analysis
##URL=rruff.info/R050475
##MEASURED CHEMISTRY=Mg_6.00_(Cr_0.97_Fe^3+^_0.75_Al_0.28_)_Σ=2_(CO_3_)(OH)_16_·4H_2_O ; (dark phase) C not measured but estimated by difference; light inclusion: chromite (Mg_0.53_Fe^2+^_0.47_)_Σ=1_(Cr^3+^_1.62_Al_0.33_Fe^3+^_0.05_)_Σ=2_O_4_
90.52570, 0.0000000E+00
91.00781, 19.96627
91.48993, 20.57490
91.97205, 20.81888
92.45416, 20.39242
92.93628, 19.61512
93.41840, 19.21027
93.90051, 19.36057
94.38263, 19.80541
94.86475, 20.17372
95.34686, 20.46567
95.82898, 20.69942
96.31110, 20.82791
96.79321, 20.86991
97.27533, 21.02996
97.75745, 21.37407
98.23956, 21.86526
98.72168, 22.33471
99.20380, 22.76265
99.68591, 23.21586
100.1680, 23.73524
100.6501, 24.29236
101.1323, 25.03617
101.6144, 26.03831
102.0965, 27.31896
102.5786, 28.60100
103.0607, 29.86527
103.5428, 31.15717
104.0250, 32.54754
104.5071, 33.89764
104.9892, 35.56173
105.4713, 37.70755
105.9534, 40.61340
106.4355, 43.37892
106.9177, 45.94426
107.3998, 48.36581
107.8819, 50.91533
108.3640, 53.69326
108.8461, 56.48902
109.3282, 59.24315
109.8104, 61.70390
110.2925, 64.34733
110.7746, 67.28307
111.2567, 70.45317
111.7388, 73.52818
112.2209, 76.27734
112.7031, 78.99085
113.1852, 81.90183
113.6673, 85.00620
114.1494, 88.32882
114.6315, 91.84849
115.1136, 95.59163
115.5958, 99.66521
116.0779, 104.2632
116.5600, 109.1652
117.0421, 114.1029
117.5242, 119.1438
118.0063, 124.1341
118.4885, 128.9911
118.9706, 133.6581
119.4527, 138.4582
119.9348, 143.6541
120.4169, 149.0820
120.8990, 154.5280
121.3812, 160.0178
121.8633, 165.3820
122.3454, 170.4853
122.8275, 175.4831
123.3096, 179.8725
123.7917, 182.8644
124.2739, 184.7499
124.7560, 186.5981
125.2381, 189.1105
125.7202, 192.0486
126.2023, 194.8935
126.6844, 197.3019
127.1666, 199.9004
127.6487, 203.6639
128.1308, 208.5698
128.6129, 213.8941
129.0950, 219.5992
129.5771, 225.4109
130.0593, 230.3455
130.5414, 233.9301
131.0235, 236.4843
131.5056, 238.2790
131.9877, 238.3623
132.4698, 237.4623
132.9520, 237.4228
133.4341, 238.2238
133.9162, 239.8572
134.3983, 242.5223
134.8804, 246.0748
135.3625, 249.7537
135.8447, 253.7953
136.3268, 257.4610
136.8089, 259.5499
137.2910, 259.8364
137.7731, 260.0479
138.2552, 261.1107
138.7374, 263.2589
139.2195, 264.2212
139.7016, 263.8030
140.1837, 262.4248
140.6658, 260.8239
141.1479, 258.7385
141.6301, 256.9655
142.1122, 255.8824
142.5943, 255.6646
143.0764, 255.6365
143.5585, 255.9330
144.0406, 256.3824
144.5228, 256.3332
145.0049, 255.3680
145.4870, 254.4258
145.9691, 254.0919
146.4512, 255.1703
146.9333, 255.5245
147.4155, 254.6959
147.8976, 252.8482
148.3797, 251.5758
148.8618, 251.2087
149.3439, 251.1627
149.8260, 251.0587
150.3082, 250.6699
150.7903, 250.4701
151.2724, 250.6031
151.7545, 251.0783
152.2366, 251.3483
152.7188, 251.1687
153.2009, 250.8794
153.6830, 250.7542
154.1651, 251.7030
154.6472, 251.9490
155.1293, 250.8065
155.6115, 248.0657
156.0936, 245.6105
156.5757, 243.8011
157.0578, 242.4124
157.5399, 241.2265
158.0220, 240.5464
158.5042, 239.7619
158.9863, 238.4752
159.4684, 236.4449
159.9505, 234.9718
160.4326, 235.0061
160.9147, 235.7660
161.3969, 236.0861
161.8790, 235.1961
162.3611, 234.0342
162.8432, 233.1239
163.3253, 232.6459
163.8074, 232.0972
164.2896, 231.1983
164.7717, 230.0623
165.2538, 228.9175
165.7359, 227.7082
166.2180, 226.6102
166.7001, 225.7723
167.1823, 225.2915
167.6644, 224.9224
168.1465, 224.6204
168.6286, 224.3284
169.1107, 223.8889
169.5928, 223.0768
170.0750, 222.1331
170.5571, 221.2818
171.0392, 220.5618
171.5213, 219.9858
172.0034, 219.6516
172.4855, 219.5099
172.9677, 219.3452
173.4498, 218.9988
173.9319, 218.5498
174.4140, 218.0920
174.8961, 217.5657
175.3782, 217.1377
175.8604, 217.0805
176.3425, 217.3489
176.8246, 217.5685
177.3067, 217.4044
177.7888, 216.9917
178.2709, 216.6161
178.7531, 216.4217
179.2352, 216.2549
179.7173, 215.8052
180.1994, 215.0838
180.6815, 214.4310
181.1636, 214.1931
181.6458, 214.2754
182.1279, 214.4020
182.6100, 214.4454
183.0921, 214.4921
183.5742, 214.7637
184.0563, 215.2642
184.5385, 215.8083
185.0206, 216.2727
185.5027, 216.6421
185.9848, 216.8167
186.4669, 216.6573
186.9490, 216.2878
187.4312, 216.1269
187.9133, 216.2102
188.3954, 216.2740
188.8775, 215.9087
189.3596, 215.1704
189.8417, 214.5809
190.3239, 214.3761
190.8060, 214.4976
191.2881, 214.7125
191.7702, 215.0532
192.2523, 215.3615
192.7344, 215.4292
193.2166, 215.2577
193.6987, 214.9921
194.1808, 214.6588
194.6629, 214.2672
195.1450, 213.9026
195.6271, 213.5720
196.1093, 213.2508
196.5914, 212.8810
197.0735, 212.4532
197.5556, 212.0777
198.0377, 211.7739
198.5198, 211.5371
199.0020, 211.4836
199.4841, 211.6457
199.9662, 211.9284
200.4483, 212.1961
200.9304, 212.4485
201.4125, 212.6802
201.8947, 212.9569
202.3768, 213.3073
202.8589, 213.2949
203.3410, 212.8188
203.8231, 212.1098
204.3052, 211.5775
204.7874, 211.2263
205.2695, 211.0220
205.7516, 210.9697
206.2337, 211.0857
206.7158, 211.2553
207.1979, 211.4953
207.6801, 211.7733
208.1622, 212.0377
208.6443, 212.3152
209.1264, 212.5053
209.6085, 212.5117
210.0906, 212.2545
210.5728, 212.2029
211.0549, 212.4467
211.5370, 212.8403
212.0191, 213.0750
212.5012, 213.1750
212.9833, 213.0686
213.4655, 212.6040
213.9476, 211.5395
214.4297, 211.0406
214.9118, 211.2945
215.3939, 212.0426
215.8760, 212.6742
216.3581, 213.1772
216.8403, 213.5765
217.3224, 213.8561
217.8045, 213.9626
218.2866, 214.1294
218.7687, 214.4350
219.2508, 214.7688
219.7330, 214.7449
220.2151, 214.0389
220.6972, 213.5601
221.1793, 213.8824
221.6614, 215.5594
222.1435, 216.4850
222.6257, 216.3140
223.1078, 215.4646
223.5899, 215.1232
224.0720, 215.5595
224.5541, 216.0759
225.0362, 216.3388
225.5184, 216.1885
226.0005, 216.2049
226.4826, 216.5269
226.9647, 216.9949
227.4468, 217.1280
227.9289, 216.6996
228.4111, 216.2935
228.8932, 216.2088
229.3753, 216.6541
229.8574, 216.9290
230.3395, 216.9660
230.8216, 216.8405
231.3038, 216.7391
231.7859, 216.5986
232.2680, 216.5741
232.7501, 216.7693
233.2322, 217.3688
233.7143, 217.7445
234.1965, 217.7332
234.6786, 217.5283
235.1607, 217.7082
235.6428, 218.5521
236.1249, 219.3672
236.6070, 219.8263
237.0892, 219.7209
237.5713, 219.7126
238.0534, 219.8363
238.5355, 220.0448
239.0176, 220.2184
239.4997, 220.3411
239.9819, 220.4539
240.4640, 220.5944
240.9461, 220.8606
241.4282, 220.8963
241.9103, 220.4873
242.3924, 219.9174
242.8746, 219.9350
243.3567, 221.0178
243.8388, 221.9650
244.3209, 222.2105
244.8030, 221.2996
245.2851, 220.9315
245.7673, 221.3703
246.2494, 222.2475
246.7315, 222.7588
247.2136, 222.7334
247.6957, 222.6170
248.1778, 222.5956
248.6600, 222.7583
249.1421, 222.7249
249.6242, 222.3475
250.1063, 221.8512
250.5884, 221.6628
251.0705, 221.8069
251.5527, 222.2220
252.0348, 222.9925
252.5169, 224.3736
252.9990, 225.1601
253.4811, 225.0999
253.9632, 224.6139
254.4454, 224.4579
254.9275, 224.7914
255.4096, 225.1441
255.8917, 225.3509
256.3738, 225.3665
256.8560, 225.4356
257.3381, 225.5557
257.8202, 225.7324
258.3023, 225.9948
258.7844, 226.3981
259.2665, 226.7652
259.7487, 227.0518
260.2308, 227.2580
260.7129, 227.3395
261.1950, 227.1846
261.6771, 227.0244
262.1592, 227.2163
262.6414, 227.9126
263.1235, 228.5747
263.6056, 229.0709
264.0877, 229.4067
264.5698, 229.4923
265.0519, 229.1370
265.5341, 228.7915
266.0162, 229.0610
266.4983, 230.1708
266.9804, 231.2040
267.4625, 231.9664
267.9446, 232.4539
268.4268, 232.7054
268.9089, 232.6150
269.3910, 232.4672
269.8731, 232.6067
270.3552, 233.1422
270.8373, 233.5140
271.3195, 233.5723
271.8016, 233.3425
272.2837, 233.0910
272.7658, 232.7897
273.2479, 232.5200
273.7300, 232.2874
274.2122, 232.0432
274.6943, 232.1732
275.1764, 232.8925
275.6585, 234.0492
276.1406, 234.8197
276.6227, 235.1428
277.1049, 235.2909
277.5870, 235.4371
278.0691, 235.5739
278.5512, 235.8184
279.0333, 236.2211
279.5154, 236.7288
279.9976, 237.1326
280.4797, 237.4020
280.9618, 237.7281
281.4439, 238.2838
281.9260, 239.0684
282.4081, 239.8564
282.8903, 240.6522
283.3724, 241.3957
283.8545, 241.9946
284.3366, 242.4620
284.8187, 242.6430
285.3008, 242.1780
285.7830, 241.1579
286.2651, 240.7751
286.7472, 241.2662
287.2293, 242.1766
287.7114, 242.6358
288.1935, 242.6475
288.6757, 242.7400
289.1578, 243.4174
289.6399, 244.5015
290.1220, 244.9464
290.6041, 244.5666
291.0862, 243.9660
291.5684, 244.1085
292.0505, 244.9126
292.5326, 245.6039
293.0147, 245.7050
293.4968, 245.4009
293.9789, 245.2817
294.4611, 245.3938
294.9432, 245.5160
295.4253, 245.2682
295.9074, 244.7638
296.3895, 244.4911
296.8716, 244.8034
297.3538, 245.4526
297.8359, 245.9574
298.3180, 246.3206
298.8001, 246.5886
299.2822, 246.8455
299.7643, 247.0499
300.2465, 247.0805
300.7286, 246.7416
301.2107, 246.3101
301.6928, 246.2175
302.1749, 246.4439
302.6570, 246.6660
303.1392, 246.5096
303.6213, 246.1920
304.1034, 246.1136
304.5855, 246.5667
305.0676, 247.0942
305.5497, 247.1819
306.0319, 246.9028
306.5140, 246.6414
306.9961, 246.6325
307.4782, 246.7886
307.9603, 246.9892
308.4424, 247.1430
308.9246, 247.4492
309.4067, 248.3806
309.8888, 249.6429
310.3709, 250.4126
310.8530, 249.6706
311.3351, 248.5470
311.8173, 248.0447
312.2994, 248.4664
312.7815, 249.0522
313.2636, 249.3933
313.7457, 249.5798
314.2278, 249.7738
314.7100, 250.1000
315.1921, 250.4166
315.6742, 250.6174
316.1563, 250.6706
316.6384, 250.7558
317.1205, 251.0457
317.6027, 251.3859
318.0848, 251.5778
318.5669, 251.4441
319.0490, 251.2526
319.5311, 251.1397
320.0132, 251.1177
320.4954, 250.9671
320.9775, 250.3255
321.4596, 249.6711
321.9417, 249.4208
322.4238, 250.1037
322.9059, 250.7341
323.3881, 251.1427
323.8702, 251.3211
324.3523, 251.2765
324.8344, 250.6933
325.3165, 250.0976
325.7986, 249.7961
326.2808, 250.2004
326.7629, 250.4473
327.2450, 250.2999
327.7271, 249.9081
328.2092, 249.8637
328.6913, 250.5536
329.1735, 251.2549
329.6556, 251.7068
330.1377, 251.9086
330.6198, 251.8395
331.1019, 251.2252
331.5840, 250.4188
332.0662, 250.1007
332.5483, 250.5697
333.0304, 251.0963
333.5125, 251.4617
333.9946, 251.6581
334.4767, 251.7527
334.9589, 251.7761
335.4410, 251.6656
335.9231, 251.2702
336.4052, 250.3972
336.8873, 249.7686
337.3694, 249.6293
337.8515, 249.9487
338.3336, 250.1145
338.8158, 250.0084
339.2979, 250.0116
339.7800, 250.6125
340.2621, 251.9460
340.7442, 252.9392
341.2263, 253.3983
341.7085, 253.3871
342.1906, 252.9727
342.6727, 252.0861
343.1548, 251.2095
343.6369, 250.5238
344.1190, 250.0537
344.6012, 250.2316
345.0833, 251.2464
345.5654, 252.6449
346.0475, 253.7298
346.5296, 254.4979
347.0117, 254.9756
347.4939, 255.0386
347.9760, 254.8045
348.4581, 254.6149
348.9402, 254.4726
349.4223, 254.4438
349.9044, 254.7011
350.3866, 255.1572
350.8687, 255.5142
351.3508, 255.5839
351.8329, 255.5154
352.3150, 255.5270
352.7971, 255.6184
353.2793, 255.7538
353.7614, 256.0243
354.2435, 256.2990
354.7256, 256.3529
355.2077, 256.0051
355.6898, 255.5593
356.1720, 255.2383
356.6541, 255.0342
357.1362, 254.9118
357.6183, 254.7583
358.1004, 254.7224
358.5826, 254.9869
359.0647, 255.7120
359.5468, 256.4116
360.0289, 256.8427
360.5110, 257.0633
360.9931, 257.1837
361.4753, 257.0563
361.9574, 256.9901
362.4395, 257.2711
362.9216, 258.0359
363.4037, 258.4182
363.8858, 257.7958
364.3680, 256.8070
364.8501, 256.1214
365.3322, 256.0636
365.8143, 256.1476
366.2964, 256.3164
366.7785, 256.5661
367.2607, 256.7666
367.7428, 256.9183
368.2249, 257.0163
368.7070, 257.0543
369.1891, 256.8898
369.6712, 256.8592
370.1534, 257.0560
370.6355, 257.3927
371.1176, 257.5860
371.5997, 257.4595
372.0818, 257.4051
372.5639, 257.6010
373.0461, 258.1532
373.5282, 258.5877
374.0103, 258.8658
374.4924, 259.0617
374.9745, 259.3119
375.4566, 259.6802
375.9388, 259.9075
376.4209, 259.9161
376.9030, 259.7134
377.3851, 259.3151
377.8672, 258.6180
378.3493, 258.0538
378.8315, 258.1870
379.3136, 259.0403
379.7957, 259.6091
380.2778, 259.6192
380.7599, 259.3362
381.2420, 259.3737
381.7242, 259.7300
382.2063, 260.2791
382.6884, 261.2406
383.1705, 262.3648
383.6526, 262.6325
384.1347, 261.8084
384.6169, 260.6635
385.0990, 260.0169
385.5811, 259.8280
386.0632, 260.0127
386.5453, 260.8286
387.0274, 261.8579
387.5096, 262.5819
387.9917, 262.9911
388.4738, 263.1417
388.9559, 262.8742
389.4380, 262.4324
389.9201, 262.1328
390.4023, 262.0822
390.8844, 262.2071
391.3665, 262.6320
391.8486, 263.2450
392.3307, 263.6137
392.8128, 263.2625
393.2950, 262.7699
393.7771, 262.5731
394.2592, 262.9196
394.7413, 263.0714
395.2234, 262.4276
395.7055, 261.5074
396.1877, 261.1150
396.6698, 262.0515
397.1519, 262.9437
397.6340, 263.2830
398.1161, 262.9631
398.5982, 262.9169
399.0804, 263.6398
399.5625, 264.4007
400.0446, 264.6639
400.5267, 264.0485
401.0088, 263.4926
401.4909, 262.9831
401.9731, 262.5893
402.4552, 262.6503
402.9373, 263.4474
403.4194, 264.2446
403.9015, 264.6894
404.3836, 264.7109
404.8658, 264.6089
405.3479, 264.2677
405.8300, 263.9543
406.3121, 264.1057
406.7942, 264.7714
407.2763, 265.5454
407.7585, 266.4144
408.2406, 267.2940
408.7227, 267.5893
409.2048, 267.2318
409.6869, 266.8296
410.1690, 266.9319
410.6512, 267.4640
411.1333, 268.1162
411.6154, 268.9221
412.0975, 269.6575
412.5796, 269.9478
413.0617, 269.8509
413.5439, 269.6621
414.0260, 269.3167
414.5081, 269.0724
414.9902, 269.4820
415.4723, 270.6633
415.9544, 271.6742
416.4366, 271.5845
416.9187, 270.8618
417.4008, 270.2076
417.8829, 269.5488
418.3650, 269.3183
418.8471, 270.0070
419.3293, 271.4596
419.8114, 272.7910
420.2935, 273.7856
420.7756, 274.4170
421.2577, 274.5881
421.7398, 273.9690
422.2220, 273.5249
422.7041, 273.5646
423.1862, 273.8968
423.6683, 274.1742
424.1504, 274.2481
424.6325, 274.3761
425.1147, 274.7164
425.5968, 275.3407
426.0789, 275.5475
426.5610, 274.9409
427.0431, 274.2768
427.5252, 274.2083
428.0074, 275.0318
428.4895, 275.7519
428.9716, 276.2117
429.4537, 276.5020
429.9358, 276.9559
430.4179, 277.6601
430.9001, 278.2108
431.3822, 278.3508
431.8643, 278.0737
432.3464, 277.7295
432.8285, 277.2368
433.3106, 276.9462
433.7928, 277.4969
434.2749, 278.7768
434.7570, 279.8466
435.2391, 280.4160
435.7212, 280.6009
436.2033, 280.5181
436.6855, 280.1948
437.1676, 279.8854
437.6497, 279.7018
438.1318, 279.6717
438.6139, 279.8557
439.0960, 280.2899
439.5782, 280.8429
440.0603, 281.5428
440.5424, 282.2755
441.0245, 282.8188
441.5066, 282.7661
441.9887, 282.7587
442.4709, 283.3077
442.9530, 284.3955
443.4351, 285.2622
443.9172, 285.5241
444.3993, 285.5011
444.8814, 285.4086
445.3636, 285.0581
445.8457, 284.9390
446.3278, 285.2522
446.8099, 285.8430
447.2920, 286.3320
447.7741, 286.4921
448.2563, 286.8075
448.7384, 287.5415
449.2205, 288.8318
449.7026, 289.4554
450.1847, 288.9720
450.6668, 288.3745
451.1490, 288.6701
451.6311, 290.1484
452.1132, 291.4167
452.5953, 292.2632
453.0774, 292.7928
453.5595, 293.2915
454.0417, 293.7540
454.5238, 294.2467
455.0059, 294.9410
455.4880, 295.7344
455.9701, 295.9923
456.4522, 295.6103
456.9344, 295.2457
457.4165, 295.8219
457.8986, 297.0071
458.3807, 297.8354
458.8628, 297.8050
459.3449, 297.5099
459.8271, 297.6278
460.3092, 298.0837
460.7913, 298.5546
461.2734, 299.1310
461.7555, 299.4728
462.2376, 299.1954
462.7198, 298.1223
463.2019, 297.0288
463.6840, 296.2993
464.1661, 295.7478
464.6482, 295.1496
465.1303, 294.4087
465.6125, 293.6467
466.0946, 292.8731
466.5767, 292.0878
467.0588, 291.3577
467.5409, 290.8966
468.0230, 290.3072
468.5052, 289.3575
468.9873, 287.7218
469.4694, 286.5796
469.9515, 286.1938
470.4336, 286.0815
470.9157, 285.4883
471.3979, 284.2176
471.8800, 283.1656
472.3621, 282.5843
472.8442, 282.4039
473.3263, 282.3354
473.8084, 282.4069
474.2906, 282.3698
474.7727, 282.0197
475.2548, 281.3956
475.7369, 280.6312
476.2190, 279.6801
476.7011, 278.8099
477.1833, 278.3297
477.6654, 278.1812
478.1475, 278.2078
478.6296, 278.4922
479.1117, 278.8184
479.5938, 279.0103
480.0760, 279.0639
480.5581, 278.9507
481.0402, 278.3903
481.5223, 277.8160
482.0044, 277.6087
482.4865, 277.9579
482.9687, 278.3546
483.4508, 278.7097
483.9329, 278.9902
484.4150, 279.1450
484.8971, 279.1811
485.3792, 279.0753
485.8614, 278.5959
486.3435, 277.8031
486.8256, 277.7157
487.3077, 279.0816
487.7898, 280.2731
488.2719, 280.2139
488.7541, 278.1499
489.2362, 277.4091
489.7183, 278.5267
490.2004, 280.2850
490.6825, 280.7055
491.1646, 279.6249
491.6468, 278.8834
492.1289, 279.1546
492.6110, 280.0714
493.0931, 280.6298
493.5752, 280.8319
494.0573, 280.8098
494.5395, 280.4308
495.0216, 279.9344
495.5037, 279.8877
495.9858, 280.4240
496.4679, 281.0322
496.9500, 281.1749
497.4322, 281.0846
497.9143, 281.1437
498.3964, 281.6577
498.8785, 282.2276
499.3606, 282.5645
499.8427, 282.7419
500.3249, 283.0755
500.8070, 283.8242
501.2891, 284.6457
501.7712, 285.3904
502.2533, 286.1004
502.7354, 286.5637
503.2176, 286.4316
503.6997, 286.2135
504.1818, 286.4211
504.6639, 287.1531
505.1460, 288.1485
505.6281, 289.5250
506.1103, 291.1147
506.5924, 292.1813
507.0745, 292.6154
507.5566, 292.8993
508.0387, 293.2055
508.5208, 293.5406
509.0030, 294.0226
509.4851, 294.6298
509.9672, 295.5068
510.4493, 297.0882
510.9314, 299.1173
511.4135, 300.6465
511.8957, 301.1687
512.3778, 301.5496
512.8599, 302.9058
513.3420, 304.9736
513.8242, 306.9663
514.3063, 308.3781
514.7884, 309.6615
515.2705, 311.2408
515.7526, 313.1419
516.2347, 314.8153
516.7169, 315.5869
517.1990, 316.3060
517.6811, 317.6258
518.1632, 320.1260
518.6453, 322.5763
519.1274, 324.7455
519.6096, 326.8129
520.0917, 329.0917
520.5738, 331.7408
521.0559, 334.3021
521.5380, 336.5489
522.0201, 338.5246
522.5023, 341.1445
522.9844, 344.7225
523.4665, 348.0875
523.9486, 350.1516
524.4307, 351.0081
524.9128, 352.4601
525.3950, 354.7381
525.8771, 357.2640
526.3592, 359.2966
526.8413, 360.9113
527.3234, 362.4563
527.8055, 364.0066
528.2877, 365.5659
528.7698, 367.3052
529.2519, 369.1126
529.7340, 370.5864
530.2161, 371.4411
530.6982, 371.9106
531.1804, 372.0553
531.6625, 371.7879
532.1446, 371.7860
532.6267, 372.7470
533.1088, 373.8502
533.5909, 374.3247
534.0731, 373.6717
534.5552, 372.8924
535.0373, 372.0900
535.5194, 371.2174
536.0015, 370.1104
536.4836, 368.7886
536.9658, 367.1996
537.4479, 365.2736
537.9300, 363.0323
538.4121, 360.9117
538.8942, 359.0082
539.3763, 356.8385
539.8585, 353.9065
540.3406, 350.3109
540.8227, 346.5814
541.3048, 342.6922
541.7869, 338.8818
542.2690, 335.4853
542.7512, 332.3885
543.2333, 329.3064
543.7154, 326.0761
544.1975, 322.8515
544.6796, 319.7080
545.1617, 316.6461
545.6439, 313.7939
546.1260, 311.3109
546.6081, 308.9734
547.0902, 306.5837
547.5723, 304.0412
548.0544, 301.9007
548.5366, 300.5229
549.0187, 299.4054
549.5008, 298.0915
549.9829, 296.3709
550.4650, 294.8448
550.9471, 293.6077
551.4293, 292.5742
551.9114, 291.5105
552.3935, 290.3986
552.8756, 289.3535
553.3577, 288.4585
553.8398, 287.6666
554.3220, 286.6368
554.8041, 285.3487
555.2862, 284.3419
555.7683, 284.4272
556.2504, 285.0135
556.7325, 284.7892
557.2147, 283.4545
557.6968, 282.0129
558.1789, 281.2846
558.6610, 280.9942
559.1431, 280.7424
559.6252, 280.3832
560.1074, 280.0344
560.5895, 279.6226
561.0716, 279.2341
561.5537, 279.1646
562.0358, 280.2069
562.5179, 280.8582
563.0001, 280.3860
563.4822, 278.6315
563.9643, 277.5489
564.4464, 277.4420
564.9285, 277.5820
565.4106, 277.3445
565.8928, 276.6021
566.3749, 276.4133
566.8570, 277.0040
567.3391, 277.8505
567.8212, 278.2316
568.3033, 278.1693
568.7855, 277.7428
569.2676, 276.6344
569.7497, 275.5240
570.2318, 275.6118
570.7139, 276.6633
571.1960, 277.6615
571.6782, 278.2404
572.1603, 278.3535
572.6424, 277.7342
573.1245, 276.2976
573.6066, 275.1736
574.0887, 274.9826
574.5709, 275.1568
575.0530, 275.2500
575.5351, 275.1859
576.0172, 275.0635
576.4993, 274.7702
576.9814, 274.4774
577.4636, 274.5268
577.9457, 275.1486
578.4278, 275.4649
578.9099, 275.0852
579.3920, 274.2992
579.8741, 274.4020
580.3563, 275.4738
580.8384, 276.3329
581.3205, 275.9000
581.8026, 274.7249
582.2847, 274.5717
582.7668, 275.5072
583.2490, 276.4594
583.7311, 276.4411
584.2131, 275.9360
584.6953, 275.5318
585.1774, 275.3066
585.6595, 275.3468
586.1416, 275.9943
586.6237, 276.8635
587.1058, 277.3802
587.5880, 277.1129
588.0701, 276.8073
588.5522, 276.5314
589.0343, 276.3277
589.5164, 276.4655
589.9985, 277.3301
590.4807, 277.8726
590.9628, 277.4855
591.4449, 276.1371
591.9270, 275.5221
592.4091, 275.7572
592.8912, 276.2139
593.3734, 276.3741
593.8555, 276.2754
594.3376, 276.0327
594.8197, 275.5984
595.3018, 275.2913
595.7839, 275.7531
596.2661, 276.5686
596.7482, 276.9327
597.2303, 276.1984
597.7124, 275.2792
598.1945, 274.5633
598.6766, 274.0763
599.1588, 273.9011
599.6409, 274.5213
600.1230, 275.0339
600.6051, 274.9856
601.0872, 274.3245
601.5693, 273.9665
602.0515, 274.0581
602.5336, 274.2529
603.0157, 274.2851
603.4978, 274.0690
603.9799, 274.2753
604.4620, 275.0344
604.9442, 275.8926
605.4263, 276.1912
605.9084, 276.0342
606.3905, 276.0280
606.8726, 276.3774
607.3547, 276.8199
607.8369, 277.0658
608.3190, 277.1484
608.8011, 277.1593
609.2832, 276.9347
609.7653, 276.8271
610.2474, 277.3027
610.7296, 278.2345
611.2117, 278.6070
611.6938, 277.4522
612.1759, 276.2506
612.6580, 275.7993
613.1401, 276.3343
613.6223, 276.5647
614.1044, 276.3411
614.5865, 276.0122
615.0686, 275.8647
615.5507, 275.9084
616.0328, 276.1278
616.5150, 276.6229
616.9971, 277.0581
617.4792, 276.7709
617.9613, 275.9283
618.4434, 275.2895
618.9255, 275.1352
619.4077, 275.2810
619.8898, 275.6393
620.3719, 276.1434
620.8540, 276.5843
621.3361, 276.8998
621.8182, 277.0835
622.3004, 277.1168
622.7825, 277.0002
623.2646, 276.7960
623.7467, 276.2962
624.2288, 275.8936
624.7109, 275.7886
625.1931, 276.0492
625.6752, 276.3941
626.1573, 276.9075
626.6394, 277.3593
627.1215, 277.4391
627.6036, 277.1375
628.0858, 276.9721
628.5679, 277.0395
629.0500, 277.2201
629.5321, 277.2270
630.0142, 277.1800
630.4963, 277.4841
630.9785, 278.8311
631.4606, 280.0760
631.9427, 279.9195
632.4248, 278.7853
632.9069, 278.0196
633.3890, 278.6724
633.8712, 279.3844
634.3533, 279.4536
634.8354, 278.7851
635.3175, 278.4439
635.7996, 278.4027
636.2817, 278.7586
636.7639, 279.8223
637.2460, 281.9928
637.7281, 282.5617
638.2102, 281.1159
638.6923, 279.2378
639.1744, 278.6631
639.6566, 279.2249
640.1387, 280.0061
640.6208, 280.9368
641.1029, 281.6910
641.5850, 281.6443
642.0671, 281.1581
642.5493, 280.9551
643.0314, 281.8149
643.5135, 282.5736
643.9956, 282.5342
644.4777, 281.9044
644.9598, 281.3327
645.4420, 280.7463
645.9241, 280.4937
646.4062, 280.8747
646.8883, 281.8402
647.3704, 282.1608
647.8525, 281.5746
648.3347, 280.9143
648.8168, 280.6782
649.2989, 280.8494
649.7810, 281.0445
650.2631, 281.2611
650.7452, 281.4839
651.2274, 281.6035
651.7095, 281.7271
652.1916, 282.1335
652.6737, 282.9378
653.1558, 283.7357
653.6379, 284.3529
654.1201, 284.7461
654.6022, 284.8647
655.0843, 284.4745
655.5664, 284.0597
656.0485, 283.6584
656.5306, 283.3177
657.0128, 283.1372
657.4949, 283.1974
657.9770, 283.2618
658.4591, 283.2491
658.9412, 283.2004
659.4233, 283.3677
659.9055, 283.7850
660.3876, 284.0566
660.8697, 283.7400
661.3518, 283.1644
661.8339, 283.2634
662.3160, 283.9987
662.7982, 284.6932
663.2803, 284.7103
663.7624, 284.5477
664.2445, 284.6993
664.7266, 285.2710
665.2087, 285.8960
665.6909, 286.7040
666.1730, 287.3647
666.6551, 287.5710
667.1372, 286.9287
667.6193, 286.5265
668.1014, 286.4386
668.5836, 286.5186
669.0657, 286.5936
669.5478, 286.6651
670.0299, 286.7002
670.5120, 286.7062
670.9941, 286.6489
671.4763, 286.3115
671.9584, 285.8189
672.4405, 285.6458
672.9226, 286.4269
673.4047, 287.2719
673.8868, 287.2786
674.3690, 286.6641
674.8511, 286.1995
675.3332, 286.0078
675.8153, 286.1904
676.2974, 287.1344
676.7795, 288.8876
677.2617, 289.4667
677.7438, 288.2001
678.2259, 286.7803
678.7080, 285.9941
679.1901, 285.8522
679.6722, 286.3242
680.1544, 287.5200
680.6365, 288.7148
681.1186, 289.2525
681.6007, 289.2727
682.0828, 289.1031
682.5649, 288.7674
683.0471, 288.3803
683.5292, 287.8897
684.0113, 287.4664
684.4934, 287.3537
684.9755, 287.9862
685.4576, 288.3558
685.9398, 287.9877
686.4219, 287.2686
686.9040, 286.8276
687.3861, 286.6963
687.8682, 286.8155
688.3503, 287.2971
688.8325, 287.9394
689.3146, 288.1927
689.7967, 288.0558
690.2788, 287.8297
690.7609, 287.6259
691.2430, 287.4211
691.7252, 287.1686
692.2073, 286.8709
692.6894, 286.5480
693.1715, 285.9956
693.6536, 285.5882
694.1357, 285.6685
694.6179, 286.2280
695.1000, 286.7619
695.5821, 287.3185
696.0642, 287.6512
696.5463, 287.5956
697.0284, 287.0704
697.5106, 286.7250
697.9927, 286.6565
698.4748, 286.5462
698.9569, 285.9179
699.4390, 284.9044
699.9211, 284.7994
700.4033, 285.8041
700.8854, 286.8799
701.3675, 286.9206
701.8496, 286.3618
702.3317, 285.8647
702.8138, 285.5793
703.2960, 285.4015
703.7781, 285.2622
704.2602, 285.2051
704.7423, 285.2836
705.2244, 285.4994
705.7065, 285.8715
706.1887, 286.5464
706.6708, 287.2820
707.1529, 287.6062
707.6350, 287.4373
708.1171, 287.3178
708.5992, 287.3846
709.0814, 287.5811
709.5635, 287.9335
710.0456, 288.3623
710.5277, 288.4868
711.0098, 287.7900
711.4919, 286.9716
711.9741, 286.6225
712.4562, 286.6810
712.9383, 286.8664
713.4204, 287.4720
713.9025, 287.8156
714.3846, 287.3335
714.8668, 286.0963
715.3489, 285.6758
715.8310, 286.4497
716.3131, 287.2798
716.7952, 287.5644
717.2773, 287.3436
717.7595, 287.2098
718.2416, 287.1652
718.7237, 287.1803
719.2058, 287.2440
719.6879, 287.3461
720.1700, 287.5117
720.6522, 287.7539
721.1343, 287.8741
721.6164, 287.6571
722.0985, 287.3342
722.5806, 287.0631
723.0627, 286.7739
723.5449, 286.7897
724.0270, 287.3694
724.5091, 288.0196
724.9912, 288.2725
725.4733, 288.0689
725.9554, 287.8143
726.4376, 287.5359
726.9197, 287.2379
727.4018, 286.8343
727.8839, 286.4112
728.3660, 286.2631
728.8481, 286.5339
729.3303, 286.9337
729.8124, 287.3457
730.2945, 287.6871
730.7766, 287.8273
731.2587, 287.4754
731.7408, 287.2143
732.2230, 287.2238
732.7051, 287.3942
733.1872, 287.5458
733.6693, 287.6996
734.1514, 287.7567
734.6335, 287.6488
735.1157, 287.4731
735.5978, 287.5376
736.0799, 287.8063
736.5620, 287.9640
737.0441, 287.7836
737.5262, 287.4846
738.0084, 287.2888
738.4905, 287.1833
738.9726, 287.1219
739.4547, 287.1813
739.9368, 287.1861
740.4189, 286.9891
740.9011, 286.6090
741.3832, 286.4005
741.8653, 286.2981
742.3474, 286.4980
742.8295, 287.0088
743.3116, 288.1546
743.7938, 288.8224
744.2759, 289.0378
744.7580, 287.4462
745.2401, 288.1880
745.7222, 287.9947
746.2043, 287.7631
746.6865, 288.8334
747.1686, 287.5046
747.6507, 288.5542
748.1328, 288.6544
748.6149, 289.1891
749.0970, 288.7830
749.5792, 288.6674
750.0613, 289.4931
750.5434, 289.7976
751.0255, 287.8781
751.5076, 287.5701
751.9897, 288.5641
752.4719, 287.1589
752.9540, 288.1322
753.4361, 288.1561
753.9182, 288.6145
754.4003, 288.1320
754.8824, 287.6704
755.3646, 287.4622
755.8467, 287.2442
756.3288, 287.0282
756.8109, 286.8465
757.2930, 286.8033
757.7751, 286.5549
758.2573, 285.7675
758.7394, 285.0699
759.2215, 285.1879
759.7036, 286.2979
760.1857, 286.9503
760.6678, 286.9404
761.1500, 286.6906
761.6321, 286.6293
762.1142, 286.7509
762.5963, 287.1374
763.0784, 288.0049
763.5605, 288.5634
764.0427, 287.8259
764.5248, 286.6156
765.0069, 285.9649
765.4890, 286.6430
765.9711, 287.1906
766.4532, 287.5009
766.9354, 287.6384
767.4175, 287.6821
767.8996, 287.6234
768.3817, 287.5366
768.8638, 287.4287
769.3459, 287.3195
769.8281, 287.1876
770.3102, 287.0783
770.7923, 287.1729
771.2744, 287.8732
771.7565, 288.2582
772.2386, 287.1532
772.7208, 285.4129
773.2029, 284.5262
773.6850, 285.8139
774.1671, 286.7397
774.6492, 286.7577
775.1313, 286.2981
775.6135, 286.3233
776.0956, 286.9160
776.5777, 287.3482
777.0598, 287.3233
777.5419, 287.1906
778.0240, 287.7645
778.5062, 288.7899
778.9883, 289.4714
779.4704, 289.2274
779.9525, 288.7506
780.4346, 288.2728
780.9167, 287.8882
781.3989, 287.8168
781.8810, 288.5215
782.3631, 289.0327
782.8452, 289.1120
783.3273, 288.9067
783.8094, 288.8265
784.2916, 288.8755
784.7737, 289.0633
785.2558, 289.5611
785.7379, 290.0223
786.2200, 289.6310
786.7021, 288.6112
787.1843, 287.7413
787.6664, 287.4266
788.1485, 287.3191
788.6306, 287.2703
789.1127, 287.2790
789.5948, 287.3549
790.0770, 287.4360
790.5591, 287.6867
791.0412, 288.2392
791.5233, 288.9544
792.0054, 289.3413
792.4875, 289.3904
792.9697, 289.2775
793.4518, 289.0063
793.9339, 288.6761
794.4160, 288.3796
794.8981, 288.1505
795.3802, 288.1038
795.8624, 288.3924
796.3445, 288.7771
796.8266, 289.3346
797.3087, 289.9381
797.7908, 289.9780
798.2729, 289.0352
798.7551, 288.3385
799.2372, 288.3327
799.7193, 288.7975
800.2014, 288.8136
800.6835, 288.4315
801.1656, 288.3501
801.6478, 289.3990
802.1299, 290.5727
802.6120, 290.3367
803.0941, 289.1779
803.5762, 288.6547
804.0583, 290.5210
804.5405, 291.9798
805.0226, 291.4807
805.5047, 289.6194
805.9868, 288.7715
806.4689, 289.2602
806.9510, 289.7750
807.4332, 289.8579
807.9153, 289.6690
808.3974, 289.6185
808.8795, 289.7007
809.3616, 289.8809
809.8438, 290.3986
810.3259, 290.7919
810.8080, 290.5746
811.2901, 289.9085
811.7722, 289.3182
812.2543, 288.8741
812.7365, 288.6144
813.2186, 288.5786
813.7007, 288.7238
814.1828, 288.9023
814.6649, 289.1129
815.1470, 289.3667
815.6292, 289.7378
816.1113, 290.0677
816.5934, 289.9357
817.0755, 289.4818
817.5576, 289.1786
818.0397, 289.3483
818.5219, 289.6324
819.0040, 290.1014
819.4861, 290.5638
819.9682, 290.3325
820.4503, 288.6396
820.9324, 287.5871
821.4146, 287.7559
821.8967, 288.7470
822.3788, 289.8035
822.8609, 290.8768
823.3430, 291.2686
823.8251, 290.4175
824.3073, 289.1762
824.7894, 288.4295
825.2715, 288.0853
825.7536, 287.9083
826.2357, 288.0642
826.7178, 288.0910
827.2000, 287.5742
827.6821, 286.9146
828.1642, 286.9452
828.6463, 287.9196
829.1284, 288.6833
829.6105, 288.9907
830.0927, 289.0088
830.5748, 288.9523
831.0569, 288.8600
831.5390, 288.8748
832.0211, 289.1381
832.5032, 289.3686
832.9854, 289.3231
833.4675, 289.1272
833.9496, 288.9719
834.4317, 288.8744
834.9138, 288.8521
835.3959, 288.9257
835.8781, 289.0556
836.3602, 289.1195
836.8423, 289.1175
837.3244, 289.4923
837.8065, 290.4516
838.2886, 291.3814
838.7708, 291.4626
839.2529, 291.0491
839.7350, 290.7252
840.2171, 290.7048
840.6992, 290.6738
841.1813, 290.3932
841.6635, 290.1304
842.1456, 290.1871
842.6277, 290.7100
843.1098, 291.1313
843.5919, 291.4619
844.0740, 291.5833
844.5562, 291.0975
845.0383, 290.2933
845.5204, 290.1220
846.0025, 290.8105
846.4846, 291.5657
846.9667, 292.1498
847.4489, 292.3340
847.9310, 291.7466
848.4131, 289.6955
848.8952, 288.7144
849.3773, 289.3490
849.8594, 290.3537
850.3416, 290.8482
850.8237, 290.8394
851.3058, 290.5173
851.7879, 289.8529
852.2700, 289.3668
852.7521, 289.7266
853.2343, 290.3676
853.7164, 290.5858
854.1985, 290.2927
854.6806, 290.0439
855.1627, 289.9217
855.6448, 290.0015
856.1270, 290.4243
856.6091, 291.2072
857.0912, 291.3640
857.5733, 290.7606
858.0554, 290.2622
858.5375, 290.6979
859.0197, 291.5419
859.5018, 291.4927
859.9839, 290.6867
860.4660, 290.0143
860.9481, 289.8815
861.4302, 290.0928
861.9124, 290.8505
862.3945, 292.0151
862.8766, 292.2974
863.3587, 291.2849
863.8408, 290.3508
864.3229, 290.0117
864.8051, 290.0605
865.2872, 289.7713
865.7693, 289.2469
866.2514, 289.1095
866.7335, 290.2797
867.2156, 291.3502
867.6978, 290.7840
868.1799, 289.3135
868.6620, 288.6065
869.1441, 289.9044
869.6262, 290.8868
870.1083, 291.2326
870.5905, 291.1203
871.0726, 290.7399
871.5547, 290.1042
872.0368, 289.9787
872.5189, 290.7148
873.0010, 291.5773
873.4832, 291.7505
873.9653, 291.4654
874.4474, 291.0859
874.9295, 290.5984
875.4116, 290.2237
875.8937, 289.9664
876.3759, 289.8746
876.8580, 290.0785
877.3401, 290.6839
877.8222, 290.9301
878.3043, 290.7090
878.7864, 290.3660
879.2686, 290.1531
879.7507, 290.1133
880.2328, 290.4308
880.7149, 291.1852
881.1970, 291.7467
881.6791, 291.7403
882.1613, 291.4803
882.6434, 291.1229
883.1255, 290.6320
883.6076, 290.4985
884.0897, 290.8953
884.5718, 291.1038
885.0540, 290.4157
885.5361, 289.1736
886.0182, 288.4456
886.5003, 288.2099
886.9824, 288.2738
887.4645, 288.6542
887.9467, 289.1734
888.4288, 289.9151
888.9109, 290.7816
889.3930, 290.9306
889.8751, 289.3250
890.3572, 290.4424
890.8394, 291.0819
891.3215, 291.2690
891.8036, 289.6491
892.2857, 290.3626
892.7678, 290.1410
893.2499, 289.8810
893.7321, 290.9229
894.2142, 289.5658
894.6963, 290.5871
895.1784, 290.6590
895.6605, 291.1654
896.1426, 290.7309
896.6248, 290.0804
897.1069, 290.0580
897.5890, 289.9765
898.0711, 289.8305
898.5532, 289.5008
899.0353, 288.8839
899.5175, 288.4614
899.9996, 288.8829
900.4817, 289.6582
900.9638, 290.2079
901.4459, 290.3732
901.9280, 290.4756
902.4102, 290.5143
902.8923, 290.5489
903.3744, 290.6178
903.8565, 290.7206
904.3386, 290.8576
904.8207, 291.0294
905.3029, 291.1577
905.7850, 291.1324
906.2671, 291.0612
906.7492, 291.1119
907.2313, 291.2729
907.7134, 291.2797
908.1956, 290.8737
908.6777, 290.5005
909.1598, 290.2982
909.6419, 290.2484
910.1240, 290.2671
910.6061, 290.3556
911.0883, 290.5000
911.5704, 290.7137
912.0525, 290.9572
912.5346, 291.3293
913.0167, 291.6797
913.4988, 291.6836
913.9810, 290.7443
914.4631, 290.0589
914.9452, 289.9300
915.4273, 290.1315
915.9094, 290.3780
916.3915, 290.6691
916.8737, 290.9951
917.3558, 291.3682
917.8379, 291.7085
918.3200, 291.8941
918.8021, 291.9995
919.2842, 292.1538
919.7664, 292.4116
920.2485, 292.5617
920.7306, 292.4464
921.2127, 292.2775
921.6948, 292.1908
922.1769, 292.1947
922.6591, 292.0696
923.1412, 291.7909
923.6233, 291.6121
924.1054, 291.7432
924.5875, 292.0617
925.0696, 292.5576
925.5518, 293.1407
926.0339, 293.3614
926.5160, 292.6017
926.9981, 291.9435
927.4802, 291.8115
927.9623, 292.0293
928.4445, 292.0424
928.9266, 291.8324
929.4087, 291.6245
929.8908, 291.4102
930.3729, 290.3172
930.8550, 291.4755
931.3372, 292.1559
931.8193, 292.3839
932.3014, 290.8047
932.7835, 291.5591
933.2656, 291.3784
933.7477, 291.1592
934.2299, 292.2421
934.7120, 290.9258
935.1941, 291.9879
935.6762, 292.1007
936.1583, 292.6479
936.6404, 292.2543
937.1226, 292.1513
937.6047, 292.9894
938.0868, 293.3065
938.5689, 292.8045
939.0510, 293.3794
939.5331, 292.0302
940.0153, 292.3695
940.4974, 293.4371
940.9795, 292.9825
941.4616, 293.5746
941.9437, 293.7680
942.4258, 292.1496
942.9080, 293.6822
943.3901, 293.1874
943.8722, 293.5933
944.3543, 293.6744
944.8364, 292.5744
945.3185, 292.0436
945.8007, 292.6353
946.2828, 293.6042
946.7649, 293.8981
947.2470, 293.5406
947.7291, 293.3934
948.2112, 293.5924
948.6934, 293.8416
949.1755, 293.8549
949.6576, 293.7656
950.1397, 293.7169
950.6218, 293.7332
951.1039, 293.7436
951.5861, 293.7147
952.0682, 293.7062
952.5503, 293.7251
953.0324, 293.7864
953.5145, 294.0711
953.9966, 294.5520
954.4788, 294.9068
954.9609, 294.7863
955.4430, 294.6214
955.9251, 294.8908
956.4072, 295.3862
956.8893, 295.5243
957.3715, 294.8998
957.8536, 294.4791
958.3357, 294.4127
958.8178, 294.5582
959.2999, 294.7493
959.7820, 294.9645
960.2642, 295.1193
960.7463, 295.2029
961.2284, 295.1859
961.7105, 294.6806
962.1926, 294.3088
962.6747, 294.7850
963.1569, 296.4753
963.6390, 297.3861
964.1211, 297.3850
964.6032, 296.9756
965.0853, 296.2354
965.5674, 295.3882
966.0496, 295.2332
966.5317, 295.6374
967.0138, 295.9485
967.4959, 295.7285
967.9780, 295.4353
968.4601, 295.1911
968.9423, 295.0592
969.4244, 295.2017
969.9065, 295.7058
970.3886, 296.1529
970.8707, 296.5109
971.3528, 296.6847
971.8350, 296.3745
972.3171, 295.8421
972.7992, 295.6008
973.2813, 295.8265
973.7634, 295.9541
974.2455, 295.3338
974.7277, 294.9682
975.2098, 295.7154
975.6919, 297.6041
976.1740, 297.9385
976.6561, 296.6396
977.1382, 295.4942
977.6204, 295.7696
978.1025, 296.6821
978.5846, 297.3535
979.0667, 297.8697
979.5488, 298.5240
980.0309, 300.0288
980.5131, 300.7485
980.9952, 300.0609
981.4773, 298.8611
981.9594, 298.7845
982.4415, 299.6614
982.9236, 300.0630
983.4058, 299.6906
983.8879, 299.0760
984.3700, 298.0800
984.8521, 297.4361
985.3342, 298.1929
985.8163, 301.0467
986.2985, 301.9589
986.7806, 299.9907
987.2627, 298.1903
987.7448, 298.3716
988.2269, 299.8282
988.7090, 300.5479
989.1912, 300.6105
989.6733, 300.3345
990.1554, 299.4756
990.6375, 298.7635
991.1196, 298.6215
991.6017, 298.8445
992.0839, 299.0346
992.5660, 299.1023
993.0481, 299.6346
993.5302, 300.8227
994.0123, 301.9720
994.4944, 302.1828
994.9766, 301.8817
995.4587, 301.6212
995.9408, 301.4590
996.4229, 301.5908
996.9050, 302.5442
997.3871, 303.2980
997.8693, 303.3745
998.3514, 302.8807
998.8335, 302.3554
999.3156, 301.8172
999.7977, 301.5789
1000.280, 302.0928
1000.762, 302.5544
1001.244, 301.9015
1001.726, 300.7760
1002.208, 300.2670
1002.690, 301.0719
1003.173, 301.6447
1003.655, 301.8400
1004.137, 302.0096
1004.619, 302.7015
1005.101, 303.6637
1005.583, 303.7763
1006.065, 303.0228
1006.547, 302.5811
1007.029, 303.6876
1007.512, 304.7928
1007.994, 304.7711
1008.476, 303.9240
1008.958, 303.6329
1009.440, 303.9667
1009.922, 304.4644
1010.404, 305.1259
1010.886, 305.5888
1011.369, 304.9907
1011.851, 303.9535
1012.333, 303.5904
1012.815, 304.6008
1013.297, 305.2842
1013.779, 305.0645
1014.261, 304.7947
1014.743, 305.1283
1015.225, 306.0289
1015.708, 306.7638
1016.190, 307.3194
1016.672, 307.4341
1017.154, 306.3448
1017.636, 305.2980
1018.118, 305.3763
1018.600, 306.2389
1019.082, 306.6689
1019.565, 306.3143
1020.047, 306.3119
1020.529, 306.9260
1021.011, 307.7242
1021.493, 308.2360
1021.975, 308.4577
1022.457, 308.2988
1022.939, 307.6906
1023.421, 307.1790
1023.904, 306.9211
1024.386, 306.9279
1024.868, 307.3334
1025.350, 308.0438
1025.832, 308.0322
1026.314, 307.3119
1026.796, 306.7772
1027.278, 306.8841
1027.760, 307.3177
1028.243, 308.1323
1028.725, 308.9511
1029.207, 309.1143
1029.689, 307.7529
1030.171, 306.9956
1030.653, 306.9456
1031.135, 307.3470
1031.617, 308.2260
1032.100, 309.3152
1032.582, 309.7524
1033.064, 309.5536
1033.546, 309.4413
1034.028, 309.8185
1034.510, 310.3625
1034.992, 311.0656
1035.474, 311.7915
1035.957, 312.0840
1036.439, 311.9233
1036.921, 311.7159
1037.403, 311.5116
1037.885, 311.4554
1038.367, 311.9193
1038.849, 312.5248
1039.331, 312.7281
1039.813, 312.2713
1040.296, 312.1364
1040.778, 312.3945
1041.260, 312.9375
1041.742, 313.8515
1042.224, 314.9494
1042.706, 315.5187
1043.188, 315.6596
1043.670, 315.7982
1044.152, 315.8835
1044.635, 316.2940
1045.117, 317.5165
1045.599, 318.9707
1046.081, 319.9359
1046.563, 320.3886
1047.045, 320.4868
1047.527, 320.1973
1048.009, 320.1071
1048.492, 320.8902
1048.974, 322.0454
1049.456, 323.0936
1049.938, 324.0167
1050.420, 324.9590
1050.902, 326.2335
1051.384, 326.9405
1051.866, 326.6399
1052.349, 325.9967
1052.831, 326.4125
1053.313, 327.5222
1053.795, 328.2707
1054.277, 328.2707
1054.759, 328.4096
1055.241, 329.2787
1055.723, 330.2648
1056.205, 331.0605
1056.688, 331.6543
1057.170, 331.5742
1057.652, 330.8176
1058.134, 330.0047
1058.616, 329.5008
1059.098, 329.0373
1059.580, 328.4576
1060.062, 327.7189
1060.544, 326.7159
1061.027, 325.2196
1061.509, 323.8893
1061.991, 322.7391
1062.473, 321.7968
1062.955, 321.2045
1063.437, 320.8070
1063.919, 320.3441
1064.401, 319.7802
1064.884, 318.9521
1065.366, 317.2796
1065.848, 315.9716
1066.330, 315.5121
1066.812, 315.5558
1067.294, 315.3986
1067.776, 315.0554
1068.258, 314.6104
1068.740, 314.0407
1069.223, 313.6266
1069.705, 313.9756
1070.187, 314.2937
1070.669, 313.6617
1071.151, 311.9745
1071.633, 311.2240
1072.115, 311.5742
1072.597, 312.0320
1073.079, 312.1623
1073.562, 312.1501
1074.044, 312.1891
1074.526, 312.3154
1075.008, 312.6221
1075.490, 313.5459
1075.972, 313.8322
1076.454, 312.9946
1076.936, 312.1804
1077.419, 312.5481
1077.901, 313.7405
1078.383, 313.9635
1078.865, 313.3335
1079.347, 312.7998
1079.829, 313.0057
1080.311, 313.2909
1080.793, 313.3965
1081.275, 313.3715
1081.758, 313.2721
1082.240, 313.0909
1082.722, 312.8393
1083.204, 312.4826
1083.686, 312.3809
1084.168, 313.1747
1084.650, 314.1307
1085.132, 314.6348
1085.615, 314.6239
1086.097, 314.2080
1086.579, 313.1532
1087.061, 312.5296
1087.543, 312.7964
1088.025, 313.3398
1088.507, 313.0627
1088.989, 312.3896
1089.471, 312.1546
1089.953, 312.7526
1090.436, 312.9638
1090.918, 311.9357
1091.400, 311.2786
1091.882, 312.0536
1092.364, 313.8329
1092.846, 314.7367
1093.328, 314.8517
1093.810, 314.6337
1094.293, 314.0684
1094.775, 313.5100
1095.257, 312.9233
1095.739, 312.5625
1096.221, 312.7403
1096.703, 313.5309
1097.185, 314.2544
1097.667, 314.9023
1098.150, 315.4343
1098.632, 315.7859
1099.114, 316.0287
1099.596, 316.1968
1100.078, 316.3055
1100.560, 316.3912
1101.042, 316.4142
1101.524, 316.5326
1102.006, 316.7772
1102.489, 317.0831
1102.971, 317.5402
1103.453, 317.9400
1103.935, 317.8730
1104.417, 317.3223
1104.899, 316.8766
1105.381, 316.7242
1105.863, 316.6507
1106.345, 316.6725
1106.828, 316.6625
1107.310, 316.1435
1107.792, 315.3638
1108.274, 315.1805
1108.756, 315.9410
1109.238, 316.5927
1109.720, 316.4634
1110.202, 316.2334
1110.685, 316.3051
1111.167, 316.6214
1111.649, 316.6431
1112.131, 316.4277
1112.613, 316.6133
1113.095, 317.7773
1113.577, 318.8843
1114.059, 319.1676
1114.542, 318.9789
1115.024, 318.7309
1115.506, 318.4420
1115.988, 317.9828
1116.470, 317.2997
1116.952, 316.9761
1117.434, 317.8432
1117.916, 318.9179
1118.398, 318.9231
1118.880, 318.3109
1119.363, 318.2316
1119.845, 319.2648
1120.327, 319.9124
1120.809, 320.0293
1121.291, 319.8959
1121.773, 319.6340
1122.255, 319.3860
1122.737, 319.5526
1123.220, 320.0476
1123.702, 320.2045
1124.184, 319.1039
1124.666, 318.6534
1125.148, 319.4141
1125.630, 320.6392
1126.112, 321.1620
1126.594, 321.1561
1127.077, 321.1342
1127.559, 321.1706
1128.041, 321.1689
1128.523, 321.1318
1129.005, 320.9779
1129.487, 320.5817
1129.969, 320.0959
1130.451, 319.9579
1130.933, 320.1584
1131.416, 320.6883
1131.898, 321.6387
1132.380, 322.5288
1132.862, 323.1055
1133.344, 323.4237
1133.826, 323.5068
1134.308, 323.3671
1134.790, 323.0246
1135.272, 322.4649
1135.755, 322.2689
1136.237, 322.9131
1136.719, 323.5803
1137.201, 323.3394
1137.683, 322.7501
1138.165, 322.5672
1138.647, 322.9635
1139.129, 323.2461
1139.612, 323.4283
1140.094, 323.4268
1140.576, 322.9410
1141.058, 322.4521
1141.540, 322.7451
1142.022, 323.4746
1142.504, 323.9003
1142.986, 323.6901
1143.469, 323.5372
1143.951, 323.4785
1144.433, 323.4103
1144.915, 323.2263
1145.397, 322.9782
1145.879, 322.7067
1146.361, 322.4479
1146.843, 322.3310
1147.325, 322.3366
1147.807, 322.6188
1148.290, 323.2803
1148.772, 324.0602
1149.254, 324.8769
1149.736, 325.5096
1150.218, 325.0887
1150.700, 323.6838
1151.182, 322.8737
1151.664, 323.9165
1152.147, 324.9517
1152.629, 325.4960
1153.111, 325.6897
1153.593, 325.7075
1154.075, 325.5859
1154.557, 325.4478
1155.039, 325.3051
1155.521, 325.2710
1156.004, 325.3670
1156.486, 325.6612
1156.968, 326.3325
1157.450, 327.1362
1157.932, 327.2159
1158.414, 326.6774
1158.896, 326.1970
1159.378, 325.8752
1159.860, 325.9766
1160.343, 327.2707
1160.825, 328.5155
1161.307, 328.7428
1161.789, 328.1166
1162.271, 327.9650
1162.753, 328.2603
1163.235, 328.3170
1163.717, 327.7144
1164.199, 327.2378
1164.682, 327.6719
1165.164, 328.4477
1165.646, 328.9953
1166.128, 329.2788
1166.610, 329.7691
1167.092, 330.4803
1167.574, 330.8187
1168.056, 330.2380
1168.539, 329.5319
1169.021, 329.4449
1169.503, 329.6685
1169.985, 329.7545
1170.467, 329.5872
1170.949, 329.8483
1171.431, 330.6364
1171.913, 330.9949
1172.396, 329.7237
1172.878, 328.2512
1173.360, 328.0442
1173.842, 328.7348
1174.324, 329.6983
1174.806, 331.1960
1175.288, 331.8600
1175.770, 331.5067
1176.252, 331.0877
1176.734, 331.4445
1177.217, 332.0834
1177.699, 332.5137
1178.181, 332.7079
1178.663, 332.5899
1179.145, 332.0126
1179.627, 331.3854
1180.109, 330.6133
1180.591, 330.2926
1181.074, 331.6427
1181.556, 333.3980
1182.038, 333.5242
1182.520, 332.3427
1183.002, 331.8454
1183.484, 332.9901
1183.966, 333.3917
1184.448, 332.5866
1184.931, 331.5367
1185.413, 331.2766
1185.895, 331.5268
1186.377, 331.9764
1186.859, 332.5479
1187.341, 332.8491
1187.823, 332.6081
1188.305, 332.5060
1188.787, 332.7243
1189.270, 332.9682
1189.752, 332.6164
1190.234, 332.0995
1190.716, 332.2322
1191.198, 333.0780
1191.680, 333.9042
1192.162, 334.7889
1192.644, 335.1636
1193.126, 334.7251
1193.609, 334.0574
1194.091, 334.2333
1194.573, 334.8218
1195.055, 334.8912
1195.537, 334.2619
1196.019, 334.2245
1196.501, 335.6842
1196.983, 336.5674
1197.466, 336.0169
1197.948, 334.9572
1198.430, 335.1866
1198.912, 336.1448
1199.394, 336.6840
1199.876, 336.5114
1200.358, 336.4686
1200.840, 336.8693
1201.323, 337.1510
1201.805, 337.0901
1202.287, 336.8201
1202.769, 336.5078
1203.251, 336.2263
1203.733, 336.1535
1204.215, 336.3764
1204.697, 336.6034
1205.179, 336.6993
1205.661, 336.9976
1206.144, 337.8130
1206.626, 338.7397
1207.108, 338.6555
1207.590, 337.9885
1208.072, 337.6670
1208.554, 338.0268
1209.036, 338.4734
1209.518, 339.0957
1210.001, 339.3781
1210.483, 338.7781
1210.965, 337.9091
1211.447, 338.6030
1211.929, 340.1366
1212.411, 340.8599
1212.893, 339.7485
1213.375, 339.3445
1213.858, 340.2935
1214.340, 341.1844
1214.822, 341.1337
1215.304, 340.5557
1215.786, 340.4194
1216.268, 340.5566
1216.750, 340.5764
1217.232, 340.1665
1217.714, 340.1122
1218.197, 340.6109
1218.679, 341.1330
1219.161, 341.2158
1219.643, 341.1766
1220.125, 341.9939
1220.607, 343.2038
1221.089, 343.7086
1221.571, 342.3719
1222.053, 341.9229
1222.536, 342.8165
1223.018, 343.7368
1223.500, 343.6101
1223.982, 343.0429
1224.464, 343.3961
1224.946, 344.2382
1225.428, 344.5812
1225.910, 343.4798
1226.393, 343.0374
1226.875, 343.4609
1227.357, 343.9989
1227.839, 344.1813
1228.321, 344.0742
1228.803, 343.6253
1229.285, 343.0003
1229.767, 342.5755
1230.250, 342.3071
1230.732, 342.6264
1231.214, 343.7302
1231.696, 344.6783
1232.178, 344.6452
1232.660, 344.0994
1233.142, 343.3320
1233.624, 342.6148
1234.106, 342.6416
1234.589, 343.9247
1235.071, 344.7964
1235.553, 345.1730
1236.035, 345.3911
1236.517, 345.6692
1236.999, 345.9576
1237.481, 346.2550
1237.963, 346.4995
1238.445, 346.5372
1238.928, 346.2950
1239.410, 346.0059
1239.892, 345.6290
1240.374, 345.5845
1240.856, 346.6009
1241.338, 347.7109
1241.820, 348.0068
1242.302, 347.7469
1242.785, 347.4893
1243.267, 347.2293
1243.749, 347.1458
1244.231, 347.2522
1244.713, 347.4384
1245.195, 347.8080
1245.677, 348.0464
1246.159, 347.7215
1246.641, 347.1802
1247.124, 347.0716
1247.606, 347.4400
1248.088, 347.6980
1248.570, 347.8178
1249.052, 347.9369
1249.534, 348.0948
1250.016, 348.3338
1250.498, 348.5319
1250.980, 348.9232
1251.463, 350.1715
1251.945, 352.2357
1252.427, 352.1861
1252.909, 350.1313
1253.391, 348.5997
1253.873, 349.7469
1254.355, 351.0502
1254.837, 351.4557
1255.320, 351.4347
1255.802, 351.4337
1256.284, 351.4511
1256.766, 351.4855
1257.248, 351.5311
1257.730, 351.5468
1258.212, 351.2484
1258.694, 351.3141
1259.177, 352.1110
1259.659, 353.0195
1260.141, 353.3931
1260.623, 353.3421
1261.105, 353.1198
1261.587, 352.8000
1262.069, 352.6652
1262.551, 353.0812
1263.033, 353.2868
1263.516, 353.0457
1263.998, 352.8781
1264.480, 353.6217
1264.962, 354.6569
1265.444, 354.4478
1265.926, 353.3394
1266.408, 352.7202
1266.890, 353.4013
1267.372, 353.7130
1267.855, 353.4284
1268.337, 353.2612
1268.819, 354.0350
1269.301, 355.1629
1269.783, 355.9481
1270.265, 356.3926
1270.747, 356.5185
1271.229, 356.2519
1271.712, 355.9694
1272.194, 355.6699
1272.676, 355.4687
1273.158, 355.5043
1273.640, 355.6238
1274.122, 355.5928
1274.604, 355.5756
1275.086, 355.8955
1275.568, 356.6088
1276.051, 357.3809
1276.533, 358.2099
1277.015, 358.6784
1277.497, 358.0923
1277.979, 357.5488
1278.461, 357.9831
1278.943, 358.6803
1279.425, 358.6761
1279.907, 357.9926
1280.390, 357.7220
1280.872, 357.8705
1281.354, 358.3130
1281.836, 359.4408
1282.318, 360.2515
1282.800, 360.3067
1283.282, 359.9947
1283.764, 359.4358
1284.247, 358.7638
1284.729, 358.7883
1285.211, 359.3516
1285.693, 359.8614
1286.175, 360.0874
1286.657, 360.1878
1287.139, 360.0746
1287.621, 360.0749
1288.104, 360.7827
1288.586, 361.5852
1289.068, 360.5917
1289.550, 358.7403
1290.032, 358.2408
1290.514, 361.1796
1290.996, 362.4027
1291.478, 361.5137
1291.960, 360.5791
1292.443, 361.2097
1292.925, 362.1943
1293.407, 361.7467
1293.889, 360.7423
1294.371, 360.7936
1294.853, 362.3029
1295.335, 362.7638
1295.817, 362.1499
1296.299, 361.5381
1296.782, 361.3642
1297.264, 361.5666
1297.746, 362.5244
1298.228, 363.4962
1298.710, 363.6768
1299.192, 363.1522
1299.674, 363.2809
1300.156, 363.9362
1300.639, 364.2343
1301.121, 363.5977
1301.603, 363.0919
1302.085, 363.3087
1302.567, 363.8250
1303.049, 364.4742
1303.531, 365.1896
##END=



