##NAMES=Stichtite
##RRUFFID=R050328
##IDEAL CHEMISTRY=Mg_6_Cr^3+^_2_CO_3_(OH)_16_&#183;4H_2_O
##LOCALITY=Dundas, Tasmania, Australia
##OWNER=RRUFF
##SOURCE=Marcus Origlieri
##DESCRIPTION=Aggregate of contorted purple plates
##STATUS=The identification of this mineral has been confirmed by X-ray diffraction and chemical analysis
##URL=rruff.info/R050328
##MEASURED CHEMISTRY=Mg_6.00_(Cr_1.11_Al_0.71_Fe^3+^_0.18_)_Σ=2_(CO_3_)(OH)_16_·4H_2_O
91.87140, 0.0000000E+00
92.35352, 138.0459
92.83563, 134.8527
93.31775, 133.4960
93.79987, 134.2564
94.28198, 136.8917
94.76410, 140.7293
95.24622, 145.5807
95.72833, 151.6017
96.21045, 159.2637
96.69257, 168.6584
97.17468, 178.7615
97.65680, 188.2920
98.13892, 197.3190
98.62103, 207.4792
99.10315, 218.7648
99.58527, 231.3562
100.0674, 246.0728
100.5495, 262.9022
101.0316, 281.6131
101.5137, 301.5056
101.9958, 322.4872
102.4780, 345.4225
102.9601, 370.3850
103.4422, 397.3324
103.9243, 426.6178
104.4064, 459.2158
104.8885, 493.6851
105.3707, 528.2978
105.8528, 562.8286
106.3349, 597.4026
106.8170, 631.8746
107.2991, 666.6784
107.7813, 700.5670
108.2634, 733.4692
108.7455, 765.6077
109.2276, 796.5311
109.7097, 825.4539
110.1918, 854.0121
110.6740, 882.9296
111.1561, 910.0110
111.6382, 939.9369
112.1203, 972.0834
112.6024, 1007.081
113.0845, 1047.025
113.5667, 1095.380
114.0488, 1146.871
114.5309, 1198.513
115.0130, 1248.354
115.4951, 1298.992
115.9772, 1351.216
116.4594, 1405.485
116.9415, 1461.201
117.4236, 1520.694
117.9057, 1580.765
118.3878, 1637.743
118.8699, 1689.153
119.3521, 1738.600
119.8342, 1789.033
120.3163, 1840.811
120.7984, 1891.439
121.2805, 1940.496
121.7626, 1987.304
122.2448, 2030.707
122.7269, 2068.863
123.2090, 2103.977
123.6911, 2138.129
124.1732, 2171.576
124.6553, 2203.896
125.1375, 2232.962
125.6196, 2260.100
126.1017, 2289.501
126.5838, 2325.422
127.0659, 2365.031
127.5480, 2402.942
128.0302, 2437.714
128.5123, 2472.519
128.9944, 2512.079
129.4765, 2556.072
129.9586, 2601.468
130.4407, 2646.541
130.9229, 2691.324
131.4050, 2736.309
131.8871, 2780.691
132.3692, 2824.959
132.8513, 2869.259
133.3334, 2909.012
133.8156, 2935.726
134.2977, 2953.830
134.7798, 2973.458
135.2619, 2989.685
135.7440, 3001.035
136.2261, 3008.289
136.7083, 3015.892
137.1904, 3024.373
137.6725, 3032.028
138.1546, 3037.277
138.6367, 3040.115
139.1188, 3041.265
139.6010, 3040.831
140.0831, 3038.845
140.5652, 3035.675
141.0473, 3030.536
141.5294, 3025.194
142.0115, 3022.446
142.4937, 3023.884
142.9758, 3023.845
143.4579, 3019.761
143.9400, 3009.958
144.4221, 3003.986
144.9042, 3002.673
145.3864, 3004.442
145.8685, 3006.906
146.3506, 3011.334
146.8327, 3014.661
147.3148, 3016.095
147.7969, 3016.119
148.2791, 3013.069
148.7612, 3004.132
149.2433, 2992.454
149.7254, 2985.207
150.2075, 2987.047
150.6896, 2989.360
151.1718, 2989.041
151.6539, 2984.228
152.1360, 2979.656
152.6181, 2976.578
153.1002, 2974.015
153.5823, 2969.012
154.0645, 2957.785
154.5466, 2946.594
155.0287, 2938.395
155.5108, 2937.031
155.9929, 2934.154
156.4750, 2927.668
156.9572, 2918.366
157.4393, 2909.675
157.9214, 2902.689
158.4035, 2896.187
158.8856, 2889.390
159.3677, 2882.906
159.8499, 2875.316
160.3320, 2865.173
160.8141, 2853.097
161.2962, 2842.732
161.7783, 2836.670
162.2604, 2832.386
162.7426, 2827.797
163.2247, 2822.672
163.7068, 2816.798
164.1889, 2810.019
164.6710, 2802.403
165.1531, 2794.082
165.6353, 2783.997
166.1174, 2773.599
166.5995, 2764.450
167.0816, 2756.970
167.5637, 2750.955
168.0458, 2747.002
168.5280, 2745.104
169.0101, 2742.589
169.4922, 2737.453
169.9743, 2730.721
170.4564, 2723.851
170.9385, 2717.290
171.4207, 2710.930
171.9028, 2704.313
172.3849, 2697.400
172.8670, 2691.528
173.3491, 2688.797
173.8312, 2687.780
174.3134, 2685.728
174.7955, 2680.504
175.2776, 2674.006
175.7597, 2668.387
176.2418, 2663.739
176.7239, 2659.826
177.2061, 2656.594
177.6882, 2653.862
178.1703, 2651.181
178.6524, 2648.181
179.1345, 2645.099
179.6166, 2642.328
180.0988, 2639.851
180.5809, 2637.739
181.0630, 2636.570
181.5451, 2635.998
182.0272, 2634.699
182.5093, 2630.866
182.9915, 2625.812
183.4736, 2622.993
183.9557, 2622.885
184.4378, 2623.962
184.9199, 2624.115
185.4020, 2623.500
185.8842, 2623.336
186.3663, 2625.071
186.8484, 2627.951
187.3305, 2629.155
187.8126, 2628.370
188.2947, 2626.199
188.7769, 2622.771
189.2590, 2618.201
189.7411, 2614.785
190.2232, 2615.077
190.7053, 2618.249
191.1874, 2618.281
191.6696, 2613.633
192.1517, 2607.719
192.6338, 2607.860
193.1159, 2614.299
193.5980, 2620.341
194.0801, 2621.248
194.5623, 2617.439
195.0444, 2614.972
195.5265, 2614.544
196.0086, 2615.450
196.4907, 2616.364
196.9728, 2617.277
197.4550, 2618.138
197.9371, 2619.310
198.4192, 2620.819
198.9013, 2620.581
199.3834, 2617.949
199.8655, 2613.960
200.3477, 2611.021
200.8298, 2609.242
201.3119, 2608.087
201.7940, 2607.242
202.2761, 2606.708
202.7582, 2606.809
203.2404, 2608.038
203.7225, 2609.621
204.2046, 2609.152
204.6867, 2606.195
205.1688, 2602.751
205.6509, 2599.701
206.1331, 2596.815
206.6152, 2595.925
207.0973, 2597.809
207.5794, 2601.473
208.0615, 2603.836
208.5436, 2604.634
209.0258, 2604.833
209.5079, 2604.702
209.9900, 2603.885
210.4721, 2604.509
210.9542, 2607.423
211.4363, 2611.626
211.9185, 2613.434
212.4006, 2611.761
212.8827, 2609.976
213.3648, 2610.291
213.8469, 2613.308
214.3290, 2616.211
214.8112, 2619.115
215.2933, 2621.648
215.7754, 2622.304
216.2575, 2620.088
216.7396, 2617.824
217.2217, 2617.237
217.7039, 2618.787
218.1860, 2620.670
218.6681, 2623.111
219.1502, 2625.747
219.6323, 2627.061
220.1144, 2626.494
220.5966, 2625.604
221.0787, 2625.427
221.5608, 2626.612
222.0429, 2626.697
222.5250, 2624.778
223.0071, 2621.773
223.4893, 2621.388
223.9714, 2625.364
224.4535, 2629.280
224.9356, 2630.459
225.4177, 2627.044
225.8998, 2625.476
226.3820, 2626.641
226.8641, 2629.792
227.3462, 2632.246
227.8283, 2633.360
228.3104, 2634.710
228.7925, 2637.320
229.2747, 2642.534
229.7568, 2645.875
230.2389, 2646.566
230.7210, 2645.379
231.2031, 2644.724
231.6852, 2644.625
232.1674, 2644.983
232.6495, 2645.832
233.1316, 2647.519
233.6137, 2648.849
234.0958, 2649.408
234.5779, 2649.667
235.0601, 2651.076
235.5422, 2654.550
236.0243, 2657.895
236.5064, 2660.019
236.9885, 2660.001
237.4706, 2660.902
237.9528, 2663.403
238.4349, 2666.632
238.9170, 2668.189
239.3991, 2666.673
239.8812, 2665.571
240.3633, 2666.501
240.8455, 2670.558
241.3276, 2673.994
241.8097, 2676.992
242.2918, 2679.257
242.7739, 2679.897
243.2560, 2677.667
243.7382, 2675.749
244.2203, 2675.425
244.7024, 2677.278
245.1845, 2679.189
245.6666, 2681.554
246.1487, 2683.794
246.6309, 2684.712
247.1130, 2683.510
247.5951, 2682.258
248.0772, 2681.422
248.5593, 2680.559
249.0414, 2681.878
249.5236, 2686.756
250.0057, 2692.918
250.4878, 2696.417
250.9699, 2695.337
251.4520, 2695.001
251.9341, 2697.517
252.4163, 2703.845
252.8984, 2708.245
253.3805, 2710.297
253.8626, 2710.743
254.3447, 2710.454
254.8268, 2708.834
255.3090, 2707.688
255.7911, 2707.433
256.2732, 2708.041
256.7553, 2710.114
257.2374, 2715.190
257.7195, 2720.227
258.2017, 2720.931
258.6838, 2714.767
259.1659, 2710.134
259.6480, 2709.548
260.1301, 2713.207
260.6122, 2715.807
261.0944, 2717.278
261.5765, 2717.796
262.0586, 2717.081
262.5407, 2713.981
263.0228, 2712.992
263.5049, 2715.797
263.9871, 2722.226
264.4692, 2726.927
264.9513, 2729.635
265.4334, 2731.144
265.9155, 2731.658
266.3976, 2730.222
266.8798, 2731.177
267.3619, 2736.281
267.8440, 2744.778
268.3261, 2749.853
268.8082, 2750.327
269.2903, 2749.833
269.7725, 2751.414
270.2546, 2755.579
270.7367, 2759.334
271.2188, 2762.298
271.7009, 2764.481
272.1830, 2765.735
272.6652, 2765.589
273.1473, 2765.736
273.6294, 2767.602
274.1115, 2771.548
274.5936, 2774.904
275.0757, 2777.267
275.5579, 2778.972
276.0400, 2780.646
276.5221, 2782.027
277.0042, 2784.344
277.4863, 2789.438
277.9684, 2797.763
278.4506, 2801.967
278.9327, 2800.465
279.4148, 2795.992
279.8969, 2794.188
280.3790, 2795.288
280.8611, 2797.525
281.3433, 2800.013
281.8254, 2802.784
282.3075, 2807.089
282.7896, 2813.827
283.2717, 2820.323
283.7538, 2820.990
284.2360, 2815.558
284.7181, 2811.628
285.2002, 2813.357
285.6823, 2820.069
286.1644, 2825.825
286.6465, 2830.567
287.1287, 2834.313
287.6108, 2836.857
288.0929, 2838.219
288.5750, 2838.980
289.0571, 2838.185
289.5392, 2836.912
290.0214, 2841.181
290.5035, 2851.785
290.9856, 2861.313
291.4677, 2859.715
291.9498, 2848.911
292.4319, 2841.016
292.9141, 2840.997
293.3962, 2845.505
293.8783, 2846.155
294.3604, 2842.897
294.8425, 2840.183
295.3246, 2842.962
295.8068, 2849.658
296.2889, 2854.808
296.7710, 2856.799
297.2531, 2857.122
297.7352, 2858.549
298.2173, 2860.849
298.6995, 2862.030
299.1816, 2858.355
299.6637, 2852.660
300.1458, 2851.534
300.6279, 2857.326
301.1100, 2865.309
301.5922, 2869.807
302.0743, 2871.351
302.5564, 2872.201
303.0385, 2873.243
303.5206, 2874.500
304.0027, 2876.068
304.4849, 2877.942
304.9670, 2879.988
305.4491, 2882.694
305.9312, 2885.521
306.4133, 2887.187
306.8954, 2886.100
307.3776, 2884.122
307.8597, 2883.225
308.3418, 2883.645
308.8239, 2884.313
309.3060, 2884.214
309.7881, 2883.938
310.2703, 2884.392
310.7524, 2886.648
311.2345, 2889.296
311.7166, 2891.089
312.1987, 2892.055
312.6808, 2893.504
313.1630, 2896.733
313.6451, 2900.604
314.1272, 2903.922
314.6093, 2906.247
315.0914, 2907.856
315.5735, 2908.182
316.0557, 2907.546
316.5378, 2907.760
317.0199, 2910.429
317.5020, 2913.742
317.9841, 2916.358
318.4662, 2917.136
318.9484, 2918.387
319.4305, 2921.355
319.9126, 2925.431
320.3947, 2928.999
320.8768, 2932.958
321.3589, 2935.276
321.8411, 2934.340
322.3232, 2927.897
322.8053, 2923.306
323.2874, 2922.419
323.7695, 2924.138
324.2516, 2926.734
324.7338, 2932.540
325.2159, 2936.769
325.6980, 2937.305
326.1801, 2932.970
326.6622, 2929.828
327.1443, 2928.834
327.6265, 2928.979
328.1086, 2929.266
328.5907, 2930.985
329.0728, 2931.387
329.5549, 2929.300
330.0370, 2924.685
330.5192, 2921.890
331.0013, 2922.089
331.4834, 2923.106
331.9655, 2923.500
332.4476, 2923.240
332.9297, 2922.351
333.4119, 2920.431
333.8940, 2917.822
334.3761, 2916.052
334.8582, 2915.120
335.3403, 2915.015
335.8224, 2916.271
336.3046, 2920.406
336.7867, 2920.835
337.2688, 2915.696
337.7509, 2908.077
338.2330, 2904.455
338.7151, 2905.974
339.1973, 2908.020
339.6794, 2908.912
340.1615, 2908.620
340.6436, 2908.151
341.1257, 2907.506
341.6078, 2906.833
342.0900, 2906.205
342.5721, 2905.638
343.0542, 2905.683
343.5363, 2906.845
344.0184, 2908.779
344.5005, 2909.730
344.9827, 2909.576
345.4648, 2909.386
345.9469, 2909.714
346.4290, 2910.657
346.9111, 2913.263
347.3932, 2918.342
347.8754, 2924.242
348.3575, 2927.372
348.8396, 2927.888
349.3217, 2928.209
349.8038, 2930.062
350.2859, 2932.844
350.7681, 2935.056
351.2502, 2936.344
351.7323, 2937.576
352.2144, 2940.505
352.6965, 2944.377
353.1786, 2946.833
353.6608, 2946.147
354.1429, 2943.717
354.6250, 2940.778
355.1071, 2937.391
355.5892, 2934.857
356.0714, 2935.366
356.5535, 2937.189
357.0356, 2937.732
357.5177, 2935.010
357.9998, 2931.598
358.4819, 2928.538
358.9641, 2926.064
359.4462, 2925.633
359.9283, 2930.531
360.4104, 2936.410
360.8925, 2939.426
361.3746, 2937.059
361.8568, 2934.517
362.3389, 2934.333
362.8210, 2935.500
363.3031, 2935.758
363.7852, 2932.259
364.2673, 2929.370
364.7495, 2929.775
365.2316, 2935.146
365.7137, 2938.651
366.1958, 2936.549
366.6779, 2932.702
367.1600, 2931.637
367.6422, 2936.806
368.1243, 2941.760
368.6064, 2945.220
369.0885, 2947.123
369.5706, 2948.692
370.0527, 2950.776
370.5349, 2951.923
371.0170, 2951.038
371.4991, 2946.188
371.9812, 2942.630
372.4633, 2940.599
372.9454, 2940.130
373.4276, 2941.594
373.9097, 2946.269
374.3918, 2950.712
374.8739, 2952.831
375.3560, 2951.608
375.8381, 2953.136
376.3203, 2958.617
376.8024, 2965.239
377.2845, 2968.366
377.7666, 2967.327
378.2487, 2966.165
378.7308, 2966.003
379.2130, 2966.774
379.6951, 2968.395
380.1772, 2971.013
380.6593, 2973.696
381.1414, 2975.563
381.6235, 2976.672
382.1057, 2977.655
382.5878, 2978.419
383.0699, 2979.424
383.5520, 2982.127
384.0341, 2986.333
384.5162, 2989.744
384.9984, 2989.919
385.4805, 2988.410
385.9626, 2988.997
386.4447, 2992.446
386.9268, 2995.855
387.4089, 2995.802
387.8911, 2993.420
388.3732, 2991.275
388.8553, 2990.521
389.3374, 2990.494
389.8195, 2990.972
390.3016, 2991.864
390.7838, 2992.117
391.2659, 2990.861
391.7480, 2988.725
392.2301, 2986.234
392.7122, 2982.394
393.1943, 2979.864
393.6765, 2981.476
394.1586, 2985.679
394.6407, 2987.993
395.1228, 2985.037
395.6049, 2981.356
396.0870, 2979.026
396.5692, 2978.340
397.0513, 2978.981
397.5334, 2981.869
398.0155, 2985.749
398.4976, 2989.004
398.9797, 2990.697
399.4619, 2992.561
399.9440, 2995.478
400.4261, 2999.402
400.9082, 3001.101
401.3903, 2998.955
401.8724, 2996.030
402.3546, 2994.128
402.8367, 2993.098
403.3188, 2993.512
403.8009, 2996.023
404.2830, 2999.727
404.7651, 3002.090
405.2473, 3002.380
405.7294, 3003.411
406.2115, 3006.804
406.6936, 3012.647
407.1757, 3017.207
407.6578, 3020.473
408.1400, 3022.570
408.6221, 3023.432
409.1042, 3023.090
409.5863, 3022.484
410.0684, 3021.764
410.5505, 3021.014
411.0327, 3019.960
411.5148, 3018.650
411.9969, 3018.516
412.4790, 3021.320
412.9611, 3026.029
413.4432, 3030.028
413.9254, 3032.867
414.4075, 3035.598
414.8896, 3039.998
415.3717, 3045.224
415.8538, 3049.245
416.3359, 3049.895
416.8181, 3049.634
417.3002, 3050.797
417.7823, 3053.387
418.2644, 3055.761
418.7465, 3056.245
419.2286, 3056.389
419.7108, 3057.741
420.1929, 3061.706
420.6750, 3065.519
421.1571, 3068.042
421.6392, 3069.588
422.1213, 3070.940
422.6035, 3071.410
423.0856, 3072.485
423.5677, 3075.155
424.0498, 3080.263
424.5319, 3084.208
425.0140, 3087.068
425.4962, 3088.579
425.9783, 3088.349
426.4604, 3084.111
426.9425, 3081.563
427.4246, 3081.622
427.9067, 3084.122
428.3889, 3088.059
428.8710, 3094.578
429.3531, 3100.519
429.8352, 3104.043
430.3173, 3104.678
430.7994, 3104.890
431.2816, 3104.697
431.7637, 3104.075
432.2458, 3102.472
432.7279, 3099.711
433.2100, 3098.337
433.6921, 3099.524
434.1743, 3102.699
434.6564, 3106.209
435.1385, 3110.121
435.6206, 3113.348
436.1027, 3115.161
436.5848, 3115.596
437.0670, 3114.404
437.5491, 3110.968
438.0312, 3107.419
438.5133, 3106.133
438.9954, 3106.719
439.4775, 3108.033
439.9597, 3110.484
440.4418, 3112.849
440.9239, 3113.301
441.4060, 3111.760
441.8881, 3111.735
442.3702, 3117.143
442.8524, 3124.167
443.3345, 3129.176
443.8166, 3130.452
444.2987, 3130.407
444.7808, 3127.762
445.2629, 3124.042
445.7451, 3123.780
446.2272, 3131.511
446.7093, 3139.645
447.1914, 3145.107
447.6735, 3146.719
448.1556, 3149.080
448.6378, 3152.172
449.1199, 3155.976
449.6020, 3160.730
450.0841, 3167.443
450.5662, 3172.768
451.0483, 3175.829
451.5305, 3177.158
452.0126, 3178.768
452.4947, 3180.386
452.9768, 3183.168
453.4589, 3188.645
453.9410, 3196.958
454.4232, 3202.366
454.9053, 3204.341
455.3874, 3204.873
455.8695, 3206.564
456.3516, 3209.208
456.8337, 3211.256
457.3159, 3211.703
457.7980, 3211.710
458.2801, 3213.514
458.7622, 3216.943
459.2443, 3220.810
459.7264, 3225.253
460.2086, 3229.325
460.6907, 3231.596
461.1728, 3231.736
461.6549, 3230.924
462.1370, 3229.108
462.6191, 3227.102
463.1013, 3226.125
463.5834, 3227.807
464.0655, 3229.505
464.5476, 3230.215
465.0297, 3229.909
465.5118, 3228.736
465.9940, 3225.854
466.4761, 3222.696
466.9582, 3220.172
467.4403, 3219.697
467.9224, 3217.264
468.4045, 3211.657
468.8867, 3204.560
469.3688, 3198.284
469.8509, 3193.465
470.3330, 3188.543
470.8151, 3183.073
471.2972, 3177.176
471.7794, 3172.074
472.2615, 3168.050
472.7436, 3164.011
473.2257, 3159.112
473.7078, 3153.321
474.1899, 3147.429
474.6721, 3141.193
475.1542, 3135.563
475.6363, 3132.205
476.1184, 3130.858
476.6005, 3129.888
477.0826, 3128.209
477.5648, 3126.753
478.0469, 3127.908
478.5290, 3131.314
479.0111, 3133.720
479.4932, 3131.742
479.9753, 3127.953
480.4575, 3125.593
480.9396, 3125.770
481.4217, 3125.648
481.9038, 3122.732
482.3859, 3118.590
482.8680, 3115.561
483.3502, 3114.815
483.8323, 3114.879
484.3144, 3115.712
484.7965, 3117.153
485.2786, 3117.671
485.7607, 3115.731
486.2429, 3113.775
486.7250, 3113.120
487.2071, 3114.895
487.6892, 3115.542
488.1713, 3114.880
488.6534, 3113.266
489.1356, 3110.651
489.6177, 3105.792
490.0998, 3104.059
490.5819, 3107.979
491.0640, 3116.038
491.5461, 3120.225
492.0283, 3120.340
492.5104, 3118.713
492.9925, 3115.676
493.4746, 3111.889
493.9567, 3111.379
494.4388, 3114.804
494.9210, 3119.283
495.4031, 3121.375
495.8852, 3121.875
496.3673, 3122.917
496.8494, 3125.311
497.3315, 3128.414
497.8137, 3132.012
498.2958, 3135.888
498.7779, 3139.123
499.2600, 3141.148
499.7421, 3142.446
500.2242, 3142.829
500.7064, 3141.669
501.1885, 3142.567
501.6706, 3149.359
502.1527, 3157.588
502.6348, 3162.635
503.1169, 3159.354
503.5991, 3158.469
504.0812, 3162.536
504.5633, 3169.995
505.0454, 3174.865
505.5275, 3175.121
506.0096, 3176.175
506.4918, 3180.711
506.9739, 3189.224
507.4560, 3194.848
507.9381, 3196.397
508.4202, 3198.201
508.9023, 3205.734
509.3845, 3218.591
509.8666, 3229.445
510.3487, 3236.156
510.8308, 3241.729
511.3129, 3251.873
511.7950, 3265.676
512.2772, 3278.824
512.7593, 3288.458
513.2414, 3296.494
513.7235, 3304.118
514.2056, 3311.571
514.6877, 3322.316
515.1699, 3341.764
515.6520, 3363.827
516.1341, 3382.694
516.6162, 3395.539
517.0983, 3408.147
517.5804, 3421.246
518.0626, 3435.598
518.5447, 3452.472
519.0268, 3474.544
519.5089, 3496.519
519.9910, 3516.157
520.4731, 3533.840
520.9553, 3555.089
521.4374, 3581.413
521.9195, 3608.716
522.4016, 3634.507
522.8837, 3657.909
523.3658, 3683.649
523.8480, 3712.396
524.3301, 3742.395
524.8122, 3770.959
525.2943, 3798.113
525.7764, 3825.347
526.2585, 3852.315
526.7407, 3880.502
527.2228, 3914.782
527.7049, 3954.237
528.1870, 3992.300
528.6691, 4024.403
529.1512, 4053.728
529.6334, 4082.949
530.1155, 4112.390
530.5976, 4144.657
531.0797, 4184.402
531.5618, 4226.658
532.0439, 4265.988
532.5261, 4299.901
533.0082, 4332.950
533.4903, 4368.006
533.9724, 4403.094
534.4545, 4434.890
534.9366, 4461.187
535.4188, 4486.212
535.9009, 4512.522
536.3830, 4539.915
536.8651, 4557.408
537.3472, 4563.312
537.8293, 4562.871
538.3115, 4559.281
538.7936, 4552.723
539.2757, 4542.372
539.7578, 4528.828
540.2399, 4509.989
540.7220, 4481.596
541.2042, 4444.801
541.6863, 4404.305
542.1684, 4360.655
542.6505, 4314.440
543.1326, 4265.583
543.6147, 4214.654
544.0969, 4162.525
544.5790, 4109.717
545.0611, 4057.086
545.5432, 4005.839
546.0253, 3956.350
546.5074, 3906.210
546.9896, 3851.845
547.4717, 3798.366
547.9538, 3749.904
548.4359, 3708.242
548.9180, 3670.247
549.4001, 3637.384
549.8823, 3607.239
550.3644, 3575.536
550.8465, 3539.596
551.3286, 3506.634
551.8107, 3478.805
552.2928, 3455.474
552.7750, 3432.660
553.2571, 3409.948
553.7392, 3389.236
554.2213, 3372.152
554.7034, 3358.371
555.1855, 3345.304
555.6677, 3332.840
556.1498, 3320.832
556.6319, 3308.866
557.1140, 3297.352
557.5961, 3287.355
558.0782, 3279.624
558.5604, 3272.669
559.0425, 3265.548
559.5246, 3258.325
560.0067, 3251.193
560.4888, 3244.292
560.9709, 3237.513
561.4531, 3230.622
561.9352, 3223.595
562.4173, 3217.660
562.8994, 3214.145
563.3815, 3210.856
563.8636, 3206.739
564.3458, 3201.842
564.8279, 3195.854
565.3100, 3187.697
565.7921, 3179.769
566.2742, 3176.071
566.7563, 3177.234
567.2385, 3176.274
567.7206, 3171.255
568.2027, 3163.866
568.6848, 3157.405
569.1669, 3151.825
569.6490, 3147.479
570.1312, 3145.384
570.6133, 3144.181
571.0954, 3141.064
571.5775, 3136.191
572.0596, 3133.462
572.5417, 3138.606
573.0239, 3145.063
573.5060, 3146.431
573.9881, 3139.191
574.4702, 3133.560
574.9523, 3133.447
575.4344, 3136.282
575.9166, 3138.832
576.3987, 3141.671
576.8808, 3143.119
577.3629, 3142.383
577.8450, 3140.198
578.3271, 3139.095
578.8093, 3139.498
579.2914, 3139.623
579.7735, 3138.386
580.2556, 3136.067
580.7377, 3135.086
581.2198, 3135.503
581.7020, 3136.211
582.1841, 3136.660
582.6662, 3136.634
583.1483, 3135.365
583.6304, 3132.531
584.1125, 3129.745
584.5947, 3128.716
585.0768, 3128.637
585.5589, 3128.330
586.0410, 3127.658
586.5231, 3126.525
587.0052, 3123.652
587.4874, 3120.294
587.9695, 3119.763
588.4516, 3127.701
588.9337, 3133.418
589.4158, 3132.744
589.8979, 3125.636
590.3801, 3121.963
590.8622, 3122.972
591.3443, 3125.147
591.8264, 3126.148
592.3085, 3125.794
592.7906, 3126.331
593.2728, 3127.847
593.7549, 3129.898
594.2370, 3132.519
594.7191, 3135.325
595.2012, 3136.783
595.6833, 3136.060
596.1655, 3134.729
596.6476, 3134.832
597.1297, 3135.684
597.6118, 3135.711
598.0939, 3132.724
598.5760, 3130.118
599.0582, 3130.132
599.5403, 3132.592
600.0224, 3135.008
600.5045, 3138.544
600.9866, 3140.493
601.4688, 3139.099
601.9509, 3133.056
602.4330, 3129.788
602.9151, 3130.680
603.3972, 3132.459
603.8793, 3131.662
604.3615, 3127.809
604.8436, 3126.276
605.3257, 3127.944
605.8078, 3131.415
606.2899, 3135.256
606.7720, 3139.173
607.2542, 3141.744
607.7363, 3142.051
608.2184, 3141.114
608.7005, 3139.998
609.1826, 3138.627
609.6647, 3136.780
610.1469, 3132.021
610.6290, 3128.654
611.1111, 3130.657
611.5932, 3138.479
612.0753, 3143.787
612.5574, 3143.657
613.0396, 3141.595
613.5217, 3139.452
614.0038, 3136.650
614.4859, 3135.307
614.9680, 3135.852
615.4501, 3137.237
615.9323, 3138.262
616.4144, 3138.882
616.8965, 3139.497
617.3786, 3140.198
617.8607, 3140.811
618.3428, 3141.189
618.8250, 3141.267
619.3071, 3140.810
619.7892, 3139.193
620.2713, 3137.386
620.7534, 3136.677
621.2355, 3136.804
621.7177, 3136.444
622.1998, 3133.443
622.6819, 3131.098
623.1640, 3131.965
623.6461, 3136.991
624.1282, 3140.086
624.6104, 3138.681
625.0925, 3136.875
625.5746, 3137.264
626.0567, 3140.642
626.5388, 3144.198
627.0209, 3148.604
627.5031, 3151.762
627.9852, 3149.214
628.4673, 3141.349
628.9494, 3136.611
629.4315, 3137.476
629.9136, 3141.410
630.3958, 3145.735
630.8779, 3150.041
631.3600, 3153.048
631.8421, 3153.843
632.3242, 3153.394
632.8063, 3151.608
633.2885, 3148.950
633.7706, 3147.608
634.2527, 3150.076
634.7348, 3152.605
635.2169, 3152.952
635.6990, 3150.357
636.1812, 3149.941
636.6633, 3152.902
637.1454, 3156.512
637.6275, 3158.922
638.1096, 3160.067
638.5917, 3160.227
639.0739, 3159.129
639.5560, 3157.793
640.0381, 3157.724
640.5202, 3158.586
641.0023, 3158.895
641.4844, 3158.085
641.9666, 3156.991
642.4487, 3156.183
642.9308, 3155.796
643.4129, 3156.112
643.8950, 3158.233
644.3771, 3160.185
644.8593, 3160.973
645.3414, 3160.789
645.8235, 3160.693
646.3056, 3161.242
646.7877, 3161.534
647.2698, 3161.178
647.7520, 3160.138
648.2341, 3159.216
648.7162, 3158.082
649.1983, 3157.889
649.6804, 3160.385
650.1625, 3165.071
650.6447, 3166.863
651.1268, 3165.179
651.6089, 3163.021
652.0910, 3163.590
652.5731, 3165.834
653.0552, 3167.894
653.5374, 3169.168
654.0195, 3170.585
654.5016, 3172.802
654.9837, 3175.583
655.4658, 3178.579
655.9479, 3182.769
656.4301, 3186.004
656.9122, 3187.058
657.3943, 3186.938
657.8764, 3188.368
658.3585, 3191.812
658.8406, 3195.696
659.3228, 3199.742
659.8049, 3203.747
660.2870, 3206.279
660.7691, 3207.202
661.2512, 3208.427
661.7333, 3211.767
662.2155, 3215.974
662.6976, 3218.670
663.1797, 3219.755
663.6618, 3220.103
664.1439, 3219.721
664.6260, 3219.246
665.1082, 3219.404
665.5903, 3220.687
666.0724, 3221.516
666.5545, 3221.009
667.0366, 3220.339
667.5187, 3220.694
668.0009, 3223.250
668.4830, 3224.519
668.9651, 3223.734
669.4472, 3222.394
669.9293, 3222.905
670.4114, 3225.300
670.8936, 3228.288
671.3757, 3232.006
671.8578, 3235.365
672.3399, 3235.808
672.8220, 3234.192
673.3041, 3233.513
673.7863, 3235.040
674.2684, 3238.118
674.7505, 3243.258
675.2326, 3249.862
675.7147, 3255.076
676.1968, 3258.069
676.6790, 3259.449
677.1611, 3259.014
677.6432, 3256.710
678.1253, 3254.729
678.6074, 3252.790
679.0895, 3251.753
679.5717, 3252.714
680.0538, 3255.689
680.5359, 3256.866
681.0180, 3255.945
681.5001, 3255.060
681.9822, 3256.607
682.4644, 3259.684
682.9465, 3262.662
683.4286, 3265.512
683.9107, 3267.223
684.3928, 3266.308
684.8749, 3264.164
685.3571, 3262.490
685.8392, 3263.531
686.3213, 3262.831
686.8034, 3257.863
687.2855, 3251.344
687.7676, 3247.737
688.2498, 3248.417
688.7319, 3248.550
689.2140, 3247.073
689.6961, 3244.564
690.1782, 3242.168
690.6603, 3239.955
691.1425, 3238.927
691.6246, 3240.120
692.1067, 3242.410
692.5888, 3244.647
693.0709, 3246.593
693.5530, 3247.192
694.0352, 3244.947
694.5173, 3241.848
694.9994, 3238.821
695.4815, 3235.901
695.9636, 3233.568
696.4457, 3230.773
696.9279, 3229.638
697.4100, 3231.870
697.8921, 3238.423
698.3742, 3241.406
698.8563, 3240.010
699.3384, 3237.514
699.8206, 3236.992
700.3027, 3237.960
700.7848, 3238.055
701.2669, 3236.997
701.7490, 3235.428
702.2311, 3233.510
702.7133, 3231.647
703.1954, 3230.497
703.6775, 3230.708
704.1596, 3230.664
704.6417, 3229.207
705.1238, 3227.323
705.6060, 3226.421
706.0881, 3227.019
706.5702, 3227.844
707.0523, 3228.879
707.5344, 3229.999
708.0165, 3230.973
708.4987, 3231.803
708.9808, 3232.375
709.4629, 3232.655
709.9450, 3232.653
710.4271, 3232.503
710.9092, 3232.120
711.3914, 3231.187
711.8735, 3228.666
712.3556, 3226.299
712.8377, 3225.540
713.3198, 3226.108
713.8019, 3226.515
714.2841, 3226.598
714.7662, 3226.185
715.2483, 3224.686
715.7304, 3222.206
716.2125, 3222.259
716.6946, 3225.941
717.1768, 3229.160
717.6589, 3229.149
718.1410, 3226.370
718.6231, 3223.923
719.1052, 3221.760
719.5873, 3221.072
720.0695, 3224.327
720.5516, 3228.858
721.0337, 3230.961
721.5158, 3229.898
721.9979, 3228.993
722.4800, 3230.014
722.9622, 3231.668
723.4443, 3232.958
723.9264, 3233.789
724.4085, 3234.177
724.8906, 3234.031
725.3727, 3233.532
725.8549, 3232.466
726.3370, 3230.666
726.8191, 3230.768
727.3012, 3233.385
727.7833, 3236.758
728.2654, 3238.916
728.7476, 3240.003
729.2297, 3240.240
729.7118, 3239.243
730.1939, 3238.376
730.6760, 3239.286
731.1581, 3240.755
731.6403, 3240.917
732.1224, 3237.120
732.6045, 3234.824
733.0866, 3235.621
733.5687, 3238.085
734.0508, 3239.131
734.5330, 3238.406
735.0151, 3237.868
735.4972, 3238.055
735.9793, 3238.754
736.4614, 3239.899
736.9435, 3241.271
737.4257, 3241.711
737.9078, 3238.656
738.3899, 3235.935
738.8720, 3238.259
739.3541, 3244.137
739.8362, 3248.323
740.3184, 3247.133
740.8005, 3245.660
741.2826, 3246.309
741.7647, 3248.669
742.2468, 3248.840
742.7289, 3245.330
743.2111, 3243.378
743.6932, 3246.479
744.1753, 3253.327
744.6574, 3256.200
745.1395, 3255.165
745.6216, 3253.052
746.1038, 3250.918
746.5859, 3249.370
747.0680, 3249.659
747.5501, 3251.749
748.0322, 3253.381
748.5143, 3253.279
748.9965, 3252.613
749.4786, 3251.954
749.9607, 3251.242
750.4428, 3251.121
750.9249, 3251.924
751.4070, 3252.729
751.8892, 3252.701
752.3713, 3251.863
752.8534, 3252.067
753.3355, 3253.520
753.8176, 3254.569
754.2997, 3252.994
754.7819, 3250.268
755.2640, 3248.585
755.7461, 3248.348
756.2282, 3248.930
756.7103, 3250.515
757.1924, 3252.504
757.6746, 3254.372
758.1567, 3255.990
758.6388, 3257.623
759.1209, 3259.259
759.6030, 3260.906
760.0851, 3262.892
760.5673, 3265.262
761.0494, 3265.804
761.5315, 3263.954
762.0136, 3261.433
762.4957, 3259.415
762.9778, 3258.371
763.4600, 3259.504
763.9421, 3264.007
764.4242, 3268.467
764.9063, 3270.914
765.3884, 3272.306
765.8705, 3273.820
766.3527, 3276.435
766.8348, 3277.974
767.3169, 3277.793
767.7990, 3277.074
768.2811, 3278.199
768.7632, 3281.378
769.2454, 3281.874
769.7275, 3277.995
770.2096, 3272.960
770.6917, 3271.675
771.1738, 3272.699
771.6559, 3272.751
772.1381, 3269.252
772.6202, 3266.460
773.1023, 3266.682
773.5844, 3269.120
774.0665, 3272.485
774.5486, 3278.772
775.0308, 3282.733
775.5129, 3283.101
775.9950, 3281.247
776.4771, 3279.983
776.9592, 3279.336
777.4413, 3279.198
777.9235, 3280.026
778.4056, 3280.604
778.8877, 3277.580
779.3698, 3272.742
779.8519, 3270.672
780.3340, 3276.262
780.8162, 3282.181
781.2983, 3285.134
781.7804, 3285.821
782.2625, 3286.123
782.7446, 3285.872
783.2267, 3285.727
783.7089, 3285.695
784.1910, 3285.885
784.6731, 3287.017
785.1552, 3289.070
785.6373, 3290.032
786.1194, 3287.774
786.6016, 3285.489
787.0837, 3289.133
787.5658, 3296.728
788.0479, 3302.800
788.5300, 3304.668
789.0121, 3304.449
789.4943, 3301.351
789.9764, 3296.595
790.4585, 3295.019
790.9406, 3298.832
791.4227, 3301.519
791.9048, 3300.729
792.3870, 3297.866
792.8691, 3297.690
793.3512, 3300.040
793.8333, 3302.434
794.3154, 3304.177
794.7975, 3304.983
795.2797, 3304.225
795.7618, 3302.198
796.2439, 3299.846
796.7260, 3296.105
797.2081, 3293.668
797.6902, 3294.625
798.1724, 3297.960
798.6545, 3299.608
799.1366, 3298.880
799.6187, 3298.331
800.1008, 3298.935
800.5829, 3300.209
801.0651, 3300.173
801.5472, 3299.163
802.0293, 3299.464
802.5114, 3303.936
802.9935, 3308.934
803.4756, 3311.054
803.9578, 3310.825
804.4399, 3310.081
804.9220, 3307.805
805.4041, 3306.822
805.8862, 3308.272
806.3683, 3311.591
806.8505, 3314.777
807.3326, 3318.083
807.8147, 3320.010
808.2968, 3319.765
808.7789, 3318.015
809.2610, 3315.466
809.7432, 3312.541
810.2253, 3310.927
810.7074, 3313.793
811.1895, 3316.183
811.6716, 3313.509
812.1537, 3307.514
812.6359, 3304.772
813.1180, 3309.874
813.6001, 3313.310
814.0822, 3312.190
814.5643, 3308.110
815.0464, 3306.944
815.5286, 3308.740
816.0107, 3311.012
816.4928, 3312.880
816.9749, 3314.520
817.4570, 3316.839
817.9391, 3319.190
818.4213, 3319.779
818.9034, 3315.122
819.3855, 3311.260
819.8676, 3310.607
820.3497, 3312.763
820.8318, 3316.258
821.3140, 3322.150
821.7961, 3326.647
822.2782, 3328.506
822.7603, 3328.631
823.2424, 3329.472
823.7245, 3330.803
824.2067, 3331.240
824.6888, 3330.192
825.1709, 3328.083
825.6530, 3324.118
826.1351, 3319.476
826.6172, 3316.870
827.0994, 3319.560
827.5815, 3321.350
828.0636, 3320.622
828.5457, 3318.537
829.0278, 3317.410
829.5099, 3317.361
829.9921, 3317.750
830.4742, 3318.476
830.9563, 3319.497
831.4384, 3320.893
831.9205, 3322.531
832.4026, 3324.072
832.8848, 3325.357
833.3669, 3326.542
833.8490, 3327.690
834.3311, 3328.743
834.8132, 3329.522
835.2953, 3329.063
835.7775, 3330.301
836.2596, 3334.598
836.7417, 3339.230
837.2238, 3338.753
837.7059, 3333.862
838.1880, 3331.454
838.6702, 3333.737
839.1523, 3336.810
839.6344, 3336.233
840.1165, 3334.084
840.5986, 3333.344
841.0807, 3335.531
841.5629, 3338.063
842.0450, 3340.965
842.5271, 3343.626
843.0092, 3345.524
843.4913, 3346.758
843.9734, 3346.511
844.4556, 3344.476
844.9377, 3341.869
845.4198, 3339.884
845.9019, 3338.477
846.3840, 3337.503
846.8661, 3336.944
847.3483, 3336.864
847.8304, 3338.033
848.3125, 3339.280
848.7946, 3339.374
849.2767, 3337.322
849.7589, 3336.568
850.2410, 3337.201
850.7231, 3338.930
851.2052, 3342.209
851.6873, 3346.558
852.1694, 3348.736
852.6516, 3348.423
853.1337, 3348.021
853.6158, 3349.935
854.0979, 3352.403
854.5800, 3353.451
855.0621, 3352.577
855.5443, 3352.674
856.0264, 3355.810
856.5085, 3358.527
856.9906, 3359.156
857.4727, 3357.735
857.9548, 3355.528
858.4370, 3352.464
858.9191, 3349.769
859.4012, 3348.008
859.8833, 3347.324
860.3654, 3348.773
860.8475, 3352.002
861.3297, 3353.975
861.8118, 3351.845
862.2939, 3349.529
862.7760, 3348.453
863.2581, 3348.677
863.7402, 3351.600
864.2224, 3358.440
864.7045, 3363.563
865.1866, 3363.760
865.6687, 3361.174
866.1508, 3361.575
866.6329, 3364.251
867.1151, 3366.185
867.5972, 3364.949
868.0793, 3363.271
868.5614, 3362.888
869.0435, 3363.343
869.5256, 3363.073
870.0078, 3360.423
870.4899, 3359.869
870.9720, 3362.751
871.4541, 3367.692
871.9362, 3372.690
872.4183, 3377.430
872.9005, 3378.998
873.3826, 3375.441
873.8647, 3370.706
874.3468, 3368.415
874.8289, 3367.534
875.3110, 3366.521
875.7932, 3363.825
876.2753, 3362.643
876.7574, 3364.106
877.2395, 3366.311
877.7216, 3366.790
878.2037, 3365.396
878.6859, 3365.218
879.1680, 3367.016
879.6501, 3368.003
880.1322, 3362.210
880.6143, 3354.841
881.0964, 3354.541
881.5786, 3364.703
882.0607, 3373.439
882.5428, 3376.457
883.0249, 3376.591
883.5070, 3375.419
883.9891, 3372.428
884.4713, 3371.485
884.9534, 3372.915
885.4355, 3374.650
885.9176, 3374.590
886.3997, 3373.772
886.8818, 3374.672
887.3640, 3377.199
887.8461, 3379.263
888.3282, 3379.022
888.8103, 3378.571
889.2924, 3378.961
889.7745, 3380.202
890.2567, 3382.421
890.7388, 3386.626
891.2209, 3388.627
891.7030, 3385.830
892.1851, 3380.255
892.6672, 3376.747
893.1494, 3375.091
893.6315, 3374.344
894.1136, 3374.575
894.5957, 3375.039
895.0778, 3374.967
895.5599, 3374.843
896.0421, 3376.114
896.5242, 3380.683
897.0063, 3382.509
897.4884, 3379.513
897.9705, 3374.903
898.4526, 3375.528
898.9348, 3380.055
899.4169, 3381.825
899.8990, 3378.111
900.3811, 3374.571
900.8632, 3376.524
901.3453, 3380.773
901.8275, 3383.659
902.3096, 3383.515
902.7917, 3383.548
903.2738, 3383.731
903.7559, 3384.116
904.2380, 3384.888
904.7202, 3385.958
905.2023, 3386.648
905.6844, 3386.900
906.1665, 3386.608
906.6486, 3385.383
907.1307, 3383.778
907.6129, 3382.130
908.0950, 3380.477
908.5771, 3379.448
909.0592, 3379.142
909.5413, 3379.543
910.0234, 3380.927
910.5056, 3383.089
910.9877, 3384.997
911.4698, 3386.608
911.9519, 3386.808
912.4340, 3382.671
912.9161, 3378.631
913.3983, 3380.076
913.8804, 3385.337
914.3625, 3389.780
914.8446, 3392.914
915.3267, 3393.777
915.8088, 3390.880
916.2910, 3386.601
916.7731, 3386.360
917.2552, 3390.019
917.7373, 3391.906
918.2194, 3390.273
918.7015, 3388.013
919.1837, 3388.196
919.6658, 3389.777
920.1479, 3391.395
920.6300, 3392.950
921.1121, 3394.095
921.5942, 3394.816
922.0764, 3395.188
922.5585, 3395.035
923.0406, 3394.318
923.5227, 3394.621
924.0048, 3396.021
924.4869, 3397.871
924.9691, 3400.583
925.4512, 3402.859
925.9333, 3402.589
926.4154, 3399.802
926.8975, 3397.890
927.3796, 3398.021
927.8618, 3398.938
928.3439, 3400.573
928.8260, 3402.620
929.3081, 3403.250
929.7902, 3402.497
930.2723, 3402.473
930.7545, 3404.759
931.2366, 3407.508
931.7187, 3409.209
932.2008, 3409.685
932.6829, 3408.557
933.1650, 3403.934
933.6472, 3400.075
934.1293, 3397.286
934.6114, 3395.797
935.0935, 3397.104
935.5756, 3401.165
936.0577, 3400.538
936.5399, 3393.522
937.0220, 3386.456
937.5041, 3386.164
937.9862, 3389.096
938.4683, 3391.415
938.9504, 3392.524
939.4326, 3392.743
939.9147, 3390.880
940.3968, 3389.756
940.8789, 3391.578
941.3610, 3395.900
941.8431, 3396.169
942.3253, 3392.552
942.8074, 3389.985
943.2895, 3394.129
943.7716, 3398.726
944.2537, 3395.512
944.7358, 3387.405
945.2180, 3385.450
945.7001, 3397.518
946.1822, 3408.844
946.6643, 3418.574
947.1464, 3424.907
947.6285, 3422.000
948.1107, 3411.206
948.5928, 3402.744
949.0749, 3399.343
949.5570, 3398.373
950.0391, 3398.241
950.5212, 3398.871
951.0034, 3400.295
951.4855, 3403.297
951.9676, 3405.065
952.4497, 3404.735
952.9318, 3404.560
953.4139, 3406.903
953.8961, 3411.078
954.3782, 3413.128
954.8603, 3413.004
955.3424, 3411.748
955.8245, 3408.302
956.3066, 3405.481
956.7888, 3405.832
957.2709, 3408.989
957.7530, 3411.240
958.2351, 3412.514
958.7172, 3412.693
959.1993, 3411.382
959.6815, 3409.491
960.1636, 3408.686
960.6457, 3408.958
961.1278, 3410.389
961.6099, 3413.663
962.0920, 3416.813
962.5742, 3419.552
963.0563, 3421.111
963.5384, 3420.187
964.0205, 3414.567
964.5026, 3413.403
964.9847, 3417.731
965.4669, 3423.020
965.9490, 3424.287
966.4311, 3423.733
966.9132, 3427.512
967.3953, 3435.391
967.8774, 3439.844
968.3596, 3432.122
968.8417, 3425.031
969.3238, 3425.927
969.8059, 3432.767
970.2880, 3436.002
970.7701, 3435.180
971.2523, 3434.707
971.7344, 3436.179
972.2165, 3438.494
972.6986, 3440.751
973.1807, 3442.533
973.6628, 3442.962
974.1450, 3439.891
974.6271, 3438.575
975.1092, 3441.644
975.5913, 3445.294
976.0734, 3445.549
976.5555, 3442.326
977.0377, 3441.251
977.5198, 3442.677
978.0019, 3445.471
978.4840, 3450.838
978.9661, 3455.727
979.4482, 3455.809
979.9304, 3451.310
980.4125, 3450.176
980.8946, 3456.866
981.3767, 3461.818
981.8588, 3461.981
982.3409, 3458.786
982.8231, 3455.086
983.3052, 3451.323
983.7873, 3450.157
984.2694, 3453.762
984.7515, 3457.758
985.2336, 3458.689
985.7158, 3458.325
986.1979, 3458.953
986.6800, 3460.666
987.1621, 3463.882
987.6442, 3469.547
988.1263, 3473.989
988.6085, 3472.104
989.0906, 3466.858
989.5727, 3466.000
990.0548, 3469.544
990.5369, 3473.102
991.0190, 3474.615
991.5012, 3475.425
991.9833, 3475.907
992.4654, 3476.255
992.9475, 3477.203
993.4296, 3478.875
993.9117, 3479.958
994.3939, 3479.785
994.8760, 3479.505
995.3581, 3481.467
995.8402, 3484.114
996.3223, 3484.726
996.8044, 3480.694
997.2866, 3478.927
997.7687, 3481.714
998.2508, 3485.331
998.7329, 3486.753
999.2150, 3486.113
999.6971, 3487.091
1000.179, 3489.656
1000.661, 3492.207
1001.143, 3493.629
1001.626, 3494.627
1002.108, 3495.720
1002.590, 3496.894
1003.072, 3497.944
1003.554, 3498.621
1004.036, 3499.679
1004.518, 3501.146
1005.000, 3503.258
1005.483, 3506.671
1005.965, 3511.011
1006.447, 3515.199
1006.929, 3518.907
1007.411, 3522.695
1007.893, 3527.276
1008.375, 3531.702
1008.857, 3535.816
1009.339, 3539.884
1009.822, 3538.626
1010.304, 3531.316
1010.786, 3526.706
1011.268, 3533.549
1011.750, 3544.012
1012.232, 3548.257
1012.714, 3547.788
1013.196, 3547.156
1013.679, 3546.624
1014.161, 3547.613
1014.643, 3550.684
1015.125, 3554.794
1015.607, 3559.097
1016.089, 3563.270
1016.571, 3565.028
1017.053, 3563.849
1017.535, 3562.427
1018.018, 3563.699
1018.500, 3564.927
1018.982, 3563.120
1019.464, 3558.078
1019.946, 3556.903
1020.428, 3561.094
1020.910, 3563.548
1021.392, 3559.736
1021.875, 3553.968
1022.357, 3556.000
1022.839, 3562.624
1023.321, 3566.259
1023.803, 3560.259
1024.285, 3556.481
1024.767, 3559.836
1025.249, 3564.791
1025.731, 3566.142
1026.214, 3563.856
1026.696, 3560.791
1027.178, 3557.007
1027.660, 3554.874
1028.142, 3558.022
1028.624, 3562.230
1029.106, 3563.628
1029.588, 3562.426
1030.071, 3561.875
1030.553, 3562.279
1031.035, 3563.293
1031.517, 3565.170
1031.999, 3567.057
1032.481, 3566.340
1032.963, 3564.511
1033.445, 3565.842
1033.927, 3572.423
1034.410, 3578.184
1034.892, 3578.398
1035.374, 3578.507
1035.856, 3582.827
1036.338, 3591.528
1036.820, 3595.928
1037.302, 3595.877
1037.784, 3596.208
1038.266, 3599.950
1038.749, 3605.398
1039.231, 3611.625
1039.713, 3618.143
1040.195, 3623.587
1040.677, 3626.675
1041.159, 3630.514
1041.641, 3635.374
1042.123, 3641.134
1042.605, 3647.277
1043.088, 3654.278
1043.570, 3664.064
1044.052, 3676.826
1044.534, 3688.632
1045.016, 3695.276
1045.498, 3702.575
1045.980, 3714.291
1046.462, 3729.136
1046.945, 3740.846
1047.427, 3749.417
1047.909, 3758.257
1048.391, 3768.287
1048.873, 3779.319
1049.355, 3791.238
1049.837, 3804.101
1050.319, 3818.211
1050.802, 3834.878
1051.284, 3849.770
1051.766, 3862.259
1052.248, 3873.882
1052.730, 3884.246
1053.212, 3894.644
1053.694, 3911.265
1054.176, 3932.321
1054.658, 3949.643
1055.141, 3957.344
1055.623, 3962.657
1056.105, 3968.927
1056.587, 3973.984
1057.069, 3974.880
1057.551, 3971.632
1058.033, 3962.760
1058.515, 3947.797
1058.998, 3929.312
1059.480, 3907.908
1059.962, 3885.148
1060.444, 3862.676
1060.926, 3840.792
1061.408, 3816.581
1061.890, 3788.455
1062.372, 3762.152
1062.854, 3739.944
1063.337, 3720.528
1063.819, 3701.803
1064.301, 3684.299
1064.783, 3669.592
1065.265, 3659.209
1065.747, 3648.970
1066.229, 3637.829
1066.711, 3626.020
1067.193, 3612.351
1067.676, 3597.262
1068.158, 3588.961
1068.640, 3586.992
1069.122, 3585.219
1069.604, 3579.277
1070.086, 3572.796
1070.568, 3567.538
1071.050, 3563.594
1071.532, 3561.039
1072.015, 3560.064
1072.497, 3560.135
1072.979, 3561.754
1073.461, 3562.067
1073.943, 3556.303
1074.425, 3548.319
1074.907, 3543.164
1075.389, 3541.320
1075.872, 3541.398
1076.354, 3545.819
1076.836, 3547.903
1077.318, 3544.598
1077.800, 3539.081
1078.282, 3539.298
1078.764, 3543.588
1079.246, 3545.745
1079.729, 3543.698
1080.211, 3540.934
1080.693, 3538.040
1081.175, 3536.284
1081.657, 3536.580
1082.139, 3538.911
1082.621, 3543.048
1083.103, 3549.101
1083.585, 3552.486
1084.068, 3548.038
1084.550, 3542.714
1085.032, 3544.525
1085.514, 3549.912
1085.996, 3552.308
1086.478, 3549.073
1086.960, 3547.309
1087.442, 3547.846
1087.925, 3547.958
1088.407, 3544.425
1088.889, 3539.002
1089.371, 3533.850
1089.853, 3529.506
1090.335, 3528.307
1090.817, 3534.806
1091.299, 3539.911
1091.781, 3541.293
1092.264, 3540.450
1092.746, 3539.943
1093.228, 3539.623
1093.710, 3538.425
1094.192, 3535.966
1094.674, 3534.516
1095.156, 3536.851
1095.638, 3539.475
1096.120, 3539.823
1096.603, 3538.193
1097.085, 3536.573
1097.567, 3534.854
1098.049, 3535.290
1098.531, 3539.503
1099.013, 3544.462
1099.495, 3547.560
1099.977, 3549.262
1100.459, 3550.058
1100.942, 3549.547
1101.424, 3549.944
1101.906, 3551.853
1102.388, 3552.772
1102.870, 3550.398
1103.352, 3546.339
1103.834, 3543.013
1104.316, 3540.604
1104.799, 3539.706
1105.281, 3541.908
1105.763, 3543.694
1106.245, 3544.282
1106.727, 3544.778
1107.209, 3547.181
1107.691, 3550.620
1108.173, 3550.421
1108.656, 3546.649
1109.138, 3543.977
1109.620, 3546.421
1110.102, 3549.088
1110.584, 3549.823
1111.066, 3549.157
1111.548, 3547.001
1112.030, 3543.438
1112.512, 3546.071
1112.995, 3557.428
1113.477, 3567.073
1113.959, 3563.377
1114.441, 3555.926
1114.923, 3552.612
1115.405, 3553.809
1115.887, 3555.552
1116.369, 3557.644
1116.852, 3562.102
1117.334, 3571.819
1117.816, 3579.715
1118.298, 3573.165
1118.780, 3560.041
1119.262, 3551.779
1119.744, 3552.254
1120.226, 3553.691
1120.708, 3556.446
1121.191, 3558.537
1121.673, 3558.468
1122.155, 3557.132
1122.637, 3555.567
1123.119, 3554.532
1123.601, 3556.100
1124.083, 3566.269
1124.565, 3571.547
1125.047, 3567.992
1125.530, 3561.771
1126.012, 3557.729
1126.494, 3555.879
1126.976, 3556.821
1127.458, 3560.331
1127.940, 3564.486
1128.422, 3568.759
1128.904, 3572.804
1129.386, 3577.124
1129.869, 3580.716
1130.351, 3581.169
1130.833, 3578.553
1131.315, 3578.687
1131.797, 3582.438
1132.279, 3585.095
1132.761, 3580.597
1133.243, 3575.652
1133.726, 3575.516
1134.208, 3579.482
1134.690, 3583.480
1135.172, 3587.756
1135.654, 3590.126
1136.136, 3589.839
1136.618, 3588.546
1137.100, 3588.188
1137.583, 3587.796
1138.065, 3585.637
1138.547, 3581.029
1139.029, 3580.479
1139.511, 3585.500
1139.993, 3589.690
1140.475, 3590.366
1140.957, 3589.105
1141.439, 3587.254
1141.922, 3585.617
1142.404, 3585.668
1142.886, 3588.437
1143.368, 3591.185
1143.850, 3593.867
1144.332, 3595.952
1144.814, 3596.964
1145.296, 3597.164
1145.779, 3597.534
1146.261, 3597.704
1146.743, 3596.615
1147.225, 3591.618
1147.707, 3588.586
1148.189, 3588.883
1148.671, 3590.518
1149.153, 3591.879
1149.635, 3593.075
1150.118, 3595.302
1150.600, 3598.208
1151.082, 3599.206
1151.564, 3595.928
1152.046, 3591.738
1152.528, 3586.082
1153.010, 3581.627
1153.492, 3583.828
1153.974, 3591.716
1154.457, 3592.990
1154.939, 3586.661
1155.421, 3580.905
1155.903, 3580.115
1156.385, 3582.637
1156.867, 3590.088
1157.349, 3599.444
1157.831, 3603.630
1158.313, 3602.535
1158.796, 3602.069
1159.278, 3603.224
1159.760, 3604.832
1160.242, 3606.510
1160.724, 3607.729
1161.206, 3607.471
1161.688, 3606.137
1162.170, 3606.954
1162.653, 3610.226
1163.135, 3612.219
1163.617, 3611.309
1164.099, 3610.777
1164.581, 3615.671
1165.063, 3621.745
1165.545, 3623.870
1166.027, 3621.042
1166.510, 3620.745
1166.992, 3623.483
1167.474, 3625.841
1167.956, 3626.426
1168.438, 3625.941
1168.920, 3624.583
1169.402, 3623.073
1169.884, 3622.395
1170.366, 3622.774
1170.849, 3624.538
1171.331, 3628.563
1171.813, 3630.912
1172.295, 3627.556
1172.777, 3623.000
1173.259, 3626.444
1173.741, 3633.872
1174.223, 3637.164
1174.706, 3629.579
1175.188, 3626.189
1175.670, 3628.386
1176.152, 3631.506
1176.634, 3631.538
1177.116, 3630.264
1177.598, 3632.028
1178.080, 3635.582
1178.563, 3637.160
1179.045, 3632.665
1179.527, 3630.609
1180.009, 3632.496
1180.491, 3635.122
1180.973, 3635.109
1181.455, 3633.657
1181.937, 3633.968
1182.419, 3635.646
1182.901, 3636.076
1183.384, 3631.956
1183.866, 3630.068
1184.348, 3632.178
1184.830, 3635.747
1185.312, 3638.065
1185.794, 3639.214
1186.276, 3638.609
1186.758, 3636.503
1187.240, 3635.962
1187.723, 3639.494
1188.205, 3643.196
1188.687, 3646.363
1189.169, 3648.720
1189.651, 3649.613
1190.133, 3649.312
1190.615, 3648.172
1191.097, 3646.207
1191.580, 3645.935
1192.062, 3649.336
1192.544, 3653.748
1193.026, 3658.936
1193.508, 3663.925
1193.990, 3667.052
1194.472, 3668.201
1194.954, 3666.183
1195.437, 3660.432
1195.919, 3655.541
1196.401, 3653.515
1196.883, 3653.207
1197.365, 3654.837
1197.847, 3657.352
1198.329, 3657.573
1198.811, 3655.910
1199.293, 3653.600
1199.776, 3650.489
1200.258, 3648.785
1200.740, 3649.707
1201.222, 3652.273
1201.704, 3656.959
1202.186, 3662.422
1202.668, 3661.777
1203.150, 3656.827
1203.633, 3655.281
1204.115, 3661.074
1204.597, 3666.190
1205.079, 3666.064
1205.561, 3664.933
1206.043, 3664.454
1206.525, 3665.115
1207.007, 3671.913
1207.490, 3682.767
1207.972, 3688.191
1208.454, 3681.597
1208.936, 3674.693
1209.418, 3672.448
1209.900, 3671.592
1210.382, 3669.954
1210.864, 3667.811
1211.346, 3666.469
1211.828, 3666.354
1212.311, 3669.842
1212.793, 3682.506
1213.275, 3692.080
1213.757, 3692.128
1214.239, 3689.290
1214.721, 3687.945
1215.203, 3687.926
1215.685, 3688.142
1216.167, 3688.473
1216.650, 3688.257
1217.132, 3685.706
1217.614, 3684.546
1218.096, 3687.175
1218.578, 3690.342
1219.060, 3691.039
1219.542, 3689.670
1220.024, 3689.118
1220.507, 3689.231
1220.989, 3688.798
1221.471, 3685.434
1221.953, 3683.952
1222.435, 3686.874
1222.917, 3690.796
1223.399, 3692.307
1223.881, 3691.790
1224.364, 3690.200
1224.846, 3688.042
1225.328, 3688.098
1225.810, 3694.844
1226.292, 3699.708
1226.774, 3700.185
1227.256, 3698.690
1227.738, 3697.155
1228.220, 3696.075
1228.703, 3697.995
1229.185, 3702.520
1229.667, 3706.191
1230.149, 3707.319
1230.631, 3707.237
1231.113, 3705.318
1231.595, 3703.810
1232.077, 3706.320
1232.560, 3711.371
1233.042, 3715.444
1233.524, 3718.125
1234.006, 3718.564
1234.488, 3712.898
1234.970, 3710.087
1235.452, 3712.908
1235.934, 3717.214
1236.417, 3717.545
1236.899, 3715.126
1237.381, 3712.034
1237.863, 3708.679
1238.345, 3706.433
1238.827, 3706.702
1239.309, 3706.854
1239.791, 3706.376
1240.273, 3705.979
1240.755, 3706.817
1241.238, 3708.352
1241.720, 3709.794
1242.202, 3711.017
1242.684, 3711.297
1243.166, 3709.406
1243.648, 3708.831
1244.130, 3710.269
1244.612, 3712.968
1245.094, 3716.821
1245.577, 3720.807
1246.059, 3723.376
1246.541, 3724.422
1247.023, 3724.460
1247.505, 3722.428
1247.987, 3722.851
1248.469, 3727.144
1248.951, 3732.352
1249.434, 3735.559
1249.916, 3736.965
1250.398, 3735.851
1250.880, 3732.548
1251.362, 3731.673
1251.844, 3733.389
1252.326, 3738.399
1252.808, 3748.162
1253.291, 3755.792
1253.773, 3750.566
1254.255, 3742.048
1254.737, 3739.965
1255.219, 3744.398
1255.701, 3747.984
1256.183, 3750.920
1256.665, 3750.962
1257.147, 3747.201
1257.630, 3742.717
1258.112, 3738.208
1258.594, 3736.010
1259.076, 3740.140
1259.558, 3748.536
1260.040, 3752.089
1260.522, 3750.845
1261.004, 3751.119
1261.487, 3754.470
1261.969, 3758.203
1262.451, 3760.835
1262.933, 3762.522
1263.415, 3762.749
1263.897, 3762.329
1264.379, 3765.228
1264.861, 3770.538
1265.344, 3770.699
1265.826, 3763.416
1266.308, 3756.466
1266.790, 3753.430
1267.272, 3753.293
1267.754, 3756.173
1268.236, 3760.720
1268.718, 3763.050
1269.200, 3763.983
1269.682, 3766.773
1270.165, 3772.341
1270.647, 3776.876
1271.129, 3778.183
1271.611, 3778.823
1272.093, 3779.560
1272.575, 3780.190
1273.057, 3780.163
1273.539, 3779.753
1274.021, 3779.575
1274.504, 3779.731
1274.986, 3779.912
1275.468, 3779.833
1275.950, 3780.237
1276.432, 3781.454
1276.914, 3783.072
1277.396, 3784.560
1277.878, 3786.000
1278.361, 3787.469
1278.843, 3788.988
1279.325, 3791.172
1279.807, 3794.918
1280.289, 3795.620
1280.771, 3791.050
1281.253, 3786.157
1281.735, 3787.010
1282.218, 3790.671
1282.700, 3794.325
1283.182, 3797.688
1283.664, 3800.434
1284.146, 3802.477
1284.628, 3804.512
1285.110, 3806.788
1285.592, 3808.574
1286.074, 3808.052
1286.557, 3807.785
1287.039, 3810.254
1287.521, 3814.602
1288.003, 3817.975
1288.485, 3820.383
1288.967, 3822.309
1289.449, 3823.968
1289.931, 3824.173
1290.414, 3820.553
1290.896, 3817.225
1291.378, 3816.320
1291.860, 3817.064
1292.342, 3817.681
1292.824, 3818.225
1293.306, 3818.575
1293.788, 3818.671
1294.271, 3819.867
1294.753, 3825.530
1295.235, 3828.172
1295.717, 3824.625
1296.199, 3819.023
1296.681, 3818.922
1297.163, 3821.718
1297.645, 3821.840
1298.127, 3818.625
1298.609, 3820.447
1299.092, 3830.908
1299.574, 3837.759
1300.056, 3837.820
1300.538, 3835.156
1301.020, 3834.116
1301.502, 3833.749
1301.984, 3832.927
1302.466, 3831.637
1302.948, 3831.374
1303.431, 3832.402
1303.913, 3833.176
1304.395, 3833.967
##END=



