##NAMES=Stilpnomelane
##RRUFFID=R060334
##IDEAL CHEMISTRY=(K,Ca,Na)(Fe^2+^,Mg,Al,Fe^3+^)_8_(Si,Al)_12_(O,OH)_36_&#183;nH_2_O
##LOCALITY=Blanchard Mountain, Skagit County, Washington, USA
##OWNER=RRUFF
##SOURCE=Michael Scott
##DESCRIPTION=Black platy radiating groups associated with quartz, 180 deg twin around [0 1 2]
##STATUS=The identification of this mineral has been confirmed by single-crystal X-ray diffraction.
##URL=rruff.info/R060334
9.112140e+001, 0.000000e+000
9.160352e+001, 1.886724e+002
9.208563e+001, 1.843963e+002
9.256775e+001, 1.839536e+002
9.304987e+001, 1.896543e+002
9.353198e+001, 1.960555e+002
9.401410e+001, 1.990298e+002
9.449622e+001, 1.991660e+002
9.497833e+001, 1.981446e+002
9.546045e+001, 1.972250e+002
9.594257e+001, 1.963801e+002
9.642468e+001, 1.955152e+002
9.690680e+001, 1.948172e+002
9.738892e+001, 1.941699e+002
9.787103e+001, 1.934730e+002
9.835315e+001, 1.925453e+002
9.883527e+001, 1.914676e+002
9.931738e+001, 1.909155e+002
9.979950e+001, 1.912016e+002
1.002816e+002, 1.911568e+002
1.007637e+002, 1.904573e+002
1.012458e+002, 1.895683e+002
1.017280e+002, 1.888914e+002
1.022101e+002, 1.885139e+002
1.026922e+002, 1.883279e+002
1.031743e+002, 1.881921e+002
1.036564e+002, 1.880882e+002
1.041385e+002, 1.879857e+002
1.046207e+002, 1.876625e+002
1.051028e+002, 1.872662e+002
1.055849e+002, 1.873721e+002
1.060670e+002, 1.884118e+002
1.065491e+002, 1.897373e+002
1.070313e+002, 1.907037e+002
1.075134e+002, 1.912856e+002
1.079955e+002, 1.914936e+002
1.084776e+002, 1.912942e+002
1.089597e+002, 1.906383e+002
1.094418e+002, 1.897494e+002
1.099240e+002, 1.884883e+002
1.104061e+002, 1.871295e+002
1.108882e+002, 1.857757e+002
1.113703e+002, 1.844366e+002
1.118524e+002, 1.833047e+002
1.123345e+002, 1.829687e+002
1.128167e+002, 1.844144e+002
1.132988e+002, 1.853740e+002
1.137809e+002, 1.852380e+002
1.142630e+002, 1.845062e+002
1.147451e+002, 1.838265e+002
1.152272e+002, 1.836158e+002
1.157094e+002, 1.838404e+002
1.161915e+002, 1.839055e+002
1.166736e+002, 1.835816e+002
1.171557e+002, 1.833449e+002
1.176378e+002, 1.833606e+002
1.181199e+002, 1.836084e+002
1.186021e+002, 1.839996e+002
1.190842e+002, 1.845136e+002
1.195663e+002, 1.851484e+002
1.200484e+002, 1.854898e+002
1.205305e+002, 1.850750e+002
1.210126e+002, 1.846450e+002
1.214948e+002, 1.849752e+002
1.219769e+002, 1.862246e+002
1.224590e+002, 1.876344e+002
1.229411e+002, 1.884530e+002
1.234232e+002, 1.888049e+002
1.239053e+002, 1.889245e+002
1.243875e+002, 1.886371e+002
1.248696e+002, 1.881540e+002
1.253517e+002, 1.881580e+002
1.258338e+002, 1.891777e+002
1.263159e+002, 1.900481e+002
1.267980e+002, 1.897867e+002
1.272802e+002, 1.885947e+002
1.277623e+002, 1.874281e+002
1.282444e+002, 1.871753e+002
1.287265e+002, 1.879541e+002
1.292086e+002, 1.884138e+002
1.296907e+002, 1.880488e+002
1.301729e+002, 1.876221e+002
1.306550e+002, 1.875987e+002
1.311371e+002, 1.879786e+002
1.316192e+002, 1.883284e+002
1.321013e+002, 1.880311e+002
1.325834e+002, 1.867725e+002
1.330656e+002, 1.854085e+002
1.335477e+002, 1.835847e+002
1.340298e+002, 1.818898e+002
1.345119e+002, 1.808364e+002
1.349940e+002, 1.805819e+002
1.354761e+002, 1.808370e+002
1.359583e+002, 1.809593e+002
1.364404e+002, 1.811106e+002
1.369225e+002, 1.809050e+002
1.374046e+002, 1.801589e+002
1.378867e+002, 1.790726e+002
1.383688e+002, 1.779076e+002
1.388510e+002, 1.767604e+002
1.393331e+002, 1.756472e+002
1.398152e+002, 1.746356e+002
1.402973e+002, 1.737705e+002
1.407794e+002, 1.729113e+002
1.412615e+002, 1.719643e+002
1.417437e+002, 1.709603e+002
1.422258e+002, 1.700268e+002
1.427079e+002, 1.692728e+002
1.431900e+002, 1.686207e+002
1.436721e+002, 1.678914e+002
1.441542e+002, 1.670389e+002
1.446364e+002, 1.661515e+002
1.451185e+002, 1.653313e+002
1.456006e+002, 1.645972e+002
1.460827e+002, 1.638184e+002
1.465648e+002, 1.627755e+002
1.470469e+002, 1.616945e+002
1.475291e+002, 1.608317e+002
1.480112e+002, 1.603268e+002
1.484933e+002, 1.600406e+002
1.489754e+002, 1.596711e+002
1.494575e+002, 1.592044e+002
1.499396e+002, 1.586607e+002
1.504218e+002, 1.579279e+002
1.509039e+002, 1.571597e+002
1.513860e+002, 1.566163e+002
1.518681e+002, 1.565251e+002
1.523502e+002, 1.567794e+002
1.528323e+002, 1.564580e+002
1.533145e+002, 1.546012e+002
1.537966e+002, 1.530685e+002
1.542787e+002, 1.522992e+002
1.547608e+002, 1.521433e+002
1.552429e+002, 1.522644e+002
1.557250e+002, 1.524394e+002
1.562072e+002, 1.526901e+002
1.566893e+002, 1.526164e+002
1.571714e+002, 1.521391e+002
1.576535e+002, 1.514837e+002
1.581356e+002, 1.505540e+002
1.586177e+002, 1.494605e+002
1.590999e+002, 1.485685e+002
1.595820e+002, 1.482723e+002
1.600641e+002, 1.487058e+002
1.605462e+002, 1.487832e+002
1.610283e+002, 1.480971e+002
1.615104e+002, 1.473486e+002
1.619926e+002, 1.471731e+002
1.624747e+002, 1.476465e+002
1.629568e+002, 1.481853e+002
1.634389e+002, 1.480531e+002
1.639210e+002, 1.472957e+002
1.644031e+002, 1.468840e+002
1.648853e+002, 1.473009e+002
1.653674e+002, 1.480662e+002
1.658495e+002, 1.484749e+002
1.663316e+002, 1.483905e+002
1.668137e+002, 1.480445e+002
1.672958e+002, 1.474989e+002
1.677780e+002, 1.468264e+002
1.682601e+002, 1.463674e+002
1.687422e+002, 1.465065e+002
1.692243e+002, 1.470497e+002
1.697064e+002, 1.471699e+002
1.701885e+002, 1.464858e+002
1.706707e+002, 1.457269e+002
1.711528e+002, 1.453192e+002
1.716349e+002, 1.452403e+002
1.721170e+002, 1.453517e+002
1.725991e+002, 1.456920e+002
1.730812e+002, 1.462895e+002
1.735634e+002, 1.465076e+002
1.740455e+002, 1.459008e+002
1.745276e+002, 1.452083e+002
1.750097e+002, 1.446336e+002
1.754918e+002, 1.442323e+002
1.759739e+002, 1.440463e+002
1.764561e+002, 1.441747e+002
1.769382e+002, 1.447480e+002
1.774203e+002, 1.451978e+002
1.779024e+002, 1.455598e+002
1.783845e+002, 1.457883e+002
1.788666e+002, 1.457846e+002
1.793488e+002, 1.455738e+002
1.798309e+002, 1.453127e+002
1.803130e+002, 1.452312e+002
1.807951e+002, 1.454953e+002
1.812772e+002, 1.455556e+002
1.817593e+002, 1.452730e+002
1.822415e+002, 1.449057e+002
1.827236e+002, 1.446866e+002
1.832057e+002, 1.446569e+002
1.836878e+002, 1.446250e+002
1.841699e+002, 1.442687e+002
1.846520e+002, 1.431975e+002
1.851342e+002, 1.426170e+002
1.856163e+002, 1.429660e+002
1.860984e+002, 1.436425e+002
1.865805e+002, 1.439831e+002
1.870626e+002, 1.437813e+002
1.875447e+002, 1.433417e+002
1.880269e+002, 1.431931e+002
1.885090e+002, 1.434210e+002
1.889911e+002, 1.435381e+002
1.894732e+002, 1.434206e+002
1.899553e+002, 1.431245e+002
1.904374e+002, 1.426877e+002
1.909196e+002, 1.420353e+002
1.914017e+002, 1.414283e+002
1.918838e+002, 1.412518e+002
1.923659e+002, 1.414987e+002
1.928480e+002, 1.418885e+002
1.933301e+002, 1.425462e+002
1.938123e+002, 1.433042e+002
1.942944e+002, 1.434725e+002
1.947765e+002, 1.425266e+002
1.952586e+002, 1.413452e+002
1.957407e+002, 1.409226e+002
1.962228e+002, 1.412725e+002
1.967050e+002, 1.416631e+002
1.971871e+002, 1.416271e+002
1.976692e+002, 1.411724e+002
1.981513e+002, 1.404269e+002
1.986334e+002, 1.388684e+002
1.991155e+002, 1.375112e+002
1.995977e+002, 1.371839e+002
2.000798e+002, 1.378905e+002
2.005619e+002, 1.388028e+002
2.010440e+002, 1.391157e+002
2.015261e+002, 1.387445e+002
2.020082e+002, 1.383455e+002
2.024904e+002, 1.378658e+002
2.029725e+002, 1.374743e+002
2.034546e+002, 1.373707e+002
2.039367e+002, 1.375290e+002
2.044188e+002, 1.376481e+002
2.049009e+002, 1.372439e+002
2.053831e+002, 1.359742e+002
2.058652e+002, 1.352519e+002
2.063473e+002, 1.355219e+002
2.068294e+002, 1.360004e+002
2.073115e+002, 1.362462e+002
2.077936e+002, 1.361888e+002
2.082758e+002, 1.360478e+002
2.087579e+002, 1.361922e+002
2.092400e+002, 1.370459e+002
2.097221e+002, 1.371997e+002
2.102042e+002, 1.360397e+002
2.106863e+002, 1.347333e+002
2.111685e+002, 1.341297e+002
2.116506e+002, 1.343667e+002
2.121327e+002, 1.349272e+002
2.126148e+002, 1.350462e+002
2.130969e+002, 1.343317e+002
2.135790e+002, 1.339994e+002
2.140612e+002, 1.343391e+002
2.145433e+002, 1.348514e+002
2.150254e+002, 1.351949e+002
2.155075e+002, 1.352743e+002
2.159896e+002, 1.351263e+002
2.164717e+002, 1.347611e+002
2.169539e+002, 1.339553e+002
2.174360e+002, 1.335007e+002
2.179181e+002, 1.337309e+002
2.184002e+002, 1.341579e+002
2.188823e+002, 1.342465e+002
2.193644e+002, 1.338644e+002
2.198466e+002, 1.333797e+002
2.203287e+002, 1.333109e+002
2.208108e+002, 1.337279e+002
2.212929e+002, 1.341478e+002
2.217750e+002, 1.345899e+002
2.222571e+002, 1.349707e+002
2.227393e+002, 1.351830e+002
2.232214e+002, 1.352007e+002
2.237035e+002, 1.350746e+002
2.241856e+002, 1.348094e+002
2.246677e+002, 1.344183e+002
2.251498e+002, 1.340463e+002
2.256320e+002, 1.336968e+002
2.261141e+002, 1.333976e+002
2.265962e+002, 1.331907e+002
2.270783e+002, 1.330801e+002
2.275604e+002, 1.330734e+002
2.280425e+002, 1.332505e+002
2.285247e+002, 1.335630e+002
2.290068e+002, 1.338099e+002
2.294889e+002, 1.339267e+002
2.299710e+002, 1.339215e+002
2.304531e+002, 1.337676e+002
2.309352e+002, 1.333644e+002
2.314174e+002, 1.330227e+002
2.318995e+002, 1.329923e+002
2.323816e+002, 1.332036e+002
2.328637e+002, 1.334928e+002
2.333458e+002, 1.339782e+002
2.338279e+002, 1.345009e+002
2.343101e+002, 1.344761e+002
2.347922e+002, 1.335761e+002
2.352743e+002, 1.326456e+002
2.357564e+002, 1.321253e+002
2.362385e+002, 1.319269e+002
2.367206e+002, 1.318806e+002
2.372028e+002, 1.318973e+002
2.376849e+002, 1.319917e+002
2.381670e+002, 1.322761e+002
2.386491e+002, 1.330358e+002
2.391312e+002, 1.335384e+002
2.396133e+002, 1.333457e+002
2.400955e+002, 1.327511e+002
2.405776e+002, 1.322642e+002
2.410597e+002, 1.322455e+002
2.415418e+002, 1.325587e+002
2.420239e+002, 1.325086e+002
2.425060e+002, 1.316680e+002
2.429882e+002, 1.310493e+002
2.434703e+002, 1.309607e+002
2.439524e+002, 1.312538e+002
2.444345e+002, 1.317763e+002
2.449166e+002, 1.325156e+002
2.453987e+002, 1.333318e+002
2.458809e+002, 1.335211e+002
2.463630e+002, 1.325055e+002
2.468451e+002, 1.315634e+002
2.473272e+002, 1.308830e+002
2.478093e+002, 1.304439e+002
2.482914e+002, 1.302721e+002
2.487736e+002, 1.304070e+002
2.492557e+002, 1.307160e+002
2.497378e+002, 1.306360e+002
2.502199e+002, 1.294717e+002
2.507020e+002, 1.287908e+002
2.511841e+002, 1.291683e+002
2.516663e+002, 1.300067e+002
2.521484e+002, 1.306002e+002
2.526305e+002, 1.306083e+002
2.531126e+002, 1.301916e+002
2.535947e+002, 1.298521e+002
2.540768e+002, 1.296624e+002
2.545590e+002, 1.294755e+002
2.550411e+002, 1.292216e+002
2.555232e+002, 1.289887e+002
2.560053e+002, 1.289074e+002
2.564874e+002, 1.290321e+002
2.569695e+002, 1.292543e+002
2.574517e+002, 1.293116e+002
2.579338e+002, 1.290612e+002
2.584159e+002, 1.287965e+002
2.588980e+002, 1.284691e+002
2.593801e+002, 1.281490e+002
2.598622e+002, 1.278963e+002
2.603444e+002, 1.277330e+002
2.608265e+002, 1.276597e+002
2.613086e+002, 1.276825e+002
2.617907e+002, 1.279021e+002
2.622728e+002, 1.280623e+002
2.627549e+002, 1.280655e+002
2.632371e+002, 1.280534e+002
2.637192e+002, 1.281496e+002
2.642013e+002, 1.283896e+002
2.646834e+002, 1.287690e+002
2.651655e+002, 1.293224e+002
2.656476e+002, 1.302591e+002
2.661298e+002, 1.308109e+002
2.666119e+002, 1.305675e+002
2.670940e+002, 1.301534e+002
2.675761e+002, 1.302184e+002
2.680582e+002, 1.308769e+002
2.685403e+002, 1.316643e+002
2.690225e+002, 1.320198e+002
2.695046e+002, 1.318052e+002
2.699867e+002, 1.317558e+002
2.704688e+002, 1.319712e+002
2.709509e+002, 1.323067e+002
2.714330e+002, 1.327815e+002
2.719152e+002, 1.333657e+002
2.723973e+002, 1.336691e+002
2.728794e+002, 1.331618e+002
2.733615e+002, 1.317750e+002
2.738436e+002, 1.310323e+002
2.743257e+002, 1.313246e+002
2.748079e+002, 1.320067e+002
2.752900e+002, 1.326464e+002
2.757721e+002, 1.332097e+002
2.762542e+002, 1.337486e+002
2.767363e+002, 1.343583e+002
2.772184e+002, 1.349776e+002
2.777006e+002, 1.353022e+002
2.781827e+002, 1.350946e+002
2.786648e+002, 1.347756e+002
2.791469e+002, 1.345545e+002
2.796290e+002, 1.344488e+002
2.801111e+002, 1.345531e+002
2.805933e+002, 1.349830e+002
2.810754e+002, 1.356657e+002
2.815575e+002, 1.362986e+002
2.820396e+002, 1.369633e+002
2.825217e+002, 1.374823e+002
2.830038e+002, 1.376866e+002
2.834860e+002, 1.376232e+002
2.839681e+002, 1.375424e+002
2.844502e+002, 1.375674e+002
2.849323e+002, 1.376310e+002
2.854144e+002, 1.375305e+002
2.858965e+002, 1.370683e+002
2.863787e+002, 1.369089e+002
2.868608e+002, 1.377075e+002
2.873429e+002, 1.391790e+002
2.878250e+002, 1.403194e+002
2.883071e+002, 1.408318e+002
2.887892e+002, 1.407996e+002
2.892714e+002, 1.402163e+002
2.897535e+002, 1.389766e+002
2.902356e+002, 1.380584e+002
2.907177e+002, 1.382956e+002
2.911998e+002, 1.392141e+002
2.916819e+002, 1.394831e+002
2.921641e+002, 1.386226e+002
2.926462e+002, 1.374091e+002
2.931283e+002, 1.365906e+002
2.936104e+002, 1.361322e+002
2.940925e+002, 1.360073e+002
2.945746e+002, 1.364983e+002
2.950568e+002, 1.372705e+002
2.955389e+002, 1.376390e+002
2.960210e+002, 1.374667e+002
2.965031e+002, 1.370620e+002
2.969852e+002, 1.365424e+002
2.974673e+002, 1.359753e+002
2.979495e+002, 1.355780e+002
2.984316e+002, 1.355005e+002
2.989137e+002, 1.356036e+002
2.993958e+002, 1.357040e+002
2.998779e+002, 1.358039e+002
3.003600e+002, 1.358695e+002
3.008422e+002, 1.359479e+002
3.013243e+002, 1.359632e+002
3.018064e+002, 1.357445e+002
3.022885e+002, 1.350956e+002
3.027706e+002, 1.343478e+002
3.032527e+002, 1.339556e+002
3.037349e+002, 1.339530e+002
3.042170e+002, 1.337887e+002
3.046991e+002, 1.329966e+002
3.051812e+002, 1.319903e+002
3.056633e+002, 1.313595e+002
3.061454e+002, 1.312833e+002
3.066276e+002, 1.313259e+002
3.071097e+002, 1.310841e+002
3.075918e+002, 1.305776e+002
3.080739e+002, 1.301386e+002
3.085560e+002, 1.298835e+002
3.090381e+002, 1.297486e+002
3.095203e+002, 1.296654e+002
3.100024e+002, 1.296375e+002
3.104845e+002, 1.296020e+002
3.109666e+002, 1.295042e+002
3.114487e+002, 1.293578e+002
3.119308e+002, 1.292491e+002
3.124130e+002, 1.292616e+002
3.128951e+002, 1.292112e+002
3.133772e+002, 1.288738e+002
3.138593e+002, 1.282951e+002
3.143414e+002, 1.277885e+002
3.148235e+002, 1.276348e+002
3.153057e+002, 1.276627e+002
3.157878e+002, 1.273352e+002
3.162699e+002, 1.264058e+002
3.167520e+002, 1.256167e+002
3.172341e+002, 1.257126e+002
3.177162e+002, 1.263606e+002
3.181984e+002, 1.268562e+002
3.186805e+002, 1.268530e+002
3.191626e+002, 1.265964e+002
3.196447e+002, 1.264741e+002
3.201268e+002, 1.265144e+002
3.206089e+002, 1.265526e+002
3.210911e+002, 1.265454e+002
3.215732e+002, 1.264616e+002
3.220553e+002, 1.262328e+002
3.225374e+002, 1.257942e+002
3.230195e+002, 1.252894e+002
3.235016e+002, 1.248181e+002
3.239838e+002, 1.243763e+002
3.244659e+002, 1.240935e+002
3.249480e+002, 1.240564e+002
3.254301e+002, 1.241949e+002
3.259122e+002, 1.244492e+002
3.263943e+002, 1.248521e+002
3.268765e+002, 1.251906e+002
3.273586e+002, 1.252656e+002
3.278407e+002, 1.251234e+002
3.283228e+002, 1.250405e+002
3.288049e+002, 1.251576e+002
3.292870e+002, 1.252374e+002
3.297692e+002, 1.249224e+002
3.302513e+002, 1.242595e+002
3.307334e+002, 1.238334e+002
3.312155e+002, 1.241745e+002
3.316976e+002, 1.249340e+002
3.321797e+002, 1.252954e+002
3.326619e+002, 1.251282e+002
3.331440e+002, 1.246882e+002
3.336261e+002, 1.238708e+002
3.341082e+002, 1.229075e+002
3.345903e+002, 1.224259e+002
3.350724e+002, 1.230370e+002
3.355546e+002, 1.240244e+002
3.360367e+002, 1.244047e+002
3.365188e+002, 1.241168e+002
3.370009e+002, 1.238244e+002
3.374830e+002, 1.240246e+002
3.379651e+002, 1.244292e+002
3.384473e+002, 1.244626e+002
3.389294e+002, 1.238317e+002
3.394115e+002, 1.231860e+002
3.398936e+002, 1.230919e+002
3.403757e+002, 1.234853e+002
3.408578e+002, 1.238896e+002
3.413400e+002, 1.241472e+002
3.418221e+002, 1.243128e+002
3.423042e+002, 1.245682e+002
3.427863e+002, 1.250041e+002
3.432684e+002, 1.250759e+002
3.437505e+002, 1.240487e+002
3.442327e+002, 1.224747e+002
3.447148e+002, 1.218336e+002
3.451969e+002, 1.226733e+002
3.456790e+002, 1.238631e+002
3.461611e+002, 1.238799e+002
3.466432e+002, 1.229330e+002
3.471254e+002, 1.224655e+002
3.476075e+002, 1.232221e+002
3.480896e+002, 1.244792e+002
3.485717e+002, 1.253951e+002
3.490538e+002, 1.259007e+002
3.495359e+002, 1.261556e+002
3.500181e+002, 1.261987e+002
3.505002e+002, 1.260708e+002
3.509823e+002, 1.259894e+002
3.514644e+002, 1.260729e+002
3.519465e+002, 1.261147e+002
3.524286e+002, 1.260239e+002
3.529108e+002, 1.257881e+002
3.533929e+002, 1.252850e+002
3.538750e+002, 1.243155e+002
3.543571e+002, 1.231867e+002
3.548392e+002, 1.226467e+002
3.553214e+002, 1.227535e+002
3.558035e+002, 1.231829e+002
3.562856e+002, 1.240362e+002
3.567677e+002, 1.250967e+002
3.572498e+002, 1.259979e+002
3.577319e+002, 1.266430e+002
3.582141e+002, 1.270716e+002
3.586962e+002, 1.273203e+002
3.591783e+002, 1.273819e+002
3.596604e+002, 1.273173e+002
3.601425e+002, 1.270489e+002
3.606246e+002, 1.267087e+002
3.611068e+002, 1.263493e+002
3.615889e+002, 1.259959e+002
3.620710e+002, 1.258207e+002
3.625531e+002, 1.260050e+002
3.630352e+002, 1.265482e+002
3.635173e+002, 1.269738e+002
3.639995e+002, 1.273143e+002
3.644816e+002, 1.275220e+002
3.649637e+002, 1.275321e+002
3.654458e+002, 1.273871e+002
3.659279e+002, 1.271448e+002
3.664100e+002, 1.267990e+002
3.668922e+002, 1.264599e+002
3.673743e+002, 1.265171e+002
3.678564e+002, 1.274633e+002
3.683385e+002, 1.280832e+002
3.688206e+002, 1.280453e+002
3.693027e+002, 1.276753e+002
3.697849e+002, 1.272575e+002
3.702670e+002, 1.268906e+002
3.707491e+002, 1.266936e+002
3.712312e+002, 1.268907e+002
3.717133e+002, 1.277799e+002
3.721954e+002, 1.281098e+002
3.726776e+002, 1.274135e+002
3.731597e+002, 1.265938e+002
3.736418e+002, 1.261260e+002
3.741239e+002, 1.260493e+002
3.746060e+002, 1.262524e+002
3.750881e+002, 1.266975e+002
3.755703e+002, 1.273671e+002
3.760524e+002, 1.276931e+002
3.765345e+002, 1.273168e+002
3.770166e+002, 1.270182e+002
3.774987e+002, 1.270241e+002
3.779808e+002, 1.272035e+002
3.784630e+002, 1.273585e+002
3.789451e+002, 1.273982e+002
3.794272e+002, 1.273631e+002
3.799093e+002, 1.273465e+002
3.803914e+002, 1.273444e+002
3.808735e+002, 1.273713e+002
3.813557e+002, 1.274762e+002
3.818378e+002, 1.275729e+002
3.823199e+002, 1.276057e+002
3.828020e+002, 1.275629e+002
3.832841e+002, 1.274516e+002
3.837662e+002, 1.272388e+002
3.842484e+002, 1.268731e+002
3.847305e+002, 1.267615e+002
3.852126e+002, 1.270966e+002
3.856947e+002, 1.275141e+002
3.861768e+002, 1.280908e+002
3.866589e+002, 1.286518e+002
3.871411e+002, 1.288472e+002
3.876232e+002, 1.283957e+002
3.881053e+002, 1.275355e+002
3.885874e+002, 1.271701e+002
3.890695e+002, 1.276603e+002
3.895516e+002, 1.279686e+002
3.900338e+002, 1.277332e+002
3.905159e+002, 1.273028e+002
3.909980e+002, 1.269743e+002
3.914801e+002, 1.268315e+002
3.919622e+002, 1.268030e+002
3.924443e+002, 1.269434e+002
3.929265e+002, 1.273275e+002
3.934086e+002, 1.271319e+002
3.938907e+002, 1.254886e+002
3.943728e+002, 1.239672e+002
3.948549e+002, 1.235890e+002
3.953370e+002, 1.241656e+002
3.958192e+002, 1.248391e+002
3.963013e+002, 1.249559e+002
3.967834e+002, 1.247540e+002
3.972655e+002, 1.251680e+002
3.977476e+002, 1.265808e+002
3.982297e+002, 1.276096e+002
3.987119e+002, 1.271605e+002
3.991940e+002, 1.260047e+002
3.996761e+002, 1.250760e+002
4.001582e+002, 1.246218e+002
4.006403e+002, 1.244229e+002
4.011224e+002, 1.243422e+002
4.016046e+002, 1.243669e+002
4.020867e+002, 1.242690e+002
4.025688e+002, 1.238492e+002
4.030509e+002, 1.234300e+002
4.035330e+002, 1.234125e+002
4.040151e+002, 1.238004e+002
4.044973e+002, 1.242334e+002
4.049794e+002, 1.247375e+002
4.054615e+002, 1.251335e+002
4.059436e+002, 1.249640e+002
4.064257e+002, 1.241023e+002
4.069078e+002, 1.232997e+002
4.073900e+002, 1.233060e+002
4.078721e+002, 1.239392e+002
4.083542e+002, 1.241913e+002
4.088363e+002, 1.237307e+002
4.093184e+002, 1.231076e+002
4.098005e+002, 1.225644e+002
4.102827e+002, 1.221329e+002
4.107648e+002, 1.219751e+002
4.112469e+002, 1.222377e+002
4.117290e+002, 1.226653e+002
4.122111e+002, 1.226259e+002
4.126932e+002, 1.218957e+002
4.131754e+002, 1.213340e+002
4.136575e+002, 1.211313e+002
4.141396e+002, 1.211435e+002
4.146217e+002, 1.213214e+002
4.151038e+002, 1.216212e+002
4.155859e+002, 1.217994e+002
4.160681e+002, 1.215864e+002
4.165502e+002, 1.209333e+002
4.170323e+002, 1.204023e+002
4.175144e+002, 1.199538e+002
4.179965e+002, 1.196437e+002
4.184786e+002, 1.195355e+002
4.189608e+002, 1.195786e+002
4.194429e+002, 1.197182e+002
4.199250e+002, 1.199366e+002
4.204071e+002, 1.201460e+002
4.208892e+002, 1.200908e+002
4.213713e+002, 1.195146e+002
4.218535e+002, 1.190538e+002
4.223356e+002, 1.187112e+002
4.228177e+002, 1.184909e+002
4.232998e+002, 1.184453e+002
4.237819e+002, 1.185512e+002
4.242640e+002, 1.186930e+002
4.247462e+002, 1.187777e+002
4.252283e+002, 1.188148e+002
4.257104e+002, 1.186489e+002
4.261925e+002, 1.179736e+002
4.266746e+002, 1.174233e+002
4.271567e+002, 1.171721e+002
4.276389e+002, 1.171643e+002
4.281210e+002, 1.173242e+002
4.286031e+002, 1.176314e+002
4.290852e+002, 1.180232e+002
4.295673e+002, 1.183993e+002
4.300494e+002, 1.187947e+002
4.305316e+002, 1.190521e+002
4.310137e+002, 1.192887e+002
4.314958e+002, 1.192509e+002
4.319779e+002, 1.185049e+002
4.324600e+002, 1.171208e+002
4.329421e+002, 1.159786e+002
4.334243e+002, 1.159670e+002
4.339064e+002, 1.168015e+002
4.343885e+002, 1.172219e+002
4.348706e+002, 1.170656e+002
4.353527e+002, 1.167381e+002
4.358348e+002, 1.164079e+002
4.363170e+002, 1.160980e+002
4.367991e+002, 1.158577e+002
4.372812e+002, 1.157393e+002
4.377633e+002, 1.156382e+002
4.382454e+002, 1.153380e+002
4.387275e+002, 1.149035e+002
4.392097e+002, 1.148474e+002
4.396918e+002, 1.154723e+002
4.401739e+002, 1.163642e+002
4.406560e+002, 1.169674e+002
4.411381e+002, 1.173179e+002
4.416202e+002, 1.173426e+002
4.421024e+002, 1.167359e+002
4.425845e+002, 1.159470e+002
4.430666e+002, 1.155190e+002
4.435487e+002, 1.154874e+002
4.440308e+002, 1.155253e+002
4.445129e+002, 1.153893e+002
4.449951e+002, 1.151027e+002
4.454772e+002, 1.148919e+002
4.459593e+002, 1.147246e+002
4.464414e+002, 1.146578e+002
4.469235e+002, 1.147613e+002
4.474056e+002, 1.149618e+002
4.478878e+002, 1.152487e+002
4.483699e+002, 1.156073e+002
4.488520e+002, 1.157739e+002
4.493341e+002, 1.152896e+002
4.498162e+002, 1.137856e+002
4.502983e+002, 1.126740e+002
4.507805e+002, 1.118789e+002
4.512626e+002, 1.114793e+002
4.517447e+002, 1.117509e+002
4.522268e+002, 1.124663e+002
4.527089e+002, 1.130846e+002
4.531910e+002, 1.132323e+002
4.536732e+002, 1.130226e+002
4.541553e+002, 1.129651e+002
4.546374e+002, 1.134109e+002
4.551195e+002, 1.133809e+002
4.556016e+002, 1.121312e+002
4.560837e+002, 1.107822e+002
4.565659e+002, 1.104444e+002
4.570480e+002, 1.112471e+002
4.575301e+002, 1.122276e+002
4.580122e+002, 1.122757e+002
4.584943e+002, 1.114156e+002
4.589764e+002, 1.109932e+002
4.594586e+002, 1.113508e+002
4.599407e+002, 1.117014e+002
4.604228e+002, 1.115206e+002
4.609049e+002, 1.110698e+002
4.613870e+002, 1.108502e+002
4.618691e+002, 1.111727e+002
4.623513e+002, 1.115714e+002
4.628334e+002, 1.113962e+002
4.633155e+002, 1.106719e+002
4.637976e+002, 1.100487e+002
4.642797e+002, 1.096913e+002
4.647618e+002, 1.095723e+002
4.652440e+002, 1.097182e+002
4.657261e+002, 1.101353e+002
4.662082e+002, 1.104529e+002
4.666903e+002, 1.104897e+002
4.671724e+002, 1.103919e+002
4.676545e+002, 1.103337e+002
4.681367e+002, 1.103273e+002
4.686188e+002, 1.103053e+002
4.691009e+002, 1.102272e+002
4.695830e+002, 1.100961e+002
4.700651e+002, 1.099243e+002
4.705472e+002, 1.096245e+002
4.710294e+002, 1.094004e+002
4.715115e+002, 1.094715e+002
4.719936e+002, 1.095776e+002
4.724757e+002, 1.092236e+002
4.729578e+002, 1.083349e+002
4.734399e+002, 1.075542e+002
4.739221e+002, 1.077259e+002
4.744042e+002, 1.091033e+002
4.748863e+002, 1.099638e+002
4.753684e+002, 1.098912e+002
4.758505e+002, 1.098134e+002
4.763326e+002, 1.102841e+002
4.768148e+002, 1.109410e+002
4.772969e+002, 1.110653e+002
4.777790e+002, 1.102917e+002
4.782611e+002, 1.090869e+002
4.787432e+002, 1.084591e+002
4.792253e+002, 1.085935e+002
4.797075e+002, 1.087944e+002
4.801896e+002, 1.091493e+002
4.806717e+002, 1.094169e+002
4.811538e+002, 1.092816e+002
4.816359e+002, 1.088792e+002
4.821180e+002, 1.087725e+002
4.826002e+002, 1.095433e+002
4.830823e+002, 1.108215e+002
4.835644e+002, 1.115042e+002
4.840465e+002, 1.114250e+002
4.845286e+002, 1.113472e+002
4.850107e+002, 1.116769e+002
4.854929e+002, 1.121505e+002
4.859750e+002, 1.124914e+002
4.864571e+002, 1.126834e+002
4.869392e+002, 1.126701e+002
4.874213e+002, 1.122542e+002
4.879034e+002, 1.116297e+002
4.883856e+002, 1.112003e+002
4.888677e+002, 1.110197e+002
4.893498e+002, 1.110904e+002
4.898319e+002, 1.114470e+002
4.903140e+002, 1.120951e+002
4.907961e+002, 1.128212e+002
4.912783e+002, 1.140295e+002
4.917604e+002, 1.148963e+002
4.922425e+002, 1.147426e+002
4.927246e+002, 1.140421e+002
4.932067e+002, 1.137477e+002
4.936888e+002, 1.141954e+002
4.941710e+002, 1.148599e+002
4.946531e+002, 1.148602e+002
4.951352e+002, 1.137281e+002
4.956173e+002, 1.134446e+002
4.960994e+002, 1.147645e+002
4.965815e+002, 1.160744e+002
4.970637e+002, 1.165302e+002
4.975458e+002, 1.163608e+002
4.980279e+002, 1.161988e+002
4.985100e+002, 1.164066e+002
4.989921e+002, 1.168055e+002
4.994742e+002, 1.169223e+002
4.999564e+002, 1.166146e+002
5.004385e+002, 1.163816e+002
5.009206e+002, 1.160650e+002
5.014027e+002, 1.160223e+002
5.018848e+002, 1.167044e+002
5.023669e+002, 1.179746e+002
5.028491e+002, 1.190916e+002
5.033312e+002, 1.195369e+002
5.038133e+002, 1.194650e+002
5.042954e+002, 1.191355e+002
5.047775e+002, 1.184076e+002
5.052596e+002, 1.181228e+002
5.057418e+002, 1.190734e+002
5.062239e+002, 1.204806e+002
5.067060e+002, 1.211982e+002
5.071881e+002, 1.210338e+002
5.076702e+002, 1.207419e+002
5.081523e+002, 1.206395e+002
5.086345e+002, 1.206732e+002
5.091166e+002, 1.207207e+002
5.095987e+002, 1.207637e+002
5.100808e+002, 1.209909e+002
5.105629e+002, 1.216521e+002
5.110450e+002, 1.226740e+002
5.115272e+002, 1.232396e+002
5.120093e+002, 1.229952e+002
5.124914e+002, 1.227816e+002
5.129735e+002, 1.229559e+002
5.134556e+002, 1.232567e+002
5.139377e+002, 1.233314e+002
5.144199e+002, 1.230884e+002
5.149020e+002, 1.226703e+002
5.153841e+002, 1.222104e+002
5.158662e+002, 1.216501e+002
5.163483e+002, 1.214555e+002
5.168304e+002, 1.220288e+002
5.173126e+002, 1.225523e+002
5.177947e+002, 1.226894e+002
5.182768e+002, 1.226669e+002
5.187589e+002, 1.228788e+002
5.192410e+002, 1.234946e+002
5.197231e+002, 1.241853e+002
5.202053e+002, 1.244215e+002
5.206874e+002, 1.241612e+002
5.211695e+002, 1.240591e+002
5.216516e+002, 1.243407e+002
5.221337e+002, 1.246158e+002
5.226158e+002, 1.246129e+002
5.230980e+002, 1.243948e+002
5.235801e+002, 1.241329e+002
5.240622e+002, 1.238034e+002
5.245443e+002, 1.235394e+002
5.250264e+002, 1.235546e+002
5.255085e+002, 1.237958e+002
5.259907e+002, 1.238923e+002
5.264728e+002, 1.236270e+002
5.269549e+002, 1.233656e+002
5.274370e+002, 1.237705e+002
5.279191e+002, 1.250138e+002
5.284012e+002, 1.258140e+002
5.288834e+002, 1.258084e+002
5.293655e+002, 1.255240e+002
5.298476e+002, 1.251338e+002
5.303297e+002, 1.247653e+002
5.308118e+002, 1.247128e+002
5.312939e+002, 1.251535e+002
5.317761e+002, 1.258778e+002
5.322582e+002, 1.263491e+002
5.327403e+002, 1.264146e+002
5.332224e+002, 1.264932e+002
5.337045e+002, 1.267397e+002
5.341866e+002, 1.268700e+002
5.346688e+002, 1.265101e+002
5.351509e+002, 1.258591e+002
5.356330e+002, 1.255363e+002
5.361151e+002, 1.260319e+002
5.365972e+002, 1.270165e+002
5.370793e+002, 1.275815e+002
5.375615e+002, 1.276113e+002
5.380436e+002, 1.276911e+002
5.385257e+002, 1.281093e+002
5.390078e+002, 1.285476e+002
5.394899e+002, 1.286447e+002
5.399720e+002, 1.284184e+002
5.404542e+002, 1.283557e+002
5.409363e+002, 1.289823e+002
5.414184e+002, 1.297700e+002
5.419005e+002, 1.298489e+002
5.423826e+002, 1.292280e+002
5.428647e+002, 1.286716e+002
5.433469e+002, 1.285912e+002
5.438290e+002, 1.288140e+002
5.443111e+002, 1.288845e+002
5.447932e+002, 1.286764e+002
5.452753e+002, 1.286285e+002
5.457574e+002, 1.289678e+002
5.462396e+002, 1.293725e+002
5.467217e+002, 1.294839e+002
5.472038e+002, 1.293611e+002
5.476859e+002, 1.293838e+002
5.481680e+002, 1.298387e+002
5.486501e+002, 1.306157e+002
5.491323e+002, 1.312121e+002
5.496144e+002, 1.314015e+002
5.500965e+002, 1.318038e+002
5.505786e+002, 1.329967e+002
5.510607e+002, 1.340163e+002
5.515428e+002, 1.337805e+002
5.520250e+002, 1.325055e+002
5.525071e+002, 1.316984e+002
5.529892e+002, 1.329513e+002
5.534713e+002, 1.353193e+002
5.539534e+002, 1.357085e+002
5.544355e+002, 1.335983e+002
5.549177e+002, 1.321615e+002
5.553998e+002, 1.330779e+002
5.558819e+002, 1.350395e+002
5.563640e+002, 1.362882e+002
5.568461e+002, 1.367507e+002
5.573282e+002, 1.369079e+002
5.578104e+002, 1.366055e+002
5.582925e+002, 1.362969e+002
5.587746e+002, 1.367475e+002
5.592567e+002, 1.378676e+002
5.597388e+002, 1.386044e+002
5.602209e+002, 1.382453e+002
5.607031e+002, 1.371822e+002
5.611852e+002, 1.366655e+002
5.616673e+002, 1.369656e+002
5.621494e+002, 1.374692e+002
5.626315e+002, 1.384691e+002
5.631136e+002, 1.394363e+002
5.635958e+002, 1.399087e+002
5.640779e+002, 1.399655e+002
5.645600e+002, 1.400307e+002
5.650421e+002, 1.404296e+002
5.655242e+002, 1.410157e+002
5.660063e+002, 1.412607e+002
5.664885e+002, 1.410166e+002
5.669706e+002, 1.408567e+002
5.674527e+002, 1.408819e+002
5.679348e+002, 1.410681e+002
5.684169e+002, 1.414532e+002
5.688990e+002, 1.420117e+002
5.693812e+002, 1.425991e+002
5.698633e+002, 1.430685e+002
5.703454e+002, 1.435556e+002
5.708275e+002, 1.444054e+002
5.713096e+002, 1.455715e+002
5.717917e+002, 1.463757e+002
5.722739e+002, 1.464852e+002
5.727560e+002, 1.461653e+002
5.732381e+002, 1.458014e+002
5.737202e+002, 1.452615e+002
5.742023e+002, 1.451833e+002
5.746844e+002, 1.460495e+002
5.751666e+002, 1.470303e+002
5.756487e+002, 1.476008e+002
5.761308e+002, 1.478034e+002
5.766129e+002, 1.478096e+002
5.770950e+002, 1.476929e+002
5.775771e+002, 1.476187e+002
5.780593e+002, 1.480230e+002
5.785414e+002, 1.492123e+002
5.790235e+002, 1.500408e+002
5.795056e+002, 1.500940e+002
5.799877e+002, 1.501052e+002
5.804698e+002, 1.504567e+002
5.809520e+002, 1.510200e+002
5.814341e+002, 1.514173e+002
5.819162e+002, 1.513648e+002
5.823983e+002, 1.513165e+002
5.828804e+002, 1.521790e+002
5.833625e+002, 1.538096e+002
5.838447e+002, 1.545491e+002
5.843268e+002, 1.537937e+002
5.848089e+002, 1.525427e+002
5.852910e+002, 1.516385e+002
5.857731e+002, 1.510916e+002
5.862552e+002, 1.510524e+002
5.867374e+002, 1.519622e+002
5.872195e+002, 1.529382e+002
5.877016e+002, 1.535055e+002
5.881837e+002, 1.538304e+002
5.886658e+002, 1.542461e+002
5.891479e+002, 1.548456e+002
5.896301e+002, 1.554184e+002
5.901122e+002, 1.556844e+002
5.905943e+002, 1.555985e+002
5.910764e+002, 1.556309e+002
5.915585e+002, 1.559601e+002
5.920406e+002, 1.561980e+002
5.925228e+002, 1.561920e+002
5.930049e+002, 1.560740e+002
5.934870e+002, 1.560217e+002
5.939691e+002, 1.560772e+002
5.944512e+002, 1.560868e+002
5.949333e+002, 1.558403e+002
5.954155e+002, 1.554123e+002
5.958976e+002, 1.550843e+002
5.963797e+002, 1.548283e+002
5.968618e+002, 1.549041e+002
5.973439e+002, 1.558123e+002
5.978260e+002, 1.570180e+002
5.983082e+002, 1.571902e+002
5.987903e+002, 1.558537e+002
5.992724e+002, 1.546892e+002
5.997545e+002, 1.543528e+002
6.002366e+002, 1.543838e+002
6.007188e+002, 1.543492e+002
6.012009e+002, 1.541938e+002
6.016830e+002, 1.540085e+002
6.021651e+002, 1.538613e+002
6.026472e+002, 1.537132e+002
6.031293e+002, 1.534113e+002
6.036115e+002, 1.528578e+002
6.040936e+002, 1.523251e+002
6.045757e+002, 1.516530e+002
6.050578e+002, 1.511587e+002
6.055399e+002, 1.511624e+002
6.060220e+002, 1.515329e+002
6.065042e+002, 1.518379e+002
6.069863e+002, 1.518355e+002
6.074684e+002, 1.516405e+002
6.079505e+002, 1.514044e+002
6.084326e+002, 1.511286e+002
6.089147e+002, 1.509383e+002
6.093969e+002, 1.510234e+002
6.098790e+002, 1.509094e+002
6.103611e+002, 1.497927e+002
6.108432e+002, 1.477880e+002
6.113253e+002, 1.464839e+002
6.118074e+002, 1.464803e+002
6.122896e+002, 1.467640e+002
6.127717e+002, 1.470685e+002
6.132538e+002, 1.472238e+002
6.137359e+002, 1.469359e+002
6.142180e+002, 1.461303e+002
6.147001e+002, 1.450195e+002
6.151823e+002, 1.437485e+002
6.156644e+002, 1.422746e+002
6.161465e+002, 1.415618e+002
6.166286e+002, 1.424713e+002
6.171107e+002, 1.429592e+002
6.175928e+002, 1.421384e+002
6.180750e+002, 1.408803e+002
6.185571e+002, 1.401587e+002
6.190392e+002, 1.401389e+002
6.195213e+002, 1.400729e+002
6.200034e+002, 1.392735e+002
6.204855e+002, 1.380552e+002
6.209677e+002, 1.370789e+002
6.214498e+002, 1.363755e+002
6.219319e+002, 1.359131e+002
6.224140e+002, 1.357512e+002
6.228961e+002, 1.357439e+002
6.233782e+002, 1.356217e+002
6.238604e+002, 1.354835e+002
6.243425e+002, 1.349509e+002
6.248246e+002, 1.336614e+002
6.253067e+002, 1.322509e+002
6.257888e+002, 1.310071e+002
6.262709e+002, 1.300080e+002
6.267531e+002, 1.293996e+002
6.272352e+002, 1.292694e+002
6.277173e+002, 1.292433e+002
6.281994e+002, 1.285687e+002
6.286815e+002, 1.270831e+002
6.291636e+002, 1.258393e+002
6.296458e+002, 1.250475e+002
6.301279e+002, 1.243133e+002
6.306100e+002, 1.232238e+002
6.310921e+002, 1.220960e+002
6.315742e+002, 1.215980e+002
6.320563e+002, 1.221313e+002
6.325385e+002, 1.225960e+002
6.330206e+002, 1.221225e+002
6.335027e+002, 1.210395e+002
6.339848e+002, 1.198929e+002
6.344669e+002, 1.187747e+002
6.349490e+002, 1.178735e+002
6.354312e+002, 1.173703e+002
6.359133e+002, 1.171641e+002
6.363954e+002, 1.167659e+002
6.368775e+002, 1.157579e+002
6.373596e+002, 1.151311e+002
6.378417e+002, 1.151634e+002
6.383239e+002, 1.153882e+002
6.388060e+002, 1.156859e+002
6.392881e+002, 1.158870e+002
6.397702e+002, 1.156140e+002
6.402523e+002, 1.145586e+002
6.407344e+002, 1.131196e+002
6.412166e+002, 1.121067e+002
6.416987e+002, 1.115396e+002
6.421808e+002, 1.107933e+002
6.426629e+002, 1.094780e+002
6.431450e+002, 1.083821e+002
6.436271e+002, 1.085582e+002
6.441093e+002, 1.096182e+002
6.445914e+002, 1.101282e+002
6.450735e+002, 1.094062e+002
6.455556e+002, 1.086527e+002
6.460377e+002, 1.086921e+002
6.465198e+002, 1.089328e+002
6.470020e+002, 1.084011e+002
6.474841e+002, 1.069905e+002
6.479662e+002, 1.054534e+002
6.484483e+002, 1.044564e+002
6.489304e+002, 1.039314e+002
6.494125e+002, 1.033246e+002
6.498947e+002, 1.024035e+002
6.503768e+002, 1.018567e+002
6.508589e+002, 1.023155e+002
6.513410e+002, 1.027645e+002
6.518231e+002, 1.023356e+002
6.523052e+002, 1.011630e+002
6.527874e+002, 1.001612e+002
6.532695e+002, 9.976994e+001
6.537516e+002, 9.979183e+001
6.542337e+002, 1.003497e+002
6.547158e+002, 1.012092e+002
6.551979e+002, 1.010764e+002
6.556801e+002, 9.943218e+001
6.561622e+002, 9.761147e+001
6.566443e+002, 9.718380e+001
6.571264e+002, 9.826154e+001
6.576085e+002, 9.859830e+001
6.580906e+002, 9.776469e+001
6.585728e+002, 9.683987e+001
6.590549e+002, 9.570195e+001
6.595370e+002, 9.482019e+001
6.600191e+002, 9.494013e+001
6.605012e+002, 9.597462e+001
6.609833e+002, 9.680428e+001
6.614655e+002, 9.637936e+001
6.619476e+002, 9.512783e+001
6.624297e+002, 9.442310e+001
6.629118e+002, 9.433916e+001
6.633939e+002, 9.423056e+001
6.638760e+002, 9.390442e+001
6.643582e+002, 9.346828e+001
6.648403e+002, 9.300481e+001
6.653224e+002, 9.251963e+001
6.658045e+002, 9.214362e+001
6.662866e+002, 9.203737e+001
6.667687e+002, 9.189937e+001
6.672509e+002, 9.140937e+001
6.677330e+002, 9.082638e+001
6.682151e+002, 9.066417e+001
6.686972e+002, 9.101540e+001
6.691793e+002, 9.140630e+001
6.696614e+002, 9.132058e+001
6.701436e+002, 9.079880e+001
6.706257e+002, 9.045457e+001
6.711078e+002, 9.042892e+001
6.715899e+002, 9.028746e+001
6.720720e+002, 8.963424e+001
6.725541e+002, 8.901012e+001
6.730363e+002, 8.900797e+001
6.735184e+002, 8.956917e+001
6.740005e+002, 8.983208e+001
6.744826e+002, 8.919270e+001
6.749647e+002, 8.827721e+001
6.754468e+002, 8.771842e+001
6.759290e+002, 8.740589e+001
6.764111e+002, 8.690088e+001
6.768932e+002, 8.605956e+001
6.773753e+002, 8.535323e+001
6.778574e+002, 8.540993e+001
6.783395e+002, 8.627686e+001
6.788217e+002, 8.669934e+001
6.793038e+002, 8.637603e+001
6.797859e+002, 8.597132e+001
6.802680e+002, 8.549576e+001
6.807501e+002, 8.505674e+001
6.812322e+002, 8.477388e+001
6.817144e+002, 8.464139e+001
6.821965e+002, 8.452337e+001
6.826786e+002, 8.439968e+001
6.831607e+002, 8.419169e+001
6.836428e+002, 8.366551e+001
6.841249e+002, 8.287387e+001
6.846071e+002, 8.234251e+001
6.850892e+002, 8.229180e+001
6.855713e+002, 8.229752e+001
6.860534e+002, 8.177262e+001
6.865355e+002, 8.065267e+001
6.870176e+002, 8.024686e+001
6.874998e+002, 8.144534e+001
6.879819e+002, 8.217488e+001
6.884640e+002, 8.149882e+001
6.889461e+002, 8.036550e+001
6.894282e+002, 7.966316e+001
6.899103e+002, 7.954179e+001
6.903925e+002, 7.974467e+001
6.908746e+002, 8.019283e+001
6.913567e+002, 8.071908e+001
6.918388e+002, 8.086142e+001
6.923209e+002, 8.060225e+001
6.928030e+002, 8.042984e+001
6.932852e+002, 8.050764e+001
6.937673e+002, 8.064444e+001
6.942494e+002, 8.059129e+001
6.947315e+002, 8.037605e+001
6.952136e+002, 8.040749e+001
6.956957e+002, 8.127109e+001
6.961779e+002, 8.169371e+001
6.966600e+002, 8.096416e+001
6.971421e+002, 7.972921e+001
6.976242e+002, 7.851165e+001
6.981063e+002, 7.751303e+001
6.985884e+002, 7.699746e+001
6.990706e+002, 7.726492e+001
6.995527e+002, 7.798801e+001
7.000348e+002, 7.815572e+001
7.005169e+002, 7.764416e+001
7.009990e+002, 7.740395e+001
7.014811e+002, 7.784033e+001
7.019633e+002, 7.828589e+001
7.024454e+002, 7.796860e+001
7.029275e+002, 7.716380e+001
7.034096e+002, 7.681699e+001
7.038917e+002, 7.741177e+001
7.043738e+002, 7.798849e+001
7.048560e+002, 7.830315e+001
7.053381e+002, 7.829578e+001
7.058202e+002, 7.759492e+001
7.063023e+002, 7.639501e+001
7.067844e+002, 7.568751e+001
7.072665e+002, 7.621799e+001
7.077487e+002, 7.747192e+001
7.082308e+002, 7.797103e+001
7.087129e+002, 7.749643e+001
7.091950e+002, 7.733306e+001
7.096771e+002, 7.808018e+001
7.101592e+002, 7.856380e+001
7.106414e+002, 7.760542e+001
7.111235e+002, 7.591686e+001
7.116056e+002, 7.508627e+001
7.120877e+002, 7.574566e+001
7.125698e+002, 7.640466e+001
7.130519e+002, 7.622473e+001
7.135341e+002, 7.572270e+001
7.140162e+002, 7.548927e+001
7.144983e+002, 7.554642e+001
7.149804e+002, 7.565379e+001
7.154625e+002, 7.567599e+001
7.159446e+002, 7.566088e+001
7.164268e+002, 7.571643e+001
7.169089e+002, 7.586449e+001
7.173910e+002, 7.598996e+001
7.178731e+002, 7.611958e+001
7.183552e+002, 7.618346e+001
7.188373e+002, 7.620204e+001
7.193195e+002, 7.611961e+001
7.198016e+002, 7.578909e+001
7.202837e+002, 7.512248e+001
7.207658e+002, 7.460088e+001
7.212479e+002, 7.450057e+001
7.217300e+002, 7.462735e+001
7.222122e+002, 7.490086e+001
7.226943e+002, 7.522180e+001
7.231764e+002, 7.527935e+001
7.236585e+002, 7.493360e+001
7.241406e+002, 7.446738e+001
7.246227e+002, 7.429219e+001
7.251049e+002, 7.441288e+001
7.255870e+002, 7.482795e+001
7.260691e+002, 7.602522e+001
7.265512e+002, 7.671360e+001
7.270333e+002, 7.606945e+001
7.275154e+002, 7.495748e+001
7.279976e+002, 7.418985e+001
7.284797e+002, 7.384090e+001
7.289618e+002, 7.362343e+001
7.294439e+002, 7.332597e+001
7.299260e+002, 7.318967e+001
7.304081e+002, 7.367053e+001
7.308903e+002, 7.445887e+001
7.313724e+002, 7.475266e+001
7.318545e+002, 7.433952e+001
7.323366e+002, 7.372783e+001
7.328187e+002, 7.342191e+001
7.333008e+002, 7.341609e+001
7.337830e+002, 7.368423e+001
7.342651e+002, 7.452312e+001
7.347472e+002, 7.499425e+001
7.352293e+002, 7.459384e+001
7.357114e+002, 7.399189e+001
7.361935e+002, 7.363343e+001
7.366757e+002, 7.348941e+001
7.371578e+002, 7.334245e+001
7.376399e+002, 7.318913e+001
7.381220e+002, 7.293194e+001
7.386041e+002, 7.217386e+001
7.390862e+002, 7.140362e+001
7.395684e+002, 7.167835e+001
7.400505e+002, 7.296656e+001
7.405326e+002, 7.399331e+001
7.410147e+002, 7.377946e+001
7.414968e+002, 7.279229e+001
7.419789e+002, 7.251657e+001
7.424611e+002, 7.322573e+001
7.429432e+002, 7.363004e+001
7.434253e+002, 7.342440e+001
7.439074e+002, 7.312285e+001
7.443895e+002, 7.294803e+001
7.448716e+002, 7.290079e+001
7.453538e+002, 7.301994e+001
7.458359e+002, 7.338828e+001
7.463180e+002, 7.367048e+001
7.468001e+002, 7.377123e+001
7.472822e+002, 7.367146e+001
7.477643e+002, 7.313342e+001
7.482465e+002, 7.236534e+001
7.487286e+002, 7.200262e+001
7.492107e+002, 7.233696e+001
7.496928e+002, 7.301796e+001
7.501749e+002, 7.369544e+001
7.506570e+002, 7.441210e+001
7.511392e+002, 7.400536e+001
7.516213e+002, 7.169188e+001
7.521034e+002, 7.006837e+001
7.525855e+002, 7.069830e+001
7.530676e+002, 7.218379e+001
7.535497e+002, 7.277523e+001
7.540319e+002, 7.242172e+001
7.545140e+002, 7.222321e+001
7.549961e+002, 7.280900e+001
7.554782e+002, 7.323946e+001
7.559603e+002, 7.268372e+001
7.564424e+002, 7.170681e+001
7.569246e+002, 7.124580e+001
7.574067e+002, 7.145197e+001
7.578888e+002, 7.174007e+001
7.583709e+002, 7.159626e+001
7.588530e+002, 7.115734e+001
7.593351e+002, 7.083121e+001
7.598173e+002, 7.059444e+001
7.602994e+002, 7.071842e+001
7.607815e+002, 7.145102e+001
7.612636e+002, 7.221992e+001
7.617457e+002, 7.254748e+001
7.622278e+002, 7.249100e+001
7.627100e+002, 7.236095e+001
7.631921e+002, 7.186491e+001
7.636742e+002, 7.175991e+001
7.641563e+002, 7.276188e+001
7.646384e+002, 7.378112e+001
7.651205e+002, 7.383873e+001
7.656027e+002, 7.313106e+001
7.660848e+002, 7.234007e+001
7.665669e+002, 7.176490e+001
7.670490e+002, 7.145963e+001
7.675311e+002, 7.167875e+001
7.680132e+002, 7.228043e+001
7.684954e+002, 7.237228e+001
7.689775e+002, 7.182540e+001
7.694596e+002, 7.145466e+001
7.699417e+002, 7.174240e+001
7.704238e+002, 7.229053e+001
7.709059e+002, 7.236181e+001
7.713881e+002, 7.174581e+001
7.718702e+002, 7.150253e+001
7.723523e+002, 7.214321e+001
7.728344e+002, 7.253557e+001
7.733165e+002, 7.188383e+001
7.737986e+002, 7.101816e+001
7.742808e+002, 7.103078e+001
7.747629e+002, 7.195695e+001
7.752450e+002, 7.275710e+001
7.757271e+002, 7.265911e+001
7.762092e+002, 7.211533e+001
7.766913e+002, 7.172803e+001
7.771735e+002, 7.147529e+001
7.776556e+002, 7.128604e+001
7.781377e+002, 7.114566e+001
7.786198e+002, 7.100018e+001
7.791019e+002, 7.078941e+001
7.795840e+002, 7.054484e+001
7.800662e+002, 7.041058e+001
7.805483e+002, 7.020753e+001
7.810304e+002, 7.046456e+001
7.815125e+002, 7.178004e+001
7.819946e+002, 7.297974e+001
7.824767e+002, 7.356457e+001
7.829589e+002, 7.360803e+001
7.834410e+002, 7.317021e+001
7.839231e+002, 7.212220e+001
7.844052e+002, 7.133699e+001
7.848873e+002, 7.168497e+001
7.853694e+002, 7.235246e+001
7.858516e+002, 7.222041e+001
7.863337e+002, 7.147787e+001
7.868158e+002, 7.096044e+001
7.872979e+002, 7.100430e+001
7.877800e+002, 7.144910e+001
7.882621e+002, 7.222001e+001
7.887443e+002, 7.328293e+001
7.892264e+002, 7.358806e+001
7.897085e+002, 7.281276e+001
7.901906e+002, 7.218193e+001
7.906727e+002, 7.216943e+001
7.911548e+002, 7.232452e+001
7.916370e+002, 7.216340e+001
7.921191e+002, 7.173925e+001
7.926012e+002, 7.143403e+001
7.930833e+002, 7.130662e+001
7.935654e+002, 7.130093e+001
7.940475e+002, 7.139454e+001
7.945297e+002, 7.160067e+001
7.950118e+002, 7.210629e+001
7.954939e+002, 7.275681e+001
7.959760e+002, 7.298727e+001
7.964581e+002, 7.242949e+001
7.969402e+002, 7.168565e+001
7.974224e+002, 7.175619e+001
7.979045e+002, 7.250255e+001
7.983866e+002, 7.299291e+001
7.988687e+002, 7.313533e+001
7.993508e+002, 7.313377e+001
7.998329e+002, 7.303768e+001
8.003151e+002, 7.294565e+001
8.007972e+002, 7.308450e+001
8.012793e+002, 7.361379e+001
8.017614e+002, 7.373766e+001
8.022435e+002, 7.319079e+001
8.027256e+002, 7.260519e+001
8.032078e+002, 7.205682e+001
8.036899e+002, 7.162971e+001
8.041720e+002, 7.136680e+001
8.046541e+002, 7.129090e+001
8.051362e+002, 7.147306e+001
8.056183e+002, 7.214999e+001
8.061005e+002, 7.287020e+001
8.065826e+002, 7.308628e+001
8.070647e+002, 7.300046e+001
8.075468e+002, 7.309291e+001
8.080289e+002, 7.342941e+001
8.085110e+002, 7.377612e+001
8.089932e+002, 7.399671e+001
8.094753e+002, 7.401791e+001
8.099574e+002, 7.353402e+001
8.104395e+002, 7.231260e+001
8.109216e+002, 7.165421e+001
8.114037e+002, 7.190704e+001
8.118859e+002, 7.225564e+001
8.123680e+002, 7.221474e+001
8.128501e+002, 7.206416e+001
8.133322e+002, 7.227868e+001
8.138143e+002, 7.295984e+001
8.142964e+002, 7.339291e+001
8.147786e+002, 7.331271e+001
8.152607e+002, 7.304952e+001
8.157428e+002, 7.262586e+001
8.162249e+002, 7.222009e+001
8.167070e+002, 7.207417e+001
8.171891e+002, 7.222025e+001
8.176713e+002, 7.252109e+001
8.181534e+002, 7.290023e+001
8.186355e+002, 7.332584e+001
8.191176e+002, 7.390039e+001
8.195997e+002, 7.453880e+001
8.200818e+002, 7.438670e+001
8.205640e+002, 7.318680e+001
8.210461e+002, 7.217085e+001
8.215282e+002, 7.227232e+001
8.220103e+002, 7.312148e+001
8.224924e+002, 7.359527e+001
8.229745e+002, 7.354834e+001
8.234567e+002, 7.345284e+001
8.239388e+002, 7.315105e+001
8.244209e+002, 7.298133e+001
8.249030e+002, 7.323978e+001
8.253851e+002, 7.360841e+001
8.258672e+002, 7.364938e+001
8.263494e+002, 7.330611e+001
8.268315e+002, 7.295279e+001
8.273136e+002, 7.270153e+001
8.277957e+002, 7.257162e+001
8.282778e+002, 7.272679e+001
8.287599e+002, 7.296801e+001
8.292421e+002, 7.284364e+001
8.297242e+002, 7.233414e+001
8.302063e+002, 7.192889e+001
8.306884e+002, 7.202481e+001
8.311705e+002, 7.240885e+001
8.316526e+002, 7.245414e+001
8.321348e+002, 7.213337e+001
8.326169e+002, 7.241726e+001
8.330990e+002, 7.370384e+001
8.335811e+002, 7.462702e+001
8.340632e+002, 7.413929e+001
8.345453e+002, 7.294029e+001
8.350275e+002, 7.261919e+001
8.355096e+002, 7.362674e+001
8.359917e+002, 7.417744e+001
8.364738e+002, 7.397017e+001
8.369559e+002, 7.364880e+001
8.374380e+002, 7.333691e+001
8.379202e+002, 7.310512e+001
8.384023e+002, 7.306551e+001
8.388844e+002, 7.319608e+001
8.393665e+002, 7.327592e+001
8.398486e+002, 7.311546e+001
8.403307e+002, 7.294254e+001
8.408129e+002, 7.310117e+001
8.412950e+002, 7.338343e+001
8.417771e+002, 7.329142e+001
8.422592e+002, 7.281614e+001
8.427413e+002, 7.241113e+001
8.432234e+002, 7.236784e+001
8.437056e+002, 7.254238e+001
8.441877e+002, 7.264636e+001
8.446698e+002, 7.266911e+001
8.451519e+002, 7.277596e+001
8.456340e+002, 7.305809e+001
8.461161e+002, 7.315324e+001
8.465983e+002, 7.273550e+001
8.470804e+002, 7.221617e+001
8.475625e+002, 7.229516e+001
8.480446e+002, 7.303477e+001
8.485267e+002, 7.329057e+001
8.490089e+002, 7.243252e+001
8.494910e+002, 7.183725e+001
8.499731e+002, 7.206967e+001
8.504552e+002, 7.258718e+001
8.509373e+002, 7.300864e+001
8.514194e+002, 7.325662e+001
8.519016e+002, 7.323772e+001
8.523837e+002, 7.278153e+001
8.528658e+002, 7.252968e+001
8.533479e+002, 7.352306e+001
8.538300e+002, 7.491148e+001
8.543121e+002, 7.502967e+001
8.547943e+002, 7.400685e+001
8.552764e+002, 7.299209e+001
8.557585e+002, 7.248122e+001
8.562406e+002, 7.235617e+001
8.567227e+002, 7.253463e+001
8.572048e+002, 7.297853e+001
8.576870e+002, 7.319097e+001
8.581691e+002, 7.313576e+001
8.586512e+002, 7.295963e+001
8.591333e+002, 7.258604e+001
8.596154e+002, 7.228613e+001
8.600975e+002, 7.243023e+001
8.605797e+002, 7.288265e+001
8.610618e+002, 7.287085e+001
8.615439e+002, 7.188608e+001
8.620260e+002, 7.129793e+001
8.625081e+002, 7.144273e+001
8.629902e+002, 7.182725e+001
8.634724e+002, 7.235070e+001
8.639545e+002, 7.283851e+001
8.644366e+002, 7.303323e+001
8.649187e+002, 7.287861e+001
8.654008e+002, 7.263818e+001
8.658829e+002, 7.241537e+001
8.663651e+002, 7.225550e+001
8.668472e+002, 7.215572e+001
8.673293e+002, 7.216930e+001
8.678114e+002, 7.256693e+001
8.682935e+002, 7.332514e+001
8.687756e+002, 7.381181e+001
8.692578e+002, 7.350088e+001
8.697399e+002, 7.273351e+001
8.702220e+002, 7.235460e+001
8.707041e+002, 7.238178e+001
8.711862e+002, 7.248071e+001
8.716683e+002, 7.268351e+001
8.721505e+002, 7.272221e+001
8.726326e+002, 7.238729e+001
8.731147e+002, 7.188934e+001
8.735968e+002, 7.157963e+001
8.740789e+002, 7.149227e+001
8.745610e+002, 7.141364e+001
8.750432e+002, 7.131409e+001
8.755253e+002, 7.126207e+001
8.760074e+002, 7.122842e+001
8.764895e+002, 7.128399e+001
8.769716e+002, 7.158049e+001
8.774537e+002, 7.202869e+001
8.779359e+002, 7.232127e+001
8.784180e+002, 7.236912e+001
8.789001e+002, 7.221301e+001
8.793822e+002, 7.160812e+001
8.798643e+002, 7.100818e+001
8.803464e+002, 7.095656e+001
8.808286e+002, 7.136649e+001
8.813107e+002, 7.201841e+001
8.817928e+002, 7.278934e+001
8.822749e+002, 7.326270e+001
8.827570e+002, 7.281204e+001
8.832391e+002, 7.178856e+001
8.837213e+002, 7.132978e+001
8.842034e+002, 7.140532e+001
8.846855e+002, 7.151647e+001
8.851676e+002, 7.155153e+001
8.856497e+002, 7.158239e+001
8.861318e+002, 7.164878e+001
8.866140e+002, 7.177338e+001
8.870961e+002, 7.206150e+001
8.875782e+002, 7.268068e+001
8.880603e+002, 7.302522e+001
8.885424e+002, 7.291682e+001
8.890245e+002, 7.277297e+001
8.895067e+002, 7.284000e+001
8.899888e+002, 7.291221e+001
8.904709e+002, 7.272314e+001
8.909530e+002, 7.226412e+001
8.914351e+002, 7.181898e+001
8.919172e+002, 7.106809e+001
8.923994e+002, 7.080983e+001
8.928815e+002, 7.187699e+001
8.933636e+002, 7.320458e+001
8.938457e+002, 7.383526e+001
8.943278e+002, 7.375884e+001
8.948099e+002, 7.324468e+001
8.952921e+002, 7.234557e+001
8.957742e+002, 7.156683e+001
8.962563e+002, 7.155647e+001
8.967384e+002, 7.189857e+001
8.972205e+002, 7.184519e+001
8.977026e+002, 7.147122e+001
8.981848e+002, 7.118117e+001
8.986669e+002, 7.110667e+001
8.991490e+002, 7.122964e+001
8.996311e+002, 7.156922e+001
9.001132e+002, 7.204345e+001
9.005953e+002, 7.236355e+001
9.010775e+002, 7.253453e+001
9.015596e+002, 7.242491e+001
9.020417e+002, 7.187853e+001
9.025238e+002, 7.151928e+001
9.030059e+002, 7.180916e+001
9.034880e+002, 7.243057e+001
9.039702e+002, 7.273964e+001
9.044523e+002, 7.267725e+001
9.049344e+002, 7.253017e+001
9.054165e+002, 7.216268e+001
9.058986e+002, 7.188541e+001
9.063807e+002, 7.193597e+001
9.068629e+002, 7.196805e+001
9.073450e+002, 7.155363e+001
9.078271e+002, 7.082838e+001
9.083092e+002, 7.042948e+001
9.087913e+002, 7.074296e+001
9.092734e+002, 7.093333e+001
9.097556e+002, 7.022563e+001
9.102377e+002, 6.958226e+001
9.107198e+002, 7.011079e+001
9.112019e+002, 7.130724e+001
9.116840e+002, 7.208516e+001
9.121661e+002, 7.212798e+001
9.126483e+002, 7.189322e+001
9.131304e+002, 7.173911e+001
9.136125e+002, 7.155949e+001
9.140946e+002, 7.102084e+001
9.145767e+002, 7.031487e+001
9.150588e+002, 7.016221e+001
9.155410e+002, 7.063134e+001
9.160231e+002, 7.109695e+001
9.165052e+002, 7.116870e+001
9.169873e+002, 7.098311e+001
9.174694e+002, 7.081587e+001
9.179515e+002, 7.067344e+001
9.184337e+002, 7.023887e+001
9.189158e+002, 6.933601e+001
9.193979e+002, 6.903036e+001
9.198800e+002, 6.998818e+001
9.203621e+002, 7.105595e+001
9.208442e+002, 7.085303e+001
9.213264e+002, 6.956076e+001
9.218085e+002, 6.913644e+001
9.222906e+002, 7.068159e+001
9.227727e+002, 7.128735e+001
9.232548e+002, 6.987193e+001
9.237369e+002, 6.857253e+001
9.242191e+002, 6.861849e+001
9.247012e+002, 6.931257e+001
9.251833e+002, 6.957845e+001
9.256654e+002, 6.927916e+001
9.261475e+002, 6.894152e+001
9.266296e+002, 6.845063e+001
9.271118e+002, 6.827950e+001
9.275939e+002, 6.903281e+001
9.280760e+002, 6.997344e+001
9.285581e+002, 7.017371e+001
9.290402e+002, 6.978210e+001
9.295223e+002, 6.972414e+001
9.300045e+002, 7.050694e+001
9.304866e+002, 7.102676e+001
9.309687e+002, 6.977426e+001
9.314508e+002, 6.791987e+001
9.319329e+002, 6.732397e+001
9.324150e+002, 6.776971e+001
9.328972e+002, 6.844646e+001
9.333793e+002, 6.906283e+001
9.338614e+002, 6.933006e+001
9.343435e+002, 6.890740e+001
9.348256e+002, 6.815765e+001
9.353077e+002, 6.803627e+001
9.357899e+002, 6.849406e+001
9.362720e+002, 6.875835e+001
9.367541e+002, 6.871624e+001
9.372362e+002, 6.890647e+001
9.377183e+002, 6.970190e+001
9.382004e+002, 7.052695e+001
9.386826e+002, 7.049282e+001
9.391647e+002, 6.958062e+001
9.396468e+002, 6.854279e+001
9.401289e+002, 6.703167e+001
9.406110e+002, 6.628934e+001
9.410931e+002, 6.715713e+001
9.415753e+002, 6.805948e+001
9.420574e+002, 6.752163e+001
9.425395e+002, 6.625137e+001
9.430216e+002, 6.632043e+001
9.435037e+002, 6.850801e+001
9.439858e+002, 6.965633e+001
9.444680e+002, 6.865390e+001
9.449501e+002, 6.762161e+001
9.454322e+002, 6.731036e+001
9.459143e+002, 6.738369e+001
9.463964e+002, 6.759586e+001
9.468785e+002, 6.784710e+001
9.473607e+002, 6.789082e+001
9.478428e+002, 6.747873e+001
9.483249e+002, 6.720814e+001
9.488070e+002, 6.776836e+001
9.492891e+002, 6.830193e+001
9.497712e+002, 6.777854e+001
9.502534e+002, 6.665565e+001
9.507355e+002, 6.594714e+001
9.512176e+002, 6.590029e+001
9.516997e+002, 6.599162e+001
9.521818e+002, 6.575817e+001
9.526639e+002, 6.554090e+001
9.531461e+002, 6.593771e+001
9.536282e+002, 6.667949e+001
9.541103e+002, 6.723640e+001
9.545924e+002, 6.749563e+001
9.550745e+002, 6.722952e+001
9.555566e+002, 6.631123e+001
9.560388e+002, 6.536089e+001
9.565209e+002, 6.535320e+001
9.570030e+002, 6.603703e+001
9.574851e+002, 6.591328e+001
9.579672e+002, 6.499164e+001
9.584493e+002, 6.514188e+001
9.589315e+002, 6.699924e+001
9.594136e+002, 6.816048e+001
9.598957e+002, 6.663167e+001
9.603778e+002, 6.361304e+001
9.608599e+002, 6.222976e+001
9.613420e+002, 6.280417e+001
9.618242e+002, 6.343534e+001
9.623063e+002, 6.420392e+001
9.627884e+002, 6.484467e+001
9.632705e+002, 6.540717e+001
9.637526e+002, 6.561068e+001
9.642347e+002, 6.491373e+001
9.647169e+002, 6.352025e+001
9.651990e+002, 6.293223e+001
9.656811e+002, 6.414928e+001
9.661632e+002, 6.464116e+001
9.666453e+002, 6.369024e+001
9.671274e+002, 6.283291e+001
9.676096e+002, 6.284119e+001
9.680917e+002, 6.322906e+001
9.685738e+002, 6.333719e+001
9.690559e+002, 6.313885e+001
9.695380e+002, 6.313189e+001
9.700201e+002, 6.373563e+001
9.705023e+002, 6.415142e+001
9.709844e+002, 6.380466e+001
9.714665e+002, 6.342418e+001
9.719486e+002, 6.388208e+001
9.724307e+002, 6.468284e+001
9.729128e+002, 6.462807e+001
9.733950e+002, 6.342812e+001
9.738771e+002, 6.240485e+001
9.743592e+002, 6.251949e+001
9.748413e+002, 6.296174e+001
9.753234e+002, 6.313602e+001
9.758055e+002, 6.311266e+001
9.762877e+002, 6.287661e+001
9.767698e+002, 6.255227e+001
9.772519e+002, 6.257507e+001
9.777340e+002, 6.316504e+001
9.782161e+002, 6.368795e+001
9.786982e+002, 6.314919e+001
9.791804e+002, 6.223481e+001
9.796625e+002, 6.255471e+001
9.801446e+002, 6.366479e+001
9.806267e+002, 6.382371e+001
9.811088e+002, 6.276754e+001
9.815909e+002, 6.178854e+001
9.820731e+002, 6.178998e+001
9.825552e+002, 6.227364e+001
9.830373e+002, 6.228284e+001
9.835194e+002, 6.191988e+001
9.840015e+002, 6.201764e+001
9.844836e+002, 6.259829e+001
9.849658e+002, 6.299228e+001
9.854479e+002, 6.298346e+001
9.859300e+002, 6.277821e+001
9.864121e+002, 6.255001e+001
9.868942e+002, 6.230256e+001
9.873763e+002, 6.203550e+001
9.878585e+002, 6.172813e+001
9.883406e+002, 6.150067e+001
9.888227e+002, 6.128179e+001
9.893048e+002, 6.147731e+001
9.897869e+002, 6.251803e+001
9.902690e+002, 6.355043e+001
9.907512e+002, 6.346495e+001
9.912333e+002, 6.237263e+001
9.917154e+002, 6.169560e+001
9.921975e+002, 6.177312e+001
9.926796e+002, 6.152403e+001
9.931617e+002, 6.043892e+001
9.936439e+002, 5.962735e+001
9.941260e+002, 5.982250e+001
9.946081e+002, 6.046973e+001
9.950902e+002, 6.083298e+001
9.955723e+002, 6.091103e+001
9.960544e+002, 6.077301e+001
9.965366e+002, 6.005692e+001
9.970187e+002, 5.964753e+001
9.975008e+002, 5.995222e+001
9.979829e+002, 6.033282e+001
9.984650e+002, 6.040563e+001
9.989471e+002, 6.028559e+001
9.994293e+002, 6.015510e+001
9.999114e+002, 6.003122e+001
1.000393e+003, 6.005687e+001
1.000876e+003, 6.055238e+001
1.001358e+003, 6.084719e+001
1.001840e+003, 6.059076e+001
1.002322e+003, 6.007050e+001
1.002804e+003, 5.916439e+001
1.003286e+003, 5.829865e+001
1.003768e+003, 5.858332e+001
1.004250e+003, 6.041406e+001
1.004733e+003, 6.162797e+001
1.005215e+003, 6.022415e+001
1.005697e+003, 5.867575e+001
1.006179e+003, 5.904843e+001
1.006661e+003, 6.024946e+001
1.007143e+003, 6.097752e+001
1.007625e+003, 6.109534e+001
1.008107e+003, 6.087062e+001
1.008589e+003, 6.038958e+001
1.009072e+003, 5.990371e+001
1.009554e+003, 5.959047e+001
1.010036e+003, 5.941753e+001
1.010518e+003, 5.942298e+001
1.011000e+003, 5.951095e+001
1.011482e+003, 5.954440e+001
1.011964e+003, 5.946964e+001
1.012446e+003, 5.912461e+001
1.012929e+003, 5.836936e+001
1.013411e+003, 5.778734e+001
1.013893e+003, 5.828374e+001
1.014375e+003, 5.935372e+001
1.014857e+003, 6.008791e+001
1.015339e+003, 6.046732e+001
1.015821e+003, 6.056037e+001
1.016303e+003, 6.038206e+001
1.016785e+003, 5.982021e+001
1.017268e+003, 5.872645e+001
1.017750e+003, 5.766216e+001
1.018232e+003, 5.774434e+001
1.018714e+003, 5.864351e+001
1.019196e+003, 5.894271e+001
1.019678e+003, 5.866669e+001
1.020160e+003, 5.842458e+001
1.020642e+003, 5.838704e+001
1.021125e+003, 5.860695e+001
1.021607e+003, 5.916828e+001
1.022089e+003, 5.986654e+001
1.022571e+003, 6.030861e+001
1.023053e+003, 6.048704e+001
1.023535e+003, 6.007246e+001
1.024017e+003, 5.902063e+001
1.024499e+003, 5.818969e+001
1.024981e+003, 5.784153e+001
1.025464e+003, 5.786687e+001
1.025946e+003, 5.824903e+001
1.026428e+003, 5.878231e+001
1.026910e+003, 5.870707e+001
1.027392e+003, 5.790598e+001
1.027874e+003, 5.773606e+001
1.028356e+003, 5.844268e+001
1.028838e+003, 5.871955e+001
1.029321e+003, 5.791864e+001
1.029803e+003, 5.713337e+001
1.030285e+003, 5.752356e+001
1.030767e+003, 5.876874e+001
1.031249e+003, 5.941501e+001
1.031731e+003, 5.931753e+001
1.032213e+003, 5.917790e+001
1.032695e+003, 5.903150e+001
1.033177e+003, 5.879150e+001
1.033660e+003, 5.837850e+001
1.034142e+003, 5.792873e+001
1.034624e+003, 5.752811e+001
1.035106e+003, 5.721472e+001
1.035588e+003, 5.726406e+001
1.036070e+003, 5.789793e+001
1.036552e+003, 5.837112e+001
1.037034e+003, 5.871244e+001
1.037516e+003, 5.881466e+001
1.037999e+003, 5.855444e+001
1.038481e+003, 5.811511e+001
1.038963e+003, 5.755091e+001
1.039445e+003, 5.693740e+001
1.039927e+003, 5.687556e+001
1.040409e+003, 5.793204e+001
1.040891e+003, 5.853944e+001
1.041373e+003, 5.842817e+001
1.041855e+003, 5.820086e+001
1.042338e+003, 5.812170e+001
1.042820e+003, 5.799889e+001
1.043302e+003, 5.742506e+001
1.043784e+003, 5.653426e+001
1.044266e+003, 5.635154e+001
1.044748e+003, 5.753251e+001
1.045230e+003, 5.836885e+001
1.045712e+003, 5.860424e+001
1.046195e+003, 5.868256e+001
1.046677e+003, 5.876534e+001
1.047159e+003, 5.879020e+001
1.047641e+003, 5.867442e+001
1.048123e+003, 5.842840e+001
1.048605e+003, 5.812772e+001
1.049087e+003, 5.756734e+001
1.049569e+003, 5.733872e+001
1.050052e+003, 5.774795e+001
1.050534e+003, 5.824496e+001
1.051016e+003, 5.867913e+001
1.051498e+003, 5.900007e+001
1.051980e+003, 5.915657e+001
1.052462e+003, 5.915571e+001
1.052944e+003, 5.904416e+001
1.053426e+003, 5.868077e+001
1.053908e+003, 5.851103e+001
1.054391e+003, 5.914817e+001
1.054873e+003, 5.941068e+001
1.055355e+003, 5.808185e+001
1.055837e+003, 5.648646e+001
1.056319e+003, 5.629807e+001
1.056801e+003, 5.735423e+001
1.057283e+003, 5.813790e+001
1.057765e+003, 5.824829e+001
1.058248e+003, 5.817395e+001
1.058730e+003, 5.804363e+001
1.059212e+003, 5.778198e+001
1.059694e+003, 5.699600e+001
1.060176e+003, 5.630074e+001
1.060658e+003, 5.658204e+001
1.061140e+003, 5.764983e+001
1.061622e+003, 5.841041e+001
1.062104e+003, 5.849014e+001
1.062587e+003, 5.846881e+001
1.063069e+003, 5.857251e+001
1.063551e+003, 5.861158e+001
1.064033e+003, 5.835109e+001
1.064515e+003, 5.805273e+001
1.064997e+003, 5.814612e+001
1.065479e+003, 5.849635e+001
1.065961e+003, 5.846633e+001
1.066443e+003, 5.774712e+001
1.066926e+003, 5.709547e+001
1.067408e+003, 5.671125e+001
1.067890e+003, 5.660737e+001
1.068372e+003, 5.691146e+001
1.068854e+003, 5.741276e+001
1.069336e+003, 5.800923e+001
1.069818e+003, 5.857835e+001
1.070300e+003, 5.881865e+001
1.070782e+003, 5.857027e+001
1.071265e+003, 5.836091e+001
1.071747e+003, 5.871013e+001
1.072229e+003, 5.883530e+001
1.072711e+003, 5.790929e+001
1.073193e+003, 5.677969e+001
1.073675e+003, 5.637258e+001
1.074157e+003, 5.660902e+001
1.074639e+003, 5.704778e+001
1.075122e+003, 5.762928e+001
1.075604e+003, 5.790707e+001
1.076086e+003, 5.727985e+001
1.076568e+003, 5.676204e+001
1.077050e+003, 5.699466e+001
1.077532e+003, 5.759928e+001
1.078014e+003, 5.846425e+001
1.078496e+003, 5.928860e+001
1.078979e+003, 5.944307e+001
1.079461e+003, 5.874400e+001
1.079943e+003, 5.786968e+001
1.080425e+003, 5.653077e+001
1.080907e+003, 5.583986e+001
1.081389e+003, 5.709844e+001
1.081871e+003, 5.871057e+001
1.082353e+003, 5.923798e+001
1.082835e+003, 5.886364e+001
1.083318e+003, 5.809067e+001
1.083800e+003, 5.705273e+001
1.084282e+003, 5.651368e+001
1.084764e+003, 5.716695e+001
1.085246e+003, 5.793509e+001
1.085728e+003, 5.847097e+001
1.086210e+003, 5.871630e+001
1.086692e+003, 5.856812e+001
1.087175e+003, 5.812029e+001
1.087657e+003, 5.743837e+001
1.088139e+003, 5.657119e+001
1.088621e+003, 5.590105e+001
1.089103e+003, 5.553836e+001
1.089585e+003, 5.546080e+001
1.090067e+003, 5.578936e+001
1.090549e+003, 5.627044e+001
1.091031e+003, 5.673639e+001
1.091514e+003, 5.720774e+001
1.091996e+003, 5.795494e+001
1.092478e+003, 5.887228e+001
1.092960e+003, 5.898109e+001
1.093442e+003, 5.734390e+001
1.093924e+003, 5.599805e+001
1.094406e+003, 5.575935e+001
1.094888e+003, 5.598630e+001
1.095370e+003, 5.651858e+001
1.095853e+003, 5.709711e+001
1.096335e+003, 5.750290e+001
1.096817e+003, 5.768726e+001
1.097299e+003, 5.751300e+001
1.097781e+003, 5.656637e+001
1.098263e+003, 5.623745e+001
1.098745e+003, 5.792265e+001
1.099227e+003, 5.920835e+001
1.099709e+003, 5.812049e+001
1.100192e+003, 5.652747e+001
1.100674e+003, 5.666616e+001
1.101156e+003, 5.811200e+001
1.101638e+003, 5.886268e+001
1.102120e+003, 5.835242e+001
1.102602e+003, 5.786024e+001
1.103084e+003, 5.772621e+001
1.103566e+003, 5.762700e+001
1.104049e+003, 5.737586e+001
1.104531e+003, 5.715679e+001
1.105013e+003, 5.714899e+001
1.105495e+003, 5.729377e+001
1.105977e+003, 5.747466e+001
1.106459e+003, 5.771527e+001
1.106941e+003, 5.773045e+001
1.107423e+003, 5.729079e+001
1.107906e+003, 5.687357e+001
1.108388e+003, 5.632176e+001
1.108870e+003, 5.612166e+001
1.109352e+003, 5.708018e+001
1.109834e+003, 5.839594e+001
1.110316e+003, 5.855157e+001
1.110798e+003, 5.740203e+001
1.111280e+003, 5.661901e+001
1.111762e+003, 5.625629e+001
1.112245e+003, 5.638178e+001
1.112727e+003, 5.754917e+001
1.113209e+003, 5.858151e+001
1.113691e+003, 5.882296e+001
1.114173e+003, 5.866536e+001
1.114655e+003, 5.864104e+001
1.115137e+003, 5.872062e+001
1.115619e+003, 5.845013e+001
1.116102e+003, 5.720014e+001
1.116584e+003, 5.672473e+001
1.117066e+003, 5.743406e+001
1.117548e+003, 5.836052e+001
1.118030e+003, 5.950023e+001
1.118512e+003, 6.036704e+001
1.118994e+003, 6.038836e+001
1.119476e+003, 5.976969e+001
1.119958e+003, 5.934311e+001
1.120441e+003, 5.918859e+001
1.120923e+003, 5.894981e+001
1.121405e+003, 5.845735e+001
1.121887e+003, 5.828710e+001
1.122369e+003, 5.878310e+001
1.122851e+003, 5.926919e+001
1.123333e+003, 5.919659e+001
1.123815e+003, 5.881722e+001
1.124297e+003, 5.866780e+001
1.124780e+003, 5.874876e+001
1.125262e+003, 5.913181e+001
1.125744e+003, 6.004376e+001
1.126226e+003, 6.030421e+001
1.126708e+003, 5.945019e+001
1.127190e+003, 5.883094e+001
1.127672e+003, 5.927473e+001
1.128154e+003, 6.014367e+001
1.128636e+003, 6.052626e+001
1.129119e+003, 6.046817e+001
1.129601e+003, 6.032164e+001
1.130083e+003, 6.007071e+001
1.130565e+003, 5.986158e+001
1.131047e+003, 5.968787e+001
1.131529e+003, 5.982136e+001
1.132011e+003, 6.042646e+001
1.132493e+003, 6.096996e+001
1.132976e+003, 6.088568e+001
1.133458e+003, 6.038085e+001
1.133940e+003, 5.996100e+001
1.134422e+003, 5.964684e+001
1.134904e+003, 5.983594e+001
1.135386e+003, 6.051067e+001
1.135868e+003, 6.093855e+001
1.136350e+003, 6.092460e+001
1.136833e+003, 6.082654e+001
1.137315e+003, 6.089833e+001
1.137797e+003, 6.102679e+001
1.138279e+003, 6.103455e+001
1.138761e+003, 6.093840e+001
1.139243e+003, 6.083050e+001
1.139725e+003, 6.067330e+001
1.140207e+003, 6.012618e+001
1.140689e+003, 5.926682e+001
1.141172e+003, 5.899010e+001
1.141654e+003, 5.971165e+001
1.142136e+003, 6.062254e+001
1.142618e+003, 6.093636e+001
1.143100e+003, 6.080391e+001
1.143582e+003, 6.027135e+001
1.144064e+003, 5.957430e+001
1.144546e+003, 5.915419e+001
1.145029e+003, 5.904280e+001
1.145511e+003, 5.917873e+001
1.145993e+003, 5.953051e+001
1.146475e+003, 6.005729e+001
1.146957e+003, 6.081843e+001
1.147439e+003, 6.151809e+001
1.147921e+003, 6.197418e+001
1.148403e+003, 6.211294e+001
1.148885e+003, 6.161812e+001
1.149368e+003, 6.084620e+001
1.149850e+003, 6.037600e+001
1.150332e+003, 6.027527e+001
1.150814e+003, 6.033326e+001
1.151296e+003, 6.048665e+001
1.151778e+003, 6.065989e+001
1.152260e+003, 6.093968e+001
1.152742e+003, 6.107050e+001
1.153224e+003, 6.083606e+001
1.153707e+003, 6.039750e+001
1.154189e+003, 5.973534e+001
1.154671e+003, 5.907351e+001
1.155153e+003, 5.886453e+001
1.155635e+003, 5.920141e+001
1.156117e+003, 5.969763e+001
1.156599e+003, 6.045381e+001
1.157081e+003, 6.103487e+001
1.157563e+003, 6.119392e+001
1.158046e+003, 6.125972e+001
1.158528e+003, 6.155983e+001
1.159010e+003, 6.180809e+001
1.159492e+003, 6.147473e+001
1.159974e+003, 6.064642e+001
1.160456e+003, 6.021425e+001
1.160938e+003, 6.047849e+001
1.161420e+003, 6.069407e+001
1.161903e+003, 6.059836e+001
1.162385e+003, 6.079540e+001
1.162867e+003, 6.183834e+001
1.163349e+003, 6.275844e+001
1.163831e+003, 6.251519e+001
1.164313e+003, 6.176918e+001
1.164795e+003, 6.226440e+001
1.165277e+003, 6.426524e+001
1.165760e+003, 6.529504e+001
1.166242e+003, 6.522810e+001
1.166724e+003, 6.445406e+001
1.167206e+003, 6.268251e+001
1.167688e+003, 6.135076e+001
1.168170e+003, 6.123345e+001
1.168652e+003, 6.188467e+001
1.169134e+003, 6.293708e+001
1.169616e+003, 6.408242e+001
1.170099e+003, 6.353893e+001
1.170581e+003, 6.127389e+001
1.171063e+003, 6.009721e+001
1.171545e+003, 6.018359e+001
1.172027e+003, 6.054789e+001
1.172509e+003, 6.089513e+001
1.172991e+003, 6.120014e+001
1.173473e+003, 6.145915e+001
1.173956e+003, 6.158157e+001
1.174438e+003, 6.122148e+001
1.174920e+003, 6.064569e+001
1.175402e+003, 6.099770e+001
1.175884e+003, 6.190121e+001
1.176366e+003, 6.184021e+001
1.176848e+003, 6.078608e+001
1.177330e+003, 5.981404e+001
1.177813e+003, 5.939638e+001
1.178295e+003, 5.941057e+001
1.178777e+003, 5.987048e+001
1.179259e+003, 6.051830e+001
1.179741e+003, 6.124739e+001
1.180223e+003, 6.180418e+001
1.180705e+003, 6.174672e+001
1.181187e+003, 6.124090e+001
1.181669e+003, 6.062938e+001
1.182151e+003, 6.000817e+001
1.182634e+003, 5.927305e+001
1.183116e+003, 5.814146e+001
1.183598e+003, 5.780087e+001
1.184080e+003, 5.993046e+001
1.184562e+003, 6.194863e+001
1.185044e+003, 6.180037e+001
1.185526e+003, 6.092952e+001
1.186008e+003, 6.096231e+001
1.186490e+003, 6.154829e+001
1.186973e+003, 6.146679e+001
1.187455e+003, 6.047712e+001
1.187937e+003, 5.963618e+001
1.188419e+003, 5.903178e+001
1.188901e+003, 5.876625e+001
1.189383e+003, 5.906161e+001
1.189865e+003, 5.946072e+001
1.190347e+003, 5.999800e+001
1.190830e+003, 6.030664e+001
1.191312e+003, 5.974910e+001
1.191794e+003, 5.860470e+001
1.192276e+003, 5.830986e+001
1.192758e+003, 5.926411e+001
1.193240e+003, 5.972827e+001
1.193722e+003, 5.969537e+001
1.194204e+003, 5.905492e+001
1.194687e+003, 5.744651e+001
1.195169e+003, 5.634547e+001
1.195651e+003, 5.678530e+001
1.196133e+003, 5.799929e+001
1.196615e+003, 5.886931e+001
1.197097e+003, 5.936290e+001
1.197579e+003, 5.924051e+001
1.198061e+003, 5.852106e+001
1.198543e+003, 5.731766e+001
1.199026e+003, 5.574036e+001
1.199508e+003, 5.542915e+001
1.199990e+003, 5.686871e+001
1.200472e+003, 5.827580e+001
1.200954e+003, 5.819651e+001
1.201436e+003, 5.748366e+001
1.201918e+003, 5.729142e+001
1.202400e+003, 5.747688e+001
1.202883e+003, 5.813945e+001
1.203365e+003, 5.880204e+001
1.203847e+003, 5.803810e+001
1.204329e+003, 5.618534e+001
1.204811e+003, 5.510553e+001
1.205293e+003, 5.546846e+001
1.205775e+003, 5.608982e+001
1.206257e+003, 5.626060e+001
1.206740e+003, 5.626159e+001
1.207222e+003, 5.623091e+001
1.207704e+003, 5.618587e+001
1.208186e+003, 5.604877e+001
1.208668e+003, 5.596445e+001
1.209150e+003, 5.616795e+001
1.209632e+003, 5.663498e+001
1.210114e+003, 5.718386e+001
1.210596e+003, 5.796235e+001
1.211078e+003, 5.819008e+001
1.211561e+003, 5.726127e+001
1.212043e+003, 5.638713e+001
1.212525e+003, 5.600760e+001
1.213007e+003, 5.570902e+001
1.213489e+003, 5.507024e+001
1.213971e+003, 5.445807e+001
1.214453e+003, 5.453251e+001
1.214935e+003, 5.523986e+001
1.215417e+003, 5.559171e+001
1.215900e+003, 5.551703e+001
1.216382e+003, 5.532292e+001
1.216864e+003, 5.497349e+001
1.217346e+003, 5.476910e+001
1.217828e+003, 5.484889e+001
1.218310e+003, 5.478096e+001
1.218792e+003, 5.413557e+001
1.219274e+003, 5.354826e+001
1.219757e+003, 5.458234e+001
1.220239e+003, 5.663271e+001
1.220721e+003, 5.647570e+001
1.221203e+003, 5.460561e+001
1.221685e+003, 5.337772e+001
1.222167e+003, 5.305041e+001
1.222649e+003, 5.320137e+001
1.223131e+003, 5.362864e+001
1.223614e+003, 5.399805e+001
1.224096e+003, 5.406944e+001
1.224578e+003, 5.393595e+001
1.225060e+003, 5.344464e+001
1.225542e+003, 5.303354e+001
1.226024e+003, 5.357460e+001
1.226506e+003, 5.435136e+001
1.226988e+003, 5.397340e+001
1.227470e+003, 5.279598e+001
1.227953e+003, 5.238869e+001
1.228435e+003, 5.321780e+001
1.228917e+003, 5.384922e+001
1.229399e+003, 5.352682e+001
1.229881e+003, 5.321436e+001
1.230363e+003, 5.315034e+001
1.230845e+003, 5.327308e+001
1.231327e+003, 5.395913e+001
1.231810e+003, 5.450647e+001
1.232292e+003, 5.382660e+001
1.232774e+003, 5.229174e+001
1.233256e+003, 5.136823e+001
1.233738e+003, 5.109094e+001
1.234220e+003, 5.137944e+001
1.234702e+003, 5.261267e+001
1.235184e+003, 5.306322e+001
1.235667e+003, 5.214840e+001
1.236149e+003, 5.157441e+001
1.236631e+003, 5.236228e+001
1.237113e+003, 5.319178e+001
1.237595e+003, 5.232423e+001
1.238077e+003, 5.055139e+001
1.238559e+003, 5.040223e+001
1.239041e+003, 5.151037e+001
1.239523e+003, 5.207661e+001
1.240005e+003, 5.206781e+001
1.240488e+003, 5.162392e+001
1.240970e+003, 5.090985e+001
1.241452e+003, 5.060670e+001
1.241934e+003, 5.105299e+001
1.242416e+003, 5.162794e+001
1.242898e+003, 5.186814e+001
1.243380e+003, 5.183680e+001
1.243862e+003, 5.139169e+001
1.244344e+003, 5.088735e+001
1.244827e+003, 5.083780e+001
1.245309e+003, 5.096334e+001
1.245791e+003, 5.065774e+001
1.246273e+003, 4.997060e+001
1.246755e+003, 4.954411e+001
1.247237e+003, 4.951387e+001
1.247719e+003, 4.984479e+001
1.248201e+003, 5.099314e+001
1.248684e+003, 5.184932e+001
1.249166e+003, 5.212319e+001
1.249648e+003, 5.193852e+001
1.250130e+003, 5.092464e+001
1.250612e+003, 4.995289e+001
1.251094e+003, 5.038434e+001
1.251576e+003, 5.190006e+001
1.252058e+003, 5.235781e+001
1.252541e+003, 5.158039e+001
1.253023e+003, 5.098459e+001
1.253505e+003, 5.059624e+001
1.253987e+003, 5.065481e+001
1.254469e+003, 5.123223e+001
1.254951e+003, 5.125343e+001
1.255433e+003, 5.004197e+001
1.255915e+003, 4.908747e+001
1.256397e+003, 5.069204e+001
1.256880e+003, 5.309093e+001
1.257362e+003, 5.233164e+001
1.257844e+003, 5.005319e+001
1.258326e+003, 4.946442e+001
1.258808e+003, 5.019864e+001
1.259290e+003, 5.101185e+001
1.259772e+003, 5.149701e+001
1.260254e+003, 5.129495e+001
1.260737e+003, 5.015571e+001
1.261219e+003, 4.916805e+001
1.261701e+003, 4.910952e+001
1.262183e+003, 4.907097e+001
1.262665e+003, 4.827501e+001
1.263147e+003, 4.769368e+001
1.263629e+003, 4.826973e+001
1.264111e+003, 4.935156e+001
1.264594e+003, 5.016209e+001
1.265076e+003, 5.062437e+001
1.265558e+003, 5.044889e+001
1.266040e+003, 4.930589e+001
1.266522e+003, 4.872223e+001
1.267004e+003, 4.877116e+001
1.267486e+003, 4.924419e+001
1.267968e+003, 5.030214e+001
1.268450e+003, 5.068994e+001
1.268932e+003, 4.966039e+001
1.269415e+003, 4.839087e+001
1.269897e+003, 4.816686e+001
1.270379e+003, 4.874810e+001
1.270861e+003, 5.012103e+001
1.271343e+003, 5.163391e+001
1.271825e+003, 5.069403e+001
1.272307e+003, 4.823982e+001
1.272789e+003, 4.744883e+001
1.273271e+003, 4.842912e+001
1.273754e+003, 4.913128e+001
1.274236e+003, 4.878783e+001
1.274718e+003, 4.829944e+001
1.275200e+003, 4.814248e+001
1.275682e+003, 4.817848e+001
1.276164e+003, 4.837442e+001
1.276646e+003, 4.868037e+001
1.277128e+003, 4.935749e+001
1.277611e+003, 4.989259e+001
1.278093e+003, 4.947149e+001
1.278575e+003, 4.843343e+001
1.279057e+003, 4.797249e+001
1.279539e+003, 4.818281e+001
1.280021e+003, 4.852745e+001
1.280503e+003, 4.921319e+001
1.280985e+003, 4.938752e+001
1.281468e+003, 4.888641e+001
1.281950e+003, 4.817293e+001
1.282432e+003, 4.735442e+001
1.282914e+003, 4.671623e+001
1.283396e+003, 4.650275e+001
1.283878e+003, 4.658045e+001
1.284360e+003, 4.668193e+001
1.284842e+003, 4.685592e+001
1.285324e+003, 4.724310e+001
##END=



