##NAMES=Stilpnomelane
##RRUFFID=R060334
##IDEAL CHEMISTRY=(K,Ca,Na)(Fe^2+^,Mg,Al,Fe^3+^)_8_(Si,Al)_12_(O,OH)_36_&#183;nH_2_O
##LOCALITY=Blanchard Mountain, Skagit County, Washington, USA
##OWNER=RRUFF
##SOURCE=Michael Scott
##DESCRIPTION=Black platy radiating groups associated with quartz, 180 deg twin around [0 1 2]
##STATUS=The identification of this mineral has been confirmed by single-crystal X-ray diffraction.
##URL=rruff.info/R060334
9.001007e+001, 0.000000e+000
9.049219e+001, 5.949581e+001
9.097430e+001, 5.912843e+001
9.145642e+001, 5.918366e+001
9.193854e+001, 5.963585e+001
9.242065e+001, 6.027084e+001
9.290277e+001, 6.104920e+001
9.338489e+001, 6.188973e+001
9.386700e+001, 6.260211e+001
9.434912e+001, 6.317469e+001
9.483124e+001, 6.355639e+001
9.531335e+001, 6.363187e+001
9.579547e+001, 6.339552e+001
9.627759e+001, 6.288214e+001
9.675970e+001, 6.191504e+001
9.724182e+001, 6.054689e+001
9.772394e+001, 5.944358e+001
9.820605e+001, 5.902672e+001
9.868817e+001, 5.922984e+001
9.917029e+001, 5.922599e+001
9.965240e+001, 5.895543e+001
1.001345e+002, 5.855599e+001
1.006166e+002, 5.836615e+001
1.010988e+002, 5.847191e+001
1.015809e+002, 5.840145e+001
1.020630e+002, 5.780561e+001
1.025451e+002, 5.652623e+001
1.030272e+002, 5.548662e+001
1.035093e+002, 5.476157e+001
1.039915e+002, 5.431463e+001
1.044736e+002, 5.399894e+001
1.049557e+002, 5.392629e+001
1.054378e+002, 5.382616e+001
1.059199e+002, 5.346376e+001
1.064020e+002, 5.249854e+001
1.068842e+002, 5.190991e+001
1.073663e+002, 5.198009e+001
1.078484e+002, 5.272147e+001
1.083305e+002, 5.309515e+001
1.088126e+002, 5.287908e+001
1.092947e+002, 5.241732e+001
1.097769e+002, 5.202388e+001
1.102590e+002, 5.166733e+001
1.107411e+002, 5.141181e+001
1.112232e+002, 5.142590e+001
1.117053e+002, 5.191439e+001
1.121874e+002, 5.177927e+001
1.126696e+002, 5.021157e+001
1.131517e+002, 4.816370e+001
1.136338e+002, 4.686980e+001
1.141159e+002, 4.723564e+001
1.145980e+002, 4.779377e+001
1.150801e+002, 4.802702e+001
1.155623e+002, 4.777122e+001
1.160444e+002, 4.743297e+001
1.165265e+002, 4.703302e+001
1.170086e+002, 4.662015e+001
1.174907e+002, 4.631091e+001
1.179728e+002, 4.634639e+001
1.184550e+002, 4.637225e+001
1.189371e+002, 4.614132e+001
1.194192e+002, 4.544047e+001
1.199013e+002, 4.472597e+001
1.203834e+002, 4.423285e+001
1.208655e+002, 4.392663e+001
1.213477e+002, 4.367130e+001
1.218298e+002, 4.339595e+001
1.223119e+002, 4.313365e+001
1.227940e+002, 4.291841e+001
1.232761e+002, 4.273519e+001
1.237582e+002, 4.262560e+001
1.242404e+002, 4.278892e+001
1.247225e+002, 4.318438e+001
1.252046e+002, 4.330803e+001
1.256867e+002, 4.255738e+001
1.261688e+002, 4.127571e+001
1.266509e+002, 4.008954e+001
1.271331e+002, 3.925431e+001
1.276152e+002, 3.865026e+001
1.280973e+002, 3.806324e+001
1.285794e+002, 3.747973e+001
1.290615e+002, 3.707742e+001
1.295436e+002, 3.715172e+001
1.300258e+002, 3.761346e+001
1.305079e+002, 3.806666e+001
1.309900e+002, 3.839675e+001
1.314721e+002, 3.858483e+001
1.319542e+002, 3.858427e+001
1.324363e+002, 3.839324e+001
1.329185e+002, 3.801406e+001
1.334006e+002, 3.716703e+001
1.338827e+002, 3.585176e+001
1.343648e+002, 3.507787e+001
1.348469e+002, 3.585011e+001
1.353290e+002, 3.800786e+001
1.358112e+002, 3.913657e+001
1.362933e+002, 3.886962e+001
1.367754e+002, 3.771346e+001
1.372575e+002, 3.666817e+001
1.377396e+002, 3.567962e+001
1.382217e+002, 3.503356e+001
1.387039e+002, 3.514888e+001
1.391860e+002, 3.623079e+001
1.396681e+002, 3.650879e+001
1.401502e+002, 3.541644e+001
1.406323e+002, 3.343551e+001
1.411144e+002, 3.278673e+001
1.415966e+002, 3.401069e+001
1.420787e+002, 3.553745e+001
1.425608e+002, 3.617134e+001
1.430429e+002, 3.567707e+001
1.435250e+002, 3.492404e+001
1.440071e+002, 3.383880e+001
1.444893e+002, 3.246674e+001
1.449714e+002, 3.180472e+001
1.454535e+002, 3.222696e+001
1.459356e+002, 3.300241e+001
1.464177e+002, 3.342951e+001
1.468998e+002, 3.325678e+001
1.473820e+002, 3.315169e+001
1.478641e+002, 3.335728e+001
1.483462e+002, 3.399493e+001
1.488283e+002, 3.404958e+001
1.493104e+002, 3.283335e+001
1.497925e+002, 3.135668e+001
1.502747e+002, 3.079699e+001
1.507568e+002, 3.248700e+001
1.512389e+002, 3.373168e+001
1.517210e+002, 3.373869e+001
1.522031e+002, 3.188633e+001
1.526852e+002, 3.077805e+001
1.531674e+002, 3.095366e+001
1.536495e+002, 3.177797e+001
1.541316e+002, 3.232936e+001
1.546137e+002, 3.214066e+001
1.550958e+002, 3.201209e+001
1.555779e+002, 3.227110e+001
1.560601e+002, 3.326297e+001
1.565422e+002, 3.388456e+001
1.570243e+002, 3.377411e+001
1.575064e+002, 3.319459e+001
1.579885e+002, 3.265518e+001
1.584706e+002, 3.209392e+001
1.589528e+002, 3.172266e+001
1.594349e+002, 3.168575e+001
1.599170e+002, 3.226951e+001
1.603991e+002, 3.271781e+001
1.608812e+002, 3.250893e+001
1.613633e+002, 3.196592e+001
1.618455e+002, 3.193670e+001
1.623276e+002, 3.341481e+001
1.628097e+002, 3.507143e+001
1.632918e+002, 3.604844e+001
1.637739e+002, 3.560985e+001
1.642560e+002, 3.519426e+001
1.647382e+002, 3.536108e+001
1.652203e+002, 3.604826e+001
1.657024e+002, 3.701831e+001
1.661845e+002, 3.848091e+001
1.666666e+002, 4.003727e+001
1.671487e+002, 4.130503e+001
1.676309e+002, 4.196947e+001
1.681130e+002, 4.255685e+001
1.685951e+002, 4.337917e+001
1.690772e+002, 4.441042e+001
1.695593e+002, 4.547550e+001
1.700414e+002, 4.626368e+001
1.705236e+002, 4.709228e+001
1.710057e+002, 4.834154e+001
1.714878e+002, 5.063023e+001
1.719699e+002, 5.302349e+001
1.724520e+002, 5.459264e+001
1.729341e+002, 5.540588e+001
1.734163e+002, 5.622549e+001
1.738984e+002, 5.771341e+001
1.743805e+002, 5.957770e+001
1.748626e+002, 6.128416e+001
1.753447e+002, 6.237614e+001
1.758268e+002, 6.337848e+001
1.763090e+002, 6.493117e+001
1.767911e+002, 6.702461e+001
1.772732e+002, 6.928299e+001
1.777553e+002, 7.134767e+001
1.782374e+002, 7.301183e+001
1.787195e+002, 7.414140e+001
1.792017e+002, 7.437387e+001
1.796838e+002, 7.419456e+001
1.801659e+002, 7.427737e+001
1.806480e+002, 7.462718e+001
1.811301e+002, 7.521336e+001
1.816122e+002, 7.624410e+001
1.820944e+002, 7.755473e+001
1.825765e+002, 7.856989e+001
1.830586e+002, 7.873268e+001
1.835407e+002, 7.848293e+001
1.840228e+002, 7.883203e+001
1.845049e+002, 7.985172e+001
1.849871e+002, 8.110906e+001
1.854692e+002, 8.208948e+001
1.859513e+002, 8.284639e+001
1.864334e+002, 8.361209e+001
1.869155e+002, 8.446960e+001
1.873976e+002, 8.542111e+001
1.878798e+002, 8.650606e+001
1.883619e+002, 8.773164e+001
1.888440e+002, 8.904105e+001
1.893261e+002, 9.031911e+001
1.898082e+002, 9.158245e+001
1.902903e+002, 9.291234e+001
1.907725e+002, 9.444472e+001
1.912546e+002, 9.613419e+001
1.917367e+002, 9.757476e+001
1.922188e+002, 9.873486e+001
1.927009e+002, 9.970727e+001
1.931830e+002, 1.005946e+002
1.936652e+002, 1.013942e+002
1.941473e+002, 1.021471e+002
1.946294e+002, 1.028482e+002
1.951115e+002, 1.035024e+002
1.955936e+002, 1.042401e+002
1.960757e+002, 1.051669e+002
1.965579e+002, 1.060145e+002
1.970400e+002, 1.060580e+002
1.975221e+002, 1.052019e+002
1.980042e+002, 1.045625e+002
1.984863e+002, 1.049757e+002
1.989684e+002, 1.064568e+002
1.994506e+002, 1.074369e+002
1.999327e+002, 1.077226e+002
2.004148e+002, 1.075640e+002
2.008969e+002, 1.074599e+002
2.013790e+002, 1.074162e+002
2.018611e+002, 1.073942e+002
2.023433e+002, 1.073160e+002
2.028254e+002, 1.071554e+002
2.033075e+002, 1.072799e+002
2.037896e+002, 1.078053e+002
2.042717e+002, 1.085489e+002
2.047538e+002, 1.090032e+002
2.052360e+002, 1.090861e+002
2.057181e+002, 1.091768e+002
2.062002e+002, 1.095674e+002
2.066823e+002, 1.103393e+002
2.071644e+002, 1.108438e+002
2.076465e+002, 1.109451e+002
2.081287e+002, 1.107907e+002
2.086108e+002, 1.108236e+002
2.090929e+002, 1.110756e+002
2.095750e+002, 1.114226e+002
2.100571e+002, 1.118457e+002
2.105392e+002, 1.124171e+002
2.110214e+002, 1.127153e+002
2.115035e+002, 1.125985e+002
2.119856e+002, 1.122214e+002
2.124677e+002, 1.121212e+002
2.129498e+002, 1.123595e+002
2.134319e+002, 1.127421e+002
2.139140e+002, 1.132491e+002
2.143962e+002, 1.140426e+002
2.148783e+002, 1.143466e+002
2.153604e+002, 1.138909e+002
2.158425e+002, 1.129260e+002
2.163246e+002, 1.125042e+002
2.168067e+002, 1.128001e+002
2.172889e+002, 1.132882e+002
2.177710e+002, 1.136605e+002
2.182531e+002, 1.138837e+002
2.187352e+002, 1.140878e+002
2.192173e+002, 1.142862e+002
2.196994e+002, 1.144734e+002
2.201816e+002, 1.146152e+002
2.206637e+002, 1.146943e+002
2.211458e+002, 1.147563e+002
2.216279e+002, 1.148456e+002
2.221100e+002, 1.150210e+002
2.225921e+002, 1.150543e+002
2.230743e+002, 1.148523e+002
2.235564e+002, 1.144915e+002
2.240385e+002, 1.143292e+002
2.245206e+002, 1.144349e+002
2.250027e+002, 1.146370e+002
2.254848e+002, 1.148350e+002
2.259670e+002, 1.150100e+002
2.264491e+002, 1.152461e+002
2.269312e+002, 1.156524e+002
2.274133e+002, 1.161381e+002
2.278954e+002, 1.162180e+002
2.283775e+002, 1.156084e+002
2.288597e+002, 1.150071e+002
2.293418e+002, 1.148861e+002
2.298239e+002, 1.155405e+002
2.303060e+002, 1.159776e+002
2.307881e+002, 1.160403e+002
2.312702e+002, 1.158169e+002
2.317524e+002, 1.157396e+002
2.322345e+002, 1.159078e+002
2.327166e+002, 1.160761e+002
2.331987e+002, 1.161128e+002
2.336808e+002, 1.160329e+002
2.341629e+002, 1.157498e+002
2.346451e+002, 1.150287e+002
2.351272e+002, 1.140790e+002
2.356093e+002, 1.138758e+002
2.360914e+002, 1.148845e+002
2.365735e+002, 1.159996e+002
2.370556e+002, 1.166154e+002
2.375378e+002, 1.165860e+002
2.380199e+002, 1.163612e+002
2.385020e+002, 1.158370e+002
2.389841e+002, 1.151325e+002
2.394662e+002, 1.147831e+002
2.399483e+002, 1.150696e+002
2.404305e+002, 1.153336e+002
2.409126e+002, 1.151637e+002
2.413947e+002, 1.141465e+002
2.418768e+002, 1.136370e+002
2.423589e+002, 1.139120e+002
2.428410e+002, 1.147221e+002
2.433232e+002, 1.151872e+002
2.438053e+002, 1.151775e+002
2.442874e+002, 1.149943e+002
2.447695e+002, 1.147725e+002
2.452516e+002, 1.144740e+002
2.457337e+002, 1.142018e+002
2.462159e+002, 1.138969e+002
2.466980e+002, 1.136239e+002
2.471801e+002, 1.136302e+002
2.476622e+002, 1.141145e+002
2.481443e+002, 1.145732e+002
2.486264e+002, 1.147661e+002
2.491086e+002, 1.146283e+002
2.495907e+002, 1.143700e+002
2.500728e+002, 1.139166e+002
2.505549e+002, 1.133678e+002
2.510370e+002, 1.129799e+002
2.515191e+002, 1.127494e+002
2.520013e+002, 1.126888e+002
2.524834e+002, 1.128304e+002
2.529655e+002, 1.132715e+002
2.534476e+002, 1.136704e+002
2.539297e+002, 1.140628e+002
2.544118e+002, 1.143988e+002
2.548940e+002, 1.145568e+002
2.553761e+002, 1.144551e+002
2.558582e+002, 1.143198e+002
2.563403e+002, 1.142662e+002
2.568224e+002, 1.143711e+002
2.573046e+002, 1.142803e+002
2.577867e+002, 1.138981e+002
2.582688e+002, 1.133789e+002
2.587509e+002, 1.130317e+002
2.592330e+002, 1.129216e+002
2.597151e+002, 1.128524e+002
2.601973e+002, 1.127339e+002
2.606794e+002, 1.125280e+002
2.611615e+002, 1.124272e+002
2.616436e+002, 1.123664e+002
2.621257e+002, 1.124670e+002
2.626078e+002, 1.130654e+002
2.630900e+002, 1.145195e+002
2.635721e+002, 1.156049e+002
2.640542e+002, 1.157790e+002
2.645363e+002, 1.148655e+002
2.650184e+002, 1.142476e+002
2.655005e+002, 1.139775e+002
2.659827e+002, 1.139304e+002
2.664648e+002, 1.139355e+002
2.669469e+002, 1.139960e+002
2.674290e+002, 1.141008e+002
2.679111e+002, 1.142453e+002
2.683932e+002, 1.144273e+002
2.688754e+002, 1.146675e+002
2.693575e+002, 1.149773e+002
2.698396e+002, 1.153222e+002
2.703217e+002, 1.156791e+002
2.708038e+002, 1.160764e+002
2.712859e+002, 1.163640e+002
2.717681e+002, 1.164964e+002
2.722502e+002, 1.164742e+002
2.727323e+002, 1.162577e+002
2.732144e+002, 1.156934e+002
2.736965e+002, 1.152535e+002
2.741786e+002, 1.156132e+002
2.746608e+002, 1.169886e+002
2.751429e+002, 1.180007e+002
2.756250e+002, 1.182397e+002
2.761071e+002, 1.178083e+002
2.765892e+002, 1.174565e+002
2.770714e+002, 1.171976e+002
2.775535e+002, 1.169973e+002
2.780356e+002, 1.168106e+002
2.785177e+002, 1.166285e+002
2.789998e+002, 1.165509e+002
2.794819e+002, 1.166168e+002
2.799641e+002, 1.167979e+002
2.804462e+002, 1.170243e+002
2.809283e+002, 1.173380e+002
2.814104e+002, 1.175171e+002
2.818925e+002, 1.172436e+002
2.823746e+002, 1.165074e+002
2.828568e+002, 1.161230e+002
2.833389e+002, 1.163324e+002
2.838210e+002, 1.168954e+002
2.843031e+002, 1.171409e+002
2.847852e+002, 1.170489e+002
2.852673e+002, 1.168428e+002
2.857495e+002, 1.166223e+002
2.862316e+002, 1.163988e+002
2.867137e+002, 1.163596e+002
2.871958e+002, 1.166473e+002
2.876779e+002, 1.169584e+002
2.881600e+002, 1.164488e+002
2.886422e+002, 1.151008e+002
2.891243e+002, 1.139853e+002
2.896064e+002, 1.140477e+002
2.900885e+002, 1.150258e+002
2.905706e+002, 1.155145e+002
2.910527e+002, 1.152809e+002
2.915349e+002, 1.147733e+002
2.920170e+002, 1.147668e+002
2.924991e+002, 1.152115e+002
2.929812e+002, 1.155673e+002
2.934633e+002, 1.154359e+002
2.939454e+002, 1.149727e+002
2.944276e+002, 1.146760e+002
2.949097e+002, 1.145903e+002
2.953918e+002, 1.146058e+002
2.958739e+002, 1.146045e+002
2.963560e+002, 1.145917e+002
2.968381e+002, 1.145898e+002
2.973203e+002, 1.145929e+002
2.978024e+002, 1.146178e+002
2.982845e+002, 1.147641e+002
2.987666e+002, 1.150565e+002
2.992487e+002, 1.152420e+002
2.997308e+002, 1.149603e+002
3.002130e+002, 1.143492e+002
3.006951e+002, 1.138108e+002
3.011772e+002, 1.135999e+002
3.016593e+002, 1.135077e+002
3.021414e+002, 1.131547e+002
3.026235e+002, 1.125518e+002
3.031057e+002, 1.120516e+002
3.035878e+002, 1.121111e+002
3.040699e+002, 1.124690e+002
3.045520e+002, 1.126350e+002
3.050341e+002, 1.123276e+002
3.055162e+002, 1.118741e+002
3.059984e+002, 1.116640e+002
3.064805e+002, 1.116551e+002
3.069626e+002, 1.115421e+002
3.074447e+002, 1.110262e+002
3.079268e+002, 1.103108e+002
3.084089e+002, 1.096454e+002
3.088911e+002, 1.090262e+002
3.093732e+002, 1.085788e+002
3.098553e+002, 1.085243e+002
3.103374e+002, 1.087588e+002
3.108195e+002, 1.089306e+002
3.113016e+002, 1.089203e+002
3.117838e+002, 1.087155e+002
3.122659e+002, 1.082195e+002
3.127480e+002, 1.072105e+002
3.132301e+002, 1.064035e+002
3.137122e+002, 1.064735e+002
3.141943e+002, 1.070505e+002
3.146765e+002, 1.073547e+002
3.151586e+002, 1.067680e+002
3.156407e+002, 1.059888e+002
3.161228e+002, 1.054101e+002
3.166049e+002, 1.050797e+002
3.170870e+002, 1.049797e+002
3.175692e+002, 1.053358e+002
3.180513e+002, 1.058672e+002
3.185334e+002, 1.061785e+002
3.190155e+002, 1.060077e+002
3.194976e+002, 1.057068e+002
3.199797e+002, 1.053633e+002
3.204619e+002, 1.049693e+002
3.209440e+002, 1.047249e+002
3.214261e+002, 1.047558e+002
3.219082e+002, 1.049356e+002
3.223903e+002, 1.051451e+002
3.228724e+002, 1.058152e+002
3.233546e+002, 1.060506e+002
3.238367e+002, 1.052220e+002
3.243188e+002, 1.033930e+002
3.248009e+002, 1.023428e+002
3.252830e+002, 1.030520e+002
3.257651e+002, 1.042088e+002
3.262473e+002, 1.049645e+002
3.267294e+002, 1.050572e+002
3.272115e+002, 1.049643e+002
3.276936e+002, 1.046646e+002
3.281757e+002, 1.041947e+002
3.286578e+002, 1.037144e+002
3.291400e+002, 1.029304e+002
3.296221e+002, 1.023861e+002
3.301042e+002, 1.023476e+002
3.305863e+002, 1.034249e+002
3.310684e+002, 1.039923e+002
3.315505e+002, 1.037785e+002
3.320327e+002, 1.031013e+002
3.325148e+002, 1.026548e+002
3.329969e+002, 1.024733e+002
3.334790e+002, 1.024756e+002
3.339611e+002, 1.027064e+002
3.344432e+002, 1.033100e+002
3.349254e+002, 1.035288e+002
3.354075e+002, 1.032216e+002
3.358896e+002, 1.026415e+002
3.363717e+002, 1.021086e+002
3.368538e+002, 1.015985e+002
3.373359e+002, 1.012010e+002
3.378180e+002, 1.009375e+002
3.383001e+002, 1.008086e+002
3.387823e+002, 1.008427e+002
3.392644e+002, 1.010786e+002
3.397465e+002, 1.014039e+002
3.402286e+002, 1.017829e+002
3.407107e+002, 1.022708e+002
3.411928e+002, 1.024765e+002
3.416750e+002, 1.023040e+002
3.421571e+002, 1.018025e+002
3.426392e+002, 1.010360e+002
3.431213e+002, 9.990891e+001
3.436034e+002, 9.899430e+001
3.440855e+002, 9.884114e+001
3.445677e+002, 9.941417e+001
3.450498e+002, 9.977149e+001
3.455319e+002, 9.973550e+001
3.460140e+002, 9.954147e+001
3.464961e+002, 9.975813e+001
3.469782e+002, 1.003611e+002
3.474604e+002, 1.007367e+002
3.479425e+002, 1.002047e+002
3.484246e+002, 9.910912e+001
3.489067e+002, 9.882507e+001
3.493888e+002, 9.952642e+001
3.498709e+002, 1.005307e+002
3.503531e+002, 1.011836e+002
3.508352e+002, 1.014836e+002
3.513173e+002, 1.014269e+002
3.517994e+002, 1.006470e+002
3.522815e+002, 9.962939e+001
3.527636e+002, 9.922287e+001
3.532458e+002, 9.942657e+001
3.537279e+002, 9.982737e+001
3.542100e+002, 1.002146e+002
3.546921e+002, 1.005393e+002
3.551742e+002, 1.007152e+002
3.556563e+002, 1.006896e+002
3.561385e+002, 1.005328e+002
3.566206e+002, 1.001985e+002
3.571027e+002, 9.974210e+001
3.575848e+002, 9.944646e+001
3.580669e+002, 9.972373e+001
3.585490e+002, 1.001176e+002
3.590312e+002, 1.001549e+002
3.595133e+002, 9.959275e+001
3.599954e+002, 9.901145e+001
3.604775e+002, 9.873277e+001
3.609596e+002, 9.867907e+001
3.614417e+002, 9.868771e+001
3.619239e+002, 9.866114e+001
3.624060e+002, 9.870308e+001
3.628881e+002, 9.893578e+001
3.633702e+002, 9.943882e+001
3.638523e+002, 9.976936e+001
3.643344e+002, 9.971484e+001
3.648166e+002, 9.943652e+001
3.652987e+002, 9.911565e+001
3.657808e+002, 9.846342e+001
3.662629e+002, 9.811267e+001
3.667450e+002, 9.849803e+001
3.672271e+002, 9.961100e+001
3.677093e+002, 1.001661e+002
3.681914e+002, 9.952931e+001
3.686735e+002, 9.859285e+001
3.691556e+002, 9.792811e+001
3.696377e+002, 9.753603e+001
3.701198e+002, 9.747124e+001
3.706020e+002, 9.804270e+001
3.710841e+002, 9.898600e+001
3.715662e+002, 9.932009e+001
3.720483e+002, 9.863223e+001
3.725304e+002, 9.783062e+001
3.730125e+002, 9.725493e+001
3.734947e+002, 9.690329e+001
3.739768e+002, 9.683138e+001
3.744589e+002, 9.722081e+001
3.749410e+002, 9.774363e+001
3.754231e+002, 9.783152e+001
3.759052e+002, 9.732232e+001
3.763874e+002, 9.684096e+001
3.768695e+002, 9.658961e+001
3.773516e+002, 9.656119e+001
3.778337e+002, 9.649305e+001
3.783158e+002, 9.636958e+001
3.787979e+002, 9.625365e+001
3.792801e+002, 9.622871e+001
3.797622e+002, 9.630156e+001
3.802443e+002, 9.633234e+001
3.807264e+002, 9.629736e+001
3.812085e+002, 9.620059e+001
3.816906e+002, 9.598945e+001
3.821728e+002, 9.565891e+001
3.826549e+002, 9.544002e+001
3.831370e+002, 9.558591e+001
3.836191e+002, 9.599414e+001
3.841012e+002, 9.624673e+001
3.845833e+002, 9.627957e+001
3.850655e+002, 9.622523e+001
3.855476e+002, 9.627416e+001
3.860297e+002, 9.639083e+001
3.865118e+002, 9.644646e+001
3.869939e+002, 9.628990e+001
3.874760e+002, 9.607215e+001
3.879582e+002, 9.602327e+001
3.884403e+002, 9.614932e+001
3.889224e+002, 9.633370e+001
3.894045e+002, 9.660636e+001
3.898866e+002, 9.684717e+001
3.903687e+002, 9.687518e+001
3.908509e+002, 9.648384e+001
3.913330e+002, 9.602330e+001
3.918151e+002, 9.583076e+001
3.922972e+002, 9.581112e+001
3.927793e+002, 9.557357e+001
3.932614e+002, 9.448562e+001
3.937436e+002, 9.338825e+001
3.942257e+002, 9.290324e+001
3.947078e+002, 9.334376e+001
3.951899e+002, 9.391042e+001
3.956720e+002, 9.444223e+001
3.961541e+002, 9.489896e+001
3.966363e+002, 9.521644e+001
3.971184e+002, 9.554357e+001
3.976005e+002, 9.557485e+001
3.980826e+002, 9.506889e+001
3.985647e+002, 9.392592e+001
3.990468e+002, 9.303358e+001
3.995290e+002, 9.254868e+001
4.000111e+002, 9.230830e+001
4.004932e+002, 9.217917e+001
4.009753e+002, 9.214104e+001
4.014574e+002, 9.224859e+001
4.019395e+002, 9.261327e+001
4.024217e+002, 9.315067e+001
4.029038e+002, 9.342432e+001
4.033859e+002, 9.321976e+001
4.038680e+002, 9.306744e+001
4.043501e+002, 9.330078e+001
4.048322e+002, 9.415350e+001
4.053144e+002, 9.451128e+001
4.057965e+002, 9.417095e+001
4.062786e+002, 9.357298e+001
4.067607e+002, 9.352607e+001
4.072428e+002, 9.418113e+001
4.077249e+002, 9.454998e+001
4.082071e+002, 9.420497e+001
4.086892e+002, 9.327212e+001
4.091713e+002, 9.244956e+001
4.096534e+002, 9.169025e+001
4.101355e+002, 9.130908e+001
4.106176e+002, 9.196507e+001
4.110998e+002, 9.341142e+001
4.115819e+002, 9.410329e+001
4.120640e+002, 9.352454e+001
4.125461e+002, 9.242497e+001
4.130282e+002, 9.199707e+001
4.135103e+002, 9.215838e+001
4.139925e+002, 9.240540e+001
4.144746e+002, 9.249255e+001
4.149567e+002, 9.246352e+001
4.154388e+002, 9.234048e+001
4.159209e+002, 9.210647e+001
4.164030e+002, 9.194303e+001
4.168852e+002, 9.220304e+001
4.173673e+002, 9.260123e+001
4.178494e+002, 9.267564e+001
4.183315e+002, 9.168065e+001
4.188136e+002, 9.077589e+001
4.192957e+002, 9.094266e+001
4.197779e+002, 9.200159e+001
4.202600e+002, 9.276171e+001
4.207421e+002, 9.243359e+001
4.212242e+002, 9.174857e+001
4.217063e+002, 9.122107e+001
4.221884e+002, 9.090948e+001
4.226706e+002, 9.080913e+001
4.231527e+002, 9.113203e+001
4.236348e+002, 9.164058e+001
4.241169e+002, 9.188945e+001
4.245990e+002, 9.165865e+001
4.250811e+002, 9.130960e+001
4.255633e+002, 9.084347e+001
4.260454e+002, 9.018811e+001
4.265275e+002, 8.994284e+001
4.270096e+002, 9.043317e+001
4.274917e+002, 9.107126e+001
4.279738e+002, 9.136240e+001
4.284560e+002, 9.111674e+001
4.289381e+002, 9.091235e+001
4.294202e+002, 9.079760e+001
4.299023e+002, 9.077095e+001
4.303844e+002, 9.089234e+001
4.308665e+002, 9.128527e+001
4.313487e+002, 9.147038e+001
4.318308e+002, 9.103838e+001
4.323129e+002, 8.993642e+001
4.327950e+002, 8.937186e+001
4.332771e+002, 8.942327e+001
4.337592e+002, 8.984734e+001
4.342414e+002, 9.055653e+001
4.347235e+002, 9.149615e+001
4.352056e+002, 9.195702e+001
4.356877e+002, 9.149345e+001
4.361698e+002, 9.056876e+001
4.366519e+002, 9.018720e+001
4.371341e+002, 9.032645e+001
4.376162e+002, 9.054499e+001
4.380983e+002, 9.054977e+001
4.385804e+002, 9.040677e+001
4.390625e+002, 9.016335e+001
4.395446e+002, 8.974414e+001
4.400268e+002, 8.951093e+001
4.405089e+002, 9.008684e+001
4.409910e+002, 9.107997e+001
4.414731e+002, 9.168125e+001
4.419552e+002, 9.118984e+001
4.424373e+002, 9.046102e+001
4.429195e+002, 9.000576e+001
4.434016e+002, 8.984003e+001
4.438837e+002, 8.975981e+001
4.443658e+002, 8.966000e+001
4.448479e+002, 8.962151e+001
4.453300e+002, 8.971799e+001
4.458122e+002, 9.025298e+001
4.462943e+002, 9.054275e+001
4.467764e+002, 9.020616e+001
4.472585e+002, 8.953230e+001
4.477406e+002, 8.926388e+001
4.482227e+002, 9.005628e+001
4.487049e+002, 9.065479e+001
4.491870e+002, 9.062769e+001
4.496691e+002, 8.983605e+001
4.501512e+002, 8.924938e+001
4.506333e+002, 8.886431e+001
4.511154e+002, 8.869577e+001
4.515976e+002, 8.885936e+001
4.520797e+002, 8.956962e+001
4.525618e+002, 8.985730e+001
4.530439e+002, 8.941167e+001
4.535260e+002, 8.853468e+001
4.540081e+002, 8.817105e+001
4.544903e+002, 8.838499e+001
4.549724e+002, 8.869376e+001
4.554545e+002, 8.883305e+001
4.559366e+002, 8.882758e+001
4.564187e+002, 8.887099e+001
4.569008e+002, 8.897584e+001
4.573830e+002, 8.908580e+001
4.578651e+002, 8.915800e+001
4.583472e+002, 8.918295e+001
4.588293e+002, 8.912357e+001
4.593114e+002, 8.893416e+001
4.597935e+002, 8.868651e+001
4.602757e+002, 8.838433e+001
4.607578e+002, 8.806703e+001
4.612399e+002, 8.792746e+001
4.617220e+002, 8.838418e+001
4.622041e+002, 8.891097e+001
4.626862e+002, 8.892231e+001
4.631684e+002, 8.821085e+001
4.636505e+002, 8.755385e+001
4.641326e+002, 8.735380e+001
4.646147e+002, 8.744756e+001
4.650968e+002, 8.762375e+001
4.655789e+002, 8.787028e+001
4.660611e+002, 8.813921e+001
4.665432e+002, 8.849149e+001
4.670253e+002, 8.890205e+001
4.675074e+002, 8.911614e+001
4.679895e+002, 8.900320e+001
4.684716e+002, 8.876858e+001
4.689538e+002, 8.848306e+001
4.694359e+002, 8.802180e+001
4.699180e+002, 8.779986e+001
4.704001e+002, 8.792892e+001
4.708822e+002, 8.821668e+001
4.713643e+002, 8.839843e+001
4.718465e+002, 8.849306e+001
4.723286e+002, 8.839807e+001
4.728107e+002, 8.795692e+001
4.732928e+002, 8.729363e+001
4.737749e+002, 8.719869e+001
4.742570e+002, 8.776792e+001
4.747392e+002, 8.840530e+001
4.752213e+002, 8.862534e+001
4.757034e+002, 8.849479e+001
4.761855e+002, 8.850547e+001
4.766676e+002, 8.875320e+001
4.771497e+002, 8.899899e+001
4.776319e+002, 8.883134e+001
4.781140e+002, 8.837424e+001
4.785961e+002, 8.803197e+001
4.790782e+002, 8.805360e+001
4.795603e+002, 8.823714e+001
4.800424e+002, 8.842348e+001
4.805246e+002, 8.859641e+001
4.810067e+002, 8.862176e+001
4.814888e+002, 8.817545e+001
4.819709e+002, 8.767673e+001
4.824530e+002, 8.754219e+001
4.829352e+002, 8.801695e+001
4.834173e+002, 8.844186e+001
4.838994e+002, 8.842346e+001
4.843815e+002, 8.822022e+001
4.848636e+002, 8.822633e+001
4.853457e+002, 8.872963e+001
4.858279e+002, 8.924483e+001
4.863100e+002, 8.977458e+001
4.867921e+002, 9.030779e+001
4.872742e+002, 9.033992e+001
4.877563e+002, 8.934953e+001
4.882384e+002, 8.838981e+001
4.887206e+002, 8.808537e+001
4.892027e+002, 8.872489e+001
4.896848e+002, 8.923489e+001
4.901669e+002, 8.954448e+001
4.906490e+002, 8.978663e+001
4.911311e+002, 9.024723e+001
4.916133e+002, 9.098608e+001
4.920954e+002, 9.150135e+001
4.925775e+002, 9.160716e+001
4.930596e+002, 9.137721e+001
4.935417e+002, 9.103007e+001
4.940238e+002, 9.056355e+001
4.945060e+002, 9.013457e+001
4.949881e+002, 8.979133e+001
4.954702e+002, 8.957897e+001
4.959523e+002, 8.965592e+001
4.964344e+002, 9.009061e+001
4.969165e+002, 9.058902e+001
4.973987e+002, 9.093480e+001
4.978808e+002, 9.112847e+001
4.983629e+002, 9.116408e+001
4.988450e+002, 9.079505e+001
4.993271e+002, 9.047491e+001
4.998092e+002, 9.064595e+001
5.002914e+002, 9.119776e+001
5.007735e+002, 9.150392e+001
5.012556e+002, 9.103050e+001
5.017377e+002, 9.046084e+001
5.022198e+002, 9.020989e+001
5.027019e+002, 9.044553e+001
5.031841e+002, 9.068363e+001
5.036662e+002, 9.099390e+001
5.041483e+002, 9.122231e+001
5.046304e+002, 9.115791e+001
5.051125e+002, 9.041494e+001
5.055946e+002, 9.001570e+001
5.060768e+002, 9.022423e+001
5.065589e+002, 9.090807e+001
5.070410e+002, 9.139841e+001
5.075231e+002, 9.164147e+001
5.080052e+002, 9.183849e+001
5.084873e+002, 9.212564e+001
5.089695e+002, 9.250041e+001
5.094516e+002, 9.269803e+001
5.099337e+002, 9.268406e+001
5.104158e+002, 9.262627e+001
5.108979e+002, 9.282422e+001
5.113800e+002, 9.318034e+001
5.118622e+002, 9.318588e+001
5.123443e+002, 9.246861e+001
5.128264e+002, 9.169018e+001
5.133085e+002, 9.185677e+001
5.137906e+002, 9.275443e+001
5.142728e+002, 9.361537e+001
5.147549e+002, 9.425742e+001
5.152370e+002, 9.451505e+001
5.157191e+002, 9.403549e+001
5.162012e+002, 9.274813e+001
5.166833e+002, 9.170764e+001
5.171655e+002, 9.152744e+001
5.176476e+002, 9.173483e+001
5.181297e+002, 9.192774e+001
5.186118e+002, 9.202999e+001
5.190939e+002, 9.210519e+001
5.195760e+002, 9.210152e+001
5.200582e+002, 9.208086e+001
5.205403e+002, 9.219703e+001
5.210224e+002, 9.261876e+001
5.215045e+002, 9.293502e+001
5.219866e+002, 9.298605e+001
5.224688e+002, 9.277199e+001
5.229509e+002, 9.273568e+001
5.234330e+002, 9.294573e+001
5.239151e+002, 9.317006e+001
5.243972e+002, 9.322178e+001
5.248793e+002, 9.309622e+001
5.253615e+002, 9.293532e+001
5.258436e+002, 9.271888e+001
5.263257e+002, 9.255525e+001
5.268078e+002, 9.263367e+001
5.272899e+002, 9.291871e+001
5.277720e+002, 9.324888e+001
5.282542e+002, 9.358650e+001
5.287363e+002, 9.391016e+001
5.292184e+002, 9.430833e+001
5.297005e+002, 9.471938e+001
5.301826e+002, 9.482816e+001
5.306647e+002, 9.408498e+001
5.311469e+002, 9.317190e+001
5.316290e+002, 9.266595e+001
5.321111e+002, 9.269247e+001
5.325932e+002, 9.292844e+001
5.330753e+002, 9.348058e+001
5.335574e+002, 9.407909e+001
5.340396e+002, 9.443494e+001
5.345217e+002, 9.430965e+001
5.350038e+002, 9.416626e+001
5.354859e+002, 9.400724e+001
5.359680e+002, 9.387369e+001
5.364501e+002, 9.389978e+001
5.369323e+002, 9.413653e+001
5.374144e+002, 9.444902e+001
5.378965e+002, 9.481728e+001
5.383786e+002, 9.524323e+001
5.388607e+002, 9.558324e+001
5.393428e+002, 9.584895e+001
5.398250e+002, 9.598040e+001
5.403071e+002, 9.575972e+001
5.407892e+002, 9.525758e+001
5.412713e+002, 9.518015e+001
5.417534e+002, 9.569772e+001
5.422355e+002, 9.649512e+001
5.427177e+002, 9.732728e+001
5.431998e+002, 9.811098e+001
5.436819e+002, 9.855624e+001
5.441640e+002, 9.834307e+001
5.446461e+002, 9.786063e+001
5.451282e+002, 9.731783e+001
5.456104e+002, 9.676523e+001
5.460925e+002, 9.648649e+001
5.465746e+002, 9.682518e+001
5.470567e+002, 9.734957e+001
5.475388e+002, 9.777969e+001
5.480209e+002, 9.804876e+001
5.485031e+002, 9.831303e+001
5.489852e+002, 9.860601e+001
5.494673e+002, 9.891104e+001
5.499494e+002, 9.919715e+001
5.504315e+002, 9.923302e+001
5.509136e+002, 9.963557e+001
5.513958e+002, 1.007108e+002
5.518779e+002, 1.021353e+002
5.523600e+002, 1.028653e+002
5.528421e+002, 1.027209e+002
5.533242e+002, 1.025299e+002
5.538063e+002, 1.026900e+002
5.542885e+002, 1.031297e+002
5.547706e+002, 1.031887e+002
5.552527e+002, 1.028245e+002
5.557348e+002, 1.025314e+002
5.562169e+002, 1.028436e+002
5.566990e+002, 1.035577e+002
5.571812e+002, 1.041964e+002
5.576633e+002, 1.047191e+002
5.581454e+002, 1.050239e+002
5.586275e+002, 1.046814e+002
5.591096e+002, 1.041011e+002
5.595917e+002, 1.039982e+002
5.600739e+002, 1.054646e+002
5.605560e+002, 1.067201e+002
5.610381e+002, 1.066100e+002
5.615202e+002, 1.054437e+002
5.620023e+002, 1.046085e+002
5.624844e+002, 1.043433e+002
5.629666e+002, 1.045795e+002
5.634487e+002, 1.055293e+002
5.639308e+002, 1.074927e+002
5.644129e+002, 1.085724e+002
5.648950e+002, 1.083089e+002
5.653771e+002, 1.076612e+002
5.658593e+002, 1.073970e+002
5.663414e+002, 1.075806e+002
5.668235e+002, 1.079275e+002
5.673056e+002, 1.085359e+002
5.677877e+002, 1.091073e+002
5.682698e+002, 1.088562e+002
5.687520e+002, 1.078531e+002
5.692341e+002, 1.073447e+002
5.697162e+002, 1.081075e+002
5.701983e+002, 1.094517e+002
5.706804e+002, 1.101070e+002
5.711625e+002, 1.101507e+002
5.716447e+002, 1.101384e+002
5.721268e+002, 1.105241e+002
5.726089e+002, 1.109796e+002
5.730910e+002, 1.111273e+002
5.735731e+002, 1.108800e+002
5.740552e+002, 1.107059e+002
5.745374e+002, 1.107903e+002
5.750195e+002, 1.110619e+002
5.755016e+002, 1.114528e+002
5.759837e+002, 1.121564e+002
5.764658e+002, 1.127182e+002
5.769479e+002, 1.130592e+002
5.774301e+002, 1.132419e+002
5.779122e+002, 1.133830e+002
5.783943e+002, 1.134600e+002
5.788764e+002, 1.135357e+002
5.793585e+002, 1.136307e+002
5.798406e+002, 1.137375e+002
5.803228e+002, 1.137995e+002
5.808049e+002, 1.138073e+002
5.812870e+002, 1.138293e+002
5.817691e+002, 1.139153e+002
5.822512e+002, 1.140565e+002
5.827333e+002, 1.142224e+002
5.832155e+002, 1.144164e+002
5.836975e+002, 1.146100e+002
5.841796e+002, 1.149496e+002
5.846617e+002, 1.152373e+002
5.851439e+002, 1.150916e+002
5.856260e+002, 1.141293e+002
5.861081e+002, 1.132237e+002
5.865902e+002, 1.129486e+002
5.870723e+002, 1.131037e+002
5.875544e+002, 1.133032e+002
5.880366e+002, 1.133611e+002
5.885187e+002, 1.135202e+002
5.890008e+002, 1.139305e+002
5.894829e+002, 1.145714e+002
5.899650e+002, 1.150564e+002
5.904471e+002, 1.153832e+002
5.909293e+002, 1.155480e+002
5.914114e+002, 1.154998e+002
5.918935e+002, 1.151881e+002
5.923756e+002, 1.150446e+002
5.928577e+002, 1.151293e+002
5.933398e+002, 1.152173e+002
5.938220e+002, 1.150413e+002
5.943041e+002, 1.146358e+002
5.947862e+002, 1.142313e+002
5.952683e+002, 1.138192e+002
5.957504e+002, 1.135596e+002
5.962325e+002, 1.139045e+002
5.967147e+002, 1.145839e+002
5.971968e+002, 1.148893e+002
5.976789e+002, 1.141316e+002
5.981610e+002, 1.132091e+002
5.986431e+002, 1.128636e+002
5.991252e+002, 1.129565e+002
5.996074e+002, 1.128194e+002
6.000895e+002, 1.118049e+002
6.005716e+002, 1.108490e+002
6.010537e+002, 1.104818e+002
6.015358e+002, 1.109231e+002
6.020179e+002, 1.110912e+002
6.025001e+002, 1.108512e+002
6.029822e+002, 1.104559e+002
6.034643e+002, 1.101246e+002
6.039464e+002, 1.099467e+002
6.044285e+002, 1.093997e+002
6.049106e+002, 1.082893e+002
6.053928e+002, 1.070904e+002
6.058749e+002, 1.065973e+002
6.063570e+002, 1.067556e+002
6.068391e+002, 1.068750e+002
6.073212e+002, 1.067361e+002
6.078033e+002, 1.064593e+002
6.082855e+002, 1.061209e+002
6.087676e+002, 1.057757e+002
6.092497e+002, 1.056156e+002
6.097318e+002, 1.061314e+002
6.102139e+002, 1.065926e+002
6.106960e+002, 1.063195e+002
6.111782e+002, 1.053061e+002
6.116603e+002, 1.043285e+002
6.121424e+002, 1.034764e+002
6.126245e+002, 1.028689e+002
6.131066e+002, 1.026298e+002
6.135887e+002, 1.030436e+002
6.140709e+002, 1.031858e+002
6.145530e+002, 1.030431e+002
6.150351e+002, 1.026436e+002
6.155172e+002, 1.019280e+002
6.159993e+002, 1.007567e+002
6.164814e+002, 9.987557e+001
6.169636e+002, 9.939870e+001
6.174457e+002, 9.924889e+001
6.179278e+002, 9.949326e+001
6.184099e+002, 1.000596e+002
6.188920e+002, 1.002172e+002
6.193741e+002, 9.942350e+001
6.198563e+002, 9.822343e+001
6.203384e+002, 9.734235e+001
6.208205e+002, 9.675931e+001
6.213026e+002, 9.637367e+001
6.217847e+002, 9.637065e+001
6.222668e+002, 9.636552e+001
6.227490e+002, 9.603465e+001
6.232311e+002, 9.531961e+001
6.237132e+002, 9.463357e+001
6.241953e+002, 9.401495e+001
6.246774e+002, 9.351549e+001
6.251595e+002, 9.319589e+001
6.256417e+002, 9.333315e+001
6.261238e+002, 9.307317e+001
6.266059e+002, 9.220043e+001
6.270880e+002, 9.117406e+001
6.275701e+002, 9.064402e+001
6.280522e+002, 9.066352e+001
6.285344e+002, 9.068602e+001
6.290165e+002, 9.063171e+001
6.294986e+002, 9.046736e+001
6.299807e+002, 9.005191e+001
6.304628e+002, 8.943194e+001
6.309449e+002, 8.887451e+001
6.314271e+002, 8.857322e+001
6.319092e+002, 8.835381e+001
6.323913e+002, 8.801270e+001
6.328734e+002, 8.756761e+001
6.333555e+002, 8.715546e+001
6.338376e+002, 8.695007e+001
6.343198e+002, 8.671001e+001
6.348019e+002, 8.622225e+001
6.352840e+002, 8.537364e+001
6.357661e+002, 8.476952e+001
6.362482e+002, 8.463024e+001
6.367303e+002, 8.461536e+001
6.372125e+002, 8.450734e+001
6.376946e+002, 8.429755e+001
6.381767e+002, 8.400151e+001
6.386588e+002, 8.358081e+001
6.391409e+002, 8.314491e+001
6.396230e+002, 8.287271e+001
6.401052e+002, 8.275338e+001
6.405873e+002, 8.264421e+001
6.410694e+002, 8.253610e+001
6.415515e+002, 8.237807e+001
6.420336e+002, 8.204399e+001
6.425157e+002, 8.159209e+001
6.429979e+002, 8.118575e+001
6.434800e+002, 8.092409e+001
6.439621e+002, 8.072487e+001
6.444442e+002, 8.050645e+001
6.449263e+002, 8.028799e+001
6.454084e+002, 8.019388e+001
6.458906e+002, 8.054226e+001
6.463727e+002, 8.078271e+001
6.468548e+002, 8.054760e+001
6.473369e+002, 7.972788e+001
6.478190e+002, 7.933217e+001
6.483011e+002, 7.962975e+001
6.487833e+002, 7.995296e+001
6.492654e+002, 7.977409e+001
6.497475e+002, 7.904666e+001
6.502296e+002, 7.829810e+001
6.507117e+002, 7.751315e+001
6.511938e+002, 7.687270e+001
6.516760e+002, 7.671217e+001
6.521581e+002, 7.689806e+001
6.526402e+002, 7.702708e+001
6.531223e+002, 7.699108e+001
6.536044e+002, 7.687062e+001
6.540865e+002, 7.669148e+001
6.545687e+002, 7.648441e+001
6.550508e+002, 7.630815e+001
6.555329e+002, 7.615703e+001
6.560150e+002, 7.606638e+001
6.564971e+002, 7.613015e+001
6.569792e+002, 7.629265e+001
6.574614e+002, 7.626126e+001
6.579435e+002, 7.587360e+001
6.584256e+002, 7.550530e+001
6.589077e+002, 7.527539e+001
6.593898e+002, 7.517952e+001
6.598719e+002, 7.513820e+001
6.603541e+002, 7.517171e+001
6.608362e+002, 7.516441e+001
6.613183e+002, 7.499367e+001
6.618004e+002, 7.470952e+001
6.622825e+002, 7.453439e+001
6.627646e+002, 7.448952e+001
6.632468e+002, 7.439457e+001
6.637289e+002, 7.389955e+001
6.642110e+002, 7.333381e+001
6.646931e+002, 7.319636e+001
6.651752e+002, 7.381890e+001
6.656573e+002, 7.428284e+001
6.661395e+002, 7.409849e+001
6.666216e+002, 7.356888e+001
6.671037e+002, 7.306667e+001
6.675858e+002, 7.242909e+001
6.680679e+002, 7.212217e+001
6.685500e+002, 7.234519e+001
6.690322e+002, 7.284868e+001
6.695143e+002, 7.311189e+001
6.699964e+002, 7.313210e+001
6.704785e+002, 7.289784e+001
6.709606e+002, 7.224397e+001
6.714427e+002, 7.144384e+001
6.719249e+002, 7.138466e+001
6.724070e+002, 7.197961e+001
6.728891e+002, 7.253916e+001
6.733712e+002, 7.269087e+001
6.738533e+002, 7.256371e+001
6.743354e+002, 7.217477e+001
6.748176e+002, 7.156683e+001
6.752997e+002, 7.112809e+001
6.757818e+002, 7.125269e+001
6.762639e+002, 7.146130e+001
6.767460e+002, 7.144730e+001
6.772281e+002, 7.111254e+001
6.777103e+002, 7.080643e+001
6.781924e+002, 7.047498e+001
6.786745e+002, 7.024464e+001
6.791566e+002, 7.025875e+001
6.796387e+002, 7.061416e+001
6.801208e+002, 7.072265e+001
6.806030e+002, 7.050224e+001
6.810851e+002, 7.016943e+001
6.815672e+002, 6.991363e+001
6.820493e+002, 6.976062e+001
6.825314e+002, 6.989890e+001
6.830135e+002, 7.056688e+001
6.834957e+002, 7.107446e+001
6.839778e+002, 7.032171e+001
6.844599e+002, 6.892439e+001
6.849420e+002, 6.806806e+001
6.854241e+002, 6.882282e+001
6.859063e+002, 6.951689e+001
6.863884e+002, 6.936580e+001
6.868705e+002, 6.863332e+001
6.873526e+002, 6.827238e+001
6.878347e+002, 6.867423e+001
6.883168e+002, 6.894044e+001
6.887990e+002, 6.873885e+001
6.892811e+002, 6.818002e+001
6.897632e+002, 6.813136e+001
6.902453e+002, 6.869817e+001
6.907274e+002, 6.905621e+001
6.912095e+002, 6.847627e+001
6.916917e+002, 6.733586e+001
6.921738e+002, 6.673348e+001
6.926559e+002, 6.667828e+001
6.931380e+002, 6.691054e+001
6.936201e+002, 6.761718e+001
6.941022e+002, 6.829404e+001
6.945844e+002, 6.833656e+001
6.950665e+002, 6.754751e+001
6.955486e+002, 6.694418e+001
6.960307e+002, 6.706112e+001
6.965128e+002, 6.738210e+001
6.969949e+002, 6.748582e+001
6.974771e+002, 6.715447e+001
6.979592e+002, 6.707664e+001
6.984413e+002, 6.743465e+001
6.989234e+002, 6.781389e+001
6.994055e+002, 6.763202e+001
6.998876e+002, 6.687771e+001
7.003698e+002, 6.623345e+001
7.008519e+002, 6.579964e+001
7.013340e+002, 6.558085e+001
7.018161e+002, 6.574288e+001
7.022982e+002, 6.613087e+001
7.027803e+002, 6.634002e+001
7.032625e+002, 6.598194e+001
7.037446e+002, 6.568958e+001
7.042267e+002, 6.613704e+001
7.047088e+002, 6.694994e+001
7.051909e+002, 6.730041e+001
7.056730e+002, 6.632168e+001
7.061552e+002, 6.558388e+001
7.066373e+002, 6.557814e+001
7.071194e+002, 6.612810e+001
7.076015e+002, 6.643047e+001
7.080836e+002, 6.644517e+001
7.085657e+002, 6.630860e+001
7.090479e+002, 6.597779e+001
7.095300e+002, 6.554954e+001
7.100121e+002, 6.550089e+001
7.104942e+002, 6.581776e+001
7.109763e+002, 6.615557e+001
7.114584e+002, 6.624928e+001
7.119406e+002, 6.625065e+001
7.124227e+002, 6.640900e+001
7.129048e+002, 6.672784e+001
7.133869e+002, 6.688076e+001
7.138690e+002, 6.648674e+001
7.143511e+002, 6.603793e+001
7.148333e+002, 6.589996e+001
7.153154e+002, 6.628924e+001
7.157975e+002, 6.639365e+001
7.162796e+002, 6.603738e+001
7.167617e+002, 6.561056e+001
7.172438e+002, 6.543567e+001
7.177260e+002, 6.554406e+001
7.182081e+002, 6.558318e+001
7.186902e+002, 6.552235e+001
7.191723e+002, 6.543503e+001
7.196544e+002, 6.541113e+001
7.201365e+002, 6.542826e+001
7.206187e+002, 6.542942e+001
7.211008e+002, 6.539863e+001
7.215829e+002, 6.535763e+001
7.220650e+002, 6.535226e+001
7.225471e+002, 6.533538e+001
7.230292e+002, 6.524325e+001
7.235114e+002, 6.497068e+001
7.239935e+002, 6.472605e+001
7.244756e+002, 6.440280e+001
7.249577e+002, 6.417181e+001
7.254398e+002, 6.441680e+001
7.259219e+002, 6.540574e+001
7.264041e+002, 6.601631e+001
7.268862e+002, 6.591335e+001
7.273683e+002, 6.538665e+001
7.278504e+002, 6.507504e+001
7.283325e+002, 6.496526e+001
7.288146e+002, 6.498222e+001
7.292968e+002, 6.520887e+001
7.297789e+002, 6.544619e+001
7.302610e+002, 6.544804e+001
7.307431e+002, 6.526544e+001
7.312252e+002, 6.506771e+001
7.317073e+002, 6.485469e+001
7.321895e+002, 6.471266e+001
7.326716e+002, 6.472798e+001
7.331537e+002, 6.488503e+001
7.336358e+002, 6.492775e+001
7.341179e+002, 6.475409e+001
7.346000e+002, 6.464650e+001
7.350822e+002, 6.477071e+001
7.355643e+002, 6.508902e+001
7.360464e+002, 6.515772e+001
7.365285e+002, 6.496117e+001
7.370106e+002, 6.483460e+001
7.374927e+002, 6.524051e+001
7.379749e+002, 6.579188e+001
7.384570e+002, 6.572919e+001
7.389391e+002, 6.503378e+001
7.394212e+002, 6.435444e+001
7.399033e+002, 6.401181e+001
7.403854e+002, 6.387305e+001
7.408676e+002, 6.390055e+001
7.413497e+002, 6.417905e+001
7.418318e+002, 6.422903e+001
7.423139e+002, 6.373875e+001
7.427960e+002, 6.333209e+001
7.432781e+002, 6.353251e+001
7.437603e+002, 6.448615e+001
7.442424e+002, 6.495171e+001
7.447245e+002, 6.481928e+001
7.452066e+002, 6.452937e+001
7.456887e+002, 6.460668e+001
7.461708e+002, 6.488606e+001
7.466530e+002, 6.488953e+001
7.471351e+002, 6.448315e+001
7.476172e+002, 6.408527e+001
7.480993e+002, 6.394622e+001
7.485814e+002, 6.401229e+001
7.490635e+002, 6.424310e+001
7.495457e+002, 6.492422e+001
7.500278e+002, 6.529321e+001
7.505099e+002, 6.504975e+001
7.509920e+002, 6.458057e+001
7.514741e+002, 6.430923e+001
7.519562e+002, 6.425903e+001
7.524384e+002, 6.432745e+001
7.529205e+002, 6.452643e+001
7.534026e+002, 6.478028e+001
7.538847e+002, 6.513087e+001
7.543668e+002, 6.546453e+001
7.548489e+002, 6.525640e+001
7.553311e+002, 6.399652e+001
7.558132e+002, 6.280417e+001
7.562953e+002, 6.281329e+001
7.567774e+002, 6.355933e+001
7.572595e+002, 6.422617e+001
7.577416e+002, 6.469900e+001
7.582238e+002, 6.490752e+001
7.587059e+002, 6.466211e+001
7.591880e+002, 6.419167e+001
7.596701e+002, 6.398658e+001
7.601522e+002, 6.414638e+001
7.606343e+002, 6.424727e+001
7.611165e+002, 6.417165e+001
7.615986e+002, 6.398420e+001
7.620807e+002, 6.376640e+001
7.625628e+002, 6.354988e+001
7.630449e+002, 6.352198e+001
7.635270e+002, 6.392982e+001
7.640092e+002, 6.442113e+001
7.644913e+002, 6.470354e+001
7.649734e+002, 6.480085e+001
7.654555e+002, 6.479379e+001
7.659376e+002, 6.453940e+001
7.664197e+002, 6.436494e+001
7.669019e+002, 6.447856e+001
7.673840e+002, 6.478812e+001
7.678661e+002, 6.484400e+001
7.683482e+002, 6.456126e+001
7.688303e+002, 6.427187e+001
7.693124e+002, 6.411294e+001
7.697946e+002, 6.404723e+001
7.702767e+002, 6.390251e+001
7.707588e+002, 6.369683e+001
7.712409e+002, 6.359933e+001
7.717230e+002, 6.384546e+001
7.722051e+002, 6.415655e+001
7.726873e+002, 6.417906e+001
7.731694e+002, 6.396426e+001
7.736515e+002, 6.393244e+001
7.741336e+002, 6.451310e+001
7.746157e+002, 6.503590e+001
7.750978e+002, 6.519591e+001
7.755800e+002, 6.500633e+001
7.760621e+002, 6.477267e+001
7.765442e+002, 6.444498e+001
7.770263e+002, 6.421672e+001
7.775084e+002, 6.424790e+001
7.779905e+002, 6.447313e+001
7.784727e+002, 6.456984e+001
7.789548e+002, 6.454536e+001
7.794369e+002, 6.453700e+001
7.799190e+002, 6.475612e+001
7.804011e+002, 6.496343e+001
7.808832e+002, 6.484870e+001
7.813654e+002, 6.439967e+001
7.818475e+002, 6.408650e+001
7.823296e+002, 6.414330e+001
7.828117e+002, 6.430387e+001
7.832938e+002, 6.448793e+001
7.837759e+002, 6.472202e+001
7.842581e+002, 6.457413e+001
7.847402e+002, 6.385687e+001
7.852223e+002, 6.335144e+001
7.857044e+002, 6.387223e+001
7.861865e+002, 6.507558e+001
7.866686e+002, 6.552430e+001
7.871508e+002, 6.518683e+001
7.876329e+002, 6.477221e+001
7.881150e+002, 6.488573e+001
7.885971e+002, 6.512807e+001
7.890792e+002, 6.501439e+001
7.895613e+002, 6.441685e+001
7.900435e+002, 6.419524e+001
7.905256e+002, 6.510427e+001
7.910077e+002, 6.595280e+001
7.914898e+002, 6.603508e+001
7.919719e+002, 6.518221e+001
7.924540e+002, 6.476845e+001
7.929362e+002, 6.486609e+001
7.934183e+002, 6.512786e+001
7.939004e+002, 6.538464e+001
7.943825e+002, 6.556890e+001
7.948646e+002, 6.543435e+001
7.953467e+002, 6.495966e+001
7.958289e+002, 6.442587e+001
7.963110e+002, 6.388968e+001
7.967931e+002, 6.348693e+001
7.972752e+002, 6.341074e+001
7.977573e+002, 6.380350e+001
7.982394e+002, 6.395643e+001
7.987216e+002, 6.342247e+001
7.992037e+002, 6.303132e+001
7.996858e+002, 6.343061e+001
8.001679e+002, 6.479421e+001
8.006500e+002, 6.561656e+001
8.011321e+002, 6.588466e+001
8.016143e+002, 6.577618e+001
8.020964e+002, 6.514246e+001
8.025785e+002, 6.433764e+001
8.030606e+002, 6.413386e+001
8.035427e+002, 6.465551e+001
8.040248e+002, 6.516125e+001
8.045070e+002, 6.515110e+001
8.049891e+002, 6.499306e+001
8.054712e+002, 6.498022e+001
8.059533e+002, 6.522977e+001
8.064354e+002, 6.533663e+001
8.069175e+002, 6.522404e+001
8.073997e+002, 6.507661e+001
8.078818e+002, 6.501796e+001
8.083639e+002, 6.504762e+001
8.088460e+002, 6.517966e+001
8.093281e+002, 6.542945e+001
8.098102e+002, 6.559699e+001
8.102924e+002, 6.544903e+001
8.107745e+002, 6.513276e+001
8.112566e+002, 6.479593e+001
8.117387e+002, 6.444303e+001
8.122208e+002, 6.426762e+001
8.127029e+002, 6.444335e+001
8.131851e+002, 6.475925e+001
8.136672e+002, 6.510720e+001
8.141493e+002, 6.554292e+001
8.146314e+002, 6.572459e+001
8.151135e+002, 6.557478e+001
8.155956e+002, 6.536013e+001
8.160778e+002, 6.529458e+001
8.165599e+002, 6.534826e+001
8.170420e+002, 6.541438e+001
8.175241e+002, 6.548813e+001
8.180062e+002, 6.548518e+001
8.184883e+002, 6.516515e+001
8.189705e+002, 6.484313e+001
8.194526e+002, 6.489719e+001
8.199347e+002, 6.544019e+001
8.204168e+002, 6.581898e+001
8.208989e+002, 6.587634e+001
8.213810e+002, 6.574504e+001
8.218632e+002, 6.541152e+001
8.223453e+002, 6.482214e+001
8.228274e+002, 6.461239e+001
8.233095e+002, 6.483273e+001
8.237916e+002, 6.515022e+001
8.242737e+002, 6.539672e+001
8.247559e+002, 6.552402e+001
8.252380e+002, 6.531339e+001
8.257201e+002, 6.477242e+001
8.262022e+002, 6.440504e+001
8.266843e+002, 6.460190e+001
8.271664e+002, 6.501418e+001
8.276486e+002, 6.551235e+001
8.281307e+002, 6.614722e+001
8.286128e+002, 6.627769e+001
8.290949e+002, 6.557982e+001
8.295770e+002, 6.493897e+001
8.300591e+002, 6.491641e+001
8.305413e+002, 6.544019e+001
8.310234e+002, 6.568578e+001
8.315055e+002, 6.565537e+001
8.319876e+002, 6.555286e+001
8.324697e+002, 6.545963e+001
8.329518e+002, 6.541176e+001
8.334340e+002, 6.549268e+001
8.339161e+002, 6.569189e+001
8.343982e+002, 6.581058e+001
8.348803e+002, 6.565874e+001
8.353624e+002, 6.553346e+001
8.358445e+002, 6.560875e+001
8.363267e+002, 6.586858e+001
8.368088e+002, 6.591148e+001
8.372909e+002, 6.570317e+001
8.377730e+002, 6.543276e+001
8.382551e+002, 6.516566e+001
8.387372e+002, 6.492503e+001
8.392194e+002, 6.481655e+001
8.397015e+002, 6.481049e+001
8.401836e+002, 6.473351e+001
8.406657e+002, 6.404320e+001
8.411478e+002, 6.364586e+001
8.416299e+002, 6.446500e+001
8.421121e+002, 6.631209e+001
8.425942e+002, 6.731399e+001
8.430763e+002, 6.707176e+001
8.435584e+002, 6.651751e+001
8.440405e+002, 6.581618e+001
8.445226e+002, 6.506396e+001
8.450048e+002, 6.461337e+001
8.454869e+002, 6.446297e+001
8.459690e+002, 6.460253e+001
8.464511e+002, 6.526887e+001
8.469332e+002, 6.601663e+001
8.474153e+002, 6.644807e+001
8.478975e+002, 6.656893e+001
8.483796e+002, 6.639485e+001
8.488617e+002, 6.547932e+001
8.493438e+002, 6.479806e+001
8.498259e+002, 6.480991e+001
8.503080e+002, 6.519842e+001
8.507902e+002, 6.506779e+001
8.512723e+002, 6.429063e+001
8.517544e+002, 6.379298e+001
8.522365e+002, 6.391192e+001
8.527186e+002, 6.433285e+001
8.532007e+002, 6.463123e+001
8.536829e+002, 6.477462e+001
8.541650e+002, 6.466429e+001
8.546471e+002, 6.388626e+001
8.551292e+002, 6.332790e+001
8.556113e+002, 6.360867e+001
8.560934e+002, 6.434901e+001
8.565756e+002, 6.484483e+001
8.570577e+002, 6.491071e+001
8.575398e+002, 6.506259e+001
8.580219e+002, 6.541159e+001
8.585040e+002, 6.578879e+001
8.589861e+002, 6.591603e+001
8.594683e+002, 6.582182e+001
8.599504e+002, 6.563729e+001
8.604325e+002, 6.536933e+001
8.609146e+002, 6.510178e+001
8.613967e+002, 6.502913e+001
8.618788e+002, 6.495521e+001
8.623610e+002, 6.460171e+001
8.628431e+002, 6.346565e+001
8.633252e+002, 6.287202e+001
8.638073e+002, 6.324162e+001
8.642894e+002, 6.384921e+001
8.647715e+002, 6.394820e+001
8.652537e+002, 6.350691e+001
8.657358e+002, 6.325193e+001
8.662179e+002, 6.326243e+001
8.667000e+002, 6.327983e+001
8.671821e+002, 6.291857e+001
8.676642e+002, 6.244896e+001
8.681464e+002, 6.232504e+001
8.686285e+002, 6.267419e+001
8.691106e+002, 6.293614e+001
8.695927e+002, 6.279242e+001
8.700748e+002, 6.257241e+001
8.705569e+002, 6.249156e+001
8.710391e+002, 6.256861e+001
8.715212e+002, 6.265112e+001
8.720033e+002, 6.273588e+001
8.724854e+002, 6.282879e+001
8.729675e+002, 6.296727e+001
8.734496e+002, 6.310691e+001
8.739318e+002, 6.311167e+001
8.744139e+002, 6.298820e+001
8.748960e+002, 6.287498e+001
8.753781e+002, 6.284281e+001
8.758602e+002, 6.285547e+001
8.763423e+002, 6.292796e+001
8.768245e+002, 6.305484e+001
8.773066e+002, 6.307204e+001
8.777887e+002, 6.296134e+001
8.782708e+002, 6.277906e+001
8.787529e+002, 6.248507e+001
8.792350e+002, 6.216817e+001
8.797172e+002, 6.225716e+001
8.801993e+002, 6.266652e+001
8.806814e+002, 6.284073e+001
8.811635e+002, 6.220632e+001
8.816456e+002, 6.146938e+001
8.821277e+002, 6.109539e+001
8.826099e+002, 6.104035e+001
8.830920e+002, 6.116702e+001
8.835741e+002, 6.169171e+001
8.840562e+002, 6.205156e+001
8.845383e+002, 6.213539e+001
8.850204e+002, 6.202405e+001
8.855026e+002, 6.189220e+001
8.859847e+002, 6.173437e+001
8.864668e+002, 6.144383e+001
8.869489e+002, 6.087537e+001
8.874310e+002, 6.042646e+001
8.879131e+002, 6.077751e+001
8.883953e+002, 6.146581e+001
8.888774e+002, 6.178611e+001
8.893595e+002, 6.116951e+001
8.898416e+002, 6.074418e+001
8.903237e+002, 6.079725e+001
8.908058e+002, 6.099476e+001
8.912880e+002, 6.096728e+001
8.917701e+002, 6.068808e+001
8.922522e+002, 6.051974e+001
8.927343e+002, 6.048596e+001
8.932164e+002, 6.059932e+001
8.936985e+002, 6.104743e+001
8.941807e+002, 6.157643e+001
8.946628e+002, 6.177876e+001
8.951449e+002, 6.154219e+001
8.956270e+002, 6.133905e+001
8.961091e+002, 6.146992e+001
8.965912e+002, 6.156813e+001
8.970734e+002, 6.138925e+001
8.975555e+002, 6.090404e+001
8.980376e+002, 6.050975e+001
8.985197e+002, 6.020361e+001
8.990018e+002, 6.002904e+001
8.994839e+002, 6.010391e+001
8.999661e+002, 6.029998e+001
9.004482e+002, 6.040772e+001
9.009303e+002, 6.042076e+001
9.014124e+002, 6.033133e+001
9.018945e+002, 6.003945e+001
9.023766e+002, 5.973791e+001
9.028588e+002, 5.945455e+001
9.033409e+002, 5.922690e+001
9.038230e+002, 5.927692e+001
9.043051e+002, 5.972221e+001
9.047872e+002, 5.996087e+001
9.052693e+002, 5.971151e+001
9.057515e+002, 5.924097e+001
9.062336e+002, 5.903307e+001
9.067157e+002, 5.905682e+001
9.071978e+002, 5.923192e+001
9.076799e+002, 5.977187e+001
9.081620e+002, 6.014219e+001
9.086442e+002, 5.992208e+001
9.091263e+002, 5.943855e+001
9.096084e+002, 5.925706e+001
9.100905e+002, 5.955668e+001
9.105726e+002, 5.971654e+001
9.110547e+002, 5.969253e+001
9.115369e+002, 5.949361e+001
9.120190e+002, 5.896675e+001
9.125011e+002, 5.828257e+001
9.129832e+002, 5.796366e+001
9.134653e+002, 5.814005e+001
9.139474e+002, 5.840991e+001
9.144296e+002, 5.858426e+001
9.149117e+002, 5.869721e+001
9.153938e+002, 5.879770e+001
9.158759e+002, 5.893531e+001
9.163580e+002, 5.880601e+001
9.168401e+002, 5.827357e+001
9.173223e+002, 5.780857e+001
9.178044e+002, 5.782478e+001
9.182865e+002, 5.817403e+001
9.187686e+002, 5.831333e+001
9.192507e+002, 5.825106e+001
9.197328e+002, 5.811731e+001
9.202150e+002, 5.795426e+001
9.206971e+002, 5.778197e+001
9.211792e+002, 5.752558e+001
9.216613e+002, 5.723862e+001
9.221434e+002, 5.730583e+001
9.226255e+002, 5.801393e+001
9.231077e+002, 5.839492e+001
9.235898e+002, 5.806139e+001
9.240719e+002, 5.734772e+001
9.245540e+002, 5.702639e+001
9.250361e+002, 5.701484e+001
9.255182e+002, 5.698247e+001
9.260004e+002, 5.677685e+001
9.264825e+002, 5.655891e+001
9.269646e+002, 5.634572e+001
9.274467e+002, 5.620979e+001
9.279288e+002, 5.628885e+001
9.284109e+002, 5.680157e+001
9.288931e+002, 5.707125e+001
9.293752e+002, 5.703329e+001
9.298573e+002, 5.681141e+001
9.303394e+002, 5.644908e+001
9.308215e+002, 5.601608e+001
9.313036e+002, 5.575732e+001
9.317858e+002, 5.570628e+001
9.322679e+002, 5.576276e+001
9.327500e+002, 5.597875e+001
9.332321e+002, 5.618366e+001
9.337142e+002, 5.628426e+001
9.341964e+002, 5.628143e+001
9.346785e+002, 5.595310e+001
9.351606e+002, 5.506464e+001
9.356427e+002, 5.444490e+001
9.361248e+002, 5.469255e+001
9.366069e+002, 5.549994e+001
9.370891e+002, 5.583152e+001
9.375712e+002, 5.575171e+001
9.380533e+002, 5.555765e+001
9.385354e+002, 5.526179e+001
9.390175e+002, 5.504821e+001
9.394996e+002, 5.509521e+001
9.399818e+002, 5.530584e+001
9.404639e+002, 5.538781e+001
9.409460e+002, 5.525092e+001
9.414281e+002, 5.522902e+001
9.419102e+002, 5.546528e+001
9.423923e+002, 5.567550e+001
9.428745e+002, 5.519877e+001
9.433566e+002, 5.431559e+001
9.438387e+002, 5.389599e+001
9.443208e+002, 5.425829e+001
9.448029e+002, 5.470844e+001
9.452850e+002, 5.499815e+001
9.457672e+002, 5.510176e+001
9.462493e+002, 5.496612e+001
9.467314e+002, 5.453856e+001
9.472135e+002, 5.409786e+001
9.476956e+002, 5.359416e+001
9.481777e+002, 5.325048e+001
9.486599e+002, 5.338066e+001
9.491420e+002, 5.377107e+001
9.496241e+002, 5.387560e+001
9.501062e+002, 5.371555e+001
9.505883e+002, 5.358278e+001
9.510704e+002, 5.365919e+001
9.515526e+002, 5.377693e+001
9.520347e+002, 5.392057e+001
9.525168e+002, 5.404038e+001
9.529989e+002, 5.387536e+001
9.534810e+002, 5.331070e+001
9.539631e+002, 5.304046e+001
9.544453e+002, 5.337481e+001
9.549274e+002, 5.390075e+001
9.554095e+002, 5.384749e+001
9.558916e+002, 5.347333e+001
9.563737e+002, 5.337391e+001
9.568558e+002, 5.406866e+001
9.573380e+002, 5.443198e+001
9.578201e+002, 5.372861e+001
9.583022e+002, 5.275431e+001
9.587843e+002, 5.223316e+001
9.592664e+002, 5.222231e+001
9.597485e+002, 5.241449e+001
9.602307e+002, 5.283752e+001
9.607128e+002, 5.318317e+001
9.611949e+002, 5.312667e+001
9.616770e+002, 5.284673e+001
9.621591e+002, 5.256093e+001
9.626412e+002, 5.228738e+001
9.631234e+002, 5.206486e+001
9.636055e+002, 5.191368e+001
9.640876e+002, 5.181345e+001
9.645697e+002, 5.181168e+001
9.650518e+002, 5.184646e+001
9.655339e+002, 5.149926e+001
9.660161e+002, 5.076968e+001
9.664982e+002, 5.050592e+001
9.669803e+002, 5.134331e+001
9.674624e+002, 5.227705e+001
9.679445e+002, 5.194879e+001
9.684266e+002, 5.098772e+001
9.689088e+002, 5.044020e+001
9.693909e+002, 5.097367e+001
9.698730e+002, 5.139865e+001
9.703551e+002, 5.166545e+001
9.708372e+002, 5.176672e+001
9.713193e+002, 5.164928e+001
9.718015e+002, 5.133989e+001
9.722836e+002, 5.105288e+001
9.727657e+002, 5.080449e+001
9.732478e+002, 5.065503e+001
9.737299e+002, 5.078939e+001
9.742120e+002, 5.093736e+001
9.746942e+002, 5.081478e+001
9.751763e+002, 5.040133e+001
9.756584e+002, 5.018134e+001
9.761405e+002, 5.023689e+001
9.766226e+002, 5.034692e+001
9.771047e+002, 5.043837e+001
9.775869e+002, 5.052210e+001
9.780690e+002, 5.069712e+001
9.785511e+002, 5.090103e+001
9.790332e+002, 5.088811e+001
9.795153e+002, 5.030717e+001
9.799974e+002, 4.985244e+001
9.804796e+002, 5.013716e+001
9.809617e+002, 5.066341e+001
9.814438e+002, 5.069336e+001
9.819259e+002, 4.995001e+001
9.824080e+002, 4.955546e+001
9.828901e+002, 4.962014e+001
9.833723e+002, 4.980843e+001
9.838544e+002, 4.976683e+001
9.843365e+002, 4.961568e+001
9.848186e+002, 4.960175e+001
9.853007e+002, 4.974184e+001
9.857828e+002, 4.984869e+001
9.862650e+002, 4.989984e+001
9.867471e+002, 4.982385e+001
9.872292e+002, 4.946863e+001
9.877113e+002, 4.895731e+001
9.881934e+002, 4.909933e+001
9.886755e+002, 4.993700e+001
9.891577e+002, 5.039496e+001
9.896398e+002, 4.992714e+001
9.901219e+002, 4.910875e+001
9.906040e+002, 4.840582e+001
9.910861e+002, 4.789669e+001
9.915682e+002, 4.772038e+001
9.920504e+002, 4.824653e+001
9.925325e+002, 4.859890e+001
9.930146e+002, 4.862703e+001
9.934967e+002, 4.857669e+001
9.939788e+002, 4.869898e+001
9.944609e+002, 4.896820e+001
9.949431e+002, 4.920356e+001
9.954252e+002, 4.939487e+001
9.959073e+002, 4.939208e+001
9.963894e+002, 4.877026e+001
9.968715e+002, 4.817841e+001
9.973536e+002, 4.817883e+001
9.978358e+002, 4.874921e+001
9.983179e+002, 4.918169e+001
9.988000e+002, 4.952439e+001
9.992821e+002, 4.953564e+001
9.997642e+002, 4.904338e+001
1.000246e+003, 4.832775e+001
1.000728e+003, 4.796129e+001
1.001211e+003, 4.784038e+001
1.001693e+003, 4.770683e+001
1.002175e+003, 4.742542e+001
1.002657e+003, 4.723954e+001
1.003139e+003, 4.736344e+001
1.003621e+003, 4.755764e+001
1.004103e+003, 4.759786e+001
1.004585e+003, 4.744989e+001
1.005068e+003, 4.734715e+001
1.005550e+003, 4.729240e+001
1.006032e+003, 4.724347e+001
1.006514e+003, 4.704565e+001
1.006996e+003, 4.691253e+001
1.007478e+003, 4.730424e+001
1.007960e+003, 4.808311e+001
1.008442e+003, 4.843790e+001
1.008924e+003, 4.756807e+001
1.009407e+003, 4.702406e+001
1.009889e+003, 4.727878e+001
1.010371e+003, 4.787295e+001
1.010853e+003, 4.777827e+001
1.011335e+003, 4.710512e+001
1.011817e+003, 4.656848e+001
1.012299e+003, 4.631649e+001
1.012781e+003, 4.628948e+001
1.013263e+003, 4.672058e+001
1.013746e+003, 4.717910e+001
1.014228e+003, 4.713914e+001
1.014710e+003, 4.638093e+001
1.015192e+003, 4.628473e+001
1.015674e+003, 4.709634e+001
1.016156e+003, 4.776568e+001
1.016638e+003, 4.744130e+001
1.017120e+003, 4.663589e+001
1.017603e+003, 4.652372e+001
1.018085e+003, 4.692712e+001
1.018567e+003, 4.722405e+001
1.019049e+003, 4.702509e+001
1.019531e+003, 4.680862e+001
1.020013e+003, 4.666662e+001
1.020495e+003, 4.661639e+001
1.020977e+003, 4.676466e+001
1.021459e+003, 4.712136e+001
1.021942e+003, 4.713901e+001
1.022424e+003, 4.670705e+001
1.022906e+003, 4.625710e+001
1.023388e+003, 4.614590e+001
1.023870e+003, 4.624504e+001
1.024352e+003, 4.649441e+001
1.024834e+003, 4.690420e+001
1.025316e+003, 4.712681e+001
1.025799e+003, 4.709873e+001
1.026281e+003, 4.697800e+001
1.026763e+003, 4.678687e+001
1.027245e+003, 4.658018e+001
1.027727e+003, 4.648266e+001
1.028209e+003, 4.648526e+001
1.028691e+003, 4.657137e+001
1.029173e+003, 4.689240e+001
1.029656e+003, 4.704258e+001
1.030138e+003, 4.649132e+001
1.030620e+003, 4.589404e+001
1.031102e+003, 4.602702e+001
1.031584e+003, 4.711644e+001
1.032066e+003, 4.760804e+001
1.032548e+003, 4.742822e+001
1.033030e+003, 4.707121e+001
1.033512e+003, 4.695445e+001
1.033995e+003, 4.688471e+001
1.034477e+003, 4.650869e+001
1.034959e+003, 4.590998e+001
1.035441e+003, 4.569120e+001
1.035923e+003, 4.653358e+001
1.036405e+003, 4.689484e+001
1.036887e+003, 4.624078e+001
1.037369e+003, 4.522249e+001
1.037851e+003, 4.523362e+001
1.038334e+003, 4.600470e+001
1.038816e+003, 4.647520e+001
1.039298e+003, 4.634817e+001
1.039780e+003, 4.617806e+001
1.040262e+003, 4.635735e+001
1.040744e+003, 4.659378e+001
1.041226e+003, 4.661311e+001
1.041708e+003, 4.638931e+001
1.042191e+003, 4.646375e+001
1.042673e+003, 4.689079e+001
1.043155e+003, 4.715388e+001
1.043637e+003, 4.684553e+001
1.044119e+003, 4.632701e+001
1.044601e+003, 4.614692e+001
1.045083e+003, 4.614409e+001
1.045565e+003, 4.595700e+001
1.046047e+003, 4.500830e+001
1.046530e+003, 4.460191e+001
1.047012e+003, 4.509645e+001
1.047494e+003, 4.578504e+001
1.047976e+003, 4.576063e+001
1.048458e+003, 4.521490e+001
1.048940e+003, 4.513255e+001
1.049422e+003, 4.557536e+001
1.049904e+003, 4.601137e+001
1.050386e+003, 4.604228e+001
1.050869e+003, 4.602710e+001
1.051351e+003, 4.631781e+001
1.051833e+003, 4.676448e+001
1.052315e+003, 4.663488e+001
1.052797e+003, 4.582352e+001
1.053279e+003, 4.521134e+001
1.053761e+003, 4.500655e+001
1.054243e+003, 4.514768e+001
1.054726e+003, 4.587202e+001
1.055208e+003, 4.675430e+001
1.055690e+003, 4.717262e+001
1.056172e+003, 4.686002e+001
1.056654e+003, 4.650638e+001
1.057136e+003, 4.612770e+001
1.057618e+003, 4.581146e+001
1.058100e+003, 4.562775e+001
1.058583e+003, 4.554572e+001
1.059065e+003, 4.539722e+001
1.059547e+003, 4.522362e+001
1.060029e+003, 4.521651e+001
1.060511e+003, 4.566573e+001
1.060993e+003, 4.608167e+001
1.061475e+003, 4.625477e+001
1.061957e+003, 4.627446e+001
1.062439e+003, 4.625756e+001
1.062922e+003, 4.620630e+001
1.063404e+003, 4.608125e+001
1.063886e+003, 4.587093e+001
1.064368e+003, 4.567692e+001
1.064850e+003, 4.564393e+001
1.065332e+003, 4.563189e+001
1.065814e+003, 4.545770e+001
1.066296e+003, 4.513190e+001
1.066778e+003, 4.494660e+001
1.067261e+003, 4.502753e+001
1.067743e+003, 4.498931e+001
1.068225e+003, 4.465003e+001
1.068707e+003, 4.428073e+001
1.069189e+003, 4.455726e+001
1.069671e+003, 4.517751e+001
1.070153e+003, 4.538164e+001
1.070635e+003, 4.485508e+001
1.071118e+003, 4.439287e+001
1.071600e+003, 4.434552e+001
1.072082e+003, 4.444071e+001
1.072564e+003, 4.451698e+001
1.073046e+003, 4.458813e+001
1.073528e+003, 4.492489e+001
1.074010e+003, 4.549654e+001
1.074492e+003, 4.589045e+001
1.074974e+003, 4.584253e+001
1.075457e+003, 4.558294e+001
1.075939e+003, 4.516039e+001
1.076421e+003, 4.468290e+001
1.076903e+003, 4.432318e+001
1.077385e+003, 4.407752e+001
1.077867e+003, 4.400460e+001
1.078349e+003, 4.414112e+001
1.078831e+003, 4.430520e+001
1.079313e+003, 4.429975e+001
1.079796e+003, 4.422941e+001
1.080278e+003, 4.425651e+001
1.080760e+003, 4.437634e+001
1.081242e+003, 4.449528e+001
1.081724e+003, 4.460386e+001
1.082206e+003, 4.469336e+001
1.082688e+003, 4.481172e+001
1.083170e+003, 4.484663e+001
1.083652e+003, 4.439879e+001
1.084135e+003, 4.366760e+001
1.084617e+003, 4.350340e+001
1.085099e+003, 4.413709e+001
1.085581e+003, 4.478508e+001
1.086063e+003, 4.508225e+001
1.086545e+003, 4.515053e+001
1.087027e+003, 4.504929e+001
1.087509e+003, 4.479700e+001
1.087992e+003, 4.450883e+001
1.088474e+003, 4.418322e+001
1.088956e+003, 4.395107e+001
1.089438e+003, 4.382382e+001
1.089920e+003, 4.388514e+001
1.090402e+003, 4.449984e+001
1.090884e+003, 4.523013e+001
1.091366e+003, 4.542514e+001
1.091849e+003, 4.469277e+001
1.092331e+003, 4.428623e+001
1.092813e+003, 4.426724e+001
1.093295e+003, 4.436536e+001
1.093777e+003, 4.449564e+001
1.094259e+003, 4.455273e+001
1.094741e+003, 4.417435e+001
1.095223e+003, 4.352537e+001
1.095705e+003, 4.318368e+001
1.096188e+003, 4.359009e+001
1.096670e+003, 4.404427e+001
1.097152e+003, 4.450815e+001
1.097634e+003, 4.486404e+001
1.098116e+003, 4.495637e+001
1.098598e+003, 4.480926e+001
1.099080e+003, 4.450830e+001
1.099562e+003, 4.406320e+001
1.100044e+003, 4.358784e+001
1.100527e+003, 4.285521e+001
1.101009e+003, 4.242147e+001
1.101491e+003, 4.277456e+001
1.101973e+003, 4.362359e+001
1.102455e+003, 4.406073e+001
1.102937e+003, 4.408499e+001
1.103419e+003, 4.414915e+001
1.103901e+003, 4.442321e+001
1.104384e+003, 4.452828e+001
1.104866e+003, 4.376099e+001
1.105348e+003, 4.285804e+001
1.105830e+003, 4.257536e+001
1.106312e+003, 4.305345e+001
1.106794e+003, 4.375420e+001
1.107276e+003, 4.483220e+001
1.107758e+003, 4.549714e+001
1.108240e+003, 4.521559e+001
1.108723e+003, 4.453852e+001
1.109205e+003, 4.418276e+001
1.109687e+003, 4.412535e+001
1.110169e+003, 4.434593e+001
1.110651e+003, 4.530509e+001
1.111133e+003, 4.560156e+001
1.111615e+003, 4.478892e+001
1.112097e+003, 4.396687e+001
1.112579e+003, 4.419796e+001
1.113062e+003, 4.508784e+001
1.113544e+003, 4.512467e+001
1.114026e+003, 4.447706e+001
1.114508e+003, 4.401658e+001
1.114990e+003, 4.444114e+001
1.115472e+003, 4.477615e+001
1.115954e+003, 4.462993e+001
1.116436e+003, 4.430885e+001
1.116919e+003, 4.422635e+001
1.117401e+003, 4.435810e+001
1.117883e+003, 4.434937e+001
1.118365e+003, 4.416949e+001
1.118847e+003, 4.396763e+001
1.119329e+003, 4.384406e+001
1.119811e+003, 4.374092e+001
1.120293e+003, 4.352166e+001
1.120776e+003, 4.329513e+001
1.121258e+003, 4.355275e+001
1.121740e+003, 4.438877e+001
1.122222e+003, 4.469027e+001
1.122704e+003, 4.410523e+001
1.123186e+003, 4.345188e+001
1.123668e+003, 4.356496e+001
1.124150e+003, 4.405334e+001
1.124632e+003, 4.460505e+001
1.125115e+003, 4.519997e+001
1.125597e+003, 4.537415e+001
1.126079e+003, 4.500793e+001
1.126561e+003, 4.460115e+001
1.127043e+003, 4.430854e+001
1.127525e+003, 4.413071e+001
1.128007e+003, 4.406977e+001
1.128489e+003, 4.412096e+001
1.128971e+003, 4.429570e+001
1.129454e+003, 4.467768e+001
1.129936e+003, 4.495622e+001
1.130418e+003, 4.504655e+001
1.130900e+003, 4.515096e+001
1.131382e+003, 4.551672e+001
1.131864e+003, 4.594231e+001
1.132346e+003, 4.567864e+001
1.132828e+003, 4.492489e+001
1.133311e+003, 4.433891e+001
1.133793e+003, 4.415627e+001
1.134275e+003, 4.426334e+001
1.134757e+003, 4.483703e+001
1.135239e+003, 4.544650e+001
1.135721e+003, 4.568973e+001
1.136203e+003, 4.559394e+001
1.136685e+003, 4.529641e+001
1.137167e+003, 4.484023e+001
1.137650e+003, 4.463488e+001
1.138132e+003, 4.533368e+001
1.138614e+003, 4.589667e+001
1.139096e+003, 4.554354e+001
1.139578e+003, 4.485525e+001
1.140060e+003, 4.484032e+001
1.140542e+003, 4.551998e+001
1.141024e+003, 4.577252e+001
1.141506e+003, 4.545736e+001
1.141989e+003, 4.518281e+001
1.142471e+003, 4.559165e+001
1.142953e+003, 4.608998e+001
1.143435e+003, 4.622645e+001
1.143917e+003, 4.604079e+001
1.144399e+003, 4.584634e+001
1.144881e+003, 4.564754e+001
1.145363e+003, 4.541642e+001
1.145846e+003, 4.514695e+001
1.146328e+003, 4.485967e+001
1.146810e+003, 4.433739e+001
1.147292e+003, 4.396986e+001
1.147774e+003, 4.434322e+001
1.148256e+003, 4.560036e+001
1.148738e+003, 4.621777e+001
1.149220e+003, 4.600102e+001
1.149703e+003, 4.576546e+001
1.150185e+003, 4.580075e+001
1.150667e+003, 4.594512e+001
1.151149e+003, 4.598249e+001
1.151631e+003, 4.595571e+001
1.152113e+003, 4.595982e+001
1.152595e+003, 4.608829e+001
1.153077e+003, 4.591305e+001
1.153559e+003, 4.520381e+001
1.154042e+003, 4.470309e+001
1.154524e+003, 4.493859e+001
1.155006e+003, 4.552686e+001
1.155488e+003, 4.559720e+001
1.155970e+003, 4.532530e+001
1.156452e+003, 4.514003e+001
1.156934e+003, 4.531958e+001
1.157416e+003, 4.532100e+001
1.157898e+003, 4.497025e+001
1.158381e+003, 4.461977e+001
1.158863e+003, 4.450340e+001
1.159345e+003, 4.460876e+001
1.159827e+003, 4.502304e+001
1.160309e+003, 4.564203e+001
1.160791e+003, 4.603624e+001
1.161273e+003, 4.585910e+001
1.161755e+003, 4.561883e+001
1.162238e+003, 4.541320e+001
1.162720e+003, 4.523431e+001
1.163202e+003, 4.501988e+001
1.163684e+003, 4.480992e+001
1.164166e+003, 4.493577e+001
1.164648e+003, 4.537136e+001
1.165130e+003, 4.573828e+001
1.165612e+003, 4.586115e+001
1.166094e+003, 4.581850e+001
1.166577e+003, 4.564247e+001
1.167059e+003, 4.532566e+001
1.167541e+003, 4.466195e+001
1.168023e+003, 4.372274e+001
1.168505e+003, 4.365208e+001
1.168987e+003, 4.457168e+001
1.169469e+003, 4.539561e+001
1.169951e+003, 4.517859e+001
1.170433e+003, 4.482406e+001
1.170916e+003, 4.499833e+001
1.171398e+003, 4.541967e+001
1.171880e+003, 4.526440e+001
1.172362e+003, 4.454309e+001
1.172844e+003, 4.416615e+001
1.173326e+003, 4.433571e+001
1.173808e+003, 4.462673e+001
1.174290e+003, 4.474470e+001
1.174773e+003, 4.479359e+001
1.175255e+003, 4.485300e+001
1.175737e+003, 4.491752e+001
1.176219e+003, 4.491593e+001
1.176701e+003, 4.484258e+001
1.177183e+003, 4.483410e+001
1.177665e+003, 4.494893e+001
1.178147e+003, 4.506370e+001
1.178630e+003, 4.494709e+001
1.179112e+003, 4.485199e+001
1.179594e+003, 4.513537e+001
1.180076e+003, 4.580463e+001
1.180558e+003, 4.601069e+001
1.181040e+003, 4.570335e+001
1.181522e+003, 4.544508e+001
1.182004e+003, 4.548580e+001
1.182486e+003, 4.558809e+001
1.182969e+003, 4.555684e+001
1.183451e+003, 4.540532e+001
1.183933e+003, 4.508741e+001
1.184415e+003, 4.453181e+001
1.184897e+003, 4.433522e+001
1.185379e+003, 4.455692e+001
1.185861e+003, 4.474597e+001
1.186343e+003, 4.463228e+001
1.186825e+003, 4.442188e+001
1.187308e+003, 4.442002e+001
1.187790e+003, 4.446389e+001
1.188272e+003, 4.426715e+001
1.188754e+003, 4.363502e+001
1.189236e+003, 4.326178e+001
1.189718e+003, 4.318576e+001
1.190200e+003, 4.318898e+001
1.190682e+003, 4.321987e+001
1.191165e+003, 4.317906e+001
1.191647e+003, 4.279799e+001
1.192129e+003, 4.227988e+001
1.192611e+003, 4.204765e+001
1.193093e+003, 4.234011e+001
1.193575e+003, 4.258168e+001
1.194057e+003, 4.279944e+001
1.194539e+003, 4.282433e+001
1.195021e+003, 4.232324e+001
1.195504e+003, 4.169090e+001
1.195986e+003, 4.151990e+001
1.196468e+003, 4.167187e+001
1.196950e+003, 4.170513e+001
1.197432e+003, 4.128759e+001
1.197914e+003, 4.137798e+001
1.198396e+003, 4.215381e+001
1.198878e+003, 4.300689e+001
1.199360e+003, 4.340390e+001
1.199843e+003, 4.348528e+001
1.200325e+003, 4.334371e+001
1.200807e+003, 4.304852e+001
1.201289e+003, 4.285154e+001
1.201771e+003, 4.291534e+001
1.202253e+003, 4.278020e+001
1.202735e+003, 4.232870e+001
1.203217e+003, 4.188899e+001
1.203700e+003, 4.193043e+001
1.204182e+003, 4.215450e+001
1.204664e+003, 4.207039e+001
1.205146e+003, 4.171575e+001
1.205628e+003, 4.156034e+001
1.206110e+003, 4.173462e+001
1.206592e+003, 4.199987e+001
1.207074e+003, 4.238710e+001
1.207557e+003, 4.265567e+001
1.208039e+003, 4.243549e+001
1.208521e+003, 4.194395e+001
1.209003e+003, 4.136688e+001
1.209485e+003, 4.075399e+001
1.209967e+003, 4.059777e+001
1.210449e+003, 4.120529e+001
1.210931e+003, 4.159966e+001
1.211413e+003, 4.152702e+001
1.211896e+003, 4.131367e+001
1.212378e+003, 4.159069e+001
1.212860e+003, 4.191430e+001
1.213342e+003, 4.145514e+001
1.213824e+003, 4.012423e+001
1.214306e+003, 3.934842e+001
1.214788e+003, 3.941174e+001
1.215270e+003, 3.961509e+001
1.215752e+003, 3.982907e+001
1.216235e+003, 3.996656e+001
1.216717e+003, 3.975344e+001
1.217199e+003, 3.945872e+001
1.217681e+003, 3.957222e+001
1.218163e+003, 4.020750e+001
1.218645e+003, 4.040205e+001
1.219127e+003, 3.992449e+001
1.219609e+003, 3.953202e+001
1.220092e+003, 3.946361e+001
1.220574e+003, 3.958723e+001
1.221056e+003, 3.980972e+001
1.221538e+003, 4.004389e+001
1.222020e+003, 4.016444e+001
1.222502e+003, 4.013844e+001
1.222984e+003, 4.004155e+001
1.223466e+003, 3.984760e+001
1.223948e+003, 3.967524e+001
1.224431e+003, 3.953249e+001
1.224913e+003, 3.950329e+001
1.225395e+003, 3.985531e+001
1.225877e+003, 4.032774e+001
1.226359e+003, 4.055272e+001
1.226841e+003, 4.041324e+001
1.227323e+003, 4.028244e+001
1.227805e+003, 4.018675e+001
1.228287e+003, 3.998840e+001
1.228770e+003, 3.955915e+001
1.229252e+003, 3.912920e+001
1.229734e+003, 3.905262e+001
1.230216e+003, 3.915794e+001
1.230698e+003, 3.922406e+001
1.231180e+003, 3.921529e+001
1.231662e+003, 3.915805e+001
1.232144e+003, 3.902975e+001
1.232627e+003, 3.899375e+001
1.233109e+003, 3.919518e+001
1.233591e+003, 3.940594e+001
1.234073e+003, 3.930332e+001
1.234555e+003, 3.906785e+001
1.235037e+003, 3.899068e+001
1.235519e+003, 3.918067e+001
1.236001e+003, 3.891903e+001
1.236484e+003, 3.813823e+001
1.236966e+003, 3.753592e+001
1.237448e+003, 3.753965e+001
1.237930e+003, 3.776231e+001
1.238412e+003, 3.786161e+001
1.238894e+003, 3.791452e+001
1.239376e+003, 3.806113e+001
1.239858e+003, 3.835862e+001
1.240340e+003, 3.831566e+001
1.240823e+003, 3.791581e+001
1.241305e+003, 3.754325e+001
1.241787e+003, 3.742894e+001
1.242269e+003, 3.738757e+001
1.242751e+003, 3.716733e+001
1.243233e+003, 3.699293e+001
1.243715e+003, 3.718337e+001
1.244197e+003, 3.779016e+001
1.244679e+003, 3.824386e+001
1.245162e+003, 3.854619e+001
1.245644e+003, 3.860771e+001
1.246126e+003, 3.812252e+001
1.246608e+003, 3.772752e+001
1.247090e+003, 3.810727e+001
1.247572e+003, 3.863256e+001
1.248054e+003, 3.853368e+001
1.248536e+003, 3.777780e+001
1.249019e+003, 3.731938e+001
1.249501e+003, 3.715438e+001
1.249983e+003, 3.723589e+001
1.250465e+003, 3.798164e+001
1.250947e+003, 3.841223e+001
1.251429e+003, 3.754053e+001
1.251911e+003, 3.649199e+001
1.252393e+003, 3.642805e+001
1.252875e+003, 3.727187e+001
1.253358e+003, 3.751003e+001
1.253840e+003, 3.721300e+001
1.254322e+003, 3.687080e+001
1.254804e+003, 3.666375e+001
1.255286e+003, 3.655329e+001
1.255768e+003, 3.657268e+001
1.256250e+003, 3.663158e+001
1.256732e+003, 3.664906e+001
1.257214e+003, 3.663970e+001
1.257697e+003, 3.672956e+001
1.258179e+003, 3.688589e+001
1.258661e+003, 3.695472e+001
1.259143e+003, 3.687122e+001
1.259625e+003, 3.667378e+001
1.260107e+003, 3.631070e+001
1.260589e+003, 3.594767e+001
1.261071e+003, 3.567938e+001
1.261554e+003, 3.553270e+001
1.262036e+003, 3.568542e+001
1.262518e+003, 3.604408e+001
1.263000e+003, 3.629617e+001
1.263482e+003, 3.618015e+001
1.263964e+003, 3.617531e+001
1.264446e+003, 3.634361e+001
1.264928e+003, 3.657445e+001
1.265411e+003, 3.691335e+001
1.265893e+003, 3.717544e+001
1.266375e+003, 3.677253e+001
1.266857e+003, 3.600590e+001
1.267339e+003, 3.570545e+001
1.267821e+003, 3.662493e+001
1.268303e+003, 3.699402e+001
1.268785e+003, 3.666921e+001
1.269267e+003, 3.619971e+001
1.269750e+003, 3.595372e+001
1.270232e+003, 3.586891e+001
1.270714e+003, 3.599194e+001
1.271196e+003, 3.618771e+001
1.271678e+003, 3.608770e+001
1.272160e+003, 3.538623e+001
1.272642e+003, 3.545209e+001
1.273124e+003, 3.644143e+001
1.273606e+003, 3.711903e+001
1.274089e+003, 3.607891e+001
1.274571e+003, 3.482561e+001
1.275053e+003, 3.472426e+001
1.275535e+003, 3.536351e+001
1.276017e+003, 3.602549e+001
1.276499e+003, 3.675827e+001
1.276981e+003, 3.693103e+001
1.277463e+003, 3.653925e+001
1.277946e+003, 3.607823e+001
1.278428e+003, 3.593277e+001
1.278910e+003, 3.575479e+001
1.279392e+003, 3.513123e+001
1.279874e+003, 3.450066e+001
1.280356e+003, 3.439194e+001
1.280838e+003, 3.479531e+001
1.281320e+003, 3.535054e+001
1.281802e+003, 3.599663e+001
1.282285e+003, 3.630934e+001
1.282767e+003, 3.581654e+001
1.283249e+003, 3.525169e+001
1.283731e+003, 3.471552e+001
1.284213e+003, 3.439187e+001
1.284695e+003, 3.464465e+001
1.285177e+003, 3.526817e+001
1.285659e+003, 3.511959e+001
1.286141e+003, 3.439582e+001
1.286624e+003, 3.393923e+001
1.287106e+003, 3.437112e+001
1.287588e+003, 3.472031e+001
1.288070e+003, 3.484560e+001
1.288552e+003, 3.488207e+001
1.289034e+003, 3.494166e+001
1.289516e+003, 3.498964e+001
1.289998e+003, 3.493395e+001
1.290481e+003, 3.480202e+001
1.290963e+003, 3.466314e+001
1.291445e+003, 3.446510e+001
1.291927e+003, 3.440179e+001
1.292409e+003, 3.448672e+001
1.292891e+003, 3.465630e+001
1.293373e+003, 3.498950e+001
1.293855e+003, 3.528014e+001
1.294338e+003, 3.529203e+001
1.294820e+003, 3.505940e+001
1.295302e+003, 3.457102e+001
1.295784e+003, 3.363112e+001
1.296266e+003, 3.338316e+001
1.296748e+003, 3.386829e+001
1.297230e+003, 3.430415e+001
1.297712e+003, 3.406226e+001
1.298194e+003, 3.376225e+001
1.298677e+003, 3.396801e+001
1.299159e+003, 3.434600e+001
1.299641e+003, 3.448220e+001
1.300123e+003, 3.437103e+001
1.300605e+003, 3.420644e+001
1.301087e+003, 3.400132e+001
1.301569e+003, 3.387826e+001
1.302051e+003, 3.398998e+001
1.302533e+003, 3.404708e+001
1.303016e+003, 3.395085e+001
##END=



