##NAMES=Stokesite
##RRUFFID=R060587
##IDEAL CHEMISTRY=CaSn^4+^Si_3_O_9_&#183;2H_2_O
##LOCALITY=Urucum mine, Galileia, Minas Gerais, Brazil
##OWNER=RRUFF
##SOURCE=Michael Scott
##DESCRIPTION=Spherical aggregate of colorless prismatic crystals
##STATUS=The identification of this mineral has been confirmed by single-crystal X-ray diffraction.
##URL=rruff.info/R060587
9.059570e+001, 1.205825e+003
9.107782e+001, 1.163633e+003
9.155994e+001, 1.148689e+003
9.204205e+001, 1.178888e+003
9.252417e+001, 1.224308e+003
9.300629e+001, 1.275265e+003
9.348840e+001, 1.321516e+003
9.397052e+001, 1.354152e+003
9.445264e+001, 1.369175e+003
9.493475e+001, 1.382941e+003
9.541687e+001, 1.398592e+003
9.589898e+001, 1.417146e+003
9.638110e+001, 1.438017e+003
9.686321e+001, 1.460245e+003
9.734533e+001, 1.482323e+003
9.782745e+001, 1.502254e+003
9.830956e+001, 1.528202e+003
9.879168e+001, 1.559222e+003
9.927380e+001, 1.595959e+003
9.975591e+001, 1.637603e+003
1.002380e+002, 1.684361e+003
1.007201e+002, 1.737158e+003
1.012023e+002, 1.796252e+003
1.016844e+002, 1.863209e+003
1.021665e+002, 1.936834e+003
1.026486e+002, 2.019893e+003
1.031307e+002, 2.107776e+003
1.036128e+002, 2.198781e+003
1.040950e+002, 2.295217e+003
1.045771e+002, 2.385064e+003
1.050592e+002, 2.470163e+003
1.055413e+002, 2.542930e+003
1.060234e+002, 2.586301e+003
1.065055e+002, 2.594464e+003
1.069877e+002, 2.568044e+003
1.074698e+002, 2.507797e+003
1.079519e+002, 2.399472e+003
1.084340e+002, 2.269691e+003
1.089161e+002, 2.123119e+003
1.093982e+002, 1.964848e+003
1.098804e+002, 1.806027e+003
1.103625e+002, 1.653527e+003
1.108446e+002, 1.505778e+003
1.113267e+002, 1.376692e+003
1.118088e+002, 1.268601e+003
1.122909e+002, 1.174603e+003
1.127731e+002, 1.093801e+003
1.132552e+002, 1.025376e+003
1.137373e+002, 9.665883e+002
1.142194e+002, 9.144706e+002
1.147015e+002, 8.708543e+002
1.151836e+002, 8.313436e+002
1.156658e+002, 7.966765e+002
1.161479e+002, 7.653428e+002
1.166300e+002, 7.357324e+002
1.171121e+002, 7.071395e+002
1.175942e+002, 6.802872e+002
1.180763e+002, 6.576536e+002
1.185584e+002, 6.396647e+002
1.190406e+002, 6.234778e+002
1.195227e+002, 6.083553e+002
1.200048e+002, 5.944479e+002
1.204869e+002, 5.821047e+002
1.209690e+002, 5.716995e+002
1.214511e+002, 5.631131e+002
1.219333e+002, 5.554050e+002
1.224154e+002, 5.486279e+002
1.228975e+002, 5.426142e+002
1.233796e+002, 5.372712e+002
1.238617e+002, 5.325656e+002
1.243438e+002, 5.286584e+002
1.248260e+002, 5.268495e+002
1.253081e+002, 5.254840e+002
1.257902e+002, 5.228151e+002
1.262723e+002, 5.177867e+002
1.267544e+002, 5.117226e+002
1.272365e+002, 5.077746e+002
1.277187e+002, 5.071440e+002
1.282008e+002, 5.067581e+002
1.286829e+002, 5.055505e+002
1.291650e+002, 5.039857e+002
1.296471e+002, 5.027065e+002
1.301292e+002, 5.021450e+002
1.306114e+002, 5.022525e+002
1.310935e+002, 5.022929e+002
1.315756e+002, 5.019906e+002
1.320577e+002, 5.018946e+002
1.325398e+002, 5.022083e+002
1.330219e+002, 5.028616e+002
1.335041e+002, 5.036389e+002
1.339862e+002, 5.043325e+002
1.344683e+002, 5.048805e+002
1.349504e+002, 5.058664e+002
1.354325e+002, 5.071421e+002
1.359146e+002, 5.088621e+002
1.363968e+002, 5.112022e+002
1.368789e+002, 5.141385e+002
1.373610e+002, 5.174155e+002
1.378431e+002, 5.207150e+002
1.383252e+002, 5.240301e+002
1.388073e+002, 5.275724e+002
1.392895e+002, 5.310693e+002
1.397716e+002, 5.349164e+002
1.402537e+002, 5.397350e+002
1.407358e+002, 5.457650e+002
1.412179e+002, 5.522836e+002
1.417000e+002, 5.584154e+002
1.421821e+002, 5.641937e+002
1.426643e+002, 5.697983e+002
1.431464e+002, 5.755024e+002
1.436285e+002, 5.811338e+002
1.441106e+002, 5.859044e+002
1.445927e+002, 5.886192e+002
1.450748e+002, 5.916540e+002
1.455570e+002, 5.971995e+002
1.460391e+002, 6.052554e+002
1.465212e+002, 6.139807e+002
1.470033e+002, 6.217738e+002
1.474854e+002, 6.285196e+002
1.479675e+002, 6.355797e+002
1.484497e+002, 6.435099e+002
1.489318e+002, 6.517320e+002
1.494139e+002, 6.600149e+002
1.498960e+002, 6.682675e+002
1.503781e+002, 6.765714e+002
1.508602e+002, 6.849080e+002
1.513424e+002, 6.932023e+002
1.518245e+002, 7.019011e+002
1.523066e+002, 7.114448e+002
1.527887e+002, 7.211296e+002
1.532708e+002, 7.304842e+002
1.537529e+002, 7.392806e+002
1.542351e+002, 7.476837e+002
1.547172e+002, 7.560577e+002
1.551993e+002, 7.638896e+002
1.556814e+002, 7.723291e+002
1.561635e+002, 7.822347e+002
1.566456e+002, 7.925439e+002
1.571278e+002, 8.020430e+002
1.576099e+002, 8.101570e+002
1.580920e+002, 8.169476e+002
1.585741e+002, 8.225187e+002
1.590562e+002, 8.258870e+002
1.595383e+002, 8.293347e+002
1.600205e+002, 8.335406e+002
1.605026e+002, 8.382314e+002
1.609847e+002, 8.428925e+002
1.614668e+002, 8.473959e+002
1.619489e+002, 8.514545e+002
1.624310e+002, 8.540849e+002
1.629131e+002, 8.549848e+002
1.633953e+002, 8.549210e+002
1.638774e+002, 8.542806e+002
1.643595e+002, 8.530537e+002
1.648416e+002, 8.511152e+002
1.653237e+002, 8.482961e+002
1.658058e+002, 8.446383e+002
1.662880e+002, 8.404282e+002
1.667701e+002, 8.359965e+002
1.672522e+002, 8.307562e+002
1.677343e+002, 8.238148e+002
1.682164e+002, 8.149133e+002
1.686985e+002, 8.055955e+002
1.691807e+002, 7.965343e+002
1.696628e+002, 7.876920e+002
1.701449e+002, 7.790322e+002
1.706270e+002, 7.707298e+002
1.711091e+002, 7.625349e+002
1.715912e+002, 7.538401e+002
1.720734e+002, 7.444161e+002
1.725555e+002, 7.348851e+002
1.730376e+002, 7.256328e+002
1.735197e+002, 7.163733e+002
1.740018e+002, 7.065488e+002
1.744839e+002, 6.956575e+002
1.749661e+002, 6.839906e+002
1.754482e+002, 6.734801e+002
1.759303e+002, 6.650770e+002
1.764124e+002, 6.568743e+002
1.768945e+002, 6.485146e+002
1.773766e+002, 6.399846e+002
1.778588e+002, 6.314182e+002
1.783409e+002, 6.228643e+002
1.788230e+002, 6.143055e+002
1.793051e+002, 6.057758e+002
1.797872e+002, 5.969363e+002
1.802693e+002, 5.884373e+002
1.807515e+002, 5.808450e+002
1.812336e+002, 5.738260e+002
1.817157e+002, 5.665885e+002
1.821978e+002, 5.583511e+002
1.826799e+002, 5.489113e+002
1.831620e+002, 5.405566e+002
1.836441e+002, 5.339716e+002
1.841263e+002, 5.275939e+002
1.846084e+002, 5.205859e+002
1.850905e+002, 5.130065e+002
1.855726e+002, 5.055150e+002
1.860547e+002, 4.987581e+002
1.865368e+002, 4.928559e+002
1.870190e+002, 4.870681e+002
1.875011e+002, 4.815898e+002
1.879832e+002, 4.761363e+002
1.884653e+002, 4.704365e+002
1.889474e+002, 4.644977e+002
1.894296e+002, 4.585738e+002
1.899117e+002, 4.528350e+002
1.903938e+002, 4.473253e+002
1.908759e+002, 4.422606e+002
1.913580e+002, 4.377260e+002
1.918401e+002, 4.336505e+002
1.923223e+002, 4.299794e+002
1.928044e+002, 4.267241e+002
1.932865e+002, 4.237526e+002
1.937686e+002, 4.208603e+002
1.942507e+002, 4.181010e+002
1.947328e+002, 4.158687e+002
1.952150e+002, 4.145992e+002
1.956971e+002, 4.138797e+002
1.961792e+002, 4.127770e+002
1.966613e+002, 4.109189e+002
1.971434e+002, 4.093571e+002
1.976255e+002, 4.088716e+002
1.981077e+002, 4.092380e+002
1.985898e+002, 4.100050e+002
1.990719e+002, 4.110252e+002
1.995540e+002, 4.122787e+002
2.000361e+002, 4.136129e+002
2.005182e+002, 4.147364e+002
2.010004e+002, 4.164256e+002
2.014825e+002, 4.189412e+002
2.019646e+002, 4.222337e+002
2.024467e+002, 4.261576e+002
2.029288e+002, 4.308026e+002
2.034109e+002, 4.361277e+002
2.038930e+002, 4.412579e+002
2.043752e+002, 4.457729e+002
2.048573e+002, 4.505236e+002
2.053394e+002, 4.556175e+002
2.058215e+002, 4.611493e+002
2.063036e+002, 4.672964e+002
2.067857e+002, 4.741310e+002
2.072679e+002, 4.816418e+002
2.077500e+002, 4.900842e+002
2.082321e+002, 4.999746e+002
2.087142e+002, 5.104073e+002
2.091963e+002, 5.207202e+002
2.096784e+002, 5.312560e+002
2.101606e+002, 5.429099e+002
2.106427e+002, 5.565505e+002
2.111248e+002, 5.722269e+002
2.116069e+002, 5.887848e+002
2.120890e+002, 6.062980e+002
2.125711e+002, 6.244616e+002
2.130533e+002, 6.431278e+002
2.135354e+002, 6.623352e+002
2.140175e+002, 6.824644e+002
2.144996e+002, 7.038573e+002
2.149817e+002, 7.266533e+002
2.154638e+002, 7.501631e+002
2.159460e+002, 7.742567e+002
2.164281e+002, 7.990345e+002
2.169102e+002, 8.247021e+002
2.173923e+002, 8.511502e+002
2.178744e+002, 8.783165e+002
2.183565e+002, 9.058408e+002
2.188387e+002, 9.336297e+002
2.193208e+002, 9.638552e+002
2.198029e+002, 9.965181e+002
2.202850e+002, 1.031368e+003
2.207671e+002, 1.068699e+003
2.212492e+002, 1.108336e+003
2.217314e+002, 1.149203e+003
2.222135e+002, 1.190076e+003
2.226956e+002, 1.231104e+003
2.231777e+002, 1.275543e+003
2.236598e+002, 1.323598e+003
2.241419e+002, 1.374858e+003
2.246240e+002, 1.428346e+003
2.251062e+002, 1.484207e+003
2.255883e+002, 1.543806e+003
2.260704e+002, 1.608404e+003
2.265525e+002, 1.678182e+003
2.270346e+002, 1.752383e+003
2.275167e+002, 1.831654e+003
2.279989e+002, 1.914811e+003
2.284810e+002, 2.002279e+003
2.289631e+002, 2.094163e+003
2.294452e+002, 2.183344e+003
2.299273e+002, 2.266674e+003
2.304094e+002, 2.342313e+003
2.308916e+002, 2.405848e+003
2.313737e+002, 2.459039e+003
2.318558e+002, 2.498012e+003
2.323379e+002, 2.517786e+003
2.328200e+002, 2.517772e+003
2.333021e+002, 2.502728e+003
2.337843e+002, 2.471317e+003
2.342664e+002, 2.426808e+003
2.347485e+002, 2.371885e+003
2.352306e+002, 2.304148e+003
2.357127e+002, 2.228806e+003
2.361948e+002, 2.151278e+003
2.366770e+002, 2.070290e+003
2.371591e+002, 1.990559e+003
2.376412e+002, 1.913358e+003
2.381233e+002, 1.838775e+003
2.386054e+002, 1.766590e+003
2.390875e+002, 1.696253e+003
2.395697e+002, 1.628952e+003
2.400518e+002, 1.566822e+003
2.405339e+002, 1.509546e+003
2.410160e+002, 1.457904e+003
2.414981e+002, 1.413377e+003
2.419802e+002, 1.373767e+003
2.424624e+002, 1.337652e+003
2.429445e+002, 1.304771e+003
2.434266e+002, 1.274918e+003
2.439087e+002, 1.248094e+003
2.443908e+002, 1.225080e+003
2.448729e+002, 1.203167e+003
2.453550e+002, 1.181360e+003
2.458372e+002, 1.160385e+003
2.463193e+002, 1.141165e+003
2.468014e+002, 1.124036e+003
2.472835e+002, 1.108086e+003
2.477656e+002, 1.091356e+003
2.482477e+002, 1.073213e+003
2.487299e+002, 1.055937e+003
2.492120e+002, 1.040249e+003
2.496941e+002, 1.025323e+003
2.501762e+002, 1.010614e+003
2.506583e+002, 9.959246e+002
2.511404e+002, 9.814291e+002
2.516226e+002, 9.672455e+002
2.521047e+002, 9.533859e+002
2.525868e+002, 9.400398e+002
2.530689e+002, 9.275217e+002
2.535510e+002, 9.152424e+002
2.540331e+002, 9.028513e+002
2.545153e+002, 8.902427e+002
2.549974e+002, 8.772843e+002
2.554795e+002, 8.636530e+002
2.559616e+002, 8.491862e+002
2.564437e+002, 8.344296e+002
2.569258e+002, 8.197574e+002
2.574080e+002, 8.046436e+002
2.578901e+002, 7.885425e+002
2.583722e+002, 7.714563e+002
2.588543e+002, 7.538217e+002
2.593364e+002, 7.361735e+002
2.598185e+002, 7.183745e+002
2.603007e+002, 7.009236e+002
2.607828e+002, 6.837072e+002
2.612649e+002, 6.666830e+002
2.617470e+002, 6.497873e+002
2.622291e+002, 6.329987e+002
2.627112e+002, 6.166199e+002
2.631934e+002, 6.008834e+002
2.636755e+002, 5.858268e+002
2.641576e+002, 5.713743e+002
2.646397e+002, 5.574192e+002
2.651218e+002, 5.440567e+002
2.656039e+002, 5.314583e+002
2.660861e+002, 5.196105e+002
2.665682e+002, 5.083690e+002
2.670503e+002, 4.977095e+002
2.675324e+002, 4.878711e+002
2.680145e+002, 4.771760e+002
2.684966e+002, 4.650773e+002
2.689788e+002, 4.528141e+002
2.694609e+002, 4.411208e+002
2.699430e+002, 4.298949e+002
2.704251e+002, 4.185202e+002
2.709072e+002, 4.063950e+002
2.713893e+002, 3.935461e+002
2.718715e+002, 3.814472e+002
2.723536e+002, 3.701573e+002
2.728357e+002, 3.593950e+002
2.733178e+002, 3.491705e+002
2.737999e+002, 3.394134e+002
2.742820e+002, 3.300282e+002
2.747642e+002, 3.209494e+002
2.752463e+002, 3.121706e+002
2.757284e+002, 3.038604e+002
2.762105e+002, 2.960397e+002
2.766926e+002, 2.885060e+002
2.771747e+002, 2.811376e+002
2.776568e+002, 2.739665e+002
2.781389e+002, 2.670901e+002
2.786211e+002, 2.605344e+002
2.791032e+002, 2.543455e+002
2.795853e+002, 2.487331e+002
2.800674e+002, 2.438146e+002
2.805495e+002, 2.391744e+002
2.810316e+002, 2.348070e+002
2.815138e+002, 2.306365e+002
2.819959e+002, 2.265435e+002
2.824780e+002, 2.224927e+002
2.829601e+002, 2.184495e+002
2.834422e+002, 2.143599e+002
2.839243e+002, 2.097871e+002
2.844065e+002, 2.059209e+002
2.848886e+002, 2.034224e+002
2.853707e+002, 2.016687e+002
2.858528e+002, 1.997749e+002
2.863349e+002, 1.974485e+002
2.868170e+002, 1.948990e+002
2.872992e+002, 1.924164e+002
2.877813e+002, 1.899684e+002
2.882634e+002, 1.877111e+002
2.887455e+002, 1.857434e+002
2.892276e+002, 1.839637e+002
2.897097e+002, 1.823142e+002
2.901919e+002, 1.807874e+002
2.906740e+002, 1.792581e+002
2.911561e+002, 1.775058e+002
2.916382e+002, 1.754855e+002
2.921203e+002, 1.736620e+002
2.926024e+002, 1.721182e+002
2.930846e+002, 1.707702e+002
2.935667e+002, 1.695984e+002
2.940488e+002, 1.685898e+002
2.945309e+002, 1.675948e+002
2.950130e+002, 1.664849e+002
2.954951e+002, 1.652497e+002
2.959773e+002, 1.639566e+002
2.964594e+002, 1.624458e+002
2.969415e+002, 1.609939e+002
2.974236e+002, 1.598843e+002
2.979057e+002, 1.591011e+002
2.983878e+002, 1.583096e+002
2.988700e+002, 1.572601e+002
2.993521e+002, 1.559958e+002
2.998342e+002, 1.548454e+002
3.003163e+002, 1.537787e+002
3.007984e+002, 1.528568e+002
3.012805e+002, 1.521551e+002
3.017627e+002, 1.516429e+002
3.022448e+002, 1.511787e+002
3.027269e+002, 1.507113e+002
3.032090e+002, 1.502214e+002
3.036911e+002, 1.496452e+002
3.041732e+002, 1.488722e+002
3.046554e+002, 1.481938e+002
3.051375e+002, 1.478366e+002
3.056196e+002, 1.476806e+002
3.061017e+002, 1.474260e+002
3.065838e+002, 1.469737e+002
3.070659e+002, 1.463467e+002
3.075481e+002, 1.455132e+002
3.080302e+002, 1.443617e+002
3.085123e+002, 1.434460e+002
3.089944e+002, 1.430987e+002
3.094765e+002, 1.430729e+002
3.099586e+002, 1.429227e+002
3.104408e+002, 1.425076e+002
3.109229e+002, 1.420745e+002
3.114050e+002, 1.420115e+002
3.118871e+002, 1.423277e+002
3.123692e+002, 1.425566e+002
3.128513e+002, 1.425571e+002
3.133335e+002, 1.424451e+002
3.138156e+002, 1.423667e+002
3.142977e+002, 1.423445e+002
3.147798e+002, 1.422801e+002
3.152619e+002, 1.419888e+002
3.157440e+002, 1.415113e+002
3.162262e+002, 1.413886e+002
3.167083e+002, 1.420044e+002
3.171904e+002, 1.427503e+002
3.176725e+002, 1.431020e+002
3.181546e+002, 1.430635e+002
3.186367e+002, 1.429765e+002
3.191188e+002, 1.430957e+002
3.196010e+002, 1.433429e+002
3.200831e+002, 1.433620e+002
3.205652e+002, 1.429078e+002
3.210473e+002, 1.424768e+002
3.215294e+002, 1.423948e+002
3.220115e+002, 1.425772e+002
3.224937e+002, 1.427254e+002
3.229758e+002, 1.427022e+002
3.234579e+002, 1.425577e+002
3.239400e+002, 1.423986e+002
3.244221e+002, 1.421408e+002
3.249042e+002, 1.420383e+002
3.253864e+002, 1.423459e+002
3.258685e+002, 1.428474e+002
3.263506e+002, 1.431173e+002
3.268327e+002, 1.430011e+002
3.273148e+002, 1.426960e+002
3.277969e+002, 1.424682e+002
3.282791e+002, 1.422969e+002
3.287612e+002, 1.422727e+002
3.292433e+002, 1.425892e+002
3.297254e+002, 1.429814e+002
3.302075e+002, 1.431063e+002
3.306896e+002, 1.429050e+002
3.311718e+002, 1.426267e+002
3.316539e+002, 1.425361e+002
3.321360e+002, 1.426514e+002
3.326181e+002, 1.426229e+002
3.331002e+002, 1.423146e+002
3.335823e+002, 1.419545e+002
3.340645e+002, 1.417191e+002
3.345466e+002, 1.416025e+002
3.350287e+002, 1.414735e+002
3.355108e+002, 1.412288e+002
3.359929e+002, 1.408929e+002
3.364750e+002, 1.406548e+002
3.369572e+002, 1.407486e+002
3.374393e+002, 1.406834e+002
3.379214e+002, 1.401238e+002
3.384035e+002, 1.392413e+002
3.388856e+002, 1.384629e+002
3.393677e+002, 1.380005e+002
3.398499e+002, 1.377281e+002
3.403320e+002, 1.373045e+002
3.408141e+002, 1.366511e+002
3.412962e+002, 1.360161e+002
3.417783e+002, 1.352773e+002
3.422604e+002, 1.346419e+002
3.427426e+002, 1.345127e+002
3.432247e+002, 1.350065e+002
3.437068e+002, 1.356258e+002
3.441889e+002, 1.356625e+002
3.446710e+002, 1.348449e+002
3.451531e+002, 1.341723e+002
3.456353e+002, 1.337485e+002
3.461174e+002, 1.334077e+002
3.465995e+002, 1.330272e+002
3.470816e+002, 1.325995e+002
3.475637e+002, 1.321782e+002
3.480458e+002, 1.318183e+002
3.485280e+002, 1.315224e+002
3.490101e+002, 1.312153e+002
3.494922e+002, 1.306969e+002
3.499743e+002, 1.303661e+002
3.504564e+002, 1.304726e+002
3.509385e+002, 1.309059e+002
3.514207e+002, 1.313998e+002
3.519028e+002, 1.317962e+002
3.523849e+002, 1.321380e+002
3.528670e+002, 1.326192e+002
3.533491e+002, 1.335658e+002
3.538312e+002, 1.342470e+002
3.543134e+002, 1.342973e+002
3.547955e+002, 1.341447e+002
3.552776e+002, 1.343220e+002
3.557597e+002, 1.350088e+002
3.562418e+002, 1.359388e+002
3.567239e+002, 1.366526e+002
3.572061e+002, 1.369032e+002
3.576882e+002, 1.374550e+002
3.581703e+002, 1.383566e+002
3.586524e+002, 1.394901e+002
3.591345e+002, 1.409273e+002
3.596166e+002, 1.425808e+002
3.600987e+002, 1.440967e+002
3.605808e+002, 1.450928e+002
3.610630e+002, 1.454828e+002
3.615451e+002, 1.461896e+002
3.620272e+002, 1.473377e+002
3.625093e+002, 1.486447e+002
3.629914e+002, 1.502520e+002
3.634735e+002, 1.519372e+002
3.639557e+002, 1.532525e+002
3.644378e+002, 1.539002e+002
3.649199e+002, 1.540643e+002
3.654020e+002, 1.545452e+002
3.658841e+002, 1.558008e+002
3.663662e+002, 1.567397e+002
3.668484e+002, 1.571238e+002
3.673305e+002, 1.572057e+002
3.678126e+002, 1.572536e+002
3.682947e+002, 1.573474e+002
3.687768e+002, 1.573426e+002
3.692589e+002, 1.569740e+002
3.697411e+002, 1.560799e+002
3.702232e+002, 1.552583e+002
3.707053e+002, 1.547622e+002
3.711874e+002, 1.541441e+002
3.716695e+002, 1.530716e+002
3.721516e+002, 1.516091e+002
3.726338e+002, 1.500910e+002
3.731159e+002, 1.488267e+002
3.735980e+002, 1.478084e+002
3.740801e+002, 1.466983e+002
3.745622e+002, 1.453014e+002
3.750443e+002, 1.440592e+002
3.755265e+002, 1.431978e+002
3.760086e+002, 1.425548e+002
3.764907e+002, 1.418961e+002
3.769728e+002, 1.411092e+002
3.774549e+002, 1.402280e+002
3.779370e+002, 1.393060e+002
3.784192e+002, 1.383071e+002
3.789013e+002, 1.373720e+002
3.793834e+002, 1.364702e+002
3.798655e+002, 1.356867e+002
3.803476e+002, 1.350718e+002
3.808297e+002, 1.346376e+002
3.813119e+002, 1.344343e+002
3.817940e+002, 1.345561e+002
3.822761e+002, 1.349983e+002
3.827582e+002, 1.355943e+002
3.832403e+002, 1.367823e+002
3.837224e+002, 1.375301e+002
3.842046e+002, 1.368746e+002
3.846867e+002, 1.351786e+002
3.851688e+002, 1.337437e+002
3.856509e+002, 1.333978e+002
3.861330e+002, 1.337836e+002
3.866151e+002, 1.341245e+002
3.870973e+002, 1.344116e+002
3.875794e+002, 1.346782e+002
3.880615e+002, 1.348582e+002
3.885436e+002, 1.350542e+002
3.890257e+002, 1.354401e+002
3.895078e+002, 1.361172e+002
3.899900e+002, 1.368636e+002
3.904721e+002, 1.374553e+002
3.909542e+002, 1.379214e+002
3.914363e+002, 1.384596e+002
3.919184e+002, 1.390885e+002
3.924005e+002, 1.398846e+002
3.928827e+002, 1.410413e+002
3.933648e+002, 1.426009e+002
3.938469e+002, 1.439557e+002
3.943290e+002, 1.446876e+002
3.948111e+002, 1.451241e+002
3.952932e+002, 1.457339e+002
3.957754e+002, 1.465853e+002
3.962575e+002, 1.476578e+002
3.967396e+002, 1.490022e+002
3.972217e+002, 1.506025e+002
3.977038e+002, 1.521708e+002
3.981859e+002, 1.535337e+002
3.986681e+002, 1.550203e+002
3.991501e+002, 1.569212e+002
3.996323e+002, 1.591509e+002
4.001144e+002, 1.613829e+002
4.005965e+002, 1.634377e+002
4.010786e+002, 1.654126e+002
4.015607e+002, 1.675676e+002
4.020428e+002, 1.699333e+002
4.025250e+002, 1.723907e+002
4.030071e+002, 1.748744e+002
4.034892e+002, 1.774616e+002
4.039713e+002, 1.802217e+002
4.044534e+002, 1.831617e+002
4.049355e+002, 1.862819e+002
4.054177e+002, 1.895848e+002
4.058998e+002, 1.930581e+002
4.063819e+002, 1.967209e+002
4.068640e+002, 2.006540e+002
4.073461e+002, 2.046567e+002
4.078282e+002, 2.086374e+002
4.083104e+002, 2.126184e+002
4.087925e+002, 2.166996e+002
4.092746e+002, 2.210017e+002
4.097567e+002, 2.254362e+002
4.102388e+002, 2.296586e+002
4.107209e+002, 2.331479e+002
4.112031e+002, 2.371089e+002
4.116852e+002, 2.420320e+002
4.121673e+002, 2.472471e+002
4.126494e+002, 2.521135e+002
4.131315e+002, 2.564724e+002
4.136136e+002, 2.606252e+002
4.140958e+002, 2.650387e+002
4.145779e+002, 2.699383e+002
4.150600e+002, 2.742672e+002
4.155421e+002, 2.777014e+002
4.160242e+002, 2.808275e+002
4.165063e+002, 2.838130e+002
4.169885e+002, 2.866746e+002
4.174706e+002, 2.893641e+002
4.179527e+002, 2.919184e+002
4.184348e+002, 2.942455e+002
4.189169e+002, 2.960443e+002
4.193990e+002, 2.971971e+002
4.198812e+002, 2.980450e+002
4.203633e+002, 2.987829e+002
4.208454e+002, 2.992358e+002
4.213275e+002, 2.992448e+002
4.218096e+002, 2.987754e+002
4.222917e+002, 2.978123e+002
4.227739e+002, 2.962156e+002
4.232560e+002, 2.940116e+002
4.237381e+002, 2.917553e+002
4.242202e+002, 2.896824e+002
4.247023e+002, 2.873373e+002
4.251844e+002, 2.842109e+002
4.256666e+002, 2.805055e+002
4.261487e+002, 2.769311e+002
4.266308e+002, 2.741027e+002
4.271129e+002, 2.714254e+002
4.275950e+002, 2.678598e+002
4.280771e+002, 2.633186e+002
4.285593e+002, 2.590047e+002
4.290414e+002, 2.557629e+002
4.295235e+002, 2.530751e+002
4.300056e+002, 2.497432e+002
4.304877e+002, 2.454537e+002
4.309698e+002, 2.412241e+002
4.314520e+002, 2.375707e+002
4.319341e+002, 2.343488e+002
4.324162e+002, 2.312825e+002
4.328983e+002, 2.283338e+002
4.333804e+002, 2.254306e+002
4.338625e+002, 2.224688e+002
4.343447e+002, 2.194314e+002
4.348268e+002, 2.165683e+002
4.353089e+002, 2.139808e+002
4.357910e+002, 2.114883e+002
4.362731e+002, 2.090705e+002
4.367552e+002, 2.066693e+002
4.372374e+002, 2.040779e+002
4.377195e+002, 2.011310e+002
4.382016e+002, 1.979987e+002
4.386837e+002, 1.953868e+002
4.391658e+002, 1.938566e+002
4.396479e+002, 1.921274e+002
4.401301e+002, 1.896804e+002
4.406122e+002, 1.872513e+002
4.410943e+002, 1.857238e+002
4.415764e+002, 1.851848e+002
4.420585e+002, 1.848366e+002
4.425406e+002, 1.837440e+002
4.430227e+002, 1.817693e+002
4.435049e+002, 1.800443e+002
4.439870e+002, 1.786520e+002
4.444691e+002, 1.774357e+002
4.449512e+002, 1.763931e+002
4.454333e+002, 1.754976e+002
4.459154e+002, 1.747146e+002
4.463976e+002, 1.740396e+002
4.468797e+002, 1.734411e+002
4.473618e+002, 1.728481e+002
4.478439e+002, 1.722476e+002
4.483260e+002, 1.716919e+002
4.488081e+002, 1.711849e+002
4.492903e+002, 1.707268e+002
4.497724e+002, 1.703390e+002
4.502545e+002, 1.700129e+002
4.507366e+002, 1.696907e+002
4.512187e+002, 1.693663e+002
4.517008e+002, 1.690161e+002
4.521830e+002, 1.684905e+002
4.526651e+002, 1.676570e+002
4.531472e+002, 1.669784e+002
4.536293e+002, 1.667992e+002
4.541114e+002, 1.669323e+002
4.545935e+002, 1.671826e+002
4.550757e+002, 1.676185e+002
4.555578e+002, 1.679480e+002
4.560399e+002, 1.679136e+002
4.565220e+002, 1.675610e+002
4.570041e+002, 1.670636e+002
4.574862e+002, 1.664262e+002
4.579684e+002, 1.657537e+002
4.584505e+002, 1.653197e+002
4.589326e+002, 1.651497e+002
4.594147e+002, 1.644405e+002
4.598968e+002, 1.624696e+002
4.603789e+002, 1.603218e+002
4.608611e+002, 1.591015e+002
4.613432e+002, 1.586899e+002
4.618253e+002, 1.581072e+002
4.623074e+002, 1.567139e+002
4.627895e+002, 1.547238e+002
4.632716e+002, 1.529875e+002
4.637538e+002, 1.516263e+002
4.642359e+002, 1.503400e+002
4.647180e+002, 1.489789e+002
4.652001e+002, 1.477270e+002
4.656822e+002, 1.468632e+002
4.661643e+002, 1.463922e+002
4.666465e+002, 1.459688e+002
4.671286e+002, 1.451545e+002
4.676107e+002, 1.438405e+002
4.680928e+002, 1.431320e+002
4.685749e+002, 1.438372e+002
4.690570e+002, 1.442874e+002
4.695392e+002, 1.437771e+002
4.700213e+002, 1.427983e+002
4.705034e+002, 1.421227e+002
4.709855e+002, 1.420959e+002
4.714676e+002, 1.423974e+002
4.719497e+002, 1.424509e+002
4.724319e+002, 1.421782e+002
4.729140e+002, 1.420025e+002
4.733961e+002, 1.419946e+002
4.738782e+002, 1.421007e+002
4.743603e+002, 1.424026e+002
4.748424e+002, 1.428232e+002
4.753246e+002, 1.430824e+002
4.758067e+002, 1.428504e+002
4.762888e+002, 1.424023e+002
4.767709e+002, 1.423787e+002
4.772530e+002, 1.428396e+002
4.777351e+002, 1.433536e+002
4.782173e+002, 1.437700e+002
4.786994e+002, 1.440926e+002
4.791815e+002, 1.442939e+002
4.796636e+002, 1.443019e+002
4.801457e+002, 1.444467e+002
4.806278e+002, 1.450344e+002
4.811100e+002, 1.458348e+002
4.815920e+002, 1.463523e+002
4.820742e+002, 1.464837e+002
4.825563e+002, 1.467095e+002
4.830384e+002, 1.475476e+002
4.835205e+002, 1.489777e+002
4.840026e+002, 1.499706e+002
4.844847e+002, 1.501003e+002
4.849669e+002, 1.502801e+002
4.854490e+002, 1.509091e+002
4.859311e+002, 1.518373e+002
4.864132e+002, 1.527660e+002
4.868953e+002, 1.535867e+002
4.873774e+002, 1.544366e+002
4.878596e+002, 1.555453e+002
4.883417e+002, 1.570377e+002
4.888238e+002, 1.584775e+002
4.893059e+002, 1.599091e+002
4.897880e+002, 1.612543e+002
4.902701e+002, 1.622837e+002
4.907523e+002, 1.631974e+002
4.912344e+002, 1.644469e+002
4.917165e+002, 1.663359e+002
4.921986e+002, 1.686337e+002
4.926807e+002, 1.706886e+002
4.931628e+002, 1.723699e+002
4.936450e+002, 1.741573e+002
4.941271e+002, 1.761207e+002
4.946092e+002, 1.782349e+002
4.950913e+002, 1.804765e+002
4.955734e+002, 1.828473e+002
4.960555e+002, 1.854147e+002
4.965377e+002, 1.882303e+002
4.970198e+002, 1.912589e+002
4.975019e+002, 1.943563e+002
4.979840e+002, 1.974854e+002
4.984661e+002, 2.008637e+002
4.989482e+002, 2.046705e+002
4.994304e+002, 2.088418e+002
4.999125e+002, 2.131833e+002
5.003946e+002, 2.176619e+002
5.008767e+002, 2.224007e+002
5.013588e+002, 2.276730e+002
5.018409e+002, 2.332210e+002
5.023231e+002, 2.387333e+002
5.028052e+002, 2.441359e+002
5.032873e+002, 2.492843e+002
5.037694e+002, 2.539997e+002
5.042515e+002, 2.582972e+002
5.047336e+002, 2.625109e+002
5.052158e+002, 2.665904e+002
5.056979e+002, 2.706509e+002
5.061800e+002, 2.748436e+002
5.066621e+002, 2.790162e+002
5.071442e+002, 2.829463e+002
5.076263e+002, 2.865499e+002
5.081085e+002, 2.898189e+002
5.085906e+002, 2.927379e+002
5.090727e+002, 2.953538e+002
5.095548e+002, 2.974502e+002
5.100369e+002, 2.982238e+002
5.105190e+002, 2.992733e+002
5.110012e+002, 3.011084e+002
5.114833e+002, 3.036884e+002
5.119654e+002, 3.067826e+002
5.124475e+002, 3.102279e+002
5.129296e+002, 3.143192e+002
5.134117e+002, 3.196987e+002
5.138939e+002, 3.265016e+002
5.143760e+002, 3.336836e+002
5.148581e+002, 3.407793e+002
5.153402e+002, 3.485432e+002
5.158223e+002, 3.576768e+002
5.163044e+002, 3.680269e+002
5.167866e+002, 3.785360e+002
5.172687e+002, 3.887506e+002
5.177508e+002, 3.989408e+002
5.182329e+002, 4.095677e+002
5.187150e+002, 4.205991e+002
5.191971e+002, 4.316270e+002
5.196793e+002, 4.426560e+002
5.201614e+002, 4.533511e+002
5.206435e+002, 4.625840e+002
5.211256e+002, 4.700514e+002
5.216077e+002, 4.774230e+002
5.220898e+002, 4.853011e+002
5.225720e+002, 4.929349e+002
5.230541e+002, 4.995363e+002
5.235362e+002, 5.051265e+002
5.240183e+002, 5.103171e+002
5.245004e+002, 5.155126e+002
5.249825e+002, 5.206434e+002
5.254647e+002, 5.254741e+002
5.259468e+002, 5.298368e+002
5.264289e+002, 5.340593e+002
5.269110e+002, 5.382098e+002
5.273931e+002, 5.422364e+002
5.278752e+002, 5.459528e+002
5.283574e+002, 5.494233e+002
5.288395e+002, 5.530457e+002
5.293216e+002, 5.573097e+002
5.298037e+002, 5.620453e+002
5.302858e+002, 5.661946e+002
5.307679e+002, 5.694538e+002
5.312501e+002, 5.728051e+002
5.317322e+002, 5.764925e+002
5.322143e+002, 5.805704e+002
5.326964e+002, 5.852191e+002
5.331785e+002, 5.904949e+002
5.336606e+002, 5.961080e+002
5.341428e+002, 6.021136e+002
5.346249e+002, 6.082880e+002
5.351070e+002, 6.140971e+002
5.355891e+002, 6.194310e+002
5.360712e+002, 6.249235e+002
5.365533e+002, 6.309271e+002
5.370355e+002, 6.375056e+002
5.375176e+002, 6.447148e+002
5.379997e+002, 6.528812e+002
5.384818e+002, 6.612408e+002
5.389639e+002, 6.693063e+002
5.394460e+002, 6.776088e+002
5.399282e+002, 6.869891e+002
5.404103e+002, 6.975225e+002
5.408924e+002, 7.084765e+002
5.413745e+002, 7.190179e+002
5.418566e+002, 7.291264e+002
5.423387e+002, 7.395350e+002
5.428209e+002, 7.493179e+002
5.433029e+002, 7.605297e+002
5.437850e+002, 7.742202e+002
5.442672e+002, 7.892070e+002
5.447493e+002, 8.041062e+002
5.452314e+002, 8.185579e+002
5.457135e+002, 8.331751e+002
5.461956e+002, 8.483032e+002
5.466777e+002, 8.640221e+002
5.471599e+002, 8.805673e+002
5.476420e+002, 8.979019e+002
5.481241e+002, 9.160936e+002
5.486062e+002, 9.357783e+002
5.490883e+002, 9.562037e+002
5.495704e+002, 9.762987e+002
5.500526e+002, 9.953984e+002
5.505347e+002, 1.015022e+003
5.510168e+002, 1.036239e+003
5.514989e+002, 1.058718e+003
5.519810e+002, 1.082203e+003
5.524631e+002, 1.106672e+003
5.529453e+002, 1.130909e+003
5.534274e+002, 1.153585e+003
5.539095e+002, 1.174765e+003
5.543916e+002, 1.196755e+003
5.548737e+002, 1.220531e+003
5.553558e+002, 1.243807e+003
5.558380e+002, 1.266078e+003
5.563201e+002, 1.287592e+003
5.568022e+002, 1.308527e+003
5.572843e+002, 1.328984e+003
5.577664e+002, 1.348537e+003
5.582485e+002, 1.367197e+003
5.587307e+002, 1.384955e+003
5.592128e+002, 1.399395e+003
5.596949e+002, 1.410250e+003
5.601770e+002, 1.417674e+003
5.606591e+002, 1.422328e+003
5.611412e+002, 1.423844e+003
5.616234e+002, 1.421658e+003
5.621055e+002, 1.415555e+003
5.625876e+002, 1.406480e+003
5.630697e+002, 1.395627e+003
5.635518e+002, 1.382494e+003
5.640339e+002, 1.365449e+003
5.645161e+002, 1.344199e+003
5.649982e+002, 1.319075e+003
5.654803e+002, 1.289560e+003
5.659624e+002, 1.256121e+003
5.664445e+002, 1.221801e+003
5.669266e+002, 1.186250e+003
5.674088e+002, 1.150357e+003
5.678909e+002, 1.114538e+003
5.683730e+002, 1.078522e+003
5.688551e+002, 1.041444e+003
5.693372e+002, 1.003502e+003
5.698193e+002, 9.652585e+002
5.703015e+002, 9.276335e+002
5.707836e+002, 8.904983e+002
5.712657e+002, 8.541876e+002
5.717478e+002, 8.182975e+002
5.722299e+002, 7.837106e+002
5.727120e+002, 7.498350e+002
5.731942e+002, 7.175604e+002
5.736763e+002, 6.880280e+002
5.741584e+002, 6.611203e+002
5.746405e+002, 6.354581e+002
5.751226e+002, 6.096710e+002
5.756047e+002, 5.840751e+002
5.760869e+002, 5.600731e+002
5.765690e+002, 5.378769e+002
5.770511e+002, 5.164604e+002
5.775332e+002, 4.953380e+002
5.780153e+002, 4.750169e+002
5.784974e+002, 4.562485e+002
5.789796e+002, 4.391592e+002
5.794617e+002, 4.231159e+002
5.799438e+002, 4.082493e+002
5.804259e+002, 3.941016e+002
5.809080e+002, 3.799717e+002
5.813901e+002, 3.659255e+002
5.818723e+002, 3.523864e+002
5.823544e+002, 3.396073e+002
5.828365e+002, 3.275656e+002
5.833186e+002, 3.161093e+002
5.838007e+002, 3.050156e+002
5.842828e+002, 2.948756e+002
5.847650e+002, 2.862144e+002
5.852471e+002, 2.779711e+002
5.857292e+002, 2.692440e+002
5.862113e+002, 2.602643e+002
5.866934e+002, 2.519729e+002
5.871755e+002, 2.450583e+002
5.876577e+002, 2.390189e+002
5.881398e+002, 2.327920e+002
5.886219e+002, 2.263106e+002
5.891040e+002, 2.200075e+002
5.895861e+002, 2.138193e+002
5.900682e+002, 2.080088e+002
5.905504e+002, 2.028180e+002
5.910325e+002, 1.982095e+002
5.915146e+002, 1.940397e+002
5.919967e+002, 1.907287e+002
5.924788e+002, 1.874635e+002
5.929609e+002, 1.834115e+002
5.934431e+002, 1.788590e+002
5.939252e+002, 1.746406e+002
5.944073e+002, 1.710750e+002
5.948894e+002, 1.679160e+002
5.953715e+002, 1.648057e+002
5.958536e+002, 1.616902e+002
5.963358e+002, 1.588636e+002
5.968179e+002, 1.565409e+002
5.973000e+002, 1.542256e+002
5.977821e+002, 1.516414e+002
5.982642e+002, 1.489821e+002
5.987463e+002, 1.465789e+002
5.992285e+002, 1.445303e+002
5.997106e+002, 1.425426e+002
6.001927e+002, 1.401506e+002
6.006748e+002, 1.373713e+002
6.011569e+002, 1.349447e+002
6.016390e+002, 1.329433e+002
6.021212e+002, 1.312251e+002
6.026033e+002, 1.299022e+002
6.030854e+002, 1.287616e+002
6.035675e+002, 1.275195e+002
6.040496e+002, 1.261326e+002
6.045317e+002, 1.246578e+002
6.050139e+002, 1.230425e+002
6.054960e+002, 1.213841e+002
6.059781e+002, 1.198532e+002
6.064602e+002, 1.184608e+002
6.069423e+002, 1.170462e+002
6.074244e+002, 1.154710e+002
6.079066e+002, 1.138218e+002
6.083887e+002, 1.124765e+002
6.088708e+002, 1.116630e+002
6.093529e+002, 1.108528e+002
6.098350e+002, 1.100322e+002
6.103171e+002, 1.092044e+002
6.107993e+002, 1.083870e+002
6.112814e+002, 1.075671e+002
6.117635e+002, 1.066958e+002
6.122456e+002, 1.057174e+002
6.127277e+002, 1.047082e+002
6.132098e+002, 1.038209e+002
6.136920e+002, 1.030561e+002
6.141741e+002, 1.023521e+002
6.146562e+002, 1.017133e+002
6.151383e+002, 1.011001e+002
6.156204e+002, 1.004542e+002
6.161025e+002, 9.978536e+001
6.165847e+002, 9.917207e+001
6.170668e+002, 9.865567e+001
6.175489e+002, 9.817458e+001
6.180310e+002, 9.768485e+001
6.185131e+002, 9.720319e+001
6.189952e+002, 9.676012e+001
6.194774e+002, 9.636518e+001
6.199595e+002, 9.601685e+001
6.204416e+002, 9.572098e+001
6.209237e+002, 9.548177e+001
6.214058e+002, 9.521484e+001
6.218879e+002, 9.483994e+001
6.223701e+002, 9.453915e+001
6.228522e+002, 9.441196e+001
6.233343e+002, 9.434213e+001
6.238164e+002, 9.419761e+001
6.242985e+002, 9.395975e+001
6.247806e+002, 9.373689e+001
6.252628e+002, 9.359010e+001
6.257448e+002, 9.352956e+001
6.262269e+002, 9.358392e+001
6.267090e+002, 9.375478e+001
6.271912e+002, 9.406281e+001
6.276733e+002, 9.463150e+001
6.281554e+002, 9.523591e+001
6.286375e+002, 9.534531e+001
6.291196e+002, 9.479549e+001
6.296017e+002, 9.461032e+001
6.300839e+002, 9.531271e+001
6.305660e+002, 9.609286e+001
6.310481e+002, 9.620531e+001
6.315302e+002, 9.595010e+001
6.320123e+002, 9.616483e+001
6.324944e+002, 9.723308e+001
6.329766e+002, 9.868346e+001
6.334587e+002, 9.969802e+001
6.339408e+002, 1.001741e+002
6.344229e+002, 1.007568e+002
6.349050e+002, 1.014346e+002
6.353871e+002, 1.022514e+002
6.358693e+002, 1.031298e+002
6.363514e+002, 1.041725e+002
6.368335e+002, 1.055990e+002
6.373156e+002, 1.075319e+002
6.377977e+002, 1.094992e+002
6.382798e+002, 1.113642e+002
6.387620e+002, 1.129584e+002
6.392441e+002, 1.136850e+002
6.397262e+002, 1.135292e+002
6.402083e+002, 1.137964e+002
6.406904e+002, 1.153929e+002
6.411725e+002, 1.179679e+002
6.416547e+002, 1.203719e+002
6.421368e+002, 1.225079e+002
6.426189e+002, 1.245895e+002
6.431010e+002, 1.263977e+002
6.435831e+002, 1.283396e+002
6.440652e+002, 1.306508e+002
6.445474e+002, 1.333224e+002
6.450295e+002, 1.362682e+002
6.455116e+002, 1.394272e+002
6.459937e+002, 1.428425e+002
6.464758e+002, 1.466780e+002
6.469579e+002, 1.509290e+002
6.474401e+002, 1.549891e+002
6.479222e+002, 1.585742e+002
6.484043e+002, 1.623345e+002
6.488864e+002, 1.667542e+002
6.493685e+002, 1.717570e+002
6.498506e+002, 1.769842e+002
6.503328e+002, 1.824592e+002
6.508149e+002, 1.880786e+002
6.512970e+002, 1.936517e+002
6.517791e+002, 1.994131e+002
6.522612e+002, 2.056618e+002
6.527433e+002, 2.123913e+002
6.532255e+002, 2.193159e+002
6.537076e+002, 2.262143e+002
6.541897e+002, 2.331525e+002
6.546718e+002, 2.404039e+002
6.551539e+002, 2.477938e+002
6.556360e+002, 2.558759e+002
6.561182e+002, 2.655190e+002
6.566003e+002, 2.752132e+002
6.570824e+002, 2.838754e+002
6.575645e+002, 2.918913e+002
6.580466e+002, 3.005087e+002
6.585287e+002, 3.106450e+002
6.590109e+002, 3.208939e+002
6.594930e+002, 3.302542e+002
6.599751e+002, 3.386376e+002
6.604572e+002, 3.459012e+002
6.609393e+002, 3.519872e+002
6.614214e+002, 3.570976e+002
6.619036e+002, 3.615663e+002
6.623857e+002, 3.652745e+002
6.628678e+002, 3.668737e+002
6.633499e+002, 3.656705e+002
6.638320e+002, 3.632053e+002
6.643141e+002, 3.595235e+002
6.647963e+002, 3.546818e+002
6.652784e+002, 3.488568e+002
6.657605e+002, 3.419361e+002
6.662426e+002, 3.334409e+002
6.667247e+002, 3.227048e+002
6.672068e+002, 3.107508e+002
6.676890e+002, 2.993232e+002
6.681711e+002, 2.883968e+002
6.686532e+002, 2.769421e+002
6.691353e+002, 2.645316e+002
6.696174e+002, 2.521551e+002
6.700995e+002, 2.408862e+002
6.705817e+002, 2.306328e+002
6.710638e+002, 2.206128e+002
6.715459e+002, 2.105654e+002
6.720280e+002, 2.010597e+002
6.725101e+002, 1.924658e+002
6.729922e+002, 1.844896e+002
6.734744e+002, 1.767534e+002
6.739565e+002, 1.692471e+002
6.744386e+002, 1.621901e+002
6.749207e+002, 1.557282e+002
6.754028e+002, 1.497984e+002
6.758849e+002, 1.441421e+002
6.763671e+002, 1.387239e+002
6.768492e+002, 1.337429e+002
6.773313e+002, 1.292126e+002
6.778134e+002, 1.251483e+002
6.782955e+002, 1.216333e+002
6.787776e+002, 1.185728e+002
6.792598e+002, 1.156663e+002
6.797419e+002, 1.129308e+002
6.802240e+002, 1.102247e+002
6.807061e+002, 1.073348e+002
6.811882e+002, 1.044736e+002
6.816703e+002, 1.020022e+002
6.821525e+002, 9.996243e+001
6.826346e+002, 9.803519e+001
6.831167e+002, 9.594614e+001
6.835988e+002, 9.377232e+001
6.840809e+002, 9.187965e+001
6.845630e+002, 9.034854e+001
6.850452e+002, 8.893163e+001
6.855273e+002, 8.766853e+001
6.860094e+002, 8.645942e+001
6.864915e+002, 8.529050e+001
6.869736e+002, 8.413217e+001
6.874557e+002, 8.288877e+001
6.879379e+002, 8.145768e+001
6.884200e+002, 8.005583e+001
6.889021e+002, 7.887357e+001
6.893842e+002, 7.787199e+001
6.898663e+002, 7.696548e+001
6.903484e+002, 7.613412e+001
6.908306e+002, 7.543557e+001
6.913127e+002, 7.492949e+001
6.917948e+002, 7.457543e+001
6.922769e+002, 7.416642e+001
6.927590e+002, 7.381462e+001
6.932411e+002, 7.321562e+001
6.937233e+002, 7.202146e+001
6.942054e+002, 7.090357e+001
6.946875e+002, 7.029743e+001
6.951696e+002, 7.010117e+001
6.956517e+002, 6.999936e+001
6.961339e+002, 6.987778e+001
6.966160e+002, 6.972807e+001
6.970981e+002, 6.953898e+001
6.975802e+002, 6.931370e+001
6.980623e+002, 6.904112e+001
6.985444e+002, 6.871553e+001
6.990266e+002, 6.842283e+001
6.995087e+002, 6.822408e+001
6.999908e+002, 6.810361e+001
7.004729e+002, 6.800434e+001
7.009550e+002, 6.781849e+001
7.014371e+002, 6.782600e+001
7.019193e+002, 6.833221e+001
7.024014e+002, 6.875267e+001
7.028835e+002, 6.850387e+001
7.033656e+002, 6.792214e+001
7.038477e+002, 6.782040e+001
7.043298e+002, 6.858772e+001
7.048120e+002, 6.955599e+001
7.052941e+002, 6.978403e+001
7.057762e+002, 6.946233e+001
7.062583e+002, 6.956651e+001
7.067404e+002, 7.023270e+001
7.072225e+002, 7.100046e+001
7.077046e+002, 7.160560e+001
7.081867e+002, 7.213448e+001
7.086688e+002, 7.280218e+001
7.091509e+002, 7.359541e+001
7.096331e+002, 7.455056e+001
7.101152e+002, 7.597062e+001
7.105973e+002, 7.726675e+001
7.110794e+002, 7.791677e+001
7.115615e+002, 7.823714e+001
7.120436e+002, 7.888942e+001
7.125258e+002, 8.010618e+001
7.130079e+002, 8.132616e+001
7.134900e+002, 8.184863e+001
7.139721e+002, 8.179076e+001
7.144542e+002, 8.187260e+001
7.149363e+002, 8.217970e+001
7.154185e+002, 8.219250e+001
7.159006e+002, 8.158565e+001
7.163827e+002, 8.064748e+001
7.168648e+002, 7.986552e+001
7.173469e+002, 7.929090e+001
7.178290e+002, 7.856750e+001
7.183112e+002, 7.772176e+001
7.187933e+002, 7.666416e+001
7.192754e+002, 7.512498e+001
7.197575e+002, 7.344217e+001
7.202396e+002, 7.214848e+001
7.207217e+002, 7.134663e+001
7.212039e+002, 7.058649e+001
7.216860e+002, 6.936122e+001
7.221681e+002, 6.783456e+001
7.226502e+002, 6.669035e+001
7.231323e+002, 6.596020e+001
7.236144e+002, 6.529851e+001
7.240966e+002, 6.462266e+001
7.245787e+002, 6.393742e+001
7.250608e+002, 6.324082e+001
7.255429e+002, 6.252903e+001
7.260250e+002, 6.187896e+001
7.265071e+002, 6.124534e+001
7.269893e+002, 6.072976e+001
7.274714e+002, 6.049114e+001
7.279535e+002, 6.031675e+001
7.284356e+002, 5.990738e+001
7.289177e+002, 5.928236e+001
7.293998e+002, 5.876960e+001
7.298820e+002, 5.864542e+001
7.303641e+002, 5.872282e+001
7.308462e+002, 5.853763e+001
7.313283e+002, 5.807734e+001
7.318104e+002, 5.773455e+001
7.322925e+002, 5.763169e+001
7.327747e+002, 5.754626e+001
7.332568e+002, 5.725285e+001
7.337389e+002, 5.681548e+001
7.342210e+002, 5.657360e+001
7.347031e+002, 5.673070e+001
7.351852e+002, 5.676846e+001
7.356674e+002, 5.647749e+001
7.361495e+002, 5.611059e+001
7.366316e+002, 5.584538e+001
7.371137e+002, 5.569119e+001
7.375958e+002, 5.565687e+001
7.380779e+002, 5.576945e+001
7.385601e+002, 5.577372e+001
7.390422e+002, 5.515302e+001
7.395243e+002, 5.399784e+001
7.400064e+002, 5.316762e+001
7.404885e+002, 5.274940e+001
7.409706e+002, 5.260108e+001
7.414528e+002, 5.276981e+001
7.419349e+002, 5.307264e+001
7.424170e+002, 5.307375e+001
7.428991e+002, 5.266107e+001
7.433812e+002, 5.236491e+001
7.438633e+002, 5.233910e+001
7.443455e+002, 5.232418e+001
7.448276e+002, 5.218976e+001
7.453097e+002, 5.197389e+001
7.457918e+002, 5.171992e+001
7.462739e+002, 5.145221e+001
7.467560e+002, 5.124099e+001
7.472382e+002, 5.122340e+001
7.477203e+002, 5.130492e+001
7.482024e+002, 5.115750e+001
7.486845e+002, 5.077428e+001
7.491666e+002, 5.043164e+001
7.496487e+002, 5.021443e+001
7.501309e+002, 5.009111e+001
7.506130e+002, 5.004055e+001
7.510951e+002, 5.006830e+001
7.515772e+002, 5.006650e+001
7.520593e+002, 4.999535e+001
7.525414e+002, 4.994757e+001
7.530236e+002, 4.999531e+001
7.535057e+002, 5.003633e+001
7.539878e+002, 4.994556e+001
7.544699e+002, 4.974958e+001
7.549520e+002, 4.959825e+001
7.554341e+002, 4.959206e+001
7.559163e+002, 4.963484e+001
7.563984e+002, 4.963959e+001
7.568805e+002, 4.958407e+001
7.573626e+002, 4.931443e+001
7.578447e+002, 4.878824e+001
7.583268e+002, 4.829536e+001
7.588090e+002, 4.798426e+001
7.592911e+002, 4.791703e+001
7.597732e+002, 4.833619e+001
7.602553e+002, 4.996221e+001
7.607374e+002, 5.075128e+001
7.612195e+002, 4.994015e+001
7.617017e+002, 4.915781e+001
7.621838e+002, 4.935625e+001
7.626659e+002, 5.002728e+001
7.631480e+002, 5.029613e+001
7.636301e+002, 4.991330e+001
7.641122e+002, 4.937406e+001
7.645944e+002, 4.900092e+001
7.650765e+002, 4.872547e+001
7.655586e+002, 4.843662e+001
7.660407e+002, 4.813871e+001
7.665228e+002, 4.788470e+001
7.670049e+002, 4.769122e+001
7.674871e+002, 4.758406e+001
7.679692e+002, 4.762526e+001
7.684513e+002, 4.782748e+001
7.689334e+002, 4.782647e+001
7.694155e+002, 4.738115e+001
7.698976e+002, 4.712699e+001
7.703798e+002, 4.734639e+001
7.708619e+002, 4.768578e+001
7.713440e+002, 4.794293e+001
7.718261e+002, 4.808320e+001
7.723082e+002, 4.803302e+001
7.727903e+002, 4.757267e+001
7.732725e+002, 4.717558e+001
7.737546e+002, 4.730626e+001
7.742367e+002, 4.765592e+001
7.747188e+002, 4.772052e+001
7.752009e+002, 4.746493e+001
7.756830e+002, 4.717495e+001
7.761652e+002, 4.703632e+001
7.766473e+002, 4.699144e+001
7.771294e+002, 4.688639e+001
7.776115e+002, 4.669337e+001
7.780936e+002, 4.664196e+001
7.785757e+002, 4.683869e+001
7.790579e+002, 4.700842e+001
7.795400e+002, 4.698061e+001
7.800221e+002, 4.684075e+001
7.805042e+002, 4.672722e+001
7.809863e+002, 4.664555e+001
7.814684e+002, 4.657758e+001
7.819506e+002, 4.652803e+001
7.824327e+002, 4.648159e+001
7.829148e+002, 4.640692e+001
7.833969e+002, 4.633587e+001
7.838790e+002, 4.631197e+001
7.843611e+002, 4.635042e+001
7.848433e+002, 4.646692e+001
7.853254e+002, 4.674263e+001
7.858075e+002, 4.706627e+001
7.862896e+002, 4.702202e+001
7.867717e+002, 4.660234e+001
7.872538e+002, 4.638455e+001
7.877360e+002, 4.657990e+001
7.882181e+002, 4.679597e+001
7.887002e+002, 4.660727e+001
7.891823e+002, 4.609425e+001
7.896644e+002, 4.594938e+001
7.901465e+002, 4.663046e+001
7.906286e+002, 4.700321e+001
7.911107e+002, 4.674471e+001
7.915928e+002, 4.637537e+001
7.920750e+002, 4.616232e+001
7.925571e+002, 4.611807e+001
7.930392e+002, 4.624374e+001
7.935213e+002, 4.656734e+001
7.940034e+002, 4.681636e+001
7.944855e+002, 4.664754e+001
7.949677e+002, 4.628429e+001
7.954498e+002, 4.619126e+001
7.959319e+002, 4.634385e+001
7.964140e+002, 4.636905e+001
7.968961e+002, 4.609959e+001
7.973782e+002, 4.577679e+001
7.978604e+002, 4.574673e+001
7.983425e+002, 4.602462e+001
7.988246e+002, 4.622210e+001
7.993067e+002, 4.628909e+001
7.997888e+002, 4.636676e+001
8.002709e+002, 4.661474e+001
8.007531e+002, 4.678463e+001
8.012352e+002, 4.662373e+001
8.017173e+002, 4.619542e+001
8.021994e+002, 4.582514e+001
8.026815e+002, 4.553256e+001
8.031636e+002, 4.541006e+001
8.036458e+002, 4.563257e+001
8.041279e+002, 4.597489e+001
8.046100e+002, 4.623412e+001
8.050921e+002, 4.635612e+001
8.055742e+002, 4.626564e+001
8.060563e+002, 4.591121e+001
8.065385e+002, 4.546593e+001
8.070206e+002, 4.519859e+001
8.075027e+002, 4.509999e+001
8.079848e+002, 4.505647e+001
8.084669e+002, 4.506663e+001
8.089490e+002, 4.512967e+001
8.094312e+002, 4.529918e+001
8.099133e+002, 4.544406e+001
8.103954e+002, 4.529832e+001
8.108775e+002, 4.476031e+001
8.113596e+002, 4.463640e+001
8.118417e+002, 4.537684e+001
8.123239e+002, 4.595215e+001
8.128060e+002, 4.599693e+001
8.132881e+002, 4.581359e+001
8.137702e+002, 4.563319e+001
8.142523e+002, 4.550301e+001
8.147344e+002, 4.542857e+001
8.152166e+002, 4.542165e+001
8.156987e+002, 4.545214e+001
8.161808e+002, 4.552077e+001
8.166629e+002, 4.559514e+001
8.171450e+002, 4.557383e+001
8.176271e+002, 4.546138e+001
8.181093e+002, 4.542342e+001
8.185914e+002, 4.557109e+001
8.190735e+002, 4.574495e+001
8.195556e+002, 4.558482e+001
8.200377e+002, 4.499081e+001
8.205198e+002, 4.470126e+001
8.210020e+002, 4.482707e+001
8.214841e+002, 4.504716e+001
8.219662e+002, 4.536032e+001
8.224483e+002, 4.562503e+001
8.229304e+002, 4.562129e+001
8.234125e+002, 4.536210e+001
8.238947e+002, 4.524994e+001
8.243768e+002, 4.558000e+001
8.248589e+002, 4.581419e+001
8.253410e+002, 4.556235e+001
8.258231e+002, 4.519499e+001
8.263052e+002, 4.516780e+001
8.267874e+002, 4.545177e+001
8.272695e+002, 4.569806e+001
8.277516e+002, 4.570332e+001
8.282337e+002, 4.562999e+001
8.287158e+002, 4.570855e+001
8.291979e+002, 4.590747e+001
8.296801e+002, 4.613765e+001
8.301622e+002, 4.639105e+001
8.306443e+002, 4.646583e+001
8.311264e+002, 4.621329e+001
8.316085e+002, 4.587265e+001
8.320906e+002, 4.586183e+001
8.325728e+002, 4.625128e+001
8.330549e+002, 4.645235e+001
8.335370e+002, 4.632418e+001
8.340191e+002, 4.620527e+001
8.345012e+002, 4.614029e+001
8.349833e+002, 4.613770e+001
8.354655e+002, 4.627558e+001
8.359476e+002, 4.650029e+001
8.364297e+002, 4.655877e+001
8.369118e+002, 4.622924e+001
8.373939e+002, 4.595182e+001
8.378760e+002, 4.603060e+001
8.383582e+002, 4.624728e+001
8.388403e+002, 4.635389e+001
8.393224e+002, 4.635470e+001
8.398045e+002, 4.634026e+001
8.402866e+002, 4.635209e+001
8.407687e+002, 4.646395e+001
8.412509e+002, 4.674399e+001
8.417330e+002, 4.720501e+001
8.422151e+002, 4.797425e+001
8.426972e+002, 4.906686e+001
8.431793e+002, 5.027570e+001
8.436614e+002, 5.169209e+001
8.441436e+002, 5.268980e+001
8.446257e+002, 5.243121e+001
8.451078e+002, 5.094887e+001
8.455899e+002, 4.967401e+001
8.460720e+002, 4.846003e+001
8.465541e+002, 4.769382e+001
8.470363e+002, 4.771511e+001
8.475184e+002, 4.788680e+001
8.480005e+002, 4.779150e+001
8.484826e+002, 4.754009e+001
8.489647e+002, 4.745590e+001
8.494468e+002, 4.766737e+001
8.499290e+002, 4.783912e+001
8.504111e+002, 4.780889e+001
8.508932e+002, 4.763622e+001
8.513753e+002, 4.723586e+001
8.518574e+002, 4.677058e+001
8.523395e+002, 4.662600e+001
8.528217e+002, 4.689830e+001
8.533038e+002, 4.730695e+001
8.537859e+002, 4.761531e+001
8.542680e+002, 4.781361e+001
8.547501e+002, 4.783672e+001
8.552322e+002, 4.768513e+001
8.557144e+002, 4.751561e+001
8.561965e+002, 4.733614e+001
8.566786e+002, 4.722344e+001
8.571607e+002, 4.716276e+001
8.576428e+002, 4.726541e+001
8.581249e+002, 4.792614e+001
8.586071e+002, 4.951914e+001
8.590892e+002, 5.085489e+001
8.595713e+002, 5.258776e+001
8.600534e+002, 5.331038e+001
8.605355e+002, 5.175171e+001
8.610176e+002, 4.935076e+001
8.614998e+002, 4.774028e+001
8.619819e+002, 4.711302e+001
8.624640e+002, 4.692234e+001
8.629461e+002, 4.730349e+001
8.634282e+002, 4.766097e+001
8.639103e+002, 4.747392e+001
8.643925e+002, 4.707047e+001
8.648746e+002, 4.690845e+001
8.653567e+002, 4.702001e+001
8.658388e+002, 4.719746e+001
8.663209e+002, 4.731994e+001
8.668030e+002, 4.744754e+001
8.672852e+002, 4.773693e+001
8.677673e+002, 4.812664e+001
8.682494e+002, 4.824664e+001
8.687315e+002, 4.806705e+001
8.692136e+002, 4.790748e+001
8.696957e+002, 4.790149e+001
8.701779e+002, 4.796673e+001
8.706600e+002, 4.799540e+001
8.711421e+002, 4.798708e+001
8.716242e+002, 4.800032e+001
8.721063e+002, 4.805788e+001
8.725884e+002, 4.809668e+001
8.730705e+002, 4.794999e+001
8.735526e+002, 4.792883e+001
8.740347e+002, 4.844605e+001
8.745168e+002, 4.920477e+001
8.749990e+002, 4.943135e+001
8.754811e+002, 4.878593e+001
8.759632e+002, 4.826762e+001
8.764453e+002, 4.828531e+001
8.769274e+002, 4.849669e+001
8.774095e+002, 4.870868e+001
8.778917e+002, 4.891259e+001
8.783738e+002, 4.915583e+001
8.788559e+002, 4.943278e+001
8.793380e+002, 4.962563e+001
8.798201e+002, 4.955245e+001
8.803022e+002, 4.944963e+001
8.807844e+002, 4.975878e+001
8.812665e+002, 5.037809e+001
8.817486e+002, 5.094773e+001
8.822307e+002, 5.140803e+001
8.827128e+002, 5.181872e+001
8.831949e+002, 5.222052e+001
8.836771e+002, 5.257128e+001
8.841592e+002, 5.272161e+001
8.846413e+002, 5.259678e+001
8.851234e+002, 5.287383e+001
8.856055e+002, 5.374158e+001
8.860876e+002, 5.454185e+001
8.865698e+002, 5.499382e+001
8.870519e+002, 5.533606e+001
8.875340e+002, 5.581742e+001
8.880161e+002, 5.643373e+001
8.884982e+002, 5.713400e+001
8.889803e+002, 5.798207e+001
8.894625e+002, 5.882042e+001
8.899446e+002, 5.957414e+001
8.904267e+002, 6.035939e+001
8.909088e+002, 6.120935e+001
8.913909e+002, 6.216423e+001
8.918730e+002, 6.329560e+001
8.923552e+002, 6.463519e+001
8.928373e+002, 6.603523e+001
8.933194e+002, 6.731477e+001
8.938015e+002, 6.868571e+001
8.942836e+002, 7.040491e+001
8.947657e+002, 7.237853e+001
8.952479e+002, 7.445235e+001
8.957300e+002, 7.654517e+001
8.962121e+002, 7.849185e+001
8.966942e+002, 8.012814e+001
8.971763e+002, 8.163951e+001
8.976584e+002, 8.344368e+001
8.981406e+002, 8.549290e+001
8.986227e+002, 8.744620e+001
8.991048e+002, 8.929278e+001
8.995869e+002, 9.069915e+001
9.000690e+002, 9.145534e+001
9.005511e+002, 9.185582e+001
9.010333e+002, 9.234807e+001
9.015154e+002, 9.294753e+001
9.019975e+002, 9.329903e+001
9.024796e+002, 9.349757e+001
9.029617e+002, 9.326721e+001
9.034438e+002, 9.224084e+001
9.039260e+002, 9.107404e+001
9.044081e+002, 9.024733e+001
9.048902e+002, 8.962296e+001
9.053723e+002, 8.883765e+001
9.058544e+002, 8.777763e+001
9.063365e+002, 8.678294e+001
9.068187e+002, 8.598338e+001
9.073008e+002, 8.522617e+001
9.077829e+002, 8.453735e+001
9.082650e+002, 8.378219e+001
9.087471e+002, 8.273474e+001
9.092292e+002, 8.140312e+001
9.097114e+002, 8.005073e+001
9.101935e+002, 7.880747e+001
9.106756e+002, 7.766028e+001
9.111577e+002, 7.663696e+001
9.116398e+002, 7.567597e+001
9.121219e+002, 7.460929e+001
9.126041e+002, 7.348048e+001
9.130862e+002, 7.254847e+001
9.135683e+002, 7.193723e+001
9.140504e+002, 7.147730e+001
9.145325e+002, 7.092036e+001
9.150146e+002, 7.031158e+001
9.154968e+002, 6.986354e+001
9.159789e+002, 6.957327e+001
9.164610e+002, 6.958597e+001
9.169431e+002, 6.999092e+001
9.174252e+002, 7.045134e+001
9.179073e+002, 7.064885e+001
9.183895e+002, 7.071961e+001
9.188716e+002, 7.118454e+001
9.193537e+002, 7.226246e+001
9.198358e+002, 7.317819e+001
9.203179e+002, 7.373679e+001
9.208000e+002, 7.440859e+001
9.212822e+002, 7.537907e+001
9.217643e+002, 7.655606e+001
9.222464e+002, 7.784370e+001
9.227285e+002, 7.924039e+001
9.232106e+002, 8.077213e+001
9.236927e+002, 8.240995e+001
9.241749e+002, 8.422453e+001
9.246570e+002, 8.636118e+001
9.251391e+002, 8.856594e+001
9.256212e+002, 9.044470e+001
9.261033e+002, 9.227646e+001
9.265854e+002, 9.465065e+001
9.270676e+002, 9.774519e+001
9.275497e+002, 1.011915e+002
9.280318e+002, 1.048655e+002
9.285139e+002, 1.086431e+002
9.289960e+002, 1.123519e+002
9.294781e+002, 1.161243e+002
9.299603e+002, 1.202398e+002
9.304424e+002, 1.247440e+002
9.309245e+002, 1.294577e+002
9.314066e+002, 1.342534e+002
9.318887e+002, 1.392634e+002
9.323708e+002, 1.448443e+002
9.328530e+002, 1.507964e+002
9.333351e+002, 1.561367e+002
9.338172e+002, 1.608581e+002
9.342993e+002, 1.660921e+002
9.347814e+002, 1.722838e+002
9.352635e+002, 1.784296e+002
9.357457e+002, 1.834332e+002
9.362278e+002, 1.874164e+002
9.367099e+002, 1.911263e+002
9.371920e+002, 1.946539e+002
9.376741e+002, 1.975720e+002
9.381563e+002, 2.000347e+002
9.386384e+002, 2.014572e+002
9.391205e+002, 2.015126e+002
9.396026e+002, 2.003467e+002
9.400847e+002, 1.982257e+002
9.405668e+002, 1.951772e+002
9.410490e+002, 1.910405e+002
9.415311e+002, 1.854010e+002
9.420132e+002, 1.792760e+002
9.424953e+002, 1.726873e+002
9.429774e+002, 1.658293e+002
9.434595e+002, 1.587380e+002
9.439417e+002, 1.514924e+002
9.444238e+002, 1.442769e+002
9.449059e+002, 1.370068e+002
9.453880e+002, 1.301880e+002
9.458701e+002, 1.241430e+002
9.463522e+002, 1.184057e+002
9.468344e+002, 1.126143e+002
9.473165e+002, 1.070335e+002
9.477986e+002, 1.020387e+002
9.482807e+002, 9.768225e+001
9.487628e+002, 9.378434e+001
9.492449e+002, 9.034219e+001
9.497271e+002, 8.708635e+001
9.502092e+002, 8.366189e+001
9.506913e+002, 8.029109e+001
9.511734e+002, 7.727275e+001
9.516555e+002, 7.460926e+001
9.521376e+002, 7.223005e+001
9.526198e+002, 7.009621e+001
9.531019e+002, 6.808727e+001
9.535840e+002, 6.604108e+001
9.540661e+002, 6.407747e+001
9.545482e+002, 6.251933e+001
9.550303e+002, 6.132092e+001
9.555124e+002, 6.023458e+001
9.559945e+002, 5.921749e+001
9.564766e+002, 5.805735e+001
9.569587e+002, 5.660052e+001
9.574409e+002, 5.512706e+001
9.579230e+002, 5.412920e+001
9.584051e+002, 5.358930e+001
9.588872e+002, 5.287340e+001
9.593693e+002, 5.191671e+001
9.598514e+002, 5.105432e+001
9.603336e+002, 5.038334e+001
9.608157e+002, 4.976307e+001
9.612978e+002, 4.907469e+001
9.617799e+002, 4.837803e+001
9.622620e+002, 4.786195e+001
9.627441e+002, 4.765036e+001
9.632263e+002, 4.723577e+001
9.637084e+002, 4.641165e+001
9.641905e+002, 4.566676e+001
9.646726e+002, 4.515157e+001
9.651547e+002, 4.475024e+001
9.656368e+002, 4.436525e+001
9.661190e+002, 4.400459e+001
9.666011e+002, 4.372520e+001
9.670832e+002, 4.360762e+001
9.675653e+002, 4.341954e+001
9.680474e+002, 4.305655e+001
9.685295e+002, 4.266906e+001
9.690117e+002, 4.234763e+001
9.694938e+002, 4.205225e+001
9.699759e+002, 4.173024e+001
9.704580e+002, 4.137376e+001
9.709401e+002, 4.099447e+001
9.714222e+002, 4.053328e+001
9.719044e+002, 4.015727e+001
9.723865e+002, 4.001266e+001
9.728686e+002, 3.997436e+001
9.733507e+002, 3.996914e+001
9.738328e+002, 3.994423e+001
9.743149e+002, 3.979060e+001
9.747971e+002, 3.949091e+001
9.752792e+002, 3.920826e+001
9.757613e+002, 3.904156e+001
9.762434e+002, 3.899751e+001
9.767255e+002, 3.920423e+001
9.772076e+002, 3.950124e+001
9.776898e+002, 3.950898e+001
9.781719e+002, 3.923212e+001
9.786540e+002, 3.894413e+001
9.791361e+002, 3.877386e+001
9.796182e+002, 3.864496e+001
9.801003e+002, 3.843812e+001
9.805825e+002, 3.820369e+001
9.810646e+002, 3.816622e+001
9.815467e+002, 3.829052e+001
9.820288e+002, 3.826619e+001
9.825109e+002, 3.803267e+001
9.829930e+002, 3.778719e+001
9.834752e+002, 3.765725e+001
9.839573e+002, 3.759771e+001
9.844394e+002, 3.750348e+001
9.849215e+002, 3.737324e+001
9.854036e+002, 3.745250e+001
9.858857e+002, 3.780171e+001
9.863679e+002, 3.797720e+001
9.868500e+002, 3.781114e+001
9.873321e+002, 3.761278e+001
9.878142e+002, 3.763947e+001
9.882963e+002, 3.781987e+001
9.887784e+002, 3.792784e+001
9.892606e+002, 3.793355e+001
9.897427e+002, 3.797792e+001
9.902248e+002, 3.812642e+001
9.907069e+002, 3.817863e+001
9.911890e+002, 3.796351e+001
9.916711e+002, 3.774913e+001
9.921533e+002, 3.785970e+001
9.926354e+002, 3.821589e+001
9.931175e+002, 3.833566e+001
9.935996e+002, 3.797001e+001
9.940817e+002, 3.781715e+001
9.945638e+002, 3.804316e+001
9.950460e+002, 3.829602e+001
9.955281e+002, 3.844574e+001
9.960102e+002, 3.855109e+001
9.964923e+002, 3.864051e+001
9.969744e+002, 3.873524e+001
9.974565e+002, 3.895044e+001
9.979387e+002, 3.938398e+001
9.984208e+002, 3.981095e+001
9.989029e+002, 4.030505e+001
9.993850e+002, 4.063773e+001
9.998671e+002, 4.049058e+001
1.000349e+003, 4.017905e+001
1.000831e+003, 4.017187e+001
1.001313e+003, 4.050721e+001
1.001796e+003, 4.084383e+001
1.002278e+003, 4.102034e+001
1.002760e+003, 4.119712e+001
1.003242e+003, 4.143427e+001
1.003724e+003, 4.173381e+001
1.004206e+003, 4.211623e+001
1.004688e+003, 4.255882e+001
1.005170e+003, 4.305876e+001
1.005653e+003, 4.359827e+001
1.006135e+003, 4.404501e+001
1.006617e+003, 4.421984e+001
1.007099e+003, 4.440010e+001
1.007581e+003, 4.487349e+001
1.008063e+003, 4.549683e+001
1.008545e+003, 4.607513e+001
1.009027e+003, 4.661240e+001
1.009509e+003, 4.718933e+001
1.009992e+003, 4.783205e+001
1.010474e+003, 4.852211e+001
1.010956e+003, 4.930651e+001
1.011438e+003, 5.005236e+001
1.011920e+003, 5.042266e+001
1.012402e+003, 5.063544e+001
1.012884e+003, 5.128094e+001
1.013366e+003, 5.232516e+001
1.013849e+003, 5.326547e+001
1.014331e+003, 5.388537e+001
1.014813e+003, 5.436060e+001
1.015295e+003, 5.487350e+001
1.015777e+003, 5.540179e+001
1.016259e+003, 5.587534e+001
1.016741e+003, 5.631210e+001
1.017223e+003, 5.678314e+001
1.017705e+003, 5.729863e+001
1.018188e+003, 5.785015e+001
1.018670e+003, 5.843111e+001
1.019152e+003, 5.907994e+001
1.019634e+003, 5.987105e+001
1.020116e+003, 6.076880e+001
1.020598e+003, 6.163213e+001
1.021080e+003, 6.245646e+001
1.021562e+003, 6.314778e+001
1.022044e+003, 6.367601e+001
1.022527e+003, 6.437077e+001
1.023009e+003, 6.543658e+001
1.023491e+003, 6.670478e+001
1.023973e+003, 6.792631e+001
1.024455e+003, 6.910351e+001
1.024937e+003, 7.019853e+001
1.025419e+003, 7.117191e+001
1.025901e+003, 7.244228e+001
1.026384e+003, 7.421065e+001
1.026866e+003, 7.574627e+001
1.027348e+003, 7.658310e+001
1.027830e+003, 7.693886e+001
1.028312e+003, 7.719752e+001
1.028794e+003, 7.736286e+001
1.029276e+003, 7.738813e+001
1.029758e+003, 7.728734e+001
1.030240e+003, 7.700355e+001
1.030723e+003, 7.654259e+001
1.031205e+003, 7.585115e+001
1.031687e+003, 7.486057e+001
1.032169e+003, 7.364409e+001
1.032651e+003, 7.229878e+001
1.033133e+003, 7.076907e+001
1.033615e+003, 6.960242e+001
1.034097e+003, 6.893201e+001
1.034579e+003, 6.837319e+001
1.035062e+003, 6.823855e+001
1.035544e+003, 6.759713e+001
1.036026e+003, 6.557729e+001
1.036508e+003, 6.279052e+001
1.036990e+003, 6.047190e+001
1.037472e+003, 5.863065e+001
1.037954e+003, 5.722845e+001
1.038436e+003, 5.662355e+001
1.038919e+003, 5.589430e+001
1.039401e+003, 5.471078e+001
1.039883e+003, 5.355413e+001
1.040365e+003, 5.279675e+001
1.040847e+003, 5.226326e+001
1.041329e+003, 5.159791e+001
1.041811e+003, 5.078247e+001
1.042293e+003, 4.992388e+001
1.042776e+003, 4.884721e+001
1.043258e+003, 4.797189e+001
1.043740e+003, 4.755530e+001
1.044222e+003, 4.718306e+001
1.044704e+003, 4.653583e+001
1.045186e+003, 4.576343e+001
1.045668e+003, 4.516553e+001
1.046150e+003, 4.477463e+001
1.046632e+003, 4.447502e+001
1.047115e+003, 4.434611e+001
1.047597e+003, 4.418044e+001
1.048079e+003, 4.391652e+001
1.048561e+003, 4.361087e+001
1.049043e+003, 4.327381e+001
1.049525e+003, 4.293359e+001
1.050007e+003, 4.264208e+001
1.050489e+003, 4.241322e+001
1.050971e+003, 4.215284e+001
1.051454e+003, 4.177295e+001
1.051936e+003, 4.145639e+001
1.052418e+003, 4.128471e+001
1.052900e+003, 4.116847e+001
1.053382e+003, 4.101660e+001
1.053864e+003, 4.088254e+001
1.054346e+003, 4.092515e+001
1.054828e+003, 4.117446e+001
1.055311e+003, 4.123472e+001
1.055793e+003, 4.035502e+001
1.056275e+003, 4.014629e+001
1.056757e+003, 4.223706e+001
1.057239e+003, 4.415400e+001
1.057721e+003, 4.373909e+001
1.058203e+003, 4.195113e+001
1.058685e+003, 4.048175e+001
1.059167e+003, 3.961431e+001
1.059650e+003, 3.918438e+001
1.060132e+003, 3.953820e+001
1.060614e+003, 3.978127e+001
1.061096e+003, 3.931378e+001
1.061578e+003, 3.886250e+001
1.062060e+003, 3.909668e+001
1.062542e+003, 3.968292e+001
1.063024e+003, 4.004249e+001
1.063506e+003, 4.008400e+001
1.063989e+003, 4.001659e+001
1.064471e+003, 3.974361e+001
1.064953e+003, 3.962006e+001
1.065435e+003, 3.991847e+001
1.065917e+003, 4.029582e+001
1.066399e+003, 4.050531e+001
1.066881e+003, 4.060810e+001
1.067363e+003, 4.070407e+001
1.067846e+003, 4.081826e+001
1.068328e+003, 4.097980e+001
1.068810e+003, 4.118930e+001
1.069292e+003, 4.146633e+001
1.069774e+003, 4.186885e+001
1.070256e+003, 4.229277e+001
1.070738e+003, 4.266838e+001
1.071220e+003, 4.301170e+001
1.071703e+003, 4.332593e+001
1.072185e+003, 4.363387e+001
1.072667e+003, 4.404242e+001
1.073149e+003, 4.461384e+001
1.073631e+003, 4.523537e+001
1.074113e+003, 4.583061e+001
1.074595e+003, 4.648292e+001
1.075077e+003, 4.720373e+001
1.075559e+003, 4.804827e+001
1.076042e+003, 4.916028e+001
1.076524e+003, 5.048081e+001
1.077006e+003, 5.170098e+001
1.077488e+003, 5.267876e+001
1.077970e+003, 5.367681e+001
1.078452e+003, 5.459547e+001
1.078934e+003, 5.582731e+001
1.079416e+003, 5.775430e+001
1.079898e+003, 6.007120e+001
1.080380e+003, 6.255320e+001
1.080863e+003, 6.507409e+001
1.081345e+003, 6.733975e+001
1.081827e+003, 6.913447e+001
1.082309e+003, 7.127745e+001
1.082791e+003, 7.421418e+001
1.083273e+003, 7.753500e+001
1.083755e+003, 8.109826e+001
1.084237e+003, 8.481916e+001
1.084720e+003, 8.856961e+001
1.085202e+003, 9.241047e+001
1.085684e+003, 9.659132e+001
1.086166e+003, 1.011987e+002
1.086648e+003, 1.058072e+002
1.087130e+003, 1.103640e+002
1.087612e+003, 1.147115e+002
1.088094e+003, 1.191394e+002
1.088577e+003, 1.230540e+002
1.089059e+003, 1.259948e+002
1.089541e+003, 1.279537e+002
1.090023e+003, 1.290773e+002
1.090505e+003, 1.294088e+002
1.090987e+003, 1.284812e+002
1.091469e+003, 1.254938e+002
1.091951e+003, 1.220465e+002
1.092433e+003, 1.189854e+002
1.092916e+003, 1.155740e+002
1.093398e+003, 1.110855e+002
1.093880e+003, 1.059333e+002
1.094362e+003, 1.005638e+002
1.094844e+003, 9.515749e+001
1.095326e+003, 9.067779e+001
1.095808e+003, 8.853089e+001
1.096290e+003, 8.574837e+001
1.096772e+003, 8.048086e+001
1.097255e+003, 7.522759e+001
1.097737e+003, 7.149540e+001
1.098219e+003, 6.875404e+001
1.098701e+003, 6.629759e+001
1.099183e+003, 6.402184e+001
1.099665e+003, 6.186428e+001
1.100147e+003, 5.979801e+001
1.100629e+003, 5.787342e+001
1.101112e+003, 5.606553e+001
1.101594e+003, 5.445896e+001
1.102076e+003, 5.315083e+001
1.102558e+003, 5.201337e+001
1.103040e+003, 5.096748e+001
1.103522e+003, 4.997690e+001
1.104004e+003, 4.893920e+001
1.104486e+003, 4.777195e+001
1.104969e+003, 4.676456e+001
1.105451e+003, 4.603048e+001
1.105933e+003, 4.538747e+001
1.106415e+003, 4.480520e+001
1.106897e+003, 4.425649e+001
1.107379e+003, 4.371914e+001
1.107861e+003, 4.319717e+001
1.108343e+003, 4.271172e+001
1.108825e+003, 4.227453e+001
1.109307e+003, 4.180745e+001
1.109790e+003, 4.120966e+001
1.110272e+003, 4.071481e+001
1.110754e+003, 4.054882e+001
1.111236e+003, 4.031211e+001
1.111718e+003, 3.960126e+001
1.112200e+003, 3.874059e+001
1.112682e+003, 3.831393e+001
1.113164e+003, 3.835542e+001
1.113647e+003, 3.824836e+001
1.114129e+003, 3.783862e+001
1.114611e+003, 3.753999e+001
1.115093e+003, 3.748495e+001
1.115575e+003, 3.740099e+001
1.116057e+003, 3.712633e+001
1.116539e+003, 3.680759e+001
1.117021e+003, 3.659739e+001
1.117504e+003, 3.649324e+001
1.117986e+003, 3.649511e+001
1.118468e+003, 3.677444e+001
1.118950e+003, 3.672809e+001
1.119432e+003, 3.612213e+001
1.119914e+003, 3.565591e+001
1.120396e+003, 3.560313e+001
1.120878e+003, 3.566909e+001
1.121360e+003, 3.560194e+001
1.121843e+003, 3.545854e+001
1.122325e+003, 3.540364e+001
1.122807e+003, 3.544140e+001
1.123289e+003, 3.556097e+001
1.123771e+003, 3.581687e+001
1.124253e+003, 3.596637e+001
1.124735e+003, 3.594375e+001
1.125217e+003, 3.583812e+001
1.125699e+003, 3.567649e+001
1.126182e+003, 3.553063e+001
1.126664e+003, 3.553838e+001
1.127146e+003, 3.568854e+001
1.127628e+003, 3.575340e+001
1.128110e+003, 3.570937e+001
1.128592e+003, 3.575348e+001
1.129074e+003, 3.588396e+001
1.129556e+003, 3.635582e+001
1.130039e+003, 3.733010e+001
1.130521e+003, 3.845956e+001
1.131003e+003, 3.945418e+001
1.131485e+003, 4.011855e+001
1.131967e+003, 3.946572e+001
1.132449e+003, 3.761085e+001
1.132931e+003, 3.663683e+001
1.133413e+003, 3.664751e+001
1.133896e+003, 3.707091e+001
1.134378e+003, 3.772984e+001
1.134860e+003, 3.830312e+001
1.135342e+003, 3.852517e+001
1.135824e+003, 3.860008e+001
1.136306e+003, 3.893544e+001
1.136788e+003, 3.943635e+001
1.137270e+003, 3.969016e+001
1.137752e+003, 3.975722e+001
1.138234e+003, 3.994596e+001
1.138717e+003, 4.031110e+001
1.139199e+003, 4.076777e+001
1.139681e+003, 4.127460e+001
1.140163e+003, 4.184761e+001
1.140645e+003, 4.251279e+001
1.141127e+003, 4.325936e+001
1.141609e+003, 4.412196e+001
1.142091e+003, 4.503224e+001
1.142574e+003, 4.577739e+001
1.143056e+003, 4.642106e+001
1.143538e+003, 4.727483e+001
1.144020e+003, 4.841025e+001
1.144502e+003, 4.951735e+001
1.144984e+003, 5.029720e+001
1.145466e+003, 5.116486e+001
1.145948e+003, 5.260176e+001
1.146431e+003, 5.434173e+001
1.146913e+003, 5.609057e+001
1.147395e+003, 5.786501e+001
1.147877e+003, 5.973105e+001
1.148359e+003, 6.170636e+001
1.148841e+003, 6.377923e+001
1.149323e+003, 6.595271e+001
1.149805e+003, 6.821333e+001
1.150287e+003, 7.062711e+001
1.150770e+003, 7.304436e+001
1.151252e+003, 7.537557e+001
1.151734e+003, 7.763844e+001
1.152216e+003, 7.992428e+001
1.152698e+003, 8.213754e+001
1.153180e+003, 8.412380e+001
1.153662e+003, 8.584912e+001
1.154144e+003, 8.716356e+001
1.154626e+003, 8.796609e+001
1.155109e+003, 8.843334e+001
1.155591e+003, 8.882365e+001
1.156073e+003, 8.867961e+001
1.156555e+003, 8.766997e+001
1.157037e+003, 8.598768e+001
1.157519e+003, 8.372693e+001
1.158001e+003, 8.098631e+001
1.158483e+003, 7.834151e+001
1.158966e+003, 7.604873e+001
1.159448e+003, 7.337403e+001
1.159930e+003, 6.989425e+001
1.160412e+003, 6.652786e+001
1.160894e+003, 6.342015e+001
1.161376e+003, 6.059432e+001
1.161858e+003, 5.816671e+001
1.162340e+003, 5.598631e+001
1.162822e+003, 5.367162e+001
1.163305e+003, 5.115071e+001
1.163787e+003, 4.927576e+001
1.164269e+003, 4.837471e+001
1.164751e+003, 4.713092e+001
1.165233e+003, 4.521733e+001
1.165715e+003, 4.343419e+001
1.166197e+003, 4.218078e+001
1.166679e+003, 4.114341e+001
1.167161e+003, 3.992529e+001
1.167644e+003, 3.863387e+001
1.168126e+003, 3.774877e+001
1.168608e+003, 3.728804e+001
1.169090e+003, 3.664665e+001
1.169572e+003, 3.579506e+001
1.170054e+003, 3.500039e+001
1.170536e+003, 3.433792e+001
1.171018e+003, 3.376597e+001
1.171500e+003, 3.326104e+001
1.171983e+003, 3.279415e+001
1.172465e+003, 3.228699e+001
1.172947e+003, 3.179044e+001
1.173429e+003, 3.151268e+001
1.173911e+003, 3.139371e+001
1.174393e+003, 3.120648e+001
1.174875e+003, 3.093274e+001
1.175357e+003, 3.065541e+001
1.175840e+003, 3.040472e+001
1.176322e+003, 3.015264e+001
1.176804e+003, 2.985018e+001
1.177286e+003, 2.958915e+001
1.177768e+003, 2.958065e+001
1.178250e+003, 2.961485e+001
1.178732e+003, 2.928188e+001
1.179214e+003, 2.879321e+001
1.179697e+003, 2.866034e+001
1.180179e+003, 2.886069e+001
1.180661e+003, 2.891011e+001
1.181143e+003, 2.859029e+001
1.181625e+003, 2.825533e+001
1.182107e+003, 2.816266e+001
1.182589e+003, 2.807566e+001
1.183071e+003, 2.781089e+001
1.183553e+003, 2.750500e+001
1.184036e+003, 2.724619e+001
1.184518e+003, 2.706781e+001
1.185000e+003, 2.704683e+001
1.185482e+003, 2.717948e+001
1.185964e+003, 2.721990e+001
1.186446e+003, 2.705820e+001
1.186928e+003, 2.688931e+001
1.187410e+003, 2.669865e+001
1.187892e+003, 2.656557e+001
1.188375e+003, 2.661841e+001
1.188857e+003, 2.665956e+001
1.189339e+003, 2.643760e+001
1.189821e+003, 2.608091e+001
1.190303e+003, 2.598749e+001
1.190785e+003, 2.622925e+001
1.191267e+003, 2.630567e+001
1.191749e+003, 2.616625e+001
1.192232e+003, 2.599338e+001
1.192714e+003, 2.578984e+001
1.193196e+003, 2.563245e+001
1.193678e+003, 2.556271e+001
1.194160e+003, 2.555097e+001
1.194642e+003, 2.557125e+001
1.195124e+003, 2.560790e+001
1.195606e+003, 2.559791e+001
1.196089e+003, 2.554259e+001
1.196571e+003, 2.546901e+001
1.197053e+003, 2.538072e+001
1.197535e+003, 2.533157e+001
1.198017e+003, 2.533040e+001
1.198499e+003, 2.525673e+001
1.198981e+003, 2.502698e+001
1.199463e+003, 2.482013e+001
1.199945e+003, 2.493336e+001
1.200427e+003, 2.519082e+001
1.200910e+003, 2.524362e+001
1.201392e+003, 2.516325e+001
1.201874e+003, 2.509337e+001
1.202356e+003, 2.504420e+001
1.202838e+003, 2.497698e+001
1.203320e+003, 2.488742e+001
1.203802e+003, 2.482401e+001
1.204284e+003, 2.481017e+001
1.204767e+003, 2.484513e+001
1.205249e+003, 2.505224e+001
1.205731e+003, 2.517525e+001
1.206213e+003, 2.484554e+001
1.206695e+003, 2.442307e+001
1.207177e+003, 2.440827e+001
1.207659e+003, 2.467104e+001
1.208141e+003, 2.469018e+001
1.208624e+003, 2.433200e+001
1.209106e+003, 2.431367e+001
1.209588e+003, 2.531321e+001
1.210070e+003, 2.590735e+001
1.210552e+003, 2.545317e+001
1.211034e+003, 2.494293e+001
1.211516e+003, 2.493603e+001
1.211998e+003, 2.505196e+001
1.212480e+003, 2.488583e+001
1.212963e+003, 2.452660e+001
1.213445e+003, 2.431547e+001
1.213927e+003, 2.427418e+001
1.214409e+003, 2.428100e+001
1.214891e+003, 2.435858e+001
1.215373e+003, 2.439365e+001
1.215855e+003, 2.436398e+001
1.216337e+003, 2.428620e+001
1.216819e+003, 2.415916e+001
1.217302e+003, 2.404760e+001
1.217784e+003, 2.404727e+001
1.218266e+003, 2.409814e+001
1.218748e+003, 2.394571e+001
1.219230e+003, 2.367073e+001
1.219712e+003, 2.374639e+001
1.220194e+003, 2.411548e+001
1.220676e+003, 2.435931e+001
1.221159e+003, 2.438946e+001
1.221641e+003, 2.434232e+001
1.222123e+003, 2.429037e+001
1.222605e+003, 2.420956e+001
1.223087e+003, 2.402055e+001
1.223569e+003, 2.384502e+001
1.224051e+003, 2.387106e+001
1.224533e+003, 2.395761e+001
1.225016e+003, 2.386544e+001
1.225498e+003, 2.370767e+001
1.225980e+003, 2.376902e+001
1.226462e+003, 2.405416e+001
1.226944e+003, 2.428479e+001
1.227426e+003, 2.439238e+001
1.227908e+003, 2.435106e+001
1.228390e+003, 2.398678e+001
1.228872e+003, 2.368789e+001
1.229354e+003, 2.370500e+001
1.229837e+003, 2.376456e+001
1.230319e+003, 2.359505e+001
1.230801e+003, 2.334879e+001
1.231283e+003, 2.333775e+001
1.231765e+003, 2.355084e+001
1.232247e+003, 2.358255e+001
1.232729e+003, 2.331691e+001
1.233211e+003, 2.324846e+001
1.233694e+003, 2.347589e+001
1.234176e+003, 2.360685e+001
1.234658e+003, 2.349473e+001
1.235140e+003, 2.340079e+001
1.235622e+003, 2.352843e+001
1.236104e+003, 2.372490e+001
1.236586e+003, 2.371986e+001
1.237068e+003, 2.356368e+001
1.237551e+003, 2.346495e+001
1.238033e+003, 2.340859e+001
1.238515e+003, 2.331973e+001
1.238997e+003, 2.320029e+001
1.239479e+003, 2.307676e+001
1.239961e+003, 2.296997e+001
1.240443e+003, 2.295470e+001
1.240925e+003, 2.308523e+001
1.241407e+003, 2.328799e+001
1.241890e+003, 2.359177e+001
1.242372e+003, 2.382953e+001
1.242854e+003, 2.376298e+001
1.243336e+003, 2.359444e+001
1.243818e+003, 2.358158e+001
1.244300e+003, 2.367211e+001
1.244782e+003, 2.369230e+001
1.245264e+003, 2.362029e+001
1.245746e+003, 2.359050e+001
1.246229e+003, 2.371605e+001
1.246711e+003, 2.374078e+001
1.247193e+003, 2.355968e+001
1.247675e+003, 2.335348e+001
1.248157e+003, 2.314181e+001
1.248639e+003, 2.297344e+001
1.249121e+003, 2.287146e+001
1.249603e+003, 2.284853e+001
1.250085e+003, 2.295377e+001
1.250568e+003, 2.317212e+001
1.251050e+003, 2.321990e+001
1.251532e+003, 2.307183e+001
1.252014e+003, 2.304015e+001
1.252496e+003, 2.315256e+001
1.252978e+003, 2.326423e+001
1.253460e+003, 2.333150e+001
1.253942e+003, 2.335992e+001
1.254425e+003, 2.335110e+001
1.254907e+003, 2.332719e+001
1.255389e+003, 2.328265e+001
1.255871e+003, 2.327172e+001
1.256353e+003, 2.350115e+001
1.256835e+003, 2.378198e+001
1.257317e+003, 2.370094e+001
1.257799e+003, 2.337126e+001
1.258281e+003, 2.311018e+001
1.258764e+003, 2.300378e+001
1.259246e+003, 2.304895e+001
1.259728e+003, 2.329770e+001
1.260210e+003, 2.349391e+001
1.260692e+003, 2.349730e+001
1.261174e+003, 2.344824e+001
1.261656e+003, 2.336458e+001
1.262138e+003, 2.330349e+001
1.262620e+003, 2.330587e+001
1.263103e+003, 2.335910e+001
1.263585e+003, 2.344048e+001
1.264067e+003, 2.355018e+001
1.264549e+003, 2.370245e+001
1.265031e+003, 2.395396e+001
1.265513e+003, 2.404618e+001
1.265995e+003, 2.394808e+001
1.266477e+003, 2.381069e+001
1.266960e+003, 2.365759e+001
1.267442e+003, 2.352867e+001
1.267924e+003, 2.344190e+001
1.268406e+003, 2.343546e+001
1.268888e+003, 2.358888e+001
1.269370e+003, 2.379055e+001
1.269852e+003, 2.373721e+001
1.270334e+003, 2.354623e+001
1.270817e+003, 2.350093e+001
1.271299e+003, 2.358467e+001
1.271781e+003, 2.374509e+001
1.272263e+003, 2.393270e+001
1.272745e+003, 2.403181e+001
1.273227e+003, 2.399782e+001
1.273709e+003, 2.391504e+001
1.274191e+003, 2.374120e+001
1.274673e+003, 2.366018e+001
1.275156e+003, 2.381533e+001
1.275638e+003, 2.403484e+001
1.276120e+003, 2.431322e+001
1.276602e+003, 2.450848e+001
1.277084e+003, 2.435560e+001
1.277566e+003, 2.400786e+001
1.278048e+003, 2.399863e+001
1.278530e+003, 2.438627e+001
1.279012e+003, 2.458196e+001
1.279495e+003, 2.455709e+001
1.279977e+003, 2.440643e+001
1.280459e+003, 2.409220e+001
1.280941e+003, 2.393203e+001
1.281423e+003, 2.405587e+001
1.281905e+003, 2.421894e+001
1.282387e+003, 2.422329e+001
1.282869e+003, 2.418042e+001
1.283352e+003, 2.432013e+001
1.283834e+003, 2.453072e+001
1.284316e+003, 2.457069e+001
1.284798e+003, 2.444118e+001
##END=



