##NAMES=Stolzite
##RRUFFID=R130615
##IDEAL CHEMISTRY=Pb^2+^W^6+^O_4_
##LOCALITY=Reef mine, Cochise County, Arizona, USA
##OWNER=RRUFF
##SOURCE=Ron Gibbs
##DESCRIPTION=Bipyramidal orange crystals
##STATUS=The identification of this mineral has been confirmed only by single crystal X-ray diffraction.
##URL=rruff.info/R130615
8.984375e+001, 2.656878e+001
9.032587e+001, 2.704377e+001
9.080798e+001, 2.712307e+001
9.129010e+001, 2.661334e+001
9.177222e+001, 2.593363e+001
9.225433e+001, 2.563053e+001
9.273645e+001, 2.567367e+001
9.321857e+001, 2.575360e+001
9.370068e+001, 2.561909e+001
9.418280e+001, 2.531256e+001
9.466492e+001, 2.496859e+001
9.514703e+001, 2.460837e+001
9.562915e+001, 2.424587e+001
9.611127e+001, 2.390260e+001
9.659338e+001, 2.357762e+001
9.707550e+001, 2.328800e+001
9.755762e+001, 2.306943e+001
9.803973e+001, 2.292252e+001
9.852185e+001, 2.276934e+001
9.900397e+001, 2.252913e+001
9.948608e+001, 2.219586e+001
9.996820e+001, 2.208352e+001
1.004503e+002, 2.229651e+001
1.009324e+002, 2.260975e+001
1.014146e+002, 2.251242e+001
1.018967e+002, 2.187841e+001
1.023788e+002, 2.119153e+001
1.028609e+002, 2.068946e+001
1.033430e+002, 2.040779e+001
1.038251e+002, 2.022281e+001
1.043073e+002, 2.018448e+001
1.047894e+002, 2.024665e+001
1.052715e+002, 2.015644e+001
1.057536e+002, 1.980756e+001
1.062357e+002, 1.942256e+001
1.067178e+002, 1.914963e+001
1.072000e+002, 1.903050e+001
1.076821e+002, 1.896864e+001
1.081642e+002, 1.899182e+001
1.086463e+002, 1.911348e+001
1.091284e+002, 1.913346e+001
1.096105e+002, 1.901618e+001
1.100927e+002, 1.881195e+001
1.105748e+002, 1.856901e+001
1.110569e+002, 1.822528e+001
1.115390e+002, 1.790208e+001
1.120211e+002, 1.762445e+001
1.125032e+002, 1.739343e+001
1.129854e+002, 1.720904e+001
1.134675e+002, 1.712772e+001
1.139496e+002, 1.708342e+001
1.144317e+002, 1.697902e+001
1.149138e+002, 1.661933e+001
1.153959e+002, 1.632361e+001
1.158781e+002, 1.628365e+001
1.163602e+002, 1.671658e+001
1.168423e+002, 1.700866e+001
1.173244e+002, 1.682486e+001
1.178065e+002, 1.632321e+001
1.182886e+002, 1.590588e+001
1.187708e+002, 1.583412e+001
1.192529e+002, 1.586725e+001
1.197350e+002, 1.581800e+001
1.202171e+002, 1.560001e+001
1.206992e+002, 1.533338e+001
1.211813e+002, 1.503839e+001
1.216635e+002, 1.473394e+001
1.221456e+002, 1.453442e+001
1.226277e+002, 1.462983e+001
1.231098e+002, 1.484570e+001
1.235919e+002, 1.495024e+001
1.240740e+002, 1.477369e+001
1.245562e+002, 1.450178e+001
1.250383e+002, 1.432541e+001
1.255204e+002, 1.424314e+001
1.260025e+002, 1.419773e+001
1.264846e+002, 1.415544e+001
1.269667e+002, 1.411354e+001
1.274489e+002, 1.406525e+001
1.279310e+002, 1.404480e+001
1.284131e+002, 1.401000e+001
1.288952e+002, 1.384958e+001
1.293773e+002, 1.353839e+001
1.298594e+002, 1.320633e+001
1.303416e+002, 1.301289e+001
1.308237e+002, 1.294661e+001
1.313058e+002, 1.291098e+001
1.317879e+002, 1.284654e+001
1.322700e+002, 1.276657e+001
1.327521e+002, 1.275111e+001
1.332343e+002, 1.283087e+001
1.337164e+002, 1.293349e+001
1.341985e+002, 1.291562e+001
1.346806e+002, 1.277002e+001
1.351627e+002, 1.259866e+001
1.356448e+002, 1.245226e+001
1.361270e+002, 1.232961e+001
1.366091e+002, 1.226326e+001
1.370912e+002, 1.227707e+001
1.375733e+002, 1.234065e+001
1.380554e+002, 1.235346e+001
1.385375e+002, 1.231003e+001
1.390197e+002, 1.223120e+001
1.395018e+002, 1.211701e+001
1.399839e+002, 1.195126e+001
1.404660e+002, 1.182824e+001
1.409481e+002, 1.177782e+001
1.414302e+002, 1.179287e+001
1.419124e+002, 1.177780e+001
1.423945e+002, 1.173287e+001
1.428766e+002, 1.165812e+001
1.433587e+002, 1.154862e+001
1.438408e+002, 1.138870e+001
1.443229e+002, 1.122689e+001
1.448051e+002, 1.106693e+001
1.452872e+002, 1.090143e+001
1.457693e+002, 1.077727e+001
1.462514e+002, 1.067055e+001
1.467335e+002, 1.061768e+001
1.472156e+002, 1.067566e+001
1.476978e+002, 1.099037e+001
1.481799e+002, 1.123522e+001
1.486620e+002, 1.132614e+001
1.491441e+002, 1.122484e+001
1.496262e+002, 1.106878e+001
1.501083e+002, 1.078086e+001
1.505905e+002, 1.045271e+001
1.510726e+002, 1.024498e+001
1.515547e+002, 1.028502e+001
1.520368e+002, 1.033699e+001
1.525189e+002, 1.032820e+001
1.530010e+002, 1.021473e+001
1.534832e+002, 1.011368e+001
1.539653e+002, 1.000601e+001
1.544474e+002, 9.914149e+000
1.549295e+002, 9.891925e+000
1.554116e+002, 1.005420e+001
1.558937e+002, 1.020932e+001
1.563759e+002, 1.026743e+001
1.568580e+002, 1.015321e+001
1.573401e+002, 1.002635e+001
1.578222e+002, 9.874863e+000
1.583043e+002, 9.722332e+000
1.587864e+002, 9.655675e+000
1.592686e+002, 9.790968e+000
1.597507e+002, 9.965634e+000
1.602328e+002, 1.007598e+001
1.607149e+002, 1.006754e+001
1.611970e+002, 1.002182e+001
1.616791e+002, 9.951770e+000
1.621613e+002, 9.861355e+000
1.626434e+002, 9.769861e+000
1.631255e+002, 9.640176e+000
1.636076e+002, 9.532883e+000
1.640897e+002, 9.501949e+000
1.645718e+002, 9.633651e+000
1.650540e+002, 9.788835e+000
1.655361e+002, 9.911486e+000
1.660182e+002, 1.000094e+001
1.665003e+002, 1.005241e+001
1.669824e+002, 9.985316e+000
1.674645e+002, 9.899860e+000
1.679467e+002, 9.919938e+000
1.684288e+002, 1.013080e+001
1.689109e+002, 1.043704e+001
1.693930e+002, 1.079584e+001
1.698751e+002, 1.120950e+001
1.703572e+002, 1.161522e+001
1.708394e+002, 1.185922e+001
1.713215e+002, 1.208053e+001
1.718036e+002, 1.250788e+001
1.722857e+002, 1.340038e+001
1.727678e+002, 1.446729e+001
1.732499e+002, 1.539730e+001
1.737321e+002, 1.615715e+001
1.742142e+002, 1.694327e+001
1.746963e+002, 1.789937e+001
1.751784e+002, 1.902116e+001
1.756605e+002, 2.030415e+001
1.761426e+002, 2.173591e+001
1.766248e+002, 2.331888e+001
1.771069e+002, 2.506383e+001
1.775890e+002, 2.699161e+001
1.780711e+002, 2.903215e+001
1.785532e+002, 3.113543e+001
1.790353e+002, 3.331147e+001
1.795175e+002, 3.551313e+001
1.799996e+002, 3.769927e+001
1.804817e+002, 3.990559e+001
1.809638e+002, 4.224996e+001
1.814459e+002, 4.476342e+001
1.819280e+002, 4.738637e+001
1.824102e+002, 5.006895e+001
1.828923e+002, 5.278381e+001
1.833744e+002, 5.568223e+001
1.838565e+002, 5.913901e+001
1.843386e+002, 6.287029e+001
1.848207e+002, 6.583226e+001
1.853029e+002, 6.769174e+001
1.857850e+002, 6.914328e+001
1.862671e+002, 7.144648e+001
1.867492e+002, 7.455795e+001
1.872313e+002, 7.774239e+001
1.877134e+002, 8.050821e+001
1.881956e+002, 8.293046e+001
1.886777e+002, 8.522193e+001
1.891598e+002, 8.742217e+001
1.896419e+002, 8.954147e+001
1.901240e+002, 9.170368e+001
1.906061e+002, 9.394993e+001
1.910883e+002, 9.591579e+001
1.915704e+002, 9.727914e+001
1.920525e+002, 9.809467e+001
1.925346e+002, 9.877460e+001
1.930167e+002, 9.936726e+001
1.934988e+002, 9.981733e+001
1.939810e+002, 9.989357e+001
1.944631e+002, 9.953896e+001
1.949452e+002, 9.899129e+001
1.954273e+002, 9.787463e+001
1.959094e+002, 9.620847e+001
1.963915e+002, 9.484795e+001
1.968737e+002, 9.400206e+001
1.973558e+002, 9.355074e+001
1.978379e+002, 9.306748e+001
1.983200e+002, 9.253516e+001
1.988021e+002, 9.206265e+001
1.992842e+002, 9.181059e+001
1.997664e+002, 9.179611e+001
2.002485e+002, 9.165327e+001
2.007306e+002, 9.125572e+001
2.012127e+002, 9.067140e+001
2.016948e+002, 9.029517e+001
2.021769e+002, 9.018401e+001
2.026591e+002, 9.010229e+001
2.031412e+002, 8.977580e+001
2.036233e+002, 8.915166e+001
2.041054e+002, 8.867416e+001
2.045875e+002, 8.843684e+001
2.050696e+002, 8.842654e+001
2.055518e+002, 8.861015e+001
2.060339e+002, 8.907613e+001
2.065160e+002, 8.953313e+001
2.069981e+002, 8.964213e+001
2.074802e+002, 8.932723e+001
2.079623e+002, 8.902106e+001
2.084445e+002, 8.882630e+001
2.089266e+002, 8.873616e+001
2.094087e+002, 8.863513e+001
2.098908e+002, 8.852048e+001
2.103729e+002, 8.839639e+001
2.108550e+002, 8.821027e+001
2.113372e+002, 8.786855e+001
2.118193e+002, 8.781186e+001
2.123014e+002, 8.830138e+001
2.127835e+002, 8.933553e+001
2.132656e+002, 8.977319e+001
2.137477e+002, 8.940577e+001
2.142298e+002, 8.874247e+001
2.147120e+002, 8.835477e+001
2.151941e+002, 8.825636e+001
2.156762e+002, 8.838239e+001
2.161583e+002, 8.879523e+001
2.166404e+002, 8.951685e+001
2.171225e+002, 9.001017e+001
2.176047e+002, 9.021423e+001
2.180868e+002, 9.026464e+001
2.185689e+002, 9.031837e+001
2.190510e+002, 9.037361e+001
2.195331e+002, 9.043299e+001
2.200152e+002, 9.045937e+001
2.204974e+002, 9.043007e+001
2.209795e+002, 9.066322e+001
2.214616e+002, 9.131431e+001
2.219437e+002, 9.206886e+001
2.224258e+002, 9.251302e+001
2.229079e+002, 9.246328e+001
2.233901e+002, 9.249785e+001
2.238722e+002, 9.280090e+001
2.243543e+002, 9.341902e+001
2.248364e+002, 9.392019e+001
2.253185e+002, 9.429936e+001
2.258006e+002, 9.455972e+001
2.262828e+002, 9.469615e+001
2.267649e+002, 9.466110e+001
2.272470e+002, 9.458643e+001
2.277291e+002, 9.449898e+001
2.282112e+002, 9.439323e+001
2.286933e+002, 9.429179e+001
2.291755e+002, 9.418061e+001
2.296576e+002, 9.408406e+001
2.301397e+002, 9.402523e+001
2.306218e+002, 9.396136e+001
2.311039e+002, 9.401864e+001
2.315860e+002, 9.426878e+001
2.320682e+002, 9.476254e+001
2.325503e+002, 9.511915e+001
2.330324e+002, 9.525710e+001
2.335145e+002, 9.533101e+001
2.339966e+002, 9.556643e+001
2.344787e+002, 9.614738e+001
2.349609e+002, 9.655584e+001
2.354430e+002, 9.657635e+001
2.359251e+002, 9.610847e+001
2.364072e+002, 9.598212e+001
2.368893e+002, 9.636315e+001
2.373714e+002, 9.694641e+001
2.378536e+002, 9.733022e+001
2.383357e+002, 9.732565e+001
2.388178e+002, 9.746202e+001
2.392999e+002, 9.794616e+001
2.397820e+002, 9.885403e+001
2.402641e+002, 9.947133e+001
2.407463e+002, 9.965623e+001
2.412284e+002, 9.966639e+001
2.417105e+002, 9.981164e+001
2.421926e+002, 1.001368e+002
2.426747e+002, 1.005135e+002
2.431568e+002, 1.009490e+002
2.436390e+002, 1.014734e+002
2.441211e+002, 1.017930e+002
2.446032e+002, 1.017898e+002
2.450853e+002, 1.016898e+002
2.455674e+002, 1.017681e+002
2.460495e+002, 1.021471e+002
2.465317e+002, 1.024770e+002
2.470138e+002, 1.026385e+002
2.474959e+002, 1.026017e+002
2.479780e+002, 1.027924e+002
2.484601e+002, 1.033805e+002
2.489422e+002, 1.040344e+002
2.494244e+002, 1.043580e+002
2.499065e+002, 1.041340e+002
2.503886e+002, 1.040218e+002
2.508707e+002, 1.042257e+002
2.513528e+002, 1.047672e+002
2.518349e+002, 1.050840e+002
2.523171e+002, 1.050353e+002
2.527992e+002, 1.049112e+002
2.532813e+002, 1.050065e+002
2.537634e+002, 1.053758e+002
2.542455e+002, 1.058496e+002
2.547276e+002, 1.064739e+002
2.552098e+002, 1.072566e+002
2.556919e+002, 1.076853e+002
2.561740e+002, 1.075857e+002
2.566561e+002, 1.073462e+002
2.571382e+002, 1.073382e+002
2.576204e+002, 1.076405e+002
2.581025e+002, 1.079763e+002
2.585846e+002, 1.082758e+002
2.590667e+002, 1.085463e+002
2.595488e+002, 1.089670e+002
2.600309e+002, 1.096393e+002
2.605131e+002, 1.103031e+002
2.609952e+002, 1.106805e+002
2.614773e+002, 1.106299e+002
2.619594e+002, 1.107112e+002
2.624415e+002, 1.110696e+002
2.629236e+002, 1.116702e+002
2.634058e+002, 1.120884e+002
2.638879e+002, 1.122367e+002
2.643700e+002, 1.123612e+002
2.648521e+002, 1.126395e+002
2.653342e+002, 1.130559e+002
2.658163e+002, 1.136924e+002
2.662985e+002, 1.146558e+002
2.667806e+002, 1.158537e+002
2.672627e+002, 1.167742e+002
2.677448e+002, 1.173521e+002
2.682269e+002, 1.177738e+002
2.687090e+002, 1.181641e+002
2.691912e+002, 1.185304e+002
2.696733e+002, 1.188201e+002
2.701554e+002, 1.189465e+002
2.706375e+002, 1.190088e+002
2.711196e+002, 1.194381e+002
2.716017e+002, 1.203182e+002
2.720839e+002, 1.213271e+002
2.725660e+002, 1.222837e+002
2.730481e+002, 1.232163e+002
2.735302e+002, 1.239202e+002
2.740123e+002, 1.243094e+002
2.744944e+002, 1.245082e+002
2.749766e+002, 1.248448e+002
2.754587e+002, 1.252974e+002
2.759408e+002, 1.259696e+002
2.764229e+002, 1.270083e+002
2.769050e+002, 1.284624e+002
2.773871e+002, 1.297157e+002
2.778693e+002, 1.306755e+002
2.783514e+002, 1.314711e+002
2.788335e+002, 1.323656e+002
2.793156e+002, 1.333702e+002
2.797977e+002, 1.344609e+002
2.802798e+002, 1.356142e+002
2.807620e+002, 1.368195e+002
2.812441e+002, 1.382098e+002
2.817262e+002, 1.398467e+002
2.822083e+002, 1.415675e+002
2.826904e+002, 1.430329e+002
2.831725e+002, 1.442188e+002
2.836547e+002, 1.454758e+002
2.841368e+002, 1.469585e+002
2.846189e+002, 1.486501e+002
2.851010e+002, 1.505474e+002
2.855831e+002, 1.526847e+002
2.860652e+002, 1.549288e+002
2.865474e+002, 1.570811e+002
2.870295e+002, 1.591437e+002
2.875116e+002, 1.612390e+002
2.879937e+002, 1.634074e+002
2.884758e+002, 1.656692e+002
2.889579e+002, 1.679321e+002
2.894401e+002, 1.701747e+002
2.899222e+002, 1.726324e+002
2.904043e+002, 1.756125e+002
2.908864e+002, 1.790863e+002
2.913685e+002, 1.828484e+002
2.918506e+002, 1.869411e+002
2.923328e+002, 1.912437e+002
2.928149e+002, 1.951559e+002
2.932970e+002, 1.986554e+002
2.937791e+002, 2.022654e+002
2.942612e+002, 2.064542e+002
2.947433e+002, 2.111746e+002
2.952255e+002, 2.161830e+002
2.957076e+002, 2.211995e+002
2.961897e+002, 2.265362e+002
2.966718e+002, 2.328290e+002
2.971539e+002, 2.400322e+002
2.976360e+002, 2.475735e+002
2.981182e+002, 2.545930e+002
2.986003e+002, 2.615081e+002
2.990824e+002, 2.695432e+002
2.995645e+002, 2.791106e+002
3.000466e+002, 2.899017e+002
3.005287e+002, 3.016760e+002
3.010109e+002, 3.143415e+002
3.014930e+002, 3.277403e+002
3.019751e+002, 3.411328e+002
3.024572e+002, 3.552154e+002
3.029393e+002, 3.709041e+002
3.034214e+002, 3.887410e+002
3.039036e+002, 4.079756e+002
3.043857e+002, 4.278882e+002
3.048678e+002, 4.484846e+002
3.053499e+002, 4.702841e+002
3.058320e+002, 4.933464e+002
3.063141e+002, 5.177346e+002
3.067963e+002, 5.431261e+002
3.072784e+002, 5.697709e+002
3.077605e+002, 5.973757e+002
3.082426e+002, 6.260015e+002
3.087247e+002, 6.554844e+002
3.092068e+002, 6.854304e+002
3.096890e+002, 7.158295e+002
3.101711e+002, 7.465286e+002
3.106532e+002, 7.767529e+002
3.111353e+002, 8.060326e+002
3.116174e+002, 8.363227e+002
3.120995e+002, 8.684711e+002
3.125817e+002, 9.021038e+002
3.130638e+002, 9.370394e+002
3.135459e+002, 9.732976e+002
3.140280e+002, 1.011119e+003
3.145101e+002, 1.050780e+003
3.149922e+002, 1.092136e+003
3.154744e+002, 1.135217e+003
3.159565e+002, 1.178976e+003
3.164386e+002, 1.224668e+003
3.169207e+002, 1.273118e+003
3.174028e+002, 1.326763e+003
3.178849e+002, 1.381761e+003
3.183671e+002, 1.436830e+003
3.188492e+002, 1.492374e+003
3.193313e+002, 1.547484e+003
3.198134e+002, 1.603643e+003
3.202955e+002, 1.658644e+003
3.207776e+002, 1.710085e+003
3.212598e+002, 1.760768e+003
3.217419e+002, 1.804914e+003
3.222240e+002, 1.843142e+003
3.227061e+002, 1.874490e+003
3.231882e+002, 1.894077e+003
3.236703e+002, 1.902662e+003
3.241525e+002, 1.898016e+003
3.246346e+002, 1.878942e+003
3.251167e+002, 1.844975e+003
3.255988e+002, 1.797134e+003
3.260809e+002, 1.733364e+003
3.265630e+002, 1.655611e+003
3.270452e+002, 1.568827e+003
3.275273e+002, 1.466289e+003
3.280094e+002, 1.361823e+003
3.284915e+002, 1.259159e+003
3.289736e+002, 1.157673e+003
3.294557e+002, 1.061752e+003
3.299379e+002, 9.700836e+002
3.304200e+002, 8.840468e+002
3.309021e+002, 8.071171e+002
3.313842e+002, 7.402567e+002
3.318663e+002, 6.803939e+002
3.323484e+002, 6.267214e+002
3.328306e+002, 5.804084e+002
3.333127e+002, 5.387093e+002
3.337948e+002, 5.018682e+002
3.342769e+002, 4.692960e+002
3.347590e+002, 4.410363e+002
3.352411e+002, 4.179499e+002
3.357233e+002, 3.967331e+002
3.362054e+002, 3.767939e+002
3.366875e+002, 3.580577e+002
3.371696e+002, 3.422029e+002
3.376517e+002, 3.298235e+002
3.381338e+002, 3.192294e+002
3.386159e+002, 3.093128e+002
3.390981e+002, 2.999973e+002
3.395802e+002, 2.914305e+002
3.400623e+002, 2.836961e+002
3.405444e+002, 2.767080e+002
3.410265e+002, 2.706634e+002
3.415086e+002, 2.655375e+002
3.419908e+002, 2.610370e+002
3.424729e+002, 2.568699e+002
3.429550e+002, 2.530688e+002
3.434371e+002, 2.500178e+002
3.439192e+002, 2.478825e+002
3.444013e+002, 2.463039e+002
3.448835e+002, 2.445777e+002
3.453656e+002, 2.427091e+002
3.458477e+002, 2.413776e+002
3.463298e+002, 2.411003e+002
3.468119e+002, 2.416837e+002
3.472940e+002, 2.422144e+002
3.477762e+002, 2.426121e+002
3.482583e+002, 2.433239e+002
3.487404e+002, 2.450475e+002
3.492225e+002, 2.476061e+002
3.497046e+002, 2.502437e+002
3.501867e+002, 2.526598e+002
3.506689e+002, 2.549695e+002
3.511510e+002, 2.575613e+002
3.516331e+002, 2.604108e+002
3.521152e+002, 2.629541e+002
3.525973e+002, 2.647561e+002
3.530794e+002, 2.659139e+002
3.535616e+002, 2.666282e+002
3.540437e+002, 2.670631e+002
3.545258e+002, 2.669370e+002
3.550079e+002, 2.664122e+002
3.554900e+002, 2.652484e+002
3.559721e+002, 2.623941e+002
3.564543e+002, 2.564711e+002
3.569364e+002, 2.488858e+002
3.574185e+002, 2.408339e+002
3.579006e+002, 2.322879e+002
3.583827e+002, 2.240217e+002
3.588648e+002, 2.164937e+002
3.593470e+002, 2.095453e+002
3.598291e+002, 2.027867e+002
3.603112e+002, 1.956647e+002
3.607933e+002, 1.889745e+002
3.612754e+002, 1.831591e+002
3.617575e+002, 1.783141e+002
3.622397e+002, 1.739429e+002
3.627218e+002, 1.699419e+002
3.632039e+002, 1.662827e+002
3.636860e+002, 1.629340e+002
3.641681e+002, 1.598642e+002
3.646502e+002, 1.571027e+002
3.651324e+002, 1.547838e+002
3.656145e+002, 1.528715e+002
3.660966e+002, 1.510728e+002
3.665787e+002, 1.495279e+002
3.670608e+002, 1.479646e+002
3.675429e+002, 1.462088e+002
3.680251e+002, 1.436620e+002
3.685072e+002, 1.416042e+002
3.689893e+002, 1.404128e+002
3.694714e+002, 1.398263e+002
3.699535e+002, 1.390238e+002
3.704356e+002, 1.377034e+002
3.709178e+002, 1.364832e+002
3.713999e+002, 1.356565e+002
3.718820e+002, 1.354545e+002
3.723641e+002, 1.350181e+002
3.728462e+002, 1.342077e+002
3.733283e+002, 1.332592e+002
3.738105e+002, 1.325341e+002
3.742926e+002, 1.320985e+002
3.747747e+002, 1.317400e+002
3.752568e+002, 1.314370e+002
3.757389e+002, 1.311890e+002
3.762210e+002, 1.307420e+002
3.767032e+002, 1.299998e+002
3.771853e+002, 1.292459e+002
3.776674e+002, 1.287651e+002
3.781495e+002, 1.285877e+002
3.786316e+002, 1.284051e+002
3.791137e+002, 1.281763e+002
3.795959e+002, 1.278916e+002
3.800780e+002, 1.274632e+002
3.805601e+002, 1.268761e+002
3.810422e+002, 1.263442e+002
3.815243e+002, 1.261074e+002
3.820064e+002, 1.260892e+002
3.824886e+002, 1.258514e+002
3.829707e+002, 1.253137e+002
3.834528e+002, 1.246519e+002
3.839349e+002, 1.240712e+002
3.844170e+002, 1.235683e+002
3.848991e+002, 1.231246e+002
3.853813e+002, 1.227850e+002
3.858634e+002, 1.224753e+002
3.863455e+002, 1.220102e+002
3.868276e+002, 1.213772e+002
3.873097e+002, 1.208028e+002
3.877918e+002, 1.205755e+002
3.882740e+002, 1.205235e+002
3.887561e+002, 1.203340e+002
3.892382e+002, 1.197257e+002
3.897203e+002, 1.191076e+002
3.902024e+002, 1.189252e+002
3.906845e+002, 1.190810e+002
3.911667e+002, 1.191123e+002
3.916488e+002, 1.185639e+002
3.921309e+002, 1.178865e+002
3.926130e+002, 1.174876e+002
3.930951e+002, 1.175945e+002
3.935772e+002, 1.176684e+002
3.940594e+002, 1.174596e+002
3.945415e+002, 1.170662e+002
3.950236e+002, 1.166695e+002
3.955057e+002, 1.162393e+002
3.959878e+002, 1.158937e+002
3.964699e+002, 1.157194e+002
3.969521e+002, 1.157587e+002
3.974342e+002, 1.157336e+002
3.979163e+002, 1.156286e+002
3.983984e+002, 1.154285e+002
3.988805e+002, 1.151193e+002
3.993626e+002, 1.143262e+002
3.998448e+002, 1.138572e+002
4.003269e+002, 1.139231e+002
4.008090e+002, 1.144494e+002
4.012911e+002, 1.148651e+002
4.017732e+002, 1.151129e+002
4.022553e+002, 1.153215e+002
4.027375e+002, 1.155854e+002
4.032196e+002, 1.160370e+002
4.037017e+002, 1.161940e+002
4.041838e+002, 1.159601e+002
4.046659e+002, 1.154986e+002
4.051480e+002, 1.150778e+002
4.056302e+002, 1.146531e+002
4.061123e+002, 1.144330e+002
4.065944e+002, 1.145945e+002
4.070765e+002, 1.151078e+002
4.075586e+002, 1.152846e+002
4.080407e+002, 1.150785e+002
4.085229e+002, 1.147183e+002
4.090050e+002, 1.143417e+002
4.094871e+002, 1.139668e+002
4.099692e+002, 1.138754e+002
4.104513e+002, 1.142638e+002
4.109334e+002, 1.148150e+002
4.114156e+002, 1.148238e+002
4.118977e+002, 1.143267e+002
4.123798e+002, 1.137551e+002
4.128619e+002, 1.133060e+002
4.133440e+002, 1.130063e+002
4.138261e+002, 1.129975e+002
4.143083e+002, 1.133710e+002
4.147904e+002, 1.136628e+002
4.152725e+002, 1.132517e+002
4.157546e+002, 1.124305e+002
4.162367e+002, 1.117954e+002
4.167188e+002, 1.116832e+002
4.172010e+002, 1.118220e+002
4.176831e+002, 1.121391e+002
4.181652e+002, 1.126017e+002
4.186473e+002, 1.128289e+002
4.191294e+002, 1.124069e+002
4.196115e+002, 1.117566e+002
4.200937e+002, 1.112551e+002
4.205758e+002, 1.110321e+002
4.210579e+002, 1.109033e+002
4.215400e+002, 1.109275e+002
4.220221e+002, 1.110039e+002
4.225042e+002, 1.108841e+002
4.229864e+002, 1.100688e+002
4.234685e+002, 1.094366e+002
4.239506e+002, 1.094248e+002
4.244327e+002, 1.103507e+002
4.249148e+002, 1.109067e+002
4.253969e+002, 1.108302e+002
4.258791e+002, 1.104870e+002
4.263612e+002, 1.102190e+002
4.268433e+002, 1.099628e+002
4.273254e+002, 1.098941e+002
4.278075e+002, 1.101141e+002
4.282896e+002, 1.105683e+002
4.287718e+002, 1.108549e+002
4.292539e+002, 1.109175e+002
4.297360e+002, 1.109158e+002
4.302181e+002, 1.109429e+002
4.307002e+002, 1.110072e+002
4.311823e+002, 1.110272e+002
4.316645e+002, 1.109787e+002
4.321466e+002, 1.109196e+002
4.326287e+002, 1.109673e+002
4.331108e+002, 1.111247e+002
4.335929e+002, 1.112652e+002
4.340750e+002, 1.113468e+002
4.345572e+002, 1.113763e+002
4.350393e+002, 1.113530e+002
4.355214e+002, 1.112765e+002
4.360035e+002, 1.112140e+002
4.364856e+002, 1.112508e+002
4.369677e+002, 1.113479e+002
4.374499e+002, 1.114112e+002
4.379320e+002, 1.114200e+002
4.384141e+002, 1.113878e+002
4.388962e+002, 1.113029e+002
4.393783e+002, 1.111837e+002
4.398604e+002, 1.110858e+002
4.403426e+002, 1.109265e+002
4.408247e+002, 1.108714e+002
4.413068e+002, 1.111737e+002
4.417889e+002, 1.118939e+002
4.422710e+002, 1.124161e+002
4.427531e+002, 1.122519e+002
4.432353e+002, 1.118007e+002
4.437174e+002, 1.114774e+002
4.441995e+002, 1.116053e+002
4.446816e+002, 1.116569e+002
4.451637e+002, 1.113632e+002
4.456458e+002, 1.108298e+002
4.461280e+002, 1.105320e+002
4.466101e+002, 1.110262e+002
4.470922e+002, 1.113674e+002
4.475743e+002, 1.110667e+002
4.480564e+002, 1.097072e+002
4.485385e+002, 1.087668e+002
4.490207e+002, 1.084339e+002
4.495028e+002, 1.084076e+002
4.499849e+002, 1.083194e+002
4.504670e+002, 1.081565e+002
4.509491e+002, 1.079638e+002
4.514312e+002, 1.077662e+002
4.519134e+002, 1.075535e+002
4.523955e+002, 1.071991e+002
4.528776e+002, 1.066469e+002
4.533597e+002, 1.061753e+002
4.538418e+002, 1.060229e+002
4.543239e+002, 1.061828e+002
4.548061e+002, 1.063481e+002
4.552882e+002, 1.065347e+002
4.557703e+002, 1.066076e+002
4.562524e+002, 1.061918e+002
4.567345e+002, 1.053796e+002
4.572166e+002, 1.048274e+002
4.576988e+002, 1.050125e+002
4.581809e+002, 1.055340e+002
4.586630e+002, 1.056760e+002
4.591451e+002, 1.054567e+002
4.596272e+002, 1.052003e+002
4.601093e+002, 1.051032e+002
4.605915e+002, 1.051338e+002
4.610736e+002, 1.052884e+002
4.615557e+002, 1.056722e+002
4.620378e+002, 1.059467e+002
4.625199e+002, 1.057500e+002
4.630020e+002, 1.052978e+002
4.634842e+002, 1.050127e+002
4.639663e+002, 1.051899e+002
4.644484e+002, 1.054594e+002
4.649305e+002, 1.057324e+002
4.654126e+002, 1.060168e+002
4.658947e+002, 1.060211e+002
4.663769e+002, 1.054706e+002
4.668590e+002, 1.047472e+002
4.673411e+002, 1.041269e+002
4.678232e+002, 1.035147e+002
4.683053e+002, 1.031477e+002
4.687874e+002, 1.031526e+002
4.692696e+002, 1.033867e+002
4.697517e+002, 1.035062e+002
4.702338e+002, 1.034840e+002
4.707159e+002, 1.033916e+002
4.711980e+002, 1.032429e+002
4.716801e+002, 1.030357e+002
4.721623e+002, 1.027946e+002
4.726444e+002, 1.024872e+002
4.731265e+002, 1.022395e+002
4.736086e+002, 1.022484e+002
4.740907e+002, 1.025072e+002
4.745728e+002, 1.026164e+002
4.750550e+002, 1.024672e+002
4.755371e+002, 1.021892e+002
4.760192e+002, 1.020300e+002
4.765013e+002, 1.019726e+002
4.769834e+002, 1.018967e+002
4.774655e+002, 1.016274e+002
4.779477e+002, 1.013319e+002
4.784298e+002, 1.013654e+002
4.789119e+002, 1.017522e+002
4.793940e+002, 1.020758e+002
4.798761e+002, 1.019115e+002
4.803582e+002, 1.015166e+002
4.808404e+002, 1.012334e+002
4.813225e+002, 1.012130e+002
4.818046e+002, 1.012531e+002
4.822867e+002, 1.013053e+002
4.827688e+002, 1.013441e+002
4.832509e+002, 1.013020e+002
4.837331e+002, 1.010748e+002
4.842152e+002, 1.008355e+002
4.846973e+002, 1.006174e+002
4.851794e+002, 1.003813e+002
4.856615e+002, 1.003798e+002
4.861436e+002, 1.010422e+002
4.866258e+002, 1.016994e+002
4.871079e+002, 1.018030e+002
4.875900e+002, 1.008348e+002
4.880721e+002, 1.002311e+002
4.885542e+002, 1.002180e+002
4.890363e+002, 1.006162e+002
4.895185e+002, 1.009542e+002
4.900006e+002, 1.012552e+002
4.904827e+002, 1.014066e+002
4.909648e+002, 1.013359e+002
4.914469e+002, 1.010505e+002
4.919290e+002, 1.006604e+002
4.924112e+002, 1.001355e+002
4.928933e+002, 9.966280e+001
4.933754e+002, 9.940257e+001
4.938575e+002, 9.935026e+001
4.943396e+002, 9.929118e+001
4.948217e+002, 9.871861e+001
4.953039e+002, 9.900618e+001
4.957860e+002, 1.033368e+002
4.962681e+002, 1.104556e+002
4.967502e+002, 1.160536e+002
4.972323e+002, 1.173636e+002
4.977144e+002, 1.164294e+002
4.981966e+002, 1.149213e+002
4.986787e+002, 1.129287e+002
4.991608e+002, 1.105575e+002
4.996429e+002, 1.069246e+002
5.001250e+002, 1.034174e+002
5.006071e+002, 1.012105e+002
5.010893e+002, 1.015249e+002
5.015714e+002, 1.018754e+002
5.020535e+002, 1.016533e+002
5.025356e+002, 1.010957e+002
5.030177e+002, 1.007466e+002
5.034998e+002, 1.008650e+002
5.039820e+002, 1.009528e+002
5.044641e+002, 1.008382e+002
5.049462e+002, 1.005058e+002
5.054283e+002, 1.004262e+002
5.059104e+002, 1.007613e+002
5.063925e+002, 1.011032e+002
5.068747e+002, 1.010769e+002
5.073568e+002, 1.005948e+002
5.078389e+002, 1.003882e+002
5.083210e+002, 1.006055e+002
5.088031e+002, 1.009877e+002
5.092852e+002, 1.010489e+002
5.097674e+002, 1.008093e+002
5.102495e+002, 1.006136e+002
5.107316e+002, 1.006111e+002
5.112137e+002, 1.007402e+002
5.116958e+002, 1.009363e+002
5.121780e+002, 1.011830e+002
5.126601e+002, 1.013056e+002
5.131422e+002, 1.010199e+002
5.136243e+002, 1.005947e+002
5.141064e+002, 1.004106e+002
5.145886e+002, 1.006048e+002
5.150707e+002, 1.007829e+002
5.155528e+002, 1.005899e+002
5.160349e+002, 1.002565e+002
5.165170e+002, 1.001133e+002
5.169991e+002, 1.005354e+002
5.174813e+002, 1.008931e+002
5.179634e+002, 1.009142e+002
5.184455e+002, 1.006458e+002
5.189276e+002, 1.004952e+002
5.194097e+002, 1.005595e+002
5.198918e+002, 1.007124e+002
5.203740e+002, 1.009483e+002
5.208561e+002, 1.013851e+002
5.213382e+002, 1.014916e+002
5.218203e+002, 1.011022e+002
5.223024e+002, 1.005699e+002
5.227845e+002, 1.003022e+002
5.232667e+002, 1.003373e+002
5.237488e+002, 1.004055e+002
5.242309e+002, 1.004261e+002
5.247130e+002, 1.004709e+002
5.251951e+002, 1.008552e+002
5.256772e+002, 1.015679e+002
5.261594e+002, 1.020428e+002
5.266415e+002, 1.017209e+002
5.271236e+002, 1.009805e+002
5.276057e+002, 1.007078e+002
5.280878e+002, 1.009365e+002
5.285699e+002, 1.012767e+002
5.290521e+002, 1.014330e+002
5.295342e+002, 1.014977e+002
5.300163e+002, 1.015967e+002
5.304984e+002, 1.017986e+002
5.309805e+002, 1.019740e+002
5.314626e+002, 1.020070e+002
5.319448e+002, 1.019654e+002
5.324269e+002, 1.019800e+002
5.329090e+002, 1.022434e+002
5.333911e+002, 1.024168e+002
5.338732e+002, 1.022740e+002
5.343553e+002, 1.017918e+002
5.348375e+002, 1.016456e+002
5.353196e+002, 1.020750e+002
5.358017e+002, 1.026144e+002
5.362838e+002, 1.030197e+002
5.367659e+002, 1.032773e+002
5.372480e+002, 1.034317e+002
5.377302e+002, 1.034519e+002
5.382123e+002, 1.034099e+002
5.386944e+002, 1.034056e+002
5.391765e+002, 1.034408e+002
5.396586e+002, 1.034994e+002
5.401407e+002, 1.035999e+002
5.406229e+002, 1.037035e+002
5.411050e+002, 1.036981e+002
5.415871e+002, 1.035940e+002
5.420692e+002, 1.034787e+002
5.425513e+002, 1.033466e+002
5.430334e+002, 1.032631e+002
5.435156e+002, 1.033750e+002
5.439977e+002, 1.037009e+002
5.444798e+002, 1.039969e+002
5.449619e+002, 1.040421e+002
5.454440e+002, 1.039830e+002
5.459261e+002, 1.039757e+002
5.464083e+002, 1.040473e+002
5.468904e+002, 1.041931e+002
5.473725e+002, 1.044452e+002
5.478546e+002, 1.047643e+002
5.483367e+002, 1.050733e+002
5.488188e+002, 1.053715e+002
5.493010e+002, 1.056430e+002
5.497831e+002, 1.059011e+002
5.502652e+002, 1.061436e+002
5.507473e+002, 1.062627e+002
5.512294e+002, 1.061892e+002
5.517115e+002, 1.061094e+002
5.521937e+002, 1.061381e+002
5.526758e+002, 1.062839e+002
5.531579e+002, 1.064923e+002
5.536400e+002, 1.067911e+002
5.541221e+002, 1.070763e+002
5.546042e+002, 1.071806e+002
5.550864e+002, 1.071319e+002
5.555685e+002, 1.070862e+002
5.560506e+002, 1.070420e+002
5.565327e+002, 1.070852e+002
5.570148e+002, 1.074663e+002
5.574969e+002, 1.080774e+002
5.579791e+002, 1.085171e+002
5.584612e+002, 1.084010e+002
5.589433e+002, 1.081193e+002
5.594254e+002, 1.079528e+002
5.599075e+002, 1.079204e+002
5.603896e+002, 1.080055e+002
5.608718e+002, 1.083027e+002
5.613539e+002, 1.086517e+002
5.618360e+002, 1.089377e+002
5.623181e+002, 1.091788e+002
5.628002e+002, 1.093018e+002
5.632823e+002, 1.092267e+002
5.637645e+002, 1.090717e+002
5.642466e+002, 1.090247e+002
5.647287e+002, 1.091535e+002
5.652108e+002, 1.092336e+002
5.656929e+002, 1.091643e+002
5.661750e+002, 1.090138e+002
5.666572e+002, 1.091294e+002
5.671393e+002, 1.095451e+002
5.676214e+002, 1.099738e+002
5.681035e+002, 1.102092e+002
5.685856e+002, 1.103113e+002
5.690677e+002, 1.105487e+002
5.695499e+002, 1.109354e+002
5.700320e+002, 1.113222e+002
5.705141e+002, 1.115431e+002
5.709962e+002, 1.116721e+002
5.714783e+002, 1.118438e+002
5.719604e+002, 1.121505e+002
5.724426e+002, 1.123855e+002
5.729247e+002, 1.122985e+002
5.734068e+002, 1.120669e+002
5.738889e+002, 1.120072e+002
5.743710e+002, 1.124651e+002
5.748531e+002, 1.128709e+002
5.753353e+002, 1.129482e+002
5.758174e+002, 1.127297e+002
5.762995e+002, 1.127483e+002
5.767816e+002, 1.131906e+002
5.772637e+002, 1.136648e+002
5.777458e+002, 1.140060e+002
5.782280e+002, 1.141901e+002
5.787101e+002, 1.143546e+002
5.791922e+002, 1.144976e+002
5.796743e+002, 1.146244e+002
5.801564e+002, 1.147307e+002
5.806385e+002, 1.148181e+002
5.811207e+002, 1.149158e+002
5.816028e+002, 1.150093e+002
5.820849e+002, 1.151584e+002
5.825670e+002, 1.155439e+002
5.830491e+002, 1.160755e+002
5.835313e+002, 1.164807e+002
5.840133e+002, 1.164489e+002
5.844954e+002, 1.163570e+002
5.849775e+002, 1.166384e+002
5.854597e+002, 1.172140e+002
5.859418e+002, 1.176315e+002
5.864239e+002, 1.175083e+002
5.869060e+002, 1.172933e+002
5.873881e+002, 1.172353e+002
5.878702e+002, 1.173759e+002
5.883524e+002, 1.176204e+002
5.888345e+002, 1.181358e+002
5.893166e+002, 1.186337e+002
5.897987e+002, 1.188822e+002
5.902808e+002, 1.187893e+002
5.907629e+002, 1.186266e+002
5.912451e+002, 1.183129e+002
5.917272e+002, 1.180399e+002
5.922093e+002, 1.182317e+002
5.926914e+002, 1.189142e+002
5.931735e+002, 1.196274e+002
5.936556e+002, 1.202417e+002
5.941378e+002, 1.207679e+002
5.946199e+002, 1.213021e+002
5.951020e+002, 1.218122e+002
5.955841e+002, 1.220710e+002
5.960662e+002, 1.215890e+002
5.965483e+002, 1.209527e+002
5.970305e+002, 1.209445e+002
5.975126e+002, 1.216486e+002
5.979947e+002, 1.222860e+002
5.984768e+002, 1.222389e+002
5.989589e+002, 1.220299e+002
5.994410e+002, 1.221258e+002
5.999232e+002, 1.229048e+002
6.004053e+002, 1.235157e+002
6.008874e+002, 1.237328e+002
6.013695e+002, 1.237447e+002
6.018516e+002, 1.238091e+002
6.023337e+002, 1.239842e+002
6.028159e+002, 1.240824e+002
6.032980e+002, 1.239976e+002
6.037801e+002, 1.238333e+002
6.042622e+002, 1.239962e+002
6.047443e+002, 1.245137e+002
6.052264e+002, 1.251079e+002
6.057086e+002, 1.257163e+002
6.061907e+002, 1.262865e+002
6.066728e+002, 1.266307e+002
6.071549e+002, 1.267492e+002
6.076370e+002, 1.267543e+002
6.081191e+002, 1.266647e+002
6.086013e+002, 1.265411e+002
6.090834e+002, 1.264565e+002
6.095655e+002, 1.264167e+002
6.100476e+002, 1.264417e+002
6.105297e+002, 1.264721e+002
6.110118e+002, 1.266027e+002
6.114940e+002, 1.269423e+002
6.119761e+002, 1.278387e+002
6.124582e+002, 1.285626e+002
6.129403e+002, 1.290229e+002
6.134224e+002, 1.292470e+002
6.139045e+002, 1.292302e+002
6.143867e+002, 1.287204e+002
6.148688e+002, 1.285213e+002
6.153509e+002, 1.289890e+002
6.158330e+002, 1.299772e+002
6.163151e+002, 1.305295e+002
6.167972e+002, 1.306044e+002
6.172794e+002, 1.306192e+002
6.177615e+002, 1.308878e+002
6.182436e+002, 1.313040e+002
6.187257e+002, 1.315447e+002
6.192078e+002, 1.315852e+002
6.196899e+002, 1.316445e+002
6.201721e+002, 1.320191e+002
6.206542e+002, 1.324763e+002
6.211363e+002, 1.326918e+002
6.216184e+002, 1.324567e+002
6.221005e+002, 1.322870e+002
6.225826e+002, 1.324886e+002
6.230648e+002, 1.328706e+002
6.235469e+002, 1.331662e+002
6.240290e+002, 1.332254e+002
6.245111e+002, 1.333277e+002
6.249932e+002, 1.334959e+002
6.254753e+002, 1.337409e+002
6.259575e+002, 1.341216e+002
6.264396e+002, 1.347216e+002
6.269217e+002, 1.352258e+002
6.274038e+002, 1.354884e+002
6.278859e+002, 1.355493e+002
6.283680e+002, 1.356406e+002
6.288502e+002, 1.357626e+002
6.293323e+002, 1.358916e+002
6.298144e+002, 1.359745e+002
6.302965e+002, 1.360591e+002
6.307786e+002, 1.362434e+002
6.312607e+002, 1.365381e+002
6.317429e+002, 1.368941e+002
6.322250e+002, 1.374127e+002
6.327071e+002, 1.379077e+002
6.331892e+002, 1.381362e+002
6.336713e+002, 1.376007e+002
6.341534e+002, 1.375327e+002
6.346356e+002, 1.387085e+002
6.351177e+002, 1.404191e+002
6.355998e+002, 1.415538e+002
6.360819e+002, 1.419133e+002
6.365640e+002, 1.419619e+002
6.370461e+002, 1.416156e+002
6.375283e+002, 1.410527e+002
6.380104e+002, 1.408763e+002
6.384925e+002, 1.411228e+002
6.389746e+002, 1.415318e+002
6.394567e+002, 1.421528e+002
6.399388e+002, 1.428266e+002
6.404210e+002, 1.428368e+002
6.409031e+002, 1.422291e+002
6.413852e+002, 1.417655e+002
6.418673e+002, 1.421002e+002
6.423494e+002, 1.428419e+002
6.428315e+002, 1.435879e+002
6.433137e+002, 1.443151e+002
6.437958e+002, 1.448707e+002
6.442779e+002, 1.450036e+002
6.447600e+002, 1.450339e+002
6.452421e+002, 1.452543e+002
6.457242e+002, 1.460698e+002
6.462064e+002, 1.465059e+002
6.466885e+002, 1.462991e+002
6.471706e+002, 1.458259e+002
6.476527e+002, 1.456151e+002
6.481348e+002, 1.457917e+002
6.486169e+002, 1.457789e+002
6.490991e+002, 1.453481e+002
6.495812e+002, 1.447902e+002
6.500633e+002, 1.448764e+002
6.505454e+002, 1.455631e+002
6.510275e+002, 1.462027e+002
6.515096e+002, 1.464551e+002
6.519918e+002, 1.465126e+002
6.524739e+002, 1.466699e+002
6.529560e+002, 1.469067e+002
6.534381e+002, 1.471273e+002
6.539202e+002, 1.474435e+002
6.544023e+002, 1.475936e+002
6.548845e+002, 1.473030e+002
6.553666e+002, 1.464998e+002
6.558487e+002, 1.458401e+002
6.563308e+002, 1.454716e+002
6.568129e+002, 1.452967e+002
6.572950e+002, 1.452920e+002
6.577772e+002, 1.456295e+002
6.582593e+002, 1.456377e+002
6.587414e+002, 1.451791e+002
6.592235e+002, 1.446140e+002
6.597056e+002, 1.443161e+002
6.601877e+002, 1.442844e+002
6.606699e+002, 1.445764e+002
6.611520e+002, 1.453497e+002
6.616341e+002, 1.460616e+002
6.621162e+002, 1.456931e+002
6.625983e+002, 1.446278e+002
6.630804e+002, 1.438862e+002
6.635626e+002, 1.441741e+002
6.640447e+002, 1.446245e+002
6.645268e+002, 1.446008e+002
6.650089e+002, 1.442453e+002
6.654910e+002, 1.439760e+002
6.659731e+002, 1.440017e+002
6.664553e+002, 1.440576e+002
6.669374e+002, 1.440976e+002
6.674195e+002, 1.441139e+002
6.679016e+002, 1.439453e+002
6.683837e+002, 1.434949e+002
6.688658e+002, 1.430424e+002
6.693480e+002, 1.426955e+002
6.698301e+002, 1.424558e+002
6.703122e+002, 1.424342e+002
6.707943e+002, 1.426565e+002
6.712764e+002, 1.429034e+002
6.717585e+002, 1.430019e+002
6.722407e+002, 1.429786e+002
6.727228e+002, 1.428951e+002
6.732049e+002, 1.427602e+002
6.736870e+002, 1.425474e+002
6.741691e+002, 1.421689e+002
6.746512e+002, 1.417231e+002
6.751334e+002, 1.413216e+002
6.756155e+002, 1.408953e+002
6.760976e+002, 1.406503e+002
6.765797e+002, 1.408651e+002
6.770618e+002, 1.412141e+002
6.775439e+002, 1.411792e+002
6.780261e+002, 1.404707e+002
6.785082e+002, 1.400089e+002
6.789903e+002, 1.400143e+002
6.794724e+002, 1.403198e+002
6.799545e+002, 1.405246e+002
6.804366e+002, 1.406269e+002
6.809188e+002, 1.406336e+002
6.814009e+002, 1.405045e+002
6.818830e+002, 1.403114e+002
6.823651e+002, 1.402299e+002
6.828472e+002, 1.402248e+002
6.833293e+002, 1.401208e+002
6.838115e+002, 1.396217e+002
6.842936e+002, 1.391337e+002
6.847757e+002, 1.389795e+002
6.852578e+002, 1.391786e+002
6.857399e+002, 1.393823e+002
6.862220e+002, 1.395430e+002
6.867042e+002, 1.396456e+002
6.871863e+002, 1.396745e+002
6.876684e+002, 1.396054e+002
6.881505e+002, 1.395683e+002
6.886326e+002, 1.395791e+002
6.891147e+002, 1.395847e+002
6.895969e+002, 1.395373e+002
6.900790e+002, 1.394369e+002
6.905611e+002, 1.393006e+002
6.910432e+002, 1.391229e+002
6.915253e+002, 1.389371e+002
6.920074e+002, 1.388321e+002
6.924896e+002, 1.387403e+002
6.929717e+002, 1.385047e+002
6.934538e+002, 1.379321e+002
6.939359e+002, 1.375078e+002
6.944180e+002, 1.376641e+002
6.949001e+002, 1.381151e+002
6.953823e+002, 1.384179e+002
6.958644e+002, 1.384390e+002
6.963465e+002, 1.383430e+002
6.968286e+002, 1.380925e+002
6.973107e+002, 1.377641e+002
6.977928e+002, 1.375651e+002
6.982750e+002, 1.375238e+002
6.987571e+002, 1.375197e+002
6.992392e+002, 1.375084e+002
6.997213e+002, 1.375143e+002
7.002034e+002, 1.376096e+002
7.006855e+002, 1.377909e+002
7.011677e+002, 1.380247e+002
7.016498e+002, 1.383152e+002
7.021319e+002, 1.386315e+002
7.026140e+002, 1.389863e+002
7.030961e+002, 1.393602e+002
7.035782e+002, 1.395995e+002
7.040604e+002, 1.395134e+002
7.045425e+002, 1.393683e+002
7.050246e+002, 1.392867e+002
7.055067e+002, 1.392655e+002
7.059888e+002, 1.393848e+002
7.064709e+002, 1.396245e+002
7.069531e+002, 1.400292e+002
7.074352e+002, 1.407109e+002
7.079173e+002, 1.417171e+002
7.083994e+002, 1.423981e+002
7.088815e+002, 1.427066e+002
7.093636e+002, 1.428720e+002
7.098458e+002, 1.430750e+002
7.103279e+002, 1.433261e+002
7.108100e+002, 1.436866e+002
7.112921e+002, 1.442003e+002
7.117742e+002, 1.446723e+002
7.122563e+002, 1.449640e+002
7.127385e+002, 1.451322e+002
7.132206e+002, 1.452381e+002
7.137027e+002, 1.451412e+002
7.141848e+002, 1.452029e+002
7.146669e+002, 1.456245e+002
7.151490e+002, 1.461873e+002
7.156312e+002, 1.466030e+002
7.161133e+002, 1.468215e+002
7.165954e+002, 1.470212e+002
7.170775e+002, 1.472324e+002
7.175596e+002, 1.474348e+002
7.180417e+002, 1.474900e+002
7.185239e+002, 1.474338e+002
7.190060e+002, 1.476468e+002
7.194881e+002, 1.484674e+002
7.199702e+002, 1.494177e+002
7.204523e+002, 1.497804e+002
7.209344e+002, 1.497637e+002
7.214166e+002, 1.500002e+002
7.218987e+002, 1.510576e+002
7.223808e+002, 1.521739e+002
7.228629e+002, 1.528752e+002
7.233450e+002, 1.532280e+002
7.238271e+002, 1.539077e+002
7.243093e+002, 1.550301e+002
7.247914e+002, 1.563301e+002
7.252735e+002, 1.576822e+002
7.257556e+002, 1.591065e+002
7.262377e+002, 1.608319e+002
7.267198e+002, 1.628886e+002
7.272020e+002, 1.652022e+002
7.276841e+002, 1.677403e+002
7.281662e+002, 1.705300e+002
7.286483e+002, 1.735848e+002
7.291304e+002, 1.769048e+002
7.296125e+002, 1.804454e+002
7.300947e+002, 1.839559e+002
7.305768e+002, 1.878233e+002
7.310589e+002, 1.924104e+002
7.315410e+002, 1.978473e+002
7.320231e+002, 2.035416e+002
7.325052e+002, 2.091910e+002
7.329874e+002, 2.152142e+002
7.334695e+002, 2.219004e+002
7.339516e+002, 2.291932e+002
7.344337e+002, 2.373387e+002
7.349158e+002, 2.464133e+002
7.353979e+002, 2.562260e+002
7.358801e+002, 2.667873e+002
7.363622e+002, 2.779520e+002
7.368443e+002, 2.889728e+002
7.373264e+002, 2.996001e+002
7.378085e+002, 3.108289e+002
7.382906e+002, 3.235604e+002
7.387728e+002, 3.373515e+002
7.392549e+002, 3.515947e+002
7.397370e+002, 3.662976e+002
7.402191e+002, 3.811612e+002
7.407012e+002, 3.950615e+002
7.411833e+002, 4.095398e+002
7.416655e+002, 4.269907e+002
7.421476e+002, 4.487471e+002
7.426297e+002, 4.698239e+002
7.431118e+002, 4.893341e+002
7.435939e+002, 5.082794e+002
7.440760e+002, 5.287068e+002
7.445582e+002, 5.503034e+002
7.450403e+002, 5.718028e+002
7.455224e+002, 5.931825e+002
7.460045e+002, 6.137305e+002
7.464866e+002, 6.333275e+002
7.469688e+002, 6.514664e+002
7.474509e+002, 6.668699e+002
7.479330e+002, 6.795530e+002
7.484151e+002, 6.888098e+002
7.488972e+002, 6.950007e+002
7.493793e+002, 6.975901e+002
7.498615e+002, 6.952640e+002
7.503436e+002, 6.884670e+002
7.508257e+002, 6.761326e+002
7.513078e+002, 6.574628e+002
7.517899e+002, 6.333233e+002
7.522720e+002, 6.065754e+002
7.527542e+002, 5.771243e+002
7.532363e+002, 5.477559e+002
7.537184e+002, 5.193620e+002
7.542005e+002, 4.924338e+002
7.546826e+002, 4.675434e+002
7.551647e+002, 4.446136e+002
7.556469e+002, 4.243647e+002
7.561290e+002, 4.066128e+002
7.566111e+002, 3.918521e+002
7.570932e+002, 3.805137e+002
7.575753e+002, 3.727203e+002
7.580574e+002, 3.664354e+002
7.585396e+002, 3.614266e+002
7.590217e+002, 3.580399e+002
7.595038e+002, 3.564750e+002
7.599859e+002, 3.566812e+002
7.604680e+002, 3.581015e+002
7.609501e+002, 3.607677e+002
7.614323e+002, 3.642300e+002
7.619144e+002, 3.683935e+002
7.623965e+002, 3.730750e+002
7.628786e+002, 3.783433e+002
7.633607e+002, 3.840524e+002
7.638428e+002, 3.889232e+002
7.643250e+002, 3.925493e+002
7.648071e+002, 3.947324e+002
7.652892e+002, 3.954790e+002
7.657713e+002, 3.949012e+002
7.662534e+002, 3.919295e+002
7.667355e+002, 3.867921e+002
7.672177e+002, 3.790919e+002
7.676998e+002, 3.683823e+002
7.681819e+002, 3.544545e+002
7.686640e+002, 3.391073e+002
7.691461e+002, 3.222851e+002
7.696282e+002, 3.054756e+002
7.701104e+002, 2.897086e+002
7.705925e+002, 2.749525e+002
7.710746e+002, 2.610487e+002
7.715567e+002, 2.479676e+002
7.720388e+002, 2.361823e+002
7.725209e+002, 2.260351e+002
7.730031e+002, 2.172868e+002
7.734852e+002, 2.097610e+002
7.739673e+002, 2.037556e+002
7.744494e+002, 1.980061e+002
7.749315e+002, 1.921322e+002
7.754136e+002, 1.868819e+002
7.758958e+002, 1.830309e+002
7.763779e+002, 1.807005e+002
7.768600e+002, 1.778870e+002
7.773421e+002, 1.743965e+002
7.778242e+002, 1.711121e+002
7.783063e+002, 1.691835e+002
7.787885e+002, 1.680310e+002
7.792706e+002, 1.665087e+002
7.797527e+002, 1.643810e+002
7.802348e+002, 1.623255e+002
7.807169e+002, 1.606652e+002
7.811990e+002, 1.593316e+002
7.816812e+002, 1.582983e+002
7.821633e+002, 1.578540e+002
7.826454e+002, 1.571485e+002
7.831275e+002, 1.559971e+002
7.836096e+002, 1.548046e+002
7.840917e+002, 1.539653e+002
7.845739e+002, 1.534836e+002
7.850560e+002, 1.532178e+002
7.855381e+002, 1.531842e+002
7.860202e+002, 1.532178e+002
7.865023e+002, 1.532155e+002
7.869844e+002, 1.531331e+002
7.874666e+002, 1.528581e+002
7.879487e+002, 1.522855e+002
7.884308e+002, 1.517746e+002
7.889129e+002, 1.514673e+002
7.893950e+002, 1.513172e+002
7.898771e+002, 1.512828e+002
7.903593e+002, 1.514603e+002
7.908414e+002, 1.515370e+002
7.913235e+002, 1.513989e+002
7.918056e+002, 1.513125e+002
7.922877e+002, 1.517270e+002
7.927698e+002, 1.525953e+002
7.932520e+002, 1.530593e+002
7.937341e+002, 1.529430e+002
7.942162e+002, 1.526610e+002
7.946983e+002, 1.526013e+002
7.951804e+002, 1.526957e+002
7.956625e+002, 1.528430e+002
7.961447e+002, 1.530417e+002
7.966268e+002, 1.532412e+002
7.971089e+002, 1.534189e+002
7.975910e+002, 1.535952e+002
7.980731e+002, 1.538020e+002
7.985552e+002, 1.541012e+002
7.990374e+002, 1.542625e+002
7.995195e+002, 1.541869e+002
8.000016e+002, 1.541380e+002
8.004837e+002, 1.545116e+002
8.009658e+002, 1.552415e+002
8.014479e+002, 1.559852e+002
8.019301e+002, 1.567160e+002
8.024122e+002, 1.572894e+002
8.028943e+002, 1.572783e+002
8.033764e+002, 1.571272e+002
8.038585e+002, 1.574475e+002
8.043406e+002, 1.587034e+002
8.048228e+002, 1.598643e+002
8.053049e+002, 1.606897e+002
8.057870e+002, 1.613417e+002
8.062691e+002, 1.619521e+002
8.067512e+002, 1.624864e+002
8.072333e+002, 1.630970e+002
8.077155e+002, 1.637736e+002
8.081976e+002, 1.645685e+002
8.086797e+002, 1.656786e+002
8.091618e+002, 1.669597e+002
8.096439e+002, 1.679270e+002
8.101260e+002, 1.683693e+002
8.106082e+002, 1.689083e+002
8.110903e+002, 1.700732e+002
8.115724e+002, 1.715427e+002
8.120545e+002, 1.729751e+002
8.125366e+002, 1.744576e+002
8.130187e+002, 1.756306e+002
8.135009e+002, 1.763703e+002
8.139830e+002, 1.769246e+002
8.144651e+002, 1.774959e+002
8.149472e+002, 1.780794e+002
8.154293e+002, 1.789430e+002
8.159114e+002, 1.801799e+002
8.163936e+002, 1.814169e+002
8.168757e+002, 1.821256e+002
8.173578e+002, 1.825584e+002
8.178399e+002, 1.832261e+002
8.183220e+002, 1.843654e+002
8.188041e+002, 1.852903e+002
8.192863e+002, 1.853333e+002
8.197684e+002, 1.851951e+002
8.202505e+002, 1.855981e+002
8.207326e+002, 1.870422e+002
8.212147e+002, 1.879037e+002
8.216968e+002, 1.880088e+002
8.221790e+002, 1.878359e+002
8.226611e+002, 1.878173e+002
8.231432e+002, 1.879505e+002
8.236253e+002, 1.882974e+002
8.241074e+002, 1.888936e+002
8.245895e+002, 1.894371e+002
8.250717e+002, 1.894944e+002
8.255538e+002, 1.894224e+002
8.260359e+002, 1.896763e+002
8.265180e+002, 1.904786e+002
8.270001e+002, 1.911086e+002
8.274822e+002, 1.913232e+002
8.279644e+002, 1.913843e+002
8.284465e+002, 1.913905e+002
8.289286e+002, 1.912441e+002
8.294107e+002, 1.916362e+002
8.298928e+002, 1.926803e+002
8.303749e+002, 1.937813e+002
8.308571e+002, 1.943769e+002
8.313392e+002, 1.946232e+002
8.318213e+002, 1.947999e+002
8.323034e+002, 1.949286e+002
8.327855e+002, 1.951637e+002
8.332676e+002, 1.954919e+002
8.337498e+002, 1.960372e+002
8.342319e+002, 1.969592e+002
8.347140e+002, 1.984129e+002
8.351961e+002, 1.996391e+002
8.356782e+002, 2.005485e+002
8.361603e+002, 2.013662e+002
8.366425e+002, 2.021511e+002
8.371246e+002, 2.029214e+002
8.376067e+002, 2.040859e+002
8.380888e+002, 2.056493e+002
8.385709e+002, 2.071037e+002
8.390530e+002, 2.077418e+002
8.395352e+002, 2.082626e+002
8.400173e+002, 2.095126e+002
8.404994e+002, 2.115470e+002
8.409815e+002, 2.135321e+002
8.414636e+002, 2.154301e+002
8.419457e+002, 2.169578e+002
8.424279e+002, 2.177450e+002
8.429100e+002, 2.178239e+002
8.433921e+002, 2.192064e+002
8.438742e+002, 2.220916e+002
8.443563e+002, 2.251780e+002
8.448384e+002, 2.275520e+002
8.453206e+002, 2.296145e+002
8.458027e+002, 2.322801e+002
8.462848e+002, 2.354881e+002
8.467669e+002, 2.388532e+002
8.472490e+002, 2.419269e+002
8.477311e+002, 2.453107e+002
8.482133e+002, 2.492821e+002
8.486954e+002, 2.538988e+002
8.491775e+002, 2.590964e+002
8.496596e+002, 2.647704e+002
8.501417e+002, 2.712762e+002
8.506238e+002, 2.786583e+002
8.511060e+002, 2.869354e+002
8.515881e+002, 2.959502e+002
8.520702e+002, 3.057615e+002
8.525523e+002, 3.168753e+002
8.530344e+002, 3.289955e+002
8.535165e+002, 3.428826e+002
8.539987e+002, 3.593081e+002
8.544808e+002, 3.781379e+002
8.549629e+002, 3.991143e+002
8.554450e+002, 4.224311e+002
8.559271e+002, 4.473692e+002
8.564092e+002, 4.741407e+002
8.568914e+002, 5.020107e+002
8.573735e+002, 5.305781e+002
8.578556e+002, 5.599697e+002
8.583377e+002, 5.897057e+002
8.588198e+002, 6.197482e+002
8.593019e+002, 6.505139e+002
8.597841e+002, 6.817405e+002
8.602662e+002, 7.140839e+002
8.607483e+002, 7.481772e+002
8.612304e+002, 7.830575e+002
8.617125e+002, 8.214967e+002
8.621946e+002, 8.631163e+002
8.626768e+002, 9.095375e+002
8.631589e+002, 9.616519e+002
8.636410e+002, 1.020505e+003
8.641231e+002, 1.083670e+003
8.646052e+002, 1.151330e+003
8.650873e+002, 1.222049e+003
8.655695e+002, 1.296137e+003
8.660516e+002, 1.372338e+003
8.665337e+002, 1.448695e+003
8.670158e+002, 1.526818e+003
8.674979e+002, 1.598214e+003
8.679800e+002, 1.664634e+003
8.684622e+002, 1.717790e+003
8.689443e+002, 1.751655e+003
8.694264e+002, 1.768413e+003
8.699085e+002, 1.755470e+003
8.703906e+002, 1.710319e+003
8.708727e+002, 1.639817e+003
8.713549e+002, 1.544614e+003
8.718370e+002, 1.426166e+003
8.723191e+002, 1.305395e+003
8.728012e+002, 1.181428e+003
8.732833e+002, 1.062735e+003
8.737654e+002, 9.532656e+002
8.742476e+002, 8.539982e+002
8.747297e+002, 7.664778e+002
8.752118e+002, 6.901229e+002
8.756939e+002, 6.234188e+002
8.761760e+002, 5.690129e+002
8.766581e+002, 5.222668e+002
8.771403e+002, 4.823647e+002
8.776224e+002, 4.490875e+002
8.781045e+002, 4.195620e+002
8.785866e+002, 3.938885e+002
8.790687e+002, 3.717030e+002
8.795508e+002, 3.538145e+002
8.800330e+002, 3.392401e+002
8.805151e+002, 3.273647e+002
8.809972e+002, 3.178275e+002
8.814793e+002, 3.092686e+002
8.819614e+002, 3.004717e+002
8.824435e+002, 2.932801e+002
8.829257e+002, 2.886396e+002
8.834078e+002, 2.861021e+002
8.838899e+002, 2.843268e+002
8.843720e+002, 2.832017e+002
8.848541e+002, 2.834472e+002
8.853362e+002, 2.853463e+002
8.858184e+002, 2.885956e+002
8.863005e+002, 2.922240e+002
8.867826e+002, 2.968015e+002
8.872647e+002, 3.036812e+002
8.877468e+002, 3.130770e+002
8.882289e+002, 3.252234e+002
8.887111e+002, 3.398015e+002
8.891932e+002, 3.574674e+002
8.896753e+002, 3.789169e+002
8.901574e+002, 4.033780e+002
8.906395e+002, 4.330477e+002
8.911216e+002, 4.682592e+002
8.916038e+002, 5.077951e+002
8.920859e+002, 5.515303e+002
8.925680e+002, 5.986486e+002
8.930501e+002, 6.471761e+002
8.935322e+002, 6.965573e+002
8.940143e+002, 7.460295e+002
8.944965e+002, 7.940742e+002
8.949786e+002, 8.418250e+002
8.954607e+002, 8.903488e+002
8.959428e+002, 9.386169e+002
8.964249e+002, 9.905496e+002
8.969070e+002, 1.044406e+003
8.973892e+002, 1.104594e+003
8.978713e+002, 1.171942e+003
8.983534e+002, 1.247674e+003
8.988355e+002, 1.334843e+003
8.993176e+002, 1.433587e+003
8.997997e+002, 1.545109e+003
9.002819e+002, 1.673004e+003
9.007640e+002, 1.812689e+003
9.012461e+002, 1.965109e+003
9.017282e+002, 2.128045e+003
9.022103e+002, 2.295848e+003
9.026924e+002, 2.474857e+003
9.031746e+002, 2.643531e+003
9.036567e+002, 2.805461e+003
9.041388e+002, 2.947981e+003
9.046209e+002, 3.042507e+003
9.051030e+002, 3.086755e+003
9.055851e+002, 3.065442e+003
9.060673e+002, 2.964231e+003
9.065494e+002, 2.806103e+003
9.070315e+002, 2.589740e+003
9.075136e+002, 2.336911e+003
9.079957e+002, 2.082645e+003
9.084778e+002, 1.819342e+003
9.089600e+002, 1.580848e+003
9.094421e+002, 1.368496e+003
9.099242e+002, 1.184037e+003
9.104063e+002, 1.025960e+003
9.108884e+002, 8.946347e+002
9.113705e+002, 7.846609e+002
9.118527e+002, 6.961591e+002
9.123348e+002, 6.229864e+002
9.128169e+002, 5.628379e+002
9.132990e+002, 5.127975e+002
9.137811e+002, 4.701485e+002
9.142632e+002, 4.351332e+002
9.147454e+002, 4.047610e+002
9.152275e+002, 3.793389e+002
9.157096e+002, 3.572069e+002
9.161917e+002, 3.377108e+002
9.166738e+002, 3.208353e+002
9.171559e+002, 3.057026e+002
9.176381e+002, 2.924328e+002
9.181202e+002, 2.805731e+002
9.186023e+002, 2.700341e+002
9.190844e+002, 2.606337e+002
9.195665e+002, 2.523740e+002
9.200486e+002, 2.451904e+002
9.205308e+002, 2.383790e+002
9.210129e+002, 2.316831e+002
9.214950e+002, 2.254329e+002
9.219771e+002, 2.196260e+002
9.224592e+002, 2.143009e+002
9.229413e+002, 2.096794e+002
9.234235e+002, 2.057847e+002
9.239056e+002, 2.019454e+002
9.243877e+002, 1.978055e+002
9.248698e+002, 1.939025e+002
9.253519e+002, 1.909398e+002
9.258340e+002, 1.885607e+002
9.263162e+002, 1.861468e+002
9.267983e+002, 1.833792e+002
9.272804e+002, 1.808017e+002
9.277625e+002, 1.785128e+002
9.282446e+002, 1.763570e+002
9.287267e+002, 1.741243e+002
9.292089e+002, 1.718217e+002
9.296910e+002, 1.700490e+002
9.301731e+002, 1.689101e+002
9.306552e+002, 1.677923e+002
9.311373e+002, 1.659070e+002
9.316194e+002, 1.638847e+002
9.321016e+002, 1.624827e+002
9.325837e+002, 1.618359e+002
9.330658e+002, 1.610849e+002
9.335479e+002, 1.599277e+002
9.340300e+002, 1.587600e+002
9.345121e+002, 1.577276e+002
9.349943e+002, 1.568116e+002
9.354764e+002, 1.560012e+002
9.359585e+002, 1.552793e+002
9.364406e+002, 1.544967e+002
9.369227e+002, 1.534290e+002
9.374048e+002, 1.523768e+002
9.378870e+002, 1.517463e+002
9.383691e+002, 1.513624e+002
9.388512e+002, 1.508380e+002
9.393333e+002, 1.497974e+002
9.398154e+002, 1.489689e+002
9.402975e+002, 1.484832e+002
9.407797e+002, 1.482266e+002
9.412618e+002, 1.481300e+002
9.417439e+002, 1.481691e+002
9.422260e+002, 1.479701e+002
9.427081e+002, 1.474551e+002
9.431902e+002, 1.467755e+002
9.436724e+002, 1.459082e+002
9.441545e+002, 1.450582e+002
9.446366e+002, 1.444362e+002
9.451187e+002, 1.441085e+002
9.456008e+002, 1.439166e+002
9.460829e+002, 1.439751e+002
9.465651e+002, 1.439423e+002
9.470472e+002, 1.435814e+002
9.475293e+002, 1.429282e+002
9.480114e+002, 1.422796e+002
9.484935e+002, 1.416465e+002
9.489756e+002, 1.412049e+002
9.494578e+002, 1.410329e+002
9.499399e+002, 1.411261e+002
9.504220e+002, 1.418158e+002
9.509041e+002, 1.428291e+002
9.513862e+002, 1.430636e+002
9.518683e+002, 1.420292e+002
9.523505e+002, 1.410124e+002
9.528326e+002, 1.402661e+002
9.533147e+002, 1.396309e+002
9.537968e+002, 1.387110e+002
9.542789e+002, 1.376153e+002
9.547610e+002, 1.368188e+002
9.552432e+002, 1.364828e+002
9.557253e+002, 1.363325e+002
9.562074e+002, 1.363596e+002
9.566895e+002, 1.363644e+002
9.571716e+002, 1.361062e+002
9.576537e+002, 1.354146e+002
9.581359e+002, 1.349270e+002
9.586180e+002, 1.346258e+002
9.591001e+002, 1.345632e+002
9.595822e+002, 1.349932e+002
9.600643e+002, 1.356615e+002
9.605464e+002, 1.356791e+002
9.610286e+002, 1.351123e+002
9.615107e+002, 1.346013e+002
9.619928e+002, 1.344282e+002
9.624749e+002, 1.344821e+002
9.629570e+002, 1.348757e+002
9.634391e+002, 1.354582e+002
9.639213e+002, 1.356850e+002
9.644034e+002, 1.354533e+002
9.648855e+002, 1.353059e+002
9.653676e+002, 1.354560e+002
9.658497e+002, 1.355782e+002
9.663318e+002, 1.348926e+002
9.668140e+002, 1.338329e+002
9.672961e+002, 1.333933e+002
9.677782e+002, 1.341316e+002
9.682603e+002, 1.346952e+002
9.687424e+002, 1.343161e+002
9.692245e+002, 1.337546e+002
9.697067e+002, 1.336287e+002
9.701888e+002, 1.340200e+002
9.706709e+002, 1.342605e+002
9.711530e+002, 1.343358e+002
9.716351e+002, 1.343731e+002
9.721172e+002, 1.344763e+002
9.725994e+002, 1.345914e+002
9.730815e+002, 1.346691e+002
9.735636e+002, 1.346988e+002
9.740457e+002, 1.346461e+002
9.745278e+002, 1.344511e+002
9.750099e+002, 1.342133e+002
9.754921e+002, 1.338582e+002
9.759742e+002, 1.335366e+002
9.764563e+002, 1.337632e+002
9.769384e+002, 1.344964e+002
9.774205e+002, 1.348492e+002
9.779026e+002, 1.344867e+002
9.783848e+002, 1.340095e+002
9.788669e+002, 1.339896e+002
9.793490e+002, 1.341897e+002
9.798311e+002, 1.343204e+002
9.803132e+002, 1.342772e+002
9.807953e+002, 1.343206e+002
9.812775e+002, 1.345467e+002
9.817596e+002, 1.347078e+002
9.822417e+002, 1.345604e+002
9.827238e+002, 1.341818e+002
9.832059e+002, 1.339656e+002
9.836880e+002, 1.339101e+002
9.841702e+002, 1.339910e+002
9.846523e+002, 1.343229e+002
9.851344e+002, 1.346571e+002
9.856165e+002, 1.349222e+002
9.860986e+002, 1.350607e+002
9.865807e+002, 1.348881e+002
9.870629e+002, 1.342191e+002
9.875450e+002, 1.338474e+002
9.880271e+002, 1.339742e+002
9.885092e+002, 1.343479e+002
9.889913e+002, 1.347179e+002
9.894734e+002, 1.350190e+002
9.899556e+002, 1.350549e+002
9.904377e+002, 1.346929e+002
9.909198e+002, 1.344671e+002
9.914019e+002, 1.347803e+002
9.918840e+002, 1.351537e+002
9.923661e+002, 1.352614e+002
9.928483e+002, 1.350946e+002
9.933304e+002, 1.349474e+002
9.938125e+002, 1.348196e+002
9.942946e+002, 1.347133e+002
9.947767e+002, 1.346200e+002
9.952589e+002, 1.345547e+002
9.957410e+002, 1.345729e+002
9.962231e+002, 1.346333e+002
9.967052e+002, 1.346198e+002
9.971873e+002, 1.344124e+002
9.976694e+002, 1.342437e+002
9.981516e+002, 1.341637e+002
9.986337e+002, 1.341114e+002
9.991158e+002, 1.339648e+002
9.995979e+002, 1.337460e+002
1.000080e+003, 1.336454e+002
1.000562e+003, 1.337049e+002
1.001044e+003, 1.337425e+002
1.001526e+003, 1.335392e+002
1.002008e+003, 1.333137e+002
1.002491e+003, 1.332555e+002
1.002973e+003, 1.333963e+002
1.003455e+003, 1.335800e+002
1.003937e+003, 1.338388e+002
1.004419e+003, 1.340536e+002
1.004901e+003, 1.342418e+002
1.005383e+003, 1.342918e+002
1.005865e+003, 1.337529e+002
1.006348e+003, 1.328647e+002
1.006830e+003, 1.322961e+002
1.007312e+003, 1.325931e+002
1.007794e+003, 1.329416e+002
1.008276e+003, 1.330076e+002
1.008758e+003, 1.330543e+002
1.009240e+003, 1.334572e+002
1.009722e+003, 1.342901e+002
1.010204e+003, 1.346354e+002
1.010687e+003, 1.344083e+002
1.011169e+003, 1.339738e+002
1.011651e+003, 1.334497e+002
1.012133e+003, 1.330317e+002
1.012615e+003, 1.330094e+002
1.013097e+003, 1.333759e+002
1.013579e+003, 1.336185e+002
1.014061e+003, 1.335112e+002
1.014544e+003, 1.335252e+002
1.015026e+003, 1.338686e+002
1.015508e+003, 1.343496e+002
1.015990e+003, 1.344618e+002
1.016472e+003, 1.342884e+002
1.016954e+003, 1.341786e+002
1.017436e+003, 1.342806e+002
1.017918e+003, 1.343624e+002
1.018400e+003, 1.341937e+002
1.018883e+003, 1.339885e+002
1.019365e+003, 1.339777e+002
1.019847e+003, 1.342234e+002
1.020329e+003, 1.343934e+002
1.020811e+003, 1.344965e+002
1.021293e+003, 1.344810e+002
1.021775e+003, 1.342280e+002
1.022257e+003, 1.338793e+002
1.022740e+003, 1.335842e+002
1.023222e+003, 1.333769e+002
1.023704e+003, 1.333685e+002
1.024186e+003, 1.339351e+002
1.024668e+003, 1.342555e+002
1.025150e+003, 1.340763e+002
1.025632e+003, 1.336533e+002
1.026114e+003, 1.333893e+002
1.026596e+003, 1.332750e+002
1.027079e+003, 1.331867e+002
1.027561e+003, 1.330987e+002
1.028043e+003, 1.330848e+002
1.028525e+003, 1.332740e+002
1.029007e+003, 1.335146e+002
1.029489e+003, 1.336900e+002
1.029971e+003, 1.337886e+002
1.030453e+003, 1.337875e+002
1.030936e+003, 1.336401e+002
1.031418e+003, 1.335641e+002
1.031900e+003, 1.337220e+002
1.032382e+003, 1.339298e+002
1.032864e+003, 1.337552e+002
1.033346e+003, 1.333422e+002
1.033828e+003, 1.330359e+002
1.034310e+003, 1.330097e+002
1.034792e+003, 1.330255e+002
1.035275e+003, 1.329383e+002
1.035757e+003, 1.329494e+002
1.036239e+003, 1.333702e+002
1.036721e+003, 1.341986e+002
1.037203e+003, 1.344230e+002
1.037685e+003, 1.340137e+002
1.038167e+003, 1.335252e+002
1.038649e+003, 1.333284e+002
1.039131e+003, 1.332512e+002
1.039614e+003, 1.331128e+002
1.040096e+003, 1.329599e+002
1.040578e+003, 1.330718e+002
1.041060e+003, 1.336726e+002
1.041542e+003, 1.339330e+002
1.042024e+003, 1.336004e+002
1.042506e+003, 1.330822e+002
1.042988e+003, 1.329999e+002
1.043471e+003, 1.331888e+002
1.043953e+003, 1.332953e+002
1.044435e+003, 1.332304e+002
1.044917e+003, 1.332087e+002
1.045399e+003, 1.333884e+002
1.045881e+003, 1.335501e+002
1.046363e+003, 1.335413e+002
1.046845e+003, 1.334061e+002
1.047328e+003, 1.335854e+002
1.047810e+003, 1.340530e+002
1.048292e+003, 1.343080e+002
1.048774e+003, 1.340136e+002
1.049256e+003, 1.335738e+002
1.049738e+003, 1.332946e+002
1.050220e+003, 1.330901e+002
1.050702e+003, 1.328000e+002
1.051184e+003, 1.322376e+002
1.051667e+003, 1.320409e+002
1.052149e+003, 1.323066e+002
1.052631e+003, 1.326591e+002
1.053113e+003, 1.327832e+002
1.053595e+003, 1.327568e+002
1.054077e+003, 1.326966e+002
1.054559e+003, 1.326211e+002
1.055041e+003, 1.326044e+002
1.055523e+003, 1.327366e+002
1.056006e+003, 1.328652e+002
1.056488e+003, 1.329834e+002
1.056970e+003, 1.330494e+002
1.057452e+003, 1.329581e+002
1.057934e+003, 1.327245e+002
1.058416e+003, 1.324394e+002
1.058898e+003, 1.320938e+002
1.059380e+003, 1.318795e+002
1.059863e+003, 1.320828e+002
1.060345e+003, 1.323909e+002
1.060827e+003, 1.325946e+002
1.061309e+003, 1.326835e+002
1.061791e+003, 1.323885e+002
1.062273e+003, 1.315690e+002
1.062755e+003, 1.310399e+002
1.063237e+003, 1.312683e+002
1.063719e+003, 1.318383e+002
1.064202e+003, 1.322247e+002
1.064684e+003, 1.324470e+002
1.065166e+003, 1.325430e+002
1.065648e+003, 1.325113e+002
1.066130e+003, 1.323510e+002
1.066612e+003, 1.319684e+002
1.067094e+003, 1.316079e+002
1.067576e+003, 1.314561e+002
1.068058e+003, 1.314987e+002
1.068541e+003, 1.317657e+002
1.069023e+003, 1.322109e+002
1.069505e+003, 1.324685e+002
1.069987e+003, 1.320729e+002
1.070469e+003, 1.316925e+002
1.070951e+003, 1.317329e+002
1.071433e+003, 1.320122e+002
1.071915e+003, 1.322398e+002
1.072398e+003, 1.324350e+002
1.072880e+003, 1.323118e+002
1.073362e+003, 1.317747e+002
1.073844e+003, 1.312995e+002
1.074326e+003, 1.315736e+002
1.074808e+003, 1.320333e+002
1.075290e+003, 1.319588e+002
1.075772e+003, 1.312906e+002
1.076255e+003, 1.311291e+002
1.076737e+003, 1.318005e+002
1.077219e+003, 1.323681e+002
1.077701e+003, 1.325343e+002
1.078183e+003, 1.324143e+002
1.078665e+003, 1.320491e+002
1.079147e+003, 1.316028e+002
1.079629e+003, 1.315194e+002
1.080111e+003, 1.321132e+002
1.080594e+003, 1.324730e+002
1.081076e+003, 1.319796e+002
1.081558e+003, 1.314419e+002
1.082040e+003, 1.313284e+002
1.082522e+003, 1.315982e+002
1.083004e+003, 1.319205e+002
1.083486e+003, 1.322790e+002
1.083968e+003, 1.324984e+002
1.084450e+003, 1.324054e+002
1.084932e+003, 1.322282e+002
1.085415e+003, 1.320752e+002
1.085897e+003, 1.319462e+002
1.086379e+003, 1.318098e+002
1.086861e+003, 1.316022e+002
1.087343e+003, 1.317091e+002
1.087825e+003, 1.322000e+002
1.088307e+003, 1.326615e+002
1.088789e+003, 1.326241e+002
1.089272e+003, 1.324262e+002
1.089754e+003, 1.325191e+002
1.090236e+003, 1.328555e+002
1.090718e+003, 1.330620e+002
1.091200e+003, 1.330337e+002
1.091682e+003, 1.329262e+002
1.092164e+003, 1.327194e+002
1.092646e+003, 1.325275e+002
1.093129e+003, 1.325695e+002
1.093611e+003, 1.327565e+002
1.094093e+003, 1.328657e+002
1.094575e+003, 1.328577e+002
1.095057e+003, 1.328481e+002
1.095539e+003, 1.329509e+002
1.096021e+003, 1.329866e+002
1.096503e+003, 1.328546e+002
1.096985e+003, 1.326063e+002
1.097468e+003, 1.324037e+002
1.097950e+003, 1.322533e+002
1.098432e+003, 1.322229e+002
1.098914e+003, 1.323682e+002
1.099396e+003, 1.325461e+002
1.099878e+003, 1.326488e+002
1.100360e+003, 1.327383e+002
1.100842e+003, 1.329030e+002
1.101324e+003, 1.331714e+002
1.101807e+003, 1.332711e+002
1.102289e+003, 1.332040e+002
1.102771e+003, 1.329557e+002
1.103253e+003, 1.323450e+002
1.103735e+003, 1.317221e+002
1.104217e+003, 1.315453e+002
1.104699e+003, 1.316575e+002
1.105181e+003, 1.317583e+002
1.105664e+003, 1.316729e+002
1.106146e+003, 1.318327e+002
1.106628e+003, 1.323502e+002
1.107110e+003, 1.328442e+002
1.107592e+003, 1.328844e+002
1.108074e+003, 1.326946e+002
1.108556e+003, 1.328036e+002
1.109038e+003, 1.331546e+002
1.109521e+003, 1.333506e+002
1.110003e+003, 1.330701e+002
1.110485e+003, 1.328415e+002
1.110967e+003, 1.327989e+002
1.111449e+003, 1.328300e+002
1.111931e+003, 1.327896e+002
1.112413e+003, 1.326762e+002
1.112895e+003, 1.324115e+002
1.113377e+003, 1.319798e+002
1.113859e+003, 1.317440e+002
1.114342e+003, 1.321007e+002
1.114824e+003, 1.325449e+002
1.115306e+003, 1.328926e+002
1.115788e+003, 1.330891e+002
1.116270e+003, 1.328082e+002
1.116752e+003, 1.320622e+002
1.117234e+003, 1.316755e+002
1.117716e+003, 1.319312e+002
1.118199e+003, 1.322829e+002
1.118681e+003, 1.322070e+002
1.119163e+003, 1.320219e+002
1.119645e+003, 1.320514e+002
1.120127e+003, 1.323213e+002
1.120609e+003, 1.324957e+002
1.121091e+003, 1.325639e+002
1.121573e+003, 1.325996e+002
1.122056e+003, 1.326595e+002
1.122538e+003, 1.326591e+002
1.123020e+003, 1.323417e+002
1.123502e+003, 1.319441e+002
1.123984e+003, 1.318664e+002
1.124466e+003, 1.324804e+002
1.124948e+003, 1.326982e+002
1.125430e+003, 1.323639e+002
1.125912e+003, 1.320112e+002
1.126395e+003, 1.321020e+002
1.126877e+003, 1.323768e+002
1.127359e+003, 1.321692e+002
1.127841e+003, 1.316462e+002
1.128323e+003, 1.312710e+002
1.128805e+003, 1.311924e+002
1.129287e+003, 1.313438e+002
1.129769e+003, 1.318348e+002
1.130251e+003, 1.323451e+002
1.130734e+003, 1.326474e+002
1.131216e+003, 1.327049e+002
1.131698e+003, 1.321556e+002
1.132180e+003, 1.311051e+002
1.132662e+003, 1.304267e+002
1.133144e+003, 1.310137e+002
1.133626e+003, 1.315378e+002
1.134108e+003, 1.313927e+002
1.134591e+003, 1.310073e+002
1.135073e+003, 1.311195e+002
1.135555e+003, 1.316679e+002
1.136037e+003, 1.318772e+002
1.136519e+003, 1.316539e+002
1.137001e+003, 1.313907e+002
1.137483e+003, 1.313999e+002
1.137965e+003, 1.314365e+002
1.138448e+003, 1.313347e+002
1.138930e+003, 1.311360e+002
1.139412e+003, 1.309329e+002
1.139894e+003, 1.307174e+002
1.140376e+003, 1.307056e+002
1.140858e+003, 1.309759e+002
1.141340e+003, 1.312871e+002
1.141822e+003, 1.313871e+002
1.142304e+003, 1.314454e+002
1.142786e+003, 1.316645e+002
1.143269e+003, 1.320481e+002
1.143751e+003, 1.322070e+002
1.144233e+003, 1.320878e+002
1.144715e+003, 1.320390e+002
1.145197e+003, 1.322302e+002
1.145679e+003, 1.324153e+002
1.146161e+003, 1.321696e+002
1.146643e+003, 1.317732e+002
1.147126e+003, 1.316030e+002
1.147608e+003, 1.317941e+002
1.148090e+003, 1.319677e+002
1.148572e+003, 1.321352e+002
1.149054e+003, 1.322147e+002
1.149536e+003, 1.320863e+002
1.150018e+003, 1.319393e+002
1.150500e+003, 1.322426e+002
1.150983e+003, 1.327506e+002
1.151465e+003, 1.329649e+002
1.151947e+003, 1.325897e+002
1.152429e+003, 1.322266e+002
1.152911e+003, 1.318702e+002
1.153393e+003, 1.316412e+002
1.153875e+003, 1.316880e+002
1.154357e+003, 1.319009e+002
1.154839e+003, 1.319848e+002
1.155322e+003, 1.319742e+002
1.155804e+003, 1.319754e+002
1.156286e+003, 1.321031e+002
1.156768e+003, 1.321303e+002
1.157250e+003, 1.319536e+002
1.157732e+003, 1.317807e+002
1.158214e+003, 1.318450e+002
1.158696e+003, 1.320791e+002
1.159178e+003, 1.322367e+002
1.159661e+003, 1.322985e+002
1.160143e+003, 1.321977e+002
1.160625e+003, 1.314493e+002
1.161107e+003, 1.311350e+002
1.161589e+003, 1.318616e+002
1.162071e+003, 1.328760e+002
1.162553e+003, 1.331725e+002
1.163035e+003, 1.328599e+002
1.163518e+003, 1.327858e+002
1.164000e+003, 1.329883e+002
1.164482e+003, 1.330235e+002
1.164964e+003, 1.323857e+002
1.165446e+003, 1.317746e+002
1.165928e+003, 1.314512e+002
1.166410e+003, 1.314166e+002
1.166892e+003, 1.318202e+002
1.167375e+003, 1.326205e+002
1.167857e+003, 1.331717e+002
1.168339e+003, 1.333945e+002
1.168821e+003, 1.333277e+002
1.169303e+003, 1.326054e+002
1.169785e+003, 1.319771e+002
1.170267e+003, 1.321498e+002
1.170749e+003, 1.327612e+002
1.171231e+003, 1.326728e+002
1.171714e+003, 1.318907e+002
1.172196e+003, 1.315074e+002
1.172678e+003, 1.317943e+002
1.173160e+003, 1.322107e+002
1.173642e+003, 1.324064e+002
1.174124e+003, 1.324549e+002
1.174606e+003, 1.323579e+002
1.175088e+003, 1.321549e+002
1.175570e+003, 1.320491e+002
1.176053e+003, 1.320471e+002
1.176535e+003, 1.319924e+002
1.177017e+003, 1.318060e+002
1.177499e+003, 1.316759e+002
1.177981e+003, 1.317511e+002
1.178463e+003, 1.319924e+002
1.178945e+003, 1.324678e+002
1.179427e+003, 1.331671e+002
1.179910e+003, 1.334782e+002
1.180392e+003, 1.333733e+002
1.180874e+003, 1.331698e+002
1.181356e+003, 1.329838e+002
1.181838e+003, 1.327502e+002
1.182320e+003, 1.321992e+002
1.182802e+003, 1.316775e+002
1.183284e+003, 1.316147e+002
1.183766e+003, 1.320767e+002
1.184249e+003, 1.328942e+002
1.184731e+003, 1.342170e+002
1.185213e+003, 1.348720e+002
1.185695e+003, 1.339538e+002
1.186177e+003, 1.326453e+002
1.186659e+003, 1.323625e+002
1.187141e+003, 1.325642e+002
1.187623e+003, 1.324484e+002
1.188105e+003, 1.317554e+002
1.188588e+003, 1.314019e+002
1.189070e+003, 1.314430e+002
1.189552e+003, 1.315322e+002
1.190034e+003, 1.314913e+002
1.190516e+003, 1.313714e+002
1.190998e+003, 1.311605e+002
1.191480e+003, 1.309414e+002
1.191962e+003, 1.308553e+002
1.192445e+003, 1.309207e+002
1.192927e+003, 1.311546e+002
1.193409e+003, 1.315947e+002
1.193891e+003, 1.320263e+002
1.194373e+003, 1.323628e+002
1.194855e+003, 1.325610e+002
1.195337e+003, 1.325014e+002
1.195819e+003, 1.322679e+002
1.196302e+003, 1.320399e+002
1.196784e+003, 1.317755e+002
1.197266e+003, 1.316882e+002
1.197748e+003, 1.318082e+002
1.198230e+003, 1.319921e+002
1.198712e+003, 1.322042e+002
1.199194e+003, 1.323568e+002
1.199676e+003, 1.321933e+002
1.200158e+003, 1.318796e+002
1.200641e+003, 1.319038e+002
1.201123e+003, 1.326540e+002
1.201605e+003, 1.329687e+002
1.202087e+003, 1.327198e+002
1.202569e+003, 1.323130e+002
1.203051e+003, 1.319843e+002
1.203533e+003, 1.318105e+002
1.204015e+003, 1.320136e+002
1.204497e+003, 1.324688e+002
1.204980e+003, 1.327254e+002
1.205462e+003, 1.326210e+002
1.205944e+003, 1.325886e+002
1.206426e+003, 1.327032e+002
1.206908e+003, 1.327362e+002
1.207390e+003, 1.323283e+002
1.207872e+003, 1.317964e+002
1.208354e+003, 1.315093e+002
1.208837e+003, 1.314670e+002
1.209319e+003, 1.316134e+002
1.209801e+003, 1.320594e+002
1.210283e+003, 1.323232e+002
1.210765e+003, 1.323051e+002
1.211247e+003, 1.322688e+002
1.211729e+003, 1.325013e+002
1.212211e+003, 1.328726e+002
1.212693e+003, 1.333987e+002
1.213176e+003, 1.339648e+002
1.213658e+003, 1.338529e+002
1.214140e+003, 1.326773e+002
1.214622e+003, 1.319487e+002
1.215104e+003, 1.319647e+002
1.215586e+003, 1.321355e+002
1.216068e+003, 1.317364e+002
1.216550e+003, 1.311866e+002
1.217032e+003, 1.309534e+002
1.217515e+003, 1.310621e+002
1.217997e+003, 1.314417e+002
1.218479e+003, 1.322653e+002
1.218961e+003, 1.326628e+002
1.219443e+003, 1.324270e+002
1.219925e+003, 1.319967e+002
1.220407e+003, 1.317158e+002
1.220889e+003, 1.316139e+002
1.221372e+003, 1.318286e+002
1.221854e+003, 1.323078e+002
1.222336e+003, 1.325466e+002
1.222818e+003, 1.324736e+002
1.223300e+003, 1.323641e+002
1.223782e+003, 1.322596e+002
1.224264e+003, 1.321803e+002
1.224746e+003, 1.321421e+002
1.225229e+003, 1.321458e+002
1.225711e+003, 1.322552e+002
1.226193e+003, 1.324380e+002
1.226675e+003, 1.323574e+002
1.227157e+003, 1.319407e+002
1.227639e+003, 1.316510e+002
1.228121e+003, 1.315923e+002
1.228603e+003, 1.316610e+002
1.229085e+003, 1.317542e+002
1.229568e+003, 1.319154e+002
1.230050e+003, 1.323323e+002
1.230532e+003, 1.329195e+002
1.231014e+003, 1.328943e+002
1.231496e+003, 1.321753e+002
1.231978e+003, 1.315387e+002
1.232460e+003, 1.311439e+002
1.232942e+003, 1.309595e+002
1.233424e+003, 1.310585e+002
1.233907e+003, 1.312657e+002
1.234389e+003, 1.315186e+002
1.234871e+003, 1.317582e+002
1.235353e+003, 1.315405e+002
1.235835e+003, 1.308275e+002
1.236317e+003, 1.306868e+002
1.236799e+003, 1.314939e+002
1.237281e+003, 1.322653e+002
1.237764e+003, 1.319718e+002
1.238246e+003, 1.314761e+002
1.238728e+003, 1.315849e+002
1.239210e+003, 1.321049e+002
1.239692e+003, 1.320777e+002
1.240174e+003, 1.315327e+002
1.240656e+003, 1.312656e+002
1.241138e+003, 1.315065e+002
1.241620e+003, 1.318082e+002
1.242103e+003, 1.317749e+002
1.242585e+003, 1.317563e+002
1.243067e+003, 1.321040e+002
1.243549e+003, 1.326245e+002
1.244031e+003, 1.324503e+002
1.244513e+003, 1.316966e+002
1.244995e+003, 1.313324e+002
1.245477e+003, 1.316285e+002
1.245959e+003, 1.320210e+002
1.246442e+003, 1.323040e+002
1.246924e+003, 1.324241e+002
1.247406e+003, 1.323035e+002
1.247888e+003, 1.320559e+002
1.248370e+003, 1.320359e+002
1.248852e+003, 1.322066e+002
1.249334e+003, 1.324476e+002
1.249816e+003, 1.327587e+002
1.250299e+003, 1.329469e+002
1.250781e+003, 1.327543e+002
1.251263e+003, 1.326342e+002
1.251745e+003, 1.328665e+002
1.252227e+003, 1.331967e+002
1.252709e+003, 1.328557e+002
1.253191e+003, 1.320981e+002
1.253673e+003, 1.316431e+002
1.254156e+003, 1.316466e+002
1.254638e+003, 1.318857e+002
1.255120e+003, 1.326090e+002
1.255602e+003, 1.330503e+002
1.256084e+003, 1.328499e+002
1.256566e+003, 1.323643e+002
1.257048e+003, 1.322493e+002
1.257530e+003, 1.324083e+002
1.258012e+003, 1.327289e+002
1.258495e+003, 1.332346e+002
1.258977e+003, 1.333727e+002
1.259459e+003, 1.328689e+002
1.259941e+003, 1.324794e+002
1.260423e+003, 1.324675e+002
1.260905e+003, 1.326355e+002
1.261387e+003, 1.327304e+002
1.261869e+003, 1.327691e+002
1.262351e+003, 1.327460e+002
1.262834e+003, 1.326538e+002
1.263316e+003, 1.327128e+002
1.263798e+003, 1.329776e+002
1.264280e+003, 1.332370e+002
1.264762e+003, 1.334481e+002
1.265244e+003, 1.335699e+002
1.265726e+003, 1.335049e+002
1.266208e+003, 1.333569e+002
1.266691e+003, 1.332350e+002
1.267173e+003, 1.331500e+002
1.267655e+003, 1.330567e+002
1.268137e+003, 1.329466e+002
1.268619e+003, 1.329082e+002
1.269101e+003, 1.329863e+002
1.269583e+003, 1.330428e+002
1.270065e+003, 1.329467e+002
1.270547e+003, 1.327687e+002
1.271030e+003, 1.324889e+002
1.271512e+003, 1.321766e+002
1.271994e+003, 1.322025e+002
1.272476e+003, 1.325570e+002
1.272958e+003, 1.327432e+002
1.273440e+003, 1.326272e+002
1.273922e+003, 1.325203e+002
1.274404e+003, 1.327005e+002
1.274886e+003, 1.329068e+002
1.275369e+003, 1.329766e+002
1.275851e+003, 1.329619e+002
1.276333e+003, 1.330302e+002
1.276815e+003, 1.331539e+002
1.277297e+003, 1.331657e+002
1.277779e+003, 1.330250e+002
1.278261e+003, 1.329236e+002
1.278743e+003, 1.329815e+002
1.279226e+003, 1.330736e+002
1.279708e+003, 1.331573e+002
1.280190e+003, 1.332369e+002
1.280672e+003, 1.333579e+002
1.281154e+003, 1.334774e+002
1.281636e+003, 1.334953e+002
1.282118e+003, 1.333965e+002
1.282600e+003, 1.331880e+002
1.283083e+003, 1.326620e+002
1.283565e+003, 1.324065e+002
1.284047e+003, 1.326020e+002
1.284529e+003, 1.330134e+002
1.285011e+003, 1.334725e+002
1.285493e+003, 1.338385e+002
1.285975e+003, 1.337991e+002
1.286457e+003, 1.333659e+002
1.286939e+003, 1.331242e+002
1.287422e+003, 1.332088e+002
1.287904e+003, 1.331538e+002
1.288386e+003, 1.328155e+002
1.288868e+003, 1.325936e+002
1.289350e+003, 1.332135e+002
1.289832e+003, 1.339362e+002
1.290314e+003, 1.339133e+002
1.290796e+003, 1.332688e+002
1.291278e+003, 1.328704e+002
1.291761e+003, 1.327189e+002
1.292243e+003, 1.328174e+002
1.292725e+003, 1.331778e+002
1.293207e+003, 1.335846e+002
1.293689e+003, 1.340134e+002
1.294171e+003, 1.342758e+002
1.294653e+003, 1.340826e+002
1.295135e+003, 1.337084e+002
1.295618e+003, 1.336612e+002
1.296100e+003, 1.338904e+002
1.296582e+003, 1.338232e+002
1.297064e+003, 1.334448e+002
1.297546e+003, 1.332694e+002
1.298028e+003, 1.338941e+002
1.298510e+003, 1.343047e+002
1.298992e+003, 1.341035e+002
1.299474e+003, 1.337119e+002
1.299957e+003, 1.337043e+002
1.300439e+003, 1.339500e+002
1.300921e+003, 1.339608e+002
1.301403e+003, 1.337998e+002
1.301885e+003, 1.339486e+002
1.302367e+003, 1.343481e+002
##END=



