##NAMES=Stottite
##RRUFFID=R120089
##IDEAL CHEMISTRY=Fe^2+^Ge^4+^(OH)_6_
##LOCALITY=Tsumeb, Namibia
##OWNER=RRUFF
##SOURCE=William W Pinch
##DESCRIPTION=Yellow to red gemmy crystals and fragments associated with chalcocite R120090, siderite and tennantite
##STATUS=The identification of this mineral has been confirmed only by single crystal X-ray diffraction.
##URL=rruff.info/R120089
9.112140e+001, 0.000000e+000
9.160352e+001, 8.171413e+001
9.208563e+001, 8.132805e+001
9.256775e+001, 8.127792e+001
9.304987e+001, 8.170738e+001
9.353198e+001, 8.230217e+001
9.401410e+001, 8.203646e+001
9.449622e+001, 8.095372e+001
9.497833e+001, 7.941873e+001
9.546045e+001, 7.771275e+001
9.594257e+001, 7.583060e+001
9.642468e+001, 7.398258e+001
9.690680e+001, 7.193841e+001
9.738892e+001, 7.020472e+001
9.787103e+001, 6.911122e+001
9.835315e+001, 6.846009e+001
9.883527e+001, 6.777531e+001
9.931738e+001, 6.674175e+001
9.979950e+001, 6.523137e+001
1.002816e+002, 6.388171e+001
1.007637e+002, 6.245256e+001
1.012458e+002, 6.124580e+001
1.017280e+002, 6.062249e+001
1.022101e+002, 6.068745e+001
1.026922e+002, 6.107749e+001
1.031743e+002, 6.128501e+001
1.036564e+002, 6.134539e+001
1.041385e+002, 6.123383e+001
1.046207e+002, 6.076861e+001
1.051028e+002, 6.007984e+001
1.055849e+002, 5.964990e+001
1.060670e+002, 5.982679e+001
1.065491e+002, 6.011298e+001
1.070313e+002, 5.997891e+001
1.075134e+002, 5.936831e+001
1.079955e+002, 5.852535e+001
1.084776e+002, 5.764477e+001
1.089597e+002, 5.669550e+001
1.094418e+002, 5.583447e+001
1.099240e+002, 5.507160e+001
1.104061e+002, 5.442149e+001
1.108882e+002, 5.395276e+001
1.113703e+002, 5.370253e+001
1.118524e+002, 5.356469e+001
1.123345e+002, 5.322571e+001
1.128167e+002, 5.225004e+001
1.132988e+002, 5.167766e+001
1.137809e+002, 5.197073e+001
1.142630e+002, 5.266193e+001
1.147451e+002, 5.314361e+001
1.152272e+002, 5.301689e+001
1.157094e+002, 5.232066e+001
1.161915e+002, 5.181487e+001
1.166736e+002, 5.159225e+001
1.171557e+002, 5.142846e+001
1.176378e+002, 5.121230e+001
1.181199e+002, 5.097472e+001
1.186021e+002, 5.084542e+001
1.190842e+002, 5.095108e+001
1.195663e+002, 5.131740e+001
1.200484e+002, 5.164685e+001
1.205305e+002, 5.198172e+001
1.210126e+002, 5.225769e+001
1.214948e+002, 5.244409e+001
1.219769e+002, 5.254452e+001
1.224590e+002, 5.249000e+001
1.229411e+002, 5.202324e+001
1.234232e+002, 5.127618e+001
1.239053e+002, 5.073536e+001
1.243875e+002, 5.073298e+001
1.248696e+002, 5.107238e+001
1.253517e+002, 5.118144e+001
1.258338e+002, 5.083262e+001
1.263159e+002, 5.046947e+001
1.267980e+002, 5.036798e+001
1.272802e+002, 5.051183e+001
1.277623e+002, 5.081459e+001
1.282444e+002, 5.133678e+001
1.287265e+002, 5.212970e+001
1.292086e+002, 5.257426e+001
1.296907e+002, 5.231487e+001
1.301729e+002, 5.190173e+001
1.306550e+002, 5.154168e+001
1.311371e+002, 5.127439e+001
1.316192e+002, 5.104155e+001
1.321013e+002, 5.075182e+001
1.325834e+002, 5.031523e+001
1.330656e+002, 5.000426e+001
1.335477e+002, 4.989109e+001
1.340298e+002, 4.984098e+001
1.345119e+002, 4.975904e+001
1.349940e+002, 4.961219e+001
1.354761e+002, 4.942076e+001
1.359583e+002, 4.922980e+001
1.364404e+002, 4.886695e+001
1.369225e+002, 4.872975e+001
1.374046e+002, 4.897698e+001
1.378867e+002, 4.943620e+001
1.383688e+002, 4.985951e+001
1.388510e+002, 5.012878e+001
1.393331e+002, 5.030349e+001
1.398152e+002, 5.059168e+001
1.402973e+002, 5.118687e+001
1.407794e+002, 5.160905e+001
1.412615e+002, 5.157022e+001
1.417437e+002, 5.115017e+001
1.422258e+002, 5.069498e+001
1.427079e+002, 5.033297e+001
1.431900e+002, 5.008789e+001
1.436721e+002, 4.997207e+001
1.441542e+002, 5.004304e+001
1.446364e+002, 5.017405e+001
1.451185e+002, 5.026701e+001
1.456006e+002, 5.032908e+001
1.460827e+002, 5.030825e+001
1.465648e+002, 5.009997e+001
1.470469e+002, 4.981718e+001
1.475291e+002, 4.953867e+001
1.480112e+002, 4.922390e+001
1.484933e+002, 4.900044e+001
1.489754e+002, 4.922991e+001
1.494575e+002, 5.030877e+001
1.499396e+002, 5.115652e+001
1.504218e+002, 5.131201e+001
1.509039e+002, 5.109771e+001
1.513860e+002, 5.090649e+001
1.518681e+002, 5.093987e+001
1.523502e+002, 5.120375e+001
1.528323e+002, 5.174043e+001
1.533145e+002, 5.320855e+001
1.537966e+002, 5.430635e+001
1.542787e+002, 5.452509e+001
1.547608e+002, 5.416265e+001
1.552429e+002, 5.382972e+001
1.557250e+002, 5.401635e+001
1.562072e+002, 5.476709e+001
1.566893e+002, 5.537854e+001
1.571714e+002, 5.566603e+001
1.576535e+002, 5.601249e+001
1.581356e+002, 5.663574e+001
1.586177e+002, 5.749755e+001
1.590999e+002, 5.838175e+001
1.595820e+002, 5.908207e+001
1.600641e+002, 5.956174e+001
1.605462e+002, 6.011160e+001
1.610283e+002, 6.075117e+001
1.615104e+002, 6.143960e+001
1.619926e+002, 6.221881e+001
1.624747e+002, 6.308723e+001
1.629568e+002, 6.383685e+001
1.634389e+002, 6.409543e+001
1.639210e+002, 6.390090e+001
1.644031e+002, 6.404935e+001
1.648853e+002, 6.477729e+001
1.653674e+002, 6.589741e+001
1.658495e+002, 6.720907e+001
1.663316e+002, 6.878628e+001
1.668137e+002, 7.028451e+001
1.672958e+002, 7.125784e+001
1.677780e+002, 7.184071e+001
1.682601e+002, 7.252813e+001
1.687422e+002, 7.355975e+001
1.692243e+002, 7.488850e+001
1.697064e+002, 7.632707e+001
1.701885e+002, 7.794767e+001
1.706707e+002, 7.955927e+001
1.711528e+002, 8.105235e+001
1.716349e+002, 8.243555e+001
1.721170e+002, 8.376648e+001
1.725991e+002, 8.508639e+001
1.730812e+002, 8.639621e+001
1.735634e+002, 8.767718e+001
1.740455e+002, 8.920492e+001
1.745276e+002, 9.046626e+001
1.750097e+002, 9.109398e+001
1.754918e+002, 9.116687e+001
1.759739e+002, 9.109881e+001
1.764561e+002, 9.141284e+001
1.769382e+002, 9.237572e+001
1.774203e+002, 9.279685e+001
1.779024e+002, 9.236520e+001
1.783845e+002, 9.170396e+001
1.788666e+002, 9.105747e+001
1.793488e+002, 9.049902e+001
1.798309e+002, 9.001704e+001
1.803130e+002, 8.960194e+001
1.807951e+002, 8.924195e+001
1.812772e+002, 8.900047e+001
1.817593e+002, 8.889912e+001
1.822415e+002, 8.888403e+001
1.827236e+002, 8.892026e+001
1.832057e+002, 8.899854e+001
1.836878e+002, 8.913242e+001
1.841699e+002, 8.935670e+001
1.846520e+002, 8.980630e+001
1.851342e+002, 9.005921e+001
1.856163e+002, 9.016088e+001
1.860984e+002, 9.004086e+001
1.865805e+002, 8.959183e+001
1.870626e+002, 8.877475e+001
1.875447e+002, 8.771327e+001
1.880269e+002, 8.662967e+001
1.885090e+002, 8.562420e+001
1.889911e+002, 8.425410e+001
1.894732e+002, 8.209810e+001
1.899553e+002, 7.956018e+001
1.904374e+002, 7.734041e+001
1.909196e+002, 7.560757e+001
1.914017e+002, 7.428957e+001
1.918838e+002, 7.330045e+001
1.923659e+002, 7.263696e+001
1.928480e+002, 7.209164e+001
1.933301e+002, 7.156642e+001
1.938123e+002, 7.108244e+001
1.942944e+002, 7.074217e+001
1.947765e+002, 7.068587e+001
1.952586e+002, 7.063946e+001
1.957407e+002, 7.030248e+001
1.962228e+002, 6.967141e+001
1.967050e+002, 6.900131e+001
1.971871e+002, 6.840755e+001
1.976692e+002, 6.789584e+001
1.981513e+002, 6.762343e+001
1.986334e+002, 6.801727e+001
1.991155e+002, 6.831429e+001
1.995977e+002, 6.787770e+001
2.000798e+002, 6.670718e+001
2.005619e+002, 6.546020e+001
2.010440e+002, 6.484494e+001
2.015261e+002, 6.498156e+001
2.020082e+002, 6.492596e+001
2.024904e+002, 6.423327e+001
2.029725e+002, 6.355260e+001
2.034546e+002, 6.328150e+001
2.039367e+002, 6.343265e+001
2.044188e+002, 6.366795e+001
2.049009e+002, 6.356754e+001
2.053831e+002, 6.303734e+001
2.058652e+002, 6.244693e+001
2.063473e+002, 6.171367e+001
2.068294e+002, 6.100144e+001
2.073115e+002, 6.043518e+001
2.077936e+002, 6.002152e+001
2.082758e+002, 5.965234e+001
2.087579e+002, 5.917231e+001
2.092400e+002, 5.849542e+001
2.097221e+002, 5.789750e+001
2.102042e+002, 5.732584e+001
2.106863e+002, 5.685310e+001
2.111685e+002, 5.651925e+001
2.116506e+002, 5.633498e+001
2.121327e+002, 5.630005e+001
2.126148e+002, 5.644490e+001
2.130969e+002, 5.702235e+001
2.135790e+002, 5.720604e+001
2.140612e+002, 5.661549e+001
2.145433e+002, 5.589637e+001
2.150254e+002, 5.566884e+001
2.155075e+002, 5.604675e+001
2.159896e+002, 5.651720e+001
2.164717e+002, 5.632475e+001
2.169539e+002, 5.505351e+001
2.174360e+002, 5.406939e+001
2.179181e+002, 5.354581e+001
2.184002e+002, 5.324116e+001
2.188823e+002, 5.293546e+001
2.193644e+002, 5.257714e+001
2.198466e+002, 5.220139e+001
2.203287e+002, 5.183813e+001
2.208108e+002, 5.146679e+001
2.212929e+002, 5.121505e+001
2.217750e+002, 5.124876e+001
2.222571e+002, 5.135518e+001
2.227393e+002, 5.116937e+001
2.232214e+002, 5.055969e+001
2.237035e+002, 4.999612e+001
2.241856e+002, 5.025299e+001
2.246677e+002, 5.125996e+001
2.251498e+002, 5.202275e+001
2.256320e+002, 5.210271e+001
2.261141e+002, 5.182698e+001
2.265962e+002, 5.172599e+001
2.270783e+002, 5.190364e+001
2.275604e+002, 5.220252e+001
2.280425e+002, 5.246434e+001
2.285247e+002, 5.270417e+001
2.290068e+002, 5.302168e+001
2.294889e+002, 5.357054e+001
2.299710e+002, 5.421145e+001
2.304531e+002, 5.463039e+001
2.309352e+002, 5.476104e+001
2.314174e+002, 5.472876e+001
2.318995e+002, 5.461956e+001
2.323816e+002, 5.443842e+001
2.328637e+002, 5.418394e+001
2.333458e+002, 5.380308e+001
2.338279e+002, 5.334304e+001
2.343101e+002, 5.294134e+001
2.347922e+002, 5.258319e+001
2.352743e+002, 5.233178e+001
2.357564e+002, 5.219591e+001
2.362385e+002, 5.217331e+001
2.367206e+002, 5.226527e+001
2.372028e+002, 5.247039e+001
2.376849e+002, 5.279039e+001
2.381670e+002, 5.327531e+001
2.386491e+002, 5.414712e+001
2.391312e+002, 5.483863e+001
2.396133e+002, 5.502304e+001
2.400955e+002, 5.491203e+001
2.405776e+002, 5.484519e+001
2.410597e+002, 5.497705e+001
2.415418e+002, 5.532302e+001
2.420239e+002, 5.599136e+001
2.425060e+002, 5.733541e+001
2.429882e+002, 5.852481e+001
2.434703e+002, 5.904107e+001
2.439524e+002, 5.931898e+001
2.444345e+002, 6.002855e+001
2.449166e+002, 6.160809e+001
2.453987e+002, 6.385121e+001
2.458809e+002, 6.574834e+001
2.463630e+002, 6.701356e+001
2.468451e+002, 6.827258e+001
2.473272e+002, 6.962901e+001
2.478093e+002, 7.106334e+001
2.482914e+002, 7.253698e+001
2.487736e+002, 7.403196e+001
2.492557e+002, 7.554887e+001
2.497378e+002, 7.706606e+001
2.502199e+002, 7.844337e+001
2.507020e+002, 8.002286e+001
2.511841e+002, 8.213093e+001
2.516663e+002, 8.435960e+001
2.521484e+002, 8.613945e+001
2.526305e+002, 8.719664e+001
2.531126e+002, 8.780862e+001
2.535947e+002, 8.887685e+001
2.540768e+002, 9.055150e+001
2.545590e+002, 9.257124e+001
2.550411e+002, 9.511486e+001
2.555232e+002, 9.791405e+001
2.560053e+002, 1.007209e+002
2.564874e+002, 1.034204e+002
2.569695e+002, 1.060448e+002
2.574517e+002, 1.086658e+002
2.579338e+002, 1.111739e+002
2.584159e+002, 1.138357e+002
2.588980e+002, 1.166271e+002
2.593801e+002, 1.195883e+002
2.598622e+002, 1.227667e+002
2.603444e+002, 1.261782e+002
2.608265e+002, 1.298432e+002
2.613086e+002, 1.338021e+002
2.617907e+002, 1.383286e+002
2.622728e+002, 1.427861e+002
2.627549e+002, 1.472250e+002
2.632371e+002, 1.515835e+002
2.637192e+002, 1.561072e+002
2.642013e+002, 1.608257e+002
2.646834e+002, 1.649075e+002
2.651655e+002, 1.671804e+002
2.656476e+002, 1.674811e+002
2.661298e+002, 1.657268e+002
2.666119e+002, 1.610980e+002
2.670940e+002, 1.548576e+002
2.675761e+002, 1.478736e+002
2.680582e+002, 1.403439e+002
2.685403e+002, 1.326725e+002
2.690225e+002, 1.251884e+002
2.695046e+002, 1.178087e+002
2.699867e+002, 1.114507e+002
2.704688e+002, 1.060921e+002
2.709509e+002, 1.018154e+002
2.714330e+002, 9.883406e+001
2.719152e+002, 9.714200e+001
2.723973e+002, 9.628061e+001
2.728794e+002, 9.584966e+001
2.733615e+002, 9.591904e+001
2.738436e+002, 9.669514e+001
2.743257e+002, 9.828541e+001
2.748079e+002, 1.005126e+002
2.752900e+002, 1.033002e+002
2.757721e+002, 1.066343e+002
2.762542e+002, 1.103401e+002
2.767363e+002, 1.143246e+002
2.772184e+002, 1.186142e+002
2.777006e+002, 1.232419e+002
2.781827e+002, 1.283334e+002
2.786648e+002, 1.336306e+002
2.791469e+002, 1.391703e+002
2.796290e+002, 1.448573e+002
2.801111e+002, 1.500590e+002
2.805933e+002, 1.542267e+002
2.810754e+002, 1.576365e+002
2.815575e+002, 1.614279e+002
2.820396e+002, 1.658143e+002
2.825217e+002, 1.703051e+002
2.830038e+002, 1.744959e+002
2.834860e+002, 1.784845e+002
2.839681e+002, 1.828043e+002
2.844502e+002, 1.876483e+002
2.849323e+002, 1.930581e+002
2.854144e+002, 1.989301e+002
2.858965e+002, 2.051550e+002
2.863787e+002, 2.120268e+002
2.868608e+002, 2.196898e+002
2.873429e+002, 2.281101e+002
2.878250e+002, 2.372432e+002
2.883071e+002, 2.469561e+002
2.887892e+002, 2.576138e+002
2.892714e+002, 2.696972e+002
2.897535e+002, 2.831880e+002
2.902356e+002, 2.974198e+002
2.907177e+002, 3.120107e+002
2.911998e+002, 3.271074e+002
2.916819e+002, 3.433464e+002
2.921641e+002, 3.610494e+002
2.926462e+002, 3.796620e+002
2.931283e+002, 3.991150e+002
2.936104e+002, 4.192280e+002
2.940925e+002, 4.385559e+002
2.945746e+002, 4.578195e+002
2.950568e+002, 4.756290e+002
2.955389e+002, 4.898158e+002
2.960210e+002, 5.007939e+002
2.965031e+002, 5.060668e+002
2.969852e+002, 5.024276e+002
2.974673e+002, 4.914849e+002
2.979495e+002, 4.754411e+002
2.984316e+002, 4.541167e+002
2.989137e+002, 4.285011e+002
2.993958e+002, 3.988159e+002
2.998779e+002, 3.640952e+002
3.003600e+002, 3.300322e+002
3.008422e+002, 3.001915e+002
3.013243e+002, 2.737217e+002
3.018064e+002, 2.501078e+002
3.022885e+002, 2.293413e+002
3.027706e+002, 2.109818e+002
3.032527e+002, 1.946183e+002
3.037349e+002, 1.802169e+002
3.042170e+002, 1.673961e+002
3.046991e+002, 1.564043e+002
3.051812e+002, 1.468183e+002
3.056633e+002, 1.380097e+002
3.061454e+002, 1.298647e+002
3.066276e+002, 1.226901e+002
3.071097e+002, 1.170265e+002
3.075918e+002, 1.128141e+002
3.080739e+002, 1.087948e+002
3.085560e+002, 1.043879e+002
3.090381e+002, 1.002702e+002
3.095203e+002, 9.716914e+001
3.100024e+002, 9.514240e+001
3.104845e+002, 9.358080e+001
3.109666e+002, 9.207469e+001
3.114487e+002, 9.068058e+001
3.119308e+002, 8.975139e+001
3.124130e+002, 8.956883e+001
3.128951e+002, 8.957926e+001
3.133772e+002, 8.913953e+001
3.138593e+002, 8.834348e+001
3.143414e+002, 8.785977e+001
3.148235e+002, 8.825597e+001
3.153057e+002, 8.919930e+001
3.157878e+002, 8.980058e+001
3.162699e+002, 8.986807e+001
3.167520e+002, 8.987584e+001
3.172341e+002, 9.019450e+001
3.177162e+002, 9.071604e+001
3.181984e+002, 9.121786e+001
3.186805e+002, 9.144347e+001
3.191626e+002, 9.168398e+001
3.196447e+002, 9.242793e+001
3.201268e+002, 9.373257e+001
3.206089e+002, 9.524940e+001
3.210911e+002, 9.674220e+001
3.215732e+002, 9.836031e+001
3.220553e+002, 1.003200e+002
3.225374e+002, 1.026671e+002
3.230195e+002, 1.053799e+002
3.235016e+002, 1.084615e+002
3.239838e+002, 1.119306e+002
3.244659e+002, 1.155939e+002
3.249480e+002, 1.192679e+002
3.254301e+002, 1.232073e+002
3.259122e+002, 1.276341e+002
3.263943e+002, 1.326259e+002
3.268765e+002, 1.379638e+002
3.273586e+002, 1.437582e+002
3.278407e+002, 1.498920e+002
3.283228e+002, 1.556407e+002
3.288049e+002, 1.610266e+002
3.292870e+002, 1.656501e+002
3.297692e+002, 1.692911e+002
3.302513e+002, 1.719774e+002
3.307334e+002, 1.736493e+002
3.312155e+002, 1.745122e+002
3.316976e+002, 1.743082e+002
3.321797e+002, 1.723967e+002
3.326619e+002, 1.686223e+002
3.331440e+002, 1.633713e+002
3.336261e+002, 1.560864e+002
3.341082e+002, 1.475172e+002
3.345903e+002, 1.392923e+002
3.350724e+002, 1.318846e+002
3.355546e+002, 1.251513e+002
3.360367e+002, 1.188136e+002
3.365188e+002, 1.128492e+002
3.370009e+002, 1.077883e+002
3.374830e+002, 1.041999e+002
3.379651e+002, 1.017100e+002
3.384473e+002, 9.957273e+001
3.389294e+002, 9.763261e+001
3.394115e+002, 9.616022e+001
3.398936e+002, 9.565470e+001
3.403757e+002, 9.597482e+001
3.408578e+002, 9.604541e+001
3.413400e+002, 9.533221e+001
3.418221e+002, 9.431416e+001
3.423042e+002, 9.366232e+001
3.427863e+002, 9.335591e+001
3.432684e+002, 9.342744e+001
3.437505e+002, 9.426954e+001
3.442327e+002, 9.548891e+001
3.447148e+002, 9.604326e+001
3.451969e+002, 9.555826e+001
3.456790e+002, 9.478902e+001
3.461611e+002, 9.465656e+001
3.466432e+002, 9.505290e+001
3.471254e+002, 9.534487e+001
3.476075e+002, 9.528763e+001
3.480896e+002, 9.507761e+001
3.485717e+002, 9.490633e+001
3.490538e+002, 9.478514e+001
3.495359e+002, 9.480206e+001
3.500181e+002, 9.503396e+001
3.505002e+002, 9.547530e+001
3.509823e+002, 9.602676e+001
3.514644e+002, 9.689894e+001
3.519465e+002, 9.769261e+001
3.524286e+002, 9.796861e+001
3.529108e+002, 9.786189e+001
3.533929e+002, 9.805881e+001
3.538750e+002, 9.897288e+001
3.543571e+002, 1.003161e+002
3.548392e+002, 1.013635e+002
3.553214e+002, 1.020319e+002
3.558035e+002, 1.026468e+002
3.562856e+002, 1.033590e+002
3.567677e+002, 1.040866e+002
3.572498e+002, 1.047345e+002
3.577319e+002, 1.053022e+002
3.582141e+002, 1.056422e+002
3.586962e+002, 1.055313e+002
3.591783e+002, 1.049478e+002
3.596604e+002, 1.040706e+002
3.601425e+002, 1.028594e+002
3.606246e+002, 1.013947e+002
3.611068e+002, 9.976319e+001
3.615889e+002, 9.795914e+001
3.620710e+002, 9.593346e+001
3.625531e+002, 9.359715e+001
3.630352e+002, 9.094547e+001
3.635173e+002, 8.842857e+001
3.639995e+002, 8.607939e+001
3.644816e+002, 8.380446e+001
3.649637e+002, 8.157632e+001
3.654458e+002, 7.939355e+001
3.659279e+002, 7.721743e+001
3.664100e+002, 7.499974e+001
3.668922e+002, 7.284386e+001
3.673743e+002, 7.113853e+001
3.678564e+002, 6.989082e+001
3.683385e+002, 6.903586e+001
3.688206e+002, 6.895431e+001
3.693027e+002, 6.909724e+001
3.697849e+002, 6.876161e+001
3.702670e+002, 6.776985e+001
3.707491e+002, 6.656687e+001
3.712312e+002, 6.576657e+001
3.717133e+002, 6.551865e+001
3.721954e+002, 6.527791e+001
3.726776e+002, 6.508169e+001
3.731597e+002, 6.486269e+001
3.736418e+002, 6.455923e+001
3.741239e+002, 6.418670e+001
3.746060e+002, 6.383003e+001
3.750881e+002, 6.357232e+001
3.755703e+002, 6.340527e+001
3.760524e+002, 6.300606e+001
3.765345e+002, 6.209393e+001
3.770166e+002, 6.127461e+001
3.774987e+002, 6.071859e+001
3.779808e+002, 6.032894e+001
3.784630e+002, 5.993571e+001
3.789451e+002, 5.945988e+001
3.794272e+002, 5.898688e+001
3.799093e+002, 5.872117e+001
3.803914e+002, 5.873810e+001
3.808735e+002, 5.885888e+001
3.813557e+002, 5.921090e+001
3.818378e+002, 5.955762e+001
3.823199e+002, 5.964151e+001
3.828020e+002, 5.947698e+001
3.832841e+002, 5.936980e+001
3.837662e+002, 5.972703e+001
3.842484e+002, 6.066749e+001
3.847305e+002, 6.124371e+001
3.852126e+002, 6.104103e+001
3.856947e+002, 6.086040e+001
3.861768e+002, 6.102047e+001
3.866589e+002, 6.139121e+001
3.871411e+002, 6.165118e+001
3.876232e+002, 6.156786e+001
3.881053e+002, 6.129606e+001
3.885874e+002, 6.142402e+001
3.890695e+002, 6.220834e+001
3.895516e+002, 6.291492e+001
3.900338e+002, 6.317645e+001
3.905159e+002, 6.340355e+001
3.909980e+002, 6.407847e+001
3.914801e+002, 6.532745e+001
3.919622e+002, 6.662415e+001
3.924443e+002, 6.726371e+001
3.929265e+002, 6.716911e+001
3.934086e+002, 6.715414e+001
3.938907e+002, 6.727031e+001
3.943728e+002, 6.754742e+001
3.948549e+002, 6.799289e+001
3.953370e+002, 6.860587e+001
3.958192e+002, 6.938187e+001
3.963013e+002, 7.041890e+001
3.967834e+002, 7.161671e+001
3.972655e+002, 7.259249e+001
3.977476e+002, 7.322503e+001
3.982297e+002, 7.394662e+001
3.987119e+002, 7.519064e+001
3.991940e+002, 7.659892e+001
3.996761e+002, 7.765616e+001
4.001582e+002, 7.810526e+001
4.006403e+002, 7.845845e+001
4.011224e+002, 7.926045e+001
4.016046e+002, 8.049236e+001
4.020867e+002, 8.171746e+001
4.025688e+002, 8.275679e+001
4.030509e+002, 8.379709e+001
4.035330e+002, 8.512683e+001
4.040151e+002, 8.675591e+001
4.044973e+002, 8.822847e+001
4.049794e+002, 8.917232e+001
4.054615e+002, 8.987889e+001
4.059436e+002, 9.084194e+001
4.064257e+002, 9.211686e+001
4.069078e+002, 9.361208e+001
4.073900e+002, 9.536669e+001
4.078721e+002, 9.729958e+001
4.083542e+002, 9.902087e+001
4.088363e+002, 1.002702e+002
4.093184e+002, 1.015057e+002
4.098005e+002, 1.030464e+002
4.102827e+002, 1.048215e+002
4.107648e+002, 1.065584e+002
4.112469e+002, 1.081333e+002
4.117290e+002, 1.096073e+002
4.122111e+002, 1.111130e+002
4.126932e+002, 1.126807e+002
4.131754e+002, 1.141952e+002
4.136575e+002, 1.157014e+002
4.141396e+002, 1.171079e+002
4.146217e+002, 1.183272e+002
4.151038e+002, 1.193409e+002
4.155859e+002, 1.201986e+002
4.160681e+002, 1.209716e+002
4.165502e+002, 1.216798e+002
4.170323e+002, 1.219814e+002
4.175144e+002, 1.217223e+002
4.179965e+002, 1.212924e+002
4.184786e+002, 1.208175e+002
4.189608e+002, 1.202917e+002
4.194429e+002, 1.196716e+002
4.199250e+002, 1.189344e+002
4.204071e+002, 1.180995e+002
4.208892e+002, 1.172099e+002
4.213713e+002, 1.161501e+002
4.218535e+002, 1.152257e+002
4.223356e+002, 1.146841e+002
4.228177e+002, 1.141040e+002
4.232998e+002, 1.130975e+002
4.237819e+002, 1.116565e+002
4.242640e+002, 1.101153e+002
4.247462e+002, 1.087885e+002
4.252283e+002, 1.076708e+002
4.257104e+002, 1.067710e+002
4.261925e+002, 1.062167e+002
4.266746e+002, 1.057622e+002
4.271567e+002, 1.055295e+002
4.276389e+002, 1.053061e+002
4.281210e+002, 1.047541e+002
4.286031e+002, 1.036845e+002
4.290852e+002, 1.023184e+002
4.295673e+002, 1.010653e+002
4.300494e+002, 9.989851e+001
4.305316e+002, 9.893081e+001
4.310137e+002, 9.833308e+001
4.314958e+002, 9.786214e+001
4.319779e+002, 9.739277e+001
4.324600e+002, 9.690997e+001
4.329421e+002, 9.644454e+001
4.334243e+002, 9.610610e+001
4.339064e+002, 9.582323e+001
4.343885e+002, 9.524391e+001
4.348706e+002, 9.423833e+001
4.353527e+002, 9.319559e+001
4.358348e+002, 9.226144e+001
4.363170e+002, 9.147083e+001
4.367991e+002, 9.092360e+001
4.372812e+002, 9.075027e+001
4.377633e+002, 9.068208e+001
4.382454e+002, 9.050568e+001
4.387275e+002, 9.022310e+001
4.392097e+002, 8.983216e+001
4.396918e+002, 8.928076e+001
4.401739e+002, 8.869923e+001
4.406560e+002, 8.830052e+001
4.411381e+002, 8.808908e+001
4.416202e+002, 8.788224e+001
4.421024e+002, 8.762978e+001
4.425845e+002, 8.735641e+001
4.430666e+002, 8.707475e+001
4.435487e+002, 8.679038e+001
4.440308e+002, 8.653687e+001
4.445129e+002, 8.631399e+001
4.449951e+002, 8.614334e+001
4.454772e+002, 8.619511e+001
4.459593e+002, 8.682841e+001
4.464414e+002, 8.723536e+001
4.469235e+002, 8.711450e+001
4.474056e+002, 8.662994e+001
4.478878e+002, 8.598611e+001
4.483699e+002, 8.525804e+001
4.488520e+002, 8.450422e+001
4.493341e+002, 8.380623e+001
4.498162e+002, 8.316931e+001
4.502983e+002, 8.258813e+001
4.507805e+002, 8.228295e+001
4.512626e+002, 8.182657e+001
4.517447e+002, 8.090304e+001
4.522268e+002, 7.962995e+001
4.527089e+002, 7.834410e+001
4.531910e+002, 7.728028e+001
4.536732e+002, 7.637231e+001
4.541553e+002, 7.535568e+001
4.546374e+002, 7.422400e+001
4.551195e+002, 7.297910e+001
4.556016e+002, 7.181616e+001
4.560837e+002, 7.044373e+001
4.565659e+002, 6.845269e+001
4.570480e+002, 6.582545e+001
4.575301e+002, 6.321891e+001
4.580122e+002, 6.134713e+001
4.584943e+002, 6.018987e+001
4.589764e+002, 5.906651e+001
4.594586e+002, 5.801383e+001
4.599407e+002, 5.690751e+001
4.604228e+002, 5.562545e+001
4.609049e+002, 5.426475e+001
4.613870e+002, 5.300375e+001
4.618691e+002, 5.193303e+001
4.623513e+002, 5.094105e+001
4.628334e+002, 4.982611e+001
4.633155e+002, 4.860263e+001
4.637976e+002, 4.768438e+001
4.642797e+002, 4.735579e+001
4.647618e+002, 4.720462e+001
4.652440e+002, 4.665444e+001
4.657261e+002, 4.569667e+001
4.662082e+002, 4.486665e+001
4.666903e+002, 4.444854e+001
4.671724e+002, 4.419523e+001
4.676545e+002, 4.379850e+001
4.681367e+002, 4.324256e+001
4.686188e+002, 4.268666e+001
4.691009e+002, 4.224267e+001
4.695830e+002, 4.188800e+001
4.700651e+002, 4.149389e+001
4.705472e+002, 4.101186e+001
4.710294e+002, 4.056040e+001
4.715115e+002, 4.003366e+001
4.719936e+002, 3.961009e+001
4.724757e+002, 3.963208e+001
4.729578e+002, 4.015070e+001
4.734399e+002, 4.071713e+001
4.739221e+002, 4.076624e+001
4.744042e+002, 4.017301e+001
4.748863e+002, 3.978422e+001
4.753684e+002, 3.965887e+001
4.758505e+002, 3.964432e+001
4.763326e+002, 3.986292e+001
4.768148e+002, 4.011842e+001
4.772969e+002, 4.002125e+001
4.777790e+002, 3.936799e+001
4.782611e+002, 3.851990e+001
4.787432e+002, 3.833324e+001
4.792253e+002, 3.916304e+001
4.797075e+002, 3.964624e+001
4.801896e+002, 3.929319e+001
4.806717e+002, 3.883609e+001
4.811538e+002, 3.865947e+001
4.816359e+002, 3.875085e+001
4.821180e+002, 3.889130e+001
4.826002e+002, 3.894102e+001
4.830823e+002, 3.893023e+001
4.835644e+002, 3.896245e+001
4.840465e+002, 3.906879e+001
4.845286e+002, 3.909788e+001
4.850107e+002, 3.885622e+001
4.854929e+002, 3.856775e+001
4.859750e+002, 3.855251e+001
4.864571e+002, 3.891156e+001
4.869392e+002, 3.918377e+001
4.874213e+002, 3.897135e+001
4.879034e+002, 3.848732e+001
4.883856e+002, 3.829706e+001
4.888677e+002, 3.854176e+001
4.893498e+002, 3.862762e+001
4.898319e+002, 3.787191e+001
4.903140e+002, 3.638391e+001
4.907961e+002, 3.561138e+001
4.912783e+002, 3.604032e+001
4.917604e+002, 3.665513e+001
4.922425e+002, 3.719072e+001
4.927246e+002, 3.755207e+001
4.932067e+002, 3.750492e+001
4.936888e+002, 3.696764e+001
4.941710e+002, 3.625302e+001
4.946531e+002, 3.583834e+001
4.951352e+002, 3.577753e+001
4.956173e+002, 3.587862e+001
4.960994e+002, 3.629137e+001
4.965815e+002, 3.669623e+001
4.970637e+002, 3.706626e+001
4.975458e+002, 3.729606e+001
4.980279e+002, 3.713500e+001
4.985100e+002, 3.639983e+001
4.989921e+002, 3.540749e+001
4.994742e+002, 3.500976e+001
4.999564e+002, 3.552242e+001
5.004385e+002, 3.583119e+001
5.009206e+002, 3.542591e+001
5.014027e+002, 3.505112e+001
5.018848e+002, 3.526964e+001
5.023669e+002, 3.601064e+001
5.028491e+002, 3.670869e+001
5.033312e+002, 3.699868e+001
5.038133e+002, 3.696103e+001
5.042954e+002, 3.673771e+001
5.047775e+002, 3.626426e+001
5.052596e+002, 3.591343e+001
5.057418e+002, 3.585847e+001
5.062239e+002, 3.603836e+001
5.067060e+002, 3.643446e+001
5.071881e+002, 3.715452e+001
5.076702e+002, 3.762576e+001
5.081523e+002, 3.732520e+001
5.086345e+002, 3.666670e+001
5.091166e+002, 3.638103e+001
5.095987e+002, 3.657663e+001
5.100808e+002, 3.682482e+001
5.105629e+002, 3.673365e+001
5.110450e+002, 3.635860e+001
5.115272e+002, 3.633754e+001
5.120093e+002, 3.695718e+001
5.124914e+002, 3.753915e+001
5.129735e+002, 3.781754e+001
5.134556e+002, 3.797363e+001
5.139377e+002, 3.829229e+001
5.144199e+002, 3.883250e+001
5.149020e+002, 3.937921e+001
5.153841e+002, 3.964549e+001
5.158662e+002, 3.958573e+001
5.163483e+002, 3.955882e+001
5.168304e+002, 3.959348e+001
5.173126e+002, 3.963186e+001
5.177947e+002, 3.964156e+001
5.182768e+002, 3.965014e+001
5.187589e+002, 3.971550e+001
5.192410e+002, 3.986467e+001
5.197231e+002, 4.001345e+001
5.202053e+002, 4.002061e+001
5.206874e+002, 3.987355e+001
5.211695e+002, 3.975708e+001
5.216516e+002, 3.963037e+001
5.221337e+002, 3.963032e+001
5.226158e+002, 3.993566e+001
5.230980e+002, 4.043462e+001
5.235801e+002, 4.081067e+001
5.240622e+002, 4.098983e+001
5.245443e+002, 4.096070e+001
5.250264e+002, 4.049965e+001
5.255085e+002, 3.972516e+001
5.259907e+002, 3.940869e+001
5.264728e+002, 3.990597e+001
5.269549e+002, 4.078203e+001
5.274370e+002, 4.146929e+001
5.279191e+002, 4.200351e+001
5.284012e+002, 4.218892e+001
5.288834e+002, 4.161694e+001
5.293655e+002, 4.102317e+001
5.298476e+002, 4.097985e+001
5.303297e+002, 4.135870e+001
5.308118e+002, 4.169824e+001
5.312939e+002, 4.174664e+001
5.317761e+002, 4.162873e+001
5.322582e+002, 4.165748e+001
5.327403e+002, 4.186023e+001
5.332224e+002, 4.217078e+001
5.337045e+002, 4.291901e+001
5.341866e+002, 4.347203e+001
5.346688e+002, 4.328130e+001
5.351509e+002, 4.253911e+001
5.356330e+002, 4.187473e+001
5.361151e+002, 4.167995e+001
5.365972e+002, 4.186512e+001
5.370793e+002, 4.227652e+001
5.375615e+002, 4.302355e+001
5.380436e+002, 4.353087e+001
5.385257e+002, 4.339448e+001
5.390078e+002, 4.312836e+001
5.394899e+002, 4.316018e+001
5.399720e+002, 4.349922e+001
5.404542e+002, 4.396493e+001
5.409363e+002, 4.474262e+001
5.414184e+002, 4.545979e+001
5.419005e+002, 4.536071e+001
5.423826e+002, 4.448119e+001
5.428647e+002, 4.392698e+001
5.433469e+002, 4.436141e+001
5.438290e+002, 4.539841e+001
5.443111e+002, 4.603519e+001
5.447932e+002, 4.607593e+001
5.452753e+002, 4.623637e+001
5.457574e+002, 4.671082e+001
5.462396e+002, 4.727833e+001
5.467217e+002, 4.775733e+001
5.472038e+002, 4.814223e+001
5.476859e+002, 4.853044e+001
5.481680e+002, 4.901082e+001
5.486501e+002, 4.951506e+001
5.491323e+002, 4.969360e+001
5.496144e+002, 4.906928e+001
5.500965e+002, 4.896484e+001
5.505786e+002, 4.984517e+001
5.510607e+002, 5.097611e+001
5.515428e+002, 5.185293e+001
5.520250e+002, 5.244241e+001
5.525071e+002, 5.297914e+001
5.529892e+002, 5.365282e+001
5.534713e+002, 5.439556e+001
5.539534e+002, 5.499992e+001
5.544355e+002, 5.543553e+001
5.549177e+002, 5.589348e+001
5.553998e+002, 5.655816e+001
5.558819e+002, 5.719950e+001
5.563640e+002, 5.740930e+001
5.568461e+002, 5.709023e+001
5.573282e+002, 5.710397e+001
5.578104e+002, 5.827651e+001
5.582925e+002, 5.967223e+001
5.587746e+002, 6.000569e+001
5.592567e+002, 5.933282e+001
5.597388e+002, 5.874529e+001
5.602209e+002, 5.891203e+001
5.607031e+002, 5.960852e+001
5.611852e+002, 6.011922e+001
5.616673e+002, 6.045085e+001
5.621494e+002, 6.057228e+001
5.626315e+002, 6.026232e+001
5.631136e+002, 5.991459e+001
5.635958e+002, 5.987031e+001
5.640779e+002, 6.007397e+001
5.645600e+002, 6.020530e+001
5.650421e+002, 6.001078e+001
5.655242e+002, 5.962525e+001
5.660063e+002, 5.955614e+001
5.664885e+002, 5.999172e+001
5.669706e+002, 6.019239e+001
5.674527e+002, 5.960298e+001
5.679348e+002, 5.900666e+001
5.684169e+002, 5.900999e+001
5.688990e+002, 5.957115e+001
5.693812e+002, 6.015321e+001
5.698633e+002, 6.042782e+001
5.703454e+002, 6.058288e+001
5.708275e+002, 6.091747e+001
5.713096e+002, 6.141750e+001
5.717917e+002, 6.185839e+001
5.722739e+002, 6.215323e+001
5.727560e+002, 6.233226e+001
5.732381e+002, 6.239256e+001
5.737202e+002, 6.221969e+001
5.742023e+002, 6.238069e+001
5.746844e+002, 6.336126e+001
5.751666e+002, 6.431751e+001
5.756487e+002, 6.452177e+001
5.761308e+002, 6.421280e+001
5.766129e+002, 6.410128e+001
5.770950e+002, 6.456253e+001
5.775771e+002, 6.537472e+001
5.780593e+002, 6.606306e+001
5.785414e+002, 6.660358e+001
5.790235e+002, 6.708378e+001
5.795056e+002, 6.739698e+001
5.799877e+002, 6.775355e+001
5.804698e+002, 6.828137e+001
5.809520e+002, 6.892513e+001
5.814341e+002, 6.953065e+001
5.819162e+002, 6.997087e+001
5.823983e+002, 7.046645e+001
5.828804e+002, 7.130296e+001
5.833625e+002, 7.247009e+001
5.838447e+002, 7.392672e+001
5.843268e+002, 7.586713e+001
5.848089e+002, 7.762096e+001
5.852910e+002, 7.825383e+001
5.857731e+002, 7.790215e+001
5.862552e+002, 7.799068e+001
5.867374e+002, 7.886337e+001
5.872195e+002, 7.997292e+001
5.877016e+002, 8.108909e+001
5.881837e+002, 8.223352e+001
5.886658e+002, 8.348444e+001
5.891479e+002, 8.485868e+001
5.896301e+002, 8.625138e+001
5.901122e+002, 8.755025e+001
5.905943e+002, 8.875620e+001
5.910764e+002, 8.984317e+001
5.915585e+002, 9.049881e+001
5.920406e+002, 9.141350e+001
5.925228e+002, 9.283921e+001
5.930049e+002, 9.456814e+001
5.934870e+002, 9.643197e+001
5.939691e+002, 9.838180e+001
5.944512e+002, 1.001875e+002
5.949333e+002, 1.015305e+002
5.954155e+002, 1.025360e+002
5.958976e+002, 1.037163e+002
5.963797e+002, 1.050881e+002
5.968618e+002, 1.066736e+002
5.973439e+002, 1.084863e+002
5.978260e+002, 1.105327e+002
5.983082e+002, 1.127881e+002
5.987903e+002, 1.153635e+002
5.992724e+002, 1.178653e+002
5.997545e+002, 1.198329e+002
6.002366e+002, 1.218729e+002
6.007188e+002, 1.248508e+002
6.012009e+002, 1.286590e+002
6.016830e+002, 1.322468e+002
6.021651e+002, 1.348617e+002
6.026472e+002, 1.368662e+002
6.031293e+002, 1.396298e+002
6.036115e+002, 1.436384e+002
6.040936e+002, 1.475324e+002
6.045757e+002, 1.511111e+002
6.050578e+002, 1.546398e+002
6.055399e+002, 1.581675e+002
6.060220e+002, 1.617687e+002
6.065042e+002, 1.656224e+002
6.069863e+002, 1.697411e+002
6.074684e+002, 1.742566e+002
6.079505e+002, 1.795760e+002
6.084326e+002, 1.856875e+002
6.089147e+002, 1.915975e+002
6.093969e+002, 1.968048e+002
6.098790e+002, 2.021866e+002
6.103611e+002, 2.088015e+002
6.108432e+002, 2.165829e+002
6.113253e+002, 2.244806e+002
6.118074e+002, 2.325239e+002
6.122896e+002, 2.405180e+002
6.127717e+002, 2.479737e+002
6.132538e+002, 2.554196e+002
6.137359e+002, 2.637790e+002
6.142180e+002, 2.733260e+002
6.147001e+002, 2.835203e+002
6.151823e+002, 2.936815e+002
6.156644e+002, 3.037379e+002
6.161465e+002, 3.153084e+002
6.166286e+002, 3.294460e+002
6.171107e+002, 3.436329e+002
6.175928e+002, 3.570080e+002
6.180750e+002, 3.701586e+002
6.185571e+002, 3.835225e+002
6.190392e+002, 3.971901e+002
6.195213e+002, 4.115371e+002
6.200034e+002, 4.271681e+002
6.204855e+002, 4.435756e+002
6.209677e+002, 4.594844e+002
6.214498e+002, 4.747694e+002
6.219319e+002, 4.910651e+002
6.224140e+002, 5.093848e+002
6.228961e+002, 5.289506e+002
6.233782e+002, 5.482926e+002
6.238604e+002, 5.672629e+002
6.243425e+002, 5.864622e+002
6.248246e+002, 6.056269e+002
6.253067e+002, 6.251973e+002
6.257888e+002, 6.458797e+002
6.262709e+002, 6.671966e+002
6.267531e+002, 6.882864e+002
6.272352e+002, 7.086019e+002
6.277173e+002, 7.287243e+002
6.281994e+002, 7.497676e+002
6.286815e+002, 7.721970e+002
6.291636e+002, 7.932699e+002
6.296458e+002, 8.128331e+002
6.301279e+002, 8.307858e+002
6.306100e+002, 8.471467e+002
6.310921e+002, 8.621218e+002
6.315742e+002, 8.761448e+002
6.320563e+002, 8.896470e+002
6.325385e+002, 9.012454e+002
6.330206e+002, 9.104161e+002
6.335027e+002, 9.168537e+002
6.339848e+002, 9.199290e+002
6.344669e+002, 9.195412e+002
6.349490e+002, 9.161354e+002
6.354312e+002, 9.100258e+002
6.359133e+002, 9.011948e+002
6.363954e+002, 8.893630e+002
6.368775e+002, 8.738804e+002
6.373596e+002, 8.561226e+002
6.378417e+002, 8.354744e+002
6.383239e+002, 8.131755e+002
6.388060e+002, 7.898336e+002
6.392881e+002, 7.656031e+002
6.397702e+002, 7.406554e+002
6.402523e+002, 7.150580e+002
6.407344e+002, 6.888816e+002
6.412166e+002, 6.623315e+002
6.416987e+002, 6.352672e+002
6.421808e+002, 6.087320e+002
6.426629e+002, 5.826751e+002
6.431450e+002, 5.573644e+002
6.436271e+002, 5.329349e+002
6.441093e+002, 5.093234e+002
6.445914e+002, 4.870074e+002
6.450735e+002, 4.669784e+002
6.455556e+002, 4.473327e+002
6.460377e+002, 4.268759e+002
6.465198e+002, 4.063864e+002
6.470020e+002, 3.868226e+002
6.474841e+002, 3.685610e+002
6.479662e+002, 3.519717e+002
6.484483e+002, 3.375609e+002
6.489304e+002, 3.251111e+002
6.494125e+002, 3.124180e+002
6.498947e+002, 2.992280e+002
6.503768e+002, 2.864406e+002
6.508589e+002, 2.738406e+002
6.513410e+002, 2.620174e+002
6.518231e+002, 2.516297e+002
6.523052e+002, 2.425218e+002
6.527874e+002, 2.337106e+002
6.532695e+002, 2.246240e+002
6.537516e+002, 2.156661e+002
6.542337e+002, 2.072528e+002
6.547158e+002, 1.994239e+002
6.551979e+002, 1.924454e+002
6.556801e+002, 1.864488e+002
6.561622e+002, 1.810154e+002
6.566443e+002, 1.757053e+002
6.571264e+002, 1.705346e+002
6.576085e+002, 1.654267e+002
6.580906e+002, 1.603335e+002
6.585728e+002, 1.553652e+002
6.590549e+002, 1.502484e+002
6.595370e+002, 1.454107e+002
6.600191e+002, 1.414770e+002
6.605012e+002, 1.383766e+002
6.609833e+002, 1.351919e+002
6.614655e+002, 1.309770e+002
6.619476e+002, 1.262022e+002
6.624297e+002, 1.225197e+002
6.629118e+002, 1.200500e+002
6.633939e+002, 1.177832e+002
6.638760e+002, 1.155347e+002
6.643582e+002, 1.132324e+002
6.648403e+002, 1.107748e+002
6.653224e+002, 1.081764e+002
6.658045e+002, 1.055892e+002
6.662866e+002, 1.029139e+002
6.667687e+002, 1.003841e+002
6.672509e+002, 9.817024e+001
6.677330e+002, 9.618738e+001
6.682151e+002, 9.433943e+001
6.686972e+002, 9.257810e+001
6.691793e+002, 9.080576e+001
6.696614e+002, 8.885548e+001
6.701436e+002, 8.676241e+001
6.706257e+002, 8.508334e+001
6.711078e+002, 8.413264e+001
6.715899e+002, 8.293595e+001
6.720720e+002, 8.077381e+001
6.725541e+002, 7.856297e+001
6.730363e+002, 7.711071e+001
6.735184e+002, 7.639226e+001
6.740005e+002, 7.563238e+001
6.744826e+002, 7.444599e+001
6.749647e+002, 7.310042e+001
6.754468e+002, 7.179012e+001
6.759290e+002, 7.053786e+001
6.764111e+002, 6.940496e+001
6.768932e+002, 6.841270e+001
6.773753e+002, 6.752851e+001
6.778574e+002, 6.674352e+001
6.783395e+002, 6.606663e+001
6.788217e+002, 6.526077e+001
6.793038e+002, 6.423841e+001
6.797859e+002, 6.319247e+001
6.802680e+002, 6.212388e+001
6.807501e+002, 6.107606e+001
6.812322e+002, 6.005156e+001
6.817144e+002, 5.907740e+001
6.821965e+002, 5.824066e+001
6.826786e+002, 5.771087e+001
6.831607e+002, 5.728561e+001
6.836428e+002, 5.657496e+001
6.841249e+002, 5.562189e+001
6.846071e+002, 5.487711e+001
6.850892e+002, 5.454047e+001
6.855713e+002, 5.418616e+001
6.860534e+002, 5.321062e+001
6.865355e+002, 5.154551e+001
6.870176e+002, 5.060961e+001
6.874998e+002, 5.104435e+001
6.879819e+002, 5.133272e+001
6.884640e+002, 5.106636e+001
6.889461e+002, 5.049031e+001
6.894282e+002, 4.977888e+001
6.899103e+002, 4.901148e+001
6.903925e+002, 4.830571e+001
6.908746e+002, 4.778079e+001
6.913567e+002, 4.735509e+001
6.918388e+002, 4.683502e+001
6.923209e+002, 4.621785e+001
6.928030e+002, 4.557201e+001
6.932852e+002, 4.487954e+001
6.937673e+002, 4.423000e+001
6.942494e+002, 4.370996e+001
6.947315e+002, 4.331801e+001
6.952136e+002, 4.300532e+001
6.956957e+002, 4.276152e+001
6.961779e+002, 4.260524e+001
6.966600e+002, 4.268687e+001
6.971421e+002, 4.277479e+001
6.976242e+002, 4.258222e+001
6.981063e+002, 4.210170e+001
6.985884e+002, 4.152654e+001
6.990706e+002, 4.096324e+001
6.995527e+002, 4.048091e+001
7.000348e+002, 4.034144e+001
7.005169e+002, 4.062000e+001
7.009990e+002, 4.073888e+001
7.014811e+002, 4.046095e+001
7.019633e+002, 4.016990e+001
7.024454e+002, 4.041594e+001
7.029275e+002, 4.095079e+001
7.034096e+002, 4.087803e+001
7.038917e+002, 3.941148e+001
7.043738e+002, 3.824082e+001
7.048560e+002, 3.830190e+001
7.053381e+002, 3.890163e+001
7.058202e+002, 3.933949e+001
7.063023e+002, 3.946880e+001
7.067844e+002, 3.928709e+001
7.072665e+002, 3.876707e+001
7.077487e+002, 3.803242e+001
7.082308e+002, 3.739806e+001
7.087129e+002, 3.683933e+001
7.091950e+002, 3.651634e+001
7.096771e+002, 3.662840e+001
7.101592e+002, 3.674212e+001
7.106414e+002, 3.649050e+001
7.111235e+002, 3.605425e+001
7.116056e+002, 3.583458e+001
7.120877e+002, 3.598619e+001
7.125698e+002, 3.614874e+001
7.130519e+002, 3.612283e+001
7.135341e+002, 3.602843e+001
7.140162e+002, 3.600563e+001
7.144983e+002, 3.605717e+001
7.149804e+002, 3.615715e+001
7.154625e+002, 3.630724e+001
7.159446e+002, 3.637439e+001
7.164268e+002, 3.596104e+001
7.169089e+002, 3.482269e+001
7.173910e+002, 3.433477e+001
7.178731e+002, 3.505820e+001
7.183552e+002, 3.571522e+001
7.188373e+002, 3.562934e+001
7.193195e+002, 3.514762e+001
7.198016e+002, 3.476267e+001
7.202837e+002, 3.456555e+001
7.207658e+002, 3.433309e+001
7.212479e+002, 3.374799e+001
7.217300e+002, 3.322300e+001
7.222122e+002, 3.335015e+001
7.226943e+002, 3.396394e+001
7.231764e+002, 3.444243e+001
7.236585e+002, 3.451625e+001
7.241406e+002, 3.428064e+001
7.246227e+002, 3.380523e+001
7.251049e+002, 3.301914e+001
7.255870e+002, 3.267380e+001
7.260691e+002, 3.311327e+001
7.265512e+002, 3.343807e+001
7.270333e+002, 3.312318e+001
7.275154e+002, 3.268526e+001
7.279976e+002, 3.271283e+001
7.284797e+002, 3.324206e+001
7.289618e+002, 3.366229e+001
7.294439e+002, 3.370345e+001
7.299260e+002, 3.353714e+001
7.304081e+002, 3.322733e+001
7.308903e+002, 3.284389e+001
7.313724e+002, 3.251198e+001
7.318545e+002, 3.227382e+001
7.323366e+002, 3.217169e+001
7.328187e+002, 3.227631e+001
7.333008e+002, 3.256306e+001
7.337830e+002, 3.271793e+001
7.342651e+002, 3.262686e+001
7.347472e+002, 3.265410e+001
7.352293e+002, 3.325785e+001
7.357114e+002, 3.368920e+001
7.361935e+002, 3.314973e+001
7.366757e+002, 3.189474e+001
7.371578e+002, 3.111684e+001
7.376399e+002, 3.144199e+001
7.381220e+002, 3.200373e+001
7.386041e+002, 3.240097e+001
7.390862e+002, 3.258686e+001
7.395684e+002, 3.235270e+001
7.400505e+002, 3.175124e+001
7.405326e+002, 3.124507e+001
7.410147e+002, 3.117859e+001
7.414968e+002, 3.142376e+001
7.419789e+002, 3.161098e+001
7.424611e+002, 3.175253e+001
7.429432e+002, 3.178377e+001
7.434253e+002, 3.161727e+001
7.439074e+002, 3.144031e+001
7.443895e+002, 3.135030e+001
7.448716e+002, 3.132534e+001
7.453538e+002, 3.133693e+001
7.458359e+002, 3.140250e+001
7.463180e+002, 3.143264e+001
7.468001e+002, 3.132770e+001
7.472822e+002, 3.121094e+001
7.477643e+002, 3.122496e+001
7.482465e+002, 3.134521e+001
7.487286e+002, 3.145259e+001
7.492107e+002, 3.149270e+001
7.496928e+002, 3.153800e+001
7.501749e+002, 3.175155e+001
7.506570e+002, 3.215475e+001
7.511392e+002, 3.224813e+001
7.516213e+002, 3.191276e+001
7.521034e+002, 3.153455e+001
7.525855e+002, 3.115276e+001
7.530676e+002, 3.088583e+001
7.535497e+002, 3.096834e+001
7.540319e+002, 3.141678e+001
7.545140e+002, 3.162483e+001
7.549961e+002, 3.114835e+001
7.554782e+002, 3.070353e+001
7.559603e+002, 3.086386e+001
7.564424e+002, 3.128150e+001
7.569246e+002, 3.135120e+001
7.574067e+002, 3.098734e+001
7.578888e+002, 3.063458e+001
7.583709e+002, 3.070426e+001
7.588530e+002, 3.104359e+001
7.593351e+002, 3.110115e+001
7.598173e+002, 3.083298e+001
7.602994e+002, 3.064776e+001
7.607815e+002, 3.059708e+001
7.612636e+002, 3.071589e+001
7.617457e+002, 3.114438e+001
7.622278e+002, 3.178876e+001
7.627100e+002, 3.219761e+001
7.631921e+002, 3.231783e+001
7.636742e+002, 3.226883e+001
7.641563e+002, 3.198809e+001
7.646384e+002, 3.162176e+001
7.651205e+002, 3.117364e+001
7.656027e+002, 3.075134e+001
7.660848e+002, 3.061790e+001
7.665669e+002, 3.090750e+001
7.670490e+002, 3.131342e+001
7.675311e+002, 3.141095e+001
7.680132e+002, 3.125955e+001
7.684954e+002, 3.120560e+001
7.689775e+002, 3.128467e+001
7.694596e+002, 3.132986e+001
7.699417e+002, 3.126230e+001
7.704238e+002, 3.111042e+001
7.709059e+002, 3.088543e+001
7.713881e+002, 3.050129e+001
7.718702e+002, 3.041749e+001
7.723523e+002, 3.105267e+001
7.728344e+002, 3.148000e+001
7.733165e+002, 3.116848e+001
7.737986e+002, 3.060660e+001
7.742808e+002, 3.034494e+001
7.747629e+002, 3.045373e+001
7.752450e+002, 3.065121e+001
7.757271e+002, 3.082743e+001
7.762092e+002, 3.091091e+001
7.766913e+002, 3.071404e+001
7.771735e+002, 3.031675e+001
7.776556e+002, 3.007954e+001
7.781377e+002, 3.008992e+001
7.786198e+002, 3.009930e+001
7.791019e+002, 2.986600e+001
7.795840e+002, 2.947370e+001
7.800662e+002, 2.937131e+001
7.805483e+002, 2.980172e+001
7.810304e+002, 3.006049e+001
7.815125e+002, 2.991499e+001
7.819946e+002, 2.978391e+001
7.824767e+002, 2.988241e+001
7.829589e+002, 3.013846e+001
7.834410e+002, 3.042800e+001
7.839231e+002, 3.074925e+001
7.844052e+002, 3.095980e+001
7.848873e+002, 3.092457e+001
7.853694e+002, 3.076554e+001
7.858516e+002, 3.055161e+001
7.863337e+002, 3.034522e+001
7.868158e+002, 3.035969e+001
7.872979e+002, 3.067620e+001
7.877800e+002, 3.101567e+001
7.882621e+002, 3.097592e+001
7.887443e+002, 3.057458e+001
7.892264e+002, 3.037107e+001
7.897085e+002, 3.039674e+001
7.901906e+002, 3.053976e+001
7.906727e+002, 3.083981e+001
7.911548e+002, 3.117842e+001
7.916370e+002, 3.145418e+001
7.921191e+002, 3.166874e+001
7.926012e+002, 3.181794e+001
7.930833e+002, 3.206472e+001
7.935654e+002, 3.204339e+001
7.940475e+002, 3.123828e+001
7.945297e+002, 3.035920e+001
7.950118e+002, 3.022918e+001
7.954939e+002, 3.075078e+001
7.959760e+002, 3.127203e+001
7.964581e+002, 3.143994e+001
7.969402e+002, 3.140130e+001
7.974224e+002, 3.132268e+001
7.979045e+002, 3.121929e+001
7.983866e+002, 3.117002e+001
7.988687e+002, 3.116795e+001
7.993508e+002, 3.137916e+001
7.998329e+002, 3.199116e+001
8.003151e+002, 3.270549e+001
8.007972e+002, 3.294225e+001
8.012793e+002, 3.255452e+001
8.017614e+002, 3.226668e+001
8.022435e+002, 3.219711e+001
8.027256e+002, 3.207208e+001
8.032078e+002, 3.175617e+001
8.036899e+002, 3.138275e+001
8.041720e+002, 3.101795e+001
8.046541e+002, 3.071326e+001
8.051362e+002, 3.064212e+001
8.056183e+002, 3.103424e+001
8.061005e+002, 3.154200e+001
8.065826e+002, 3.181454e+001
8.070647e+002, 3.192305e+001
8.075468e+002, 3.190399e+001
8.080289e+002, 3.181834e+001
8.085110e+002, 3.218617e+001
8.089932e+002, 3.349416e+001
8.094753e+002, 3.511585e+001
8.099574e+002, 3.521280e+001
8.104395e+002, 3.329013e+001
8.109216e+002, 3.209742e+001
8.114037e+002, 3.209291e+001
8.118859e+002, 3.229009e+001
8.123680e+002, 3.217060e+001
8.128501e+002, 3.197450e+001
8.133322e+002, 3.212806e+001
8.138143e+002, 3.273481e+001
8.142964e+002, 3.304757e+001
8.147786e+002, 3.264112e+001
8.152607e+002, 3.216632e+001
8.157428e+002, 3.197725e+001
8.162249e+002, 3.196967e+001
8.167070e+002, 3.201246e+001
8.171891e+002, 3.205639e+001
8.176713e+002, 3.204070e+001
8.181534e+002, 3.186807e+001
8.186355e+002, 3.168557e+001
8.191176e+002, 3.186756e+001
8.195997e+002, 3.234876e+001
8.200818e+002, 3.256331e+001
8.205640e+002, 3.237931e+001
8.210461e+002, 3.222538e+001
8.215282e+002, 3.242319e+001
8.220103e+002, 3.285026e+001
8.224924e+002, 3.313616e+001
8.229745e+002, 3.325498e+001
8.234567e+002, 3.329275e+001
8.239388e+002, 3.322773e+001
8.244209e+002, 3.310770e+001
8.249030e+002, 3.292197e+001
8.253851e+002, 3.270453e+001
8.258672e+002, 3.243519e+001
8.263494e+002, 3.211981e+001
8.268315e+002, 3.203060e+001
8.273136e+002, 3.259968e+001
8.277957e+002, 3.315774e+001
8.282778e+002, 3.301399e+001
8.287599e+002, 3.249160e+001
8.292421e+002, 3.214615e+001
8.297242e+002, 3.210497e+001
8.302063e+002, 3.229705e+001
8.306884e+002, 3.270574e+001
8.311705e+002, 3.320858e+001
8.316526e+002, 3.348507e+001
8.321348e+002, 3.352602e+001
8.326169e+002, 3.361101e+001
8.330990e+002, 3.383247e+001
8.335811e+002, 3.387906e+001
8.340632e+002, 3.345169e+001
8.345453e+002, 3.281401e+001
8.350275e+002, 3.255465e+001
8.355096e+002, 3.282077e+001
8.359917e+002, 3.304197e+001
8.364738e+002, 3.328234e+001
8.369559e+002, 3.339852e+001
8.374380e+002, 3.321699e+001
8.379202e+002, 3.295869e+001
8.384023e+002, 3.282838e+001
8.388844e+002, 3.287009e+001
8.393665e+002, 3.310271e+001
8.398486e+002, 3.377653e+001
8.403307e+002, 3.434753e+001
8.408129e+002, 3.406363e+001
8.412950e+002, 3.333421e+001
8.417771e+002, 3.304459e+001
8.422592e+002, 3.325843e+001
8.427413e+002, 3.336362e+001
8.432234e+002, 3.294914e+001
8.437056e+002, 3.236900e+001
8.441877e+002, 3.244138e+001
8.446698e+002, 3.324841e+001
8.451519e+002, 3.364811e+001
8.456340e+002, 3.348621e+001
8.461161e+002, 3.324903e+001
8.465983e+002, 3.305264e+001
8.470804e+002, 3.296670e+001
8.475625e+002, 3.315802e+001
8.480446e+002, 3.365393e+001
8.485267e+002, 3.395449e+001
8.490089e+002, 3.385704e+001
8.494910e+002, 3.379706e+001
8.499731e+002, 3.399092e+001
8.504552e+002, 3.420053e+001
8.509373e+002, 3.411583e+001
8.514194e+002, 3.384421e+001
8.519016e+002, 3.380029e+001
8.523837e+002, 3.421133e+001
8.528658e+002, 3.472545e+001
8.533479e+002, 3.516816e+001
8.538300e+002, 3.543109e+001
8.543121e+002, 3.513667e+001
8.547943e+002, 3.442377e+001
8.552764e+002, 3.403787e+001
8.557585e+002, 3.430479e+001
8.562406e+002, 3.480651e+001
8.567227e+002, 3.499704e+001
8.572048e+002, 3.490361e+001
8.576870e+002, 3.492777e+001
8.581691e+002, 3.514235e+001
8.586512e+002, 3.515978e+001
8.591333e+002, 3.475817e+001
8.596154e+002, 3.433197e+001
8.600975e+002, 3.424196e+001
8.605797e+002, 3.443353e+001
8.610618e+002, 3.457645e+001
8.615439e+002, 3.455509e+001
8.620260e+002, 3.467835e+001
8.625081e+002, 3.511647e+001
8.629902e+002, 3.556989e+001
8.634724e+002, 3.585304e+001
8.639545e+002, 3.603300e+001
8.644366e+002, 3.624490e+001
8.649187e+002, 3.652172e+001
8.654008e+002, 3.677403e+001
8.658829e+002, 3.699387e+001
8.663651e+002, 3.711926e+001
8.668472e+002, 3.701194e+001
8.673293e+002, 3.676638e+001
8.678114e+002, 3.656108e+001
8.682935e+002, 3.645632e+001
8.687756e+002, 3.655646e+001
8.692578e+002, 3.696909e+001
8.697399e+002, 3.754629e+001
8.702220e+002, 3.797760e+001
8.707041e+002, 3.827050e+001
8.711862e+002, 3.809855e+001
8.716683e+002, 3.721810e+001
8.721505e+002, 3.669235e+001
8.726326e+002, 3.721235e+001
8.731147e+002, 3.823502e+001
8.735968e+002, 3.884978e+001
8.740789e+002, 3.896185e+001
8.745610e+002, 3.916974e+001
8.750432e+002, 3.960258e+001
8.755253e+002, 3.995420e+001
8.760074e+002, 4.010559e+001
8.764895e+002, 4.018800e+001
8.769716e+002, 4.042480e+001
8.774537e+002, 4.070612e+001
8.779359e+002, 4.054441e+001
8.784180e+002, 3.943398e+001
8.789001e+002, 3.870180e+001
8.793822e+002, 3.948236e+001
8.798643e+002, 4.083833e+001
8.803464e+002, 4.178256e+001
8.808286e+002, 4.234684e+001
8.813107e+002, 4.288676e+001
8.817928e+002, 4.353461e+001
8.822749e+002, 4.421226e+001
8.827570e+002, 4.483816e+001
8.832391e+002, 4.542361e+001
8.837213e+002, 4.600282e+001
8.842034e+002, 4.657421e+001
8.846855e+002, 4.707459e+001
8.851676e+002, 4.746568e+001
8.856497e+002, 4.796095e+001
8.861318e+002, 4.875202e+001
8.866140e+002, 4.975185e+001
8.870961e+002, 5.067855e+001
8.875782e+002, 5.157486e+001
8.880603e+002, 5.227287e+001
8.885424e+002, 5.246431e+001
8.890245e+002, 5.288063e+001
8.895067e+002, 5.416459e+001
8.899888e+002, 5.561559e+001
8.904709e+002, 5.623101e+001
8.909530e+002, 5.599172e+001
8.914351e+002, 5.635752e+001
8.919172e+002, 5.842072e+001
8.923994e+002, 6.015983e+001
8.928815e+002, 6.037144e+001
8.933636e+002, 6.016521e+001
8.938457e+002, 6.064982e+001
8.943278e+002, 6.172945e+001
8.948099e+002, 6.274381e+001
8.952921e+002, 6.341313e+001
8.957742e+002, 6.395347e+001
8.962563e+002, 6.456926e+001
8.967384e+002, 6.519002e+001
8.972205e+002, 6.565075e+001
8.977026e+002, 6.599093e+001
8.981848e+002, 6.641660e+001
8.986669e+002, 6.698476e+001
8.991490e+002, 6.746760e+001
8.996311e+002, 6.763609e+001
9.001132e+002, 6.755645e+001
9.005953e+002, 6.746614e+001
9.010775e+002, 6.736530e+001
9.015596e+002, 6.727914e+001
9.020417e+002, 6.726321e+001
9.025238e+002, 6.706853e+001
9.030059e+002, 6.644614e+001
9.034880e+002, 6.565458e+001
9.039702e+002, 6.525307e+001
9.044523e+002, 6.539574e+001
9.049344e+002, 6.530865e+001
9.054165e+002, 6.485632e+001
9.058986e+002, 6.434870e+001
9.063807e+002, 6.401545e+001
9.068629e+002, 6.352140e+001
9.073450e+002, 6.247804e+001
9.078271e+002, 6.099480e+001
9.083092e+002, 5.958413e+001
9.087913e+002, 5.837247e+001
9.092734e+002, 5.723438e+001
9.097556e+002, 5.606401e+001
9.102377e+002, 5.497708e+001
9.107198e+002, 5.423719e+001
9.112019e+002, 5.361436e+001
9.116840e+002, 5.260773e+001
9.121661e+002, 5.110094e+001
9.126483e+002, 4.952520e+001
9.131304e+002, 4.832491e+001
9.136125e+002, 4.719792e+001
9.140946e+002, 4.547370e+001
9.145767e+002, 4.341578e+001
9.150588e+002, 4.194971e+001
9.155410e+002, 4.118809e+001
9.160231e+002, 4.057320e+001
9.165052e+002, 3.975684e+001
9.169873e+002, 3.882682e+001
9.174694e+002, 3.791983e+001
9.179515e+002, 3.703162e+001
9.184337e+002, 3.626929e+001
9.189158e+002, 3.566736e+001
9.193979e+002, 3.502020e+001
9.198800e+002, 3.424290e+001
9.203621e+002, 3.342963e+001
9.208442e+002, 3.268199e+001
9.213264e+002, 3.199234e+001
9.218085e+002, 3.130296e+001
9.222906e+002, 3.038371e+001
9.227727e+002, 2.984260e+001
9.232548e+002, 3.002376e+001
9.237369e+002, 3.022457e+001
9.242191e+002, 3.012598e+001
9.247012e+002, 2.983563e+001
9.251833e+002, 2.947990e+001
9.256654e+002, 2.906566e+001
9.261475e+002, 2.879866e+001
9.266296e+002, 2.897406e+001
9.271118e+002, 2.903710e+001
9.275939e+002, 2.862376e+001
9.280760e+002, 2.801007e+001
9.285581e+002, 2.743611e+001
9.290402e+002, 2.695700e+001
9.295223e+002, 2.661338e+001
9.300045e+002, 2.644032e+001
9.304866e+002, 2.627287e+001
9.309687e+002, 2.596707e+001
9.314508e+002, 2.556504e+001
9.319329e+002, 2.498324e+001
9.324150e+002, 2.437024e+001
9.328972e+002, 2.427683e+001
9.333793e+002, 2.479722e+001
9.338614e+002, 2.528555e+001
9.343435e+002, 2.515744e+001
9.348256e+002, 2.465895e+001
9.353077e+002, 2.441249e+001
9.357899e+002, 2.439387e+001
9.362720e+002, 2.420904e+001
9.367541e+002, 2.379942e+001
9.372362e+002, 2.342087e+001
9.377183e+002, 2.317565e+001
9.382004e+002, 2.311432e+001
9.386826e+002, 2.338276e+001
9.391647e+002, 2.399810e+001
9.396468e+002, 2.411938e+001
9.401289e+002, 2.356521e+001
9.406110e+002, 2.294678e+001
9.410931e+002, 2.225061e+001
9.415753e+002, 2.168865e+001
9.420574e+002, 2.145969e+001
9.425395e+002, 2.146995e+001
9.430216e+002, 2.143716e+001
9.435037e+002, 2.127860e+001
9.439858e+002, 2.133125e+001
9.444680e+002, 2.199997e+001
9.449501e+002, 2.242404e+001
9.454322e+002, 2.210968e+001
9.459143e+002, 2.151876e+001
9.463964e+002, 2.110951e+001
9.468785e+002, 2.088962e+001
9.473607e+002, 2.062736e+001
9.478428e+002, 2.014391e+001
9.483249e+002, 1.982054e+001
9.488070e+002, 1.997773e+001
9.492891e+002, 2.029045e+001
9.497712e+002, 2.052715e+001
9.502534e+002, 2.065467e+001
9.507355e+002, 2.063160e+001
9.512176e+002, 2.046558e+001
9.516997e+002, 2.028633e+001
9.521818e+002, 2.019778e+001
9.526639e+002, 2.014156e+001
9.531461e+002, 1.996565e+001
9.536282e+002, 1.977991e+001
9.541103e+002, 1.996422e+001
9.545924e+002, 2.046226e+001
9.550745e+002, 2.068975e+001
9.555566e+002, 2.035337e+001
9.560388e+002, 1.983224e+001
9.565209e+002, 1.964127e+001
9.570030e+002, 1.971393e+001
9.574851e+002, 1.971255e+001
9.579672e+002, 1.963770e+001
9.584493e+002, 1.956537e+001
9.589315e+002, 1.950437e+001
9.594136e+002, 1.954413e+001
9.598957e+002, 1.980666e+001
9.603778e+002, 2.010359e+001
9.608599e+002, 1.986626e+001
9.613420e+002, 1.888919e+001
9.618242e+002, 1.847124e+001
9.623063e+002, 1.883888e+001
9.627884e+002, 1.923370e+001
9.632705e+002, 1.954885e+001
9.637526e+002, 1.960193e+001
9.642347e+002, 1.899639e+001
9.647169e+002, 1.789555e+001
9.651990e+002, 1.750084e+001
9.656811e+002, 1.846207e+001
9.661632e+002, 1.914001e+001
9.666453e+002, 1.944595e+001
9.671274e+002, 1.956740e+001
9.676096e+002, 1.952741e+001
9.680917e+002, 1.938042e+001
9.685738e+002, 1.917785e+001
9.690559e+002, 1.892599e+001
9.695380e+002, 1.864889e+001
9.700201e+002, 1.824909e+001
9.705023e+002, 1.795929e+001
9.709844e+002, 1.794446e+001
9.714665e+002, 1.799541e+001
9.719486e+002, 1.790015e+001
9.724307e+002, 1.775010e+001
9.729128e+002, 1.778834e+001
9.733950e+002, 1.807263e+001
9.738771e+002, 1.830475e+001
9.743592e+002, 1.831433e+001
9.748413e+002, 1.819101e+001
9.753234e+002, 1.792979e+001
9.758055e+002, 1.763330e+001
9.762877e+002, 1.746766e+001
9.767698e+002, 1.741935e+001
9.772519e+002, 1.732922e+001
9.777340e+002, 1.711763e+001
9.782161e+002, 1.699582e+001
9.786982e+002, 1.737321e+001
9.791804e+002, 1.790165e+001
9.796625e+002, 1.777591e+001
9.801446e+002, 1.720860e+001
9.806267e+002, 1.703031e+001
9.811088e+002, 1.736977e+001
9.815909e+002, 1.759064e+001
9.820731e+002, 1.722055e+001
9.825552e+002, 1.669929e+001
9.830373e+002, 1.697502e+001
9.835194e+002, 1.788605e+001
9.840015e+002, 1.819972e+001
9.844836e+002, 1.788168e+001
9.849658e+002, 1.755798e+001
9.854479e+002, 1.743051e+001
9.859300e+002, 1.727494e+001
9.864121e+002, 1.683763e+001
9.868942e+002, 1.628051e+001
9.873763e+002, 1.625972e+001
9.878585e+002, 1.689256e+001
9.883406e+002, 1.728962e+001
9.888227e+002, 1.737320e+001
9.893048e+002, 1.731297e+001
9.897869e+002, 1.709003e+001
9.902690e+002, 1.692224e+001
9.907512e+002, 1.713886e+001
9.912333e+002, 1.768397e+001
9.917154e+002, 1.782724e+001
9.921975e+002, 1.728198e+001
9.926796e+002, 1.694015e+001
9.931617e+002, 1.689652e+001
9.936439e+002, 1.701928e+001
9.941260e+002, 1.751067e+001
9.946081e+002, 1.797956e+001
9.950902e+002, 1.770353e+001
9.955723e+002, 1.663936e+001
9.960544e+002, 1.613643e+001
9.965366e+002, 1.667653e+001
9.970187e+002, 1.715917e+001
9.975008e+002, 1.759213e+001
9.979829e+002, 1.773201e+001
9.984650e+002, 1.716156e+001
9.989471e+002, 1.630966e+001
9.994293e+002, 1.590811e+001
9.999114e+002, 1.606550e+001
1.000393e+003, 1.634073e+001
1.000876e+003, 1.673141e+001
1.001358e+003, 1.706513e+001
1.001840e+003, 1.728847e+001
1.002322e+003, 1.740443e+001
1.002804e+003, 1.738497e+001
1.003286e+003, 1.726993e+001
1.003768e+003, 1.710612e+001
1.004250e+003, 1.689757e+001
1.004733e+003, 1.681955e+001
1.005215e+003, 1.715344e+001
1.005697e+003, 1.745206e+001
1.006179e+003, 1.729521e+001
1.006661e+003, 1.695666e+001
1.007143e+003, 1.684546e+001
1.007625e+003, 1.690673e+001
1.008107e+003, 1.674129e+001
1.008589e+003, 1.615795e+001
1.009072e+003, 1.567489e+001
1.009554e+003, 1.582492e+001
1.010036e+003, 1.623279e+001
1.010518e+003, 1.653128e+001
1.011000e+003, 1.671135e+001
1.011482e+003, 1.672866e+001
1.011964e+003, 1.662910e+001
1.012446e+003, 1.664450e+001
1.012929e+003, 1.691986e+001
1.013411e+003, 1.718029e+001
1.013893e+003, 1.698425e+001
1.014375e+003, 1.659129e+001
1.014857e+003, 1.658017e+001
1.015339e+003, 1.684868e+001
1.015821e+003, 1.700247e+001
1.016303e+003, 1.695280e+001
1.016785e+003, 1.677281e+001
1.017268e+003, 1.648234e+001
1.017750e+003, 1.627858e+001
1.018232e+003, 1.667103e+001
1.018714e+003, 1.742748e+001
1.019196e+003, 1.749430e+001
1.019678e+003, 1.691972e+001
1.020160e+003, 1.638328e+001
1.020642e+003, 1.607335e+001
1.021125e+003, 1.599817e+001
1.021607e+003, 1.618562e+001
1.022089e+003, 1.652767e+001
1.022571e+003, 1.679519e+001
1.023053e+003, 1.699091e+001
1.023535e+003, 1.714977e+001
1.024017e+003, 1.727700e+001
1.024499e+003, 1.723351e+001
1.024981e+003, 1.695116e+001
1.025464e+003, 1.667603e+001
1.025946e+003, 1.665302e+001
1.026428e+003, 1.677106e+001
1.026910e+003, 1.659105e+001
1.027392e+003, 1.602598e+001
1.027874e+003, 1.613488e+001
1.028356e+003, 1.717716e+001
1.028838e+003, 1.774253e+001
1.029321e+003, 1.720176e+001
1.029803e+003, 1.643961e+001
1.030285e+003, 1.633739e+001
1.030767e+003, 1.672709e+001
1.031249e+003, 1.684395e+001
1.031731e+003, 1.660197e+001
1.032213e+003, 1.641088e+001
1.032695e+003, 1.627234e+001
1.033177e+003, 1.620439e+001
1.033660e+003, 1.619301e+001
1.034142e+003, 1.630447e+001
1.034624e+003, 1.670898e+001
1.035106e+003, 1.729905e+001
1.035588e+003, 1.734428e+001
1.036070e+003, 1.638906e+001
1.036552e+003, 1.602111e+001
1.037034e+003, 1.675029e+001
1.037516e+003, 1.722059e+001
1.037999e+003, 1.664437e+001
1.038481e+003, 1.588138e+001
1.038963e+003, 1.592290e+001
1.039445e+003, 1.664268e+001
1.039927e+003, 1.705973e+001
1.040409e+003, 1.699183e+001
1.040891e+003, 1.694311e+001
1.041373e+003, 1.694643e+001
1.041855e+003, 1.693046e+001
1.042338e+003, 1.688302e+001
1.042820e+003, 1.679423e+001
1.043302e+003, 1.666079e+001
1.043784e+003, 1.647971e+001
1.044266e+003, 1.621759e+001
1.044748e+003, 1.555602e+001
1.045230e+003, 1.535078e+001
1.045712e+003, 1.617320e+001
1.046195e+003, 1.682553e+001
1.046677e+003, 1.662018e+001
1.047159e+003, 1.616118e+001
1.047641e+003, 1.621796e+001
1.048123e+003, 1.669011e+001
1.048605e+003, 1.671050e+001
1.049087e+003, 1.578030e+001
1.049569e+003, 1.513584e+001
1.050052e+003, 1.509514e+001
1.050534e+003, 1.520868e+001
1.051016e+003, 1.533689e+001
1.051498e+003, 1.546751e+001
1.051980e+003, 1.562450e+001
1.052462e+003, 1.578891e+001
1.052944e+003, 1.585197e+001
1.053426e+003, 1.569301e+001
1.053908e+003, 1.563939e+001
1.054391e+003, 1.584161e+001
1.054873e+003, 1.607702e+001
1.055355e+003, 1.634562e+001
1.055837e+003, 1.650922e+001
1.056319e+003, 1.632814e+001
1.056801e+003, 1.588000e+001
1.057283e+003, 1.561686e+001
1.057765e+003, 1.579908e+001
1.058248e+003, 1.580491e+001
1.058730e+003, 1.512365e+001
1.059212e+003, 1.459310e+001
1.059694e+003, 1.478199e+001
1.060176e+003, 1.530394e+001
1.060658e+003, 1.575271e+001
1.061140e+003, 1.608970e+001
1.061622e+003, 1.642522e+001
1.062104e+003, 1.689579e+001
1.062587e+003, 1.705497e+001
1.063069e+003, 1.638370e+001
1.063551e+003, 1.576220e+001
1.064033e+003, 1.582675e+001
1.064515e+003, 1.613442e+001
1.064997e+003, 1.615624e+001
1.065479e+003, 1.591100e+001
1.065961e+003, 1.571011e+001
1.066443e+003, 1.565806e+001
1.066926e+003, 1.560028e+001
1.067408e+003, 1.539775e+001
1.067890e+003, 1.525807e+001
1.068372e+003, 1.535196e+001
1.068854e+003, 1.554199e+001
1.069336e+003, 1.570293e+001
1.069818e+003, 1.580854e+001
1.070300e+003, 1.582730e+001
1.070782e+003, 1.571583e+001
1.071265e+003, 1.569046e+001
1.071747e+003, 1.601125e+001
1.072229e+003, 1.625573e+001
1.072711e+003, 1.612031e+001
1.073193e+003, 1.581203e+001
1.073675e+003, 1.545674e+001
1.074157e+003, 1.515353e+001
1.074639e+003, 1.509610e+001
1.075122e+003, 1.536314e+001
1.075604e+003, 1.568293e+001
1.076086e+003, 1.603432e+001
1.076568e+003, 1.628064e+001
1.077050e+003, 1.625294e+001
1.077532e+003, 1.615084e+001
1.078014e+003, 1.622933e+001
1.078496e+003, 1.640187e+001
1.078979e+003, 1.632368e+001
1.079461e+003, 1.587845e+001
1.079943e+003, 1.574361e+001
1.080425e+003, 1.667099e+001
1.080907e+003, 1.744917e+001
1.081389e+003, 1.721623e+001
1.081871e+003, 1.668382e+001
1.082353e+003, 1.643498e+001
1.082835e+003, 1.647307e+001
1.083318e+003, 1.671659e+001
1.083800e+003, 1.714012e+001
1.084282e+003, 1.743900e+001
1.084764e+003, 1.738573e+001
1.085246e+003, 1.729920e+001
1.085728e+003, 1.732713e+001
1.086210e+003, 1.740051e+001
1.086692e+003, 1.759109e+001
1.087175e+003, 1.772624e+001
1.087657e+003, 1.739916e+001
1.088139e+003, 1.659001e+001
1.088621e+003, 1.604535e+001
1.089103e+003, 1.624590e+001
1.089585e+003, 1.651061e+001
1.090067e+003, 1.654654e+001
1.090549e+003, 1.653495e+001
1.091031e+003, 1.671598e+001
1.091514e+003, 1.688886e+001
1.091996e+003, 1.663655e+001
1.092478e+003, 1.598509e+001
1.092960e+003, 1.556607e+001
1.093442e+003, 1.568385e+001
1.093924e+003, 1.588694e+001
1.094406e+003, 1.605941e+001
1.094888e+003, 1.620722e+001
1.095370e+003, 1.634413e+001
1.095853e+003, 1.645304e+001
1.096335e+003, 1.654802e+001
1.096817e+003, 1.660176e+001
1.097299e+003, 1.648568e+001
1.097781e+003, 1.610087e+001
1.098263e+003, 1.571330e+001
1.098745e+003, 1.525023e+001
1.099227e+003, 1.499056e+001
1.099709e+003, 1.524864e+001
1.100192e+003, 1.565674e+001
1.100674e+003, 1.581271e+001
1.101156e+003, 1.576658e+001
1.101638e+003, 1.579846e+001
1.102120e+003, 1.597592e+001
1.102602e+003, 1.617620e+001
1.103084e+003, 1.642963e+001
1.103566e+003, 1.662370e+001
1.104049e+003, 1.674022e+001
1.104531e+003, 1.675615e+001
1.105013e+003, 1.653068e+001
1.105495e+003, 1.621990e+001
1.105977e+003, 1.624409e+001
1.106459e+003, 1.674058e+001
1.106941e+003, 1.696415e+001
1.107423e+003, 1.645968e+001
1.107906e+003, 1.613073e+001
1.108388e+003, 1.627941e+001
1.108870e+003, 1.661257e+001
1.109352e+003, 1.708031e+001
1.109834e+003, 1.753842e+001
1.110316e+003, 1.774296e+001
1.110798e+003, 1.767426e+001
1.111280e+003, 1.754610e+001
1.111762e+003, 1.739152e+001
1.112245e+003, 1.715441e+001
1.112727e+003, 1.663340e+001
1.113209e+003, 1.625033e+001
1.113691e+003, 1.624998e+001
1.114173e+003, 1.647625e+001
1.114655e+003, 1.681581e+001
1.115137e+003, 1.724406e+001
1.115619e+003, 1.744818e+001
1.116102e+003, 1.722468e+001
1.116584e+003, 1.713766e+001
1.117066e+003, 1.728978e+001
1.117548e+003, 1.743764e+001
1.118030e+003, 1.751404e+001
1.118512e+003, 1.753354e+001
1.118994e+003, 1.749095e+001
1.119476e+003, 1.740572e+001
1.119958e+003, 1.735404e+001
1.120441e+003, 1.732993e+001
1.120923e+003, 1.736935e+001
1.121405e+003, 1.754958e+001
1.121887e+003, 1.760407e+001
1.122369e+003, 1.734701e+001
1.122851e+003, 1.718397e+001
1.123333e+003, 1.752819e+001
1.123815e+003, 1.805143e+001
1.124297e+003, 1.796273e+001
1.124780e+003, 1.717970e+001
1.125262e+003, 1.689562e+001
1.125744e+003, 1.728549e+001
1.126226e+003, 1.751789e+001
1.126708e+003, 1.740561e+001
1.127190e+003, 1.728104e+001
1.127672e+003, 1.733793e+001
1.128154e+003, 1.745119e+001
1.128636e+003, 1.742963e+001
1.129119e+003, 1.729614e+001
1.129601e+003, 1.724620e+001
1.130083e+003, 1.728569e+001
1.130565e+003, 1.733145e+001
1.131047e+003, 1.736829e+001
1.131529e+003, 1.749466e+001
1.132011e+003, 1.776563e+001
1.132493e+003, 1.802723e+001
1.132976e+003, 1.812693e+001
1.133458e+003, 1.809001e+001
1.133940e+003, 1.797072e+001
1.134422e+003, 1.777549e+001
1.134904e+003, 1.750068e+001
1.135386e+003, 1.716949e+001
1.135868e+003, 1.732665e+001
1.136350e+003, 1.810643e+001
1.136833e+003, 1.880064e+001
1.137315e+003, 1.890751e+001
1.137797e+003, 1.866092e+001
1.138279e+003, 1.830066e+001
1.138761e+003, 1.794568e+001
1.139243e+003, 1.816660e+001
1.139725e+003, 1.878445e+001
1.140207e+003, 1.891691e+001
1.140689e+003, 1.852621e+001
1.141172e+003, 1.847007e+001
1.141654e+003, 1.914903e+001
1.142136e+003, 1.981961e+001
1.142618e+003, 1.959570e+001
1.143100e+003, 1.896392e+001
1.143582e+003, 1.863731e+001
1.144064e+003, 1.857719e+001
1.144546e+003, 1.886342e+001
1.145029e+003, 1.932319e+001
1.145511e+003, 1.937347e+001
1.145993e+003, 1.891652e+001
1.146475e+003, 1.863535e+001
1.146957e+003, 1.907202e+001
1.147439e+003, 1.966555e+001
1.147921e+003, 1.992708e+001
1.148403e+003, 1.998013e+001
1.148885e+003, 1.991006e+001
1.149368e+003, 1.977129e+001
1.149850e+003, 1.957658e+001
1.150332e+003, 1.938295e+001
1.150814e+003, 1.940230e+001
1.151296e+003, 1.978213e+001
1.151778e+003, 2.001266e+001
1.152260e+003, 1.962359e+001
1.152742e+003, 1.917193e+001
1.153224e+003, 1.899816e+001
1.153707e+003, 1.898771e+001
1.154189e+003, 1.907880e+001
1.154671e+003, 1.919646e+001
1.155153e+003, 1.919885e+001
1.155635e+003, 1.905606e+001
1.156117e+003, 1.895149e+001
1.156599e+003, 1.899121e+001
1.157081e+003, 1.900863e+001
1.157563e+003, 1.892348e+001
1.158046e+003, 1.883177e+001
1.158528e+003, 1.887091e+001
1.159010e+003, 1.889014e+001
1.159492e+003, 1.857897e+001
1.159974e+003, 1.800248e+001
1.160456e+003, 1.778280e+001
1.160938e+003, 1.818358e+001
1.161420e+003, 1.852881e+001
1.161903e+003, 1.887123e+001
1.162385e+003, 1.904088e+001
1.162867e+003, 1.890999e+001
1.163349e+003, 1.868227e+001
1.163831e+003, 1.850113e+001
1.164313e+003, 1.834490e+001
1.164795e+003, 1.814421e+001
1.165277e+003, 1.787060e+001
1.165760e+003, 1.781095e+001
1.166242e+003, 1.806774e+001
1.166724e+003, 1.821026e+001
1.167206e+003, 1.816219e+001
1.167688e+003, 1.801389e+001
1.168170e+003, 1.777814e+001
1.168652e+003, 1.755804e+001
1.169134e+003, 1.749037e+001
1.169616e+003, 1.754975e+001
1.170099e+003, 1.765413e+001
1.170581e+003, 1.780594e+001
1.171063e+003, 1.774778e+001
1.171545e+003, 1.746197e+001
1.172027e+003, 1.725164e+001
1.172509e+003, 1.720825e+001
1.172991e+003, 1.721581e+001
1.173473e+003, 1.717757e+001
1.173956e+003, 1.718493e+001
1.174438e+003, 1.748081e+001
1.174920e+003, 1.792949e+001
1.175402e+003, 1.807461e+001
1.175884e+003, 1.797373e+001
1.176366e+003, 1.782647e+001
1.176848e+003, 1.767176e+001
1.177330e+003, 1.745926e+001
1.177813e+003, 1.717844e+001
1.178295e+003, 1.708906e+001
1.178777e+003, 1.761966e+001
1.179259e+003, 1.816739e+001
1.179741e+003, 1.782982e+001
1.180223e+003, 1.713831e+001
1.180705e+003, 1.682407e+001
1.181187e+003, 1.679666e+001
1.181669e+003, 1.671489e+001
1.182151e+003, 1.654543e+001
1.182634e+003, 1.654203e+001
1.183116e+003, 1.686610e+001
1.183598e+003, 1.719480e+001
1.184080e+003, 1.742741e+001
1.184562e+003, 1.749779e+001
1.185044e+003, 1.711013e+001
1.185526e+003, 1.674644e+001
1.186008e+003, 1.714115e+001
1.186490e+003, 1.790444e+001
1.186973e+003, 1.792558e+001
1.187455e+003, 1.696231e+001
1.187937e+003, 1.643895e+001
1.188419e+003, 1.705421e+001
1.188901e+003, 1.750229e+001
1.189383e+003, 1.735188e+001
1.189865e+003, 1.718815e+001
1.190347e+003, 1.733454e+001
1.190830e+003, 1.759424e+001
1.191312e+003, 1.776647e+001
1.191794e+003, 1.786734e+001
1.192276e+003, 1.798880e+001
1.192758e+003, 1.819076e+001
1.193240e+003, 1.818124e+001
1.193722e+003, 1.782817e+001
1.194204e+003, 1.768573e+001
1.194687e+003, 1.795850e+001
1.195169e+003, 1.820786e+001
1.195651e+003, 1.814023e+001
1.196133e+003, 1.793853e+001
1.196615e+003, 1.789619e+001
1.197097e+003, 1.798348e+001
1.197579e+003, 1.798569e+001
1.198061e+003, 1.791579e+001
1.198543e+003, 1.816360e+001
1.199026e+003, 1.871171e+001
1.199508e+003, 1.859848e+001
1.199990e+003, 1.754353e+001
1.200472e+003, 1.665412e+001
1.200954e+003, 1.685400e+001
1.201436e+003, 1.749473e+001
1.201918e+003, 1.773380e+001
1.202400e+003, 1.762531e+001
1.202883e+003, 1.703792e+001
1.203365e+003, 1.627995e+001
1.203847e+003, 1.606383e+001
1.204329e+003, 1.638312e+001
1.204811e+003, 1.690813e+001
1.205293e+003, 1.749185e+001
1.205775e+003, 1.772188e+001
1.206257e+003, 1.709493e+001
1.206740e+003, 1.632247e+001
1.207222e+003, 1.573044e+001
1.207704e+003, 1.540951e+001
1.208186e+003, 1.558832e+001
1.208668e+003, 1.600605e+001
1.209150e+003, 1.639517e+001
1.209632e+003, 1.665819e+001
1.210114e+003, 1.654378e+001
1.210596e+003, 1.577680e+001
1.211078e+003, 1.536393e+001
1.211561e+003, 1.588304e+001
1.212043e+003, 1.625441e+001
1.212525e+003, 1.604230e+001
1.213007e+003, 1.569699e+001
1.213489e+003, 1.542074e+001
1.213971e+003, 1.525841e+001
1.214453e+003, 1.531237e+001
1.214935e+003, 1.556774e+001
1.215417e+003, 1.577368e+001
1.215900e+003, 1.598720e+001
1.216382e+003, 1.587861e+001
1.216864e+003, 1.531349e+001
1.217346e+003, 1.497037e+001
1.217828e+003, 1.509846e+001
1.218310e+003, 1.529422e+001
1.218792e+003, 1.524041e+001
1.219274e+003, 1.510932e+001
1.219757e+003, 1.530984e+001
1.220239e+003, 1.569726e+001
1.220721e+003, 1.546927e+001
1.221203e+003, 1.477111e+001
1.221685e+003, 1.426476e+001
1.222167e+003, 1.404842e+001
1.222649e+003, 1.416828e+001
1.223131e+003, 1.460289e+001
1.223614e+003, 1.500055e+001
1.224096e+003, 1.511210e+001
1.224578e+003, 1.502101e+001
1.225060e+003, 1.458570e+001
1.225542e+003, 1.420756e+001
1.226024e+003, 1.458198e+001
1.226506e+003, 1.521976e+001
1.226988e+003, 1.530352e+001
1.227470e+003, 1.491426e+001
1.227953e+003, 1.462267e+001
1.228435e+003, 1.459192e+001
1.228917e+003, 1.449805e+001
1.229399e+003, 1.402152e+001
1.229881e+003, 1.374545e+001
1.230363e+003, 1.403043e+001
1.230845e+003, 1.437430e+001
1.231327e+003, 1.453731e+001
1.231810e+003, 1.455861e+001
1.232292e+003, 1.444850e+001
1.232774e+003, 1.424829e+001
1.233256e+003, 1.412059e+001
1.233738e+003, 1.410364e+001
1.234220e+003, 1.396061e+001
1.234702e+003, 1.355375e+001
1.235184e+003, 1.352846e+001
1.235667e+003, 1.413696e+001
1.236149e+003, 1.460213e+001
1.236631e+003, 1.450877e+001
1.237113e+003, 1.414175e+001
1.237595e+003, 1.379622e+001
1.238077e+003, 1.352081e+001
1.238559e+003, 1.351696e+001
1.239041e+003, 1.371437e+001
1.239523e+003, 1.374872e+001
1.240005e+003, 1.363069e+001
1.240488e+003, 1.349663e+001
1.240970e+003, 1.337664e+001
1.241452e+003, 1.321307e+001
1.241934e+003, 1.297443e+001
1.242416e+003, 1.286011e+001
1.242898e+003, 1.321257e+001
1.243380e+003, 1.359396e+001
1.243862e+003, 1.353865e+001
1.244344e+003, 1.329483e+001
1.244827e+003, 1.306277e+001
1.245309e+003, 1.289487e+001
1.245791e+003, 1.286628e+001
1.246273e+003, 1.295010e+001
1.246755e+003, 1.298143e+001
1.247237e+003, 1.289879e+001
1.247719e+003, 1.283103e+001
1.248201e+003, 1.285612e+001
1.248684e+003, 1.283072e+001
1.249166e+003, 1.272830e+001
1.249648e+003, 1.253270e+001
1.250130e+003, 1.202958e+001
1.250612e+003, 1.164313e+001
1.251094e+003, 1.204047e+001
1.251576e+003, 1.306215e+001
1.252058e+003, 1.366043e+001
1.252541e+003, 1.378165e+001
1.253023e+003, 1.387726e+001
1.253505e+003, 1.396935e+001
1.253987e+003, 1.389983e+001
1.254469e+003, 1.363011e+001
1.254951e+003, 1.322994e+001
1.255433e+003, 1.272182e+001
1.255915e+003, 1.243460e+001
1.256397e+003, 1.293878e+001
1.256880e+003, 1.369545e+001
1.257362e+003, 1.359376e+001
1.257844e+003, 1.298551e+001
1.258326e+003, 1.236823e+001
1.258808e+003, 1.191644e+001
1.259290e+003, 1.200773e+001
1.259772e+003, 1.255588e+001
1.260254e+003, 1.291467e+001
1.260737e+003, 1.280323e+001
1.261219e+003, 1.263979e+001
1.261701e+003, 1.249161e+001
1.262183e+003, 1.255099e+001
1.262665e+003, 1.325061e+001
1.263147e+003, 1.383284e+001
1.263629e+003, 1.352542e+001
1.264111e+003, 1.290274e+001
1.264594e+003, 1.287740e+001
1.265076e+003, 1.333197e+001
1.265558e+003, 1.342649e+001
1.266040e+003, 1.303958e+001
1.266522e+003, 1.272456e+001
1.267004e+003, 1.248173e+001
1.267486e+003, 1.229034e+001
1.267968e+003, 1.212056e+001
1.268450e+003, 1.216375e+001
1.268932e+003, 1.254886e+001
1.269415e+003, 1.297816e+001
1.269897e+003, 1.311410e+001
1.270379e+003, 1.306269e+001
1.270861e+003, 1.312546e+001
1.271343e+003, 1.320237e+001
1.271825e+003, 1.277963e+001
1.272307e+003, 1.214097e+001
1.272789e+003, 1.232341e+001
1.273271e+003, 1.324939e+001
1.273754e+003, 1.388617e+001
1.274236e+003, 1.384983e+001
1.274718e+003, 1.359664e+001
1.275200e+003, 1.334007e+001
1.275682e+003, 1.307985e+001
1.276164e+003, 1.269271e+001
1.276646e+003, 1.243887e+001
1.277128e+003, 1.263327e+001
1.277611e+003, 1.296630e+001
1.278093e+003, 1.306204e+001
1.278575e+003, 1.298590e+001
1.279057e+003, 1.306915e+001
1.279539e+003, 1.338849e+001
1.280021e+003, 1.329233e+001
1.280503e+003, 1.252326e+001
1.280985e+003, 1.206951e+001
1.281468e+003, 1.207158e+001
1.281950e+003, 1.230577e+001
1.282432e+003, 1.275729e+001
1.282914e+003, 1.298936e+001
1.283396e+003, 1.257298e+001
1.283878e+003, 1.200094e+001
1.284360e+003, 1.229983e+001
1.284842e+003, 1.312742e+001
1.285324e+003, 1.351898e+001
##END=



