##NAMES=Stottite
##RRUFFID=R120089
##IDEAL CHEMISTRY=Fe^2+^Ge^4+^(OH)_6_
##LOCALITY=Tsumeb, Namibia
##OWNER=RRUFF
##SOURCE=William W Pinch
##DESCRIPTION=Yellow to red gemmy crystals and fragments associated with chalcocite R120090, siderite and tennantite
##STATUS=The identification of this mineral has been confirmed only by single crystal X-ray diffraction.
##URL=rruff.info/R120089
9.001007e+001, 0.000000e+000
9.049219e+001, 2.477396e+001
9.097430e+001, 2.483256e+001
9.145642e+001, 2.481400e+001
9.193854e+001, 2.472605e+001
9.242065e+001, 2.463358e+001
9.290277e+001, 2.459107e+001
9.338489e+001, 2.458325e+001
9.386700e+001, 2.458098e+001
9.434912e+001, 2.466105e+001
9.483124e+001, 2.471504e+001
9.531335e+001, 2.441549e+001
9.579547e+001, 2.371182e+001
9.627759e+001, 2.301174e+001
9.675970e+001, 2.285132e+001
9.724182e+001, 2.319507e+001
9.772394e+001, 2.353093e+001
9.820605e+001, 2.367571e+001
9.868817e+001, 2.363237e+001
9.917029e+001, 2.343753e+001
9.965240e+001, 2.308206e+001
1.001345e+002, 2.258845e+001
1.006166e+002, 2.191511e+001
1.010988e+002, 2.097206e+001
1.015809e+002, 2.021609e+001
1.020630e+002, 1.988697e+001
1.025451e+002, 2.001412e+001
1.030272e+002, 2.045323e+001
1.035093e+002, 2.135820e+001
1.039915e+002, 2.255195e+001
1.044736e+002, 2.330354e+001
1.049557e+002, 2.345156e+001
1.054378e+002, 2.338007e+001
1.059199e+002, 2.339106e+001
1.064020e+002, 2.377861e+001
1.068842e+002, 2.367990e+001
1.073663e+002, 2.271429e+001
1.078484e+002, 2.086979e+001
1.083305e+002, 1.973458e+001
1.088126e+002, 1.985316e+001
1.092947e+002, 2.038205e+001
1.097769e+002, 2.054795e+001
1.102590e+002, 2.002030e+001
1.107411e+002, 1.946326e+001
1.112232e+002, 1.899208e+001
1.117053e+002, 1.863386e+001
1.121874e+002, 1.825354e+001
1.126696e+002, 1.783604e+001
1.131517e+002, 1.739595e+001
1.136338e+002, 1.695217e+001
1.141159e+002, 1.635823e+001
1.145980e+002, 1.588499e+001
1.150801e+002, 1.563686e+001
1.155623e+002, 1.568355e+001
1.160444e+002, 1.582409e+001
1.165265e+002, 1.612776e+001
1.170086e+002, 1.649343e+001
1.174907e+002, 1.670011e+001
1.179728e+002, 1.658887e+001
1.184550e+002, 1.634688e+001
1.189371e+002, 1.607131e+001
1.194192e+002, 1.569301e+001
1.199013e+002, 1.542316e+001
1.203834e+002, 1.542304e+001
1.208655e+002, 1.564380e+001
1.213477e+002, 1.589531e+001
1.218298e+002, 1.615009e+001
1.223119e+002, 1.635174e+001
1.227940e+002, 1.643596e+001
1.232761e+002, 1.633549e+001
1.237582e+002, 1.615328e+001
1.242404e+002, 1.589453e+001
1.247225e+002, 1.557557e+001
1.252046e+002, 1.539744e+001
1.256867e+002, 1.569540e+001
1.261688e+002, 1.623427e+001
1.266509e+002, 1.658490e+001
1.271331e+002, 1.653677e+001
1.276152e+002, 1.621960e+001
1.280973e+002, 1.570049e+001
1.285794e+002, 1.495118e+001
1.290615e+002, 1.434261e+001
1.295436e+002, 1.448330e+001
1.300258e+002, 1.519051e+001
1.305079e+002, 1.566125e+001
1.309900e+002, 1.518993e+001
1.314721e+002, 1.416946e+001
1.319542e+002, 1.392472e+001
1.324363e+002, 1.465169e+001
1.329185e+002, 1.567567e+001
1.334006e+002, 1.594425e+001
1.338827e+002, 1.545832e+001
1.343648e+002, 1.490755e+001
1.348469e+002, 1.458025e+001
1.353290e+002, 1.447764e+001
1.358112e+002, 1.470359e+001
1.362933e+002, 1.541760e+001
1.367754e+002, 1.627641e+001
1.372575e+002, 1.632430e+001
1.377396e+002, 1.536205e+001
1.382217e+002, 1.448810e+001
1.387039e+002, 1.453769e+001
1.391860e+002, 1.569310e+001
1.396681e+002, 1.647074e+001
1.401502e+002, 1.663072e+001
1.406323e+002, 1.630731e+001
1.411144e+002, 1.611357e+001
1.415966e+002, 1.614611e+001
1.420787e+002, 1.612116e+001
1.425608e+002, 1.571653e+001
1.430429e+002, 1.463342e+001
1.435250e+002, 1.404246e+001
1.440071e+002, 1.430532e+001
1.444893e+002, 1.537151e+001
1.449714e+002, 1.600995e+001
1.454535e+002, 1.613552e+001
1.459356e+002, 1.590746e+001
1.464177e+002, 1.541987e+001
1.468998e+002, 1.427354e+001
1.473820e+002, 1.348748e+001
1.478641e+002, 1.333320e+001
1.483462e+002, 1.391878e+001
1.488283e+002, 1.439415e+001
1.493104e+002, 1.474360e+001
1.497925e+002, 1.499271e+001
1.502747e+002, 1.517787e+001
1.507568e+002, 1.536026e+001
1.512389e+002, 1.541190e+001
1.517210e+002, 1.525328e+001
1.522031e+002, 1.476940e+001
1.526852e+002, 1.444442e+001
1.531674e+002, 1.443162e+001
1.536495e+002, 1.454795e+001
1.541316e+002, 1.452809e+001
1.546137e+002, 1.427615e+001
1.550958e+002, 1.395074e+001
1.555779e+002, 1.355962e+001
1.560601e+002, 1.298167e+001
1.565422e+002, 1.262726e+001
1.570243e+002, 1.273803e+001
1.575064e+002, 1.310634e+001
1.579885e+002, 1.333010e+001
1.584706e+002, 1.308016e+001
1.589528e+002, 1.284395e+001
1.594349e+002, 1.287575e+001
1.599170e+002, 1.341768e+001
1.603991e+002, 1.386780e+001
1.608812e+002, 1.397706e+001
1.613633e+002, 1.385875e+001
1.618455e+002, 1.381034e+001
1.623276e+002, 1.372974e+001
1.628097e+002, 1.387648e+001
1.632918e+002, 1.445627e+001
1.637739e+002, 1.588318e+001
1.642560e+002, 1.724115e+001
1.647382e+002, 1.785917e+001
1.652203e+002, 1.798590e+001
1.657024e+002, 1.857293e+001
1.661845e+002, 2.062042e+001
1.666666e+002, 2.309549e+001
1.671487e+002, 2.502372e+001
1.676309e+002, 2.553572e+001
1.681130e+002, 2.608756e+001
1.685951e+002, 2.766817e+001
1.690772e+002, 3.014897e+001
1.695593e+002, 3.272500e+001
1.700414e+002, 3.499868e+001
1.705236e+002, 3.708449e+001
1.710057e+002, 3.908388e+001
1.714878e+002, 4.088441e+001
1.719699e+002, 4.275595e+001
1.724520e+002, 4.502702e+001
1.729341e+002, 4.766827e+001
1.734163e+002, 5.018421e+001
1.738984e+002, 5.203962e+001
1.743805e+002, 5.356503e+001
1.748626e+002, 5.525317e+001
1.753447e+002, 5.771080e+001
1.758268e+002, 6.023545e+001
1.763090e+002, 6.199861e+001
1.767911e+002, 6.298048e+001
1.772732e+002, 6.366155e+001
1.777553e+002, 6.401202e+001
1.782374e+002, 6.406618e+001
1.787195e+002, 6.420361e+001
1.792017e+002, 6.458010e+001
1.796838e+002, 6.514108e+001
1.801659e+002, 6.584040e+001
1.806480e+002, 6.669209e+001
1.811301e+002, 6.755801e+001
1.816122e+002, 6.826711e+001
1.820944e+002, 6.888044e+001
1.825765e+002, 6.957957e+001
1.830586e+002, 7.038355e+001
1.835407e+002, 7.133247e+001
1.840228e+002, 7.266354e+001
1.845049e+002, 7.442809e+001
1.849871e+002, 7.621113e+001
1.854692e+002, 7.753171e+001
1.859513e+002, 7.843637e+001
1.864334e+002, 7.908289e+001
1.869155e+002, 7.943822e+001
1.873976e+002, 7.958846e+001
1.878798e+002, 7.987706e+001
1.883619e+002, 8.036232e+001
1.888440e+002, 8.080447e+001
1.893261e+002, 8.079772e+001
1.898082e+002, 8.037301e+001
1.902903e+002, 7.992710e+001
1.907725e+002, 7.962832e+001
1.912546e+002, 7.946668e+001
1.917367e+002, 7.943089e+001
1.922188e+002, 7.953796e+001
1.927009e+002, 7.971819e+001
1.931830e+002, 7.984282e+001
1.936652e+002, 7.991030e+001
1.941473e+002, 8.002440e+001
1.946294e+002, 8.023466e+001
1.951115e+002, 8.053821e+001
1.955936e+002, 8.094025e+001
1.960757e+002, 8.148434e+001
1.965579e+002, 8.205155e+001
1.970400e+002, 8.249606e+001
1.975221e+002, 8.284187e+001
1.980042e+002, 8.284741e+001
1.984863e+002, 8.215542e+001
1.989684e+002, 8.075574e+001
1.994506e+002, 7.988338e+001
1.999327e+002, 7.976158e+001
2.004148e+002, 8.003665e+001
2.008969e+002, 7.992749e+001
2.013790e+002, 7.937337e+001
2.018611e+002, 7.876423e+001
2.023433e+002, 7.828894e+001
2.028254e+002, 7.794475e+001
2.033075e+002, 7.777583e+001
2.037896e+002, 7.783705e+001
2.042717e+002, 7.803011e+001
2.047538e+002, 7.812178e+001
2.052360e+002, 7.811215e+001
2.057181e+002, 7.799924e+001
2.062002e+002, 7.779086e+001
2.066823e+002, 7.749447e+001
2.071644e+002, 7.702877e+001
2.076465e+002, 7.631963e+001
2.081287e+002, 7.547380e+001
2.086108e+002, 7.482188e+001
2.090929e+002, 7.443940e+001
2.095750e+002, 7.403788e+001
2.100571e+002, 7.334189e+001
2.105392e+002, 7.218596e+001
2.110214e+002, 7.155200e+001
2.115035e+002, 7.175596e+001
2.119856e+002, 7.246477e+001
2.124677e+002, 7.244058e+001
2.129498e+002, 7.140311e+001
2.134319e+002, 7.026575e+001
2.139140e+002, 6.959319e+001
2.143962e+002, 6.951546e+001
2.148783e+002, 6.945261e+001
2.153604e+002, 6.940968e+001
2.158425e+002, 6.933978e+001
2.163246e+002, 6.902284e+001
2.168067e+002, 6.834412e+001
2.172889e+002, 6.763377e+001
2.177710e+002, 6.707256e+001
2.182531e+002, 6.666072e+001
2.187352e+002, 6.639631e+001
2.192173e+002, 6.630890e+001
2.196994e+002, 6.636532e+001
2.201816e+002, 6.641405e+001
2.206637e+002, 6.644107e+001
2.211458e+002, 6.648202e+001
2.216279e+002, 6.659180e+001
2.221100e+002, 6.687920e+001
2.225921e+002, 6.691845e+001
2.230743e+002, 6.650432e+001
2.235564e+002, 6.580728e+001
2.240385e+002, 6.566904e+001
2.245206e+002, 6.637403e+001
2.250027e+002, 6.719172e+001
2.254848e+002, 6.764780e+001
2.259670e+002, 6.752187e+001
2.264491e+002, 6.756345e+001
2.269312e+002, 6.785033e+001
2.274133e+002, 6.834948e+001
2.278954e+002, 6.894149e+001
2.283775e+002, 6.969090e+001
2.288597e+002, 7.042343e+001
2.293418e+002, 7.104720e+001
2.298239e+002, 7.161905e+001
2.303060e+002, 7.192524e+001
2.307881e+002, 7.179189e+001
2.312702e+002, 7.135892e+001
2.317524e+002, 7.133887e+001
2.322345e+002, 7.199039e+001
2.327166e+002, 7.268275e+001
2.331987e+002, 7.303277e+001
2.336808e+002, 7.288866e+001
2.341629e+002, 7.273374e+001
2.346451e+002, 7.260067e+001
2.351272e+002, 7.247784e+001
2.356093e+002, 7.230054e+001
2.360914e+002, 7.199269e+001
2.365735e+002, 7.173467e+001
2.370556e+002, 7.161073e+001
2.375378e+002, 7.157498e+001
2.380199e+002, 7.178940e+001
2.385020e+002, 7.236706e+001
2.389841e+002, 7.320766e+001
2.394662e+002, 7.386990e+001
2.399483e+002, 7.424473e+001
2.404305e+002, 7.459631e+001
2.409126e+002, 7.507411e+001
2.413947e+002, 7.574886e+001
2.418768e+002, 7.639088e+001
2.423589e+002, 7.693720e+001
2.428410e+002, 7.744470e+001
2.433232e+002, 7.812462e+001
2.438053e+002, 7.896902e+001
2.442874e+002, 7.999491e+001
2.447695e+002, 8.122796e+001
2.452516e+002, 8.281143e+001
2.457337e+002, 8.428281e+001
2.462159e+002, 8.554278e+001
2.466980e+002, 8.669567e+001
2.471801e+002, 8.804670e+001
2.476622e+002, 8.963525e+001
2.481443e+002, 9.137801e+001
2.486264e+002, 9.322200e+001
2.491086e+002, 9.518419e+001
2.495907e+002, 9.724089e+001
2.500728e+002, 9.945756e+001
2.505549e+002, 1.017505e+002
2.510370e+002, 1.038758e+002
2.515191e+002, 1.057162e+002
2.520013e+002, 1.075837e+002
2.524834e+002, 1.096732e+002
2.529655e+002, 1.121268e+002
2.534476e+002, 1.143542e+002
2.539297e+002, 1.161953e+002
2.544118e+002, 1.178789e+002
2.548940e+002, 1.199841e+002
2.553761e+002, 1.226827e+002
2.558582e+002, 1.255108e+002
2.563403e+002, 1.282795e+002
2.568224e+002, 1.309794e+002
2.573046e+002, 1.335643e+002
2.577867e+002, 1.357680e+002
2.582688e+002, 1.379950e+002
2.587509e+002, 1.411003e+002
2.592330e+002, 1.453842e+002
2.597151e+002, 1.498525e+002
2.601973e+002, 1.541003e+002
2.606794e+002, 1.578875e+002
2.611615e+002, 1.622264e+002
2.616436e+002, 1.673019e+002
2.621257e+002, 1.727165e+002
2.626078e+002, 1.778400e+002
2.630900e+002, 1.826726e+002
2.635721e+002, 1.871360e+002
2.640542e+002, 1.913167e+002
2.645363e+002, 1.954276e+002
2.650184e+002, 1.981954e+002
2.655005e+002, 1.997008e+002
2.659827e+002, 1.998640e+002
2.664648e+002, 1.986517e+002
2.669469e+002, 1.962033e+002
2.674290e+002, 1.919582e+002
2.679111e+002, 1.853019e+002
2.683932e+002, 1.760917e+002
2.688754e+002, 1.670805e+002
2.693575e+002, 1.580935e+002
2.698396e+002, 1.495766e+002
2.703217e+002, 1.421748e+002
2.708038e+002, 1.359099e+002
2.712859e+002, 1.307240e+002
2.717681e+002, 1.266578e+002
2.722502e+002, 1.237157e+002
2.727323e+002, 1.218704e+002
2.732144e+002, 1.213227e+002
2.736965e+002, 1.215300e+002
2.741786e+002, 1.219166e+002
2.746608e+002, 1.224320e+002
2.751429e+002, 1.234204e+002
2.756250e+002, 1.249510e+002
2.761071e+002, 1.270114e+002
2.765892e+002, 1.296951e+002
2.770714e+002, 1.330675e+002
2.775535e+002, 1.367567e+002
2.780356e+002, 1.402966e+002
2.785177e+002, 1.436141e+002
2.789998e+002, 1.475540e+002
2.794819e+002, 1.524100e+002
2.799641e+002, 1.580066e+002
2.804462e+002, 1.634297e+002
2.809283e+002, 1.686935e+002
2.814104e+002, 1.737879e+002
2.818925e+002, 1.786569e+002
2.823746e+002, 1.832936e+002
2.828568e+002, 1.881883e+002
2.833389e+002, 1.934666e+002
2.838210e+002, 1.990221e+002
2.843031e+002, 2.044832e+002
2.847852e+002, 2.098356e+002
2.852673e+002, 2.154416e+002
2.857495e+002, 2.215871e+002
2.862316e+002, 2.282685e+002
2.867137e+002, 2.353821e+002
2.871958e+002, 2.428859e+002
2.876779e+002, 2.508680e+002
2.881600e+002, 2.593131e+002
2.886422e+002, 2.682112e+002
2.891243e+002, 2.782885e+002
2.896064e+002, 2.898026e+002
2.900885e+002, 3.027585e+002
2.905706e+002, 3.167800e+002
2.910527e+002, 3.318481e+002
2.915349e+002, 3.479182e+002
2.920170e+002, 3.649751e+002
2.924991e+002, 3.828767e+002
2.929812e+002, 4.018673e+002
2.934633e+002, 4.227924e+002
2.939454e+002, 4.448483e+002
2.944276e+002, 4.657015e+002
2.949097e+002, 4.852804e+002
2.953918e+002, 5.025299e+002
2.958739e+002, 5.170286e+002
2.963560e+002, 5.282549e+002
2.968381e+002, 5.343755e+002
2.973203e+002, 5.353402e+002
2.978024e+002, 5.304072e+002
2.982845e+002, 5.170298e+002
2.987666e+002, 4.947267e+002
2.992487e+002, 4.676382e+002
2.997308e+002, 4.378013e+002
3.002130e+002, 4.059056e+002
3.006951e+002, 3.743890e+002
3.011772e+002, 3.430323e+002
3.016593e+002, 3.132577e+002
3.021414e+002, 2.866304e+002
3.026235e+002, 2.633627e+002
3.031057e+002, 2.427975e+002
3.035878e+002, 2.252106e+002
3.040699e+002, 2.100338e+002
3.045520e+002, 1.965950e+002
3.050341e+002, 1.847583e+002
3.055162e+002, 1.744919e+002
3.059984e+002, 1.659569e+002
3.064805e+002, 1.590943e+002
3.069626e+002, 1.529385e+002
3.074447e+002, 1.468799e+002
3.079268e+002, 1.411812e+002
3.084089e+002, 1.363050e+002
3.088911e+002, 1.325244e+002
3.093732e+002, 1.293442e+002
3.098553e+002, 1.264723e+002
3.103374e+002, 1.239066e+002
3.108195e+002, 1.215818e+002
3.113016e+002, 1.192140e+002
3.117838e+002, 1.172333e+002
3.122659e+002, 1.160922e+002
3.127480e+002, 1.161378e+002
3.132301e+002, 1.164294e+002
3.137122e+002, 1.163373e+002
3.141943e+002, 1.160783e+002
3.146765e+002, 1.161125e+002
3.151586e+002, 1.167776e+002
3.156407e+002, 1.177053e+002
3.161228e+002, 1.186581e+002
3.166049e+002, 1.195634e+002
3.170870e+002, 1.206650e+002
3.175692e+002, 1.222617e+002
3.180513e+002, 1.240696e+002
3.185334e+002, 1.256820e+002
3.190155e+002, 1.268129e+002
3.194976e+002, 1.278555e+002
3.199797e+002, 1.288586e+002
3.204619e+002, 1.297975e+002
3.209440e+002, 1.310941e+002
3.214261e+002, 1.329231e+002
3.219082e+002, 1.351318e+002
3.223903e+002, 1.375705e+002
3.228724e+002, 1.398101e+002
3.233546e+002, 1.426714e+002
3.238367e+002, 1.465718e+002
3.243188e+002, 1.514761e+002
3.248009e+002, 1.563935e+002
3.252830e+002, 1.605750e+002
3.257651e+002, 1.650359e+002
3.262473e+002, 1.704237e+002
3.267294e+002, 1.778828e+002
3.272115e+002, 1.850241e+002
3.276936e+002, 1.918789e+002
3.281757e+002, 1.982994e+002
3.286578e+002, 2.038587e+002
3.291400e+002, 2.083643e+002
3.296221e+002, 2.121917e+002
3.301042e+002, 2.156162e+002
3.305863e+002, 2.196875e+002
3.310684e+002, 2.216188e+002
3.315505e+002, 2.209976e+002
3.320327e+002, 2.183065e+002
3.325148e+002, 2.145835e+002
3.329969e+002, 2.097900e+002
3.334790e+002, 2.039566e+002
3.339611e+002, 1.968097e+002
3.344432e+002, 1.879166e+002
3.349254e+002, 1.793106e+002
3.354075e+002, 1.708377e+002
3.358896e+002, 1.628710e+002
3.363717e+002, 1.559279e+002
3.368538e+002, 1.500775e+002
3.373359e+002, 1.452458e+002
3.378180e+002, 1.415648e+002
3.383001e+002, 1.390348e+002
3.387823e+002, 1.369993e+002
3.392644e+002, 1.355797e+002
3.397465e+002, 1.344622e+002
3.402286e+002, 1.332626e+002
3.407107e+002, 1.318889e+002
3.411928e+002, 1.310726e+002
3.416750e+002, 1.310479e+002
3.421571e+002, 1.316664e+002
3.426392e+002, 1.324298e+002
3.431213e+002, 1.333788e+002
3.436034e+002, 1.342986e+002
3.440855e+002, 1.350168e+002
3.445677e+002, 1.355373e+002
3.450498e+002, 1.361056e+002
3.455319e+002, 1.367623e+002
3.460140e+002, 1.374533e+002
3.464961e+002, 1.380508e+002
3.469782e+002, 1.385575e+002
3.474604e+002, 1.391064e+002
3.479425e+002, 1.396614e+002
3.484246e+002, 1.403021e+002
3.489067e+002, 1.413443e+002
3.493888e+002, 1.428423e+002
3.498709e+002, 1.445548e+002
3.503531e+002, 1.461671e+002
3.508352e+002, 1.477378e+002
3.513173e+002, 1.494764e+002
3.517994e+002, 1.514626e+002
3.522815e+002, 1.536913e+002
3.527636e+002, 1.563019e+002
3.532458e+002, 1.592918e+002
3.537279e+002, 1.621886e+002
3.542100e+002, 1.643991e+002
3.546921e+002, 1.662696e+002
3.551742e+002, 1.684308e+002
3.556563e+002, 1.714889e+002
3.561385e+002, 1.745052e+002
3.566206e+002, 1.765346e+002
3.571027e+002, 1.777112e+002
3.575848e+002, 1.786589e+002
3.580669e+002, 1.798841e+002
3.585490e+002, 1.810090e+002
3.590312e+002, 1.817464e+002
3.595133e+002, 1.822139e+002
3.599954e+002, 1.819094e+002
3.604775e+002, 1.804968e+002
3.609596e+002, 1.780987e+002
3.614417e+002, 1.750102e+002
3.619239e+002, 1.710473e+002
3.624060e+002, 1.666436e+002
3.628881e+002, 1.619414e+002
3.633702e+002, 1.568882e+002
3.638523e+002, 1.519143e+002
3.643344e+002, 1.471923e+002
3.648166e+002, 1.426111e+002
3.652987e+002, 1.380054e+002
3.657808e+002, 1.330903e+002
3.662629e+002, 1.285182e+002
3.667450e+002, 1.244718e+002
3.672271e+002, 1.209545e+002
3.677093e+002, 1.178029e+002
3.681914e+002, 1.149911e+002
3.686735e+002, 1.125408e+002
3.691556e+002, 1.104516e+002
3.696377e+002, 1.086426e+002
3.701198e+002, 1.073612e+002
3.706020e+002, 1.069331e+002
3.710841e+002, 1.070838e+002
3.715662e+002, 1.068114e+002
3.720483e+002, 1.058871e+002
3.725304e+002, 1.048199e+002
3.730125e+002, 1.037746e+002
3.734947e+002, 1.026739e+002
3.739768e+002, 1.018666e+002
3.744589e+002, 1.015072e+002
3.749410e+002, 1.013085e+002
3.754231e+002, 1.007773e+002
3.759052e+002, 9.975867e+001
3.763874e+002, 9.884212e+001
3.768695e+002, 9.825731e+001
3.773516e+002, 9.798811e+001
3.778337e+002, 9.757356e+001
3.783158e+002, 9.698611e+001
3.787979e+002, 9.632420e+001
3.792801e+002, 9.566784e+001
3.797622e+002, 9.500954e+001
3.802443e+002, 9.441573e+001
3.807264e+002, 9.389223e+001
3.812085e+002, 9.343920e+001
3.816906e+002, 9.299033e+001
3.821728e+002, 9.254089e+001
3.826549e+002, 9.231422e+001
3.831370e+002, 9.261510e+001
3.836191e+002, 9.329842e+001
3.841012e+002, 9.372658e+001
3.845833e+002, 9.376480e+001
3.850655e+002, 9.378828e+001
3.855476e+002, 9.445852e+001
3.860297e+002, 9.558927e+001
3.865118e+002, 9.647001e+001
3.869939e+002, 9.645479e+001
3.874760e+002, 9.611697e+001
3.879582e+002, 9.634330e+001
3.884403e+002, 9.715888e+001
3.889224e+002, 9.807430e+001
3.894045e+002, 9.868104e+001
3.898866e+002, 9.913486e+001
3.903687e+002, 9.966080e+001
3.908509e+002, 1.003633e+002
3.913330e+002, 1.011216e+002
3.918151e+002, 1.018879e+002
3.922972e+002, 1.026523e+002
3.927793e+002, 1.033850e+002
3.932614e+002, 1.039421e+002
3.937436e+002, 1.045398e+002
3.942257e+002, 1.053848e+002
3.947078e+002, 1.066424e+002
3.951899e+002, 1.078119e+002
3.956720e+002, 1.084247e+002
3.961541e+002, 1.088860e+002
3.966363e+002, 1.098476e+002
3.971184e+002, 1.120293e+002
3.976005e+002, 1.142117e+002
3.980826e+002, 1.159528e+002
3.985647e+002, 1.171739e+002
3.990468e+002, 1.184337e+002
3.995290e+002, 1.195810e+002
4.000111e+002, 1.209021e+002
4.004932e+002, 1.226338e+002
4.009753e+002, 1.251519e+002
4.014574e+002, 1.275856e+002
4.019395e+002, 1.298328e+002
4.024217e+002, 1.319271e+002
4.029038e+002, 1.339556e+002
4.033859e+002, 1.358055e+002
4.038680e+002, 1.377565e+002
4.043501e+002, 1.399620e+002
4.048322e+002, 1.424527e+002
4.053144e+002, 1.450297e+002
4.057965e+002, 1.476738e+002
4.062786e+002, 1.503901e+002
4.067607e+002, 1.531780e+002
4.072428e+002, 1.560442e+002
4.077249e+002, 1.589689e+002
4.082071e+002, 1.620076e+002
4.086892e+002, 1.651033e+002
4.091713e+002, 1.676361e+002
4.096534e+002, 1.694930e+002
4.101355e+002, 1.715057e+002
4.106176e+002, 1.746401e+002
4.110998e+002, 1.787034e+002
4.115819e+002, 1.825288e+002
4.120640e+002, 1.859322e+002
4.125461e+002, 1.889326e+002
4.130282e+002, 1.915459e+002
4.135103e+002, 1.937960e+002
4.139925e+002, 1.958912e+002
4.144746e+002, 1.980374e+002
4.149567e+002, 2.001029e+002
4.154388e+002, 2.019258e+002
4.159209e+002, 2.035347e+002
4.164030e+002, 2.046782e+002
4.168852e+002, 2.049516e+002
4.173673e+002, 2.046674e+002
4.178494e+002, 2.043410e+002
4.183315e+002, 2.043693e+002
4.188136e+002, 2.042602e+002
4.192957e+002, 2.036363e+002
4.197779e+002, 2.025602e+002
4.202600e+002, 2.014010e+002
4.207421e+002, 2.004163e+002
4.212242e+002, 1.993645e+002
4.217063e+002, 1.980832e+002
4.221884e+002, 1.964127e+002
4.226706e+002, 1.947273e+002
4.231527e+002, 1.930513e+002
4.236348e+002, 1.914185e+002
4.241169e+002, 1.898842e+002
4.245990e+002, 1.884677e+002
4.250811e+002, 1.871163e+002
4.255633e+002, 1.858182e+002
4.260454e+002, 1.845715e+002
4.265275e+002, 1.833638e+002
4.270096e+002, 1.822500e+002
4.274917e+002, 1.811120e+002
4.279738e+002, 1.798013e+002
4.284560e+002, 1.780455e+002
4.289381e+002, 1.767364e+002
4.294202e+002, 1.762765e+002
4.299023e+002, 1.762820e+002
4.303844e+002, 1.752724e+002
4.308665e+002, 1.729121e+002
4.313487e+002, 1.705049e+002
4.318308e+002, 1.687749e+002
4.323129e+002, 1.677725e+002
4.327950e+002, 1.665313e+002
4.332771e+002, 1.650000e+002
4.337592e+002, 1.633584e+002
4.342414e+002, 1.617579e+002
4.347235e+002, 1.602079e+002
4.352056e+002, 1.588227e+002
4.356877e+002, 1.577072e+002
4.361698e+002, 1.567383e+002
4.366519e+002, 1.556204e+002
4.371341e+002, 1.543623e+002
4.376162e+002, 1.531164e+002
4.380983e+002, 1.519385e+002
4.385804e+002, 1.508495e+002
4.390625e+002, 1.499239e+002
4.395446e+002, 1.492271e+002
4.400268e+002, 1.485137e+002
4.405089e+002, 1.475126e+002
4.409910e+002, 1.463300e+002
4.414731e+002, 1.452010e+002
4.419552e+002, 1.440354e+002
4.424373e+002, 1.430975e+002
4.429195e+002, 1.426608e+002
4.434016e+002, 1.427146e+002
4.438837e+002, 1.427090e+002
4.443658e+002, 1.423730e+002
4.448479e+002, 1.419062e+002
4.453300e+002, 1.414678e+002
4.458122e+002, 1.411123e+002
4.462943e+002, 1.407481e+002
4.467764e+002, 1.403987e+002
4.472585e+002, 1.400283e+002
4.477406e+002, 1.395465e+002
4.482227e+002, 1.390567e+002
4.487049e+002, 1.383398e+002
4.491870e+002, 1.372291e+002
4.496691e+002, 1.356171e+002
4.501512e+002, 1.343565e+002
4.506333e+002, 1.337282e+002
4.511154e+002, 1.331659e+002
4.515976e+002, 1.320827e+002
4.520797e+002, 1.303036e+002
4.525618e+002, 1.286689e+002
4.530439e+002, 1.274329e+002
4.535260e+002, 1.263683e+002
4.540081e+002, 1.245881e+002
4.544903e+002, 1.219812e+002
4.549724e+002, 1.193376e+002
4.554545e+002, 1.171675e+002
4.559366e+002, 1.153880e+002
4.564187e+002, 1.131706e+002
4.569008e+002, 1.104355e+002
4.573830e+002, 1.076481e+002
4.578651e+002, 1.055859e+002
4.583472e+002, 1.039895e+002
4.588293e+002, 1.020884e+002
4.593114e+002, 9.932389e+001
4.597935e+002, 9.642358e+001
4.602757e+002, 9.436309e+001
4.607578e+002, 9.301020e+001
4.612399e+002, 9.164853e+001
4.617220e+002, 8.967315e+001
4.622041e+002, 8.756529e+001
4.626862e+002, 8.583749e+001
4.631684e+002, 8.463721e+001
4.636505e+002, 8.350327e+001
4.641326e+002, 8.220261e+001
4.646147e+002, 8.084803e+001
4.650968e+002, 7.956242e+001
4.655789e+002, 7.841895e+001
4.660611e+002, 7.735204e+001
4.665432e+002, 7.633431e+001
4.670253e+002, 7.537191e+001
4.675074e+002, 7.447941e+001
4.679895e+002, 7.370881e+001
4.684716e+002, 7.296821e+001
4.689538e+002, 7.218966e+001
4.694359e+002, 7.119641e+001
4.699180e+002, 7.059427e+001
4.704001e+002, 7.060480e+001
4.708822e+002, 7.084660e+001
4.713643e+002, 7.070779e+001
4.718465e+002, 7.001976e+001
4.723286e+002, 6.944583e+001
4.728107e+002, 6.920350e+001
4.732928e+002, 6.922178e+001
4.737749e+002, 6.907322e+001
4.742570e+002, 6.874550e+001
4.747392e+002, 6.831367e+001
4.752213e+002, 6.773405e+001
4.757034e+002, 6.705572e+001
4.761855e+002, 6.663771e+001
4.766676e+002, 6.654770e+001
4.771497e+002, 6.662108e+001
4.776319e+002, 6.665913e+001
4.781140e+002, 6.668043e+001
4.785961e+002, 6.674459e+001
4.790782e+002, 6.692127e+001
4.795603e+002, 6.712796e+001
4.800424e+002, 6.724601e+001
4.805246e+002, 6.729001e+001
4.810067e+002, 6.737386e+001
4.814888e+002, 6.769932e+001
4.819709e+002, 6.802409e+001
4.824530e+002, 6.810556e+001
4.829352e+002, 6.779749e+001
4.834173e+002, 6.749319e+001
4.838994e+002, 6.737138e+001
4.843815e+002, 6.734408e+001
4.848636e+002, 6.727874e+001
4.853457e+002, 6.726678e+001
4.858279e+002, 6.708983e+001
4.863100e+002, 6.650909e+001
4.867921e+002, 6.552907e+001
4.872742e+002, 6.507099e+001
4.877563e+002, 6.553648e+001
4.882384e+002, 6.611395e+001
4.887206e+002, 6.632988e+001
4.892027e+002, 6.598471e+001
4.896848e+002, 6.584639e+001
4.901669e+002, 6.604481e+001
4.906490e+002, 6.632323e+001
4.911311e+002, 6.627586e+001
4.916133e+002, 6.587955e+001
4.920954e+002, 6.529353e+001
4.925775e+002, 6.440640e+001
4.930596e+002, 6.340825e+001
4.935417e+002, 6.311532e+001
4.940238e+002, 6.353717e+001
4.945060e+002, 6.401620e+001
4.949881e+002, 6.405589e+001
4.954702e+002, 6.377715e+001
4.959523e+002, 6.347307e+001
4.964344e+002, 6.317958e+001
4.969165e+002, 6.287140e+001
4.973987e+002, 6.241787e+001
4.978808e+002, 6.193945e+001
4.983629e+002, 6.167299e+001
4.988450e+002, 6.195319e+001
4.993271e+002, 6.227721e+001
4.998092e+002, 6.231047e+001
5.002914e+002, 6.209198e+001
5.007735e+002, 6.184378e+001
5.012556e+002, 6.168744e+001
5.017377e+002, 6.150039e+001
5.022198e+002, 6.116106e+001
5.027019e+002, 6.047850e+001
5.031841e+002, 6.010408e+001
5.036662e+002, 6.029933e+001
5.041483e+002, 6.077159e+001
5.046304e+002, 6.119784e+001
5.051125e+002, 6.169309e+001
5.055946e+002, 6.193829e+001
5.060768e+002, 6.178608e+001
5.065589e+002, 6.133559e+001
5.070410e+002, 6.108816e+001
5.075231e+002, 6.108268e+001
5.080052e+002, 6.116827e+001
5.084873e+002, 6.130190e+001
5.089695e+002, 6.148240e+001
5.094516e+002, 6.156111e+001
5.099337e+002, 6.151389e+001
5.104158e+002, 6.145967e+001
5.108979e+002, 6.155043e+001
5.113800e+002, 6.175840e+001
5.118622e+002, 6.194996e+001
5.123443e+002, 6.206450e+001
5.128264e+002, 6.218396e+001
5.133085e+002, 6.247924e+001
5.137906e+002, 6.289222e+001
5.142728e+002, 6.321388e+001
5.147549e+002, 6.322630e+001
5.152370e+002, 6.316277e+001
5.157191e+002, 6.320929e+001
5.162012e+002, 6.338293e+001
5.166833e+002, 6.363958e+001
5.171655e+002, 6.408281e+001
5.176476e+002, 6.453663e+001
5.181297e+002, 6.484733e+001
5.186118e+002, 6.472956e+001
5.190939e+002, 6.478413e+001
5.195760e+002, 6.530834e+001
5.200582e+002, 6.605565e+001
5.205403e+002, 6.644607e+001
5.210224e+002, 6.622121e+001
5.215045e+002, 6.598939e+001
5.219866e+002, 6.588332e+001
5.224688e+002, 6.590318e+001
5.229509e+002, 6.608902e+001
5.234330e+002, 6.649726e+001
5.239151e+002, 6.694006e+001
5.243972e+002, 6.723108e+001
5.248793e+002, 6.736236e+001
5.253615e+002, 6.770585e+001
5.258436e+002, 6.835876e+001
5.263257e+002, 6.905907e+001
5.268078e+002, 6.938787e+001
5.272899e+002, 6.940379e+001
5.277720e+002, 6.937438e+001
5.282542e+002, 6.939170e+001
5.287363e+002, 6.943009e+001
5.292184e+002, 6.939650e+001
5.297005e+002, 6.932556e+001
5.301826e+002, 6.940425e+001
5.306647e+002, 6.985243e+001
5.311469e+002, 7.043704e+001
5.316290e+002, 7.100072e+001
5.321111e+002, 7.154369e+001
5.325932e+002, 7.193974e+001
5.330753e+002, 7.210725e+001
5.335574e+002, 7.211960e+001
5.340396e+002, 7.205022e+001
5.345217e+002, 7.170711e+001
5.350038e+002, 7.152626e+001
5.354859e+002, 7.164327e+001
5.359680e+002, 7.196980e+001
5.364501e+002, 7.223091e+001
5.369323e+002, 7.239594e+001
5.374144e+002, 7.254597e+001
5.378965e+002, 7.269379e+001
5.383786e+002, 7.283651e+001
5.388607e+002, 7.306615e+001
5.393428e+002, 7.340485e+001
5.398250e+002, 7.375355e+001
5.403071e+002, 7.400274e+001
5.407892e+002, 7.416135e+001
5.412713e+002, 7.433640e+001
5.417534e+002, 7.452404e+001
5.422355e+002, 7.478279e+001
5.427177e+002, 7.524562e+001
5.431998e+002, 7.585974e+001
5.436819e+002, 7.644536e+001
5.441640e+002, 7.685699e+001
5.446461e+002, 7.723887e+001
5.451282e+002, 7.775478e+001
5.456104e+002, 7.837974e+001
5.460925e+002, 7.896909e+001
5.465746e+002, 7.939380e+001
5.470567e+002, 7.979374e+001
5.475388e+002, 8.028487e+001
5.480209e+002, 8.092883e+001
5.485031e+002, 8.150253e+001
5.489852e+002, 8.177882e+001
5.494673e+002, 8.205222e+001
5.499494e+002, 8.263598e+001
5.504315e+002, 8.367439e+001
5.509136e+002, 8.481454e+001
5.513958e+002, 8.613071e+001
5.518779e+002, 8.750168e+001
5.523600e+002, 8.852067e+001
5.528421e+002, 8.912228e+001
5.533242e+002, 8.961605e+001
5.538063e+002, 9.007735e+001
5.542885e+002, 9.052580e+001
5.547706e+002, 9.114610e+001
5.552527e+002, 9.195093e+001
5.557348e+002, 9.279459e+001
5.562169e+002, 9.355449e+001
5.566990e+002, 9.425224e+001
5.571812e+002, 9.500321e+001
5.576633e+002, 9.587385e+001
5.581454e+002, 9.661198e+001
5.586275e+002, 9.683562e+001
5.591096e+002, 9.677609e+001
5.595917e+002, 9.684575e+001
5.600739e+002, 9.732617e+001
5.605560e+002, 9.786509e+001
5.610381e+002, 9.826299e+001
5.615202e+002, 9.855904e+001
5.620023e+002, 9.894769e+001
5.624844e+002, 9.978329e+001
5.629666e+002, 1.004593e+002
5.634487e+002, 1.006332e+002
5.639308e+002, 1.001809e+002
5.644129e+002, 9.985262e+001
5.648950e+002, 9.968827e+001
5.653771e+002, 9.960233e+001
5.658593e+002, 9.954209e+001
5.663414e+002, 9.953069e+001
5.668235e+002, 9.939928e+001
5.673056e+002, 9.903421e+001
5.677877e+002, 9.868892e+001
5.682698e+002, 9.894979e+001
5.687520e+002, 9.977698e+001
5.692341e+002, 1.004440e+002
5.697162e+002, 1.005745e+002
5.701983e+002, 1.004491e+002
5.706804e+002, 1.006282e+002
5.711625e+002, 1.010642e+002
5.716447e+002, 1.014249e+002
5.721268e+002, 1.013082e+002
5.726089e+002, 1.011202e+002
5.730910e+002, 1.012877e+002
5.735731e+002, 1.018979e+002
5.740552e+002, 1.025640e+002
5.745374e+002, 1.031547e+002
5.750195e+002, 1.037015e+002
5.755016e+002, 1.042361e+002
5.759837e+002, 1.045687e+002
5.764658e+002, 1.051304e+002
5.769479e+002, 1.062212e+002
5.774301e+002, 1.075052e+002
5.779122e+002, 1.082790e+002
5.783943e+002, 1.081871e+002
5.788764e+002, 1.083121e+002
5.793585e+002, 1.090313e+002
5.798406e+002, 1.102343e+002
5.803228e+002, 1.110981e+002
5.808049e+002, 1.115621e+002
5.812870e+002, 1.120709e+002
5.817691e+002, 1.129520e+002
5.822512e+002, 1.141368e+002
5.827333e+002, 1.154234e+002
5.832155e+002, 1.168294e+002
5.836975e+002, 1.181036e+002
5.841796e+002, 1.189044e+002
5.846617e+002, 1.194669e+002
5.851439e+002, 1.202034e+002
5.856260e+002, 1.213371e+002
5.861081e+002, 1.224733e+002
5.865902e+002, 1.232803e+002
5.870723e+002, 1.239330e+002
5.875544e+002, 1.247504e+002
5.880366e+002, 1.258004e+002
5.885187e+002, 1.270704e+002
5.890008e+002, 1.286302e+002
5.894829e+002, 1.304642e+002
5.899650e+002, 1.322562e+002
5.904471e+002, 1.340417e+002
5.909293e+002, 1.357360e+002
5.914114e+002, 1.372452e+002
5.918935e+002, 1.385315e+002
5.923756e+002, 1.399259e+002
5.928577e+002, 1.414235e+002
5.933398e+002, 1.430501e+002
5.938220e+002, 1.449147e+002
5.943041e+002, 1.469840e+002
5.947862e+002, 1.489794e+002
5.952683e+002, 1.508286e+002
5.957504e+002, 1.526643e+002
5.962325e+002, 1.545717e+002
5.967147e+002, 1.566308e+002
5.971968e+002, 1.590060e+002
5.976789e+002, 1.622404e+002
5.981610e+002, 1.654530e+002
5.986431e+002, 1.677341e+002
5.991252e+002, 1.693380e+002
5.996074e+002, 1.714803e+002
6.000895e+002, 1.749321e+002
6.005716e+002, 1.787554e+002
6.010537e+002, 1.825685e+002
6.015358e+002, 1.863168e+002
6.020179e+002, 1.899871e+002
6.025001e+002, 1.934420e+002
6.029822e+002, 1.969677e+002
6.034643e+002, 2.007847e+002
6.039464e+002, 2.049894e+002
6.044285e+002, 2.091553e+002
6.049106e+002, 2.131287e+002
6.053928e+002, 2.173559e+002
6.058749e+002, 2.227910e+002
6.063570e+002, 2.293684e+002
6.068391e+002, 2.358783e+002
6.073212e+002, 2.418629e+002
6.078033e+002, 2.476886e+002
6.082855e+002, 2.538006e+002
6.087676e+002, 2.602191e+002
6.092497e+002, 2.672585e+002
6.097318e+002, 2.752282e+002
6.102139e+002, 2.837114e+002
6.106960e+002, 2.922194e+002
6.111782e+002, 3.007480e+002
6.116603e+002, 3.098147e+002
6.121424e+002, 3.197243e+002
6.126245e+002, 3.302418e+002
6.131066e+002, 3.412294e+002
6.135887e+002, 3.529200e+002
6.140709e+002, 3.647273e+002
6.145530e+002, 3.763242e+002
6.150351e+002, 3.884772e+002
6.155172e+002, 4.022640e+002
6.159993e+002, 4.181163e+002
6.164814e+002, 4.341606e+002
6.169636e+002, 4.499337e+002
6.174457e+002, 4.660163e+002
6.179278e+002, 4.839200e+002
6.184099e+002, 5.035552e+002
6.188920e+002, 5.237605e+002
6.193741e+002, 5.441740e+002
6.198563e+002, 5.650214e+002
6.203384e+002, 5.858080e+002
6.208205e+002, 6.068118e+002
6.213026e+002, 6.294544e+002
6.217847e+002, 6.553715e+002
6.222668e+002, 6.827708e+002
6.227490e+002, 7.098415e+002
6.232311e+002, 7.365073e+002
6.237132e+002, 7.634429e+002
6.241953e+002, 7.906866e+002
6.246774e+002, 8.183654e+002
6.251595e+002, 8.466052e+002
6.256417e+002, 8.754373e+002
6.261238e+002, 9.048878e+002
6.266059e+002, 9.347856e+002
6.270880e+002, 9.651498e+002
6.275701e+002, 9.961292e+002
6.280522e+002, 1.027893e+003
6.285344e+002, 1.058821e+003
6.290165e+002, 1.088638e+003
6.294986e+002, 1.117363e+003
6.299807e+002, 1.145480e+003
6.304628e+002, 1.172829e+003
6.309449e+002, 1.197781e+003
6.314271e+002, 1.219639e+003
6.319092e+002, 1.238908e+003
6.323913e+002, 1.256286e+003
6.328734e+002, 1.271695e+003
6.333555e+002, 1.284236e+003
6.338376e+002, 1.294537e+003
6.343198e+002, 1.301129e+003
6.348019e+002, 1.303342e+003
6.352840e+002, 1.301118e+003
6.357661e+002, 1.294202e+003
6.362482e+002, 1.281476e+003
6.367303e+002, 1.265048e+003
6.372125e+002, 1.246255e+003
6.376946e+002, 1.225154e+003
6.381767e+002, 1.201336e+003
6.386588e+002, 1.175025e+003
6.391409e+002, 1.145713e+003
6.396230e+002, 1.112395e+003
6.401052e+002, 1.075196e+003
6.405873e+002, 1.037561e+003
6.410694e+002, 1.000508e+003
6.415515e+002, 9.638035e+002
6.420336e+002, 9.278055e+002
6.425157e+002, 8.925495e+002
6.429979e+002, 8.574304e+002
6.434800e+002, 8.221017e+002
6.439621e+002, 7.872434e+002
6.444442e+002, 7.535635e+002
6.449263e+002, 7.209942e+002
6.454084e+002, 6.897789e+002
6.458906e+002, 6.603428e+002
6.463727e+002, 6.322933e+002
6.468548e+002, 6.054109e+002
6.473369e+002, 5.796966e+002
6.478190e+002, 5.555291e+002
6.483011e+002, 5.335386e+002
6.487833e+002, 5.124462e+002
6.492654e+002, 4.914814e+002
6.497475e+002, 4.702865e+002
6.502296e+002, 4.505753e+002
6.507117e+002, 4.324575e+002
6.511938e+002, 4.155015e+002
6.516760e+002, 3.994445e+002
6.521581e+002, 3.842625e+002
6.526402e+002, 3.704857e+002
6.531223e+002, 3.585697e+002
6.536044e+002, 3.473703e+002
6.540865e+002, 3.353271e+002
6.545687e+002, 3.230887e+002
6.550508e+002, 3.118495e+002
6.555329e+002, 3.023893e+002
6.560150e+002, 2.935053e+002
6.564971e+002, 2.849080e+002
6.569792e+002, 2.765541e+002
6.574614e+002, 2.682234e+002
6.579435e+002, 2.596368e+002
6.584256e+002, 2.514418e+002
6.589077e+002, 2.438064e+002
6.593898e+002, 2.367327e+002
6.598719e+002, 2.303371e+002
6.603541e+002, 2.246846e+002
6.608362e+002, 2.194280e+002
6.613183e+002, 2.143758e+002
6.618004e+002, 2.095214e+002
6.622825e+002, 2.044961e+002
6.627646e+002, 1.992626e+002
6.632468e+002, 1.942005e+002
6.637289e+002, 1.896909e+002
6.642110e+002, 1.855378e+002
6.646931e+002, 1.814571e+002
6.651752e+002, 1.772754e+002
6.656573e+002, 1.734396e+002
6.661395e+002, 1.704036e+002
6.666216e+002, 1.676895e+002
6.671037e+002, 1.647090e+002
6.675858e+002, 1.609477e+002
6.680679e+002, 1.574548e+002
6.685500e+002, 1.543599e+002
6.690322e+002, 1.515722e+002
6.695143e+002, 1.490214e+002
6.699964e+002, 1.467475e+002
6.704785e+002, 1.444336e+002
6.709606e+002, 1.419209e+002
6.714427e+002, 1.393353e+002
6.719249e+002, 1.370897e+002
6.724070e+002, 1.351487e+002
6.728891e+002, 1.333059e+002
6.733712e+002, 1.315495e+002
6.738533e+002, 1.297747e+002
6.743354e+002, 1.278346e+002
6.748176e+002, 1.257435e+002
6.752997e+002, 1.237448e+002
6.757818e+002, 1.220117e+002
6.762639e+002, 1.203958e+002
6.767460e+002, 1.188062e+002
6.772281e+002, 1.172646e+002
6.777103e+002, 1.157513e+002
6.781924e+002, 1.142345e+002
6.786745e+002, 1.127774e+002
6.791566e+002, 1.114167e+002
6.796387e+002, 1.101613e+002
6.801208e+002, 1.089344e+002
6.806030e+002, 1.077068e+002
6.810851e+002, 1.065373e+002
6.815672e+002, 1.055270e+002
6.820493e+002, 1.046284e+002
6.825314e+002, 1.035853e+002
6.830135e+002, 1.023164e+002
6.834957e+002, 1.009533e+002
6.839778e+002, 9.954513e+001
6.844599e+002, 9.815771e+001
6.849420e+002, 9.696761e+001
6.854241e+002, 9.610731e+001
6.859063e+002, 9.535378e+001
6.863884e+002, 9.471384e+001
6.868705e+002, 9.412377e+001
6.873526e+002, 9.335121e+001
6.878347e+002, 9.222854e+001
6.883168e+002, 9.113606e+001
6.887990e+002, 9.015685e+001
6.892811e+002, 8.928841e+001
6.897632e+002, 8.869411e+001
6.902453e+002, 8.844557e+001
6.907274e+002, 8.799970e+001
6.912095e+002, 8.676604e+001
6.916917e+002, 8.511863e+001
6.921738e+002, 8.427099e+001
6.926559e+002, 8.421378e+001
6.931380e+002, 8.419553e+001
6.936201e+002, 8.364955e+001
6.941022e+002, 8.288777e+001
6.945844e+002, 8.217974e+001
6.950665e+002, 8.156133e+001
6.955486e+002, 8.101881e+001
6.960307e+002, 8.057352e+001
6.965128e+002, 8.018609e+001
6.969949e+002, 7.983823e+001
6.974771e+002, 7.968029e+001
6.979592e+002, 7.921134e+001
6.984413e+002, 7.824875e+001
6.989234e+002, 7.721687e+001
6.994055e+002, 7.673922e+001
6.998876e+002, 7.683214e+001
7.003698e+002, 7.656483e+001
7.008519e+002, 7.566931e+001
7.013340e+002, 7.466650e+001
7.018161e+002, 7.444217e+001
7.022982e+002, 7.469676e+001
7.027803e+002, 7.465466e+001
7.032625e+002, 7.364597e+001
7.037446e+002, 7.271513e+001
7.042267e+002, 7.274715e+001
7.047088e+002, 7.336478e+001
7.051909e+002, 7.374152e+001
7.056730e+002, 7.358086e+001
7.061552e+002, 7.322752e+001
7.066373e+002, 7.265613e+001
7.071194e+002, 7.194643e+001
7.076015e+002, 7.149592e+001
7.080836e+002, 7.139285e+001
7.085657e+002, 7.127949e+001
7.090479e+002, 7.094828e+001
7.095300e+002, 7.049321e+001
7.100121e+002, 7.041505e+001
7.104942e+002, 7.069357e+001
7.109763e+002, 7.085652e+001
7.114584e+002, 7.038030e+001
7.119406e+002, 6.971647e+001
7.124227e+002, 6.948844e+001
7.129048e+002, 6.971445e+001
7.133869e+002, 6.989091e+001
7.138690e+002, 6.985573e+001
7.143511e+002, 6.962794e+001
7.148333e+002, 6.912977e+001
7.153154e+002, 6.812782e+001
7.157975e+002, 6.767535e+001
7.162796e+002, 6.815311e+001
7.167617e+002, 6.871852e+001
7.172438e+002, 6.863265e+001
7.177260e+002, 6.781175e+001
7.182081e+002, 6.730698e+001
7.186902e+002, 6.723652e+001
7.191723e+002, 6.726971e+001
7.196544e+002, 6.694544e+001
7.201365e+002, 6.642678e+001
7.206187e+002, 6.612957e+001
7.211008e+002, 6.616746e+001
7.215829e+002, 6.636693e+001
7.220650e+002, 6.681313e+001
7.225471e+002, 6.726669e+001
7.230292e+002, 6.741462e+001
7.235114e+002, 6.672477e+001
7.239935e+002, 6.626128e+001
7.244756e+002, 6.639632e+001
7.249577e+002, 6.677395e+001
7.254398e+002, 6.675365e+001
7.259219e+002, 6.614582e+001
7.264041e+002, 6.572726e+001
7.268862e+002, 6.570351e+001
7.273683e+002, 6.592689e+001
7.278504e+002, 6.606953e+001
7.283325e+002, 6.614027e+001
7.288146e+002, 6.620179e+001
7.292968e+002, 6.636107e+001
7.297789e+002, 6.645607e+001
7.302610e+002, 6.617061e+001
7.307431e+002, 6.564118e+001
7.312252e+002, 6.532047e+001
7.317073e+002, 6.575593e+001
7.321895e+002, 6.610042e+001
7.326716e+002, 6.586897e+001
7.331537e+002, 6.510487e+001
7.336358e+002, 6.465516e+001
7.341179e+002, 6.466111e+001
7.346000e+002, 6.473447e+001
7.350822e+002, 6.469830e+001
7.355643e+002, 6.457674e+001
7.360464e+002, 6.467564e+001
7.365285e+002, 6.501165e+001
7.370106e+002, 6.524561e+001
7.374927e+002, 6.498739e+001
7.379749e+002, 6.452290e+001
7.384570e+002, 6.436714e+001
7.389391e+002, 6.454004e+001
7.394212e+002, 6.473885e+001
7.399033e+002, 6.475562e+001
7.403854e+002, 6.475220e+001
7.408676e+002, 6.488144e+001
7.413497e+002, 6.524236e+001
7.418318e+002, 6.538142e+001
7.423139e+002, 6.506477e+001
7.427960e+002, 6.475700e+001
7.432781e+002, 6.485074e+001
7.437603e+002, 6.545722e+001
7.442424e+002, 6.559142e+001
7.447245e+002, 6.512762e+001
7.452066e+002, 6.461215e+001
7.456887e+002, 6.475727e+001
7.461708e+002, 6.528963e+001
7.466530e+002, 6.541544e+001
7.471351e+002, 6.490916e+001
7.476172e+002, 6.447937e+001
7.480993e+002, 6.490644e+001
7.485814e+002, 6.558230e+001
7.490635e+002, 6.580128e+001
7.495457e+002, 6.492626e+001
7.500278e+002, 6.435733e+001
7.505099e+002, 6.438350e+001
7.509920e+002, 6.472698e+001
7.514741e+002, 6.513594e+001
7.519562e+002, 6.566918e+001
7.524384e+002, 6.599543e+001
7.529205e+002, 6.605656e+001
7.534026e+002, 6.591331e+001
7.538847e+002, 6.551070e+001
7.543668e+002, 6.495299e+001
7.548489e+002, 6.466829e+001
7.553311e+002, 6.487490e+001
7.558132e+002, 6.523068e+001
7.562953e+002, 6.555107e+001
7.567774e+002, 6.578969e+001
7.572595e+002, 6.585862e+001
7.577416e+002, 6.559488e+001
7.582238e+002, 6.531822e+001
7.587059e+002, 6.493226e+001
7.591880e+002, 6.461983e+001
7.596701e+002, 6.488400e+001
7.601522e+002, 6.604652e+001
7.606343e+002, 6.671427e+001
7.611165e+002, 6.637540e+001
7.615986e+002, 6.549770e+001
7.620807e+002, 6.524689e+001
7.625628e+002, 6.552881e+001
7.630449e+002, 6.579127e+001
7.635270e+002, 6.569292e+001
7.640092e+002, 6.553585e+001
7.644913e+002, 6.568756e+001
7.649734e+002, 6.602653e+001
7.654555e+002, 6.617780e+001
7.659376e+002, 6.573972e+001
7.664197e+002, 6.537024e+001
7.669019e+002, 6.540702e+001
7.673840e+002, 6.572780e+001
7.678661e+002, 6.571168e+001
7.683482e+002, 6.519410e+001
7.688303e+002, 6.482771e+001
7.693124e+002, 6.494390e+001
7.697946e+002, 6.538585e+001
7.702767e+002, 6.561887e+001
7.707588e+002, 6.565672e+001
7.712409e+002, 6.562870e+001
7.717230e+002, 6.559597e+001
7.722051e+002, 6.554771e+001
7.726873e+002, 6.545113e+001
7.731694e+002, 6.531760e+001
7.736515e+002, 6.523048e+001
7.741336e+002, 6.525181e+001
7.746157e+002, 6.529375e+001
7.750978e+002, 6.529218e+001
7.755800e+002, 6.525230e+001
7.760621e+002, 6.538189e+001
7.765442e+002, 6.576371e+001
7.770263e+002, 6.608041e+001
7.775084e+002, 6.611114e+001
7.779905e+002, 6.592583e+001
7.784727e+002, 6.587252e+001
7.789548e+002, 6.594187e+001
7.794369e+002, 6.597431e+001
7.799190e+002, 6.576030e+001
7.804011e+002, 6.551566e+001
7.808832e+002, 6.546236e+001
7.813654e+002, 6.561418e+001
7.818475e+002, 6.579787e+001
7.823296e+002, 6.599689e+001
7.828117e+002, 6.617935e+001
7.832938e+002, 6.633922e+001
7.837759e+002, 6.647964e+001
7.842581e+002, 6.655344e+001
7.847402e+002, 6.654092e+001
7.852223e+002, 6.652533e+001
7.857044e+002, 6.654489e+001
7.861865e+002, 6.660863e+001
7.866686e+002, 6.680917e+001
7.871508e+002, 6.714658e+001
7.876329e+002, 6.738016e+001
7.881150e+002, 6.727482e+001
7.885971e+002, 6.701673e+001
7.890792e+002, 6.673848e+001
7.895613e+002, 6.643420e+001
7.900435e+002, 6.628599e+001
7.905256e+002, 6.646164e+001
7.910077e+002, 6.669400e+001
7.914898e+002, 6.683588e+001
7.919719e+002, 6.686016e+001
7.924540e+002, 6.698021e+001
7.929362e+002, 6.721117e+001
7.934183e+002, 6.746180e+001
7.939004e+002, 6.761594e+001
7.943825e+002, 6.773055e+001
7.948646e+002, 6.800213e+001
7.953467e+002, 6.844937e+001
7.958289e+002, 6.884859e+001
7.963110e+002, 6.914350e+001
7.967931e+002, 6.924867e+001
7.972752e+002, 6.898818e+001
7.977573e+002, 6.818136e+001
7.982394e+002, 6.775356e+001
7.987216e+002, 6.799779e+001
7.992037e+002, 6.842827e+001
7.996858e+002, 6.877158e+001
8.001679e+002, 6.902652e+001
8.006500e+002, 6.921762e+001
8.011321e+002, 6.934969e+001
8.016143e+002, 6.940858e+001
8.020964e+002, 6.924622e+001
8.025785e+002, 6.903967e+001
8.030606e+002, 6.919654e+001
8.035427e+002, 6.978598e+001
8.040248e+002, 7.034368e+001
8.045070e+002, 7.057932e+001
8.049891e+002, 7.068765e+001
8.054712e+002, 7.080495e+001
8.059533e+002, 7.094149e+001
8.064354e+002, 7.110564e+001
8.069175e+002, 7.128547e+001
8.073997e+002, 7.150894e+001
8.078818e+002, 7.183249e+001
8.083639e+002, 7.224895e+001
8.088460e+002, 7.255093e+001
8.093281e+002, 7.272832e+001
8.098102e+002, 7.282942e+001
8.102924e+002, 7.289549e+001
8.107745e+002, 7.291348e+001
8.112566e+002, 7.284446e+001
8.117387e+002, 7.267377e+001
8.122208e+002, 7.252865e+001
8.127029e+002, 7.216004e+001
8.131851e+002, 7.207149e+001
8.136672e+002, 7.281216e+001
8.141493e+002, 7.484000e+001
8.146314e+002, 7.554458e+001
8.151135e+002, 7.450790e+001
8.155956e+002, 7.317661e+001
8.160778e+002, 7.267828e+001
8.165599e+002, 7.288097e+001
8.170420e+002, 7.329765e+001
8.175241e+002, 7.390899e+001
8.180062e+002, 7.442037e+001
8.184883e+002, 7.458527e+001
8.189705e+002, 7.455246e+001
8.194526e+002, 7.441633e+001
8.199347e+002, 7.416338e+001
8.204168e+002, 7.401722e+001
8.208989e+002, 7.413570e+001
8.213810e+002, 7.426963e+001
8.218632e+002, 7.426242e+001
8.223453e+002, 7.407987e+001
8.228274e+002, 7.415423e+001
8.233095e+002, 7.453236e+001
8.237916e+002, 7.488074e+001
8.242737e+002, 7.482740e+001
8.247559e+002, 7.458410e+001
8.252380e+002, 7.458965e+001
8.257201e+002, 7.486629e+001
8.262022e+002, 7.520824e+001
8.266843e+002, 7.570239e+001
8.271664e+002, 7.605277e+001
8.276486e+002, 7.592674e+001
8.281307e+002, 7.516885e+001
8.286128e+002, 7.497759e+001
8.290949e+002, 7.567387e+001
8.295770e+002, 7.638223e+001
8.300591e+002, 7.656675e+001
8.305413e+002, 7.628819e+001
8.310234e+002, 7.631847e+001
8.315055e+002, 7.665159e+001
8.319876e+002, 7.687430e+001
8.324697e+002, 7.641936e+001
8.329518e+002, 7.587226e+001
8.334340e+002, 7.598734e+001
8.339161e+002, 7.675230e+001
8.343982e+002, 7.735741e+001
8.348803e+002, 7.750694e+001
8.353624e+002, 7.743326e+001
8.358445e+002, 7.711388e+001
8.363267e+002, 7.657957e+001
8.368088e+002, 7.665137e+001
8.372909e+002, 7.746503e+001
8.377730e+002, 7.826457e+001
8.382551e+002, 7.861353e+001
8.387372e+002, 7.865073e+001
8.392194e+002, 7.863932e+001
8.397015e+002, 7.860661e+001
8.401836e+002, 7.870951e+001
8.406657e+002, 7.920792e+001
8.411478e+002, 7.971821e+001
8.416299e+002, 7.995396e+001
8.421121e+002, 7.994643e+001
8.425942e+002, 8.005608e+001
8.430763e+002, 8.033464e+001
8.435584e+002, 8.068025e+001
8.440405e+002, 8.110213e+001
8.445226e+002, 8.155286e+001
8.450048e+002, 8.186875e+001
8.454869e+002, 8.204768e+001
8.459690e+002, 8.206010e+001
8.464511e+002, 8.168484e+001
8.469332e+002, 8.130943e+001
8.474153e+002, 8.143273e+001
8.478975e+002, 8.190865e+001
8.483796e+002, 8.232324e+001
8.488617e+002, 8.256852e+001
8.493438e+002, 8.268473e+001
8.498259e+002, 8.254310e+001
8.503080e+002, 8.231929e+001
8.507902e+002, 8.247485e+001
8.512723e+002, 8.303885e+001
8.517544e+002, 8.383208e+001
8.522365e+002, 8.490122e+001
8.527186e+002, 8.602082e+001
8.532007e+002, 8.704500e+001
8.536829e+002, 8.779477e+001
8.541650e+002, 8.776955e+001
8.546471e+002, 8.602693e+001
8.551292e+002, 8.442845e+001
8.556113e+002, 8.393366e+001
8.560934e+002, 8.416887e+001
8.565756e+002, 8.445798e+001
8.570577e+002, 8.489067e+001
8.575398e+002, 8.509099e+001
8.580219e+002, 8.497659e+001
8.585040e+002, 8.468285e+001
8.589861e+002, 8.435078e+001
8.594683e+002, 8.401150e+001
8.599504e+002, 8.389631e+001
8.604325e+002, 8.414930e+001
8.609146e+002, 8.434059e+001
8.613967e+002, 8.389211e+001
8.618788e+002, 8.323143e+001
8.623610e+002, 8.288409e+001
8.628431e+002, 8.308634e+001
8.633252e+002, 8.343766e+001
8.638073e+002, 8.410259e+001
8.642894e+002, 8.468752e+001
8.647715e+002, 8.473534e+001
8.652537e+002, 8.421519e+001
8.657358e+002, 8.380618e+001
8.662179e+002, 8.355843e+001
8.667000e+002, 8.340931e+001
8.671821e+002, 8.338039e+001
8.676642e+002, 8.337368e+001
8.681464e+002, 8.318531e+001
8.686285e+002, 8.273019e+001
8.691106e+002, 8.248266e+001
8.695927e+002, 8.272715e+001
8.700748e+002, 8.316200e+001
8.705569e+002, 8.360056e+001
8.710391e+002, 8.404714e+001
8.715212e+002, 8.443072e+001
8.720033e+002, 8.473300e+001
8.724854e+002, 8.502635e+001
8.729675e+002, 8.532189e+001
8.734496e+002, 8.565357e+001
8.739318e+002, 8.611158e+001
8.744139e+002, 8.669013e+001
8.748960e+002, 8.730624e+001
8.753781e+002, 8.789278e+001
8.758602e+002, 8.851639e+001
8.763423e+002, 8.925259e+001
8.768245e+002, 9.009546e+001
8.773066e+002, 9.079562e+001
8.777887e+002, 9.119967e+001
8.782708e+002, 9.183149e+001
8.787529e+002, 9.300200e+001
8.792350e+002, 9.451645e+001
8.797172e+002, 9.568932e+001
8.801993e+002, 9.657057e+001
8.806814e+002, 9.756422e+001
8.811635e+002, 9.903144e+001
8.816456e+002, 1.005641e+002
8.821277e+002, 1.016992e+002
8.826099e+002, 1.026426e+002
8.830920e+002, 1.040176e+002
8.835741e+002, 1.062689e+002
8.840562e+002, 1.085119e+002
8.845383e+002, 1.106158e+002
8.850204e+002, 1.126564e+002
8.855026e+002, 1.148059e+002
8.859847e+002, 1.170559e+002
8.864668e+002, 1.193061e+002
8.869489e+002, 1.215010e+002
8.874310e+002, 1.237505e+002
8.879131e+002, 1.261025e+002
8.883953e+002, 1.285815e+002
8.888774e+002, 1.312583e+002
8.893595e+002, 1.343894e+002
8.898416e+002, 1.373566e+002
8.903237e+002, 1.400347e+002
8.908058e+002, 1.425581e+002
8.912880e+002, 1.451232e+002
8.917701e+002, 1.477348e+002
8.922522e+002, 1.501522e+002
8.927343e+002, 1.523439e+002
8.932164e+002, 1.544902e+002
8.936985e+002, 1.566909e+002
8.941807e+002, 1.589981e+002
8.946628e+002, 1.616961e+002
8.951449e+002, 1.649360e+002
8.956270e+002, 1.676061e+002
8.961091e+002, 1.689662e+002
8.965912e+002, 1.699328e+002
8.970734e+002, 1.710516e+002
8.975555e+002, 1.723245e+002
8.980376e+002, 1.737023e+002
8.985197e+002, 1.752306e+002
8.990018e+002, 1.765412e+002
8.994839e+002, 1.772466e+002
8.999661e+002, 1.775992e+002
9.004482e+002, 1.780869e+002
9.009303e+002, 1.786846e+002
9.014124e+002, 1.791311e+002
9.018945e+002, 1.793839e+002
9.023766e+002, 1.793762e+002
9.028588e+002, 1.790689e+002
9.033409e+002, 1.784707e+002
9.038230e+002, 1.775334e+002
9.043051e+002, 1.761769e+002
9.047872e+002, 1.747534e+002
9.052693e+002, 1.733731e+002
9.057515e+002, 1.719706e+002
9.062336e+002, 1.704676e+002
9.067157e+002, 1.688263e+002
9.071978e+002, 1.669387e+002
9.076799e+002, 1.646712e+002
9.081620e+002, 1.622695e+002
9.086442e+002, 1.598619e+002
9.091263e+002, 1.573627e+002
9.096084e+002, 1.546280e+002
9.100905e+002, 1.516436e+002
9.105726e+002, 1.484306e+002
9.110547e+002, 1.448687e+002
9.115369e+002, 1.412536e+002
9.120190e+002, 1.381413e+002
9.125011e+002, 1.352705e+002
9.129832e+002, 1.317647e+002
9.134653e+002, 1.273567e+002
9.139474e+002, 1.231098e+002
9.144296e+002, 1.199247e+002
9.149117e+002, 1.170397e+002
9.153938e+002, 1.137450e+002
9.158759e+002, 1.097906e+002
9.163580e+002, 1.063165e+002
9.168401e+002, 1.034155e+002
9.173223e+002, 1.007619e+002
9.178044e+002, 9.815670e+001
9.182865e+002, 9.562617e+001
9.187686e+002, 9.311040e+001
9.192507e+002, 9.063769e+001
9.197328e+002, 8.845339e+001
9.202150e+002, 8.694261e+001
9.206971e+002, 8.556229e+001
9.211792e+002, 8.383548e+001
9.216613e+002, 8.185125e+001
9.221434e+002, 8.043014e+001
9.226255e+002, 7.995464e+001
9.231077e+002, 7.912744e+001
9.235898e+002, 7.741821e+001
9.240719e+002, 7.529798e+001
9.245540e+002, 7.379628e+001
9.250361e+002, 7.281985e+001
9.255182e+002, 7.203770e+001
9.260004e+002, 7.142600e+001
9.264825e+002, 7.078579e+001
9.269646e+002, 6.994290e+001
9.274467e+002, 6.899752e+001
9.279288e+002, 6.811446e+001
9.284109e+002, 6.733443e+001
9.288931e+002, 6.651255e+001
9.293752e+002, 6.557391e+001
9.298573e+002, 6.474668e+001
9.303394e+002, 6.448476e+001
9.308215e+002, 6.456129e+001
9.313036e+002, 6.404066e+001
9.317858e+002, 6.277245e+001
9.322679e+002, 6.154783e+001
9.327500e+002, 6.094554e+001
9.332321e+002, 6.057844e+001
9.337142e+002, 6.017735e+001
9.341964e+002, 5.972993e+001
9.346785e+002, 5.911884e+001
9.351606e+002, 5.825227e+001
9.356427e+002, 5.746371e+001
9.361248e+002, 5.698276e+001
9.366069e+002, 5.670089e+001
9.370891e+002, 5.626621e+001
9.375712e+002, 5.570431e+001
9.380533e+002, 5.517247e+001
9.385354e+002, 5.475328e+001
9.390175e+002, 5.438916e+001
9.394996e+002, 5.414547e+001
9.399818e+002, 5.392767e+001
9.404639e+002, 5.344588e+001
9.409460e+002, 5.249147e+001
9.414281e+002, 5.184357e+001
9.419102e+002, 5.171387e+001
9.423923e+002, 5.181218e+001
9.428745e+002, 5.172316e+001
9.433566e+002, 5.147347e+001
9.438387e+002, 5.112697e+001
9.443208e+002, 5.068029e+001
9.448029e+002, 5.022390e+001
9.452850e+002, 4.975938e+001
9.457672e+002, 4.933815e+001
9.462493e+002, 4.898423e+001
9.467314e+002, 4.863854e+001
9.472135e+002, 4.866858e+001
9.476956e+002, 4.922398e+001
9.481777e+002, 4.964697e+001
9.486599e+002, 4.926956e+001
9.491420e+002, 4.841531e+001
9.496241e+002, 4.780176e+001
9.501062e+002, 4.744595e+001
9.505883e+002, 4.729206e+001
9.510704e+002, 4.756954e+001
9.515526e+002, 4.778727e+001
9.520347e+002, 4.762522e+001
9.525168e+002, 4.718707e+001
9.529989e+002, 4.685455e+001
9.534810e+002, 4.664326e+001
9.539631e+002, 4.646699e+001
9.544453e+002, 4.631037e+001
9.549274e+002, 4.615937e+001
9.554095e+002, 4.592778e+001
9.558916e+002, 4.569383e+001
9.563737e+002, 4.564557e+001
9.568558e+002, 4.602928e+001
9.573380e+002, 4.625170e+001
9.578201e+002, 4.601867e+001
9.583022e+002, 4.559121e+001
9.587843e+002, 4.517271e+001
9.592664e+002, 4.472773e+001
9.597485e+002, 4.451891e+001
9.602307e+002, 4.457539e+001
9.607128e+002, 4.470844e+001
9.611949e+002, 4.482466e+001
9.616770e+002, 4.487563e+001
9.621591e+002, 4.475712e+001
9.626412e+002, 4.447266e+001
9.631234e+002, 4.420613e+001
9.636055e+002, 4.395617e+001
9.640876e+002, 4.381742e+001
9.645697e+002, 4.390149e+001
9.650518e+002, 4.411001e+001
9.655339e+002, 4.392244e+001
9.660161e+002, 4.333790e+001
9.664982e+002, 4.293457e+001
9.669803e+002, 4.302105e+001
9.674624e+002, 4.324135e+001
9.679445e+002, 4.316750e+001
9.684266e+002, 4.295804e+001
9.689088e+002, 4.287632e+001
9.693909e+002, 4.335244e+001
9.698730e+002, 4.340391e+001
9.703551e+002, 4.270910e+001
9.708372e+002, 4.191908e+001
9.713193e+002, 4.177897e+001
9.718015e+002, 4.220825e+001
9.722836e+002, 4.243445e+001
9.727657e+002, 4.239598e+001
9.732478e+002, 4.223021e+001
9.737299e+002, 4.191288e+001
9.742120e+002, 4.161270e+001
9.746942e+002, 4.149598e+001
9.751763e+002, 4.157684e+001
9.756584e+002, 4.160754e+001
9.761405e+002, 4.153590e+001
9.766226e+002, 4.150353e+001
9.771047e+002, 4.157721e+001
9.775869e+002, 4.171207e+001
9.780690e+002, 4.180201e+001
9.785511e+002, 4.184530e+001
9.790332e+002, 4.183485e+001
9.795153e+002, 4.170717e+001
9.799974e+002, 4.161258e+001
9.804796e+002, 4.171141e+001
9.809617e+002, 4.185503e+001
9.814438e+002, 4.182617e+001
9.819259e+002, 4.154413e+001
9.824080e+002, 4.132632e+001
9.828901e+002, 4.119066e+001
9.833723e+002, 4.110550e+001
9.838544e+002, 4.106215e+001
9.843365e+002, 4.103912e+001
9.848186e+002, 4.100829e+001
9.853007e+002, 4.096554e+001
9.857828e+002, 4.087315e+001
9.862650e+002, 4.052908e+001
9.867471e+002, 4.033460e+001
9.872292e+002, 4.050671e+001
9.877113e+002, 4.096927e+001
9.881934e+002, 4.137299e+001
9.886755e+002, 4.172355e+001
9.891577e+002, 4.185350e+001
9.896398e+002, 4.162124e+001
9.901219e+002, 4.126496e+001
9.906040e+002, 4.101493e+001
9.910861e+002, 4.085646e+001
9.915682e+002, 4.076042e+001
9.920504e+002, 4.049288e+001
9.925325e+002, 4.070432e+001
9.930146e+002, 4.184292e+001
9.934967e+002, 4.292259e+001
9.939788e+002, 4.284529e+001
9.944609e+002, 4.177784e+001
9.949431e+002, 4.118742e+001
9.954252e+002, 4.114921e+001
9.959073e+002, 4.129969e+001
9.963894e+002, 4.166478e+001
9.968715e+002, 4.186927e+001
9.973536e+002, 4.145971e+001
9.978358e+002, 4.050489e+001
9.983179e+002, 4.002694e+001
9.988000e+002, 4.022734e+001
9.992821e+002, 4.041398e+001
9.997642e+002, 4.034867e+001
1.000246e+003, 4.021013e+001
1.000728e+003, 4.041389e+001
1.001211e+003, 4.083536e+001
1.001693e+003, 4.114446e+001
1.002175e+003, 4.120018e+001
1.002657e+003, 4.122324e+001
1.003139e+003, 4.140384e+001
1.003621e+003, 4.152066e+001
1.004103e+003, 4.135323e+001
1.004585e+003, 4.083496e+001
1.005068e+003, 4.037217e+001
1.005550e+003, 3.994506e+001
1.006032e+003, 3.972924e+001
1.006514e+003, 4.011489e+001
1.006996e+003, 4.061686e+001
1.007478e+003, 4.051789e+001
1.007960e+003, 3.992170e+001
1.008442e+003, 3.954465e+001
1.008924e+003, 3.976017e+001
1.009407e+003, 3.999658e+001
1.009889e+003, 4.016514e+001
1.010371e+003, 4.027040e+001
1.010853e+003, 4.027863e+001
1.011335e+003, 4.021704e+001
1.011817e+003, 4.028723e+001
1.012299e+003, 4.057554e+001
1.012781e+003, 4.083242e+001
1.013263e+003, 4.085999e+001
1.013746e+003, 4.077532e+001
1.014228e+003, 4.067400e+001
1.014710e+003, 4.055185e+001
1.015192e+003, 4.048826e+001
1.015674e+003, 4.047194e+001
1.016156e+003, 4.055873e+001
1.016638e+003, 4.086784e+001
1.017120e+003, 4.126336e+001
1.017603e+003, 4.143495e+001
1.018085e+003, 4.142897e+001
1.018567e+003, 4.140452e+001
1.019049e+003, 4.143809e+001
1.019531e+003, 4.145598e+001
1.020013e+003, 4.149453e+001
1.020495e+003, 4.146565e+001
1.020977e+003, 4.116732e+001
1.021459e+003, 4.058796e+001
1.021942e+003, 4.024612e+001
1.022424e+003, 4.022570e+001
1.022906e+003, 4.029261e+001
1.023388e+003, 4.025847e+001
1.023870e+003, 4.018178e+001
1.024352e+003, 4.010232e+001
1.024834e+003, 4.002207e+001
1.025316e+003, 4.002575e+001
1.025799e+003, 4.013266e+001
1.026281e+003, 4.029647e+001
1.026763e+003, 4.054273e+001
1.027245e+003, 4.079835e+001
1.027727e+003, 4.089872e+001
1.028209e+003, 4.085323e+001
1.028691e+003, 4.067198e+001
1.029173e+003, 4.014357e+001
1.029656e+003, 3.982442e+001
1.030138e+003, 4.016761e+001
1.030620e+003, 4.073369e+001
1.031102e+003, 4.109160e+001
1.031584e+003, 4.125171e+001
1.032066e+003, 4.102404e+001
1.032548e+003, 4.034751e+001
1.033030e+003, 3.982000e+001
1.033512e+003, 4.011956e+001
1.033995e+003, 4.072772e+001
1.034477e+003, 4.108339e+001
1.034959e+003, 4.117574e+001
1.035441e+003, 4.114031e+001
1.035923e+003, 4.089948e+001
1.036405e+003, 4.069098e+001
1.036887e+003, 4.056188e+001
1.037369e+003, 4.048790e+001
1.037851e+003, 4.040854e+001
1.038334e+003, 4.034016e+001
1.038816e+003, 4.037468e+001
1.039298e+003, 4.057961e+001
1.039780e+003, 4.067149e+001
1.040262e+003, 4.022736e+001
1.040744e+003, 3.979626e+001
1.041226e+003, 3.992688e+001
1.041708e+003, 4.068089e+001
1.042191e+003, 4.085980e+001
1.042673e+003, 4.042262e+001
1.043155e+003, 3.978365e+001
1.043637e+003, 3.889600e+001
1.044119e+003, 3.816518e+001
1.044601e+003, 3.829506e+001
1.045083e+003, 3.900595e+001
1.045565e+003, 3.965110e+001
1.046047e+003, 4.009961e+001
1.046530e+003, 4.036836e+001
1.047012e+003, 4.038998e+001
1.047494e+003, 4.033919e+001
1.047976e+003, 4.042525e+001
1.048458e+003, 4.061371e+001
1.048940e+003, 4.072721e+001
1.049422e+003, 4.075426e+001
1.049904e+003, 4.076965e+001
1.050386e+003, 4.079570e+001
1.050869e+003, 4.084783e+001
1.051351e+003, 4.096923e+001
1.051833e+003, 4.112829e+001
1.052315e+003, 4.119521e+001
1.052797e+003, 4.116234e+001
1.053279e+003, 4.107458e+001
1.053761e+003, 4.090752e+001
1.054243e+003, 4.078564e+001
1.054726e+003, 4.097797e+001
1.055208e+003, 4.126740e+001
1.055690e+003, 4.131288e+001
1.056172e+003, 4.090501e+001
1.056654e+003, 4.073584e+001
1.057136e+003, 4.101629e+001
1.057618e+003, 4.124888e+001
1.058100e+003, 4.106660e+001
1.058583e+003, 4.060943e+001
1.059065e+003, 4.041915e+001
1.059547e+003, 4.046088e+001
1.060029e+003, 4.057364e+001
1.060511e+003, 4.081664e+001
1.060993e+003, 4.094834e+001
1.061475e+003, 4.071977e+001
1.061957e+003, 4.039537e+001
1.062439e+003, 4.037077e+001
1.062922e+003, 4.069654e+001
1.063404e+003, 4.087563e+001
1.063886e+003, 4.086618e+001
1.064368e+003, 4.073066e+001
1.064850e+003, 4.042063e+001
1.065332e+003, 4.008648e+001
1.065814e+003, 3.983901e+001
1.066296e+003, 3.969797e+001
1.066778e+003, 3.977392e+001
1.067261e+003, 4.021576e+001
1.067743e+003, 4.053438e+001
1.068225e+003, 4.058123e+001
1.068707e+003, 4.048012e+001
1.069189e+003, 4.042670e+001
1.069671e+003, 4.040923e+001
1.070153e+003, 4.039943e+001
1.070635e+003, 4.038551e+001
1.071118e+003, 4.039781e+001
1.071600e+003, 4.053018e+001
1.072082e+003, 4.060680e+001
1.072564e+003, 4.045100e+001
1.073046e+003, 4.010946e+001
1.073528e+003, 4.027737e+001
1.074010e+003, 4.090876e+001
1.074492e+003, 4.135157e+001
1.074974e+003, 4.109095e+001
1.075457e+003, 4.070277e+001
1.075939e+003, 4.062620e+001
1.076421e+003, 4.070643e+001
1.076903e+003, 4.066459e+001
1.077385e+003, 4.040507e+001
1.077867e+003, 4.026846e+001
1.078349e+003, 4.027177e+001
1.078831e+003, 4.039066e+001
1.079313e+003, 4.068248e+001
1.079796e+003, 4.103143e+001
1.080278e+003, 4.133688e+001
1.080760e+003, 4.156288e+001
1.081242e+003, 4.151678e+001
1.081724e+003, 4.076775e+001
1.082206e+003, 4.023497e+001
1.082688e+003, 4.016175e+001
1.083170e+003, 4.033069e+001
1.083652e+003, 4.038311e+001
1.084135e+003, 4.033689e+001
1.084617e+003, 4.020763e+001
1.085099e+003, 3.996516e+001
1.085581e+003, 3.990170e+001
1.086063e+003, 4.049501e+001
1.086545e+003, 4.103465e+001
1.087027e+003, 4.101509e+001
1.087509e+003, 4.050776e+001
1.087992e+003, 4.022635e+001
1.088474e+003, 4.017133e+001
1.088956e+003, 4.032692e+001
1.089438e+003, 4.080531e+001
1.089920e+003, 4.128463e+001
1.090402e+003, 4.141902e+001
1.090884e+003, 4.137509e+001
1.091366e+003, 4.137959e+001
1.091849e+003, 4.148774e+001
1.092331e+003, 4.156410e+001
1.092813e+003, 4.158049e+001
1.093295e+003, 4.166061e+001
1.093777e+003, 4.205579e+001
1.094259e+003, 4.249757e+001
1.094741e+003, 4.233919e+001
1.095223e+003, 4.176384e+001
1.095705e+003, 4.142714e+001
1.096188e+003, 4.179351e+001
1.096670e+003, 4.212067e+001
1.097152e+003, 4.224659e+001
1.097634e+003, 4.233366e+001
1.098116e+003, 4.271141e+001
1.098598e+003, 4.325716e+001
1.099080e+003, 4.329559e+001
1.099562e+003, 4.277448e+001
1.100044e+003, 4.231284e+001
1.100527e+003, 4.233608e+001
1.101009e+003, 4.247869e+001
1.101491e+003, 4.253341e+001
1.101973e+003, 4.254858e+001
1.102455e+003, 4.270610e+001
1.102937e+003, 4.300852e+001
1.103419e+003, 4.328749e+001
1.103901e+003, 4.348764e+001
1.104384e+003, 4.370307e+001
1.104866e+003, 4.403560e+001
1.105348e+003, 4.441783e+001
1.105830e+003, 4.483946e+001
1.106312e+003, 4.532692e+001
1.106794e+003, 4.543489e+001
1.107276e+003, 4.503036e+001
1.107758e+003, 4.478568e+001
1.108240e+003, 4.509777e+001
1.108723e+003, 4.563079e+001
1.109205e+003, 4.585738e+001
1.109687e+003, 4.590697e+001
1.110169e+003, 4.603730e+001
1.110651e+003, 4.645625e+001
1.111133e+003, 4.668727e+001
1.111615e+003, 4.660711e+001
1.112097e+003, 4.650812e+001
1.112579e+003, 4.668474e+001
1.113062e+003, 4.701919e+001
1.113544e+003, 4.703101e+001
1.114026e+003, 4.679084e+001
1.114508e+003, 4.665636e+001
1.114990e+003, 4.689931e+001
1.115472e+003, 4.715686e+001
1.115954e+003, 4.732660e+001
1.116436e+003, 4.743924e+001
1.116919e+003, 4.748864e+001
1.117401e+003, 4.749006e+001
1.117883e+003, 4.771488e+001
1.118365e+003, 4.818767e+001
1.118847e+003, 4.853931e+001
1.119329e+003, 4.845997e+001
1.119811e+003, 4.821415e+001
1.120293e+003, 4.786705e+001
1.120776e+003, 4.750087e+001
1.121258e+003, 4.739534e+001
1.121740e+003, 4.757938e+001
1.122222e+003, 4.776567e+001
1.122704e+003, 4.792638e+001
1.123186e+003, 4.792894e+001
1.123668e+003, 4.742366e+001
1.124150e+003, 4.682541e+001
1.124632e+003, 4.659402e+001
1.125115e+003, 4.682301e+001
1.125597e+003, 4.705901e+001
1.126079e+003, 4.734496e+001
1.126561e+003, 4.744564e+001
1.127043e+003, 4.715853e+001
1.127525e+003, 4.682333e+001
1.128007e+003, 4.715466e+001
1.128489e+003, 4.778821e+001
1.128971e+003, 4.806347e+001
1.129454e+003, 4.761290e+001
1.129936e+003, 4.738210e+001
1.130418e+003, 4.754934e+001
1.130900e+003, 4.777582e+001
1.131382e+003, 4.789512e+001
1.131864e+003, 4.790345e+001
1.132346e+003, 4.767792e+001
1.132828e+003, 4.732077e+001
1.133311e+003, 4.716968e+001
1.133793e+003, 4.747964e+001
1.134275e+003, 4.787960e+001
1.134757e+003, 4.838329e+001
1.135239e+003, 4.883406e+001
1.135721e+003, 4.904590e+001
1.136203e+003, 4.904936e+001
1.136685e+003, 4.909065e+001
1.137167e+003, 4.918532e+001
1.137650e+003, 4.941317e+001
1.138132e+003, 5.017604e+001
1.138614e+003, 5.069544e+001
1.139096e+003, 5.028196e+001
1.139578e+003, 4.952293e+001
1.140060e+003, 4.936919e+001
1.140542e+003, 4.983313e+001
1.141024e+003, 5.029429e+001
1.141506e+003, 5.069027e+001
1.141989e+003, 5.105302e+001
1.142471e+003, 5.150582e+001
1.142953e+003, 5.185520e+001
1.143435e+003, 5.188454e+001
1.143917e+003, 5.166538e+001
1.144399e+003, 5.154622e+001
1.144881e+003, 5.151598e+001
1.145363e+003, 5.170284e+001
1.145846e+003, 5.217505e+001
1.146328e+003, 5.268081e+001
1.146810e+003, 5.290768e+001
1.147292e+003, 5.303484e+001
1.147774e+003, 5.326476e+001
1.148256e+003, 5.362975e+001
1.148738e+003, 5.397244e+001
1.149220e+003, 5.437871e+001
1.149703e+003, 5.439958e+001
1.150185e+003, 5.373188e+001
1.150667e+003, 5.289414e+001
1.151149e+003, 5.268238e+001
1.151631e+003, 5.281194e+001
1.152113e+003, 5.281878e+001
1.152595e+003, 5.254146e+001
1.153077e+003, 5.239073e+001
1.153559e+003, 5.245677e+001
1.154042e+003, 5.249376e+001
1.154524e+003, 5.232232e+001
1.155006e+003, 5.207891e+001
1.155488e+003, 5.210798e+001
1.155970e+003, 5.230906e+001
1.156452e+003, 5.244379e+001
1.156934e+003, 5.249397e+001
1.157416e+003, 5.233903e+001
1.157898e+003, 5.185341e+001
1.158381e+003, 5.137377e+001
1.158863e+003, 5.117070e+001
1.159345e+003, 5.118240e+001
1.159827e+003, 5.115173e+001
1.160309e+003, 5.110694e+001
1.160791e+003, 5.116509e+001
1.161273e+003, 5.164331e+001
1.161755e+003, 5.186827e+001
1.162238e+003, 5.155956e+001
1.162720e+003, 5.106796e+001
1.163202e+003, 5.070946e+001
1.163684e+003, 5.048768e+001
1.164166e+003, 5.045812e+001
1.164648e+003, 5.060331e+001
1.165130e+003, 5.075130e+001
1.165612e+003, 5.086831e+001
1.166094e+003, 5.089016e+001
1.166577e+003, 5.075879e+001
1.167059e+003, 5.053941e+001
1.167541e+003, 5.025014e+001
1.168023e+003, 4.991761e+001
1.168505e+003, 4.998578e+001
1.168987e+003, 5.050273e+001
1.169469e+003, 5.097535e+001
1.169951e+003, 5.109882e+001
1.170433e+003, 5.103484e+001
1.170916e+003, 5.075888e+001
1.171398e+003, 5.040100e+001
1.171880e+003, 5.031700e+001
1.172362e+003, 5.050109e+001
1.172844e+003, 5.055046e+001
1.173326e+003, 5.038486e+001
1.173808e+003, 5.011617e+001
1.174290e+003, 4.969674e+001
1.174773e+003, 4.932958e+001
1.175255e+003, 4.923225e+001
1.175737e+003, 4.934303e+001
1.176219e+003, 4.938612e+001
1.176701e+003, 4.936546e+001
1.177183e+003, 4.916586e+001
1.177665e+003, 4.869797e+001
1.178147e+003, 4.824698e+001
1.178630e+003, 4.798780e+001
1.179112e+003, 4.794699e+001
1.179594e+003, 4.828727e+001
1.180076e+003, 4.900077e+001
1.180558e+003, 4.923199e+001
1.181040e+003, 4.893219e+001
1.181522e+003, 4.863764e+001
1.182004e+003, 4.854460e+001
1.182486e+003, 4.855987e+001
1.182969e+003, 4.872638e+001
1.183451e+003, 4.886364e+001
1.183933e+003, 4.868605e+001
1.184415e+003, 4.807956e+001
1.184897e+003, 4.778299e+001
1.185379e+003, 4.782832e+001
1.185861e+003, 4.795801e+001
1.186343e+003, 4.798098e+001
1.186825e+003, 4.809922e+001
1.187308e+003, 4.875504e+001
1.187790e+003, 4.959296e+001
1.188272e+003, 5.001081e+001
1.188754e+003, 4.973632e+001
1.189236e+003, 4.962719e+001
1.189718e+003, 4.969420e+001
1.190200e+003, 4.987689e+001
1.190682e+003, 5.020150e+001
1.191165e+003, 5.056710e+001
1.191647e+003, 5.095972e+001
1.192129e+003, 5.126856e+001
1.192611e+003, 5.123151e+001
1.193093e+003, 5.041664e+001
1.193575e+003, 5.020558e+001
1.194057e+003, 5.074877e+001
1.194539e+003, 5.135802e+001
1.195021e+003, 5.152122e+001
1.195504e+003, 5.141232e+001
1.195986e+003, 5.122545e+001
1.196468e+003, 5.096661e+001
1.196950e+003, 5.062398e+001
1.197432e+003, 4.998641e+001
1.197914e+003, 4.981884e+001
1.198396e+003, 5.033059e+001
1.198878e+003, 5.071920e+001
1.199360e+003, 4.999147e+001
1.199843e+003, 4.881101e+001
1.200325e+003, 4.810415e+001
1.200807e+003, 4.781770e+001
1.201289e+003, 4.759227e+001
1.201771e+003, 4.735828e+001
1.202253e+003, 4.720254e+001
1.202735e+003, 4.714869e+001
1.203217e+003, 4.713272e+001
1.203700e+003, 4.715166e+001
1.204182e+003, 4.712492e+001
1.204664e+003, 4.691257e+001
1.205146e+003, 4.652914e+001
1.205628e+003, 4.610577e+001
1.206110e+003, 4.556343e+001
1.206592e+003, 4.520376e+001
1.207074e+003, 4.508089e+001
1.207557e+003, 4.512331e+001
1.208039e+003, 4.541457e+001
1.208521e+003, 4.571513e+001
1.209003e+003, 4.559099e+001
1.209485e+003, 4.504106e+001
1.209967e+003, 4.469274e+001
1.210449e+003, 4.471601e+001
1.210931e+003, 4.471210e+001
1.211413e+003, 4.459777e+001
1.211896e+003, 4.442545e+001
1.212378e+003, 4.427301e+001
1.212860e+003, 4.410319e+001
1.213342e+003, 4.379369e+001
1.213824e+003, 4.333253e+001
1.214306e+003, 4.319963e+001
1.214788e+003, 4.362273e+001
1.215270e+003, 4.386123e+001
1.215752e+003, 4.372464e+001
1.216235e+003, 4.331367e+001
1.216717e+003, 4.249058e+001
1.217199e+003, 4.162319e+001
1.217681e+003, 4.138030e+001
1.218163e+003, 4.191441e+001
1.218645e+003, 4.190011e+001
1.219127e+003, 4.097621e+001
1.219609e+003, 4.036374e+001
1.220092e+003, 4.053987e+001
1.220574e+003, 4.099054e+001
1.221056e+003, 4.099727e+001
1.221538e+003, 4.075740e+001
1.222020e+003, 4.055143e+001
1.222502e+003, 4.043756e+001
1.222984e+003, 4.022086e+001
1.223466e+003, 3.983104e+001
1.223948e+003, 3.957167e+001
1.224431e+003, 3.961852e+001
1.224913e+003, 3.971447e+001
1.225395e+003, 3.942048e+001
1.225877e+003, 3.896772e+001
1.226359e+003, 3.868528e+001
1.226841e+003, 3.867598e+001
1.227323e+003, 3.859135e+001
1.227805e+003, 3.841184e+001
1.228287e+003, 3.822334e+001
1.228770e+003, 3.804844e+001
1.229252e+003, 3.790632e+001
1.229734e+003, 3.793364e+001
1.230216e+003, 3.795768e+001
1.230698e+003, 3.766061e+001
1.231180e+003, 3.684876e+001
1.231662e+003, 3.664101e+001
1.232144e+003, 3.716556e+001
1.232627e+003, 3.754853e+001
1.233109e+003, 3.735935e+001
1.233591e+003, 3.689305e+001
1.234073e+003, 3.631840e+001
1.234555e+003, 3.577885e+001
1.235037e+003, 3.549370e+001
1.235519e+003, 3.552445e+001
1.236001e+003, 3.550206e+001
1.236484e+003, 3.541612e+001
1.236966e+003, 3.537508e+001
1.237448e+003, 3.543293e+001
1.237930e+003, 3.556049e+001
1.238412e+003, 3.590063e+001
1.238894e+003, 3.620389e+001
1.239376e+003, 3.605581e+001
1.239858e+003, 3.536335e+001
1.240340e+003, 3.492434e+001
1.240823e+003, 3.475120e+001
1.241305e+003, 3.468279e+001
1.241787e+003, 3.462539e+001
1.242269e+003, 3.465459e+001
1.242751e+003, 3.501126e+001
1.243233e+003, 3.538340e+001
1.243715e+003, 3.532662e+001
1.244197e+003, 3.476926e+001
1.244679e+003, 3.457824e+001
1.245162e+003, 3.474335e+001
1.245644e+003, 3.482882e+001
1.246126e+003, 3.447535e+001
1.246608e+003, 3.413087e+001
1.247090e+003, 3.413873e+001
1.247572e+003, 3.429496e+001
1.248054e+003, 3.438353e+001
1.248536e+003, 3.440974e+001
1.249019e+003, 3.420187e+001
1.249501e+003, 3.379142e+001
1.249983e+003, 3.350802e+001
1.250465e+003, 3.359496e+001
1.250947e+003, 3.378236e+001
1.251429e+003, 3.409315e+001
1.251911e+003, 3.430695e+001
1.252393e+003, 3.412789e+001
1.252875e+003, 3.359328e+001
1.253358e+003, 3.351241e+001
1.253840e+003, 3.381324e+001
1.254322e+003, 3.401387e+001
1.254804e+003, 3.373459e+001
1.255286e+003, 3.347709e+001
1.255768e+003, 3.343544e+001
1.256250e+003, 3.345988e+001
1.256732e+003, 3.340113e+001
1.257214e+003, 3.329572e+001
1.257697e+003, 3.344083e+001
1.258179e+003, 3.376848e+001
1.258661e+003, 3.395973e+001
1.259143e+003, 3.378637e+001
1.259625e+003, 3.357212e+001
1.260107e+003, 3.331566e+001
1.260589e+003, 3.314106e+001
1.261071e+003, 3.326672e+001
1.261554e+003, 3.353520e+001
1.262036e+003, 3.337545e+001
1.262518e+003, 3.290338e+001
1.263000e+003, 3.252190e+001
1.263482e+003, 3.241138e+001
1.263964e+003, 3.237297e+001
1.264446e+003, 3.242357e+001
1.264928e+003, 3.245208e+001
1.265411e+003, 3.220338e+001
1.265893e+003, 3.195509e+001
1.266375e+003, 3.253138e+001
1.266857e+003, 3.354490e+001
1.267339e+003, 3.392796e+001
1.267821e+003, 3.279891e+001
1.268303e+003, 3.214346e+001
1.268785e+003, 3.207424e+001
1.269267e+003, 3.221058e+001
1.269750e+003, 3.232986e+001
1.270232e+003, 3.242122e+001
1.270714e+003, 3.255235e+001
1.271196e+003, 3.263054e+001
1.271678e+003, 3.237534e+001
1.272160e+003, 3.148767e+001
1.272642e+003, 3.127480e+001
1.273124e+003, 3.184596e+001
1.273606e+003, 3.242116e+001
1.274089e+003, 3.234695e+001
1.274571e+003, 3.211246e+001
1.275053e+003, 3.217860e+001
1.275535e+003, 3.237794e+001
1.276017e+003, 3.239696e+001
1.276499e+003, 3.219375e+001
1.276981e+003, 3.206614e+001
1.277463e+003, 3.201912e+001
1.277946e+003, 3.193997e+001
1.278428e+003, 3.162500e+001
1.278910e+003, 3.140275e+001
1.279392e+003, 3.166427e+001
1.279874e+003, 3.200795e+001
1.280356e+003, 3.187758e+001
1.280838e+003, 3.129474e+001
1.281320e+003, 3.120932e+001
1.281802e+003, 3.158475e+001
1.282285e+003, 3.197207e+001
1.282767e+003, 3.228791e+001
1.283249e+003, 3.235612e+001
1.283731e+003, 3.193132e+001
1.284213e+003, 3.143331e+001
1.284695e+003, 3.123501e+001
1.285177e+003, 3.127858e+001
1.285659e+003, 3.131206e+001
1.286141e+003, 3.133500e+001
1.286624e+003, 3.135782e+001
1.287106e+003, 3.138808e+001
1.287588e+003, 3.140856e+001
1.288070e+003, 3.139478e+001
1.288552e+003, 3.141510e+001
1.289034e+003, 3.156352e+001
1.289516e+003, 3.176965e+001
1.289998e+003, 3.187084e+001
1.290481e+003, 3.189681e+001
1.290963e+003, 3.192575e+001
1.291445e+003, 3.199517e+001
1.291927e+003, 3.205360e+001
1.292409e+003, 3.212242e+001
1.292891e+003, 3.209515e+001
1.293373e+003, 3.184305e+001
1.293855e+003, 3.149441e+001
1.294338e+003, 3.108147e+001
1.294820e+003, 3.073135e+001
1.295302e+003, 3.074987e+001
1.295784e+003, 3.130270e+001
1.296266e+003, 3.152057e+001
1.296748e+003, 3.138778e+001
1.297230e+003, 3.120034e+001
1.297712e+003, 3.112860e+001
1.298194e+003, 3.108340e+001
1.298677e+003, 3.101570e+001
1.299159e+003, 3.091837e+001
1.299641e+003, 3.075218e+001
1.300123e+003, 3.050901e+001
1.300605e+003, 3.051492e+001
1.301087e+003, 3.074926e+001
1.301569e+003, 3.104050e+001
1.302051e+003, 3.144946e+001
1.302533e+003, 3.165043e+001
1.303016e+003, 3.151706e+001
##END=



