##NAMES=Strontioruizite
##RRUFFID=R160085
##IDEAL CHEMISTRY=Sr_2_Mn^3+^_2_Si_4_O_11_(OH)_4_&#183;2H_2_O
##LOCALITY=N’Chwaning III mine, Kalahari manganese field, Northern Cape Province, South Africa
##OWNER=RRUFF
##SOURCE=Bruce Cairncross
##DESCRIPTION=Clusters of brown, elongate crystals, associated with clusters of purple sugilite, bronze fibrous potassic-magnesioarfvedsonite, and dark red-brown lipuite
##STATUS=The identification of this mineral is confirmed by single-crystal X-ray diffraction and chemical analysis.
##URL=rruff.info/R160085
##MEASURED CHEMISTRY=(Sr_1.61_Ca_0.42_)_Σ2.03_(Mn^3+^_1.95_Fe^3+^_0.05_)_Σ2.00_Si_3.98_O_11_(OH)_4_·2H_2_O
8.813672e+001, 4.774139e+002
8.861884e+001, 4.843894e+002
8.910095e+001, 4.909923e+002
8.958307e+001, 4.970726e+002
9.006519e+001, 5.033289e+002
9.054730e+001, 5.105862e+002
9.102942e+001, 5.193345e+002
9.151154e+001, 5.276946e+002
9.199365e+001, 5.354166e+002
9.247577e+001, 5.418531e+002
9.295789e+001, 5.448936e+002
9.344000e+001, 5.405571e+002
9.392212e+001, 5.320927e+002
9.440424e+001, 5.287203e+002
9.488635e+001, 5.320776e+002
9.536847e+001, 5.376116e+002
9.585059e+001, 5.386570e+002
9.633270e+001, 5.353937e+002
9.681482e+001, 5.316915e+002
9.729694e+001, 5.290358e+002
9.777905e+001, 5.274426e+002
9.826117e+001, 5.279610e+002
9.874329e+001, 5.308575e+002
9.922540e+001, 5.355897e+002
9.970752e+001, 5.417458e+002
1.001896e+002, 5.499504e+002
1.006718e+002, 5.568318e+002
1.011539e+002, 5.593606e+002
1.016360e+002, 5.563060e+002
1.021181e+002, 5.548652e+002
1.026002e+002, 5.559880e+002
1.030823e+002, 5.594532e+002
1.035645e+002, 5.638452e+002
1.040466e+002, 5.693679e+002
1.045287e+002, 5.755937e+002
1.050108e+002, 5.820004e+002
1.054929e+002, 5.869461e+002
1.059750e+002, 5.949873e+002
1.064572e+002, 6.081710e+002
1.069393e+002, 6.274694e+002
1.074214e+002, 6.431026e+002
1.079035e+002, 6.557820e+002
1.083856e+002, 6.647885e+002
1.088677e+002, 6.691555e+002
1.093499e+002, 6.638150e+002
1.098320e+002, 6.589612e+002
1.103141e+002, 6.565832e+002
1.107962e+002, 6.570221e+002
1.112783e+002, 6.588257e+002
1.117604e+002, 6.623820e+002
1.122426e+002, 6.671630e+002
1.127247e+002, 6.723055e+002
1.132068e+002, 6.772770e+002
1.136889e+002, 6.828945e+002
1.141710e+002, 6.894986e+002
1.146531e+002, 6.974633e+002
1.151353e+002, 7.057522e+002
1.156174e+002, 7.152069e+002
1.160995e+002, 7.249730e+002
1.165816e+002, 7.330148e+002
1.170637e+002, 7.374551e+002
1.175458e+002, 7.404995e+002
1.180280e+002, 7.437365e+002
1.185101e+002, 7.482263e+002
1.189922e+002, 7.520241e+002
1.194743e+002, 7.533721e+002
1.199564e+002, 7.527943e+002
1.204385e+002, 7.526422e+002
1.209207e+002, 7.538914e+002
1.214028e+002, 7.563943e+002
1.218849e+002, 7.599078e+002
1.223670e+002, 7.631868e+002
1.228491e+002, 7.684333e+002
1.233312e+002, 7.804019e+002
1.238134e+002, 7.986091e+002
1.242955e+002, 8.135723e+002
1.247776e+002, 8.147546e+002
1.252597e+002, 8.070759e+002
1.257418e+002, 8.005095e+002
1.262239e+002, 7.994788e+002
1.267061e+002, 8.019780e+002
1.271882e+002, 8.048199e+002
1.276703e+002, 8.079674e+002
1.281524e+002, 8.119795e+002
1.286345e+002, 8.181130e+002
1.291166e+002, 8.259167e+002
1.295988e+002, 8.333653e+002
1.300809e+002, 8.388696e+002
1.305630e+002, 8.431655e+002
1.310451e+002, 8.492592e+002
1.315272e+002, 8.577731e+002
1.320093e+002, 8.663733e+002
1.324915e+002, 8.711297e+002
1.329736e+002, 8.720366e+002
1.334557e+002, 8.728596e+002
1.339378e+002, 8.757421e+002
1.344199e+002, 8.805594e+002
1.349020e+002, 8.851702e+002
1.353842e+002, 8.893673e+002
1.358663e+002, 8.932862e+002
1.363484e+002, 8.973926e+002
1.368305e+002, 9.016454e+002
1.373126e+002, 9.060872e+002
1.377947e+002, 9.100957e+002
1.382769e+002, 9.132157e+002
1.387590e+002, 9.196442e+002
1.392411e+002, 9.316391e+002
1.397232e+002, 9.467911e+002
1.402053e+002, 9.546578e+002
1.406874e+002, 9.534055e+002
1.411696e+002, 9.488622e+002
1.416517e+002, 9.448231e+002
1.421338e+002, 9.412675e+002
1.426159e+002, 9.383790e+002
1.430980e+002, 9.363049e+002
1.435801e+002, 9.350450e+002
1.440623e+002, 9.340440e+002
1.445444e+002, 9.332913e+002
1.450265e+002, 9.329083e+002
1.455086e+002, 9.329887e+002
1.459907e+002, 9.335060e+002
1.464728e+002, 9.346261e+002
1.469550e+002, 9.368810e+002
1.474371e+002, 9.404269e+002
1.479192e+002, 9.424180e+002
1.484013e+002, 9.424398e+002
1.488834e+002, 9.411530e+002
1.493655e+002, 9.391185e+002
1.498477e+002, 9.352559e+002
1.503298e+002, 9.317812e+002
1.508119e+002, 9.291894e+002
1.512940e+002, 9.276448e+002
1.517761e+002, 9.259920e+002
1.522583e+002, 9.239852e+002
1.527404e+002, 9.219587e+002
1.532225e+002, 9.202541e+002
1.537046e+002, 9.191111e+002
1.541867e+002, 9.181339e+002
1.546688e+002, 9.176511e+002
1.551510e+002, 9.182498e+002
1.556331e+002, 9.170550e+002
1.561152e+002, 9.114510e+002
1.565973e+002, 9.043316e+002
1.570794e+002, 8.996229e+002
1.575615e+002, 9.006418e+002
1.580437e+002, 9.021535e+002
1.585258e+002, 9.019384e+002
1.590079e+002, 8.991418e+002
1.594900e+002, 8.965100e+002
1.599721e+002, 8.945331e+002
1.604542e+002, 8.932646e+002
1.609364e+002, 8.927986e+002
1.614185e+002, 8.932027e+002
1.619006e+002, 8.943691e+002
1.623827e+002, 8.964727e+002
1.628648e+002, 9.001456e+002
1.633469e+002, 9.032634e+002
1.638291e+002, 9.047181e+002
1.643112e+002, 9.048764e+002
1.647933e+002, 9.046487e+002
1.652754e+002, 9.040032e+002
1.657575e+002, 9.033741e+002
1.662396e+002, 9.030878e+002
1.667218e+002, 9.032441e+002
1.672039e+002, 9.037081e+002
1.676860e+002, 9.046045e+002
1.681681e+002, 9.058012e+002
1.686502e+002, 9.068961e+002
1.691323e+002, 9.071057e+002
1.696145e+002, 9.073378e+002
1.700966e+002, 9.086080e+002
1.705787e+002, 9.116885e+002
1.710608e+002, 9.150555e+002
1.715429e+002, 9.175320e+002
1.720250e+002, 9.192229e+002
1.725072e+002, 9.205353e+002
1.729893e+002, 9.213494e+002
1.734714e+002, 9.220557e+002
1.739535e+002, 9.232662e+002
1.744356e+002, 9.255274e+002
1.749177e+002, 9.278611e+002
1.753999e+002, 9.292546e+002
1.758820e+002, 9.297653e+002
1.763641e+002, 9.298371e+002
1.768462e+002, 9.294168e+002
1.773283e+002, 9.288372e+002
1.778104e+002, 9.287374e+002
1.782926e+002, 9.294072e+002
1.787747e+002, 9.305693e+002
1.792568e+002, 9.322399e+002
1.797389e+002, 9.343611e+002
1.802210e+002, 9.359069e+002
1.807031e+002, 9.358152e+002
1.811853e+002, 9.344371e+002
1.816674e+002, 9.325850e+002
1.821495e+002, 9.301385e+002
1.826316e+002, 9.275957e+002
1.831137e+002, 9.260555e+002
1.835958e+002, 9.255109e+002
1.840780e+002, 9.253080e+002
1.845601e+002, 9.246485e+002
1.850422e+002, 9.237322e+002
1.855243e+002, 9.234049e+002
1.860064e+002, 9.241144e+002
1.864885e+002, 9.255332e+002
1.869707e+002, 9.269182e+002
1.874528e+002, 9.282986e+002
1.879349e+002, 9.294808e+002
1.884170e+002, 9.297516e+002
1.888991e+002, 9.293455e+002
1.893812e+002, 9.301921e+002
1.898634e+002, 9.339320e+002
1.903455e+002, 9.393837e+002
1.908276e+002, 9.416160e+002
1.913097e+002, 9.402045e+002
1.917918e+002, 9.379650e+002
1.922739e+002, 9.382587e+002
1.927561e+002, 9.410329e+002
1.932382e+002, 9.436107e+002
1.937203e+002, 9.449808e+002
1.942024e+002, 9.453601e+002
1.946845e+002, 9.461115e+002
1.951666e+002, 9.472717e+002
1.956488e+002, 9.485647e+002
1.961309e+002, 9.496222e+002
1.966130e+002, 9.504230e+002
1.970951e+002, 9.513165e+002
1.975772e+002, 9.525577e+002
1.980593e+002, 9.540770e+002
1.985415e+002, 9.550707e+002
1.990236e+002, 9.554939e+002
1.995057e+002, 9.555788e+002
1.999878e+002, 9.555035e+002
2.004699e+002, 9.552451e+002
2.009520e+002, 9.552634e+002
2.014342e+002, 9.558762e+002
2.019163e+002, 9.570871e+002
2.023984e+002, 9.579779e+002
2.028805e+002, 9.585604e+002
2.033626e+002, 9.588770e+002
2.038447e+002, 9.588348e+002
2.043269e+002, 9.583054e+002
2.048090e+002, 9.580824e+002
2.052911e+002, 9.584830e+002
2.057732e+002, 9.595111e+002
2.062553e+002, 9.605323e+002
2.067374e+002, 9.615460e+002
2.072196e+002, 9.624881e+002
2.077017e+002, 9.631860e+002
2.081838e+002, 9.634739e+002
2.086659e+002, 9.640043e+002
2.091480e+002, 9.651166e+002
2.096301e+002, 9.668848e+002
2.101123e+002, 9.679921e+002
2.105944e+002, 9.681816e+002
2.110765e+002, 9.680306e+002
2.115586e+002, 9.685009e+002
2.120407e+002, 9.699915e+002
2.125228e+002, 9.709130e+002
2.130050e+002, 9.704191e+002
2.134871e+002, 9.682328e+002
2.139692e+002, 9.675443e+002
2.144513e+002, 9.691616e+002
2.149334e+002, 9.713881e+002
2.154155e+002, 9.717399e+002
2.158977e+002, 9.695693e+002
2.163798e+002, 9.671129e+002
2.168619e+002, 9.651384e+002
2.173440e+002, 9.637967e+002
2.178261e+002, 9.618043e+002
2.183082e+002, 9.590242e+002
2.187904e+002, 9.557869e+002
2.192725e+002, 9.525213e+002
2.197546e+002, 9.492482e+002
2.202367e+002, 9.460421e+002
2.207188e+002, 9.432756e+002
2.212009e+002, 9.412540e+002
2.216831e+002, 9.373992e+002
2.221652e+002, 9.312936e+002
2.226473e+002, 9.237753e+002
2.231294e+002, 9.158588e+002
2.236115e+002, 9.067087e+002
2.240936e+002, 8.987335e+002
2.245758e+002, 8.927858e+002
2.250579e+002, 8.892523e+002
2.255400e+002, 8.852485e+002
2.260221e+002, 8.807934e+002
2.265042e+002, 8.758461e+002
2.269863e+002, 8.702518e+002
2.274685e+002, 8.630887e+002
2.279506e+002, 8.568829e+002
2.284327e+002, 8.524723e+002
2.289148e+002, 8.500597e+002
2.293969e+002, 8.475120e+002
2.298790e+002, 8.446707e+002
2.303612e+002, 8.417994e+002
2.308433e+002, 8.392947e+002
2.313254e+002, 8.374977e+002
2.318075e+002, 8.353439e+002
2.322896e+002, 8.323431e+002
2.327717e+002, 8.283192e+002
2.332539e+002, 8.252012e+002
2.337360e+002, 8.233461e+002
2.342181e+002, 8.221530e+002
2.347002e+002, 8.209685e+002
2.351823e+002, 8.198061e+002
2.356644e+002, 8.186823e+002
2.361466e+002, 8.176231e+002
2.366287e+002, 8.166539e+002
2.371108e+002, 8.156583e+002
2.375929e+002, 8.144400e+002
2.380750e+002, 8.134373e+002
2.385571e+002, 8.130488e+002
2.390393e+002, 8.130690e+002
2.395214e+002, 8.141523e+002
2.400035e+002, 8.167115e+002
2.404856e+002, 8.208748e+002
2.409677e+002, 8.245537e+002
2.414498e+002, 8.274919e+002
2.419320e+002, 8.301781e+002
2.424141e+002, 8.331237e+002
2.428962e+002, 8.364979e+002
2.433783e+002, 8.397269e+002
2.438604e+002, 8.424266e+002
2.443425e+002, 8.445792e+002
2.448247e+002, 8.479743e+002
2.453068e+002, 8.535250e+002
2.457889e+002, 8.593020e+002
2.462710e+002, 8.636722e+002
2.467531e+002, 8.660182e+002
2.472352e+002, 8.681263e+002
2.477174e+002, 8.701686e+002
2.481995e+002, 8.721450e+002
2.486816e+002, 8.743967e+002
2.491637e+002, 8.772919e+002
2.496458e+002, 8.800856e+002
2.501279e+002, 8.821420e+002
2.506101e+002, 8.832396e+002
2.510922e+002, 8.841553e+002
2.515743e+002, 8.846511e+002
2.520564e+002, 8.849371e+002
2.525385e+002, 8.867246e+002
2.530206e+002, 8.906464e+002
2.535028e+002, 8.952852e+002
2.539849e+002, 8.995883e+002
2.544670e+002, 9.034960e+002
2.549491e+002, 9.072117e+002
2.554312e+002, 9.102213e+002
2.559133e+002, 9.129186e+002
2.563955e+002, 9.180284e+002
2.568776e+002, 9.272864e+002
2.573597e+002, 9.362668e+002
2.578418e+002, 9.421254e+002
2.583239e+002, 9.440099e+002
2.588061e+002, 9.451293e+002
2.592882e+002, 9.459000e+002
2.597703e+002, 9.460382e+002
2.602524e+002, 9.444869e+002
2.607345e+002, 9.410244e+002
2.612166e+002, 9.363046e+002
2.616988e+002, 9.304271e+002
2.621809e+002, 9.231571e+002
2.626630e+002, 9.159839e+002
2.631451e+002, 9.091876e+002
2.636272e+002, 9.025095e+002
2.641093e+002, 8.953038e+002
2.645915e+002, 8.871475e+002
2.650736e+002, 8.793437e+002
2.655557e+002, 8.724329e+002
2.660378e+002, 8.666992e+002
2.665199e+002, 8.612431e+002
2.670020e+002, 8.560690e+002
2.674842e+002, 8.511978e+002
2.679663e+002, 8.467572e+002
2.684484e+002, 8.427244e+002
2.689305e+002, 8.391827e+002
2.694126e+002, 8.361922e+002
2.698947e+002, 8.337028e+002
2.703769e+002, 8.317454e+002
2.708590e+002, 8.302173e+002
2.713411e+002, 8.292808e+002
2.718232e+002, 8.295363e+002
2.723053e+002, 8.313884e+002
2.727874e+002, 8.327623e+002
2.732696e+002, 8.325801e+002
2.737517e+002, 8.306894e+002
2.742338e+002, 8.298656e+002
2.747159e+002, 8.303141e+002
2.751980e+002, 8.313903e+002
2.756801e+002, 8.323500e+002
2.761623e+002, 8.332382e+002
2.766444e+002, 8.337253e+002
2.771265e+002, 8.333815e+002
2.776086e+002, 8.323392e+002
2.780907e+002, 8.329102e+002
2.785728e+002, 8.355688e+002
2.790550e+002, 8.385471e+002
2.795371e+002, 8.395525e+002
2.800192e+002, 8.384033e+002
2.805013e+002, 8.379082e+002
2.809834e+002, 8.389373e+002
2.814655e+002, 8.412368e+002
2.819477e+002, 8.435610e+002
2.824298e+002, 8.459070e+002
2.829119e+002, 8.482014e+002
2.833940e+002, 8.502028e+002
2.838761e+002, 8.519169e+002
2.843582e+002, 8.541322e+002
2.848404e+002, 8.572266e+002
2.853225e+002, 8.607995e+002
2.858046e+002, 8.635522e+002
2.862867e+002, 8.653879e+002
2.867688e+002, 8.670934e+002
2.872509e+002, 8.693294e+002
2.877331e+002, 8.720267e+002
2.882152e+002, 8.746559e+002
2.886973e+002, 8.772299e+002
2.891794e+002, 8.795609e+002
2.896615e+002, 8.812516e+002
2.901436e+002, 8.823154e+002
2.906258e+002, 8.828019e+002
2.911079e+002, 8.826135e+002
2.915900e+002, 8.818510e+002
2.920721e+002, 8.810002e+002
2.925542e+002, 8.802222e+002
2.930363e+002, 8.791635e+002
2.935185e+002, 8.771711e+002
2.940006e+002, 8.742892e+002
2.944827e+002, 8.711598e+002
2.949648e+002, 8.679394e+002
2.954469e+002, 8.646889e+002
2.959290e+002, 8.616811e+002
2.964112e+002, 8.589581e+002
2.968933e+002, 8.562621e+002
2.973754e+002, 8.530579e+002
2.978575e+002, 8.495701e+002
2.983396e+002, 8.465666e+002
2.988217e+002, 8.448174e+002
2.993039e+002, 8.437048e+002
2.997860e+002, 8.421172e+002
3.002681e+002, 8.399827e+002
3.007502e+002, 8.378500e+002
3.012323e+002, 8.365677e+002
3.017144e+002, 8.357225e+002
3.021966e+002, 8.343798e+002
3.026787e+002, 8.314010e+002
3.031608e+002, 8.281464e+002
3.036429e+002, 8.265479e+002
3.041250e+002, 8.265399e+002
3.046071e+002, 8.265135e+002
3.050893e+002, 8.247994e+002
3.055714e+002, 8.223082e+002
3.060535e+002, 8.205450e+002
3.065356e+002, 8.200262e+002
3.070177e+002, 8.203203e+002
3.074998e+002, 8.217617e+002
3.079820e+002, 8.240212e+002
3.084641e+002, 8.252830e+002
3.089462e+002, 8.234591e+002
3.094283e+002, 8.204188e+002
3.099104e+002, 8.183158e+002
3.103925e+002, 8.182582e+002
3.108747e+002, 8.182101e+002
3.113568e+002, 8.162185e+002
3.118389e+002, 8.130513e+002
3.123210e+002, 8.108581e+002
3.128031e+002, 8.114716e+002
3.132852e+002, 8.129982e+002
3.137674e+002, 8.139660e+002
3.142495e+002, 8.139603e+002
3.147316e+002, 8.139283e+002
3.152137e+002, 8.146189e+002
3.156958e+002, 8.155652e+002
3.161779e+002, 8.159676e+002
3.166601e+002, 8.146703e+002
3.171422e+002, 8.134221e+002
3.176243e+002, 8.131883e+002
3.181064e+002, 8.141675e+002
3.185885e+002, 8.154403e+002
3.190706e+002, 8.169453e+002
3.195528e+002, 8.184946e+002
3.200349e+002, 8.198743e+002
3.205170e+002, 8.206809e+002
3.209991e+002, 8.216427e+002
3.214812e+002, 8.231248e+002
3.219633e+002, 8.251461e+002
3.224455e+002, 8.269346e+002
3.229276e+002, 8.278061e+002
3.234097e+002, 8.286820e+002
3.238918e+002, 8.302515e+002
3.243739e+002, 8.335860e+002
3.248560e+002, 8.365360e+002
3.253382e+002, 8.384408e+002
3.258203e+002, 8.395128e+002
3.263024e+002, 8.411441e+002
3.267845e+002, 8.438144e+002
3.272666e+002, 8.467871e+002
3.277487e+002, 8.497260e+002
3.282309e+002, 8.527233e+002
3.287130e+002, 8.554913e+002
3.291951e+002, 8.575871e+002
3.296772e+002, 8.594650e+002
3.301593e+002, 8.623337e+002
3.306414e+002, 8.672200e+002
3.311236e+002, 8.718792e+002
3.316057e+002, 8.754156e+002
3.320878e+002, 8.771360e+002
3.325699e+002, 8.798855e+002
3.330520e+002, 8.839771e+002
3.335341e+002, 8.888780e+002
3.340163e+002, 8.938391e+002
3.344984e+002, 8.988011e+002
3.349805e+002, 9.038731e+002
3.354626e+002, 9.090316e+002
3.359447e+002, 9.142884e+002
3.364268e+002, 9.202324e+002
3.369090e+002, 9.272168e+002
3.373911e+002, 9.344493e+002
3.378732e+002, 9.407461e+002
3.383553e+002, 9.454795e+002
3.388374e+002, 9.519406e+002
3.393195e+002, 9.613854e+002
3.398017e+002, 9.729041e+002
3.402838e+002, 9.827034e+002
3.407659e+002, 9.905042e+002
3.412480e+002, 9.975800e+002
3.417301e+002, 1.004805e+003
3.422122e+002, 1.012135e+003
3.426944e+002, 1.019633e+003
3.431765e+002, 1.027422e+003
3.436586e+002, 1.035171e+003
3.441407e+002, 1.042084e+003
3.446228e+002, 1.048135e+003
3.451049e+002, 1.053579e+003
3.455871e+002, 1.058490e+003
3.460692e+002, 1.062928e+003
3.465513e+002, 1.066838e+003
3.470334e+002, 1.070287e+003
3.475155e+002, 1.073094e+003
3.479977e+002, 1.075201e+003
3.484798e+002, 1.076535e+003
3.489619e+002, 1.076500e+003
3.494440e+002, 1.073822e+003
3.499261e+002, 1.069966e+003
3.504082e+002, 1.068264e+003
3.508904e+002, 1.068701e+003
3.513725e+002, 1.069013e+003
3.518546e+002, 1.067153e+003
3.523367e+002, 1.063709e+003
3.528188e+002, 1.059892e+003
3.533009e+002, 1.055908e+003
3.537831e+002, 1.051827e+003
3.542652e+002, 1.047598e+003
3.547473e+002, 1.043283e+003
3.552294e+002, 1.039190e+003
3.557115e+002, 1.035938e+003
3.561936e+002, 1.032834e+003
3.566758e+002, 1.029047e+003
3.571579e+002, 1.024180e+003
3.576400e+002, 1.019305e+003
3.581221e+002, 1.015042e+003
3.586042e+002, 1.011357e+003
3.590863e+002, 1.008061e+003
3.595685e+002, 1.004969e+003
3.600506e+002, 1.002357e+003
3.605327e+002, 1.000747e+003
3.610148e+002, 1.000347e+003
3.614969e+002, 9.993036e+002
3.619790e+002, 9.959765e+002
3.624612e+002, 9.919274e+002
3.629433e+002, 9.887821e+002
3.634254e+002, 9.874346e+002
3.639075e+002, 9.865648e+002
3.643896e+002, 9.858952e+002
3.648717e+002, 9.853782e+002
3.653539e+002, 9.848095e+002
3.658360e+002, 9.840179e+002
3.663181e+002, 9.832012e+002
3.668002e+002, 9.824508e+002
3.672823e+002, 9.813067e+002
3.677644e+002, 9.807930e+002
3.682466e+002, 9.813385e+002
3.687287e+002, 9.825878e+002
3.692108e+002, 9.835342e+002
3.696929e+002, 9.839485e+002
3.701750e+002, 9.843181e+002
3.706571e+002, 9.847789e+002
3.711393e+002, 9.853129e+002
3.716214e+002, 9.860840e+002
3.721035e+002, 9.873560e+002
3.725856e+002, 9.887136e+002
3.730677e+002, 9.895000e+002
3.735498e+002, 9.892136e+002
3.740320e+002, 9.895620e+002
3.745141e+002, 9.912920e+002
3.749962e+002, 9.942526e+002
3.754783e+002, 9.957730e+002
3.759604e+002, 9.951326e+002
3.764425e+002, 9.946450e+002
3.769247e+002, 9.967272e+002
3.774068e+002, 1.001902e+003
3.778889e+002, 1.005525e+003
3.783710e+002, 1.006864e+003
3.788531e+002, 1.006428e+003
3.793352e+002, 1.005116e+003
3.798174e+002, 1.002866e+003
3.802995e+002, 1.000548e+003
3.807816e+002, 9.984639e+002
3.812637e+002, 9.966457e+002
3.817458e+002, 9.956727e+002
3.822279e+002, 9.956736e+002
3.827101e+002, 9.959550e+002
3.831922e+002, 9.960039e+002
3.836743e+002, 9.956830e+002
3.841564e+002, 9.943650e+002
3.846385e+002, 9.911320e+002
3.851206e+002, 9.870517e+002
3.856028e+002, 9.841121e+002
3.860849e+002, 9.822656e+002
3.865670e+002, 9.805753e+002
3.870491e+002, 9.781633e+002
3.875312e+002, 9.754468e+002
3.880133e+002, 9.730916e+002
3.884955e+002, 9.713305e+002
3.889776e+002, 9.698890e+002
3.894597e+002, 9.688058e+002
3.899418e+002, 9.679219e+002
3.904239e+002, 9.667609e+002
3.909060e+002, 9.644998e+002
3.913882e+002, 9.622394e+002
3.918703e+002, 9.607790e+002
3.923524e+002, 9.602099e+002
3.928345e+002, 9.603752e+002
3.933166e+002, 9.614212e+002
3.937987e+002, 9.630888e+002
3.942809e+002, 9.650309e+002
3.947630e+002, 9.678584e+002
3.952451e+002, 9.702423e+002
3.957272e+002, 9.712943e+002
3.962093e+002, 9.711162e+002
3.966914e+002, 9.717916e+002
3.971736e+002, 9.744266e+002
3.976557e+002, 9.775865e+002
3.981378e+002, 9.804059e+002
3.986199e+002, 9.821126e+002
3.991020e+002, 9.843054e+002
3.995841e+002, 9.878133e+002
4.000663e+002, 9.917989e+002
4.005484e+002, 9.941735e+002
4.010305e+002, 9.934540e+002
4.015126e+002, 9.929996e+002
4.019947e+002, 9.942755e+002
4.024768e+002, 9.979592e+002
4.029590e+002, 9.995654e+002
4.034411e+002, 9.983136e+002
4.039232e+002, 9.958835e+002
4.044053e+002, 9.942546e+002
4.048874e+002, 9.938632e+002
4.053695e+002, 9.927259e+002
4.058517e+002, 9.902125e+002
4.063338e+002, 9.867152e+002
4.068159e+002, 9.838422e+002
4.072980e+002, 9.816811e+002
4.077801e+002, 9.797486e+002
4.082622e+002, 9.781306e+002
4.087444e+002, 9.767216e+002
4.092265e+002, 9.738094e+002
4.097086e+002, 9.688727e+002
4.101907e+002, 9.632773e+002
4.106728e+002, 9.593129e+002
4.111549e+002, 9.566962e+002
4.116371e+002, 9.537427e+002
4.121192e+002, 9.490186e+002
4.126013e+002, 9.435956e+002
4.130834e+002, 9.398161e+002
4.135655e+002, 9.376866e+002
4.140476e+002, 9.359730e+002
4.145298e+002, 9.336403e+002
4.150119e+002, 9.310255e+002
4.154940e+002, 9.286788e+002
4.159761e+002, 9.270065e+002
4.164582e+002, 9.253106e+002
4.169403e+002, 9.226941e+002
4.174225e+002, 9.195530e+002
4.179046e+002, 9.170224e+002
4.183867e+002, 9.158328e+002
4.188688e+002, 9.154432e+002
4.193509e+002, 9.157025e+002
4.198330e+002, 9.167596e+002
4.203152e+002, 9.176293e+002
4.207973e+002, 9.177914e+002
4.212794e+002, 9.176313e+002
4.217615e+002, 9.175937e+002
4.222436e+002, 9.174144e+002
4.227257e+002, 9.177621e+002
4.232079e+002, 9.189280e+002
4.236900e+002, 9.208640e+002
4.241721e+002, 9.229377e+002
4.246542e+002, 9.254139e+002
4.251363e+002, 9.277634e+002
4.256184e+002, 9.297053e+002
4.261006e+002, 9.306061e+002
4.265827e+002, 9.321901e+002
4.270648e+002, 9.347416e+002
4.275469e+002, 9.378204e+002
4.280290e+002, 9.405745e+002
4.285111e+002, 9.427891e+002
4.289933e+002, 9.451359e+002
4.294754e+002, 9.478313e+002
4.299575e+002, 9.508736e+002
4.304396e+002, 9.537787e+002
4.309217e+002, 9.564639e+002
4.314038e+002, 9.592721e+002
4.318860e+002, 9.626783e+002
4.323681e+002, 9.666976e+002
4.328502e+002, 9.701533e+002
4.333323e+002, 9.727894e+002
4.338144e+002, 9.749115e+002
4.342965e+002, 9.768485e+002
4.347787e+002, 9.786495e+002
4.352608e+002, 9.809475e+002
4.357429e+002, 9.847731e+002
4.362250e+002, 9.892377e+002
4.367071e+002, 9.924112e+002
4.371892e+002, 9.942095e+002
4.376714e+002, 9.949158e+002
4.381535e+002, 9.942567e+002
4.386356e+002, 9.927734e+002
4.391177e+002, 9.914429e+002
4.395998e+002, 9.909960e+002
4.400819e+002, 9.903439e+002
4.405641e+002, 9.883843e+002
4.410462e+002, 9.854191e+002
4.415283e+002, 9.825059e+002
4.420104e+002, 9.807657e+002
4.424925e+002, 9.788962e+002
4.429746e+002, 9.757775e+002
4.434568e+002, 9.707663e+002
4.439389e+002, 9.664039e+002
4.444210e+002, 9.643502e+002
4.449031e+002, 9.630665e+002
4.453852e+002, 9.607031e+002
4.458673e+002, 9.560814e+002
4.463495e+002, 9.512111e+002
4.468316e+002, 9.461868e+002
4.473137e+002, 9.410530e+002
4.477958e+002, 9.365641e+002
4.482779e+002, 9.332194e+002
4.487600e+002, 9.300534e+002
4.492422e+002, 9.265817e+002
4.497243e+002, 9.225447e+002
4.502064e+002, 9.188429e+002
4.506885e+002, 9.156170e+002
4.511706e+002, 9.125652e+002
4.516527e+002, 9.092015e+002
4.521349e+002, 9.054418e+002
4.526170e+002, 9.017253e+002
4.530991e+002, 8.980267e+002
4.535812e+002, 8.944870e+002
4.540633e+002, 8.922704e+002
4.545454e+002, 8.914523e+002
4.550276e+002, 8.912029e+002
4.555097e+002, 8.912282e+002
4.559918e+002, 8.913553e+002
4.564739e+002, 8.904906e+002
4.569560e+002, 8.881153e+002
4.574381e+002, 8.857053e+002
4.579203e+002, 8.857032e+002
4.584024e+002, 8.874023e+002
4.588845e+002, 8.885898e+002
4.593666e+002, 8.869838e+002
4.598488e+002, 8.849500e+002
4.603309e+002, 8.856975e+002
4.608130e+002, 8.890549e+002
4.612951e+002, 8.920005e+002
4.617772e+002, 8.920408e+002
4.622593e+002, 8.909367e+002
4.627415e+002, 8.904024e+002
4.632236e+002, 8.912418e+002
4.637057e+002, 8.919918e+002
4.641878e+002, 8.917179e+002
4.646699e+002, 8.909993e+002
4.651520e+002, 8.909436e+002
4.656342e+002, 8.922116e+002
4.661163e+002, 8.938492e+002
4.665984e+002, 8.956088e+002
4.670805e+002, 8.974727e+002
4.675626e+002, 8.995018e+002
4.680447e+002, 9.021142e+002
4.685269e+002, 9.045353e+002
4.690090e+002, 9.061729e+002
4.694911e+002, 9.063400e+002
4.699732e+002, 9.071843e+002
4.704553e+002, 9.093333e+002
4.709374e+002, 9.119209e+002
4.714196e+002, 9.127440e+002
4.719017e+002, 9.112117e+002
4.723838e+002, 9.100668e+002
4.728659e+002, 9.106429e+002
4.733480e+002, 9.127288e+002
4.738301e+002, 9.140712e+002
4.743123e+002, 9.146884e+002
4.747944e+002, 9.145609e+002
4.752765e+002, 9.134976e+002
4.757586e+002, 9.116384e+002
4.762407e+002, 9.094158e+002
4.767228e+002, 9.066722e+002
4.772050e+002, 9.041486e+002
4.776871e+002, 9.033112e+002
4.781692e+002, 9.036379e+002
4.786513e+002, 9.034971e+002
4.791334e+002, 9.016392e+002
4.796155e+002, 8.991390e+002
4.800977e+002, 8.970201e+002
4.805798e+002, 8.953126e+002
4.810619e+002, 8.935720e+002
4.815440e+002, 8.911599e+002
4.820261e+002, 8.888122e+002
4.825082e+002, 8.872406e+002
4.829904e+002, 8.874061e+002
4.834725e+002, 8.871701e+002
4.839546e+002, 8.855736e+002
4.844367e+002, 8.831830e+002
4.849188e+002, 8.812255e+002
4.854009e+002, 8.798309e+002
4.858831e+002, 8.789537e+002
4.863652e+002, 8.788879e+002
4.868473e+002, 8.797630e+002
4.873294e+002, 8.795854e+002
4.878115e+002, 8.777773e+002
4.882936e+002, 8.755975e+002
4.887758e+002, 8.738535e+002
4.892579e+002, 8.725214e+002
4.897400e+002, 8.717709e+002
4.902221e+002, 8.718407e+002
4.907042e+002, 8.722108e+002
4.911863e+002, 8.716904e+002
4.916685e+002, 8.702006e+002
4.921506e+002, 8.690716e+002
4.926327e+002, 8.690255e+002
4.931148e+002, 8.697214e+002
4.935969e+002, 8.701083e+002
4.940790e+002, 8.701888e+002
4.945612e+002, 8.699121e+002
4.950433e+002, 8.689742e+002
4.955254e+002, 8.676954e+002
4.960075e+002, 8.666749e+002
4.964896e+002, 8.660646e+002
4.969717e+002, 8.656098e+002
4.974539e+002, 8.651041e+002
4.979360e+002, 8.645953e+002
4.984181e+002, 8.641911e+002
4.989002e+002, 8.639612e+002
4.993823e+002, 8.638097e+002
4.998644e+002, 8.636254e+002
5.003466e+002, 8.634304e+002
5.008287e+002, 8.634711e+002
5.013108e+002, 8.643173e+002
5.017929e+002, 8.650716e+002
5.022750e+002, 8.651816e+002
5.027571e+002, 8.641893e+002
5.032393e+002, 8.633572e+002
5.037214e+002, 8.626671e+002
5.042035e+002, 8.621921e+002
5.046856e+002, 8.620651e+002
5.051677e+002, 8.625236e+002
5.056498e+002, 8.628583e+002
5.061320e+002, 8.628796e+002
5.066141e+002, 8.626656e+002
5.070962e+002, 8.627079e+002
5.075783e+002, 8.630986e+002
5.080604e+002, 8.633301e+002
5.085425e+002, 8.626424e+002
5.090247e+002, 8.612423e+002
5.095068e+002, 8.616902e+002
5.099889e+002, 8.644092e+002
5.104710e+002, 8.671835e+002
5.109531e+002, 8.668652e+002
5.114352e+002, 8.644729e+002
5.119174e+002, 8.631360e+002
5.123995e+002, 8.645254e+002
5.128816e+002, 8.664098e+002
5.133637e+002, 8.661406e+002
5.138458e+002, 8.643057e+002
5.143279e+002, 8.627905e+002
5.148101e+002, 8.628610e+002
5.152922e+002, 8.634355e+002
5.157743e+002, 8.637594e+002
5.162564e+002, 8.637403e+002
5.167385e+002, 8.638722e+002
5.172206e+002, 8.645198e+002
5.177028e+002, 8.652863e+002
5.181849e+002, 8.658466e+002
5.186670e+002, 8.657847e+002
5.191491e+002, 8.659628e+002
5.196312e+002, 8.665070e+002
5.201133e+002, 8.672913e+002
5.205955e+002, 8.680856e+002
5.210776e+002, 8.689225e+002
5.215597e+002, 8.696526e+002
5.220418e+002, 8.701387e+002
5.225239e+002, 8.703967e+002
5.230060e+002, 8.710098e+002
5.234882e+002, 8.720368e+002
5.239703e+002, 8.731575e+002
5.244524e+002, 8.740859e+002
5.249345e+002, 8.748411e+002
5.254166e+002, 8.757933e+002
5.258987e+002, 8.770617e+002
5.263809e+002, 8.782516e+002
5.268630e+002, 8.786523e+002
5.273451e+002, 8.785328e+002
5.278272e+002, 8.787455e+002
5.283093e+002, 8.800061e+002
5.287914e+002, 8.814495e+002
5.292736e+002, 8.820850e+002
5.297557e+002, 8.820928e+002
5.302378e+002, 8.822126e+002
5.307199e+002, 8.829637e+002
5.312020e+002, 8.839133e+002
5.316841e+002, 8.846897e+002
5.321663e+002, 8.851591e+002
5.326484e+002, 8.859915e+002
5.331305e+002, 8.873337e+002
5.336126e+002, 8.891428e+002
5.340947e+002, 8.914181e+002
5.345768e+002, 8.953538e+002
5.350590e+002, 8.980787e+002
5.355411e+002, 8.986182e+002
5.360232e+002, 8.979233e+002
5.365053e+002, 8.986349e+002
5.369874e+002, 9.011069e+002
5.374695e+002, 9.040284e+002
5.379517e+002, 9.071411e+002
5.384338e+002, 9.103806e+002
5.389159e+002, 9.123546e+002
5.393980e+002, 9.128225e+002
5.398801e+002, 9.133883e+002
5.403622e+002, 9.157198e+002
5.408444e+002, 9.193615e+002
5.413265e+002, 9.224252e+002
5.418086e+002, 9.245377e+002
5.422907e+002, 9.266536e+002
5.427728e+002, 9.300300e+002
5.432549e+002, 9.342618e+002
5.437371e+002, 9.383899e+002
5.442192e+002, 9.416030e+002
5.447013e+002, 9.449540e+002
5.451834e+002, 9.492690e+002
5.456655e+002, 9.544341e+002
5.461476e+002, 9.598036e+002
5.466298e+002, 9.649441e+002
5.471119e+002, 9.703808e+002
5.475940e+002, 9.762658e+002
5.480761e+002, 9.824799e+002
5.485582e+002, 9.898046e+002
5.490403e+002, 9.993094e+002
5.495225e+002, 1.009299e+003
5.500046e+002, 1.018230e+003
5.504867e+002, 1.025292e+003
5.509688e+002, 1.032940e+003
5.514509e+002, 1.041079e+003
5.519330e+002, 1.050157e+003
5.524152e+002, 1.061024e+003
5.528973e+002, 1.073770e+003
5.533794e+002, 1.087887e+003
5.538615e+002, 1.103658e+003
5.543436e+002, 1.120533e+003
5.548257e+002, 1.136430e+003
5.553079e+002, 1.151252e+003
5.557900e+002, 1.166623e+003
5.562721e+002, 1.183672e+003
5.567542e+002, 1.201910e+003
5.572363e+002, 1.220340e+003
5.577184e+002, 1.238756e+003
5.582006e+002, 1.257995e+003
5.586827e+002, 1.278689e+003
5.591648e+002, 1.300531e+003
5.596469e+002, 1.323523e+003
5.601290e+002, 1.348532e+003
5.606111e+002, 1.373495e+003
5.610933e+002, 1.397808e+003
5.615754e+002, 1.421460e+003
5.620575e+002, 1.444134e+003
5.625396e+002, 1.466429e+003
5.630217e+002, 1.487057e+003
5.635038e+002, 1.506400e+003
5.639860e+002, 1.524628e+003
5.644681e+002, 1.538030e+003
5.649502e+002, 1.545709e+003
5.654323e+002, 1.550208e+003
5.659144e+002, 1.553755e+003
5.663965e+002, 1.556643e+003
5.668787e+002, 1.554292e+003
5.673608e+002, 1.546176e+003
5.678429e+002, 1.533517e+003
5.683250e+002, 1.517913e+003
5.688071e+002, 1.499363e+003
5.692892e+002, 1.478002e+003
5.697714e+002, 1.453241e+003
5.702535e+002, 1.426787e+003
5.707356e+002, 1.400894e+003
5.712177e+002, 1.375145e+003
5.716998e+002, 1.349653e+003
5.721819e+002, 1.323081e+003
5.726641e+002, 1.297143e+003
5.731462e+002, 1.272959e+003
5.736283e+002, 1.250395e+003
5.741104e+002, 1.229281e+003
5.745925e+002, 1.209407e+003
5.750746e+002, 1.190883e+003
5.755568e+002, 1.173498e+003
5.760389e+002, 1.157698e+003
5.765210e+002, 1.142796e+003
5.770031e+002, 1.128533e+003
5.774852e+002, 1.115226e+003
5.779673e+002, 1.103360e+003
5.784495e+002, 1.093101e+003
5.789316e+002, 1.083339e+003
5.794137e+002, 1.073693e+003
5.798958e+002, 1.064578e+003
5.803779e+002, 1.056771e+003
5.808600e+002, 1.050306e+003
5.813422e+002, 1.044556e+003
5.818243e+002, 1.039382e+003
5.823064e+002, 1.034609e+003
5.827885e+002, 1.029885e+003
5.832706e+002, 1.025195e+003
5.837527e+002, 1.021005e+003
5.842349e+002, 1.018125e+003
5.847170e+002, 1.015614e+003
5.851991e+002, 1.012362e+003
5.856812e+002, 1.007814e+003
5.861633e+002, 1.003525e+003
5.866454e+002, 1.000038e+003
5.871276e+002, 9.971964e+002
5.876097e+002, 9.948531e+002
5.880918e+002, 9.938362e+002
5.885739e+002, 9.922490e+002
5.890560e+002, 9.893828e+002
5.895381e+002, 9.858465e+002
5.900203e+002, 9.835218e+002
5.905024e+002, 9.830393e+002
5.909845e+002, 9.823918e+002
5.914666e+002, 9.806631e+002
5.919487e+002, 9.780662e+002
5.924308e+002, 9.766703e+002
5.929130e+002, 9.766047e+002
5.933951e+002, 9.767678e+002
5.938772e+002, 9.764055e+002
5.943593e+002, 9.755910e+002
5.948414e+002, 9.742487e+002
5.953235e+002, 9.722313e+002
5.958057e+002, 9.707888e+002
5.962878e+002, 9.715667e+002
5.967699e+002, 9.735284e+002
5.972520e+002, 9.751229e+002
5.977341e+002, 9.758397e+002
5.982162e+002, 9.761603e+002
5.986984e+002, 9.762125e+002
5.991805e+002, 9.760359e+002
5.996626e+002, 9.757228e+002
6.001447e+002, 9.750742e+002
6.006268e+002, 9.745399e+002
6.011089e+002, 9.743800e+002
6.015911e+002, 9.745354e+002
6.020732e+002, 9.741976e+002
6.025553e+002, 9.729059e+002
6.030374e+002, 9.720043e+002
6.035195e+002, 9.723168e+002
6.040016e+002, 9.738912e+002
6.044838e+002, 9.754699e+002
6.049659e+002, 9.770569e+002
6.054480e+002, 9.785858e+002
6.059301e+002, 9.801203e+002
6.064122e+002, 9.815465e+002
6.068943e+002, 9.823317e+002
6.073765e+002, 9.821179e+002
6.078586e+002, 9.820504e+002
6.083407e+002, 9.836644e+002
6.088228e+002, 9.862105e+002
6.093049e+002, 9.882875e+002
6.097870e+002, 9.889183e+002
6.102692e+002, 9.893810e+002
6.107513e+002, 9.901230e+002
6.112334e+002, 9.911526e+002
6.117155e+002, 9.924880e+002
6.121976e+002, 9.945656e+002
6.126797e+002, 9.965182e+002
6.131619e+002, 9.981193e+002
6.136440e+002, 9.993792e+002
6.141261e+002, 1.000067e+003
6.146082e+002, 9.998011e+002
6.150903e+002, 9.996739e+002
6.155724e+002, 1.000424e+003
6.160546e+002, 1.002053e+003
6.165367e+002, 1.004236e+003
6.170188e+002, 1.007104e+003
6.175009e+002, 1.009857e+003
6.179830e+002, 1.011158e+003
6.184651e+002, 1.011568e+003
6.189473e+002, 1.012838e+003
6.194294e+002, 1.015867e+003
6.199115e+002, 1.018959e+003
6.203936e+002, 1.019987e+003
6.208757e+002, 1.020006e+003
6.213578e+002, 1.021155e+003
6.218400e+002, 1.025202e+003
6.223221e+002, 1.029688e+003
6.228042e+002, 1.033924e+003
6.232863e+002, 1.037820e+003
6.237684e+002, 1.040810e+003
6.242505e+002, 1.042033e+003
6.247327e+002, 1.043239e+003
6.252148e+002, 1.045068e+003
6.256969e+002, 1.047586e+003
6.261790e+002, 1.049833e+003
6.266611e+002, 1.051694e+003
6.271432e+002, 1.053486e+003
6.276254e+002, 1.055509e+003
6.281075e+002, 1.057726e+003
6.285896e+002, 1.059796e+003
6.290717e+002, 1.061710e+003
6.295538e+002, 1.063322e+003
6.300359e+002, 1.064368e+003
6.305181e+002, 1.065009e+003
6.310002e+002, 1.065619e+003
6.314823e+002, 1.066542e+003
6.319644e+002, 1.067119e+003
6.324465e+002, 1.066629e+003
6.329286e+002, 1.065493e+003
6.334108e+002, 1.064543e+003
6.338929e+002, 1.064450e+003
6.343750e+002, 1.064135e+003
6.348571e+002, 1.063242e+003
6.353392e+002, 1.061774e+003
6.358214e+002, 1.060036e+003
6.363035e+002, 1.058013e+003
6.367856e+002, 1.055615e+003
6.372677e+002, 1.052619e+003
6.377498e+002, 1.049012e+003
6.382319e+002, 1.045778e+003
6.387141e+002, 1.042836e+003
6.391962e+002, 1.040473e+003
6.396783e+002, 1.039717e+003
6.401604e+002, 1.039783e+003
6.406425e+002, 1.037822e+003
6.411246e+002, 1.033374e+003
6.416068e+002, 1.028133e+003
6.420889e+002, 1.022846e+003
6.425710e+002, 1.018038e+003
6.430531e+002, 1.014651e+003
6.435352e+002, 1.013952e+003
6.440173e+002, 1.013026e+003
6.444995e+002, 1.010183e+003
6.449816e+002, 1.006433e+003
6.454637e+002, 1.003471e+003
6.459458e+002, 1.002648e+003
6.464279e+002, 1.001287e+003
6.469100e+002, 9.984659e+002
6.473922e+002, 9.947592e+002
6.478743e+002, 9.928478e+002
6.483564e+002, 9.932278e+002
6.488385e+002, 9.934837e+002
6.493206e+002, 9.924603e+002
6.498027e+002, 9.904099e+002
6.502849e+002, 9.886491e+002
6.507670e+002, 9.871761e+002
6.512491e+002, 9.858688e+002
6.517312e+002, 9.848648e+002
6.522133e+002, 9.839268e+002
6.526954e+002, 9.827460e+002
6.531776e+002, 9.813130e+002
6.536597e+002, 9.795449e+002
6.541418e+002, 9.765568e+002
6.546239e+002, 9.736565e+002
6.551060e+002, 9.720801e+002
6.555881e+002, 9.728590e+002
6.560703e+002, 9.734978e+002
6.565524e+002, 9.733528e+002
6.570345e+002, 9.730429e+002
6.575166e+002, 9.734759e+002
6.579987e+002, 9.754034e+002
6.584808e+002, 9.757506e+002
6.589630e+002, 9.734033e+002
6.594451e+002, 9.698885e+002
6.599272e+002, 9.689780e+002
6.604093e+002, 9.705652e+002
6.608914e+002, 9.716232e+002
6.613735e+002, 9.705379e+002
6.618557e+002, 9.686054e+002
6.623378e+002, 9.681091e+002
6.628199e+002, 9.687355e+002
6.633020e+002, 9.690352e+002
6.637841e+002, 9.677678e+002
6.642662e+002, 9.662465e+002
6.647484e+002, 9.653192e+002
6.652305e+002, 9.650639e+002
6.657126e+002, 9.652008e+002
6.661947e+002, 9.658572e+002
6.666768e+002, 9.667328e+002
6.671589e+002, 9.677615e+002
6.676411e+002, 9.691423e+002
6.681232e+002, 9.696095e+002
6.686053e+002, 9.686854e+002
6.690874e+002, 9.675441e+002
6.695695e+002, 9.674049e+002
6.700516e+002, 9.681932e+002
6.705338e+002, 9.684557e+002
6.710159e+002, 9.678969e+002
6.714980e+002, 9.671790e+002
6.719801e+002, 9.673019e+002
6.724622e+002, 9.678998e+002
6.729443e+002, 9.681324e+002
6.734265e+002, 9.675792e+002
6.739086e+002, 9.669260e+002
6.743907e+002, 9.668031e+002
6.748728e+002, 9.669316e+002
6.753549e+002, 9.667624e+002
6.758370e+002, 9.661013e+002
6.763192e+002, 9.652706e+002
6.768013e+002, 9.642587e+002
6.772834e+002, 9.631920e+002
6.777655e+002, 9.624672e+002
6.782476e+002, 9.621125e+002
6.787297e+002, 9.621135e+002
6.792119e+002, 9.625875e+002
6.796940e+002, 9.634153e+002
6.801761e+002, 9.638817e+002
6.806582e+002, 9.639551e+002
6.811403e+002, 9.639155e+002
6.816224e+002, 9.637089e+002
6.821046e+002, 9.635521e+002
6.825867e+002, 9.638163e+002
6.830688e+002, 9.644991e+002
6.835509e+002, 9.655110e+002
6.840330e+002, 9.673843e+002
6.845151e+002, 9.691749e+002
6.849973e+002, 9.700118e+002
6.854794e+002, 9.693903e+002
6.859615e+002, 9.689728e+002
6.864436e+002, 9.689984e+002
6.869257e+002, 9.693821e+002
6.874078e+002, 9.702485e+002
6.878900e+002, 9.722432e+002
6.883721e+002, 9.727627e+002
6.888542e+002, 9.711940e+002
6.893363e+002, 9.689330e+002
6.898184e+002, 9.682062e+002
6.903005e+002, 9.688468e+002
6.907827e+002, 9.693446e+002
6.912648e+002, 9.692640e+002
6.917469e+002, 9.689379e+002
6.922290e+002, 9.686539e+002
6.927111e+002, 9.684465e+002
6.931932e+002, 9.684167e+002
6.936754e+002, 9.686979e+002
6.941575e+002, 9.690548e+002
6.946396e+002, 9.695411e+002
6.951217e+002, 9.700330e+002
6.956038e+002, 9.700909e+002
6.960859e+002, 9.687260e+002
6.965681e+002, 9.680310e+002
6.970502e+002, 9.688885e+002
6.975323e+002, 9.710641e+002
6.980144e+002, 9.722182e+002
6.984965e+002, 9.722650e+002
6.989786e+002, 9.717419e+002
6.994608e+002, 9.704933e+002
6.999429e+002, 9.689040e+002
7.004250e+002, 9.688761e+002
7.009071e+002, 9.703590e+002
7.013892e+002, 9.715852e+002
7.018713e+002, 9.704800e+002
7.023535e+002, 9.688176e+002
7.028356e+002, 9.686475e+002
7.033177e+002, 9.703955e+002
7.037998e+002, 9.722693e+002
7.042819e+002, 9.737320e+002
7.047640e+002, 9.749355e+002
7.052462e+002, 9.759808e+002
7.057283e+002, 9.768293e+002
7.062104e+002, 9.775289e+002
7.066925e+002, 9.779715e+002
7.071746e+002, 9.783401e+002
7.076567e+002, 9.788143e+002
7.081389e+002, 9.793768e+002
7.086210e+002, 9.800169e+002
7.091031e+002, 9.807019e+002
7.095852e+002, 9.815297e+002
7.100673e+002, 9.828393e+002
7.105494e+002, 9.843941e+002
7.110316e+002, 9.856774e+002
7.115137e+002, 9.866666e+002
7.119958e+002, 9.871014e+002
7.124779e+002, 9.866223e+002
7.129600e+002, 9.855268e+002
7.134421e+002, 9.843723e+002
7.139243e+002, 9.825940e+002
7.144064e+002, 9.816592e+002
7.148885e+002, 9.821906e+002
7.153706e+002, 9.837600e+002
7.158527e+002, 9.850408e+002
7.163348e+002, 9.859942e+002
7.168170e+002, 9.868176e+002
7.172991e+002, 9.876668e+002
7.177812e+002, 9.883715e+002
7.182633e+002, 9.880693e+002
7.187454e+002, 9.868660e+002
7.192275e+002, 9.860183e+002
7.197097e+002, 9.864749e+002
7.201918e+002, 9.874895e+002
7.206739e+002, 9.884351e+002
7.211560e+002, 9.892399e+002
7.216381e+002, 9.896613e+002
7.221202e+002, 9.892396e+002
7.226024e+002, 9.886901e+002
7.230845e+002, 9.882891e+002
7.235666e+002, 9.880204e+002
7.240487e+002, 9.884020e+002
7.245308e+002, 9.896316e+002
7.250129e+002, 9.912530e+002
7.254951e+002, 9.932578e+002
7.259772e+002, 9.957199e+002
7.264593e+002, 9.969297e+002
7.269414e+002, 9.967393e+002
7.274235e+002, 9.963998e+002
7.279056e+002, 9.971125e+002
7.283878e+002, 9.984915e+002
7.288699e+002, 9.999229e+002
7.293520e+002, 1.001393e+003
7.298341e+002, 1.002464e+003
7.303162e+002, 1.002577e+003
7.307983e+002, 1.002296e+003
7.312805e+002, 1.002135e+003
7.317626e+002, 1.001977e+003
7.322447e+002, 1.002322e+003
7.327268e+002, 1.003315e+003
7.332089e+002, 1.004694e+003
7.336910e+002, 1.006273e+003
7.341732e+002, 1.008155e+003
7.346553e+002, 1.009665e+003
7.351374e+002, 1.010698e+003
7.356195e+002, 1.011318e+003
7.361016e+002, 1.011444e+003
7.365837e+002, 1.011191e+003
7.370659e+002, 1.010971e+003
7.375480e+002, 1.010851e+003
7.380301e+002, 1.010876e+003
7.385122e+002, 1.011171e+003
7.389943e+002, 1.011620e+003
7.394764e+002, 1.012033e+003
7.399586e+002, 1.012900e+003
7.404407e+002, 1.013110e+003
7.409228e+002, 1.012008e+003
7.414049e+002, 1.010153e+003
7.418870e+002, 1.008581e+003
7.423691e+002, 1.007088e+003
7.428513e+002, 1.006773e+003
7.433334e+002, 1.008405e+003
7.438155e+002, 1.011033e+003
7.442976e+002, 1.011979e+003
7.447797e+002, 1.011415e+003
7.452618e+002, 1.010745e+003
7.457440e+002, 1.010388e+003
7.462261e+002, 1.010482e+003
7.467082e+002, 1.011558e+003
7.471903e+002, 1.013286e+003
7.476724e+002, 1.014494e+003
7.481545e+002, 1.013699e+003
7.486367e+002, 1.013216e+003
7.491188e+002, 1.014566e+003
7.496009e+002, 1.017528e+003
7.500830e+002, 1.018823e+003
7.505651e+002, 1.017831e+003
7.510472e+002, 1.016437e+003
7.515294e+002, 1.014998e+003
7.520115e+002, 1.013765e+003
7.524936e+002, 1.015140e+003
7.529757e+002, 1.019109e+003
7.534578e+002, 1.022876e+003
7.539399e+002, 1.024245e+003
7.544221e+002, 1.024322e+003
7.549042e+002, 1.024415e+003
7.553863e+002, 1.024594e+003
7.558684e+002, 1.024729e+003
7.563505e+002, 1.024610e+003
7.568326e+002, 1.024533e+003
7.573148e+002, 1.024639e+003
7.577969e+002, 1.024923e+003
7.582790e+002, 1.025462e+003
7.587611e+002, 1.026269e+003
7.592432e+002, 1.027287e+003
7.597253e+002, 1.028549e+003
7.602075e+002, 1.030060e+003
7.606896e+002, 1.031490e+003
7.611717e+002, 1.032884e+003
7.616538e+002, 1.033863e+003
7.621359e+002, 1.034132e+003
7.626180e+002, 1.033794e+003
7.631002e+002, 1.032824e+003
7.635823e+002, 1.031163e+003
7.640644e+002, 1.029707e+003
7.645465e+002, 1.028683e+003
7.650286e+002, 1.028231e+003
7.655107e+002, 1.028573e+003
7.659929e+002, 1.030274e+003
7.664750e+002, 1.031420e+003
7.669571e+002, 1.031800e+003
7.674392e+002, 1.031924e+003
7.679213e+002, 1.032311e+003
7.684034e+002, 1.032966e+003
7.688856e+002, 1.033152e+003
7.693677e+002, 1.032728e+003
7.698498e+002, 1.032249e+003
7.703319e+002, 1.032291e+003
7.708140e+002, 1.032681e+003
7.712961e+002, 1.033140e+003
7.717783e+002, 1.033636e+003
7.722604e+002, 1.034081e+003
7.727425e+002, 1.034474e+003
7.732246e+002, 1.034767e+003
7.737067e+002, 1.034903e+003
7.741888e+002, 1.034607e+003
7.746710e+002, 1.034613e+003
7.751531e+002, 1.034997e+003
7.756352e+002, 1.035619e+003
7.761173e+002, 1.036309e+003
7.765994e+002, 1.037074e+003
7.770815e+002, 1.038227e+003
7.775637e+002, 1.040033e+003
7.780458e+002, 1.041461e+003
7.785279e+002, 1.040773e+003
7.790100e+002, 1.038927e+003
7.794921e+002, 1.037598e+003
7.799742e+002, 1.037181e+003
7.804564e+002, 1.037539e+003
7.809385e+002, 1.039163e+003
7.814206e+002, 1.041297e+003
7.819027e+002, 1.042887e+003
7.823848e+002, 1.043312e+003
7.828669e+002, 1.044204e+003
7.833491e+002, 1.045900e+003
7.838312e+002, 1.047826e+003
7.843133e+002, 1.049148e+003
7.847954e+002, 1.049857e+003
7.852775e+002, 1.049866e+003
7.857596e+002, 1.048906e+003
7.862418e+002, 1.047892e+003
7.867239e+002, 1.048329e+003
7.872060e+002, 1.049458e+003
7.876881e+002, 1.049870e+003
7.881702e+002, 1.048181e+003
7.886523e+002, 1.046949e+003
7.891345e+002, 1.047430e+003
7.896166e+002, 1.048861e+003
7.900987e+002, 1.049824e+003
7.905808e+002, 1.049572e+003
7.910629e+002, 1.050672e+003
7.915450e+002, 1.054154e+003
7.920272e+002, 1.058288e+003
7.925093e+002, 1.059282e+003
7.929914e+002, 1.057576e+003
7.934735e+002, 1.056485e+003
7.939556e+002, 1.057176e+003
7.944377e+002, 1.058383e+003
7.949199e+002, 1.058339e+003
7.954020e+002, 1.057852e+003
7.958841e+002, 1.058392e+003
7.963662e+002, 1.061807e+003
7.968483e+002, 1.064662e+003
7.973304e+002, 1.065766e+003
7.978126e+002, 1.065785e+003
7.982947e+002, 1.065682e+003
7.987768e+002, 1.065160e+003
7.992589e+002, 1.065492e+003
7.997410e+002, 1.067202e+003
8.002231e+002, 1.069404e+003
8.007053e+002, 1.070547e+003
8.011874e+002, 1.070775e+003
8.016695e+002, 1.070602e+003
8.021516e+002, 1.070056e+003
8.026337e+002, 1.069507e+003
8.031158e+002, 1.069412e+003
8.035980e+002, 1.069555e+003
8.040801e+002, 1.069537e+003
8.045622e+002, 1.068741e+003
8.050443e+002, 1.068496e+003
8.055264e+002, 1.069426e+003
8.060085e+002, 1.070801e+003
8.064907e+002, 1.070997e+003
8.069728e+002, 1.069635e+003
8.074549e+002, 1.069414e+003
8.079370e+002, 1.071038e+003
8.084191e+002, 1.073745e+003
8.089012e+002, 1.077126e+003
8.093834e+002, 1.080573e+003
8.098655e+002, 1.082398e+003
8.103476e+002, 1.080935e+003
8.108297e+002, 1.079167e+003
8.113118e+002, 1.078781e+003
8.117939e+002, 1.079268e+003
8.122761e+002, 1.079805e+003
8.127582e+002, 1.080584e+003
8.132403e+002, 1.080921e+003
8.137224e+002, 1.080530e+003
8.142045e+002, 1.079889e+003
8.146866e+002, 1.079998e+003
8.151688e+002, 1.080845e+003
8.156509e+002, 1.081343e+003
8.161330e+002, 1.081076e+003
8.166151e+002, 1.080752e+003
8.170972e+002, 1.081130e+003
8.175793e+002, 1.082130e+003
8.180615e+002, 1.083656e+003
8.185436e+002, 1.086663e+003
8.190257e+002, 1.088813e+003
8.195078e+002, 1.088695e+003
8.199899e+002, 1.087425e+003
8.204720e+002, 1.086732e+003
8.209542e+002, 1.086794e+003
8.214363e+002, 1.086953e+003
8.219184e+002, 1.087155e+003
8.224005e+002, 1.087358e+003
8.228826e+002, 1.087585e+003
8.233647e+002, 1.087786e+003
8.238469e+002, 1.087639e+003
8.243290e+002, 1.086873e+003
8.248111e+002, 1.086328e+003
8.252932e+002, 1.087077e+003
8.257753e+002, 1.088399e+003
8.262574e+002, 1.089285e+003
8.267396e+002, 1.089349e+003
8.272217e+002, 1.089208e+003
8.277038e+002, 1.088549e+003
8.281859e+002, 1.088055e+003
8.286681e+002, 1.088353e+003
8.291502e+002, 1.089358e+003
8.296323e+002, 1.092465e+003
8.301144e+002, 1.098575e+003
8.305966e+002, 1.104132e+003
8.310787e+002, 1.103733e+003
8.315608e+002, 1.099881e+003
8.320429e+002, 1.097535e+003
8.325250e+002, 1.098207e+003
8.330071e+002, 1.099298e+003
8.334893e+002, 1.099318e+003
8.339714e+002, 1.099161e+003
8.344535e+002, 1.099873e+003
8.349356e+002, 1.102393e+003
8.354177e+002, 1.103799e+003
8.358998e+002, 1.103800e+003
8.363820e+002, 1.103266e+003
8.368641e+002, 1.102973e+003
8.373462e+002, 1.102958e+003
8.378283e+002, 1.103336e+003
8.383104e+002, 1.104166e+003
8.387925e+002, 1.105164e+003
8.392747e+002, 1.106222e+003
8.397568e+002, 1.107254e+003
8.402389e+002, 1.108105e+003
8.407210e+002, 1.108621e+003
8.412031e+002, 1.109373e+003
8.416852e+002, 1.110685e+003
8.421674e+002, 1.111994e+003
8.426495e+002, 1.112909e+003
8.431316e+002, 1.113337e+003
8.436137e+002, 1.113781e+003
8.440958e+002, 1.114256e+003
8.445779e+002, 1.114539e+003
8.450601e+002, 1.114186e+003
8.455422e+002, 1.113599e+003
8.460243e+002, 1.113632e+003
8.465064e+002, 1.114381e+003
8.469885e+002, 1.115027e+003
8.474706e+002, 1.115221e+003
8.479528e+002, 1.115168e+003
8.484349e+002, 1.114888e+003
8.489170e+002, 1.114340e+003
8.493991e+002, 1.114249e+003
8.498812e+002, 1.114432e+003
8.503633e+002, 1.115555e+003
8.508455e+002, 1.118655e+003
8.513276e+002, 1.123164e+003
8.518097e+002, 1.125992e+003
8.522918e+002, 1.127186e+003
8.527739e+002, 1.127325e+003
8.532560e+002, 1.125834e+003
8.537382e+002, 1.124156e+003
8.542203e+002, 1.123419e+003
8.547024e+002, 1.123621e+003
8.551845e+002, 1.124166e+003
8.556666e+002, 1.125317e+003
8.561487e+002, 1.126294e+003
8.566309e+002, 1.126817e+003
8.571130e+002, 1.126959e+003
8.575951e+002, 1.127216e+003
8.580772e+002, 1.127614e+003
8.585593e+002, 1.127758e+003
8.590414e+002, 1.127038e+003
8.595236e+002, 1.126311e+003
8.600057e+002, 1.127234e+003
8.604878e+002, 1.129272e+003
8.609699e+002, 1.130690e+003
8.614520e+002, 1.130387e+003
8.619341e+002, 1.129801e+003
8.624163e+002, 1.128984e+003
8.628984e+002, 1.128293e+003
8.633805e+002, 1.128835e+003
8.638626e+002, 1.130975e+003
8.643447e+002, 1.132875e+003
8.648268e+002, 1.133975e+003
8.653090e+002, 1.134698e+003
8.657911e+002, 1.135750e+003
8.662732e+002, 1.137055e+003
8.667553e+002, 1.138398e+003
8.672374e+002, 1.139859e+003
8.677195e+002, 1.141105e+003
8.682017e+002, 1.141801e+003
8.686838e+002, 1.142203e+003
8.691659e+002, 1.142656e+003
8.696480e+002, 1.142749e+003
8.701301e+002, 1.143963e+003
8.706122e+002, 1.147100e+003
8.710944e+002, 1.150348e+003
8.715765e+002, 1.150589e+003
8.720586e+002, 1.148441e+003
8.725407e+002, 1.147415e+003
8.730228e+002, 1.148246e+003
8.735049e+002, 1.149896e+003
8.739871e+002, 1.152047e+003
8.744692e+002, 1.154251e+003
8.749513e+002, 1.155943e+003
8.754334e+002, 1.156641e+003
8.759155e+002, 1.157791e+003
8.763976e+002, 1.159707e+003
8.768798e+002, 1.161847e+003
8.773619e+002, 1.163755e+003
8.778440e+002, 1.165401e+003
8.783261e+002, 1.167688e+003
8.788082e+002, 1.170736e+003
8.792903e+002, 1.173381e+003
8.797725e+002, 1.174030e+003
8.802546e+002, 1.174054e+003
8.807367e+002, 1.175333e+003
8.812188e+002, 1.178063e+003
8.817009e+002, 1.180517e+003
8.821830e+002, 1.181731e+003
8.826652e+002, 1.182895e+003
8.831473e+002, 1.184597e+003
8.836294e+002, 1.186821e+003
8.841115e+002, 1.188731e+003
8.845936e+002, 1.190250e+003
8.850757e+002, 1.192014e+003
8.855579e+002, 1.194213e+003
8.860400e+002, 1.196986e+003
8.865221e+002, 1.201536e+003
8.870042e+002, 1.207130e+003
8.874863e+002, 1.210902e+003
8.879684e+002, 1.210117e+003
8.884506e+002, 1.208593e+003
8.889327e+002, 1.207421e+003
8.894148e+002, 1.206813e+003
8.898969e+002, 1.207519e+003
8.903790e+002, 1.209952e+003
8.908611e+002, 1.212268e+003
8.913433e+002, 1.214078e+003
8.918254e+002, 1.215405e+003
8.923075e+002, 1.216111e+003
8.927896e+002, 1.216399e+003
8.932717e+002, 1.216843e+003
8.937538e+002, 1.217799e+003
8.942360e+002, 1.218784e+003
8.947181e+002, 1.219394e+003
8.952002e+002, 1.219926e+003
8.956823e+002, 1.220744e+003
8.961644e+002, 1.221391e+003
8.966465e+002, 1.223654e+003
8.971287e+002, 1.228407e+003
8.976108e+002, 1.233233e+003
8.980929e+002, 1.234588e+003
8.985750e+002, 1.233329e+003
8.990571e+002, 1.232400e+003
8.995392e+002, 1.232109e+003
9.000214e+002, 1.233115e+003
9.005035e+002, 1.236953e+003
9.009856e+002, 1.241605e+003
9.014677e+002, 1.245291e+003
9.019498e+002, 1.247275e+003
9.024319e+002, 1.249827e+003
9.029141e+002, 1.253232e+003
9.033962e+002, 1.256714e+003
9.038783e+002, 1.259850e+003
9.043604e+002, 1.262646e+003
9.048425e+002, 1.265073e+003
9.053246e+002, 1.267203e+003
9.058068e+002, 1.269786e+003
9.062889e+002, 1.274060e+003
9.067710e+002, 1.278430e+003
9.072531e+002, 1.281453e+003
9.077352e+002, 1.283281e+003
9.082173e+002, 1.285635e+003
9.086995e+002, 1.288935e+003
9.091816e+002, 1.292569e+003
9.096637e+002, 1.296516e+003
9.101458e+002, 1.300563e+003
9.106279e+002, 1.303795e+003
9.111100e+002, 1.306326e+003
9.115922e+002, 1.309246e+003
9.120743e+002, 1.313524e+003
9.125564e+002, 1.317586e+003
9.130385e+002, 1.319974e+003
9.135206e+002, 1.321091e+003
9.140027e+002, 1.321677e+003
9.144849e+002, 1.320625e+003
9.149670e+002, 1.320910e+003
9.154491e+002, 1.323261e+003
9.159312e+002, 1.326403e+003
9.164133e+002, 1.328573e+003
9.168954e+002, 1.329855e+003
9.173776e+002, 1.332012e+003
9.178597e+002, 1.335407e+003
9.183418e+002, 1.338610e+003
9.188239e+002, 1.339727e+003
9.193060e+002, 1.340219e+003
9.197881e+002, 1.341678e+003
9.202703e+002, 1.344472e+003
9.207524e+002, 1.347650e+003
9.212345e+002, 1.350926e+003
9.217166e+002, 1.354673e+003
9.221987e+002, 1.359146e+003
9.226808e+002, 1.364328e+003
9.231630e+002, 1.370022e+003
9.236451e+002, 1.376260e+003
9.241272e+002, 1.382017e+003
9.246093e+002, 1.385813e+003
9.250914e+002, 1.389437e+003
9.255735e+002, 1.394937e+003
9.260557e+002, 1.401944e+003
9.265378e+002, 1.408703e+003
9.270199e+002, 1.415400e+003
9.275020e+002, 1.420917e+003
9.279841e+002, 1.424745e+003
9.284662e+002, 1.427440e+003
9.289484e+002, 1.430672e+003
9.294305e+002, 1.434353e+003
9.299126e+002, 1.437138e+003
9.303947e+002, 1.438770e+003
9.308768e+002, 1.438864e+003
9.313589e+002, 1.436349e+003
9.318411e+002, 1.432216e+003
9.323232e+002, 1.427980e+003
9.328053e+002, 1.424964e+003
9.332874e+002, 1.420163e+003
9.337695e+002, 1.412665e+003
9.342516e+002, 1.404352e+003
9.347338e+002, 1.397333e+003
9.352159e+002, 1.391493e+003
9.356980e+002, 1.384291e+003
9.361801e+002, 1.375503e+003
9.366622e+002, 1.367068e+003
9.371443e+002, 1.361357e+003
9.376265e+002, 1.356299e+003
9.381086e+002, 1.349354e+003
9.385907e+002, 1.340195e+003
9.390728e+002, 1.333280e+003
9.395549e+002, 1.330686e+003
9.400370e+002, 1.328423e+003
9.405192e+002, 1.325202e+003
9.410013e+002, 1.321111e+003
9.414834e+002, 1.316205e+003
9.419655e+002, 1.310581e+003
9.424476e+002, 1.305719e+003
9.429297e+002, 1.302306e+003
9.434119e+002, 1.300005e+003
9.438940e+002, 1.299380e+003
9.443761e+002, 1.299551e+003
9.448582e+002, 1.298672e+003
9.453403e+002, 1.294871e+003
9.458224e+002, 1.292409e+003
9.463046e+002, 1.292225e+003
9.467867e+002, 1.292802e+003
9.472688e+002, 1.291689e+003
9.477509e+002, 1.289265e+003
9.482330e+002, 1.287938e+003
9.487151e+002, 1.288177e+003
9.491973e+002, 1.288686e+003
9.496794e+002, 1.288248e+003
9.501615e+002, 1.287668e+003
9.506436e+002, 1.287798e+003
9.511257e+002, 1.289000e+003
9.516078e+002, 1.289430e+003
9.520900e+002, 1.288572e+003
9.525721e+002, 1.287942e+003
9.530542e+002, 1.288614e+003
9.535363e+002, 1.290208e+003
9.540184e+002, 1.291347e+003
9.545005e+002, 1.291988e+003
9.549827e+002, 1.291843e+003
9.554648e+002, 1.289710e+003
9.559469e+002, 1.287789e+003
9.564290e+002, 1.287719e+003
9.569111e+002, 1.288942e+003
9.573932e+002, 1.289602e+003
9.578754e+002, 1.289362e+003
9.583575e+002, 1.289274e+003
9.588396e+002, 1.289548e+003
9.593217e+002, 1.289949e+003
9.598038e+002, 1.289888e+003
9.602859e+002, 1.289653e+003
9.607681e+002, 1.290222e+003
9.612502e+002, 1.292120e+003
9.617323e+002, 1.293538e+003
9.622144e+002, 1.293094e+003
9.626965e+002, 1.292008e+003
9.631786e+002, 1.291444e+003
9.636608e+002, 1.291730e+003
9.641429e+002, 1.290494e+003
9.646250e+002, 1.287290e+003
9.651071e+002, 1.284731e+003
9.655892e+002, 1.285621e+003
9.660714e+002, 1.288042e+003
9.665535e+002, 1.288086e+003
9.670356e+002, 1.286118e+003
9.675177e+002, 1.284309e+003
9.679998e+002, 1.283767e+003
9.684819e+002, 1.283422e+003
9.689641e+002, 1.282722e+003
9.694462e+002, 1.281958e+003
9.699283e+002, 1.282001e+003
9.704104e+002, 1.282955e+003
9.708925e+002, 1.283572e+003
9.713746e+002, 1.283594e+003
9.718568e+002, 1.283111e+003
9.723389e+002, 1.281823e+003
9.728210e+002, 1.280255e+003
9.733031e+002, 1.279205e+003
9.737852e+002, 1.278978e+003
9.742673e+002, 1.278951e+003
9.747495e+002, 1.279235e+003
9.752316e+002, 1.279417e+003
9.757137e+002, 1.279013e+003
9.761958e+002, 1.278014e+003
9.766779e+002, 1.278234e+003
9.771600e+002, 1.279656e+003
9.776422e+002, 1.280915e+003
9.781243e+002, 1.280704e+003
9.786064e+002, 1.280215e+003
9.790885e+002, 1.280935e+003
9.795706e+002, 1.282454e+003
9.800527e+002, 1.282700e+003
9.805349e+002, 1.280773e+003
9.810170e+002, 1.278492e+003
9.814991e+002, 1.275800e+003
9.819812e+002, 1.273459e+003
9.824633e+002, 1.273250e+003
9.829454e+002, 1.274782e+003
9.834276e+002, 1.276470e+003
9.839097e+002, 1.278039e+003
9.843918e+002, 1.279380e+003
9.848739e+002, 1.281048e+003
9.853560e+002, 1.282099e+003
9.858381e+002, 1.281132e+003
9.863203e+002, 1.277123e+003
9.868024e+002, 1.275785e+003
9.872845e+002, 1.277811e+003
9.877666e+002, 1.280145e+003
9.882487e+002, 1.280512e+003
9.887308e+002, 1.279672e+003
9.892130e+002, 1.279190e+003
9.896951e+002, 1.279073e+003
9.901772e+002, 1.279186e+003
9.906593e+002, 1.279258e+003
9.911414e+002, 1.279792e+003
9.916235e+002, 1.281386e+003
9.921057e+002, 1.283415e+003
9.925878e+002, 1.284431e+003
9.930699e+002, 1.284278e+003
9.935520e+002, 1.284864e+003
9.940341e+002, 1.286714e+003
9.945162e+002, 1.288831e+003
9.949984e+002, 1.290118e+003
9.954805e+002, 1.290902e+003
9.959626e+002, 1.291564e+003
9.964447e+002, 1.292066e+003
9.969268e+002, 1.292933e+003
9.974089e+002, 1.294807e+003
9.978911e+002, 1.296254e+003
9.983732e+002, 1.296086e+003
9.988553e+002, 1.294681e+003
9.993374e+002, 1.295157e+003
9.998195e+002, 1.297333e+003
1.000302e+003, 1.299303e+003
1.000784e+003, 1.299842e+003
1.001266e+003, 1.299941e+003
1.001748e+003, 1.300503e+003
1.002230e+003, 1.301153e+003
1.002712e+003, 1.300740e+003
1.003194e+003, 1.298384e+003
1.003676e+003, 1.297240e+003
1.004159e+003, 1.298013e+003
1.004641e+003, 1.299307e+003
1.005123e+003, 1.298849e+003
1.005605e+003, 1.297531e+003
1.006087e+003, 1.297764e+003
1.006569e+003, 1.300113e+003
1.007051e+003, 1.301931e+003
1.007533e+003, 1.301591e+003
1.008016e+003, 1.300650e+003
1.008498e+003, 1.299594e+003
1.008980e+003, 1.298545e+003
1.009462e+003, 1.300112e+003
1.009944e+003, 1.304522e+003
1.010426e+003, 1.307965e+003
1.010908e+003, 1.308077e+003
1.011390e+003, 1.306863e+003
1.011872e+003, 1.306522e+003
1.012355e+003, 1.306688e+003
1.012837e+003, 1.306604e+003
1.013319e+003, 1.305712e+003
1.013801e+003, 1.305053e+003
1.014283e+003, 1.304545e+003
1.014765e+003, 1.304540e+003
1.015247e+003, 1.305710e+003
1.015729e+003, 1.307812e+003
1.016211e+003, 1.309587e+003
1.016694e+003, 1.310933e+003
1.017176e+003, 1.311489e+003
1.017658e+003, 1.309684e+003
1.018140e+003, 1.308152e+003
1.018622e+003, 1.309162e+003
1.019104e+003, 1.312397e+003
1.019586e+003, 1.314505e+003
1.020068e+003, 1.315357e+003
1.020551e+003, 1.315508e+003
1.021033e+003, 1.314914e+003
1.021515e+003, 1.314093e+003
1.021997e+003, 1.313717e+003
1.022479e+003, 1.313785e+003
1.022961e+003, 1.314356e+003
1.023443e+003, 1.315704e+003
1.023925e+003, 1.316970e+003
1.024407e+003, 1.317883e+003
1.024890e+003, 1.318697e+003
1.025372e+003, 1.319485e+003
1.025854e+003, 1.320237e+003
1.026336e+003, 1.321723e+003
1.026818e+003, 1.323924e+003
1.027300e+003, 1.325893e+003
1.027782e+003, 1.326931e+003
1.028264e+003, 1.327559e+003
1.028746e+003, 1.328313e+003
1.029229e+003, 1.329024e+003
1.029711e+003, 1.328987e+003
1.030193e+003, 1.327921e+003
1.030675e+003, 1.326646e+003
1.031157e+003, 1.324935e+003
1.031639e+003, 1.323897e+003
1.032121e+003, 1.325920e+003
1.032603e+003, 1.329690e+003
1.033086e+003, 1.332005e+003
1.033568e+003, 1.332157e+003
1.034050e+003, 1.332318e+003
1.034532e+003, 1.334061e+003
1.035014e+003, 1.335408e+003
1.035496e+003, 1.335005e+003
1.035978e+003, 1.333092e+003
1.036460e+003, 1.332499e+003
1.036943e+003, 1.333212e+003
1.037425e+003, 1.333788e+003
1.037907e+003, 1.333326e+003
1.038389e+003, 1.332705e+003
1.038871e+003, 1.332868e+003
1.039353e+003, 1.333449e+003
1.039835e+003, 1.333786e+003
1.040317e+003, 1.333283e+003
1.040799e+003, 1.333570e+003
1.041281e+003, 1.335010e+003
1.041764e+003, 1.336505e+003
1.042246e+003, 1.336604e+003
1.042728e+003, 1.335974e+003
1.043210e+003, 1.336825e+003
1.043692e+003, 1.339090e+003
1.044174e+003, 1.340274e+003
1.044656e+003, 1.337384e+003
1.045138e+003, 1.335098e+003
1.045621e+003, 1.336081e+003
1.046103e+003, 1.338885e+003
1.046585e+003, 1.339154e+003
1.047067e+003, 1.336832e+003
1.047549e+003, 1.335806e+003
1.048031e+003, 1.337312e+003
1.048513e+003, 1.339523e+003
1.048995e+003, 1.341108e+003
1.049478e+003, 1.342082e+003
1.049960e+003, 1.342338e+003
1.050442e+003, 1.341586e+003
1.050924e+003, 1.341120e+003
1.051406e+003, 1.340687e+003
1.051888e+003, 1.341220e+003
1.052370e+003, 1.343779e+003
1.052852e+003, 1.347375e+003
1.053334e+003, 1.349679e+003
1.053817e+003, 1.350779e+003
1.054299e+003, 1.351005e+003
1.054781e+003, 1.349247e+003
1.055263e+003, 1.348124e+003
1.055745e+003, 1.348218e+003
1.056227e+003, 1.349419e+003
1.056709e+003, 1.352273e+003
1.057191e+003, 1.356825e+003
1.057673e+003, 1.359016e+003
1.058156e+003, 1.358461e+003
1.058638e+003, 1.357568e+003
1.059120e+003, 1.358462e+003
1.059602e+003, 1.359757e+003
1.060084e+003, 1.360115e+003
1.060566e+003, 1.359654e+003
1.061048e+003, 1.360131e+003
1.061530e+003, 1.362170e+003
1.062013e+003, 1.363498e+003
1.062495e+003, 1.363320e+003
1.062977e+003, 1.362643e+003
1.063459e+003, 1.363220e+003
1.063941e+003, 1.364489e+003
1.064423e+003, 1.365250e+003
1.064905e+003, 1.364966e+003
1.065387e+003, 1.365190e+003
1.065870e+003, 1.366425e+003
1.066352e+003, 1.368309e+003
1.066834e+003, 1.371232e+003
1.067316e+003, 1.374768e+003
1.067798e+003, 1.375293e+003
1.068280e+003, 1.373145e+003
1.068762e+003, 1.371436e+003
1.069244e+003, 1.372137e+003
1.069726e+003, 1.373390e+003
1.070208e+003, 1.373754e+003
1.070691e+003, 1.373999e+003
1.071173e+003, 1.375416e+003
1.071655e+003, 1.378479e+003
1.072137e+003, 1.381092e+003
1.072619e+003, 1.383170e+003
1.073101e+003, 1.384875e+003
1.073583e+003, 1.386808e+003
1.074065e+003, 1.388206e+003
1.074548e+003, 1.387363e+003
1.075030e+003, 1.384652e+003
1.075512e+003, 1.383351e+003
1.075994e+003, 1.385265e+003
1.076476e+003, 1.387240e+003
1.076958e+003, 1.388863e+003
1.077440e+003, 1.389905e+003
1.077922e+003, 1.389497e+003
1.078405e+003, 1.388147e+003
1.078887e+003, 1.387531e+003
1.079369e+003, 1.388052e+003
1.079851e+003, 1.388861e+003
1.080333e+003, 1.389398e+003
1.080815e+003, 1.390226e+003
1.081297e+003, 1.391895e+003
1.081779e+003, 1.394247e+003
1.082261e+003, 1.395296e+003
1.082744e+003, 1.395058e+003
1.083226e+003, 1.395101e+003
1.083708e+003, 1.396277e+003
1.084190e+003, 1.397738e+003
1.084672e+003, 1.399204e+003
1.085154e+003, 1.400235e+003
1.085636e+003, 1.400043e+003
1.086118e+003, 1.397659e+003
1.086601e+003, 1.396311e+003
1.087083e+003, 1.396124e+003
1.087565e+003, 1.396546e+003
1.088047e+003, 1.397508e+003
1.088529e+003, 1.398619e+003
1.089011e+003, 1.399170e+003
1.089493e+003, 1.399255e+003
1.089975e+003, 1.399281e+003
1.090458e+003, 1.398571e+003
1.090940e+003, 1.399161e+003
1.091422e+003, 1.402151e+003
1.091904e+003, 1.405624e+003
1.092386e+003, 1.406264e+003
1.092868e+003, 1.404800e+003
1.093350e+003, 1.404423e+003
1.093832e+003, 1.405547e+003
1.094314e+003, 1.406994e+003
1.094797e+003, 1.408467e+003
1.095279e+003, 1.409593e+003
1.095761e+003, 1.409696e+003
1.096243e+003, 1.409249e+003
1.096725e+003, 1.410564e+003
1.097207e+003, 1.413680e+003
1.097689e+003, 1.416335e+003
1.098171e+003, 1.417784e+003
1.098653e+003, 1.418735e+003
1.099136e+003, 1.419830e+003
1.099618e+003, 1.420871e+003
1.100100e+003, 1.421664e+003
1.100582e+003, 1.422185e+003
1.101064e+003, 1.422157e+003
1.101546e+003, 1.421245e+003
1.102028e+003, 1.420950e+003
1.102510e+003, 1.422372e+003
1.102993e+003, 1.424653e+003
1.103475e+003, 1.426719e+003
1.103957e+003, 1.428393e+003
1.104439e+003, 1.429258e+003
1.104921e+003, 1.428847e+003
1.105403e+003, 1.427969e+003
1.105885e+003, 1.426315e+003
1.106367e+003, 1.424923e+003
1.106849e+003, 1.425070e+003
1.107332e+003, 1.426340e+003
1.107814e+003, 1.427001e+003
1.108296e+003, 1.427081e+003
1.108778e+003, 1.427193e+003
1.109260e+003, 1.428022e+003
1.109742e+003, 1.428578e+003
1.110224e+003, 1.428254e+003
1.110706e+003, 1.427580e+003
1.111188e+003, 1.427355e+003
1.111671e+003, 1.427590e+003
1.112153e+003, 1.428264e+003
1.112635e+003, 1.429420e+003
1.113117e+003, 1.430721e+003
1.113599e+003, 1.431987e+003
1.114081e+003, 1.433236e+003
1.114563e+003, 1.434295e+003
1.115045e+003, 1.435261e+003
1.115528e+003, 1.436889e+003
1.116010e+003, 1.439269e+003
1.116492e+003, 1.441708e+003
1.116974e+003, 1.443982e+003
1.117456e+003, 1.446167e+003
1.117938e+003, 1.448130e+003
1.118420e+003, 1.450122e+003
1.118902e+003, 1.452686e+003
1.119385e+003, 1.456301e+003
1.119867e+003, 1.458239e+003
1.120349e+003, 1.457671e+003
1.120831e+003, 1.457262e+003
1.121313e+003, 1.458406e+003
1.121795e+003, 1.460549e+003
1.122277e+003, 1.463557e+003
1.122759e+003, 1.466557e+003
1.123241e+003, 1.467383e+003
1.123724e+003, 1.463274e+003
1.124206e+003, 1.460442e+003
1.124688e+003, 1.460250e+003
1.125170e+003, 1.460983e+003
1.125652e+003, 1.461565e+003
1.126134e+003, 1.461966e+003
1.126616e+003, 1.461582e+003
1.127098e+003, 1.460601e+003
1.127580e+003, 1.460031e+003
1.128063e+003, 1.460314e+003
1.128545e+003, 1.461282e+003
1.129027e+003, 1.463543e+003
1.129509e+003, 1.465967e+003
1.129991e+003, 1.466726e+003
1.130473e+003, 1.465865e+003
1.130955e+003, 1.466086e+003
1.131437e+003, 1.467609e+003
1.131920e+003, 1.469715e+003
1.132402e+003, 1.472344e+003
1.132884e+003, 1.474891e+003
1.133366e+003, 1.476801e+003
1.133848e+003, 1.478258e+003
1.134330e+003, 1.480288e+003
1.134812e+003, 1.483109e+003
1.135294e+003, 1.484329e+003
1.135776e+003, 1.483093e+003
1.136259e+003, 1.481887e+003
1.136741e+003, 1.483502e+003
1.137223e+003, 1.486328e+003
1.137705e+003, 1.489076e+003
1.138187e+003, 1.491561e+003
1.138669e+003, 1.492423e+003
1.139151e+003, 1.490767e+003
1.139633e+003, 1.490894e+003
1.140115e+003, 1.495045e+003
1.140598e+003, 1.500157e+003
1.141080e+003, 1.501606e+003
1.141562e+003, 1.500975e+003
1.142044e+003, 1.500661e+003
1.142526e+003, 1.501081e+003
1.143008e+003, 1.502492e+003
1.143490e+003, 1.506027e+003
1.143972e+003, 1.507944e+003
1.144455e+003, 1.505124e+003
1.144937e+003, 1.500141e+003
1.145419e+003, 1.499052e+003
1.145901e+003, 1.500848e+003
1.146383e+003, 1.502937e+003
1.146865e+003, 1.504909e+003
1.147347e+003, 1.506118e+003
1.147829e+003, 1.505756e+003
1.148312e+003, 1.505751e+003
1.148794e+003, 1.508106e+003
1.149276e+003, 1.512197e+003
1.149758e+003, 1.514984e+003
1.150240e+003, 1.516557e+003
1.150722e+003, 1.517505e+003
1.151204e+003, 1.517236e+003
1.151686e+003, 1.517506e+003
1.152168e+003, 1.518892e+003
1.152651e+003, 1.521081e+003
1.153133e+003, 1.524101e+003
1.153615e+003, 1.527789e+003
1.154097e+003, 1.530457e+003
1.154579e+003, 1.531994e+003
1.155061e+003, 1.533347e+003
1.155543e+003, 1.535317e+003
1.156025e+003, 1.537050e+003
1.156507e+003, 1.537817e+003
1.156990e+003, 1.538094e+003
1.157472e+003, 1.538542e+003
1.157954e+003, 1.539156e+003
1.158436e+003, 1.541061e+003
1.158918e+003, 1.544522e+003
1.159400e+003, 1.547926e+003
1.159882e+003, 1.550689e+003
1.160364e+003, 1.552268e+003
1.160847e+003, 1.551448e+003
1.161329e+003, 1.548909e+003
1.161811e+003, 1.548081e+003
1.162293e+003, 1.549146e+003
1.162775e+003, 1.549961e+003
1.163257e+003, 1.549950e+003
1.163739e+003, 1.549808e+003
1.164221e+003, 1.550636e+003
1.164703e+003, 1.551441e+003
1.165186e+003, 1.550731e+003
1.165668e+003, 1.548332e+003
1.166150e+003, 1.548427e+003
1.166632e+003, 1.551541e+003
1.167114e+003, 1.554095e+003
1.167596e+003, 1.554389e+003
1.168078e+003, 1.554414e+003
1.168560e+003, 1.557138e+003
1.169042e+003, 1.560985e+003
1.169525e+003, 1.563687e+003
1.170007e+003, 1.564400e+003
1.170489e+003, 1.565876e+003
1.170971e+003, 1.568183e+003
1.171453e+003, 1.571043e+003
1.171935e+003, 1.574741e+003
1.172417e+003, 1.578405e+003
1.172899e+003, 1.579903e+003
1.173382e+003, 1.580562e+003
1.173864e+003, 1.582895e+003
1.174346e+003, 1.589386e+003
1.174828e+003, 1.593523e+003
1.175310e+003, 1.594609e+003
1.175792e+003, 1.595015e+003
1.176274e+003, 1.596665e+003
1.176756e+003, 1.598652e+003
1.177239e+003, 1.598879e+003
1.177721e+003, 1.598047e+003
1.178203e+003, 1.598003e+003
1.178685e+003, 1.600619e+003
1.179167e+003, 1.602143e+003
1.179649e+003, 1.602186e+003
1.180131e+003, 1.601657e+003
1.180613e+003, 1.601403e+003
1.181095e+003, 1.601244e+003
1.181578e+003, 1.600569e+003
1.182060e+003, 1.599550e+003
1.182542e+003, 1.598920e+003
1.183024e+003, 1.599145e+003
1.183506e+003, 1.599557e+003
1.183988e+003, 1.600071e+003
1.184470e+003, 1.600707e+003
1.184952e+003, 1.601510e+003
1.185434e+003, 1.602433e+003
1.185917e+003, 1.603496e+003
1.186399e+003, 1.604625e+003
1.186881e+003, 1.605390e+003
1.187363e+003, 1.604996e+003
1.187845e+003, 1.604983e+003
1.188327e+003, 1.605783e+003
1.188809e+003, 1.606889e+003
1.189291e+003, 1.607494e+003
1.189774e+003, 1.607773e+003
1.190256e+003, 1.608392e+003
1.190738e+003, 1.609410e+003
1.191220e+003, 1.610187e+003
1.191702e+003, 1.609900e+003
1.192184e+003, 1.610103e+003
1.192666e+003, 1.611619e+003
1.193148e+003, 1.613523e+003
1.193630e+003, 1.613561e+003
1.194113e+003, 1.612430e+003
1.194595e+003, 1.612716e+003
1.195077e+003, 1.615045e+003
1.195559e+003, 1.616752e+003
1.196041e+003, 1.615908e+003
1.196523e+003, 1.614988e+003
1.197005e+003, 1.614787e+003
1.197487e+003, 1.615272e+003
1.197969e+003, 1.616709e+003
1.198452e+003, 1.618768e+003
1.198934e+003, 1.620165e+003
1.199416e+003, 1.620364e+003
1.199898e+003, 1.620924e+003
1.200380e+003, 1.623274e+003
1.200862e+003, 1.625291e+003
1.201344e+003, 1.625837e+003
1.201826e+003, 1.625330e+003
1.202309e+003, 1.624932e+003
1.202791e+003, 1.624790e+003
1.203273e+003, 1.625691e+003
1.203755e+003, 1.628436e+003
1.204237e+003, 1.630529e+003
1.204719e+003, 1.630247e+003
1.205201e+003, 1.629599e+003
1.205683e+003, 1.629750e+003
1.206166e+003, 1.630476e+003
1.206648e+003, 1.630216e+003
1.207130e+003, 1.629426e+003
1.207612e+003, 1.630103e+003
1.208094e+003, 1.633627e+003
1.208576e+003, 1.637281e+003
1.209058e+003, 1.640155e+003
1.209540e+003, 1.642467e+003
1.210022e+003, 1.644168e+003
1.210505e+003, 1.645381e+003
1.210987e+003, 1.646767e+003
1.211469e+003, 1.648340e+003
1.211951e+003, 1.650147e+003
1.212433e+003, 1.652380e+003
1.212915e+003, 1.654591e+003
1.213397e+003, 1.656276e+003
1.213879e+003, 1.658182e+003
1.214361e+003, 1.661620e+003
1.214844e+003, 1.665952e+003
1.215326e+003, 1.665486e+003
1.215808e+003, 1.661212e+003
1.216290e+003, 1.658180e+003
1.216772e+003, 1.659554e+003
1.217254e+003, 1.661657e+003
1.217736e+003, 1.663932e+003
1.218218e+003, 1.665889e+003
1.218701e+003, 1.666842e+003
1.219183e+003, 1.667024e+003
1.219665e+003, 1.668509e+003
1.220147e+003, 1.670931e+003
1.220629e+003, 1.672273e+003
1.221111e+003, 1.669700e+003
1.221593e+003, 1.668493e+003
1.222075e+003, 1.671035e+003
1.222557e+003, 1.674439e+003
1.223040e+003, 1.676092e+003
1.223522e+003, 1.676136e+003
1.224004e+003, 1.674238e+003
1.224486e+003, 1.670972e+003
1.224968e+003, 1.669593e+003
1.225450e+003, 1.674121e+003
1.225932e+003, 1.677397e+003
1.226414e+003, 1.677146e+003
1.226896e+003, 1.675839e+003
1.227379e+003, 1.676340e+003
1.227861e+003, 1.678158e+003
1.228343e+003, 1.679609e+003
1.228825e+003, 1.680645e+003
1.229307e+003, 1.681671e+003
1.229789e+003, 1.682523e+003
1.230271e+003, 1.683904e+003
1.230753e+003, 1.686175e+003
1.231236e+003, 1.688674e+003
1.231718e+003, 1.690400e+003
1.232200e+003, 1.691680e+003
1.232682e+003, 1.693538e+003
1.233164e+003, 1.695930e+003
1.233646e+003, 1.697861e+003
1.234128e+003, 1.698599e+003
1.234610e+003, 1.699231e+003
1.235093e+003, 1.699854e+003
1.235575e+003, 1.700672e+003
1.236057e+003, 1.701949e+003
1.236539e+003, 1.703607e+003
1.237021e+003, 1.705457e+003
1.237503e+003, 1.707472e+003
1.237985e+003, 1.709790e+003
1.238467e+003, 1.712642e+003
1.238949e+003, 1.715451e+003
1.239432e+003, 1.718093e+003
1.239914e+003, 1.720732e+003
1.240396e+003, 1.723132e+003
1.240878e+003, 1.725855e+003
1.241360e+003, 1.730621e+003
1.241842e+003, 1.737329e+003
1.242324e+003, 1.741857e+003
1.242806e+003, 1.742474e+003
1.243288e+003, 1.742909e+003
1.243771e+003, 1.743658e+003
1.244253e+003, 1.745000e+003
1.244735e+003, 1.748107e+003
1.245217e+003, 1.751633e+003
1.245699e+003, 1.753059e+003
1.246181e+003, 1.752357e+003
1.246663e+003, 1.753526e+003
1.247145e+003, 1.758102e+003
1.247628e+003, 1.760979e+003
1.248110e+003, 1.760841e+003
1.248592e+003, 1.759597e+003
1.249074e+003, 1.759526e+003
1.249556e+003, 1.759812e+003
1.250038e+003, 1.759410e+003
1.250520e+003, 1.758272e+003
1.251002e+003, 1.757392e+003
1.251484e+003, 1.756969e+003
1.251967e+003, 1.756052e+003
1.252449e+003, 1.754288e+003
1.252931e+003, 1.752599e+003
1.253413e+003, 1.752084e+003
1.253895e+003, 1.752061e+003
1.254377e+003, 1.751655e+003
1.254859e+003, 1.750953e+003
1.255341e+003, 1.751511e+003
1.255823e+003, 1.753492e+003
1.256306e+003, 1.755345e+003
1.256788e+003, 1.756823e+003
1.257270e+003, 1.757364e+003
1.257752e+003, 1.755395e+003
1.258234e+003, 1.753089e+003
1.258716e+003, 1.752159e+003
1.259198e+003, 1.752579e+003
1.259680e+003, 1.754703e+003
1.260163e+003, 1.758570e+003
1.260645e+003, 1.760818e+003
1.261127e+003, 1.760503e+003
1.261609e+003, 1.759914e+003
1.262091e+003, 1.761283e+003
1.262573e+003, 1.762519e+003
1.263055e+003, 1.761797e+003
1.263537e+003, 1.759917e+003
1.264020e+003, 1.759750e+003
1.264502e+003, 1.761145e+003
1.264984e+003, 1.763265e+003
1.265466e+003, 1.766159e+003
1.265948e+003, 1.767947e+003
1.266430e+003, 1.766330e+003
1.266912e+003, 1.764604e+003
1.267394e+003, 1.764660e+003
1.267876e+003, 1.765615e+003
1.268359e+003, 1.764625e+003
1.268841e+003, 1.762370e+003
1.269323e+003, 1.761507e+003
1.269805e+003, 1.762740e+003
1.270287e+003, 1.764109e+003
1.270769e+003, 1.764711e+003
1.271251e+003, 1.765441e+003
1.271733e+003, 1.766645e+003
1.272215e+003, 1.768141e+003
1.272698e+003, 1.769806e+003
1.273180e+003, 1.771382e+003
1.273662e+003, 1.772082e+003
1.274144e+003, 1.771673e+003
1.274626e+003, 1.771638e+003
1.275108e+003, 1.772490e+003
1.275590e+003, 1.773366e+003
1.276072e+003, 1.774115e+003
1.276555e+003, 1.774511e+003
1.277037e+003, 1.772847e+003
1.277519e+003, 1.771188e+003
1.278001e+003, 1.773486e+003
1.278483e+003, 1.780693e+003
1.278965e+003, 1.785178e+003
1.279447e+003, 1.785680e+003
1.279929e+003, 1.786610e+003
1.280411e+003, 1.789583e+003
1.280894e+003, 1.792544e+003
1.281376e+003, 1.792512e+003
1.281858e+003, 1.791353e+003
1.282340e+003, 1.791004e+003
1.282822e+003, 1.791665e+003
1.283304e+003, 1.793532e+003
1.283786e+003, 1.796864e+003
1.284268e+003, 1.798377e+003
1.284750e+003, 1.796740e+003
1.285233e+003, 1.795106e+003
1.285715e+003, 1.796896e+003
1.286197e+003, 1.799553e+003
1.286679e+003, 1.800944e+003
1.287161e+003, 1.801386e+003
1.287643e+003, 1.802550e+003
1.288125e+003, 1.804367e+003
1.288607e+003, 1.805697e+003
1.289090e+003, 1.806263e+003
1.289572e+003, 1.806404e+003
1.290054e+003, 1.805230e+003
1.290536e+003, 1.805037e+003
1.291018e+003, 1.807389e+003
1.291500e+003, 1.811146e+003
1.291982e+003, 1.813041e+003
1.292464e+003, 1.813563e+003
1.292947e+003, 1.814550e+003
1.293429e+003, 1.816367e+003
1.293911e+003, 1.818361e+003
1.294393e+003, 1.820001e+003
1.294875e+003, 1.822120e+003
1.295357e+003, 1.825044e+003
1.295839e+003, 1.828257e+003
1.296321e+003, 1.831382e+003
1.296803e+003, 1.834222e+003
1.297286e+003, 1.836195e+003
1.297768e+003, 1.837169e+003
1.298250e+003, 1.837695e+003
1.298732e+003, 1.837515e+003
1.299214e+003, 1.837905e+003
1.299696e+003, 1.839486e+003
1.300178e+003, 1.841211e+003
1.300660e+003, 1.842703e+003
##END=



