##NAMES=Strontiodresserite
##RRUFFID=R070741
##IDEAL CHEMISTRY=SrAl_2_(CO_3_)_2_(OH)_4_&#183;H_2_O
##LOCALITY=Francon quarry, St. Michel District, Montréal, Jacques Cartier Co., Québec, Canada
##OWNER=RRUFF
##SOURCE=Michael Scott
##DESCRIPTION=Pearly white spheres or as radiating aggregates in vugs, associated with dawsonite and calcite
##STATUS=The identification of this mineral has been confirmed by single-crystal X-ray diffraction.
##URL=rruff.info/R070741
160.9855, 7788.734
161.4676, 7794.404
161.9497, 7807.854
162.4318, 7824.644
162.9139, 7833.925
163.3960, 7824.437
163.8782, 7795.788
164.3603, 7789.631
164.8424, 7825.087
165.3245, 7865.784
165.8066, 7888.654
166.2887, 7892.121
166.7709, 7886.249
167.2530, 7875.524
167.7351, 7860.567
168.2172, 7859.245
168.6993, 7887.182
169.1814, 7924.447
169.6636, 7942.097
170.1457, 7931.119
170.6278, 7920.226
171.1099, 7951.822
171.5920, 8016.932
172.0741, 8063.569
172.5563, 8051.292
173.0384, 8003.250
173.5205, 7988.813
174.0026, 8033.402
174.4847, 8095.203
174.9668, 8138.136
175.4490, 8163.282
175.9311, 8181.556
176.4132, 8195.979
176.8953, 8206.996
177.3774, 8227.193
177.8595, 8257.625
178.3417, 8300.495
178.8238, 8362.616
179.3059, 8443.657
179.7880, 8526.173
180.2701, 8590.016
180.7522, 8631.860
181.2344, 8669.539
181.7165, 8715.086
182.1986, 8751.682
182.6807, 8767.107
183.1628, 8758.159
183.6449, 8732.236
184.1271, 8700.536
184.6092, 8660.598
185.0913, 8619.343
185.5734, 8574.737
186.0555, 8530.924
186.5376, 8490.993
187.0198, 8456.155
187.5019, 8426.410
187.9840, 8401.217
188.4661, 8383.745
188.9482, 8367.628
189.4303, 8356.848
189.9125, 8345.669
190.3946, 8324.194
190.8767, 8286.215
191.3588, 8239.075
191.8409, 8217.009
192.3230, 8257.477
192.8052, 8281.494
193.2873, 8260.978
193.7694, 8215.365
194.2515, 8180.418
194.7336, 8178.962
195.2157, 8206.355
195.6979, 8216.346
196.1800, 8186.149
196.6621, 8165.767
197.1442, 8178.992
197.6263, 8218.596
198.1084, 8261.825
198.5906, 8295.163
199.0727, 8317.909
199.5548, 8333.360
200.0369, 8320.188
200.5190, 8317.987
201.0011, 8360.838
201.4833, 8444.644
201.9654, 8523.740
202.4475, 8557.556
202.9296, 8552.715
203.4117, 8579.010
203.8938, 8674.424
204.3760, 8779.569
204.8581, 8840.717
205.3402, 8854.020
205.8223, 8847.667
206.3044, 8837.752
206.7865, 8824.966
207.2687, 8811.676
207.7508, 8794.077
208.2329, 8777.894
208.7150, 8770.786
209.1971, 8773.646
209.6792, 8783.663
210.1614, 8801.635
210.6435, 8825.158
211.1256, 8849.660
211.6077, 8871.701
212.0898, 8893.723
212.5719, 8924.369
213.0541, 8972.327
213.5362, 9011.231
214.0183, 9019.140
214.5004, 9004.646
214.9825, 8987.613
215.4646, 8975.505
215.9468, 8968.648
216.4289, 8972.201
216.9110, 9004.188
217.3931, 9019.747
217.8752, 8991.760
218.3573, 8929.099
218.8395, 8857.663
219.3216, 8792.805
219.8037, 8734.216
220.2858, 8676.235
220.7679, 8620.989
221.2500, 8563.796
221.7322, 8499.756
222.2143, 8431.317
222.6964, 8365.930
223.1785, 8311.848
223.6606, 8269.805
224.1427, 8221.979
224.6249, 8151.490
225.1070, 8090.454
225.5891, 8052.936
226.0712, 8036.904
226.5533, 8031.674
227.0354, 8028.934
227.5176, 8029.027
227.9997, 8028.934
228.4818, 8027.429
228.9639, 8026.631
229.4460, 8025.038
229.9281, 8024.132
230.4103, 8028.515
230.8924, 8044.971
231.3745, 8078.305
231.8566, 8101.957
232.3387, 8103.910
232.8208, 8107.130
233.3030, 8122.572
233.7851, 8150.426
234.2672, 8183.554
234.7493, 8212.153
235.2314, 8228.644
235.7135, 8270.118
236.1957, 8361.222
236.6778, 8453.165
237.1599, 8517.895
237.6420, 8554.714
238.1241, 8581.748
238.6062, 8621.063
239.0884, 8683.028
239.5705, 8721.735
240.0526, 8727.154
240.5347, 8721.778
241.0168, 8727.228
241.4989, 8741.107
241.9811, 8736.784
242.4632, 8680.142
242.9453, 8547.490
243.4274, 8432.091
243.9095, 8346.716
244.3916, 8266.825
244.8738, 8176.202
245.3559, 8073.162
245.8380, 7964.747
246.3201, 7857.871
246.8022, 7749.721
247.2843, 7655.498
247.7665, 7571.615
248.2486, 7501.906
248.7307, 7455.070
249.2128, 7429.622
249.6949, 7410.226
250.1770, 7379.415
250.6592, 7332.570
251.1413, 7289.257
251.6234, 7245.631
252.1055, 7207.866
252.5876, 7181.468
253.0697, 7166.854
253.5519, 7158.967
254.0340, 7153.500
254.5161, 7151.934
254.9982, 7145.813
255.4803, 7133.213
255.9624, 7117.515
256.4445, 7099.254
256.9267, 7079.114
257.4088, 7061.686
257.8909, 7052.905
258.3730, 7055.722
258.8551, 7051.747
259.3372, 7030.617
259.8194, 7009.376
260.3015, 7004.837
260.7836, 7018.121
261.2657, 7033.460
261.7478, 7034.363
262.2299, 7017.776
262.7121, 7009.823
263.1942, 7022.350
263.6763, 7036.127
264.1584, 7034.813
264.6405, 7017.079
265.1227, 6992.362
265.6048, 6966.428
266.0869, 6939.355
266.5690, 6923.315
267.0511, 6925.392
267.5332, 6933.941
268.0154, 6940.526
268.4975, 6944.374
268.9796, 6946.900
269.4617, 6948.023
269.9438, 6948.188
270.4259, 6953.701
270.9081, 6973.866
271.3902, 6993.003
271.8723, 6996.614
272.3544, 6984.661
272.8365, 6970.523
273.3186, 6964.842
273.8008, 6966.553
274.2829, 6962.372
274.7650, 6943.895
275.2471, 6925.621
275.7292, 6918.448
276.2113, 6922.300
276.6935, 6931.001
277.1756, 6940.657
277.6577, 6952.145
278.1398, 6967.383
278.6219, 7001.874
279.1040, 7027.830
279.5862, 7019.583
280.0683, 6980.819
280.5504, 6941.316
281.0325, 6917.058
281.5146, 6907.847
281.9967, 6905.416
282.4789, 6915.070
282.9610, 6926.415
283.4431, 6935.688
283.9252, 6942.165
284.4073, 6940.384
284.8894, 6922.915
285.3716, 6897.418
285.8537, 6887.163
286.3358, 6901.447
286.8179, 6918.509
287.3000, 6930.692
287.7821, 6936.899
288.2643, 6930.165
288.7464, 6901.167
289.2285, 6862.345
289.7106, 6844.493
290.1927, 6854.840
290.6748, 6870.614
291.1570, 6882.991
291.6391, 6892.648
292.1212, 6901.718
292.6033, 6911.455
293.0854, 6920.459
293.5675, 6925.584
294.0497, 6925.740
294.5318, 6925.974
295.0139, 6920.413
295.4960, 6916.452
295.9781, 6938.149
296.4602, 7002.971
296.9424, 7076.106
297.4245, 7088.925
297.9066, 7032.567
298.3887, 6980.334
298.8708, 6953.334
299.3529, 6945.646
299.8351, 6952.308
300.3172, 6976.176
300.7993, 6999.119
301.2814, 6988.009
301.7635, 6938.712
302.2456, 6904.668
302.7278, 6910.975
303.2099, 6934.844
303.6920, 6940.896
304.1741, 6920.124
304.6562, 6901.629
305.1383, 6927.369
305.6205, 7000.973
306.1026, 7048.354
306.5847, 7047.369
307.0668, 7022.295
307.5489, 6994.430
308.0310, 6966.521
308.5132, 6938.880
308.9953, 6908.804
309.4774, 6876.785
309.9595, 6861.471
310.4416, 6870.677
310.9237, 6891.881
311.4059, 6922.070
311.8880, 6958.811
312.3701, 6987.135
312.8522, 6993.602
313.3343, 6978.927
313.8164, 6970.236
314.2986, 6970.051
314.7807, 6973.256
315.2628, 6978.306
315.7449, 6984.581
316.2270, 6991.032
316.7091, 6998.265
317.1913, 7004.590
317.6734, 7001.109
318.1555, 6976.057
318.6376, 6955.280
319.1197, 6956.939
319.6018, 6970.547
320.0840, 6969.058
320.5661, 6936.770
321.0482, 6885.390
321.5303, 6854.952
322.0124, 6859.284
322.4945, 6861.879
322.9767, 6844.988
323.4588, 6824.143
323.9409, 6829.599
324.4230, 6875.027
324.9051, 6932.902
325.3872, 6946.440
325.8694, 6883.014
326.3515, 6832.461
326.8336, 6806.304
327.3157, 6793.671
327.7978, 6787.185
328.2799, 6784.267
328.7621, 6778.787
329.2442, 6761.497
329.7263, 6725.798
330.2084, 6694.106
330.6905, 6669.147
331.1726, 6646.093
331.6548, 6620.608
332.1369, 6592.693
332.6190, 6565.860
333.1011, 6543.595
333.5832, 6526.225
334.0653, 6512.375
334.5475, 6501.424
335.0296, 6493.766
335.5117, 6491.997
335.9938, 6494.174
336.4759, 6494.836
336.9580, 6489.422
337.4402, 6478.069
337.9223, 6469.688
338.4044, 6470.798
338.8865, 6467.784
339.3686, 6449.824
339.8507, 6426.161
340.3329, 6414.757
340.8150, 6427.097
341.2971, 6455.296
341.7792, 6465.278
342.2613, 6441.401
342.7434, 6417.496
343.2256, 6390.700
343.7077, 6368.497
344.1898, 6362.625
344.6719, 6377.346
345.1540, 6399.471
345.6361, 6400.257
346.1183, 6360.650
346.6004, 6336.758
347.0825, 6344.123
347.5646, 6357.959
348.0467, 6359.364
348.5288, 6345.096
349.0110, 6326.614
349.4931, 6318.927
349.9752, 6325.155
350.4573, 6329.644
350.9394, 6330.065
351.4215, 6330.334
351.9037, 6330.342
352.3858, 6331.309
352.8679, 6336.927
353.3500, 6355.819
353.8321, 6386.995
354.3142, 6394.944
354.7964, 6355.385
355.2785, 6321.424
355.7606, 6315.899
356.2427, 6330.799
356.7248, 6350.438
357.2069, 6369.906
357.6891, 6385.535
358.1712, 6384.595
358.6533, 6359.737
359.1354, 6334.566
359.6175, 6315.659
360.0996, 6302.637
360.5818, 6296.163
361.0639, 6297.280
361.5460, 6302.899
362.0281, 6311.292
362.5102, 6323.497
362.9923, 6329.004
363.4745, 6269.590
363.9566, 6324.663
364.4387, 6354.074
364.9208, 6359.204
365.4029, 6267.326
365.8850, 6300.713
366.3672, 6283.899
366.8493, 6265.027
367.3314, 6316.046
367.8135, 6238.277
368.2956, 6288.187
368.7777, 6287.130
369.2599, 6309.398
369.7420, 6281.157
370.2241, 6268.517
370.7062, 6306.403
371.1883, 6316.313
371.6704, 6282.256
372.1526, 6306.008
372.6347, 6226.475
373.1168, 6237.576
373.5989, 6287.782
374.0810, 6256.266
374.5631, 6280.941
375.0453, 6259.735
375.5274, 6276.858
376.0095, 6274.542
376.4916, 6257.899
376.9737, 6250.105
377.4558, 6260.716
377.9380, 6268.119
378.4201, 6262.956
378.9022, 6249.262
379.3843, 6233.678
379.8664, 6218.358
380.3485, 6204.833
380.8307, 6197.023
381.3128, 6200.435
381.7949, 6199.264
382.2770, 6190.499
382.7591, 6177.815
383.2412, 6162.205
383.7234, 6144.829
384.2055, 6131.205
384.6876, 6128.579
385.1697, 6140.445
385.6518, 6148.635
386.1339, 6160.993
386.6161, 6163.386
387.0982, 6140.857
387.5803, 6101.245
388.0624, 6065.550
388.5445, 6048.633
389.0266, 6049.484
389.5088, 6057.343
389.9909, 6084.679
390.4730, 6104.743
390.9551, 6112.376
391.4372, 6110.390
391.9193, 6100.965
392.4015, 6084.811
392.8836, 6065.761
393.3657, 6050.061
393.8478, 6034.293
394.3299, 6031.195
394.8120, 6053.669
395.2942, 6080.606
395.7763, 6102.303
396.2584, 6115.666
396.7405, 6115.486
397.2226, 6087.179
397.7047, 6030.502
398.1869, 5997.584
398.6690, 6009.516
399.1511, 6025.238
399.6332, 6017.209
400.1153, 5993.170
400.5974, 5976.405
401.0796, 5984.955
401.5617, 6007.429
402.0438, 6018.630
402.5259, 6017.117
403.0080, 6009.932
403.4901, 5990.705
403.9723, 5971.149
404.4544, 5972.471
404.9365, 6011.560
405.4186, 6050.180
405.9007, 6053.997
406.3828, 6028.074
406.8650, 5997.972
407.3471, 5968.751
407.8292, 5944.817
408.3113, 5933.155
408.7934, 5933.540
409.2755, 5941.978
409.7577, 5965.239
410.2398, 5992.743
410.7219, 6008.828
411.2040, 6010.659
411.6861, 6008.053
412.1682, 6011.766
412.6504, 6023.286
413.1325, 6023.847
413.6146, 6006.839
414.0967, 5985.487
414.5788, 5962.226
415.0609, 5940.290
415.5431, 5926.810
416.0252, 5926.542
416.5073, 5937.585
416.9894, 5950.986
417.4715, 5982.489
417.9536, 5997.149
418.4358, 5978.873
418.9179, 5948.038
419.4000, 5926.035
419.8821, 5919.412
420.3642, 5920.260
420.8463, 5916.376
421.3285, 5904.749
421.8106, 5896.801
422.2927, 5893.455
422.7748, 5892.739
423.2569, 5894.617
423.7390, 5898.468
424.2212, 5903.055
424.7033, 5908.167
425.1854, 5913.224
425.6675, 5914.261
426.1496, 5908.124
426.6317, 5903.211
427.1139, 5901.369
427.5960, 5902.785
428.0781, 5908.955
428.5602, 5922.004
429.0423, 5935.302
429.5244, 5938.077
430.0066, 5929.985
430.4887, 5927.959
430.9708, 5941.265
431.4529, 5958.466
431.9350, 5969.264
432.4171, 5973.956
432.8993, 5967.785
433.3814, 5938.604
433.8635, 5899.543
434.3456, 5875.804
434.8277, 5871.921
435.3098, 5873.291
435.7920, 5867.483
436.2741, 5855.341
436.7562, 5848.513
437.2383, 5853.374
437.7204, 5858.129
438.2025, 5854.106
438.6847, 5844.051
439.1668, 5835.878
439.6489, 5833.189
440.1310, 5835.589
440.6131, 5842.340
441.0952, 5865.072
441.5774, 5875.627
442.0595, 5869.459
442.5416, 5852.500
443.0237, 5823.385
443.5058, 5785.340
443.9879, 5754.109
444.4701, 5749.634
444.9522, 5777.256
445.4343, 5793.631
445.9164, 5793.573
446.3985, 5787.168
446.8806, 5770.135
447.3628, 5749.796
447.8449, 5739.986
448.3270, 5750.294
448.8091, 5770.279
449.2912, 5771.769
449.7733, 5745.933
450.2555, 5726.193
450.7376, 5726.629
451.2197, 5733.104
451.7018, 5735.698
452.1839, 5732.810
452.6660, 5728.513
453.1482, 5725.046
453.6303, 5722.689
454.1124, 5723.204
454.5945, 5727.939
455.0766, 5733.109
455.5587, 5734.287
456.0409, 5733.121
456.5230, 5734.745
457.0051, 5744.763
457.4872, 5754.708
457.9693, 5758.565
458.4514, 5756.160
458.9336, 5745.332
459.4157, 5722.181
459.8978, 5693.581
460.3799, 5678.444
460.8620, 5678.032
461.3441, 5685.681
461.8262, 5712.325
462.3083, 5740.122
462.7905, 5746.831
463.2726, 5729.943
463.7547, 5706.677
464.2368, 5693.905
464.7189, 5691.761
465.2010, 5699.292
465.6832, 5734.903
466.1653, 5759.899
466.6474, 5752.893
467.1295, 5728.570
467.6116, 5712.804
468.0938, 5719.379
468.5759, 5736.778
469.0580, 5738.858
469.5401, 5720.896
470.0222, 5700.980
470.5043, 5675.875
470.9865, 5654.496
471.4686, 5645.195
471.9507, 5647.458
472.4328, 5650.007
472.9149, 5640.560
473.3970, 5624.217
473.8792, 5622.078
474.3613, 5640.271
474.8434, 5656.943
475.3255, 5654.265
475.8076, 5640.298
476.2897, 5631.894
476.7719, 5637.352
477.2540, 5641.505
477.7361, 5625.933
478.2182, 5599.707
478.7003, 5594.585
479.1824, 5625.421
479.6646, 5666.985
480.1467, 5677.623
480.6288, 5642.953
481.1109, 5623.288
481.5930, 5637.549
482.0751, 5655.294
482.5573, 5652.155
483.0394, 5630.725
483.5215, 5610.271
484.0036, 5605.369
484.4857, 5612.737
484.9678, 5610.398
485.4500, 5587.192
485.9321, 5568.768
486.4142, 5553.682
486.8963, 5547.234
487.3784, 5561.290
487.8605, 5596.455
488.3427, 5629.239
488.8248, 5630.484
489.3069, 5598.860
489.7890, 5564.102
490.2711, 5516.035
490.7532, 5481.412
491.2354, 5481.365
491.7175, 5503.972
492.1996, 5521.581
492.6817, 5525.231
493.1638, 5517.692
493.6459, 5496.046
494.1281, 5461.821
494.6102, 5437.599
495.0923, 5434.394
495.5744, 5442.599
496.0565, 5445.600
496.5386, 5442.267
497.0208, 5440.036
497.5029, 5441.781
497.9850, 5444.678
498.4671, 5446.278
498.9492, 5446.190
499.4313, 5444.437
499.9135, 5440.728
500.3956, 5435.298
500.8777, 5431.311
501.3598, 5425.432
501.8419, 5425.079
502.3240, 5443.165
502.8062, 5462.050
503.2883, 5456.941
503.7704, 5422.275
504.2525, 5382.650
504.7346, 5372.471
505.2167, 5396.934
505.6989, 5413.947
506.1810, 5416.717
506.6631, 5418.352
507.1452, 5429.499
507.6273, 5444.141
508.1094, 5447.972
508.5916, 5429.769
509.0737, 5404.352
509.5558, 5393.803
510.0379, 5397.521
510.5200, 5396.138
511.0021, 5379.517
511.4843, 5358.803
511.9664, 5352.138
512.4485, 5361.017
512.9306, 5368.746
513.4127, 5368.899
513.8948, 5367.349
514.3770, 5372.973
514.8591, 5384.393
515.3412, 5388.498
515.8233, 5374.462
516.3054, 5346.283
516.7875, 5330.018
517.2697, 5332.742
517.7518, 5289.449
518.2339, 5344.815
518.7160, 5374.521
519.1981, 5379.946
519.6802, 5288.363
520.1624, 5322.044
520.6445, 5305.526
521.1266, 5286.949
521.6087, 5338.261
522.0908, 5260.787
522.5729, 5310.992
523.0551, 5310.229
523.5372, 5332.793
524.0193, 5304.846
524.5014, 5292.500
524.9835, 5330.681
525.4656, 5340.885
525.9478, 5307.123
526.4299, 5331.169
526.9120, 5251.931
527.3941, 5263.327
527.8762, 5270.275
528.3583, 5287.230
528.8405, 5296.393
529.3226, 5291.504
529.8047, 5281.227
530.2868, 5267.954
530.7689, 5253.875
531.2510, 5242.852
531.7332, 5236.675
532.2153, 5235.773
532.6974, 5242.294
533.1795, 5266.597
533.6616, 5279.090
534.1437, 5272.740
534.6259, 5261.537
535.1080, 5250.938
535.5901, 5243.020
536.0722, 5240.937
536.5543, 5249.284
537.0364, 5263.798
537.5186, 5269.863
538.0007, 5264.754
538.4828, 5261.604
538.9649, 5264.277
539.4470, 5272.289
539.9291, 5289.719
540.4113, 5320.191
540.8934, 5335.943
541.3755, 5310.878
541.8576, 5267.165
542.3397, 5237.483
542.8218, 5225.708
543.3040, 5225.864
543.7861, 5237.048
544.2682, 5256.594
544.7503, 5261.232
545.2324, 5234.443
545.7145, 5215.440
546.1967, 5217.024
546.6788, 5227.517
547.1609, 5232.631
547.6430, 5230.121
548.1251, 5230.798
548.6072, 5250.135
549.0894, 5289.352
549.5715, 5310.694
550.0536, 5304.080
550.5357, 5293.497
551.0178, 5283.141
551.4999, 5276.359
551.9821, 5279.250
552.4642, 5295.626
552.9463, 5313.507
553.4284, 5320.189
553.9105, 5318.706
554.3926, 5321.471
554.8748, 5331.439
555.3569, 5343.533
555.8390, 5353.662
556.3211, 5361.711
556.8032, 5367.963
557.2853, 5368.031
557.7675, 5370.869
558.2496, 5384.140
558.7317, 5402.179
559.2138, 5413.598
559.6959, 5414.514
560.1780, 5413.473
560.6602, 5424.751
561.1423, 5453.577
561.6244, 5473.754
562.1065, 5478.229
562.5886, 5480.523
563.0707, 5482.970
563.5529, 5486.961
564.0350, 5493.948
564.5171, 5504.093
564.9992, 5518.834
565.4813, 5546.140
565.9634, 5584.372
566.4456, 5604.682
566.9277, 5594.642
567.4098, 5575.518
567.8919, 5568.506
568.3740, 5572.454
568.8561, 5580.473
569.3383, 5604.393
569.8204, 5620.273
570.3025, 5605.716
570.7846, 5571.018
571.2667, 5540.277
571.7488, 5523.418
572.2310, 5517.370
572.7131, 5518.878
573.1952, 5536.176
573.6773, 5538.469
574.1594, 5515.940
574.6415, 5489.109
575.1237, 5464.389
575.6058, 5442.347
576.0879, 5422.453
576.5700, 5404.765
577.0521, 5388.299
577.5342, 5372.514
578.0164, 5357.463
578.4985, 5337.218
578.9806, 5305.308
579.4627, 5275.619
579.9448, 5268.551
580.4269, 5280.870
580.9091, 5282.077
581.3912, 5260.070
581.8733, 5230.920
582.3554, 5202.767
582.8375, 5176.414
583.3196, 5150.694
583.8018, 5125.030
584.2839, 5103.942
584.7660, 5096.851
585.2481, 5111.840
585.7302, 5117.792
586.2123, 5110.599
586.6945, 5099.058
587.1766, 5085.206
587.6587, 5069.884
588.1408, 5053.045
588.6229, 5033.500
589.1050, 5016.201
589.5872, 5010.939
590.0693, 5017.095
590.5514, 5018.617
591.0335, 5012.200
591.5156, 5000.290
591.9977, 4981.542
592.4799, 4957.437
592.9620, 4940.712
593.4441, 4935.775
593.9262, 4936.044
594.4083, 4941.965
594.8904, 4949.614
595.3726, 4952.326
595.8547, 4947.691
596.3368, 4935.599
596.8189, 4913.518
597.3010, 4876.262
597.7831, 4853.963
598.2653, 4862.898
598.7474, 4870.352
599.2295, 4863.936
599.7116, 4850.112
600.1937, 4839.384
600.6758, 4835.791
601.1580, 4834.675
601.6401, 4831.719
602.1222, 4827.113
602.6043, 4821.229
603.0864, 4813.563
603.5685, 4806.502
604.0507, 4799.091
604.5328, 4793.297
605.0149, 4802.123
605.4970, 4857.109
605.9791, 4889.748
606.4612, 4855.538
606.9434, 4794.832
607.4255, 4758.221
607.9076, 4757.288
608.3897, 4772.763
608.8718, 4787.208
609.3539, 4800.408
609.8361, 4800.955
610.3182, 4777.014
610.8003, 4760.121
611.2824, 4772.240
611.7645, 4789.958
612.2466, 4784.139
612.7288, 4748.029
613.2109, 4714.833
613.6930, 4709.416
614.1751, 4720.685
614.6572, 4729.613
615.1393, 4734.470
615.6215, 4737.545
616.1036, 4739.896
616.5857, 4741.893
617.0678, 4744.954
617.5499, 4756.125
618.0320, 4758.450
618.5142, 4739.187
618.9963, 4720.062
619.4784, 4720.333
619.9605, 4737.254
620.4426, 4754.577
620.9247, 4761.457
621.4069, 4760.491
621.8890, 4757.210
622.3711, 4750.690
622.8532, 4747.650
623.3353, 4752.944
623.8174, 4759.201
624.2996, 4758.891
624.7817, 4752.378
625.2638, 4744.364
625.7459, 4733.093
626.2280, 4723.390
626.7101, 4719.236
627.1923, 4719.738
627.6744, 4723.452
628.1565, 4729.900
628.6386, 4735.609
629.1207, 4735.006
629.6028, 4727.438
630.0850, 4716.296
630.5671, 4691.504
631.0492, 4673.773
631.5313, 4674.010
632.0134, 4684.344
632.4955, 4692.717
632.9777, 4695.130
633.4598, 4695.628
633.9419, 4699.807
634.4240, 4705.339
634.9061, 4703.095
635.3882, 4691.007
635.8704, 4677.797
636.3525, 4669.562
636.8346, 4665.746
637.3167, 4662.833
637.7988, 4658.790
638.2809, 4658.192
638.7631, 4670.091
639.2452, 4680.308
639.7273, 4671.233
640.2094, 4644.950
640.6915, 4621.015
641.1736, 4615.728
641.6558, 4623.373
642.1379, 4622.714
642.6200, 4610.402
643.1021, 4605.298
643.5842, 4621.432
644.0663, 4638.795
644.5485, 4632.906
645.0306, 4604.578
645.5127, 4582.941
645.9948, 4579.915
646.4769, 4583.281
646.9590, 4586.359
647.4412, 4587.865
647.9233, 4584.417
648.4054, 4574.675
648.8875, 4564.435
649.3696, 4563.240
649.8517, 4573.696
650.3339, 4579.843
650.8160, 4577.857
651.2981, 4575.925
651.7802, 4579.425
652.2623, 4583.618
652.7444, 4579.920
653.2266, 4564.627
653.7087, 4551.967
654.1908, 4555.650
654.6729, 4569.343
655.1550, 4580.776
655.6371, 4588.548
656.1193, 4591.314
656.6014, 4587.979
657.0835, 4579.146
657.5656, 4567.227
658.0477, 4537.420
658.5298, 4525.450
659.0120, 4545.985
659.4941, 4572.255
659.9762, 4590.227
660.4583, 4597.702
660.9404, 4594.098
661.4225, 4575.995
661.9047, 4553.303
662.3868, 4545.156
662.8689, 4550.928
663.3510, 4551.824
663.8331, 4542.945
664.3152, 4529.763
664.7974, 4512.353
665.2795, 4492.326
665.7616, 4492.359
666.2437, 4540.459
666.7258, 4576.675
667.2079, 4571.531
667.6901, 4545.820
668.1722, 4522.862
668.6543, 4508.774
669.1364, 4499.890
669.6185, 4491.693
670.1006, 4485.800
670.5828, 4495.042
671.0649, 4526.863
671.5470, 4549.344
672.0291, 4550.196
672.5112, 4537.871
672.9933, 4518.553
673.4755, 4491.826
673.9576, 4475.590
674.4397, 4482.439
674.9218, 4495.191
675.4039, 4503.358
675.8860, 4506.234
676.3682, 4502.487
676.8503, 4491.727
677.3324, 4479.548
677.8145, 4475.731
678.2966, 4482.551
678.7787, 4478.821
679.2609, 4455.326
679.7430, 4435.029
680.2251, 4428.841
680.7072, 4429.745
681.1893, 4429.250
681.6714, 4425.869
682.1536, 4421.957
682.6357, 4420.143
683.1178, 4417.872
683.5999, 4408.111
684.0820, 4392.946
684.5641, 4387.345
685.0463, 4400.684
685.5284, 4423.072
686.0105, 4430.564
686.4926, 4414.267
686.9747, 4404.128
687.4568, 4402.937
687.9390, 4405.136
688.4211, 4410.350
688.9032, 4417.001
689.3853, 4422.393
689.8674, 4425.449
690.3495, 4428.052
690.8317, 4436.027
691.3138, 4443.856
691.7959, 4434.843
692.2780, 4407.717
692.7601, 4384.576
693.2422, 4381.689
693.7244, 4394.092
694.2065, 4402.753
694.6886, 4406.300
695.1707, 4408.103
695.6528, 4408.045
696.1349, 4406.659
696.6171, 4401.790
697.0992, 4395.899
697.5813, 4395.690
698.0634, 4406.380
698.5455, 4418.931
699.0276, 4423.361
699.5098, 4420.937
699.9919, 4412.619
700.4740, 4397.375
700.9561, 4392.290
701.4382, 4416.045
701.9203, 4462.791
702.4025, 4485.822
702.8846, 4456.639
703.3667, 4441.403
703.8488, 4455.443
704.3309, 4476.436
704.8130, 4489.916
705.2952, 4494.729
705.7773, 4495.434
706.2594, 4494.929
706.7415, 4490.993
707.2236, 4471.940
707.7057, 4443.229
708.1879, 4444.185
708.6700, 4488.496
709.1521, 4535.738
709.6342, 4545.842
710.1163, 4520.905
710.5984, 4509.845
711.0806, 4532.427
711.5627, 4542.052
712.0448, 4516.758
712.5269, 4486.768
713.0090, 4482.640
713.4911, 4501.515
713.9733, 4514.677
714.4554, 4501.588
714.9375, 4475.430
715.4196, 4453.568
715.9017, 4436.670
716.3839, 4431.469
716.8660, 4441.128
717.3481, 4457.227
717.8302, 4474.822
718.3123, 4493.767
718.7944, 4494.393
719.2766, 4456.628
719.7587, 4428.090
720.2408, 4425.780
720.7229, 4430.042
721.2050, 4422.057
721.6871, 4401.655
722.1693, 4381.915
722.6514, 4371.199
723.1335, 4365.940
723.6156, 4361.126
724.0977, 4356.667
724.5798, 4350.532
725.0620, 4341.142
725.5441, 4335.483
726.0262, 4342.318
726.5083, 4361.639
726.9904, 4373.584
727.4725, 4371.315
727.9547, 4370.824
728.4368, 4378.388
728.9189, 4386.059
729.4010, 4386.947
729.8831, 4380.753
730.3652, 4370.816
730.8474, 4356.066
731.3295, 4341.919
731.8116, 4334.945
732.2937, 4335.270
732.7758, 4347.512
733.2579, 4374.942
733.7401, 4397.329
734.2222, 4392.033
734.7043, 4360.635
735.1864, 4342.354
735.6685, 4349.203
736.1506, 4353.848
736.6328, 4348.630
737.1149, 4343.616
737.5970, 4348.184
738.0791, 4361.176
738.5612, 4373.907
739.0433, 4384.663
739.5255, 4389.778
740.0076, 4378.291
740.4897, 4357.432
740.9718, 4353.569
741.4539, 4372.783
741.9360, 4393.011
742.4182, 4393.100
742.9003, 4376.337
743.3824, 4371.913
743.8645, 4388.364
744.3466, 4402.600
744.8287, 4412.169
745.3109, 4418.512
745.7930, 4418.971
746.2751, 4416.488
746.7572, 4421.195
747.2393, 4441.761
747.7214, 4463.635
748.2036, 4476.294
748.6857, 4481.234
749.1678, 4479.126
749.6499, 4470.979
750.1320, 4463.732
750.6141, 4463.651
751.0963, 4467.064
751.5784, 4458.352
752.0605, 4432.190
752.5426, 4408.734
753.0247, 4388.832
753.5068, 4373.925
753.9890, 4368.590
754.4711, 4368.514
754.9532, 4362.339
755.4353, 4348.181
755.9174, 4326.576
756.3995, 4286.353
756.8817, 4245.519
757.3638, 4230.573
757.8459, 4238.832
758.3280, 4246.035
758.8101, 4237.085
759.2922, 4219.032
759.7744, 4206.732
760.2565, 4200.836
760.7386, 4194.918
761.2207, 4188.728
761.7028, 4181.638
762.1849, 4170.478
762.6671, 4158.788
763.1492, 4155.864
763.6313, 4166.396
764.1134, 4175.220
764.5955, 4183.716
765.0776, 4185.065
765.5598, 4167.407
766.0419, 4139.182
766.5240, 4120.353
767.0061, 4119.711
767.4882, 4125.432
767.9703, 4120.688
768.4525, 4108.418
768.9346, 4107.043
769.4167, 4119.133
769.8988, 4129.648
770.3809, 4132.945
770.8630, 4127.713
771.3452, 4109.268
771.8273, 4067.125
772.3094, 4042.749
772.7915, 4051.254
773.2736, 4059.844
773.7557, 4054.846
774.2379, 4042.245
774.7200, 4028.737
775.2021, 4016.306
775.6842, 4009.957
776.1663, 4017.422
776.6484, 4031.121
777.1306, 4040.402
777.6127, 4044.977
778.0948, 4045.505
778.5769, 4042.316
779.0590, 4033.074
779.5411, 3982.592
780.0233, 4019.428
780.5054, 4039.158
780.9875, 4042.700
781.4696, 3981.570
781.9517, 4003.951
782.4338, 3992.864
782.9160, 3980.405
783.3981, 4014.539
783.8802, 3962.815
784.3623, 3996.211
784.8444, 3995.628
785.3265, 4010.596
785.8087, 3991.890
786.2908, 3983.586
786.7729, 4008.965
787.2550, 4015.694
787.7371, 3993.112
788.2192, 4009.068
788.7014, 3956.168
789.1835, 3963.691
789.6656, 3997.283
790.1477, 3976.394
790.6298, 3992.967
791.1119, 3955.425
791.5941, 3948.736
792.0762, 3952.788
792.5583, 3982.013
793.0404, 3998.733
793.5225, 3989.917
794.0046, 3973.335
794.4868, 3956.873
794.9689, 3943.689
795.4510, 3938.734
795.9331, 3945.188
796.4152, 3952.039
796.8973, 3942.538
797.3795, 3925.559
797.8616, 3929.210
798.3437, 3953.668
798.8258, 3966.723
799.3079, 3950.876
799.7900, 3920.527
800.2722, 3901.471
800.7543, 3895.334
801.2364, 3892.248
801.7185, 3890.294
802.2006, 3894.239
802.6827, 3913.312
803.1649, 3934.024
803.6470, 3938.596
804.1291, 3925.426
804.6112, 3917.298
805.0933, 3932.320
805.5754, 3946.137
806.0576, 3935.522
806.5397, 3912.496
807.0218, 3898.341
807.5039, 3897.809
807.9860, 3903.331
808.4681, 3909.995
808.9503, 3915.699
809.4324, 3911.264
809.9145, 3895.766
810.3966, 3887.963
810.8787, 3895.639
811.3608, 3901.730
811.8430, 3886.621
812.3251, 3855.599
812.8072, 3848.135
813.2893, 3894.131
813.7714, 3919.789
814.2535, 3899.907
814.7357, 3875.744
815.2178, 3874.930
815.6999, 3891.515
816.1820, 3908.516
816.6641, 3921.453
817.1462, 3926.067
817.6284, 3912.730
818.1105, 3891.802
818.5926, 3879.629
819.0747, 3876.694
819.5568, 3878.585
820.0389, 3883.485
820.5211, 3888.328
821.0032, 3886.836
821.4853, 3878.189
821.9674, 3878.505
822.4495, 3892.618
822.9316, 3903.286
823.4138, 3902.326
823.8959, 3896.216
824.3780, 3896.049
824.8601, 3902.404
825.3422, 3894.891
825.8243, 3854.293
826.3065, 3819.682
826.7886, 3804.444
827.2707, 3803.987
827.7528, 3819.570
828.2349, 3846.067
828.7170, 3865.543
829.1992, 3865.923
829.6813, 3855.966
830.1633, 3841.699
830.6454, 3826.882
831.1276, 3828.521
831.6097, 3848.347
832.0918, 3861.864
832.5739, 3850.795
833.0560, 3825.858
833.5381, 3819.318
834.0203, 3842.276
834.5024, 3843.652
834.9845, 3799.967
835.4666, 3766.138
835.9487, 3779.069
836.4308, 3814.648
836.9130, 3840.231
837.3951, 3853.676
837.8772, 3858.511
838.3593, 3850.050
838.8414, 3838.735
839.3235, 3828.041
839.8057, 3819.874
840.2878, 3817.453
840.7699, 3820.846
841.2520, 3824.945
841.7341, 3825.458
842.2162, 3824.216
842.6984, 3826.061
843.1805, 3829.652
843.6626, 3826.011
844.1447, 3812.774
844.6268, 3802.013
845.1089, 3805.347
845.5911, 3818.231
846.0732, 3817.943
846.5553, 3794.331
847.0374, 3785.850
847.5195, 3811.115
848.0016, 3833.600
848.4838, 3827.313
848.9659, 3805.027
849.4480, 3791.049
849.9301, 3788.951
850.4122, 3789.994
850.8943, 3798.943
851.3765, 3803.350
851.8586, 3784.529
852.3407, 3758.646
852.8228, 3758.567
853.3049, 3791.138
853.7870, 3822.018
854.2692, 3814.361
854.7513, 3788.346
855.2334, 3782.347
855.7155, 3792.612
856.1976, 3801.680
856.6797, 3804.903
857.1619, 3804.802
857.6440, 3804.509
858.1261, 3802.211
858.6082, 3751.383
859.0903, 3789.240
859.5724, 3809.989
860.0546, 3814.551
860.5367, 3754.440
861.0188, 3777.840
861.5009, 3767.773
861.9830, 3756.334
862.4651, 3791.488
862.9473, 3740.783
863.4294, 3775.198
863.9115, 3775.635
864.3936, 3791.623
864.8757, 3773.938
865.3578, 3766.652
865.8400, 3793.051
866.3221, 3800.799
866.8042, 3779.237
867.2863, 3796.213
867.7684, 3744.333
868.2505, 3752.875
868.7327, 3787.487
869.2148, 3767.618
869.6969, 3785.210
870.1790, 3788.534
870.6611, 3727.020
871.1432, 3778.267
871.6254, 3780.748
872.1075, 3753.197
872.5896, 3742.429
873.0717, 3736.938
873.5538, 3751.582
874.0359, 3777.313
874.5181, 3789.057
875.0002, 3779.828
875.4823, 3771.911
875.9644, 3764.830
876.4465, 3759.749
876.9286, 3757.967
877.4108, 3758.040
877.8929, 3758.767
878.3750, 3759.816
878.8571, 3759.517
879.3392, 3752.310
879.8214, 3748.167
880.3035, 3763.904
880.7856, 3784.360
881.2677, 3781.697
881.7498, 3754.933
882.2319, 3725.049
882.7141, 3704.509
883.1962, 3694.985
883.6783, 3706.948
884.1604, 3735.243
884.6425, 3741.678
885.1246, 3720.588
885.6068, 3708.060
886.0889, 3726.162
886.5710, 3756.853
887.0531, 3766.034
887.5352, 3750.066
888.0173, 3732.463
888.4995, 3707.706
888.9816, 3690.666
889.4637, 3688.633
889.9458, 3694.421
890.4279, 3702.235
890.9100, 3711.856
891.3922, 3721.784
891.8743, 3743.770
892.3564, 3750.522
892.8385, 3717.868
893.3206, 3679.117
893.8027, 3662.943
894.2849, 3666.474
894.7670, 3674.357
895.2491, 3681.178
895.7312, 3686.504
896.2133, 3692.224
896.6954, 3694.970
897.1776, 3685.653
897.6597, 3668.204
898.1418, 3656.652
898.6239, 3656.017
899.1060, 3663.784
899.5881, 3682.219
900.0703, 3704.800
900.5524, 3694.449
901.0345, 3648.786
901.5166, 3626.730
901.9987, 3647.117
902.4808, 3672.024
902.9630, 3669.477
903.4451, 3647.162
903.9272, 3637.544
904.4093, 3651.901
904.8914, 3655.343
905.3735, 3636.643
905.8557, 3619.391
906.3378, 3615.801
906.8199, 3618.525
907.3020, 3616.669
907.7841, 3608.668
908.2662, 3603.661
908.7484, 3605.828
909.2305, 3609.129
909.7126, 3613.128
910.1947, 3615.018
910.6768, 3609.292
911.1589, 3597.690
911.6411, 3589.840
912.1232, 3591.960
912.6053, 3597.271
913.0874, 3598.906
913.5695, 3599.077
914.0516, 3604.081
914.5338, 3612.140
915.0159, 3612.205
915.4980, 3599.036
915.9801, 3582.422
916.4622, 3576.797
916.9443, 3580.103
917.4265, 3576.301
917.9086, 3564.766
918.3907, 3564.616
918.8728, 3584.458
919.3549, 3605.016
919.8370, 3607.139
920.3192, 3593.604
920.8013, 3582.360
921.2834, 3572.288
921.7655, 3567.440
922.2476, 3572.886
922.7297, 3577.615
923.2119, 3575.683
923.6940, 3568.987
924.1761, 3559.287
924.6582, 3544.450
925.1403, 3536.364
925.6224, 3537.281
926.1046, 3544.506
926.5867, 3566.526
927.0688, 3587.977
927.5509, 3587.925
928.0330, 3568.716
928.5151, 3555.649
928.9973, 3564.623
929.4794, 3575.564
929.9615, 3572.245
930.4436, 3563.388
930.9257, 3562.230
931.4078, 3566.185
931.8900, 3560.913
932.3721, 3540.298
932.8542, 3521.027
933.3363, 3527.118
933.8184, 3547.370
934.3005, 3551.533
934.7827, 3541.484
935.2648, 3530.872
935.7469, 3523.448
936.2290, 3518.988
936.7111, 3517.326
937.1932, 3518.408
937.6754, 3523.653
938.1575, 3534.377
938.6396, 3536.281
939.1217, 3523.741
939.6038, 3516.802
940.0859, 3531.448
940.5681, 3551.743
941.0502, 3545.432
941.5323, 3503.039
942.0144, 3483.765
942.4965, 3509.034
942.9786, 3526.876
943.4608, 3519.712
943.9429, 3506.440
944.4250, 3503.076
944.9071, 3507.338
945.3892, 3506.406
945.8713, 3489.231
946.3535, 3482.820
946.8356, 3507.927
947.3177, 3532.512
947.7998, 3531.131
948.2819, 3515.106
948.7640, 3505.173
949.2462, 3506.279
949.7283, 3510.513
950.2104, 3518.282
950.6925, 3522.251
951.1746, 3507.356
951.6567, 3488.100
952.1389, 3493.329
952.6210, 3521.013
953.1031, 3541.740
953.5852, 3537.813
954.0673, 3522.489
954.5494, 3510.542
955.0316, 3501.740
955.5137, 3496.083
955.9958, 3493.166
956.4779, 3490.363
956.9600, 3486.697
957.4421, 3484.079
957.9243, 3485.309
958.4064, 3488.920
958.8885, 3486.529
959.3706, 3450.444
959.8527, 3489.363
960.3348, 3511.175
960.8170, 3516.799
961.2991, 3457.752
961.7812, 3482.214
962.2633, 3473.210
962.7454, 3462.833
963.2275, 3499.049
963.7097, 3449.408
964.1918, 3484.885
964.6739, 3486.385
965.1560, 3503.436
965.6381, 3486.812
966.1202, 3480.590
966.6024, 3508.052
967.0845, 3516.863
967.5666, 3496.363
968.0487, 3514.402
968.5308, 3463.584
969.0129, 3468.001
969.4951, 3455.682
969.9772, 3449.923
970.4593, 3452.954
970.9414, 3458.417
971.4235, 3468.726
971.9056, 3475.711
972.3878, 3474.048
972.8699, 3467.552
973.3520, 3456.731
973.8341, 3445.058
974.3162, 3443.085
974.7983, 3458.628
975.2805, 3471.990
975.7626, 3465.357
976.2447, 3450.466
976.7268, 3440.680
977.2089, 3434.332
977.6910, 3421.057
978.1732, 3400.440
978.6553, 3392.980
979.1374, 3421.925
979.6195, 3463.967
980.1016, 3482.025
980.5837, 3482.116
981.0659, 3481.688
981.5480, 3482.204
982.0301, 3474.351
982.5122, 3452.976
982.9943, 3428.598
983.4764, 3415.433
983.9586, 3412.823
984.4407, 3420.436
984.9228, 3438.058
985.4049, 3446.548
985.8870, 3440.421
986.3691, 3430.560
986.8513, 3425.433
987.3334, 3423.871
987.8155, 3421.103
988.2976, 3415.632
988.7797, 3421.027
989.2618, 3442.888
989.7440, 3458.663
990.2261, 3457.351
990.7082, 3449.052
991.1903, 3446.639
991.6724, 3449.852
992.1545, 3447.466
992.6367, 3436.901
993.1188, 3426.101
993.6009, 3418.143
994.0830, 3407.137
994.5651, 3381.781
995.0472, 3353.777
995.5294, 3348.364
996.0115, 3370.336
996.4936, 3393.449
996.9757, 3424.975
997.4578, 3446.833
997.9399, 3452.736
998.4221, 3448.274
998.9042, 3430.518
999.3863, 3406.221
999.8684, 3398.279
1000.351, 3420.613
1000.833, 3435.958
1001.315, 3430.168
1001.797, 3418.670
1002.279, 3402.915
1002.761, 3391.443
1003.243, 3400.580
1003.725, 3428.417
1004.207, 3444.760
1004.690, 3429.339
1005.172, 3409.391
1005.654, 3395.271
1006.136, 3388.643
1006.618, 3394.024
1007.100, 3407.762
1007.582, 3424.748
1008.064, 3442.886
1008.547, 3452.217
1009.029, 3436.880
1009.511, 3417.053
1009.993, 3416.595
1010.475, 3424.762
1010.957, 3423.770
1011.439, 3412.353
1011.921, 3395.946
1012.403, 3376.234
1012.886, 3364.589
1013.368, 3383.599
1013.850, 3413.867
1014.332, 3416.828
1014.814, 3399.883
1015.296, 3389.259
1015.778, 3391.160
1016.260, 3398.401
1016.742, 3406.847
1017.225, 3413.375
1017.707, 3410.915
1018.189, 3401.939
1018.671, 3393.926
1019.153, 3387.966
1019.635, 3389.191
1020.117, 3399.479
1020.599, 3406.492
1021.082, 3393.761
1021.564, 3372.223
1022.046, 3385.342
1022.528, 3429.461
1023.010, 3447.859
1023.492, 3432.314
1023.974, 3420.326
1024.456, 3432.360
1024.938, 3449.257
1025.421, 3440.135
1025.903, 3408.065
1026.385, 3392.224
1026.867, 3394.103
1027.349, 3399.262
1027.831, 3405.986
1028.313, 3410.275
1028.795, 3408.648
1029.278, 3404.311
1029.760, 3404.514
1030.242, 3409.781
1030.724, 3415.517
1031.206, 3401.105
1031.688, 3439.570
1032.170, 3460.927
1032.652, 3466.097
1033.135, 3406.593
1033.617, 3430.601
1034.099, 3421.142
1034.581, 3410.311
1035.063, 3446.072
1035.545, 3395.976
1036.027, 3430.999
1036.509, 3432.044
1036.991, 3448.640
1037.474, 3431.561
1037.956, 3424.884
1038.438, 3451.891
1038.920, 3460.247
1039.402, 3439.293
1039.884, 3456.877
1040.366, 3405.605
1040.848, 3414.755
1041.330, 3449.975
1041.813, 3430.713
1042.295, 3448.913
1042.777, 3452.845
1043.259, 3391.939
1043.741, 3422.563
1044.223, 3417.185
1044.705, 3411.240
1045.187, 3419.102
1045.670, 3432.414
1046.152, 3436.563
1046.634, 3430.150
1047.116, 3421.170
1047.598, 3404.066
1048.080, 3392.938
1048.562, 3394.974
1049.044, 3400.227
1049.526, 3400.502
1050.009, 3370.884
1050.491, 3409.970
1050.973, 3432.193
1051.455, 3438.470
1051.937, 3380.318
1052.419, 3405.918
1052.901, 3398.294
1053.383, 3389.541
1053.865, 3427.622
1054.348, 3380.093
1054.830, 3417.920
1055.312, 3422.013
1055.794, 3441.899
1056.276, 3428.354
1056.758, 3425.452
1057.240, 3456.477
1057.722, 3469.093
1058.205, 3452.648
1058.687, 3474.979
1059.169, 3428.694
1059.651, 3443.075
1060.133, 3483.768
1060.615, 3470.221
1061.097, 3494.380
1061.579, 3504.512
1062.062, 3450.061
1062.544, 3508.601
1063.026, 3518.619
1063.508, 3478.808
1063.990, 3534.211
1064.472, 3501.788
1064.954, 3501.042
1065.436, 3524.197
1065.918, 3522.930
1066.401, 3560.808
1066.883, 3561.453
1067.365, 3538.778
1067.847, 3535.298
1068.329, 3533.430
1068.811, 3535.490
1069.293, 3543.154
1069.775, 3554.479
1070.257, 3571.318
1070.740, 3589.234
1071.222, 3598.763
1071.704, 3599.555
1072.186, 3607.900
1072.668, 3641.215
1073.150, 3669.766
1073.632, 3670.546
1074.114, 3668.797
1074.597, 3684.999
1075.079, 3715.157
1075.561, 3753.792
1076.043, 3798.575
1076.525, 3829.921
1077.007, 3822.254
1077.489, 3820.648
1077.971, 3852.766
1078.453, 3896.659
1078.936, 3936.509
1079.418, 3970.958
1079.900, 3999.533
1080.382, 4022.216
1080.864, 4049.860
1081.346, 4082.912
1081.828, 4127.488
1082.310, 4202.328
1082.792, 4276.884
1083.275, 4313.791
1083.757, 4328.684
1084.239, 4361.889
1084.721, 4423.798
1085.203, 4481.103
1085.685, 4522.208
1086.167, 4551.532
1086.649, 4567.405
1087.131, 4576.043
1087.614, 4585.517
1088.096, 4592.137
1088.578, 4584.440
1089.060, 4558.697
1089.542, 4533.115
1090.024, 4519.072
1090.506, 4502.024
1090.988, 4472.409
1091.471, 4437.843
1091.953, 4403.568
1092.435, 4371.051
1092.917, 4343.616
1093.399, 4322.980
1093.881, 4298.314
1094.363, 4261.871
1094.845, 4225.052
1095.328, 4190.377
1095.810, 4160.264
1096.292, 4138.485
1096.774, 4122.766
1097.256, 4106.626
1097.738, 4087.557
1098.220, 4076.471
1098.702, 4081.273
1099.184, 4089.229
1099.667, 4089.697
1100.149, 4095.443
1100.631, 4125.499
1101.113, 4168.633
1101.595, 4195.657
1102.077, 4199.124
1102.559, 4200.502
1103.041, 4190.583
1103.523, 4198.419
1104.006, 4248.887
1104.488, 4308.899
1104.970, 4352.457
1105.452, 4382.937
1105.934, 4411.732
1106.416, 4439.369
1106.898, 4470.940
1107.380, 4519.051
1107.863, 4555.534
1108.345, 4575.304
1108.827, 4577.158
1109.309, 4552.291
1109.791, 4510.636
1110.273, 4478.033
1110.755, 4463.757
1111.237, 4422.761
1111.719, 4329.997
1112.202, 4239.170
1112.684, 4165.511
1113.166, 4094.471
1113.648, 4008.229
1114.130, 3918.593
1114.612, 3855.116
1115.094, 3825.190
1115.576, 3789.202
1116.058, 3741.945
1116.541, 3696.247
1117.023, 3651.425
1117.505, 3612.091
1117.987, 3583.025
1118.469, 3560.281
1118.951, 3534.406
1119.433, 3502.470
1119.915, 3490.324
1120.398, 3513.454
1120.880, 3523.506
1121.362, 3506.642
1121.844, 3485.329
1122.326, 3472.143
1122.808, 3463.737
1123.290, 3454.527
1123.772, 3444.526
1124.255, 3433.775
1124.737, 3421.714
1125.219, 3410.601
1125.701, 3400.261
1126.183, 3391.691
1126.665, 3384.047
1127.147, 3381.420
1127.629, 3391.666
1128.111, 3413.784
1128.594, 3429.879
1129.076, 3440.227
1129.558, 3442.302
1130.040, 3435.206
1130.522, 3421.190
1131.004, 3398.979
1131.486, 3380.952
1131.968, 3386.277
1132.450, 3408.827
1132.933, 3414.124
1133.415, 3402.268
1133.897, 3384.636
1134.379, 3362.343
1134.861, 3322.777
1135.343, 3360.748
1135.825, 3381.612
1136.307, 3386.287
1136.790, 3326.289
1137.272, 3349.804
1137.754, 3339.851
1138.236, 3328.526
1138.718, 3363.794
1139.200, 3313.205
1139.682, 3347.734
1140.164, 3348.286
1140.646, 3364.388
1141.129, 3346.814
1141.611, 3339.643
1142.093, 3366.157
1142.575, 3374.020
1143.057, 3352.572
1143.539, 3369.663
1144.021, 3317.897
1144.503, 3326.553
1144.985, 3361.280
1145.468, 3341.523
1145.950, 3359.230
1146.432, 3356.312
1146.914, 3357.329
1147.396, 3336.347
1147.878, 3324.897
1148.360, 3328.548
1148.842, 3338.218
1149.325, 3352.115
1149.807, 3358.383
1150.289, 3338.143
1150.771, 3315.399
1151.253, 3314.524
1151.735, 3324.591
1152.217, 3328.617
1152.699, 3326.867
1153.182, 3330.594
1153.664, 3345.266
1154.146, 3356.250
1154.628, 3359.937
1155.110, 3353.905
1155.592, 3319.953
1156.074, 3289.577
1156.556, 3302.989
1157.038, 3343.933
1157.521, 3365.771
1158.003, 3357.889
1158.485, 3349.327
1158.967, 3342.266
1159.449, 3340.686
1159.931, 3347.559
1160.413, 3358.381
1160.895, 3378.306
1161.377, 3396.922
1161.860, 3392.238
1162.342, 3361.327
1162.824, 3338.094
1163.306, 3323.835
1163.788, 3315.364
1164.270, 3316.888
1164.752, 3287.235
1165.234, 3327.432
1165.717, 3350.525
1166.199, 3357.428
1166.681, 3299.659
1167.163, 3325.400
1167.645, 3317.674
1168.127, 3308.575
1168.609, 3346.070
1169.091, 3297.707
1169.573, 3334.463
1170.056, 3337.244
1170.538, 3355.573
1171.020, 3340.228
1171.502, 3335.284
1171.984, 3364.024
1172.466, 3374.113
1172.948, 3354.892
1173.430, 3374.210
1173.912, 3324.671
1174.395, 3335.557
1174.877, 3372.510
1175.359, 3325.296
1175.841, 3329.123
1176.323, 3344.070
1176.805, 3352.794
1177.287, 3354.765
1177.769, 3345.242
1178.252, 3327.400
1178.734, 3319.651
1179.216, 3330.932
1179.698, 3342.262
1180.180, 3331.956
1180.662, 3316.174
1181.144, 3314.386
1181.626, 3318.140
1182.109, 3313.097
1182.591, 3303.136
1183.073, 3302.094
1183.555, 3313.238
1184.037, 3325.073
1184.519, 3335.686
1185.001, 3339.990
1185.483, 3326.326
1185.965, 3314.516
1186.448, 3324.795
1186.930, 3344.137
1187.412, 3352.503
1187.894, 3348.706
1188.376, 3343.675
1188.858, 3337.273
1189.340, 3333.598
1189.822, 3331.507
1190.304, 3334.342
1190.787, 3350.128
1191.269, 3365.321
1191.751, 3367.864
1192.233, 3360.460
1192.715, 3350.628
1193.197, 3335.269
1193.679, 3332.460
1194.161, 3347.280
1194.644, 3359.411
1195.126, 3364.038
1195.608, 3367.000
1196.090, 3372.121
1196.572, 3377.640
1197.054, 3382.483
1197.536, 3384.977
1198.018, 3364.271
1198.500, 3322.526
1198.983, 3312.656
1199.465, 3339.580
1199.947, 3364.857
1200.429, 3372.737
1200.911, 3371.992
1201.393, 3369.985
1201.875, 3367.769
1202.357, 3369.005
1202.839, 3370.712
1203.322, 3363.134
1203.804, 3350.627
1204.286, 3346.818
1204.768, 3353.999
1205.250, 3365.827
1205.732, 3380.807
1206.214, 3390.803
1206.696, 3382.668
1207.179, 3373.761
1207.661, 3385.840
1208.143, 3401.848
1208.625, 3395.437
1209.107, 3373.310
1209.589, 3360.685
1210.071, 3363.584
1210.553, 3374.856
1211.036, 3407.728
1211.518, 3427.299
1212.000, 3414.355
1212.482, 3394.073
1212.964, 3375.982
1213.446, 3364.644
1213.928, 3369.998
1214.410, 3390.752
1214.892, 3396.260
1215.375, 3379.064
1215.857, 3366.133
1216.339, 3357.443
1216.821, 3358.197
1217.303, 3373.008
1217.785, 3389.622
1218.267, 3397.821
1218.749, 3398.289
1219.231, 3389.235
1219.714, 3372.049
1220.196, 3369.417
1220.678, 3380.104
1221.160, 3388.144
1221.642, 3390.832
1222.124, 3396.224
1222.606, 3408.711
1223.088, 3418.989
1223.571, 3412.665
1224.053, 3401.497
1224.535, 3411.570
1225.017, 3425.767
1225.499, 3404.797
1225.981, 3363.784
1226.463, 3349.885
1226.945, 3371.998
1227.427, 3398.186
1227.910, 3417.915
1228.392, 3425.929
1228.874, 3409.004
1229.356, 3390.958
1229.838, 3390.759
1230.320, 3395.748
1230.802, 3385.195
1231.284, 3366.134
1231.766, 3370.640
1232.249, 3415.199
1232.731, 3434.575
1233.213, 3404.859
1233.695, 3390.289
1234.177, 3414.646
1234.659, 3430.889
1235.141, 3406.409
1235.623, 3370.798
1236.106, 3367.942
1236.588, 3392.104
1237.070, 3403.453
1237.552, 3401.591
1238.034, 3409.379
1238.516, 3428.127
1238.998, 3435.484
1239.480, 3424.699
1239.963, 3405.524
1240.445, 3383.389
1240.927, 3367.774
1241.409, 3381.089
1241.891, 3405.391
1242.373, 3401.164
1242.855, 3384.324
1243.337, 3398.433
1243.819, 3433.753
1244.302, 3435.728
1244.784, 3386.184
1245.266, 3344.120
1245.748, 3348.106
1246.230, 3362.298
1246.712, 3369.235
1247.194, 3378.355
1247.676, 3406.604
1248.158, 3435.353
1248.641, 3430.889
1249.123, 3398.099
1249.605, 3389.767
1250.087, 3424.846
1250.569, 3444.059
1251.051, 3442.326
1251.533, 3433.948
1252.015, 3416.576
1252.498, 3408.940
1252.980, 3427.893
1253.462, 3452.281
1253.944, 3443.052
1254.426, 3408.263
1254.908, 3400.999
1255.390, 3418.191
1255.872, 3430.491
1256.354, 3436.230
1256.837, 3450.547
1257.319, 3476.914
1257.801, 3494.457
1258.283, 3486.271
1258.765, 3467.433
1259.247, 3452.512
1259.729, 3439.103
1260.211, 3419.954
1260.693, 3402.966
1261.176, 3402.500
1261.658, 3415.371
1262.140, 3427.298
1262.622, 3434.319
1263.104, 3444.749
1263.586, 3473.243
1264.068, 3487.835
1264.550, 3468.793
1265.033, 3446.546
1265.515, 3435.152
1265.997, 3430.619
1266.479, 3429.774
1266.961, 3431.722
1267.443, 3431.375
1267.925, 3426.393
1268.407, 3437.016
1268.890, 3466.508
1269.372, 3475.376
1269.854, 3454.138
1270.336, 3435.858
1270.818, 3439.411
1271.300, 3450.782
1271.782, 3454.410
1272.264, 3452.149
1272.746, 3444.713
1273.229, 3435.632
1273.711, 3431.343
1274.193, 3431.641
1274.675, 3435.137
1275.157, 3441.009
1275.639, 3449.146
1276.121, 3463.983
1276.603, 3464.920
1277.085, 3421.583
1277.568, 3388.045
1278.050, 3401.696
1278.532, 3426.582
1279.014, 3436.315
1279.496, 3433.475
1279.978, 3422.055
1280.460, 3402.383
1280.942, 3405.439
1281.425, 3443.160
1281.907, 3456.995
1282.389, 3438.058
1282.871, 3423.749
1283.353, 3426.672
1283.835, 3429.778
1284.317, 3419.079
1284.799, 3405.501
1285.281, 3406.391
1285.764, 3418.915
1286.246, 3443.240
1286.728, 3470.421
1287.210, 3478.231
1287.692, 3468.781
1288.174, 3455.321
1288.656, 3441.397
##END=



