##NAMES=Strontioginorite
##RRUFFID=R110149
##IDEAL CHEMISTRY=SrCaB_14_O_20_(OH)_6_&#183;5H_2_O
##LOCALITY=Potash Corporation of Saskatchewan mine, Penobsquis, Kings County, New Brunswick, Canada
##OWNER=RRUFF
##SOURCE=Donald M Doell and Brian Roulston
##DESCRIPTION=Colorless elongated tetragonal prisms, extracted by dissolving the matrix of sylvite/halite, associated with howlite R110150, volkovskite R110151, ruitenbergite R110152, congolite R110153, and hilgardite
##STATUS=The identification of this mineral has been confirmed by single-crystal X-ray diffraction.
##URL=rruff.info/R110149
9.112140e+001, 0.000000e+000
9.160352e+001, 1.266044e+004
9.208563e+001, 1.230268e+004
9.256775e+001, 1.226141e+004
9.304987e+001, 1.271734e+004
9.353198e+001, 1.324837e+004
9.401410e+001, 1.357000e+004
9.449622e+001, 1.370411e+004
9.497833e+001, 1.374417e+004
9.546045e+001, 1.376337e+004
9.594257e+001, 1.376125e+004
9.642468e+001, 1.374071e+004
9.690680e+001, 1.370894e+004
9.738892e+001, 1.367429e+004
9.787103e+001, 1.364195e+004
9.835315e+001, 1.359518e+004
9.883527e+001, 1.352245e+004
9.931738e+001, 1.344940e+004
9.979950e+001, 1.337802e+004
1.002816e+002, 1.331773e+004
1.007637e+002, 1.326392e+004
1.012458e+002, 1.321667e+004
1.017280e+002, 1.317573e+004
1.022101e+002, 1.313972e+004
1.026922e+002, 1.311081e+004
1.031743e+002, 1.309498e+004
1.036564e+002, 1.309100e+004
1.041385e+002, 1.308640e+004
1.046207e+002, 1.307262e+004
1.051028e+002, 1.305294e+004
1.055849e+002, 1.303984e+004
1.060670e+002, 1.303818e+004
1.065491e+002, 1.303870e+004
1.070313e+002, 1.303148e+004
1.075134e+002, 1.301487e+004
1.079955e+002, 1.299499e+004
1.084776e+002, 1.297665e+004
1.089597e+002, 1.295867e+004
1.094418e+002, 1.294529e+004
1.099240e+002, 1.294146e+004
1.104061e+002, 1.293996e+004
1.108882e+002, 1.293475e+004
1.113703e+002, 1.292316e+004
1.118524e+002, 1.290866e+004
1.123345e+002, 1.290112e+004
1.128167e+002, 1.290846e+004
1.132988e+002, 1.291256e+004
1.137809e+002, 1.290883e+004
1.142630e+002, 1.290077e+004
1.147451e+002, 1.289266e+004
1.152272e+002, 1.288711e+004
1.157094e+002, 1.288399e+004
1.161915e+002, 1.288274e+004
1.166736e+002, 1.289051e+004
1.171557e+002, 1.289275e+004
1.176378e+002, 1.288066e+004
1.181199e+002, 1.285718e+004
1.186021e+002, 1.283306e+004
1.190842e+002, 1.281711e+004
1.195663e+002, 1.281019e+004
1.200484e+002, 1.280350e+004
1.205305e+002, 1.279846e+004
1.210126e+002, 1.279253e+004
1.214948e+002, 1.278261e+004
1.219769e+002, 1.276787e+004
1.224590e+002, 1.275244e+004
1.229411e+002, 1.274085e+004
1.234232e+002, 1.273212e+004
1.239053e+002, 1.272376e+004
1.243875e+002, 1.271411e+004
1.248696e+002, 1.270416e+004
1.253517e+002, 1.269711e+004
1.258338e+002, 1.269499e+004
1.263159e+002, 1.269363e+004
1.267980e+002, 1.268948e+004
1.272802e+002, 1.268315e+004
1.277623e+002, 1.267744e+004
1.282444e+002, 1.267503e+004
1.287265e+002, 1.267633e+004
1.292086e+002, 1.267697e+004
1.296907e+002, 1.267562e+004
1.301729e+002, 1.267427e+004
1.306550e+002, 1.267419e+004
1.311371e+002, 1.267538e+004
1.316192e+002, 1.267666e+004
1.321013e+002, 1.267637e+004
1.325834e+002, 1.267400e+004
1.330656e+002, 1.267099e+004
1.335477e+002, 1.266603e+004
1.340298e+002, 1.266141e+004
1.345119e+002, 1.265976e+004
1.349940e+002, 1.266180e+004
1.354761e+002, 1.266511e+004
1.359583e+002, 1.266404e+004
1.364404e+002, 1.264978e+004
1.369225e+002, 1.264224e+004
1.374046e+002, 1.264659e+004
1.378867e+002, 1.265751e+004
1.383688e+002, 1.266761e+004
1.388510e+002, 1.267353e+004
1.393331e+002, 1.267644e+004
1.398152e+002, 1.267993e+004
1.402973e+002, 1.268289e+004
1.407794e+002, 1.268759e+004
1.412615e+002, 1.269689e+004
1.417437e+002, 1.270947e+004
1.422258e+002, 1.271950e+004
1.427079e+002, 1.272273e+004
1.431900e+002, 1.272168e+004
1.436721e+002, 1.272215e+004
1.441542e+002, 1.272381e+004
1.446364e+002, 1.272770e+004
1.451185e+002, 1.273724e+004
1.456006e+002, 1.275415e+004
1.460827e+002, 1.276623e+004
1.465648e+002, 1.276301e+004
1.470469e+002, 1.275291e+004
1.475291e+002, 1.274417e+004
1.480112e+002, 1.274080e+004
1.484933e+002, 1.273941e+004
1.489754e+002, 1.273170e+004
1.494575e+002, 1.271320e+004
1.499396e+002, 1.269594e+004
1.504218e+002, 1.268446e+004
1.509039e+002, 1.267617e+004
1.513860e+002, 1.266757e+004
1.518681e+002, 1.265621e+004
1.523502e+002, 1.264265e+004
1.528323e+002, 1.263243e+004
1.533145e+002, 1.263028e+004
1.537966e+002, 1.262699e+004
1.542787e+002, 1.261954e+004
1.547608e+002, 1.260939e+004
1.552429e+002, 1.259952e+004
1.557250e+002, 1.259209e+004
1.562072e+002, 1.258713e+004
1.566893e+002, 1.258397e+004
1.571714e+002, 1.258496e+004
1.576535e+002, 1.258506e+004
1.581356e+002, 1.258124e+004
1.586177e+002, 1.257406e+004
1.590999e+002, 1.256693e+004
1.595820e+002, 1.256342e+004
1.600641e+002, 1.256442e+004
1.605462e+002, 1.256124e+004
1.610283e+002, 1.254899e+004
1.615104e+002, 1.253613e+004
1.619926e+002, 1.253033e+004
1.624747e+002, 1.253254e+004
1.629568e+002, 1.253577e+004
1.634389e+002, 1.253206e+004
1.639210e+002, 1.252185e+004
1.644031e+002, 1.251288e+004
1.648853e+002, 1.250681e+004
1.653674e+002, 1.250269e+004
1.658495e+002, 1.249905e+004
1.663316e+002, 1.249543e+004
1.668137e+002, 1.249317e+004
1.672958e+002, 1.249410e+004
1.677780e+002, 1.249755e+004
1.682601e+002, 1.250142e+004
1.687422e+002, 1.250610e+004
1.692243e+002, 1.251076e+004
1.697064e+002, 1.251121e+004
1.701885e+002, 1.250285e+004
1.706707e+002, 1.249560e+004
1.711528e+002, 1.249620e+004
1.716349e+002, 1.250353e+004
1.721170e+002, 1.251250e+004
1.725991e+002, 1.251999e+004
1.730812e+002, 1.252606e+004
1.735634e+002, 1.252969e+004
1.740455e+002, 1.252373e+004
1.745276e+002, 1.252110e+004
1.750097e+002, 1.252968e+004
1.754918e+002, 1.254810e+004
1.759739e+002, 1.256829e+004
1.764561e+002, 1.258100e+004
1.769382e+002, 1.258353e+004
1.774203e+002, 1.258769e+004
1.779024e+002, 1.259408e+004
1.783845e+002, 1.260130e+004
1.788666e+002, 1.260965e+004
1.793488e+002, 1.261855e+004
1.798309e+002, 1.262624e+004
1.803130e+002, 1.262983e+004
1.807951e+002, 1.262633e+004
1.812772e+002, 1.262542e+004
1.817593e+002, 1.262908e+004
1.822415e+002, 1.263374e+004
1.827236e+002, 1.263695e+004
1.832057e+002, 1.263813e+004
1.836878e+002, 1.263802e+004
1.841699e+002, 1.263770e+004
1.846520e+002, 1.263704e+004
1.851342e+002, 1.263670e+004
1.856163e+002, 1.263850e+004
1.860984e+002, 1.263998e+004
1.865805e+002, 1.263777e+004
1.870626e+002, 1.263074e+004
1.875447e+002, 1.262198e+004
1.880269e+002, 1.261694e+004
1.885090e+002, 1.261642e+004
1.889911e+002, 1.261549e+004
1.894732e+002, 1.261192e+004
1.899553e+002, 1.260737e+004
1.904374e+002, 1.260532e+004
1.909196e+002, 1.260751e+004
1.914017e+002, 1.261060e+004
1.918838e+002, 1.260914e+004
1.923659e+002, 1.260280e+004
1.928480e+002, 1.259697e+004
1.933301e+002, 1.259595e+004
1.938123e+002, 1.259780e+004
1.942944e+002, 1.259471e+004
1.947765e+002, 1.258150e+004
1.952586e+002, 1.256643e+004
1.957407e+002, 1.255873e+004
1.962228e+002, 1.255851e+004
1.967050e+002, 1.255898e+004
1.971871e+002, 1.255504e+004
1.976692e+002, 1.254692e+004
1.981513e+002, 1.253929e+004
1.986334e+002, 1.253372e+004
1.991155e+002, 1.252847e+004
1.995977e+002, 1.252222e+004
2.000798e+002, 1.251498e+004
2.005619e+002, 1.250796e+004
2.010440e+002, 1.250166e+004
2.015261e+002, 1.249567e+004
2.020082e+002, 1.249328e+004
2.024904e+002, 1.250119e+004
2.029725e+002, 1.250844e+004
2.034546e+002, 1.250799e+004
2.039367e+002, 1.249972e+004
2.044188e+002, 1.248990e+004
2.049009e+002, 1.248659e+004
2.053831e+002, 1.249217e+004
2.058652e+002, 1.249708e+004
2.063473e+002, 1.250291e+004
2.068294e+002, 1.250659e+004
2.073115e+002, 1.250528e+004
2.077936e+002, 1.249901e+004
2.082758e+002, 1.249078e+004
2.087579e+002, 1.248488e+004
2.092400e+002, 1.248278e+004
2.097221e+002, 1.247981e+004
2.102042e+002, 1.247584e+004
2.106863e+002, 1.247126e+004
2.111685e+002, 1.246683e+004
2.116506e+002, 1.246245e+004
2.121327e+002, 1.245669e+004
2.126148e+002, 1.244683e+004
2.130969e+002, 1.242770e+004
2.135790e+002, 1.241617e+004
2.140612e+002, 1.241738e+004
2.145433e+002, 1.242238e+004
2.150254e+002, 1.242448e+004
2.155075e+002, 1.242202e+004
2.159896e+002, 1.241711e+004
2.164717e+002, 1.241264e+004
2.169539e+002, 1.240888e+004
2.174360e+002, 1.240489e+004
2.179181e+002, 1.240134e+004
2.184002e+002, 1.239719e+004
2.188823e+002, 1.239038e+004
2.193644e+002, 1.238039e+004
2.198466e+002, 1.237066e+004
2.203287e+002, 1.236622e+004
2.208108e+002, 1.236790e+004
2.212929e+002, 1.237006e+004
2.217750e+002, 1.237425e+004
2.222571e+002, 1.237774e+004
2.227393e+002, 1.237654e+004
2.232214e+002, 1.236946e+004
2.237035e+002, 1.236003e+004
2.241856e+002, 1.235200e+004
2.246677e+002, 1.234525e+004
2.251498e+002, 1.233983e+004
2.256320e+002, 1.233791e+004
2.261141e+002, 1.233684e+004
2.265962e+002, 1.233149e+004
2.270783e+002, 1.231985e+004
2.275604e+002, 1.230747e+004
2.280425e+002, 1.230052e+004
2.285247e+002, 1.229781e+004
2.290068e+002, 1.229467e+004
2.294889e+002, 1.228927e+004
2.299710e+002, 1.228223e+004
2.304531e+002, 1.227464e+004
2.309352e+002, 1.226620e+004
2.314174e+002, 1.225812e+004
2.318995e+002, 1.225159e+004
2.323816e+002, 1.224617e+004
2.328637e+002, 1.224072e+004
2.333458e+002, 1.223349e+004
2.338279e+002, 1.222567e+004
2.343101e+002, 1.222147e+004
2.347922e+002, 1.222292e+004
2.352743e+002, 1.222484e+004
2.357564e+002, 1.222289e+004
2.362385e+002, 1.221914e+004
2.367206e+002, 1.221801e+004
2.372028e+002, 1.222414e+004
2.376849e+002, 1.223503e+004
2.381670e+002, 1.223963e+004
2.386491e+002, 1.223416e+004
2.391312e+002, 1.222766e+004
2.396133e+002, 1.222478e+004
2.400955e+002, 1.222351e+004
2.405776e+002, 1.221999e+004
2.410597e+002, 1.221083e+004
2.415418e+002, 1.219790e+004
2.420239e+002, 1.219063e+004
2.425060e+002, 1.219230e+004
2.429882e+002, 1.219563e+004
2.434703e+002, 1.219933e+004
2.439524e+002, 1.220292e+004
2.444345e+002, 1.220588e+004
2.449166e+002, 1.220791e+004
2.453987e+002, 1.220904e+004
2.458809e+002, 1.220933e+004
2.463630e+002, 1.220692e+004
2.468451e+002, 1.220612e+004
2.473272e+002, 1.220935e+004
2.478093e+002, 1.221416e+004
2.482914e+002, 1.221732e+004
2.487736e+002, 1.221701e+004
2.492557e+002, 1.221405e+004
2.497378e+002, 1.221177e+004
2.502199e+002, 1.220978e+004
2.507020e+002, 1.220913e+004
2.511841e+002, 1.221377e+004
2.516663e+002, 1.221859e+004
2.521484e+002, 1.221652e+004
2.526305e+002, 1.220401e+004
2.531126e+002, 1.218505e+004
2.535947e+002, 1.217180e+004
2.540768e+002, 1.216984e+004
2.545590e+002, 1.216772e+004
2.550411e+002, 1.216738e+004
2.555232e+002, 1.216554e+004
2.560053e+002, 1.215757e+004
2.564874e+002, 1.214158e+004
2.569695e+002, 1.212114e+004
2.574517e+002, 1.210486e+004
2.579338e+002, 1.209612e+004
2.584159e+002, 1.208790e+004
2.588980e+002, 1.207884e+004
2.593801e+002, 1.207078e+004
2.598622e+002, 1.206675e+004
2.603444e+002, 1.206764e+004
2.608265e+002, 1.206982e+004
2.613086e+002, 1.206627e+004
2.617907e+002, 1.205001e+004
2.622728e+002, 1.203879e+004
2.627549e+002, 1.203568e+004
2.632371e+002, 1.203616e+004
2.637192e+002, 1.203656e+004
2.642013e+002, 1.203574e+004
2.646834e+002, 1.203341e+004
2.651655e+002, 1.202886e+004
2.656476e+002, 1.202068e+004
2.661298e+002, 1.201379e+004
2.666119e+002, 1.200985e+004
2.670940e+002, 1.200643e+004
2.675761e+002, 1.200053e+004
2.680582e+002, 1.199170e+004
2.685403e+002, 1.198358e+004
2.690225e+002, 1.198119e+004
2.695046e+002, 1.198676e+004
2.699867e+002, 1.198767e+004
2.704688e+002, 1.198114e+004
2.709509e+002, 1.197148e+004
2.714330e+002, 1.196121e+004
2.719152e+002, 1.195089e+004
2.723973e+002, 1.194212e+004
2.728794e+002, 1.193633e+004
2.733615e+002, 1.193391e+004
2.738436e+002, 1.193386e+004
2.743257e+002, 1.193792e+004
2.748079e+002, 1.194302e+004
2.752900e+002, 1.194802e+004
2.757721e+002, 1.195251e+004
2.762542e+002, 1.195363e+004
2.767363e+002, 1.194821e+004
2.772184e+002, 1.193680e+004
2.777006e+002, 1.192714e+004
2.781827e+002, 1.191904e+004
2.786648e+002, 1.191288e+004
2.791469e+002, 1.191001e+004
2.796290e+002, 1.190998e+004
2.801111e+002, 1.190938e+004
2.805933e+002, 1.190575e+004
2.810754e+002, 1.190014e+004
2.815575e+002, 1.189630e+004
2.820396e+002, 1.189547e+004
2.825217e+002, 1.189497e+004
2.830038e+002, 1.189413e+004
2.834860e+002, 1.189263e+004
2.839681e+002, 1.188815e+004
2.844502e+002, 1.187803e+004
2.849323e+002, 1.186564e+004
2.854144e+002, 1.185777e+004
2.858965e+002, 1.185511e+004
2.863787e+002, 1.185491e+004
2.868608e+002, 1.185704e+004
2.873429e+002, 1.186074e+004
2.878250e+002, 1.186321e+004
2.883071e+002, 1.186346e+004
2.887892e+002, 1.186211e+004
2.892714e+002, 1.186003e+004
2.897535e+002, 1.185713e+004
2.902356e+002, 1.185408e+004
2.907177e+002, 1.185189e+004
2.911998e+002, 1.184978e+004
2.916819e+002, 1.184484e+004
2.921641e+002, 1.183489e+004
2.926462e+002, 1.182509e+004
2.931283e+002, 1.182212e+004
2.936104e+002, 1.182509e+004
2.940925e+002, 1.182758e+004
2.945746e+002, 1.182678e+004
2.950568e+002, 1.182381e+004
2.955389e+002, 1.182102e+004
2.960210e+002, 1.181886e+004
2.965031e+002, 1.181627e+004
2.969852e+002, 1.181122e+004
2.974673e+002, 1.180476e+004
2.979495e+002, 1.179997e+004
2.984316e+002, 1.179974e+004
2.989137e+002, 1.180101e+004
2.993958e+002, 1.179884e+004
2.998779e+002, 1.179253e+004
3.003600e+002, 1.178566e+004
3.008422e+002, 1.177986e+004
3.013243e+002, 1.177523e+004
3.018064e+002, 1.177244e+004
3.022885e+002, 1.177306e+004
3.027706e+002, 1.177417e+004
3.032527e+002, 1.177246e+004
3.037349e+002, 1.176783e+004
3.042170e+002, 1.176182e+004
3.046991e+002, 1.175317e+004
3.051812e+002, 1.174459e+004
3.056633e+002, 1.173985e+004
3.061454e+002, 1.174001e+004
3.066276e+002, 1.174264e+004
3.071097e+002, 1.174737e+004
3.075918e+002, 1.175393e+004
3.080739e+002, 1.175649e+004
3.085560e+002, 1.174987e+004
3.090381e+002, 1.174125e+004
3.095203e+002, 1.173951e+004
3.100024e+002, 1.174551e+004
3.104845e+002, 1.175129e+004
3.109666e+002, 1.175106e+004
3.114487e+002, 1.174582e+004
3.119308e+002, 1.174031e+004
3.124130e+002, 1.173490e+004
3.128951e+002, 1.173017e+004
3.133772e+002, 1.172743e+004
3.138593e+002, 1.172621e+004
3.143414e+002, 1.172352e+004
3.148235e+002, 1.171575e+004
3.153057e+002, 1.170546e+004
3.157878e+002, 1.170036e+004
3.162699e+002, 1.170382e+004
3.167520e+002, 1.170584e+004
3.172341e+002, 1.169562e+004
3.177162e+002, 1.167841e+004
3.181984e+002, 1.166554e+004
3.186805e+002, 1.166310e+004
3.191626e+002, 1.166652e+004
3.196447e+002, 1.166902e+004
3.201268e+002, 1.167052e+004
3.206089e+002, 1.167186e+004
3.210911e+002, 1.167547e+004
3.215732e+002, 1.167867e+004
3.220553e+002, 1.167674e+004
3.225374e+002, 1.166616e+004
3.230195e+002, 1.165451e+004
3.235016e+002, 1.165160e+004
3.239838e+002, 1.165751e+004
3.244659e+002, 1.165888e+004
3.249480e+002, 1.164598e+004
3.254301e+002, 1.162920e+004
3.259122e+002, 1.162143e+004
3.263943e+002, 1.162433e+004
3.268765e+002, 1.163061e+004
3.273586e+002, 1.163769e+004
3.278407e+002, 1.164467e+004
3.283228e+002, 1.164564e+004
3.288049e+002, 1.163695e+004
3.292870e+002, 1.162484e+004
3.297692e+002, 1.161641e+004
3.302513e+002, 1.161128e+004
3.307334e+002, 1.160442e+004
3.312155e+002, 1.159124e+004
3.316976e+002, 1.157480e+004
3.321797e+002, 1.156253e+004
3.326619e+002, 1.155589e+004
3.331440e+002, 1.155138e+004
3.336261e+002, 1.154721e+004
3.341082e+002, 1.154303e+004
3.345903e+002, 1.153783e+004
3.350724e+002, 1.153017e+004
3.355546e+002, 1.152194e+004
3.360367e+002, 1.151603e+004
3.365188e+002, 1.151277e+004
3.370009e+002, 1.150879e+004
3.374830e+002, 1.150084e+004
3.379651e+002, 1.149136e+004
3.384473e+002, 1.148507e+004
3.389294e+002, 1.148388e+004
3.394115e+002, 1.148381e+004
3.398936e+002, 1.148275e+004
3.403757e+002, 1.148049e+004
3.408578e+002, 1.147529e+004
3.413400e+002, 1.146499e+004
3.418221e+002, 1.145282e+004
3.423042e+002, 1.144336e+004
3.427863e+002, 1.143656e+004
3.432684e+002, 1.143193e+004
3.437505e+002, 1.143031e+004
3.442327e+002, 1.143061e+004
3.447148e+002, 1.142998e+004
3.451969e+002, 1.142745e+004
3.456790e+002, 1.142487e+004
3.461611e+002, 1.142451e+004
3.466432e+002, 1.142601e+004
3.471254e+002, 1.142824e+004
3.476075e+002, 1.143234e+004
3.480896e+002, 1.143629e+004
3.485717e+002, 1.143712e+004
3.490538e+002, 1.143449e+004
3.495359e+002, 1.143118e+004
3.500181e+002, 1.142903e+004
3.505002e+002, 1.142792e+004
3.509823e+002, 1.142703e+004
3.514644e+002, 1.142694e+004
3.519465e+002, 1.142656e+004
3.524286e+002, 1.142405e+004
3.529108e+002, 1.142016e+004
3.533929e+002, 1.141888e+004
3.538750e+002, 1.142304e+004
3.543571e+002, 1.143009e+004
3.548392e+002, 1.143333e+004
3.553214e+002, 1.143083e+004
3.558035e+002, 1.142941e+004
3.562856e+002, 1.143362e+004
3.567677e+002, 1.144016e+004
3.572498e+002, 1.144249e+004
3.577319e+002, 1.143832e+004
3.582141e+002, 1.143203e+004
3.586962e+002, 1.142961e+004
3.591783e+002, 1.143158e+004
3.596604e+002, 1.143401e+004
3.601425e+002, 1.143879e+004
3.606246e+002, 1.144244e+004
3.611068e+002, 1.143975e+004
3.615889e+002, 1.143091e+004
3.620710e+002, 1.142372e+004
3.625531e+002, 1.142551e+004
3.630352e+002, 1.143618e+004
3.635173e+002, 1.144229e+004
3.639995e+002, 1.143900e+004
3.644816e+002, 1.143642e+004
3.649637e+002, 1.143998e+004
3.654458e+002, 1.144814e+004
3.659279e+002, 1.145675e+004
3.664100e+002, 1.146374e+004
3.668922e+002, 1.146948e+004
3.673743e+002, 1.147487e+004
3.678564e+002, 1.147646e+004
3.683385e+002, 1.148247e+004
3.688206e+002, 1.149897e+004
3.693027e+002, 1.151827e+004
3.697849e+002, 1.153060e+004
3.702670e+002, 1.153341e+004
3.707491e+002, 1.153281e+004
3.712312e+002, 1.153798e+004
3.717133e+002, 1.155389e+004
3.721954e+002, 1.155931e+004
3.726776e+002, 1.154709e+004
3.731597e+002, 1.153132e+004
3.736418e+002, 1.152048e+004
3.741239e+002, 1.151445e+004
3.746060e+002, 1.150859e+004
3.750881e+002, 1.149930e+004
3.755703e+002, 1.148668e+004
3.760524e+002, 1.147217e+004
3.765345e+002, 1.145792e+004
3.770166e+002, 1.143944e+004
3.774987e+002, 1.141129e+004
3.779808e+002, 1.137933e+004
3.784630e+002, 1.135214e+004
3.789451e+002, 1.133371e+004
3.794272e+002, 1.132067e+004
3.799093e+002, 1.130497e+004
3.803914e+002, 1.128400e+004
3.808735e+002, 1.126455e+004
3.813557e+002, 1.124617e+004
3.818378e+002, 1.122963e+004
3.823199e+002, 1.121571e+004
3.828020e+002, 1.120426e+004
3.832841e+002, 1.119439e+004
3.837662e+002, 1.118539e+004
3.842484e+002, 1.117744e+004
3.847305e+002, 1.116862e+004
3.852126e+002, 1.115775e+004
3.856947e+002, 1.114698e+004
3.861768e+002, 1.113587e+004
3.866589e+002, 1.112540e+004
3.871411e+002, 1.111752e+004
3.876232e+002, 1.111378e+004
3.881053e+002, 1.111281e+004
3.885874e+002, 1.110971e+004
3.890695e+002, 1.110280e+004
3.895516e+002, 1.109692e+004
3.900338e+002, 1.109328e+004
3.905159e+002, 1.109097e+004
3.909980e+002, 1.108998e+004
3.914801e+002, 1.109026e+004
3.919622e+002, 1.108975e+004
3.924443e+002, 1.108551e+004
3.929265e+002, 1.107717e+004
3.934086e+002, 1.106914e+004
3.938907e+002, 1.106242e+004
3.943728e+002, 1.105576e+004
3.948549e+002, 1.104698e+004
3.953370e+002, 1.103725e+004
3.958192e+002, 1.103093e+004
3.963013e+002, 1.103320e+004
3.967834e+002, 1.104098e+004
3.972655e+002, 1.104374e+004
3.977476e+002, 1.104003e+004
3.982297e+002, 1.103506e+004
3.987119e+002, 1.103040e+004
3.991940e+002, 1.102642e+004
3.996761e+002, 1.102400e+004
4.001582e+002, 1.102396e+004
4.006403e+002, 1.102409e+004
4.011224e+002, 1.102157e+004
4.016046e+002, 1.101656e+004
4.020867e+002, 1.101289e+004
4.025688e+002, 1.101256e+004
4.030509e+002, 1.101303e+004
4.035330e+002, 1.101054e+004
4.040151e+002, 1.100494e+004
4.044973e+002, 1.100139e+004
4.049794e+002, 1.100333e+004
4.054615e+002, 1.100847e+004
4.059436e+002, 1.101328e+004
4.064257e+002, 1.101747e+004
4.069078e+002, 1.102030e+004
4.073900e+002, 1.102088e+004
4.078721e+002, 1.101943e+004
4.083542e+002, 1.101727e+004
4.088363e+002, 1.101291e+004
4.093184e+002, 1.100941e+004
4.098005e+002, 1.101066e+004
4.102827e+002, 1.101490e+004
4.107648e+002, 1.101572e+004
4.112469e+002, 1.100979e+004
4.117290e+002, 1.099981e+004
4.122111e+002, 1.099157e+004
4.126932e+002, 1.098509e+004
4.131754e+002, 1.097987e+004
4.136575e+002, 1.097685e+004
4.141396e+002, 1.097445e+004
4.146217e+002, 1.097009e+004
4.151038e+002, 1.096365e+004
4.155859e+002, 1.095865e+004
4.160681e+002, 1.095914e+004
4.165502e+002, 1.096594e+004
4.170323e+002, 1.096877e+004
4.175144e+002, 1.096409e+004
4.179965e+002, 1.095976e+004
4.184786e+002, 1.095795e+004
4.189608e+002, 1.095892e+004
4.194429e+002, 1.096303e+004
4.199250e+002, 1.097057e+004
4.204071e+002, 1.098053e+004
4.208892e+002, 1.099037e+004
4.213713e+002, 1.100359e+004
4.218535e+002, 1.101091e+004
4.223356e+002, 1.101197e+004
4.228177e+002, 1.100775e+004
4.232998e+002, 1.099736e+004
4.237819e+002, 1.098167e+004
4.242640e+002, 1.096435e+004
4.247462e+002, 1.094937e+004
4.252283e+002, 1.093694e+004
4.257104e+002, 1.092262e+004
4.261925e+002, 1.090573e+004
4.266746e+002, 1.088746e+004
4.271567e+002, 1.086608e+004
4.276389e+002, 1.084398e+004
4.281210e+002, 1.082450e+004
4.286031e+002, 1.080902e+004
4.290852e+002, 1.079761e+004
4.295673e+002, 1.079155e+004
4.300494e+002, 1.079271e+004
4.305316e+002, 1.079242e+004
4.310137e+002, 1.078772e+004
4.314958e+002, 1.078159e+004
4.319779e+002, 1.077520e+004
4.324600e+002, 1.076887e+004
4.329421e+002, 1.076376e+004
4.334243e+002, 1.076140e+004
4.339064e+002, 1.076114e+004
4.343885e+002, 1.076014e+004
4.348706e+002, 1.075847e+004
4.353527e+002, 1.075563e+004
4.358348e+002, 1.074892e+004
4.363170e+002, 1.074118e+004
4.367991e+002, 1.073760e+004
4.372812e+002, 1.074106e+004
4.377633e+002, 1.074678e+004
4.382454e+002, 1.074953e+004
4.387275e+002, 1.075004e+004
4.392097e+002, 1.075392e+004
4.396918e+002, 1.076440e+004
4.401739e+002, 1.077707e+004
4.406560e+002, 1.078350e+004
4.411381e+002, 1.078259e+004
4.416202e+002, 1.078814e+004
4.421024e+002, 1.081027e+004
4.425845e+002, 1.083739e+004
4.430666e+002, 1.085602e+004
4.435487e+002, 1.086515e+004
4.440308e+002, 1.087147e+004
4.445129e+002, 1.088008e+004
4.449951e+002, 1.089034e+004
4.454772e+002, 1.089677e+004
4.459593e+002, 1.089606e+004
4.464414e+002, 1.089596e+004
4.469235e+002, 1.090040e+004
4.474056e+002, 1.090647e+004
4.478878e+002, 1.090980e+004
4.483699e+002, 1.090890e+004
4.488520e+002, 1.090532e+004
4.493341e+002, 1.090180e+004
4.498162e+002, 1.090091e+004
4.502983e+002, 1.089201e+004
4.507805e+002, 1.086989e+004
4.512626e+002, 1.084590e+004
4.517447e+002, 1.082747e+004
4.522268e+002, 1.081230e+004
4.527089e+002, 1.079204e+004
4.531910e+002, 1.076026e+004
4.536732e+002, 1.072111e+004
4.541553e+002, 1.069302e+004
4.546374e+002, 1.068425e+004
4.551195e+002, 1.067266e+004
4.556016e+002, 1.065127e+004
4.560837e+002, 1.062817e+004
4.565659e+002, 1.061033e+004
4.570480e+002, 1.059884e+004
4.575301e+002, 1.059027e+004
4.580122e+002, 1.058103e+004
4.584943e+002, 1.057112e+004
4.589764e+002, 1.056332e+004
4.594586e+002, 1.055829e+004
4.599407e+002, 1.055464e+004
4.604228e+002, 1.055183e+004
4.609049e+002, 1.054971e+004
4.613870e+002, 1.054835e+004
4.618691e+002, 1.054875e+004
4.623513e+002, 1.054834e+004
4.628334e+002, 1.054358e+004
4.633155e+002, 1.053461e+004
4.637976e+002, 1.052472e+004
4.642797e+002, 1.051417e+004
4.647618e+002, 1.050403e+004
4.652440e+002, 1.049521e+004
4.657261e+002, 1.048759e+004
4.662082e+002, 1.048210e+004
4.666903e+002, 1.048189e+004
4.671724e+002, 1.048244e+004
4.676545e+002, 1.047735e+004
4.681367e+002, 1.046649e+004
4.686188e+002, 1.045569e+004
4.691009e+002, 1.044954e+004
4.695830e+002, 1.044651e+004
4.700651e+002, 1.043860e+004
4.705472e+002, 1.041935e+004
4.710294e+002, 1.040408e+004
4.715115e+002, 1.039919e+004
4.719936e+002, 1.039933e+004
4.724757e+002, 1.039799e+004
4.729578e+002, 1.039346e+004
4.734399e+002, 1.038750e+004
4.739221e+002, 1.038225e+004
4.744042e+002, 1.037798e+004
4.748863e+002, 1.037283e+004
4.753684e+002, 1.036522e+004
4.758505e+002, 1.035845e+004
4.763326e+002, 1.035487e+004
4.768148e+002, 1.035271e+004
4.772969e+002, 1.034879e+004
4.777790e+002, 1.034152e+004
4.782611e+002, 1.033250e+004
4.787432e+002, 1.032510e+004
4.792253e+002, 1.031966e+004
4.797075e+002, 1.031508e+004
4.801896e+002, 1.031167e+004
4.806717e+002, 1.030882e+004
4.811538e+002, 1.030502e+004
4.816359e+002, 1.030118e+004
4.821180e+002, 1.030096e+004
4.826002e+002, 1.030947e+004
4.830823e+002, 1.032254e+004
4.835644e+002, 1.032784e+004
4.840465e+002, 1.032365e+004
4.845286e+002, 1.031771e+004
4.850107e+002, 1.031045e+004
4.854929e+002, 1.030488e+004
4.859750e+002, 1.030592e+004
4.864571e+002, 1.031557e+004
4.869392e+002, 1.032392e+004
4.874213e+002, 1.032300e+004
4.879034e+002, 1.031671e+004
4.883856e+002, 1.031479e+004
4.888677e+002, 1.031946e+004
4.893498e+002, 1.032275e+004
4.898319e+002, 1.031703e+004
4.903140e+002, 1.030280e+004
4.907961e+002, 1.029121e+004
4.912783e+002, 1.028577e+004
4.917604e+002, 1.027914e+004
4.922425e+002, 1.026714e+004
4.927246e+002, 1.025175e+004
4.932067e+002, 1.023618e+004
4.936888e+002, 1.022160e+004
4.941710e+002, 1.020840e+004
4.946531e+002, 1.019756e+004
4.951352e+002, 1.019032e+004
4.956173e+002, 1.018167e+004
4.960994e+002, 1.017059e+004
4.965815e+002, 1.015933e+004
4.970637e+002, 1.014834e+004
4.975458e+002, 1.013810e+004
4.980279e+002, 1.012968e+004
4.985100e+002, 1.012388e+004
4.989921e+002, 1.011915e+004
4.994742e+002, 1.011099e+004
4.999564e+002, 1.009734e+004
5.004385e+002, 1.008540e+004
5.009206e+002, 1.007472e+004
5.014027e+002, 1.006703e+004
5.018848e+002, 1.006562e+004
5.023669e+002, 1.006921e+004
5.028491e+002, 1.007148e+004
5.033312e+002, 1.006715e+004
5.038133e+002, 1.005863e+004
5.042954e+002, 1.005257e+004
5.047775e+002, 1.004959e+004
5.052596e+002, 1.004652e+004
5.057418e+002, 1.004247e+004
5.062239e+002, 1.003721e+004
5.067060e+002, 1.002994e+004
5.071881e+002, 1.001989e+004
5.076702e+002, 1.001111e+004
5.081523e+002, 1.000770e+004
5.086345e+002, 1.000621e+004
5.091166e+002, 9.999381e+003
5.095987e+002, 9.986092e+003
5.100808e+002, 9.974762e+003
5.105629e+002, 9.973333e+003
5.110450e+002, 9.980614e+003
5.115272e+002, 9.982245e+003
5.120093e+002, 9.974462e+003
5.124914e+002, 9.966254e+003
5.129735e+002, 9.959608e+003
5.134556e+002, 9.954255e+003
5.139377e+002, 9.950252e+003
5.144199e+002, 9.947447e+003
5.149020e+002, 9.944354e+003
5.153841e+002, 9.938904e+003
5.158662e+002, 9.930547e+003
5.163483e+002, 9.923864e+003
5.168304e+002, 9.921530e+003
5.173126e+002, 9.918126e+003
5.177947e+002, 9.911575e+003
5.182768e+002, 9.903202e+003
5.187589e+002, 9.895043e+003
5.192410e+002, 9.887912e+003
5.197231e+002, 9.880985e+003
5.202053e+002, 9.872068e+003
5.206874e+002, 9.860767e+003
5.211695e+002, 9.853562e+003
5.216516e+002, 9.853623e+003
5.221337e+002, 9.855041e+003
5.226158e+002, 9.854394e+003
5.230980e+002, 9.851839e+003
5.235801e+002, 9.847638e+003
5.240622e+002, 9.839971e+003
5.245443e+002, 9.832621e+003
5.250264e+002, 9.830728e+003
5.255085e+002, 9.833308e+003
5.259907e+002, 9.834894e+003
5.264728e+002, 9.834135e+003
5.269549e+002, 9.830440e+003
5.274370e+002, 9.821081e+003
5.279191e+002, 9.804036e+003
5.284012e+002, 9.794374e+003
5.288834e+002, 9.800440e+003
5.293655e+002, 9.808526e+003
5.298476e+002, 9.809449e+003
5.303297e+002, 9.804201e+003
5.308118e+002, 9.797147e+003
5.312939e+002, 9.790422e+003
5.317761e+002, 9.784453e+003
5.322582e+002, 9.780676e+003
5.327403e+002, 9.781763e+003
5.332224e+002, 9.779771e+003
5.337045e+002, 9.771191e+003
5.341866e+002, 9.762662e+003
5.346688e+002, 9.758907e+003
5.351509e+002, 9.758765e+003
5.356330e+002, 9.757716e+003
5.361151e+002, 9.752541e+003
5.365972e+002, 9.744839e+003
5.370793e+002, 9.739569e+003
5.375615e+002, 9.738215e+003
5.380436e+002, 9.733356e+003
5.385257e+002, 9.718730e+003
5.390078e+002, 9.703147e+003
5.394899e+002, 9.694855e+003
5.399720e+002, 9.693843e+003
5.404542e+002, 9.693587e+003
5.409363e+002, 9.693062e+003
5.414184e+002, 9.690490e+003
5.419005e+002, 9.682040e+003
5.423826e+002, 9.667943e+003
5.428647e+002, 9.654027e+003
5.433469e+002, 9.643074e+003
5.438290e+002, 9.634370e+003
5.443111e+002, 9.626036e+003
5.447932e+002, 9.617444e+003
5.452753e+002, 9.610483e+003
5.457574e+002, 9.605753e+003
5.462396e+002, 9.602379e+003
5.467217e+002, 9.600131e+003
5.472038e+002, 9.598590e+003
5.476859e+002, 9.596822e+003
5.481680e+002, 9.594189e+003
5.486501e+002, 9.590729e+003
5.491323e+002, 9.586512e+003
5.496144e+002, 9.580260e+003
5.500965e+002, 9.575567e+003
5.505786e+002, 9.573229e+003
5.510607e+002, 9.572056e+003
5.515428e+002, 9.571656e+003
5.520250e+002, 9.571737e+003
5.525071e+002, 9.571563e+003
5.529892e+002, 9.570542e+003
5.534713e+002, 9.568897e+003
5.539534e+002, 9.567927e+003
5.544355e+002, 9.568363e+003
5.549177e+002, 9.565401e+003
5.553998e+002, 9.554152e+003
5.558819e+002, 9.540608e+003
5.563640e+002, 9.533472e+003
5.568461e+002, 9.533749e+003
5.573282e+002, 9.532990e+003
5.578104e+002, 9.527241e+003
5.582925e+002, 9.519096e+003
5.587746e+002, 9.511036e+003
5.592567e+002, 9.503372e+003
5.597388e+002, 9.496927e+003
5.602209e+002, 9.492424e+003
5.607031e+002, 9.489040e+003
5.611852e+002, 9.484137e+003
5.616673e+002, 9.475982e+003
5.621494e+002, 9.468644e+003
5.626315e+002, 9.461888e+003
5.631136e+002, 9.456208e+003
5.635958e+002, 9.452804e+003
5.640779e+002, 9.450948e+003
5.645600e+002, 9.448118e+003
5.650421e+002, 9.442105e+003
5.655242e+002, 9.434506e+003
5.660063e+002, 9.431429e+003
5.664885e+002, 9.435307e+003
5.669706e+002, 9.436550e+003
5.674527e+002, 9.430243e+003
5.679348e+002, 9.422458e+003
5.684169e+002, 9.417486e+003
5.688990e+002, 9.415206e+003
5.693812e+002, 9.412565e+003
5.698633e+002, 9.407697e+003
5.703454e+002, 9.401756e+003
5.708275e+002, 9.396329e+003
5.713096e+002, 9.391431e+003
5.717917e+002, 9.386661e+003
5.722739e+002, 9.381760e+003
5.727560e+002, 9.377010e+003
5.732381e+002, 9.372810e+003
5.737202e+002, 9.369029e+003
5.742023e+002, 9.366365e+003
5.746844e+002, 9.367490e+003
5.751666e+002, 9.367547e+003
5.756487e+002, 9.361401e+003
5.761308e+002, 9.351381e+003
5.766129e+002, 9.343938e+003
5.770950e+002, 9.342463e+003
5.775771e+002, 9.344598e+003
5.780593e+002, 9.345105e+003
5.785414e+002, 9.343091e+003
5.790235e+002, 9.341780e+003
5.795056e+002, 9.341589e+003
5.799877e+002, 9.341804e+003
5.804698e+002, 9.344090e+003
5.809520e+002, 9.346381e+003
5.814341e+002, 9.343438e+003
5.819162e+002, 9.330580e+003
5.823983e+002, 9.316344e+003
5.828804e+002, 9.314568e+003
5.833625e+002, 9.323738e+003
5.838447e+002, 9.326771e+003
5.843268e+002, 9.317382e+003
5.848089e+002, 9.306314e+003
5.852910e+002, 9.307719e+003
5.857731e+002, 9.319662e+003
5.862552e+002, 9.321275e+003
5.867374e+002, 9.299926e+003
5.872195e+002, 9.279241e+003
5.877016e+002, 9.273475e+003
5.881837e+002, 9.276260e+003
5.886658e+002, 9.276249e+003
5.891479e+002, 9.270028e+003
5.896301e+002, 9.261541e+003
5.901122e+002, 9.255478e+003
5.905943e+002, 9.252025e+003
5.910764e+002, 9.249130e+003
5.915585e+002, 9.246767e+003
5.920406e+002, 9.244960e+003
5.925228e+002, 9.244018e+003
5.930049e+002, 9.243432e+003
5.934870e+002, 9.242748e+003
5.939691e+002, 9.241818e+003
5.944512e+002, 9.240408e+003
5.949333e+002, 9.238362e+003
5.954155e+002, 9.235643e+003
5.958976e+002, 9.231416e+003
5.963797e+002, 9.224823e+003
5.968618e+002, 9.220600e+003
5.973439e+002, 9.223231e+003
5.978260e+002, 9.229581e+003
5.983082e+002, 9.231601e+003
5.987903e+002, 9.227314e+003
5.992724e+002, 9.223828e+003
5.997545e+002, 9.223518e+003
6.002366e+002, 9.225118e+003
6.007188e+002, 9.227495e+003
6.012009e+002, 9.230473e+003
6.016830e+002, 9.234025e+003
6.021651e+002, 9.238066e+003
6.026472e+002, 9.242831e+003
6.031293e+002, 9.249568e+003
6.036115e+002, 9.261569e+003
6.040936e+002, 9.269278e+003
6.045757e+002, 9.266732e+003
6.050578e+002, 9.264757e+003
6.055399e+002, 9.271308e+003
6.060220e+002, 9.284482e+003
6.065042e+002, 9.296905e+003
6.069863e+002, 9.304730e+003
6.074684e+002, 9.309140e+003
6.079505e+002, 9.312046e+003
6.084326e+002, 9.313437e+003
6.089147e+002, 9.312176e+003
6.093969e+002, 9.307032e+003
6.098790e+002, 9.300966e+003
6.103611e+002, 9.298021e+003
6.108432e+002, 9.297780e+003
6.113253e+002, 9.294473e+003
6.118074e+002, 9.285246e+003
6.122896e+002, 9.275193e+003
6.127717e+002, 9.268321e+003
6.132538e+002, 9.262049e+003
6.137359e+002, 9.251333e+003
6.142180e+002, 9.234844e+003
6.147001e+002, 9.216271e+003
6.151823e+002, 9.199696e+003
6.156644e+002, 9.185150e+003
6.161465e+002, 9.171417e+003
6.166286e+002, 9.158834e+003
6.171107e+002, 9.146665e+003
6.175928e+002, 9.134599e+003
6.180750e+002, 9.122920e+003
6.185571e+002, 9.111467e+003
6.190392e+002, 9.100346e+003
6.195213e+002, 9.091189e+003
6.200034e+002, 9.086534e+003
6.204855e+002, 9.084459e+003
6.209677e+002, 9.079762e+003
6.214498e+002, 9.072125e+003
6.219319e+002, 9.067247e+003
6.224140e+002, 9.069047e+003
6.228961e+002, 9.074191e+003
6.233782e+002, 9.075576e+003
6.238604e+002, 9.072644e+003
6.243425e+002, 9.068432e+003
6.248246e+002, 9.061729e+003
6.253067e+002, 9.055232e+003
6.257888e+002, 9.050821e+003
6.262709e+002, 9.048091e+003
6.267531e+002, 9.046144e+003
6.272352e+002, 9.044587e+003
6.277173e+002, 9.042090e+003
6.281994e+002, 9.035327e+003
6.286815e+002, 9.022804e+003
6.291636e+002, 9.013948e+003
6.296458e+002, 9.010282e+003
6.301279e+002, 9.009136e+003
6.306100e+002, 9.010229e+003
6.310921e+002, 9.012338e+003
6.315742e+002, 9.013011e+003
6.320563e+002, 9.010912e+003
6.325385e+002, 9.009530e+003
6.330206e+002, 9.012919e+003
6.335027e+002, 9.018444e+003
6.339848e+002, 9.021100e+003
6.344669e+002, 9.020155e+003
6.349490e+002, 9.016556e+003
6.354312e+002, 9.010708e+003
6.359133e+002, 9.002997e+003
6.363954e+002, 8.995005e+003
6.368775e+002, 8.984245e+003
6.373596e+002, 8.976813e+003
6.378417e+002, 8.975309e+003
6.383239e+002, 8.975280e+003
6.388060e+002, 8.973185e+003
6.392881e+002, 8.969603e+003
6.397702e+002, 8.967446e+003
6.402523e+002, 8.968527e+003
6.407344e+002, 8.971749e+003
6.412166e+002, 8.976058e+003
6.416987e+002, 8.981646e+003
6.421808e+002, 8.982949e+003
6.426629e+002, 8.975975e+003
6.431450e+002, 8.969123e+003
6.436271e+002, 8.970996e+003
6.441093e+002, 8.979479e+003
6.445914e+002, 8.987366e+003
6.450735e+002, 8.993771e+003
6.455556e+002, 8.999292e+003
6.460377e+002, 9.005460e+003
6.465198e+002, 9.010433e+003
6.470020e+002, 9.011162e+003
6.474841e+002, 9.007303e+003
6.479662e+002, 9.001099e+003
6.484483e+002, 8.994471e+003
6.489304e+002, 8.987318e+003
6.494125e+002, 8.978607e+003
6.498947e+002, 8.968752e+003
6.503768e+002, 8.956550e+003
6.508589e+002, 8.939714e+003
6.513410e+002, 8.922281e+003
6.518231e+002, 8.908356e+003
6.523052e+002, 8.896938e+003
6.527874e+002, 8.882091e+003
6.532695e+002, 8.857720e+003
6.537516e+002, 8.831394e+003
6.542337e+002, 8.812113e+003
6.547158e+002, 8.799135e+003
6.551979e+002, 8.789794e+003
6.556801e+002, 8.783786e+003
6.561622e+002, 8.778573e+003
6.566443e+002, 8.771358e+003
6.571264e+002, 8.762064e+003
6.576085e+002, 8.752724e+003
6.580906e+002, 8.741503e+003
6.585728e+002, 8.732581e+003
6.590549e+002, 8.729050e+003
6.595370e+002, 8.727005e+003
6.600191e+002, 8.721947e+003
6.605012e+002, 8.713562e+003
6.609833e+002, 8.705331e+003
6.614655e+002, 8.700546e+003
6.619476e+002, 8.697833e+003
6.624297e+002, 8.692087e+003
6.629118e+002, 8.682510e+003
6.633939e+002, 8.676950e+003
6.638760e+002, 8.680965e+003
6.643582e+002, 8.686260e+003
6.648403e+002, 8.680884e+003
6.653224e+002, 8.665896e+003
6.658045e+002, 8.655767e+003
6.662866e+002, 8.656216e+003
6.667687e+002, 8.658478e+003
6.672509e+002, 8.659674e+003
6.677330e+002, 8.658785e+003
6.682151e+002, 8.653712e+003
6.686972e+002, 8.644240e+003
6.691793e+002, 8.633352e+003
6.696614e+002, 8.623659e+003
6.701436e+002, 8.615260e+003
6.706257e+002, 8.609781e+003
6.711078e+002, 8.609479e+003
6.715899e+002, 8.607390e+003
6.720720e+002, 8.599628e+003
6.725541e+002, 8.590621e+003
6.730363e+002, 8.583859e+003
6.735184e+002, 8.579353e+003
6.740005e+002, 8.574688e+003
6.744826e+002, 8.567121e+003
6.749647e+002, 8.560200e+003
6.754468e+002, 8.559911e+003
6.759290e+002, 8.563280e+003
6.764111e+002, 8.560448e+003
6.768932e+002, 8.548268e+003
6.773753e+002, 8.533162e+003
6.778574e+002, 8.522293e+003
6.783395e+002, 8.515708e+003
6.788217e+002, 8.512470e+003
6.793038e+002, 8.519062e+003
6.797859e+002, 8.520700e+003
6.802680e+002, 8.511690e+003
6.807501e+002, 8.498992e+003
6.812322e+002, 8.487688e+003
6.817144e+002, 8.478961e+003
6.821965e+002, 8.473064e+003
6.826786e+002, 8.470972e+003
6.831607e+002, 8.471379e+003
6.836428e+002, 8.473317e+003
6.841249e+002, 8.476365e+003
6.846071e+002, 8.476825e+003
6.850892e+002, 8.473416e+003
6.855713e+002, 8.467267e+003
6.860534e+002, 8.458153e+003
6.865355e+002, 8.445498e+003
6.870176e+002, 8.441199e+003
6.874998e+002, 8.455278e+003
6.879819e+002, 8.464229e+003
6.884640e+002, 8.459858e+003
6.889461e+002, 8.448967e+003
6.894282e+002, 8.436610e+003
6.899103e+002, 8.424716e+003
6.903925e+002, 8.415433e+003
6.908746e+002, 8.411021e+003
6.913567e+002, 8.409841e+003
6.918388e+002, 8.408443e+003
6.923209e+002, 8.406903e+003
6.928030e+002, 8.404384e+003
6.932852e+002, 8.400875e+003
6.937673e+002, 8.396032e+003
6.942494e+002, 8.388966e+003
6.947315e+002, 8.379856e+003
6.952136e+002, 8.371557e+003
6.956957e+002, 8.362500e+003
6.961779e+002, 8.356296e+003
6.966600e+002, 8.357722e+003
6.971421e+002, 8.360556e+003
6.976242e+002, 8.356388e+003
6.981063e+002, 8.345432e+003
6.985884e+002, 8.335588e+003
6.990706e+002, 8.333087e+003
6.995527e+002, 8.335588e+003
7.000348e+002, 8.336781e+003
7.005169e+002, 8.336643e+003
7.009990e+002, 8.334933e+003
7.014811e+002, 8.330178e+003
7.019633e+002, 8.325782e+003
7.024454e+002, 8.326037e+003
7.029275e+002, 8.329206e+003
7.034096e+002, 8.329339e+003
7.038917e+002, 8.323939e+003
7.043738e+002, 8.317714e+003
7.048560e+002, 8.310726e+003
7.053381e+002, 8.304983e+003
7.058202e+002, 8.303817e+003
7.063023e+002, 8.306741e+003
7.067844e+002, 8.309479e+003
7.072665e+002, 8.308909e+003
7.077487e+002, 8.306783e+003
7.082308e+002, 8.309328e+003
7.087129e+002, 8.319146e+003
7.091950e+002, 8.320814e+003
7.096771e+002, 8.306711e+003
7.101592e+002, 8.291827e+003
7.106414e+002, 8.286284e+003
7.111235e+002, 8.286865e+003
7.116056e+002, 8.287173e+003
7.120877e+002, 8.286888e+003
7.125698e+002, 8.284628e+003
7.130519e+002, 8.277103e+003
7.135341e+002, 8.268905e+003
7.140162e+002, 8.266159e+003
7.144983e+002, 8.268436e+003
7.149804e+002, 8.271779e+003
7.154625e+002, 8.274221e+003
7.159446e+002, 8.274378e+003
7.164268e+002, 8.267567e+003
7.169089e+002, 8.250251e+003
7.173910e+002, 8.242269e+003
7.178731e+002, 8.250686e+003
7.183552e+002, 8.259527e+003
7.188373e+002, 8.261019e+003
7.193195e+002, 8.258435e+003
7.198016e+002, 8.256221e+003
7.202837e+002, 8.255011e+003
7.207658e+002, 8.254057e+003
7.212479e+002, 8.253818e+003
7.217300e+002, 8.253066e+003
7.222122e+002, 8.248708e+003
7.226943e+002, 8.242407e+003
7.231764e+002, 8.240739e+003
7.236585e+002, 8.246644e+003
7.241406e+002, 8.254675e+003
7.246227e+002, 8.255707e+003
7.251049e+002, 8.248429e+003
7.255870e+002, 8.246956e+003
7.260691e+002, 8.254850e+003
7.265512e+002, 8.262799e+003
7.270333e+002, 8.268483e+003
7.275154e+002, 8.272160e+003
7.279976e+002, 8.273143e+003
7.284797e+002, 8.271490e+003
7.289618e+002, 8.270660e+003
7.294439e+002, 8.270438e+003
7.299260e+002, 8.273043e+003
7.304081e+002, 8.283096e+003
7.308903e+002, 8.297251e+003
7.313724e+002, 8.307039e+003
7.318545e+002, 8.310188e+003
7.323366e+002, 8.311904e+003
7.328187e+002, 8.317981e+003
7.333008e+002, 8.327860e+003
7.337830e+002, 8.334186e+003
7.342651e+002, 8.333600e+003
7.347472e+002, 8.336829e+003
7.352293e+002, 8.348504e+003
7.357114e+002, 8.363101e+003
7.361935e+002, 8.377563e+003
7.366757e+002, 8.391688e+003
7.371578e+002, 8.405637e+003
7.376399e+002, 8.421552e+003
7.381220e+002, 8.434597e+003
7.386041e+002, 8.441295e+003
7.390862e+002, 8.443073e+003
7.395684e+002, 8.442809e+003
7.400505e+002, 8.440462e+003
7.405326e+002, 8.432564e+003
7.410147e+002, 8.416246e+003
7.414968e+002, 8.393405e+003
7.419789e+002, 8.369248e+003
7.424611e+002, 8.343044e+003
7.429432e+002, 8.318341e+003
7.434253e+002, 8.297197e+003
7.439074e+002, 8.275491e+003
7.443895e+002, 8.249854e+003
7.448716e+002, 8.222320e+003
7.453538e+002, 8.196082e+003
7.458359e+002, 8.170641e+003
7.463180e+002, 8.149796e+003
7.468001e+002, 8.137742e+003
7.472822e+002, 8.129477e+003
7.477643e+002, 8.119961e+003
7.482465e+002, 8.109533e+003
7.487286e+002, 8.100968e+003
7.492107e+002, 8.095576e+003
7.496928e+002, 8.090964e+003
7.501749e+002, 8.083008e+003
7.506570e+002, 8.071429e+003
7.511392e+002, 8.062489e+003
7.516213e+002, 8.057116e+003
7.521034e+002, 8.052143e+003
7.525855e+002, 8.046001e+003
7.530676e+002, 8.039826e+003
7.535497e+002, 8.035339e+003
7.540319e+002, 8.032600e+003
7.545140e+002, 8.029038e+003
7.549961e+002, 8.021721e+003
7.554782e+002, 8.015753e+003
7.559603e+002, 8.015989e+003
7.564424e+002, 8.018841e+003
7.569246e+002, 8.018321e+003
7.574067e+002, 8.013479e+003
7.578888e+002, 8.008291e+003
7.583709e+002, 8.006391e+003
7.588530e+002, 8.006448e+003
7.593351e+002, 8.003171e+003
7.598173e+002, 7.995820e+003
7.602994e+002, 7.992001e+003
7.607815e+002, 7.995048e+003
7.612636e+002, 7.999051e+003
7.617457e+002, 7.999534e+003
7.622278e+002, 7.996788e+003
7.627100e+002, 7.992381e+003
7.631921e+002, 7.982831e+003
7.636742e+002, 7.977224e+003
7.641563e+002, 7.982153e+003
7.646384e+002, 7.988261e+003
7.651205e+002, 7.985511e+003
7.656027e+002, 7.977353e+003
7.660848e+002, 7.975345e+003
7.665669e+002, 7.985139e+003
7.670490e+002, 7.998137e+003
7.675311e+002, 8.002049e+003
7.680132e+002, 7.998808e+003
7.684954e+002, 7.999052e+003
7.689775e+002, 8.003502e+003
7.694596e+002, 8.010599e+003
7.699417e+002, 8.019797e+003
7.704238e+002, 8.030884e+003
7.709059e+002, 8.043473e+003
7.713881e+002, 8.057358e+003
7.718702e+002, 8.073574e+003
7.723523e+002, 8.095079e+003
7.728344e+002, 8.115328e+003
7.733165e+002, 8.132868e+003
7.737986e+002, 8.147373e+003
7.742808e+002, 8.157416e+003
7.747629e+002, 8.163582e+003
7.752450e+002, 8.170542e+003
7.757271e+002, 8.183893e+003
7.762092e+002, 8.197351e+003
7.766913e+002, 8.201904e+003
7.771735e+002, 8.198399e+003
7.776556e+002, 8.189643e+003
7.781377e+002, 8.176162e+003
7.786198e+002, 8.159208e+003
7.791019e+002, 8.139259e+003
7.795840e+002, 8.117211e+003
7.800662e+002, 8.098031e+003
7.805483e+002, 8.084142e+003
7.810304e+002, 8.068454e+003
7.815125e+002, 8.046777e+003
7.819946e+002, 8.027108e+003
7.824767e+002, 8.014430e+003
7.829589e+002, 8.006208e+003
7.834410e+002, 7.997439e+003
7.839231e+002, 7.986595e+003
7.844052e+002, 7.976552e+003
7.848873e+002, 7.970220e+003
7.853694e+002, 7.964856e+003
7.858516e+002, 7.956347e+003
7.863337e+002, 7.945710e+003
7.868158e+002, 7.937212e+003
7.872979e+002, 7.932556e+003
7.877800e+002, 7.929682e+003
7.882621e+002, 7.926344e+003
7.887443e+002, 7.922505e+003
7.892264e+002, 7.915034e+003
7.897085e+002, 7.900999e+003
7.901906e+002, 7.891829e+003
7.906727e+002, 7.894739e+003
7.911548e+002, 7.900011e+003
7.916370e+002, 7.896181e+003
7.921191e+002, 7.884966e+003
7.926012e+002, 7.878849e+003
7.930833e+002, 7.883308e+003
7.935654e+002, 7.888508e+003
7.940475e+002, 7.892179e+003
7.945297e+002, 7.893757e+003
7.950118e+002, 7.891513e+003
7.954939e+002, 7.886493e+003
7.959760e+002, 7.882374e+003
7.964581e+002, 7.881290e+003
7.969402e+002, 7.881131e+003
7.974224e+002, 7.878128e+003
7.979045e+002, 7.872905e+003
7.983866e+002, 7.870318e+003
7.988687e+002, 7.871066e+003
7.993508e+002, 7.871690e+003
7.998329e+002, 7.870894e+003
8.003151e+002, 7.868181e+003
8.007972e+002, 7.862396e+003
8.012793e+002, 7.852463e+003
8.017614e+002, 7.843630e+003
8.022435e+002, 7.833561e+003
8.027256e+002, 7.827354e+003
8.032078e+002, 7.829524e+003
8.036899e+002, 7.834394e+003
8.041720e+002, 7.835096e+003
8.046541e+002, 7.831836e+003
8.051362e+002, 7.831671e+003
8.056183e+002, 7.841701e+003
8.061005e+002, 7.852710e+003
8.065826e+002, 7.854863e+003
8.070647e+002, 7.850733e+003
8.075468e+002, 7.844737e+003
8.080289e+002, 7.838165e+003
8.085110e+002, 7.834209e+003
8.089932e+002, 7.835520e+003
8.094753e+002, 7.839657e+003
8.099574e+002, 7.839678e+003
8.104395e+002, 7.834147e+003
8.109216e+002, 7.831244e+003
8.114037e+002, 7.834037e+003
8.118859e+002, 7.834996e+003
8.123680e+002, 7.828047e+003
8.128501e+002, 7.818042e+003
8.133322e+002, 7.811514e+003
8.138143e+002, 7.808769e+003
8.142964e+002, 7.809248e+003
8.147786e+002, 7.813831e+003
8.152607e+002, 7.820501e+003
8.157428e+002, 7.830196e+003
8.162249e+002, 7.840218e+003
8.167070e+002, 7.846864e+003
8.171891e+002, 7.849546e+003
8.176713e+002, 7.849864e+003
8.181534e+002, 7.847998e+003
8.186355e+002, 7.846030e+003
8.191176e+002, 7.848436e+003
8.195997e+002, 7.854709e+003
8.200818e+002, 7.861403e+003
8.205640e+002, 7.868002e+003
8.210461e+002, 7.873604e+003
8.215282e+002, 7.877079e+003
8.220103e+002, 7.879589e+003
8.224924e+002, 7.884792e+003
8.229745e+002, 7.894358e+003
8.234567e+002, 7.902942e+003
8.239388e+002, 7.907539e+003
8.244209e+002, 7.914694e+003
8.249030e+002, 7.930478e+003
8.253851e+002, 7.948353e+003
8.258672e+002, 7.959415e+003
8.263494e+002, 7.962581e+003
8.268315e+002, 7.964970e+003
8.273136e+002, 7.970773e+003
8.277957e+002, 7.976486e+003
8.282778e+002, 7.979874e+003
8.287599e+002, 7.980853e+003
8.292421e+002, 7.980372e+003
8.297242e+002, 7.977990e+003
8.302063e+002, 7.969890e+003
8.306884e+002, 7.952401e+003
8.311705e+002, 7.929095e+003
8.316526e+002, 7.908514e+003
8.321348e+002, 7.890800e+003
8.326169e+002, 7.872658e+003
8.330990e+002, 7.852586e+003
8.335811e+002, 7.835567e+003
8.340632e+002, 7.824755e+003
8.345453e+002, 7.818577e+003
8.350275e+002, 7.814387e+003
8.355096e+002, 7.814972e+003
8.359917e+002, 7.808588e+003
8.364738e+002, 7.787313e+003
8.369559e+002, 7.768208e+003
8.374380e+002, 7.758712e+003
8.379202e+002, 7.753899e+003
8.384023e+002, 7.748028e+003
8.388844e+002, 7.740556e+003
8.393665e+002, 7.734398e+003
8.398486e+002, 7.731266e+003
8.403307e+002, 7.730071e+003
8.408129e+002, 7.731935e+003
8.412950e+002, 7.734319e+003
8.417771e+002, 7.732249e+003
8.422592e+002, 7.725083e+003
8.427413e+002, 7.712836e+003
8.432234e+002, 7.694798e+003
8.437056e+002, 7.676904e+003
8.441877e+002, 7.673262e+003
8.446698e+002, 7.685466e+003
8.451519e+002, 7.691509e+003
8.456340e+002, 7.688446e+003
8.461161e+002, 7.685912e+003
8.465983e+002, 7.689499e+003
8.470804e+002, 7.694130e+003
8.475625e+002, 7.691948e+003
8.480446e+002, 7.682427e+003
8.485267e+002, 7.674510e+003
8.490089e+002, 7.667044e+003
8.494910e+002, 7.663106e+003
8.499731e+002, 7.665846e+003
8.504552e+002, 7.670685e+003
8.509373e+002, 7.674747e+003
8.514194e+002, 7.677154e+003
8.519016e+002, 7.676951e+003
8.523837e+002, 7.673494e+003
8.528658e+002, 7.668250e+003
8.533479e+002, 7.660908e+003
8.538300e+002, 7.653437e+003
8.543121e+002, 7.649387e+003
8.547943e+002, 7.648687e+003
8.552764e+002, 7.650155e+003
8.557585e+002, 7.653313e+003
8.562406e+002, 7.656123e+003
8.567227e+002, 7.655610e+003
8.572048e+002, 7.652086e+003
8.576870e+002, 7.649708e+003
8.581691e+002, 7.648485e+003
8.586512e+002, 7.648579e+003
8.591333e+002, 7.651501e+003
8.596154e+002, 7.653226e+003
8.600975e+002, 7.648105e+003
8.605797e+002, 7.638261e+003
8.610618e+002, 7.635713e+003
8.615439e+002, 7.647947e+003
8.620260e+002, 7.654840e+003
8.625081e+002, 7.651450e+003
8.629902e+002, 7.645104e+003
8.634724e+002, 7.639436e+003
8.639545e+002, 7.634140e+003
8.644366e+002, 7.627614e+003
8.649187e+002, 7.619539e+003
8.654008e+002, 7.612741e+003
8.658829e+002, 7.610094e+003
8.663651e+002, 7.608895e+003
8.668472e+002, 7.605912e+003
8.673293e+002, 7.601864e+003
8.678114e+002, 7.599215e+003
8.682935e+002, 7.598108e+003
8.687756e+002, 7.595002e+003
8.692578e+002, 7.586845e+003
8.697399e+002, 7.575991e+003
8.702220e+002, 7.568130e+003
8.707041e+002, 7.563306e+003
8.711862e+002, 7.560685e+003
8.716683e+002, 7.561125e+003
8.721505e+002, 7.559970e+003
8.726326e+002, 7.553838e+003
8.731147e+002, 7.545829e+003
8.735968e+002, 7.541155e+003
8.740789e+002, 7.540405e+003
8.745610e+002, 7.539782e+003
8.750432e+002, 7.539842e+003
8.755253e+002, 7.539274e+003
8.760074e+002, 7.538080e+003
8.764895e+002, 7.535908e+003
8.769716e+002, 7.532446e+003
8.774537e+002, 7.527743e+003
8.779359e+002, 7.521825e+003
8.784180e+002, 7.513948e+003
8.789001e+002, 7.506731e+003
8.793822e+002, 7.502638e+003
8.798643e+002, 7.499436e+003
8.803464e+002, 7.494440e+003
8.808286e+002, 7.488073e+003
8.813107e+002, 7.481677e+003
8.817928e+002, 7.475869e+003
8.822749e+002, 7.471442e+003
8.827570e+002, 7.469884e+003
8.832391e+002, 7.470146e+003
8.837213e+002, 7.468146e+003
8.842034e+002, 7.464177e+003
8.846855e+002, 7.463884e+003
8.851676e+002, 7.469214e+003
8.856497e+002, 7.473773e+003
8.861318e+002, 7.472493e+003
8.866140e+002, 7.466676e+003
8.870961e+002, 7.460706e+003
8.875782e+002, 7.454784e+003
8.880603e+002, 7.448014e+003
8.885424e+002, 7.439056e+003
8.890245e+002, 7.431041e+003
8.895067e+002, 7.424518e+003
8.899888e+002, 7.419932e+003
8.904709e+002, 7.418831e+003
8.909530e+002, 7.421157e+003
8.914351e+002, 7.421453e+003
8.919172e+002, 7.415874e+003
8.923994e+002, 7.411413e+003
8.928815e+002, 7.412475e+003
8.933636e+002, 7.414794e+003
8.938457e+002, 7.414508e+003
8.943278e+002, 7.411606e+003
8.948099e+002, 7.407485e+003
8.952921e+002, 7.402661e+003
8.957742e+002, 7.397681e+003
8.962563e+002, 7.393333e+003
8.967384e+002, 7.389098e+003
8.972205e+002, 7.383633e+003
8.977026e+002, 7.377463e+003
8.981848e+002, 7.372602e+003
8.986669e+002, 7.369700e+003
8.991490e+002, 7.368920e+003
8.996311e+002, 7.371178e+003
9.001132e+002, 7.374659e+003
9.005953e+002, 7.370983e+003
9.010775e+002, 7.359088e+003
9.015596e+002, 7.352933e+003
9.020417e+002, 7.356276e+003
9.025238e+002, 7.359198e+003
9.030059e+002, 7.355136e+003
9.034880e+002, 7.347523e+003
9.039702e+002, 7.343533e+003
9.044523e+002, 7.344329e+003
9.049344e+002, 7.343858e+003
9.054165e+002, 7.338906e+003
9.058986e+002, 7.336750e+003
9.063807e+002, 7.342689e+003
9.068629e+002, 7.349094e+003
9.073450e+002, 7.348575e+003
9.078271e+002, 7.342380e+003
9.083092e+002, 7.337231e+003
9.087913e+002, 7.335367e+003
9.092734e+002, 7.333627e+003
9.097556e+002, 7.330239e+003
9.102377e+002, 7.326701e+003
9.107198e+002, 7.323847e+003
9.112019e+002, 7.322066e+003
9.116840e+002, 7.322531e+003
9.121661e+002, 7.325289e+003
9.126483e+002, 7.327382e+003
9.131304e+002, 7.326523e+003
9.136125e+002, 7.323375e+003
9.140946e+002, 7.317479e+003
9.145767e+002, 7.310246e+003
9.150588e+002, 7.306838e+003
9.155410e+002, 7.307787e+003
9.160231e+002, 7.308954e+003
9.165052e+002, 7.307672e+003
9.169873e+002, 7.305328e+003
9.174694e+002, 7.305220e+003
9.179515e+002, 7.307537e+003
9.184337e+002, 7.305695e+003
9.189158e+002, 7.298322e+003
9.193979e+002, 7.293053e+003
9.198800e+002, 7.293120e+003
9.203621e+002, 7.295107e+003
9.208442e+002, 7.296207e+003
9.213264e+002, 7.296181e+003
9.218085e+002, 7.292388e+003
9.222906e+002, 7.279385e+003
9.227727e+002, 7.271581e+003
9.232548e+002, 7.274764e+003
9.237369e+002, 7.277475e+003
9.242191e+002, 7.272376e+003
9.247012e+002, 7.264351e+003
9.251833e+002, 7.261293e+003
9.256654e+002, 7.264292e+003
9.261475e+002, 7.267099e+003
9.266296e+002, 7.268514e+003
9.271118e+002, 7.268529e+003
9.275939e+002, 7.266279e+003
9.280760e+002, 7.263248e+003
9.285581e+002, 7.260626e+003
9.290402e+002, 7.258738e+003
9.295223e+002, 7.258155e+003
9.300045e+002, 7.259404e+003
9.304866e+002, 7.259912e+003
9.309687e+002, 7.255745e+003
9.314508e+002, 7.250251e+003
9.319329e+002, 7.249349e+003
9.324150e+002, 7.251794e+003
9.328972e+002, 7.253237e+003
9.333793e+002, 7.252397e+003
9.338614e+002, 7.249925e+003
9.343435e+002, 7.245995e+003
9.348256e+002, 7.241742e+003
9.353077e+002, 7.240067e+003
9.357899e+002, 7.240854e+003
9.362720e+002, 7.242715e+003
9.367541e+002, 7.245686e+003
9.372362e+002, 7.247479e+003
9.377183e+002, 7.246764e+003
9.382004e+002, 7.245007e+003
9.386826e+002, 7.244539e+003
9.391647e+002, 7.245425e+003
9.396468e+002, 7.244599e+003
9.401289e+002, 7.240811e+003
9.406110e+002, 7.238478e+003
9.410931e+002, 7.239692e+003
9.415753e+002, 7.240946e+003
9.420574e+002, 7.239609e+003
9.425395e+002, 7.236500e+003
9.430216e+002, 7.233761e+003
9.435037e+002, 7.231342e+003
9.439858e+002, 7.229580e+003
9.444680e+002, 7.231025e+003
9.449501e+002, 7.230145e+003
9.454322e+002, 7.219880e+003
9.459143e+002, 7.209888e+003
9.463964e+002, 7.213305e+003
9.468785e+002, 7.227271e+003
9.473607e+002, 7.234347e+003
9.478428e+002, 7.226053e+003
9.483249e+002, 7.215821e+003
9.488070e+002, 7.208141e+003
9.492891e+002, 7.204104e+003
9.497712e+002, 7.207189e+003
9.502534e+002, 7.213963e+003
9.507355e+002, 7.218423e+003
9.512176e+002, 7.218755e+003
9.516997e+002, 7.215685e+003
9.521818e+002, 7.207801e+003
9.526639e+002, 7.199305e+003
9.531461e+002, 7.196809e+003
9.536282e+002, 7.197989e+003
9.541103e+002, 7.197542e+003
9.545924e+002, 7.195021e+003
9.550745e+002, 7.192349e+003
9.555566e+002, 7.190477e+003
9.560388e+002, 7.189176e+003
9.565209e+002, 7.188681e+003
9.570030e+002, 7.188472e+003
9.574851e+002, 7.185033e+003
9.579672e+002, 7.178406e+003
9.584493e+002, 7.173408e+003
9.589315e+002, 7.171139e+003
9.594136e+002, 7.170827e+003
9.598957e+002, 7.172474e+003
9.603778e+002, 7.174490e+003
9.608599e+002, 7.172284e+003
9.613420e+002, 7.164505e+003
9.618242e+002, 7.159619e+003
9.623063e+002, 7.159167e+003
9.627884e+002, 7.157670e+003
9.632705e+002, 7.152414e+003
9.637526e+002, 7.146632e+003
9.642347e+002, 7.143459e+003
9.647169e+002, 7.142657e+003
9.651990e+002, 7.142510e+003
9.656811e+002, 7.144028e+003
9.661632e+002, 7.144653e+003
9.666453e+002, 7.143481e+003
9.671274e+002, 7.142468e+003
9.676096e+002, 7.144000e+003
9.680917e+002, 7.145249e+003
9.685738e+002, 7.141574e+003
9.690559e+002, 7.133073e+003
9.695380e+002, 7.127020e+003
9.700201e+002, 7.124916e+003
9.705023e+002, 7.125800e+003
9.709844e+002, 7.133548e+003
9.714665e+002, 7.140325e+003
9.719486e+002, 7.138132e+003
9.724307e+002, 7.130563e+003
9.729128e+002, 7.125753e+003
9.733950e+002, 7.125803e+003
9.738771e+002, 7.125938e+003
9.743592e+002, 7.123470e+003
9.748413e+002, 7.119731e+003
9.753234e+002, 7.115295e+003
9.758055e+002, 7.110669e+003
9.762877e+002, 7.106087e+003
9.767698e+002, 7.102003e+003
9.772519e+002, 7.100039e+003
9.777340e+002, 7.101038e+003
9.782161e+002, 7.101785e+003
9.786982e+002, 7.096831e+003
9.791804e+002, 7.090269e+003
9.796625e+002, 7.090708e+003
9.801446e+002, 7.096515e+003
9.806267e+002, 7.102194e+003
9.811088e+002, 7.106374e+003
9.815909e+002, 7.109637e+003
9.820731e+002, 7.112484e+003
9.825552e+002, 7.113966e+003
9.830373e+002, 7.111507e+003
9.835194e+002, 7.105828e+003
9.840015e+002, 7.101511e+003
9.844836e+002, 7.098723e+003
9.849658e+002, 7.100848e+003
9.854479e+002, 7.109702e+003
9.859300e+002, 7.116608e+003
9.864121e+002, 7.112821e+003
9.868942e+002, 7.101905e+003
9.873763e+002, 7.096195e+003
9.878585e+002, 7.095721e+003
9.883406e+002, 7.101323e+003
9.888227e+002, 7.115322e+003
9.893048e+002, 7.128079e+003
9.897869e+002, 7.137354e+003
9.902690e+002, 7.139939e+003
9.907512e+002, 7.129138e+003
9.912333e+002, 7.106834e+003
9.917154e+002, 7.097804e+003
9.921975e+002, 7.110481e+003
9.926796e+002, 7.118374e+003
9.931617e+002, 7.115237e+003
9.936439e+002, 7.113357e+003
9.941260e+002, 7.122377e+003
9.946081e+002, 7.133765e+003
9.950902e+002, 7.133215e+003
9.955723e+002, 7.120102e+003
9.960544e+002, 7.114585e+003
9.965366e+002, 7.126076e+003
9.970187e+002, 7.132826e+003
9.975008e+002, 7.125547e+003
9.979829e+002, 7.118521e+003
9.984650e+002, 7.121197e+003
9.989471e+002, 7.129790e+003
9.994293e+002, 7.137623e+003
9.999114e+002, 7.143802e+003
1.000393e+003, 7.149646e+003
1.000876e+003, 7.155590e+003
1.001358e+003, 7.161104e+003
1.001840e+003, 7.165626e+003
1.002322e+003, 7.169835e+003
1.002804e+003, 7.173531e+003
1.003286e+003, 7.177630e+003
1.003768e+003, 7.184286e+003
1.004250e+003, 7.194200e+003
1.004733e+003, 7.204370e+003
1.005215e+003, 7.213238e+003
1.005697e+003, 7.221711e+003
1.006179e+003, 7.231768e+003
1.006661e+003, 7.240979e+003
1.007143e+003, 7.245577e+003
1.007625e+003, 7.246255e+003
1.008107e+003, 7.246359e+003
1.008589e+003, 7.247179e+003
1.009072e+003, 7.248698e+003
1.009554e+003, 7.253223e+003
1.010036e+003, 7.256461e+003
1.010518e+003, 7.251404e+003
1.011000e+003, 7.241710e+003
1.011482e+003, 7.235736e+003
1.011964e+003, 7.233579e+003
1.012446e+003, 7.227622e+003
1.012929e+003, 7.213153e+003
1.013411e+003, 7.198030e+003
1.013893e+003, 7.192670e+003
1.014375e+003, 7.192943e+003
1.014857e+003, 7.191922e+003
1.015339e+003, 7.188934e+003
1.015821e+003, 7.181456e+003
1.016303e+003, 7.169654e+003
1.016785e+003, 7.158800e+003
1.017268e+003, 7.152478e+003
1.017750e+003, 7.149110e+003
1.018232e+003, 7.147087e+003
1.018714e+003, 7.145714e+003
1.019196e+003, 7.141396e+003
1.019678e+003, 7.134483e+003
1.020160e+003, 7.128919e+003
1.020642e+003, 7.125760e+003
1.021125e+003, 7.123116e+003
1.021607e+003, 7.119486e+003
1.022089e+003, 7.115154e+003
1.022571e+003, 7.110356e+003
1.023053e+003, 7.105163e+003
1.023535e+003, 7.101897e+003
1.024017e+003, 7.100682e+003
1.024499e+003, 7.100832e+003
1.024981e+003, 7.102511e+003
1.025464e+003, 7.102601e+003
1.025946e+003, 7.097838e+003
1.026428e+003, 7.090128e+003
1.026910e+003, 7.085689e+003
1.027392e+003, 7.084987e+003
1.027874e+003, 7.082844e+003
1.028356e+003, 7.078577e+003
1.028838e+003, 7.075221e+003
1.029321e+003, 7.073635e+003
1.029803e+003, 7.074126e+003
1.030285e+003, 7.078086e+003
1.030767e+003, 7.083640e+003
1.031249e+003, 7.081253e+003
1.031731e+003, 7.066545e+003
1.032213e+003, 7.061385e+003
1.032695e+003, 7.070665e+003
1.033177e+003, 7.078266e+003
1.033660e+003, 7.077905e+003
1.034142e+003, 7.073953e+003
1.034624e+003, 7.069599e+003
1.035106e+003, 7.065656e+003
1.035588e+003, 7.067902e+003
1.036070e+003, 7.081480e+003
1.036552e+003, 7.088800e+003
1.037034e+003, 7.087120e+003
1.037516e+003, 7.083337e+003
1.037999e+003, 7.079197e+003
1.038481e+003, 7.074958e+003
1.038963e+003, 7.070275e+003
1.039445e+003, 7.065550e+003
1.039927e+003, 7.063880e+003
1.040409e+003, 7.069368e+003
1.040891e+003, 7.070702e+003
1.041373e+003, 7.065370e+003
1.041855e+003, 7.059070e+003
1.042338e+003, 7.052924e+003
1.042820e+003, 7.047571e+003
1.043302e+003, 7.043321e+003
1.043784e+003, 7.040342e+003
1.044266e+003, 7.039696e+003
1.044748e+003, 7.043886e+003
1.045230e+003, 7.046317e+003
1.045712e+003, 7.046232e+003
1.046195e+003, 7.044874e+003
1.046677e+003, 7.040584e+003
1.047159e+003, 7.036802e+003
1.047641e+003, 7.038745e+003
1.048123e+003, 7.045241e+003
1.048605e+003, 7.047497e+003
1.049087e+003, 7.040401e+003
1.049569e+003, 7.036595e+003
1.050052e+003, 7.041123e+003
1.050534e+003, 7.045409e+003
1.051016e+003, 7.046938e+003
1.051498e+003, 7.045159e+003
1.051980e+003, 7.036765e+003
1.052462e+003, 7.023798e+003
1.052944e+003, 7.017865e+003
1.053426e+003, 7.024892e+003
1.053908e+003, 7.031032e+003
1.054391e+003, 7.033339e+003
1.054873e+003, 7.033838e+003
1.055355e+003, 7.032501e+003
1.055837e+003, 7.030657e+003
1.056319e+003, 7.030025e+003
1.056801e+003, 7.030343e+003
1.057283e+003, 7.029568e+003
1.057765e+003, 7.026764e+003
1.058248e+003, 7.024026e+003
1.058730e+003, 7.020276e+003
1.059212e+003, 7.018735e+003
1.059694e+003, 7.024247e+003
1.060176e+003, 7.030854e+003
1.060658e+003, 7.031175e+003
1.061140e+003, 7.025935e+003
1.061622e+003, 7.021376e+003
1.062104e+003, 7.019648e+003
1.062587e+003, 7.017393e+003
1.063069e+003, 7.012378e+003
1.063551e+003, 7.007673e+003
1.064033e+003, 7.004134e+003
1.064515e+003, 7.002528e+003
1.064997e+003, 7.004453e+003
1.065479e+003, 7.009026e+003
1.065961e+003, 7.013300e+003
1.066443e+003, 7.017031e+003
1.066926e+003, 7.018084e+003
1.067408e+003, 7.012042e+003
1.067890e+003, 7.007075e+003
1.068372e+003, 7.009010e+003
1.068854e+003, 7.013937e+003
1.069336e+003, 7.018757e+003
1.069818e+003, 7.022143e+003
1.070300e+003, 7.021415e+003
1.070782e+003, 7.014562e+003
1.071265e+003, 7.009711e+003
1.071747e+003, 7.013393e+003
1.072229e+003, 7.016701e+003
1.072711e+003, 7.012313e+003
1.073193e+003, 7.006224e+003
1.073675e+003, 7.005063e+003
1.074157e+003, 7.008270e+003
1.074639e+003, 7.012948e+003
1.075122e+003, 7.018976e+003
1.075604e+003, 7.021148e+003
1.076086e+003, 7.013700e+003
1.076568e+003, 7.005783e+003
1.077050e+003, 7.002351e+003
1.077532e+003, 7.001507e+003
1.078014e+003, 7.003301e+003
1.078496e+003, 7.005429e+003
1.078979e+003, 7.001711e+003
1.079461e+003, 6.990065e+003
1.079943e+003, 6.982726e+003
1.080425e+003, 6.989516e+003
1.080907e+003, 6.996961e+003
1.081389e+003, 6.998243e+003
1.081871e+003, 6.996151e+003
1.082353e+003, 6.991653e+003
1.082835e+003, 6.986595e+003
1.083318e+003, 6.984052e+003
1.083800e+003, 6.984704e+003
1.084282e+003, 6.986588e+003
1.084764e+003, 6.990394e+003
1.085246e+003, 6.993288e+003
1.085728e+003, 6.992770e+003
1.086210e+003, 6.991749e+003
1.086692e+003, 6.993121e+003
1.087175e+003, 6.995721e+003
1.087657e+003, 6.996920e+003
1.088139e+003, 6.996356e+003
1.088621e+003, 6.996376e+003
1.089103e+003, 7.000266e+003
1.089585e+003, 7.001558e+003
1.090067e+003, 6.993397e+003
1.090549e+003, 6.985548e+003
1.091031e+003, 6.987684e+003
1.091514e+003, 6.993958e+003
1.091996e+003, 6.993792e+003
1.092478e+003, 6.986889e+003
1.092960e+003, 6.983721e+003
1.093442e+003, 6.990303e+003
1.093924e+003, 6.996333e+003
1.094406e+003, 6.997964e+003
1.094888e+003, 6.997874e+003
1.095370e+003, 6.997690e+003
1.095853e+003, 6.996981e+003
1.096335e+003, 6.994453e+003
1.096817e+003, 6.990626e+003
1.097299e+003, 6.988548e+003
1.097781e+003, 6.990641e+003
1.098263e+003, 6.990568e+003
1.098745e+003, 6.982401e+003
1.099227e+003, 6.976336e+003
1.099709e+003, 6.981743e+003
1.100192e+003, 6.988966e+003
1.100674e+003, 6.984969e+003
1.101156e+003, 6.973507e+003
1.101638e+003, 6.970573e+003
1.102120e+003, 6.982359e+003
1.102602e+003, 6.990292e+003
1.103084e+003, 6.986114e+003
1.103566e+003, 6.981903e+003
1.104049e+003, 6.982948e+003
1.104531e+003, 6.985303e+003
1.105013e+003, 6.985215e+003
1.105495e+003, 6.983651e+003
1.105977e+003, 6.983649e+003
1.106459e+003, 6.985887e+003
1.106941e+003, 6.987196e+003
1.107423e+003, 6.986454e+003
1.107906e+003, 6.985558e+003
1.108388e+003, 6.985167e+003
1.108870e+003, 6.984707e+003
1.109352e+003, 6.982756e+003
1.109834e+003, 6.981037e+003
1.110316e+003, 6.984014e+003
1.110798e+003, 6.992448e+003
1.111280e+003, 6.994659e+003
1.111762e+003, 6.982583e+003
1.112245e+003, 6.975230e+003
1.112727e+003, 6.979604e+003
1.113209e+003, 6.983867e+003
1.113691e+003, 6.981276e+003
1.114173e+003, 6.976046e+003
1.114655e+003, 6.973548e+003
1.115137e+003, 6.973565e+003
1.115619e+003, 6.972902e+003
1.116102e+003, 6.970483e+003
1.116584e+003, 6.969163e+003
1.117066e+003, 6.969316e+003
1.117548e+003, 6.969886e+003
1.118030e+003, 6.969729e+003
1.118512e+003, 6.970711e+003
1.118994e+003, 6.976312e+003
1.119476e+003, 6.984287e+003
1.119958e+003, 6.984933e+003
1.120441e+003, 6.973671e+003
1.120923e+003, 6.970240e+003
1.121405e+003, 6.979667e+003
1.121887e+003, 6.985359e+003
1.122369e+003, 6.979240e+003
1.122851e+003, 6.976007e+003
1.123333e+003, 6.989630e+003
1.123815e+003, 7.010454e+003
1.124297e+003, 7.016319e+003
1.124780e+003, 7.005829e+003
1.125262e+003, 6.999040e+003
1.125744e+003, 6.997407e+003
1.126226e+003, 6.993677e+003
1.126708e+003, 6.985132e+003
1.127190e+003, 6.979465e+003
1.127672e+003, 6.981372e+003
1.128154e+003, 6.987328e+003
1.128636e+003, 6.992667e+003
1.129119e+003, 6.997219e+003
1.129601e+003, 6.999906e+003
1.130083e+003, 7.000820e+003
1.130565e+003, 6.997666e+003
1.131047e+003, 6.989536e+003
1.131529e+003, 6.983640e+003
1.132011e+003, 6.983061e+003
1.132493e+003, 6.984095e+003
1.132976e+003, 6.982576e+003
1.133458e+003, 6.980736e+003
1.133940e+003, 6.987296e+003
1.134422e+003, 7.001021e+003
1.134904e+003, 7.004601e+003
1.135386e+003, 6.997818e+003
1.135868e+003, 6.992420e+003
1.136350e+003, 6.991578e+003
1.136833e+003, 6.990166e+003
1.137315e+003, 6.984100e+003
1.137797e+003, 6.978453e+003
1.138279e+003, 6.984548e+003
1.138761e+003, 6.997586e+003
1.139243e+003, 6.998391e+003
1.139725e+003, 6.990623e+003
1.140207e+003, 6.992150e+003
1.140689e+003, 7.004026e+003
1.141172e+003, 7.010886e+003
1.141654e+003, 7.005539e+003
1.142136e+003, 6.999365e+003
1.142618e+003, 7.005860e+003
1.143100e+003, 7.017649e+003
1.143582e+003, 7.022251e+003
1.144064e+003, 7.022626e+003
1.144546e+003, 7.025006e+003
1.145029e+003, 7.029099e+003
1.145511e+003, 7.031504e+003
1.145993e+003, 7.031450e+003
1.146475e+003, 7.031654e+003
1.146957e+003, 7.034248e+003
1.147439e+003, 7.037017e+003
1.147921e+003, 7.036737e+003
1.148403e+003, 7.036250e+003
1.148885e+003, 7.040292e+003
1.149368e+003, 7.046069e+003
1.149850e+003, 7.048666e+003
1.150332e+003, 7.047582e+003
1.150814e+003, 7.044128e+003
1.151296e+003, 7.037979e+003
1.151778e+003, 7.035038e+003
1.152260e+003, 7.042524e+003
1.152742e+003, 7.050230e+003
1.153224e+003, 7.050304e+003
1.153707e+003, 7.047810e+003
1.154189e+003, 7.047548e+003
1.154671e+003, 7.049668e+003
1.155153e+003, 7.053675e+003
1.155635e+003, 7.059525e+003
1.156117e+003, 7.063853e+003
1.156599e+003, 7.063859e+003
1.157081e+003, 7.064703e+003
1.157563e+003, 7.068594e+003
1.158046e+003, 7.073128e+003
1.158528e+003, 7.078560e+003
1.159010e+003, 7.082603e+003
1.159492e+003, 7.080957e+003
1.159974e+003, 7.074473e+003
1.160456e+003, 7.071482e+003
1.160938e+003, 7.073761e+003
1.161420e+003, 7.077343e+003
1.161903e+003, 7.085354e+003
1.162385e+003, 7.089739e+003
1.162867e+003, 7.083388e+003
1.163349e+003, 7.078487e+003
1.163831e+003, 7.087216e+003
1.164313e+003, 7.102750e+003
1.164795e+003, 7.107982e+003
1.165277e+003, 7.101479e+003
1.165760e+003, 7.096661e+003
1.166242e+003, 7.093843e+003
1.166724e+003, 7.091361e+003
1.167206e+003, 7.087946e+003
1.167688e+003, 7.088711e+003
1.168170e+003, 7.097451e+003
1.168652e+003, 7.108643e+003
1.169134e+003, 7.115673e+003
1.169616e+003, 7.118579e+003
1.170099e+003, 7.115860e+003
1.170581e+003, 7.107400e+003
1.171063e+003, 7.104399e+003
1.171545e+003, 7.107562e+003
1.172027e+003, 7.111473e+003
1.172509e+003, 7.114514e+003
1.172991e+003, 7.116553e+003
1.173473e+003, 7.117479e+003
1.173956e+003, 7.117422e+003
1.174438e+003, 7.116099e+003
1.174920e+003, 7.114095e+003
1.175402e+003, 7.113151e+003
1.175884e+003, 7.113310e+003
1.176366e+003, 7.115330e+003
1.176848e+003, 7.118745e+003
1.177330e+003, 7.120604e+003
1.177813e+003, 7.119751e+003
1.178295e+003, 7.119177e+003
1.178777e+003, 7.122578e+003
1.179259e+003, 7.126159e+003
1.179741e+003, 7.125700e+003
1.180223e+003, 7.122056e+003
1.180705e+003, 7.113982e+003
1.181187e+003, 7.104650e+003
1.181669e+003, 7.100852e+003
1.182151e+003, 7.102979e+003
1.182634e+003, 7.105350e+003
1.183116e+003, 7.105289e+003
1.183598e+003, 7.105491e+003
1.184080e+003, 7.106765e+003
1.184562e+003, 7.109689e+003
1.185044e+003, 7.119022e+003
1.185526e+003, 7.126523e+003
1.186008e+003, 7.118177e+003
1.186490e+003, 7.102498e+003
1.186973e+003, 7.103311e+003
1.187455e+003, 7.125845e+003
1.187937e+003, 7.138473e+003
1.188419e+003, 7.126962e+003
1.188901e+003, 7.117079e+003
1.189383e+003, 7.113387e+003
1.189865e+003, 7.112896e+003
1.190347e+003, 7.116708e+003
1.190830e+003, 7.120898e+003
1.191312e+003, 7.120531e+003
1.191794e+003, 7.116841e+003
1.192276e+003, 7.116023e+003
1.192758e+003, 7.118768e+003
1.193240e+003, 7.122642e+003
1.193722e+003, 7.129974e+003
1.194204e+003, 7.130417e+003
1.194687e+003, 7.118743e+003
1.195169e+003, 7.109228e+003
1.195651e+003, 7.111426e+003
1.196133e+003, 7.119528e+003
1.196615e+003, 7.124892e+003
1.197097e+003, 7.127512e+003
1.197579e+003, 7.126876e+003
1.198061e+003, 7.123141e+003
1.198543e+003, 7.118491e+003
1.199026e+003, 7.113424e+003
1.199508e+003, 7.112299e+003
1.199990e+003, 7.116440e+003
1.200472e+003, 7.121939e+003
1.200954e+003, 7.125706e+003
1.201436e+003, 7.128969e+003
1.201918e+003, 7.136308e+003
1.202400e+003, 7.142921e+003
1.202883e+003, 7.135962e+003
1.203365e+003, 7.121466e+003
1.203847e+003, 7.112935e+003
1.204329e+003, 7.111650e+003
1.204811e+003, 7.113702e+003
1.205293e+003, 7.117524e+003
1.205775e+003, 7.121756e+003
1.206257e+003, 7.126197e+003
1.206740e+003, 7.129729e+003
1.207222e+003, 7.131929e+003
1.207704e+003, 7.132512e+003
1.208186e+003, 7.129331e+003
1.208668e+003, 7.125522e+003
1.209150e+003, 7.126770e+003
1.209632e+003, 7.132122e+003
1.210114e+003, 7.133677e+003
1.210596e+003, 7.127125e+003
1.211078e+003, 7.125305e+003
1.211561e+003, 7.135748e+003
1.212043e+003, 7.144288e+003
1.212525e+003, 7.144623e+003
1.213007e+003, 7.143836e+003
1.213489e+003, 7.146635e+003
1.213971e+003, 7.150960e+003
1.214453e+003, 7.153757e+003
1.214935e+003, 7.155022e+003
1.215417e+003, 7.155431e+003
1.215900e+003, 7.154202e+003
1.216382e+003, 7.155359e+003
1.216864e+003, 7.160167e+003
1.217346e+003, 7.162457e+003
1.217828e+003, 7.160076e+003
1.218310e+003, 7.155671e+003
1.218792e+003, 7.150853e+003
1.219274e+003, 7.146886e+003
1.219757e+003, 7.146592e+003
1.220239e+003, 7.149107e+003
1.220721e+003, 7.149901e+003
1.221203e+003, 7.149482e+003
1.221685e+003, 7.150282e+003
1.222167e+003, 7.152395e+003
1.222649e+003, 7.155173e+003
1.223131e+003, 7.158000e+003
1.223614e+003, 7.156684e+003
1.224096e+003, 7.145955e+003
1.224578e+003, 7.136165e+003
1.225060e+003, 7.140125e+003
1.225542e+003, 7.150109e+003
1.226024e+003, 7.158236e+003
1.226506e+003, 7.165082e+003
1.226988e+003, 7.172058e+003
1.227470e+003, 7.179340e+003
1.227953e+003, 7.187400e+003
1.228435e+003, 7.196427e+003
1.228917e+003, 7.202060e+003
1.229399e+003, 7.200550e+003
1.229881e+003, 7.198252e+003
1.230363e+003, 7.195466e+003
1.230845e+003, 7.194454e+003
1.231327e+003, 7.198485e+003
1.231810e+003, 7.203530e+003
1.232292e+003, 7.204238e+003
1.232774e+003, 7.201809e+003
1.233256e+003, 7.201242e+003
1.233738e+003, 7.203058e+003
1.234220e+003, 7.204288e+003
1.234702e+003, 7.204222e+003
1.235184e+003, 7.206292e+003
1.235667e+003, 7.212117e+003
1.236149e+003, 7.216242e+003
1.236631e+003, 7.215778e+003
1.237113e+003, 7.212618e+003
1.237595e+003, 7.208466e+003
1.238077e+003, 7.204377e+003
1.238559e+003, 7.203774e+003
1.239041e+003, 7.206047e+003
1.239523e+003, 7.208695e+003
1.240005e+003, 7.211145e+003
1.240488e+003, 7.211292e+003
1.240970e+003, 7.208856e+003
1.241452e+003, 7.204028e+003
1.241934e+003, 7.196813e+003
1.242416e+003, 7.192827e+003
1.242898e+003, 7.200322e+003
1.243380e+003, 7.209927e+003
1.243862e+003, 7.211628e+003
1.244344e+003, 7.210776e+003
1.244827e+003, 7.213321e+003
1.245309e+003, 7.217863e+003
1.245791e+003, 7.221268e+003
1.246273e+003, 7.223302e+003
1.246755e+003, 7.226033e+003
1.247237e+003, 7.231563e+003
1.247719e+003, 7.232236e+003
1.248201e+003, 7.219544e+003
1.248684e+003, 7.211322e+003
1.249166e+003, 7.218100e+003
1.249648e+003, 7.224647e+003
1.250130e+003, 7.220821e+003
1.250612e+003, 7.213617e+003
1.251094e+003, 7.212474e+003
1.251576e+003, 7.216444e+003
1.252058e+003, 7.219314e+003
1.252541e+003, 7.220955e+003
1.253023e+003, 7.222384e+003
1.253505e+003, 7.223539e+003
1.253987e+003, 7.226025e+003
1.254469e+003, 7.230247e+003
1.254951e+003, 7.233838e+003
1.255433e+003, 7.235412e+003
1.255915e+003, 7.235912e+003
1.256397e+003, 7.235805e+003
1.256880e+003, 7.236357e+003
1.257362e+003, 7.241411e+003
1.257844e+003, 7.248225e+003
1.258326e+003, 7.250818e+003
1.258808e+003, 7.250622e+003
1.259290e+003, 7.252073e+003
1.259772e+003, 7.255660e+003
1.260254e+003, 7.259121e+003
1.260737e+003, 7.261622e+003
1.261219e+003, 7.263420e+003
1.261701e+003, 7.264718e+003
1.262183e+003, 7.265315e+003
1.262665e+003, 7.263799e+003
1.263147e+003, 7.262962e+003
1.263629e+003, 7.267017e+003
1.264111e+003, 7.271584e+003
1.264594e+003, 7.267888e+003
1.265076e+003, 7.258349e+003
1.265558e+003, 7.258537e+003
1.266040e+003, 7.272831e+003
1.266522e+003, 7.280751e+003
1.267004e+003, 7.281222e+003
1.267486e+003, 7.277875e+003
1.267968e+003, 7.269592e+003
1.268450e+003, 7.267276e+003
1.268932e+003, 7.277372e+003
1.269415e+003, 7.289873e+003
1.269897e+003, 7.293442e+003
1.270379e+003, 7.291549e+003
1.270861e+003, 7.292138e+003
1.271343e+003, 7.294438e+003
1.271825e+003, 7.295936e+003
1.272307e+003, 7.297055e+003
1.272789e+003, 7.300097e+003
1.273271e+003, 7.304522e+003
1.273754e+003, 7.306357e+003
1.274236e+003, 7.304182e+003
1.274718e+003, 7.302206e+003
1.275200e+003, 7.305302e+003
1.275682e+003, 7.306502e+003
1.276164e+003, 7.297842e+003
1.276646e+003, 7.290015e+003
1.277128e+003, 7.291662e+003
1.277611e+003, 7.297775e+003
1.278093e+003, 7.303420e+003
1.278575e+003, 7.308122e+003
1.279057e+003, 7.311529e+003
1.279539e+003, 7.313876e+003
1.280021e+003, 7.316169e+003
1.280503e+003, 7.316383e+003
1.280985e+003, 7.318366e+003
1.281468e+003, 7.325399e+003
1.281950e+003, 7.331851e+003
1.282432e+003, 7.335424e+003
1.282914e+003, 7.337753e+003
1.283396e+003, 7.340373e+003
1.283878e+003, 7.342641e+003
1.284360e+003, 7.341581e+003
1.284842e+003, 7.336367e+003
1.285324e+003, 7.325949e+003
##END=



