##NAMES=Stutzite
##RRUFFID=R070701
##IDEAL CHEMISTRY=Ag_4.64-4.76_Te_3_
##LOCALITY=Klondike mine, Saguache County, Colorado, USA
##OWNER=RRUFF
##SOURCE=Michael Scott
##DESCRIPTION=Black, highly reflective, chonchoidal fracture, blebs scattered throughout the matrix, associated with altaite, R060692
##STATUS=The identification of this mineral is confirmed by single-crystal X-ray diffraction and chemical analysis.
##URL=rruff.info/R070701
##MEASURED CHEMISTRY=Ag_4.94_Te_3.00_
127.6365, 13.01707
128.1186, 13.39953
128.6008, 13.60515
129.0829, 13.73830
129.5650, 13.92870
130.0471, 14.17517
130.5292, 14.47663
131.0113, 14.89598
131.4935, 15.39073
131.9756, 15.77306
132.4577, 15.94042
132.9398, 15.98026
133.4219, 16.13217
133.9040, 16.40281
134.3862, 16.72585
134.8683, 17.01624
135.3504, 17.27616
135.8325, 17.59526
136.3146, 18.03733
136.7967, 18.58147
137.2789, 19.02409
137.7610, 19.35016
138.2431, 19.62249
138.7252, 19.93889
139.2073, 20.31640
139.6894, 20.66102
140.1716, 20.93738
140.6537, 21.14033
141.1358, 21.31597
141.6179, 21.42536
142.1000, 21.54773
142.5821, 21.85164
143.0643, 22.42414
143.5464, 22.99668
144.0285, 23.46968
144.5106, 23.82023
144.9927, 24.11983
145.4748, 24.33442
145.9570, 24.50252
146.4391, 24.73660
146.9212, 25.14486
147.4033, 25.49199
147.8854, 25.66242
148.3675, 25.48658
148.8497, 25.40245
149.3318, 25.52141
149.8139, 25.77433
150.2960, 25.80764
150.7781, 25.42440
151.2602, 24.96569
151.7424, 24.61852
152.2245, 24.67851
152.7066, 24.51348
153.1887, 23.99899
153.6708, 23.16706
154.1529, 22.36612
154.6351, 21.72342
155.1172, 21.05058
155.5993, 20.22369
156.0814, 18.90336
156.5635, 17.74934
157.0456, 16.96856
157.5278, 16.56926
158.0099, 16.09992
158.4920, 15.37918
158.9741, 14.58760
159.4562, 13.88305
159.9383, 13.40765
160.4205, 12.92909
160.9026, 12.32552
161.3847, 11.57899
161.8668, 10.94073
162.3489, 10.56604
162.8310, 10.32529
163.3132, 10.06752
163.7953, 9.731399
164.2774, 9.373293
164.7595, 8.991459
165.2416, 8.568914
165.7237, 8.239582
166.2059, 8.149140
166.6880, 8.178617
167.1701, 8.147149
167.6522, 7.931175
168.1343, 7.656144
168.6164, 7.394523
169.0986, 7.144254
169.5807, 6.950085
170.0628, 6.884537
170.5449, 6.895670
171.0270, 6.882681
171.5091, 6.765137
171.9913, 6.614739
172.4734, 6.507260
172.9555, 6.465032
173.4376, 6.423946
173.9197, 6.311500
174.4018, 6.152671
174.8840, 6.016495
175.3661, 5.970369
175.8482, 5.961885
176.3303, 5.922117
176.8124, 5.834074
177.2945, 5.727364
177.7767, 5.620902
178.2588, 5.517752
178.7409, 5.435462
179.2230, 5.385001
179.7051, 5.361832
180.1872, 5.369812
180.6694, 5.433164
181.1515, 5.484202
181.6336, 5.408922
182.1157, 5.221719
182.5978, 5.025250
183.0799, 4.866125
183.5621, 4.749124
184.0442, 4.698667
184.5263, 4.742328
185.0084, 4.822095
185.4905, 4.852935
185.9726, 4.834560
186.4547, 4.767079
186.9369, 4.590096
187.4190, 4.344797
187.9011, 4.221591
188.3832, 4.294066
188.8653, 4.477098
189.3474, 4.599585
189.8296, 4.662517
190.3117, 4.672270
190.7938, 4.618218
191.2759, 4.507133
191.7580, 4.385733
192.2401, 4.242153
192.7223, 4.105884
193.2044, 4.087482
193.6865, 4.200915
194.1686, 4.321405
194.6507, 4.321929
195.1328, 4.208536
195.6150, 4.100985
196.0971, 4.014913
196.5792, 3.958526
197.0613, 3.989696
197.5434, 4.127687
198.0255, 4.260410
198.5077, 4.253842
198.9898, 4.101422
199.4719, 3.983341
199.9540, 3.952775
200.4361, 3.991938
200.9182, 4.009777
201.4004, 4.009263
201.8825, 3.977804
202.3646, 3.871314
202.8467, 3.672170
203.3288, 3.559314
203.8109, 3.609155
204.2931, 3.795181
204.7752, 3.882193
205.2573, 3.847150
205.7394, 3.768691
206.2215, 3.733687
206.7036, 3.755719
207.1858, 3.748304
207.6679, 3.672871
208.1500, 3.537486
208.6321, 3.473437
209.1142, 3.498334
209.5963, 3.561294
210.0785, 3.617532
210.5606, 3.674256
211.0427, 3.693496
211.5248, 3.652546
212.0069, 3.553560
212.4890, 3.493649
212.9712, 3.481467
213.4533, 3.494988
213.9354, 3.519435
214.4175, 3.571302
214.8996, 3.580481
215.3817, 3.501913
215.8639, 3.335679
216.3460, 3.296860
216.8281, 3.450182
217.3102, 3.645207
217.7923, 3.702227
218.2744, 3.563667
218.7566, 3.436662
219.2387, 3.374632
219.7208, 3.378427
220.2029, 3.367392
220.6850, 3.320320
221.1671, 3.283746
221.6493, 3.325094
222.1314, 3.505407
222.6135, 3.621389
223.0956, 3.600111
223.5777, 3.432926
224.0598, 3.348695
224.5420, 3.383569
225.0241, 3.460436
225.5062, 3.494516
225.9883, 3.457056
226.4704, 3.438562
226.9525, 3.471448
227.4347, 3.560321
227.9168, 3.595757
228.3989, 3.563671
228.8810, 3.493423
229.3631, 3.409278
229.8452, 3.286690
230.3274, 3.197258
230.8095, 3.157604
231.2916, 3.168748
231.7737, 3.206267
232.2558, 3.298591
232.7379, 3.387954
233.2201, 3.408383
233.7022, 3.314294
234.1843, 3.241859
234.6664, 3.228679
235.1485, 3.276031
235.6306, 3.286255
236.1128, 3.232713
236.5949, 3.169356
237.0770, 3.150798
237.5591, 3.208641
238.0412, 3.248935
238.5233, 3.245170
239.0055, 3.197383
239.4876, 3.184108
239.9697, 3.232088
240.4518, 3.285516
240.9339, 3.287302
241.4160, 3.186421
241.8982, 3.138702
242.3803, 3.207095
242.8624, 3.385132
243.3445, 3.427583
243.8266, 3.255898
244.3087, 3.038209
244.7909, 2.911983
245.2730, 2.907895
245.7551, 2.935924
246.2372, 2.997903
246.7193, 3.089454
247.2014, 3.148722
247.6836, 3.159401
248.1657, 3.156750
248.6478, 3.170021
249.1299, 3.217909
249.6120, 3.241589
250.0941, 3.234259
250.5762, 3.196805
251.0584, 3.123933
251.5405, 2.963045
252.0226, 2.838028
252.5047, 2.854492
252.9868, 3.104960
253.4689, 3.278735
253.9511, 3.331460
254.4332, 3.279846
254.9153, 3.211588
255.3974, 3.106899
255.8795, 3.016248
256.3617, 2.977041
256.8438, 3.012509
257.3259, 3.038457
257.8080, 3.050168
258.2901, 3.047601
258.7722, 3.028190
259.2544, 2.982190
259.7365, 2.935486
260.2186, 2.900395
260.7007, 2.877143
261.1828, 2.866408
261.6649, 2.871964
262.1471, 2.888806
262.6292, 2.899403
263.1113, 2.894216
263.5934, 2.902042
264.0755, 2.943519
264.5576, 3.034822
265.0398, 3.103853
265.5219, 3.150634
266.0040, 3.173642
266.4861, 3.168446
266.9682, 3.130995
267.4503, 3.075435
267.9325, 2.995979
268.4146, 2.872814
268.8967, 2.817775
269.3788, 2.849595
269.8609, 2.930614
270.3430, 2.997372
270.8252, 3.054675
271.3073, 3.081052
271.7894, 3.051570
272.2715, 2.956555
272.7536, 2.915911
273.2357, 2.947608
273.7179, 3.007958
274.2000, 3.023209
274.6821, 2.978518
275.1642, 2.955950
275.6463, 3.002074
276.1284, 3.117151
276.6106, 3.156012
277.0927, 3.095321
277.5748, 3.009079
278.0569, 3.006541
278.5390, 3.102159
279.0211, 3.158918
279.5032, 3.105717
279.9854, 2.963883
280.4675, 2.936706
280.9496, 3.046843
281.4317, 3.195795
281.9138, 3.285583
282.3959, 3.315160
282.8781, 3.313818
283.3602, 3.281033
283.8423, 3.224067
284.3244, 3.172267
284.8065, 3.124771
285.2886, 3.085794
285.7708, 3.060840
286.2529, 3.049398
286.7350, 3.043382
287.2171, 3.044626
287.6992, 3.047703
288.1813, 3.026000
288.6635, 2.976830
289.1456, 2.949002
289.6277, 3.006692
290.1098, 3.132852
290.5919, 3.209412
291.0740, 3.212058
291.5562, 3.166006
292.0383, 3.113525
292.5204, 3.054288
293.0025, 2.991131
293.4846, 2.901053
293.9667, 2.803974
294.4489, 2.778121
294.9310, 2.845503
295.4131, 2.953311
295.8952, 3.035063
296.3773, 3.091832
296.8594, 3.132889
297.3416, 3.179276
297.8237, 3.212756
298.3058, 3.167012
298.7879, 3.019390
299.2700, 2.882911
299.7521, 2.940746
300.2343, 3.133401
300.7164, 3.267571
301.1985, 3.192825
301.6806, 3.022214
302.1627, 2.938133
302.6448, 2.949633
303.1270, 2.986281
303.6091, 2.981602
304.0912, 2.954042
304.5733, 2.941780
305.0554, 2.984975
305.5375, 3.038003
306.0197, 3.047822
306.5018, 3.016019
306.9839, 2.969884
307.4660, 2.928700
307.9481, 2.886304
308.4302, 2.832229
308.9124, 2.736495
309.3945, 2.653879
309.8766, 2.648358
310.3587, 2.705078
310.8408, 2.746011
311.3229, 2.690699
311.8051, 2.610907
312.2872, 2.588082
312.7693, 2.684556
313.2514, 2.767703
313.7335, 2.738224
314.2156, 2.629500
314.6978, 2.539140
315.1799, 2.537512
315.6620, 2.555331
316.1441, 2.532527
316.6262, 2.428281
317.1083, 2.367448
317.5905, 2.446815
318.0726, 2.600300
318.5547, 2.713982
319.0368, 2.727126
319.5189, 2.706394
320.0010, 2.678199
320.4832, 2.642589
320.9653, 2.613078
321.4474, 2.599041
321.9295, 2.591288
322.4116, 2.579069
322.8937, 2.533418
323.3759, 2.508713
323.8580, 2.538319
324.3401, 2.626913
324.8222, 2.678032
325.3043, 2.664192
325.7864, 2.615014
326.2686, 2.553337
326.7507, 2.449784
327.2328, 2.368720
327.7149, 2.315079
328.1970, 2.289818
328.6791, 2.297124
329.1613, 2.394110
329.6434, 2.478475
330.1255, 2.496762
330.6076, 2.374424
331.0897, 2.294249
331.5718, 2.279411
332.0540, 2.308280
332.5361, 2.318864
333.0182, 2.302768
333.5003, 2.279322
333.9824, 2.251816
334.4645, 2.208270
334.9467, 2.201160
335.4288, 2.256446
335.9109, 2.329790
336.3930, 2.340110
336.8751, 2.252996
337.3572, 2.184509
337.8394, 2.179064
338.3215, 2.240961
338.8036, 2.261714
339.2857, 2.224877
339.7678, 2.175488
340.2499, 2.160703
340.7321, 2.183534
341.2142, 2.228120
341.6963, 2.306189
342.1784, 2.401555
342.6605, 2.424108
343.1426, 2.360480
343.6248, 2.285901
344.1069, 2.264764
344.5890, 2.294754
345.0711, 2.320137
345.5532, 2.334810
346.0353, 2.337574
346.5175, 2.319472
346.9996, 2.280708
347.4817, 2.244993
347.9638, 2.230326
348.4459, 2.230981
348.9280, 2.219939
349.4102, 2.189754
349.8923, 2.170892
350.3744, 2.235214
350.8565, 2.355036
351.3386, 2.423230
351.8207, 2.330763
352.3029, 2.173687
352.7850, 2.116064
353.2671, 2.160417
353.7492, 2.231956
354.2313, 2.290230
354.7134, 2.327637
355.1956, 2.330604
355.6777, 2.285910
356.1598, 2.212708
356.6419, 2.097500
357.1240, 1.954928
357.6061, 1.863676
358.0883, 1.905714
358.5704, 2.006328
359.0525, 2.101228
359.5346, 2.200265
360.0167, 2.242794
360.4988, 2.125748
360.9810, 1.924199
361.4631, 1.804380
361.9452, 1.896385
362.4273, 2.043267
362.9094, 2.168433
363.3915, 2.266813
363.8737, 2.325492
364.3558, 2.307140
364.8379, 2.257250
365.3200, 2.229015
365.8021, 2.266174
366.2842, 2.295103
366.7664, 2.288139
367.2485, 2.244363
367.7306, 2.211545
368.2127, 2.181102
368.6948, 2.172182
369.1769, 2.197469
369.6591, 2.354308
370.1412, 2.424968
370.6233, 2.358564
371.1054, 2.192482
371.5875, 2.065394
372.0696, 1.973604
372.5518, 1.927003
373.0339, 1.937233
373.5160, 2.032710
373.9981, 2.105368
374.4802, 2.156486
374.9623, 2.184593
375.4445, 2.177938
375.9266, 2.114618
376.4087, 2.079268
376.8908, 2.111844
377.3729, 2.208701
377.8550, 2.251074
378.3372, 2.233206
378.8193, 2.175213
379.3014, 2.072630
379.7835, 1.919835
380.2656, 1.830970
380.7477, 1.833653
381.2299, 1.907457
381.7120, 2.036246
382.1941, 2.221201
382.6762, 2.353992
383.1583, 2.315664
383.6404, 2.154531
384.1226, 2.066093
384.6047, 2.078760
385.0868, 2.131082
385.5689, 2.153856
386.0510, 2.151845
386.5331, 2.143569
387.0153, 2.131465
387.4974, 2.120880
387.9795, 2.127417
388.4616, 2.151044
388.9437, 2.160618
389.4258, 2.107335
389.9080, 2.030975
390.3901, 1.990400
390.8722, 2.021208
391.3543, 2.072417
391.8364, 2.122724
392.3185, 2.166552
392.8007, 2.185110
393.2828, 2.163705
393.7649, 2.117300
394.2470, 2.045039
394.7291, 1.921926
395.2112, 1.843465
395.6934, 1.870030
396.1755, 1.956425
396.6576, 2.035031
397.1397, 2.113772
397.6218, 2.159359
398.1039, 2.157550
398.5861, 2.105662
399.0682, 2.032310
399.5503, 1.882622
400.0324, 1.746906
400.5145, 1.693421
400.9966, 1.795323
401.4788, 1.876603
401.9609, 1.922198
402.4430, 1.938386
402.9251, 1.949990
403.4072, 1.963037
403.8893, 1.962070
404.3714, 1.930621
404.8535, 1.848620
405.3357, 1.826067
405.8178, 1.887463
406.2999, 1.975919
406.7820, 2.002431
407.2641, 1.954277
407.7462, 1.918833
408.2284, 1.929824
408.7105, 1.974689
409.1926, 1.983891
409.6747, 1.952179
410.1568, 1.923564
410.6389, 1.944615
411.1211, 2.005688
411.6032, 2.051249
412.0853, 2.068777
412.5674, 2.074145
413.0495, 2.099902
413.5316, 2.139450
414.0138, 2.158787
414.4959, 2.121829
414.9780, 2.059402
415.4601, 2.014127
415.9422, 1.987679
416.4243, 1.982553
416.9065, 2.016056
417.3886, 2.068647
417.8707, 2.111255
418.3528, 2.149389
418.8349, 2.159716
419.3170, 2.099519
419.7992, 1.987518
420.2813, 1.914261
420.7634, 1.973790
421.2455, 2.047622
421.7276, 2.047471
422.2097, 1.914885
422.6919, 1.816363
423.1740, 1.816996
423.6561, 1.871134
424.1382, 1.908873
424.6203, 1.881938
425.1024, 1.874560
425.5846, 1.923471
426.0667, 2.033825
426.5488, 2.101242
427.0309, 2.117966
427.5130, 2.099193
427.9951, 2.048950
428.4773, 1.935263
428.9594, 1.861503
429.4415, 1.846031
429.9236, 1.869411
430.4057, 1.884847
430.8878, 1.892955
431.3700, 1.890245
431.8521, 1.861333
432.3342, 1.806211
432.8163, 1.820442
433.2984, 1.920940
433.7805, 2.032052
434.2627, 2.064351
434.7448, 2.024225
435.2269, 1.970530
435.7090, 1.900809
436.1911, 1.843700
436.6732, 1.888978
437.1554, 2.021499
437.6375, 2.116634
438.1196, 2.055194
438.6017, 1.912571
439.0838, 1.802527
439.5659, 1.735324
440.0481, 1.716040
440.5302, 1.790869
441.0123, 1.909687
441.4944, 1.988371
441.9765, 1.970627
442.4586, 1.920397
442.9408, 1.849988
443.4229, 1.768655
443.9050, 1.738923
444.3871, 1.858428
444.8692, 1.991420
445.3513, 2.042508
445.8335, 1.934095
446.3156, 1.855806
446.7977, 1.845862
447.2798, 1.886655
447.7619, 1.949002
448.2440, 2.106366
448.7262, 2.201037
449.2083, 2.170470
449.6904, 2.005052
450.1725, 1.912622
450.6546, 1.929655
451.1367, 1.975234
451.6189, 1.987890
452.1010, 1.956144
452.5831, 1.930106
453.0652, 1.914042
453.5473, 1.905738
454.0294, 1.897635
454.5116, 1.888306
454.9937, 1.891401
455.4758, 1.926115
455.9579, 1.982090
456.4400, 1.995623
456.9221, 1.963407
457.4043, 1.920826
457.8864, 1.891109
458.3685, 1.877852
458.8506, 1.897388
459.3327, 1.973872
459.8148, 2.050682
460.2970, 2.055159
460.7791, 2.002010
461.2612, 1.939562
461.7433, 1.852060
462.2254, 1.793614
462.7076, 1.839894
463.1897, 2.008957
463.6718, 2.142349
464.1539, 2.129519
464.6360, 2.051744
465.1181, 1.989677
465.6003, 1.970911
466.0824, 1.963421
466.5645, 1.969606
467.0466, 1.983427
467.5287, 1.982022
468.0108, 1.950959
468.4930, 1.914774
468.9751, 1.880167
469.4572, 1.844597
469.9393, 1.820612
470.4214, 1.812422
470.9035, 1.812169
471.3857, 1.809656
471.8678, 1.799728
472.3499, 1.806919
472.8320, 1.847050
473.3141, 1.902363
473.7962, 1.902990
474.2784, 1.841279
474.7605, 1.780288
475.2426, 1.761453
475.7247, 1.777512
476.2068, 1.776361
476.6889, 1.750532
477.1711, 1.742918
477.6532, 1.841358
478.1353, 1.999741
478.6174, 2.086438
479.0995, 2.021973
479.5816, 1.908993
480.0638, 1.853808
480.5459, 1.847000
481.0280, 1.854991
481.5101, 1.870049
481.9922, 1.885150
482.4743, 1.891636
482.9565, 1.885679
483.4386, 1.888092
483.9207, 1.924377
484.4028, 1.966162
484.8849, 1.983572
485.3670, 1.960976
485.8492, 1.923864
486.3313, 1.843765
486.8134, 1.742095
487.2955, 1.728479
487.7776, 1.905701
488.2597, 2.047116
488.7419, 2.043671
489.2240, 1.848162
489.7061, 1.740627
490.1882, 1.744561
490.6703, 1.801813
491.1524, 1.866809
491.6346, 1.948840
492.1167, 1.952059
492.5988, 1.817499
493.0809, 1.632102
493.5630, 1.655391
494.0451, 1.880478
494.5273, 2.083110
495.0094, 2.115228
495.4915, 2.032083
495.9736, 1.943948
496.4557, 1.854474
496.9378, 1.794692
497.4200, 1.821988
497.9021, 1.890465
498.3842, 1.926690
498.8663, 1.882646
499.3484, 1.838774
499.8305, 1.850788
500.3127, 1.902961
500.7948, 1.955137
501.2769, 2.024448
501.7590, 2.063781
502.2411, 2.032792
502.7232, 1.913095
503.2054, 1.838280
503.6875, 1.868151
504.1696, 1.923253
504.6517, 1.945518
505.1338, 1.911085
505.6159, 1.888609
506.0981, 1.903279
506.5802, 1.922615
507.0623, 1.844573
507.5444, 1.609066
508.0265, 1.471510
508.5086, 1.571661
508.9908, 1.868344
509.4729, 2.011371
509.9550, 1.988007
510.4371, 1.910540
510.9192, 1.857155
511.4013, 1.828477
511.8835, 1.834107
512.3655, 1.883967
512.8477, 1.940208
513.3298, 1.960330
513.8119, 1.952549
514.2940, 1.936335
514.7761, 1.910132
515.2582, 1.886958
515.7404, 1.883285
516.2225, 1.895415
516.7046, 1.895817
517.1867, 1.869482
517.6688, 1.829248
518.1509, 1.779433
518.6331, 1.708482
519.1152, 1.657918
519.5973, 1.623034
520.0794, 1.617473
520.5615, 1.662110
521.0436, 1.834417
521.5258, 1.933656
522.0079, 1.898625
522.4900, 1.763264
522.9721, 1.700993
523.4542, 1.736773
523.9363, 1.775337
524.4185, 1.756963
524.9006, 1.682188
525.3827, 1.649140
525.8648, 1.659639
526.3469, 1.700725
526.8290, 1.797268
527.3112, 1.920792
527.7933, 1.953645
528.2754, 1.835831
528.7575, 1.676184
529.2396, 1.592964
529.7217, 1.572638
530.2039, 1.576414
530.6860, 1.594315
531.1681, 1.621002
531.6502, 1.648691
532.1323, 1.677698
532.6144, 1.726767
533.0966, 1.857351
533.5787, 1.976342
534.0608, 2.015850
534.5429, 1.901171
535.0250, 1.810003
535.5071, 1.756796
535.9893, 1.735220
536.4714, 1.743401
536.9535, 1.809737
537.4356, 1.849470
537.9177, 1.834165
538.3998, 1.775265
538.8820, 1.745406
539.3641, 1.749087
539.8462, 1.762199
540.3283, 1.769441
540.8104, 1.772507
541.2925, 1.781685
541.7747, 1.796361
542.2568, 1.824021
542.7389, 1.897746
543.2210, 1.990017
543.7031, 2.032238
544.1852, 1.986068
544.6674, 1.914597
545.1495, 1.880375
545.6316, 1.866633
546.1137, 1.831451
546.5958, 1.698343
547.0779, 1.587729
547.5601, 1.586450
548.0422, 1.701811
548.5243, 1.778882
549.0064, 1.744414
549.4885, 1.690275
549.9706, 1.675197
550.4528, 1.735728
550.9349, 1.766470
551.4170, 1.754447
551.8991, 1.723402
552.3812, 1.706047
552.8633, 1.702368
553.3455, 1.713735
553.8276, 1.745538
554.3097, 1.789821
554.7918, 1.818021
555.2739, 1.829704
555.7560, 1.845568
556.2382, 1.896341
556.7203, 1.956867
557.2024, 1.961814
557.6845, 1.906909
558.1666, 1.847258
558.6487, 1.845661
559.1309, 1.860439
559.6130, 1.834336
560.0951, 1.730088
560.5772, 1.628316
561.0593, 1.537743
561.5414, 1.480002
562.0236, 1.493978
562.5057, 1.698301
562.9878, 1.861468
563.4699, 1.895591
563.9520, 1.814952
564.4341, 1.776698
564.9163, 1.810474
565.3984, 1.844885
565.8805, 1.841797
566.3626, 1.792489
566.8447, 1.759566
567.3268, 1.746054
567.8090, 1.739151
568.2911, 1.713772
568.7732, 1.675322
569.2553, 1.683851
569.7374, 1.773144
570.2195, 1.869839
570.7017, 1.853723
571.1838, 1.756397
571.6659, 1.678507
572.1480, 1.689867
572.6301, 1.725945
573.1122, 1.739091
573.5944, 1.729059
574.0765, 1.703277
574.5586, 1.628685
575.0407, 1.566359
575.5228, 1.557760
576.0049, 1.629482
576.4871, 1.695005
576.9692, 1.780704
577.4513, 1.836811
577.9334, 1.802476
578.4155, 1.604688
578.8976, 1.496147
579.3798, 1.532334
579.8619, 1.653880
580.3440, 1.718352
580.8261, 1.721853
581.3082, 1.716817
581.7903, 1.724344
582.2725, 1.739529
582.7546, 1.756703
583.2367, 1.774191
583.7188, 1.766840
584.2009, 1.689731
584.6830, 1.587805
585.1652, 1.513019
585.6473, 1.469477
586.1294, 1.470527
586.6115, 1.562254
587.0936, 1.685439
587.5757, 1.776668
588.0579, 1.801991
588.5400, 1.815168
589.0221, 1.820568
589.5042, 1.820465
589.9863, 1.819190
590.4684, 1.807186
590.9506, 1.810408
591.4327, 1.842839
591.9148, 1.899128
592.3969, 1.933758
592.8790, 1.947199
593.3611, 1.937187
593.8433, 1.882166
594.3254, 1.796734
594.8075, 1.768593
595.2896, 1.807046
595.7717, 1.844001
596.2538, 1.791133
596.7360, 1.693844
597.2181, 1.633716
597.7002, 1.637838
598.1823, 1.672000
598.6644, 1.737004
599.1465, 1.812856
599.6287, 1.865406
600.1108, 1.864697
600.5929, 1.858035
601.0750, 1.855650
601.5571, 1.858571
602.0392, 1.871301
602.5214, 1.911185
603.0035, 1.938129
603.4856, 1.940439
603.9677, 1.919205
604.4498, 1.837246
604.9319, 1.665695
605.4141, 1.521304
605.8962, 1.547265
606.3783, 1.713961
606.8604, 1.824156
607.3425, 1.852971
607.8246, 1.825664
608.3068, 1.738048
608.7889, 1.618828
609.2710, 1.531436
609.7531, 1.502758
610.2352, 1.508335
610.7173, 1.536660
611.1995, 1.586868
611.6816, 1.656273
612.1637, 1.798154
612.6458, 1.907891
613.1279, 1.930603
613.6100, 1.860917
614.0922, 1.820527
614.5743, 1.824338
615.0564, 1.837270
615.5385, 1.839422
616.0206, 1.827501
616.5027, 1.827801
616.9849, 1.845696
617.4670, 1.859690
617.9491, 1.833712
618.4312, 1.777958
618.9133, 1.747900
619.3954, 1.759483
619.8776, 1.786891
620.3597, 1.798690
620.8418, 1.802615
621.3239, 1.815568
621.8060, 1.874187
622.2881, 1.916987
622.7703, 1.905274
623.2524, 1.846878
623.7345, 1.775318
624.2166, 1.647243
624.6987, 1.557144
625.1808, 1.560997
625.6630, 1.668086
626.1451, 1.717813
626.6272, 1.675111
627.1093, 1.632704
627.5914, 1.669711
628.0735, 1.795148
628.5557, 1.861507
629.0378, 1.853064
629.5199, 1.817886
630.0020, 1.802572
630.4841, 1.806334
630.9662, 1.830242
631.4484, 1.883923
631.9305, 1.937678
632.4126, 1.961009
632.8947, 1.963228
633.3768, 1.963636
633.8589, 1.983325
634.3411, 1.989594
634.8232, 1.966844
635.3053, 1.917747
635.7874, 1.858595
636.2695, 1.762057
636.7516, 1.689103
637.2338, 1.664882
637.7159, 1.691283
638.1980, 1.724944
638.6801, 1.773955
639.1622, 1.807703
639.6443, 1.785831
640.1265, 1.718104
640.6086, 1.695124
641.0907, 1.729132
641.5728, 1.776180
642.0549, 1.792253
642.5370, 1.787907
643.0192, 1.780727
643.5013, 1.768060
643.9834, 1.768526
644.4655, 1.824667
644.9476, 1.895728
645.4297, 1.914736
645.9119, 1.783005
646.3940, 1.685064
646.8761, 1.691857
647.3582, 1.773252
647.8403, 1.817253
648.3224, 1.815880
648.8046, 1.792120
649.2867, 1.743993
649.7688, 1.676824
650.2509, 1.643015
650.7330, 1.642484
651.2151, 1.673216
651.6973, 1.768978
652.1794, 1.890237
652.6615, 1.934392
653.1436, 1.892518
653.6257, 1.816981
654.1078, 1.711753
654.5900, 1.612739
655.0721, 1.559993
655.5542, 1.576743
656.0363, 1.612252
656.5184, 1.673460
657.0005, 1.736086
657.4827, 1.766503
657.9648, 1.729086
658.4469, 1.721631
658.9290, 1.780515
659.4111, 1.862005
659.8932, 1.836691
660.3754, 1.686190
660.8575, 1.587215
661.3396, 1.628937
661.8217, 1.750579
662.3038, 1.806496
662.7859, 1.802980
663.2681, 1.783515
663.7502, 1.746108
664.2323, 1.724701
664.7144, 1.765571
665.1965, 1.868228
665.6786, 1.961759
666.1608, 2.059390
666.6429, 2.106240
667.1250, 2.049083
667.6071, 1.807666
668.0892, 1.674956
668.5714, 1.702916
669.0535, 1.781582
669.5356, 1.812849
670.0177, 1.788604
670.4998, 1.775158
670.9819, 1.779991
671.4641, 1.793554
671.9462, 1.811008
672.4283, 1.827097
672.9104, 1.818774
673.3925, 1.763379
673.8746, 1.707317
674.3568, 1.707278
674.8389, 1.741964
675.3210, 1.765843
675.8031, 1.737562
676.2852, 1.717721
676.7673, 1.748959
677.2495, 1.817518
677.7316, 1.833572
678.2137, 1.742048
678.6958, 1.673004
679.1779, 1.682816
679.6600, 1.766771
680.1422, 1.808638
680.6243, 1.806746
681.1064, 1.776908
681.5885, 1.691012
682.0706, 1.585361
682.5527, 1.605910
683.0349, 1.763979
683.5170, 1.911974
683.9991, 1.919581
684.4812, 1.861589
684.9633, 1.814045
685.4454, 1.783389
685.9276, 1.791675
686.4097, 1.899542
686.8918, 2.024910
687.3739, 2.077267
687.8560, 2.024375
688.3381, 1.948759
688.8203, 1.834587
689.3024, 1.716998
689.7845, 1.654188
690.2666, 1.647698
690.7487, 1.670239
691.2308, 1.719175
691.7130, 1.786560
692.1951, 1.902647
692.6772, 2.036046
693.1593, 2.075790
693.6414, 1.853619
694.1235, 1.611127
694.6057, 1.549037
695.0878, 1.634200
695.5699, 1.716381
696.0520, 1.757774
696.5341, 1.778126
697.0162, 1.768902
697.4984, 1.731348
697.9805, 1.757262
698.4626, 1.894737
698.9447, 1.997286
699.4268, 1.943584
699.9089, 1.746465
700.3911, 1.699061
700.8732, 1.812813
701.3553, 1.931041
701.8374, 1.897807
702.3195, 1.780943
702.8016, 1.692208
703.2838, 1.646078
703.7659, 1.629908
704.2480, 1.663283
704.7301, 1.708417
705.2122, 1.728644
705.6943, 1.698284
706.1765, 1.673287
706.6586, 1.654174
707.1407, 1.644771
707.6228, 1.651036
708.1049, 1.676390
708.5870, 1.705483
709.0692, 1.739879
709.5513, 1.769797
710.0334, 1.769138
710.5155, 1.744879
710.9976, 1.734486
711.4797, 1.756006
711.9618, 1.790247
712.4439, 1.817071
712.9260, 1.840913
713.4081, 1.873108
713.8903, 1.974434
714.3724, 2.027572
714.8545, 1.958227
715.3366, 1.787970
715.8187, 1.662682
716.3008, 1.566383
716.7830, 1.546547
717.2651, 1.652751
717.7472, 1.859402
718.2293, 1.942144
718.7114, 1.894922
719.1935, 1.825524
719.6757, 1.802976
720.1578, 1.805642
720.6399, 1.787734
721.1220, 1.749695
721.6041, 1.721212
722.0862, 1.720745
722.5684, 1.738463
723.0505, 1.775468
723.5326, 1.840797
724.0147, 1.877735
724.4968, 1.885908
724.9789, 1.855886
725.4611, 1.761176
725.9432, 1.556240
726.4253, 1.480882
726.9074, 1.563179
727.3895, 1.693371
727.8716, 1.758503
728.3538, 1.771206
728.8359, 1.776454
729.3180, 1.779366
729.8001, 1.786421
730.2822, 1.816519
730.7643, 1.849952
731.2465, 1.857288
731.7286, 1.795984
732.2107, 1.761504
732.6928, 1.810554
733.1749, 1.891363
733.6570, 1.921707
734.1392, 1.867758
734.6213, 1.841203
735.1034, 1.869790
735.5855, 1.918835
736.0676, 1.904778
736.5497, 1.833284
737.0319, 1.794666
737.5140, 1.837244
737.9961, 1.902383
738.4782, 1.913111
738.9603, 1.884092
739.4424, 1.853055
739.9246, 1.841750
740.4067, 1.827488
740.8888, 1.788502
741.3709, 1.734732
741.8530, 1.712816
742.3351, 1.746130
742.8173, 1.777482
743.2994, 1.788699
743.7815, 1.784886
744.2636, 1.799802
744.7457, 1.835880
745.2278, 1.856894
745.7100, 1.817203
746.1921, 1.757601
746.6742, 1.776888
747.1563, 1.861617
747.6384, 1.917236
748.1205, 1.840394
748.6027, 1.753840
749.0848, 1.752898
749.5669, 1.847012
750.0490, 1.912880
750.5311, 1.920598
751.0132, 1.913770
751.4954, 1.910717
751.9775, 1.911892
752.4596, 1.905853
752.9417, 1.888515
753.4238, 1.884085
753.9059, 1.921638
754.3881, 1.985211
754.8702, 2.041488
755.3523, 2.087876
755.8344, 2.108657
756.3165, 2.077192
756.7986, 2.023663
757.2808, 1.972271
757.7629, 1.923927
758.2450, 1.886290
758.7271, 1.850236
759.2092, 1.833494
759.6913, 1.853830
760.1735, 1.924126
760.6556, 1.979559
761.1377, 2.019820
761.6198, 2.041075
762.1019, 2.039044
762.5840, 2.014489
763.0662, 1.959603
763.5483, 1.864248
764.0304, 1.787146
764.5125, 1.814769
764.9946, 1.873009
765.4767, 1.870895
765.9589, 1.721165
766.4410, 1.628760
766.9231, 1.652875
767.4052, 1.734661
767.8873, 1.831420
768.3694, 1.966083
768.8516, 2.010113
769.3337, 1.929230
769.8158, 1.801304
770.2979, 1.729616
770.7800, 1.707158
771.2621, 1.710008
771.7443, 1.734508
772.2264, 1.775984
772.7085, 1.858362
773.1906, 1.947203
773.6727, 1.991134
774.1548, 1.939694
774.6370, 1.885714
775.1191, 1.830367
775.6012, 1.787548
776.0833, 1.782164
776.5654, 1.820200
777.0475, 1.875791
777.5297, 1.955554
778.0118, 2.030728
778.4939, 2.052486
778.9760, 2.025287
779.4581, 1.959685
779.9402, 1.819437
780.4224, 1.701918
780.9045, 1.703821
781.3866, 1.782057
781.8687, 1.856050
782.3508, 1.918767
782.8329, 1.955943
783.3151, 1.956624
783.7972, 1.934378
784.2793, 1.922666
784.7614, 1.927422
785.2435, 1.904655
785.7256, 1.822106
786.2078, 1.732428
786.6899, 1.767882
787.1720, 1.895082
787.6541, 1.989815
788.1362, 1.976275
788.6183, 1.933370
789.1005, 1.894111
789.5826, 1.866143
790.0647, 1.869735
790.5468, 1.983893
791.0289, 2.037014
791.5110, 1.978377
791.9932, 1.841405
792.4753, 1.718191
792.9574, 1.603783
793.4395, 1.541804
793.9216, 1.562738
794.4037, 1.628071
794.8859, 1.665919
795.3680, 1.685306
795.8501, 1.713170
796.3322, 1.778284
796.8143, 1.840825
797.2964, 1.888458
797.7786, 1.917125
798.2607, 1.909675
798.7428, 1.836833
799.2249, 1.770326
799.7070, 1.720618
800.1891, 1.691242
800.6713, 1.707638
801.1534, 1.770632
801.6355, 1.811872
802.1176, 1.798437
802.5997, 1.751180
803.0818, 1.654642
803.5640, 1.544450
804.0461, 1.529120
804.5282, 1.811851
805.0103, 2.041944
805.4924, 2.018860
805.9745, 1.802748
806.4567, 1.693695
806.9388, 1.735641
807.4209, 1.797938
807.9030, 1.859450
808.3851, 1.906548
808.8672, 1.869655
809.3494, 1.761830
809.8315, 1.703450
810.3136, 1.787610
810.7957, 1.915821
811.2778, 2.000482
811.7599, 2.047594
812.2421, 2.074032
812.7242, 2.081527
813.2063, 2.073509
813.6884, 2.052460
814.1705, 2.016882
814.6526, 1.950308
815.1348, 1.833745
815.6169, 1.764499
816.0990, 1.784061
816.5811, 1.855856
817.0632, 1.912947
817.5453, 1.953740
818.0275, 1.970976
818.5096, 1.950698
818.9917, 1.915984
819.4738, 1.856500
819.9559, 1.793648
820.4380, 1.785131
820.9202, 1.926737
821.4023, 2.011891
821.8844, 1.977760
822.3665, 1.878632
822.8486, 1.866545
823.3307, 1.944761
823.8129, 2.002228
824.2950, 1.993951
824.7771, 1.957939
825.2592, 1.953849
825.7413, 1.966638
826.2234, 1.960135
826.7056, 1.882493
827.1877, 1.823170
827.6698, 1.828169
828.1519, 1.874061
828.6340, 1.903174
829.1161, 1.901855
829.5983, 1.918590
830.0804, 1.972968
830.5625, 2.034816
831.0446, 2.031922
831.5267, 1.978579
832.0089, 1.953666
832.4910, 2.004345
832.9731, 2.052510
833.4552, 2.011841
833.9373, 1.925361
834.4194, 1.862626
834.9016, 1.873293
835.3837, 1.866358
835.8658, 1.808922
836.3479, 1.743541
836.8300, 1.744373
837.3121, 1.820303
837.7943, 1.872670
838.2764, 1.880364
838.7585, 1.873250
839.2406, 1.890296
839.7227, 1.923444
840.2048, 1.959935
840.6870, 2.010006
841.1691, 2.032646
841.6512, 1.987507
842.1333, 1.914452
842.6154, 1.860424
843.0975, 1.826482
843.5797, 1.816498
844.0618, 1.840939
844.5439, 1.870036
845.0260, 1.854234
845.5081, 1.807318
845.9902, 1.807332
846.4724, 1.873552
846.9545, 1.937771
847.4366, 1.942404
847.9187, 1.912165
848.4008, 1.870323
848.8829, 1.811486
849.3651, 1.767463
849.8472, 1.731771
850.3293, 1.721753
850.8114, 1.763937
851.2935, 1.868457
851.7756, 1.918162
852.2578, 1.904908
852.7399, 1.871217
853.2220, 1.849517
853.7041, 1.835229
854.1862, 1.814987
854.6683, 1.786374
855.1505, 1.782664
855.6326, 1.832381
856.1147, 1.902230
856.5968, 1.977711
857.0789, 2.062226
857.5610, 2.119659
858.0432, 2.152653
858.5253, 2.148879
859.0074, 2.089211
859.4895, 1.985904
859.9716, 1.853847
860.4537, 1.701495
860.9359, 1.621387
861.4180, 1.758500
861.9001, 1.916421
862.3822, 1.950115
862.8643, 1.858265
863.3464, 1.772800
863.8286, 1.670483
864.3107, 1.637119
864.7928, 1.729996
865.2749, 1.911632
865.7570, 1.999172
866.2391, 1.998235
866.7213, 1.992518
867.2034, 2.047180
867.6855, 2.101585
868.1676, 2.077616
868.6497, 1.999465
869.1318, 1.937152
869.6140, 1.959882
870.0961, 1.940899
870.5782, 1.800137
871.0603, 1.616398
871.5424, 1.614762
872.0245, 1.820134
872.5067, 1.959181
872.9888, 1.941445
873.4709, 1.860452
873.9530, 1.848347
874.4351, 1.883668
874.9172, 1.920416
875.3994, 1.948495
875.8815, 1.967794
876.3636, 1.988415
876.8457, 1.994849
877.3278, 1.964805
877.8099, 1.882784
878.2921, 1.806457
878.7742, 1.731480
879.2563, 1.687557
879.7384, 1.749861
880.2205, 1.871681
880.7026, 1.912213
881.1848, 1.835210
881.6669, 1.742298
882.1490, 1.667239
882.6311, 1.628613
883.1132, 1.654584
883.5953, 1.790987
884.0775, 1.853606
884.5596, 1.816313
885.0417, 1.754160
885.5238, 1.716954
886.0059, 1.703403
886.4880, 1.709816
886.9702, 1.735771
887.4523, 1.772048
887.9344, 1.838851
888.4165, 1.893230
888.8986, 1.882375
889.3807, 1.804907
889.8629, 1.762711
890.3450, 1.797256
890.8271, 1.827589
891.3092, 1.815529
891.7913, 1.775020
892.2734, 1.799855
892.7556, 1.885226
893.2377, 1.931601
893.7198, 1.828505
894.2019, 1.708003
894.6840, 1.744473
895.1661, 1.877308
895.6483, 1.937876
896.1304, 1.749757
896.6125, 1.645527
897.0946, 1.747265
897.5767, 1.939645
898.0588, 1.963750
898.5410, 1.813511
899.0231, 1.661414
899.5052, 1.528914
899.9873, 1.457652
900.4694, 1.563276
900.9515, 1.747248
901.4337, 1.836690
901.9158, 1.714236
902.3979, 1.632683
902.8800, 1.723029
903.3621, 1.839622
903.8442, 1.848861
904.3264, 1.724571
904.8085, 1.646042
905.2906, 1.622240
905.7727, 1.630464
906.2548, 1.686047
906.7369, 1.743439
907.2191, 1.702453
907.7012, 1.550177
908.1833, 1.442612
908.6654, 1.475813
909.1475, 1.552834
909.6296, 1.631321
910.1118, 1.709931
910.5939, 1.741161
911.0760, 1.715223
911.5581, 1.693011
912.0402, 1.712213
912.5223, 1.755631
913.0045, 1.799472
913.4866, 1.839117
913.9687, 1.855042
914.4508, 1.817643
914.9329, 1.776300
915.4150, 1.753996
915.8972, 1.742705
916.3793, 1.716713
916.8614, 1.665173
917.3435, 1.650691
917.8256, 1.702703
918.3077, 1.764152
918.7899, 1.718102
919.2720, 1.611075
919.7541, 1.552768
920.2362, 1.581055
920.7183, 1.648097
921.2004, 1.806910
921.6826, 1.946925
922.1647, 1.948419
922.6468, 1.739843
923.1289, 1.608208
923.6110, 1.561824
924.0931, 1.570727
924.5753, 1.643589
925.0574, 1.741416
925.5395, 1.770437
926.0216, 1.724669
926.5037, 1.661982
926.9858, 1.576918
927.4680, 1.516801
927.9501, 1.518292
928.4322, 1.576766
928.9143, 1.655979
929.3964, 1.771696
929.8785, 1.848502
930.3607, 1.844922
930.8428, 1.788552
931.3249, 1.718508
931.8070, 1.646543
932.2891, 1.611121
932.7712, 1.639917
933.2534, 1.697181
933.7355, 1.820662
934.2176, 1.947301
934.6997, 1.945044
935.1818, 1.753696
935.6639, 1.648728
936.1461, 1.681942
936.6282, 1.760334
937.1103, 1.768545
937.5924, 1.726738
938.0745, 1.663361
938.5566, 1.569295
939.0388, 1.530987
939.5209, 1.671748
940.0030, 1.821879
940.4851, 1.839595
940.9672, 1.698266
941.4493, 1.649307
941.9315, 1.710266
942.4136, 1.782098
942.8957, 1.793720
943.3778, 1.770973
943.8599, 1.764646
944.3420, 1.772096
944.8242, 1.775639
945.3063, 1.768381
945.7884, 1.753672
946.2705, 1.717047
946.7526, 1.676178
947.2347, 1.695582
947.7169, 1.793442
948.1990, 1.825352
948.6811, 1.736794
949.1632, 1.606908
949.6453, 1.523890
950.1274, 1.488863
950.6096, 1.512408
951.0917, 1.636205
951.5738, 1.731203
952.0559, 1.749606
952.5380, 1.729661
953.0201, 1.692745
953.5023, 1.633846
953.9844, 1.591398
954.4665, 1.564605
954.9486, 1.571340
955.4307, 1.667075
955.9128, 1.781514
956.3950, 1.819318
956.8771, 1.780456
957.3591, 1.731632
957.8412, 1.652219
958.3234, 1.620416
958.8055, 1.691733
959.2876, 1.819349
959.7697, 1.797294
960.2518, 1.629507
960.7339, 1.520258
961.2161, 1.564167
961.6982, 1.656707
962.1803, 1.710348
962.6624, 1.729014
963.1445, 1.719063
963.6266, 1.617797
964.1088, 1.592085
964.5909, 1.696993
965.0730, 1.816044
965.5551, 1.813084
966.0372, 1.704570
966.5193, 1.639186
967.0015, 1.627871
967.4836, 1.635054
967.9657, 1.633720
968.4478, 1.638828
968.9299, 1.673025
969.4120, 1.736428
969.8942, 1.766423
970.3763, 1.753093
970.8584, 1.721258
971.3405, 1.669200
971.8226, 1.613002
972.3047, 1.591993
972.7869, 1.604584
973.2690, 1.647159
973.7511, 1.764997
974.2332, 1.843763
974.7153, 1.772035
975.1974, 1.643808
975.6796, 1.600700
976.1617, 1.703042
976.6438, 1.713819
977.1259, 1.594709
977.6080, 1.479410
978.0901, 1.542430
978.5723, 1.700239
979.0544, 1.788273
979.5365, 1.790817
980.0186, 1.754871
980.5007, 1.647589
980.9828, 1.564208
981.4650, 1.559333
981.9471, 1.620466
982.4292, 1.669066
982.9113, 1.704895
983.3934, 1.730906
983.8755, 1.748869
984.3577, 1.756689
984.8398, 1.756622
985.3219, 1.743642
985.8040, 1.707383
986.2861, 1.573584
986.7682, 1.525177
987.2504, 1.632415
987.7325, 1.774006
988.2146, 1.821514
988.6967, 1.780155
989.1788, 1.743297
989.6609, 1.716585
990.1431, 1.695570
990.6252, 1.662309
991.1073, 1.643729
991.5894, 1.683484
992.0715, 1.778400
992.5536, 1.810642
993.0358, 1.743793
993.5179, 1.677325
994.0000, 1.636717
994.4821, 1.624174
994.9642, 1.666066
995.4464, 1.743598
995.9285, 1.791914
996.4106, 1.775300
996.8927, 1.748131
997.3748, 1.747550
997.8569, 1.745642
998.3391, 1.706974
998.8212, 1.610244
999.3033, 1.551433
999.7854, 1.534666
1000.268, 1.543465
1000.750, 1.579584
1001.232, 1.624722
1001.714, 1.651921
1002.196, 1.660081
1002.678, 1.654894
1003.160, 1.619408
1003.642, 1.592424
1004.124, 1.577711
1004.607, 1.582949
1005.089, 1.654628
1005.571, 1.787272
1006.053, 1.845079
1006.535, 1.773178
1007.017, 1.668941
1007.499, 1.602625
1007.981, 1.567262
1008.464, 1.554724
1008.946, 1.569299
1009.428, 1.601074
1009.910, 1.668927
1010.392, 1.714868
1010.874, 1.667920
1011.356, 1.567676
1011.838, 1.581591
1012.320, 1.688979
1012.803, 1.770967
1013.285, 1.717423
1013.767, 1.669381
1014.249, 1.737602
1014.731, 1.849392
1015.213, 1.823541
1015.695, 1.619200
1016.177, 1.546649
1016.659, 1.684352
1017.142, 1.858231
1017.624, 1.843191
1018.106, 1.737493
1018.588, 1.673402
1019.070, 1.674181
1019.552, 1.706958
1020.034, 1.813259
1020.516, 1.884454
1020.999, 1.852651
1021.481, 1.744299
1021.963, 1.698979
1022.445, 1.712267
1022.927, 1.757383
1023.409, 1.859963
1023.891, 1.944751
1024.373, 1.952217
1024.855, 1.910967
1025.338, 1.869251
1025.820, 1.825120
1026.302, 1.793435
1026.784, 1.772006
1027.266, 1.773651
1027.748, 1.851421
1028.230, 1.946811
1028.712, 1.931473
1029.195, 1.802199
1029.677, 1.692084
1030.159, 1.636474
1030.641, 1.637007
1031.123, 1.719581
1031.605, 1.845936
1032.087, 1.877682
1032.569, 1.819199
1033.052, 1.748777
1033.534, 1.677495
1034.016, 1.637529
1034.498, 1.687756
1034.980, 1.770691
1035.462, 1.815877
1035.944, 1.797859
1036.426, 1.785396
1036.908, 1.777132
1037.391, 1.778177
1037.873, 1.795266
1038.355, 1.823633
1038.837, 1.873735
1039.319, 1.930291
1039.801, 1.924020
1040.283, 1.700579
1040.765, 1.557535
1041.247, 1.655459
1041.730, 1.848740
1042.212, 1.893886
1042.694, 1.787777
1043.176, 1.724213
1043.658, 1.733349
1044.140, 1.759660
1044.622, 1.764989
1045.104, 1.753700
1045.587, 1.724836
1046.069, 1.676718
1046.551, 1.637770
1047.033, 1.599047
1047.515, 1.597569
1047.997, 1.665228
1048.479, 1.758726
1048.961, 1.780446
1049.443, 1.750916
1049.926, 1.719721
1050.408, 1.685485
1050.890, 1.685812
1051.372, 1.796106
1051.854, 1.896747
1052.336, 1.871070
1052.818, 1.707894
1053.300, 1.656131
1053.782, 1.718760
1054.265, 1.773984
1054.747, 1.701824
1055.229, 1.613495
1055.711, 1.610831
1056.193, 1.673100
1056.675, 1.713657
1057.157, 1.724089
1057.639, 1.715748
1058.122, 1.681079
1058.604, 1.651653
1059.086, 1.697332
1059.568, 1.772797
1060.050, 1.773793
1060.532, 1.675610
1061.014, 1.608103
1061.496, 1.640715
1061.979, 1.698224
1062.461, 1.758701
1062.943, 1.816110
1063.425, 1.845107
1063.907, 1.845981
1064.389, 1.817328
1064.871, 1.735308
1065.353, 1.666326
1065.835, 1.686721
1066.318, 1.737260
1066.800, 1.739620
1067.282, 1.678355
1067.764, 1.602015
1068.246, 1.501298
1068.728, 1.432223
1069.210, 1.450522
1069.692, 1.521162
1070.174, 1.605339
1070.657, 1.694038
1071.139, 1.760285
1071.621, 1.818040
1072.103, 1.811702
1072.585, 1.701334
1073.067, 1.564808
1073.549, 1.520968
1074.031, 1.554587
1074.514, 1.609838
1074.996, 1.681352
1075.478, 1.718085
1075.960, 1.636180
1076.442, 1.555437
1076.924, 1.552845
1077.406, 1.619240
1077.888, 1.726479
1078.370, 1.881495
1078.853, 1.940915
1079.335, 1.816149
1079.817, 1.666733
1080.299, 1.696895
1080.781, 1.799194
1081.263, 1.823559
1081.745, 1.693646
1082.227, 1.622426
1082.709, 1.628960
1083.192, 1.647762
1083.674, 1.638243
1084.156, 1.609228
1084.638, 1.574865
1085.120, 1.539933
1085.602, 1.519801
1086.084, 1.491769
1086.566, 1.521576
1087.048, 1.657450
1087.531, 1.821615
1088.013, 1.937090
1088.495, 2.002158
1088.977, 1.972027
1089.459, 1.844608
1089.941, 1.730986
1090.423, 1.754935
1090.905, 1.777694
1091.388, 1.666927
1091.870, 1.471520
1092.352, 1.415875
1092.834, 1.522851
1093.316, 1.601051
1093.798, 1.598125
1094.280, 1.585963
1094.762, 1.695881
1095.245, 1.821539
1095.727, 1.800496
1096.209, 1.567942
1096.691, 1.476889
1097.173, 1.610081
1097.655, 1.735451
1098.137, 1.742085
1098.619, 1.679588
1099.101, 1.659025
1099.583, 1.665972
1100.066, 1.661367
1100.548, 1.618666
1101.030, 1.586517
1101.512, 1.574230
1101.994, 1.580631
1102.476, 1.624906
1102.958, 1.699749
1103.440, 1.672457
1103.923, 1.553718
1104.405, 1.463408
1104.887, 1.513894
1105.369, 1.569268
1105.851, 1.526115
1106.333, 1.445404
1106.815, 1.455604
1107.297, 1.576681
1107.780, 1.636398
1108.262, 1.613281
1108.744, 1.574303
1109.226, 1.566002
1109.708, 1.583822
1110.190, 1.647255
1110.672, 1.745207
1111.154, 1.767702
1111.636, 1.678283
1112.119, 1.606145
1112.601, 1.584523
1113.083, 1.584682
1113.565, 1.571177
1114.047, 1.545365
1114.529, 1.497510
1115.011, 1.413396
1115.493, 1.395244
1115.975, 1.543854
1116.458, 1.637118
1116.940, 1.545422
1117.422, 1.352097
1117.904, 1.339615
1118.386, 1.463730
1118.868, 1.573589
1119.350, 1.609505
1119.832, 1.631868
1120.315, 1.690998
1120.797, 1.722932
1121.279, 1.657018
1121.761, 1.495227
1122.243, 1.438018
1122.725, 1.480867
1123.207, 1.554715
1123.689, 1.656363
1124.172, 1.735498
1124.654, 1.728098
1125.136, 1.687718
1125.618, 1.729198
1126.100, 1.898517
1126.582, 1.879159
1127.064, 1.629988
1127.546, 1.397227
1128.028, 1.435150
1128.510, 1.565826
1128.993, 1.620191
1129.475, 1.599205
1129.957, 1.559045
1130.439, 1.479931
1130.921, 1.456380
1131.403, 1.514596
1131.885, 1.601018
1132.367, 1.679762
1132.850, 1.724820
1133.332, 1.669000
1133.814, 1.502453
1134.296, 1.408403
1134.778, 1.458632
1135.260, 1.529373
1135.742, 1.590914
1136.224, 1.642797
1136.707, 1.677945
1137.189, 1.704428
1137.671, 1.751790
1138.153, 1.841467
1138.635, 1.890854
1139.117, 1.850085
1139.599, 1.774791
1140.081, 1.664446
1140.563, 1.545198
1141.046, 1.553324
1141.528, 1.668355
1142.010, 1.791972
1142.492, 1.920650
1142.974, 1.980767
1143.456, 1.854630
1143.938, 1.701492
1144.420, 1.677235
1144.902, 1.789073
1145.385, 1.822437
1145.867, 1.780350
1146.349, 1.727098
1146.831, 1.701964
1147.313, 1.679857
1147.795, 1.643536
1148.277, 1.599470
1148.759, 1.551782
1149.242, 1.489436
1149.724, 1.500330
1150.206, 1.595489
1150.688, 1.676174
1151.170, 1.641895
1151.652, 1.569422
1152.134, 1.507534
1152.616, 1.467937
1153.099, 1.489078
1153.581, 1.600765
1154.063, 1.671719
1154.545, 1.682582
1155.027, 1.659315
1155.509, 1.586496
1155.991, 1.523861
1156.473, 1.587280
1156.955, 1.769673
1157.438, 1.822026
1157.920, 1.649708
1158.402, 1.533519
1158.884, 1.551122
1159.366, 1.624667
1159.848, 1.654660
1160.330, 1.653338
1160.812, 1.633774
1161.294, 1.594630
1161.777, 1.578784
1162.259, 1.614096
1162.741, 1.637806
1163.223, 1.628006
1163.705, 1.593143
1164.187, 1.526188
1164.669, 1.453369
1165.151, 1.447115
1165.634, 1.556817
1166.116, 1.619831
1166.598, 1.546688
1167.080, 1.481153
1167.562, 1.501781
1168.044, 1.580664
1168.526, 1.624160
1169.008, 1.638076
1169.490, 1.643793
1169.973, 1.650830
1170.455, 1.647413
1170.937, 1.615901
1171.419, 1.586351
1171.901, 1.584268
1172.383, 1.604179
1172.865, 1.596863
1173.347, 1.567504
1173.829, 1.544731
1174.312, 1.562349
1174.794, 1.566290
1175.276, 1.508526
1175.758, 1.446344
1176.240, 1.441602
1176.722, 1.492148
1177.204, 1.520929
1177.686, 1.526421
1178.169, 1.513900
1178.651, 1.440332
1179.133, 1.400510
1179.615, 1.487186
1180.097, 1.615330
1180.579, 1.656451
1181.061, 1.608688
1181.543, 1.586601
1182.026, 1.598139
1182.508, 1.607665
1182.990, 1.586948
1183.472, 1.557923
1183.954, 1.530591
1184.436, 1.507050
1184.918, 1.487670
1185.400, 1.471883
1185.882, 1.481476
1186.365, 1.522127
1186.847, 1.551340
1187.329, 1.507965
1187.811, 1.462381
1188.293, 1.475212
1188.775, 1.534362
1189.257, 1.595886
1189.739, 1.662440
1190.221, 1.689817
1190.704, 1.664012
1191.186, 1.630658
1191.668, 1.631462
1192.150, 1.645659
1192.632, 1.660060
1193.114, 1.672091
1193.596, 1.671833
1194.078, 1.659576
1194.561, 1.624792
1195.043, 1.553492
1195.525, 1.500334
1196.007, 1.542382
1196.489, 1.616256
1196.971, 1.659576
1197.453, 1.668040
1197.935, 1.676400
1198.417, 1.686980
1198.900, 1.675957
1199.382, 1.630286
1199.864, 1.571571
1200.346, 1.472290
1200.828, 1.402136
1201.310, 1.484269
1201.792, 1.755981
1202.274, 1.811056
1202.756, 1.620339
1203.239, 1.468917
1203.721, 1.503349
1204.203, 1.598063
1204.685, 1.643590
1205.167, 1.651272
1205.649, 1.625503
1206.131, 1.553460
1206.613, 1.533573
1207.096, 1.569899
1207.578, 1.622983
1208.060, 1.703271
1208.542, 1.748838
1209.024, 1.630399
1209.506, 1.455097
1209.988, 1.405314
1210.470, 1.526240
1210.953, 1.626024
1211.435, 1.706608
1211.917, 1.756523
1212.399, 1.758218
1212.881, 1.736512
1213.363, 1.696161
1213.845, 1.657858
1214.327, 1.667098
1214.809, 1.760958
1215.292, 1.771587
1215.774, 1.689924
1216.256, 1.592989
1216.738, 1.506665
1217.220, 1.460189
1217.702, 1.523539
1218.184, 1.635888
1218.666, 1.659918
1219.148, 1.553965
1219.631, 1.523307
1220.113, 1.586487
1220.595, 1.626880
1221.077, 1.489387
1221.559, 1.345901
1222.041, 1.379052
1222.523, 1.522255
1223.005, 1.600479
1223.488, 1.594367
1223.970, 1.587671
1224.452, 1.584759
1224.934, 1.595653
1225.416, 1.657761
1225.898, 1.710452
1226.380, 1.682451
1226.862, 1.606029
1227.344, 1.578762
1227.827, 1.610573
1228.309, 1.632447
1228.791, 1.638871
1229.273, 1.627336
1229.755, 1.566620
1230.237, 1.514015
1230.719, 1.529541
1231.201, 1.587886
1231.683, 1.599658
1232.166, 1.554093
1232.648, 1.616142
1233.130, 1.812873
1233.612, 1.965260
1234.094, 1.882965
1234.576, 1.745415
1235.058, 1.657776
1235.540, 1.623671
1236.023, 1.663113
1236.505, 1.778401
1236.987, 1.820678
1237.469, 1.767653
1237.951, 1.699614
1238.433, 1.660938
1238.915, 1.645365
1239.397, 1.673157
1239.880, 1.713044
1240.362, 1.681835
1240.844, 1.586365
1241.326, 1.527573
1241.808, 1.521859
1242.290, 1.539388
1242.772, 1.570134
1243.254, 1.607923
1243.736, 1.658757
1244.219, 1.708876
1244.701, 1.721848
1245.183, 1.702825
1245.665, 1.684818
1246.147, 1.673314
1246.629, 1.668218
1247.111, 1.678243
1247.593, 1.682566
1248.075, 1.658268
1248.558, 1.634396
1249.040, 1.712972
1249.522, 1.854140
1250.004, 1.877797
1250.486, 1.747899
1250.968, 1.623903
1251.450, 1.572352
1251.932, 1.553873
1252.415, 1.562613
1252.897, 1.585388
1253.379, 1.591877
1253.861, 1.589709
1254.343, 1.608709
1254.825, 1.657180
1255.307, 1.664880
1255.789, 1.545416
1256.271, 1.482620
1256.754, 1.549130
1257.236, 1.671202
1257.718, 1.731068
1258.200, 1.737812
1258.682, 1.691586
1259.164, 1.586404
1259.646, 1.523679
1260.128, 1.522623
1260.610, 1.554212
1261.093, 1.623121
1261.575, 1.689764
1262.057, 1.672229
1262.539, 1.623735
1263.021, 1.633740
1263.503, 1.720019
1263.985, 1.748040
1264.467, 1.695133
1264.950, 1.645274
1265.432, 1.626293
1265.914, 1.610330
1266.396, 1.531368
1266.878, 1.455420
1267.360, 1.482736
1267.842, 1.622716
1268.324, 1.668272
1268.807, 1.606126
1269.289, 1.557342
1269.771, 1.556569
1270.253, 1.579304
1270.735, 1.621443
1271.217, 1.660304
1271.699, 1.671533
1272.181, 1.658589
1272.663, 1.627767
1273.146, 1.580319
1273.628, 1.583714
1274.110, 1.665631
1274.592, 1.755995
1275.074, 1.849543
1275.556, 1.882438
1276.038, 1.782570
1276.520, 1.603976
1277.002, 1.564320
1277.485, 1.640176
1277.967, 1.690119
1278.449, 1.677933
1278.931, 1.647699
1279.413, 1.591012
1279.895, 1.561413
1280.377, 1.594215
1280.859, 1.658570
1281.342, 1.690041
1281.824, 1.685403
1282.306, 1.619307
1282.788, 1.473797
1283.270, 1.376004
1283.752, 1.380533
1284.234, 1.410596
1284.716, 1.442948
1285.198, 1.485733
1285.681, 1.592235
1286.163, 1.705475
1286.645, 1.703284
1287.127, 1.553519
1287.609, 1.476325
1288.091, 1.510599
1288.573, 1.561418
1289.055, 1.609257
1289.537, 1.637526
1290.020, 1.590778
1290.502, 1.532674
1290.984, 1.567728
1291.466, 1.700561
1291.948, 1.683359
1292.430, 1.487997
1292.912, 1.349816
1293.394, 1.334526
1293.877, 1.371777
1294.359, 1.423024
1294.841, 1.474725
1295.323, 1.508440
1295.805, 1.532392
1296.287, 1.596929
1296.769, 1.696028
1297.251, 1.699204
1297.734, 1.565175
1298.216, 1.466375
1298.698, 1.557149
1299.180, 1.669768
1299.662, 1.727394
1300.144, 1.739044
1300.626, 1.717588
1301.108, 1.669978
1301.590, 1.613789
1302.073, 1.550724
1302.555, 1.510229
1303.037, 1.507198
1303.519, 1.528095
1304.001, 1.574903
1304.483, 1.634468
1304.965, 1.690695
##END=



