##NAMES=Sugilite
##RRUFFID=R130754
##IDEAL CHEMISTRY=KNa_2_Fe^3+^_2_(Li_3_Si_12_)O_30_
##LOCALITY=N'Chwaning III mine, Kalahari manganese field, Northern Cape Province, South Africa
##OWNER=RRUFF
##SOURCE=Jaco and Tania Janse van Nieuwenhuizen
##DESCRIPTION=Fibrous spheres and layer of purple color, associated with dark-red lipuite (R140946).
##STATUS=The identification of this mineral has been confirmed only by single crystal X-ray diffraction.
##URL=rruff.info/R130754
8.806445e+001, 8.406755e+002
8.854657e+001, 8.374293e+002
8.902869e+001, 8.363427e+002
8.951080e+001, 8.379499e+002
8.999292e+001, 8.414559e+002
9.047504e+001, 8.467325e+002
9.095715e+001, 8.541846e+002
9.143927e+001, 8.616224e+002
9.192139e+001, 8.657360e+002
9.240350e+001, 8.667081e+002
9.288562e+001, 8.669246e+002
9.336774e+001, 8.615461e+002
9.384985e+001, 8.454091e+002
9.433197e+001, 8.197776e+002
9.481409e+001, 7.971026e+002
9.529620e+001, 7.738670e+002
9.577832e+001, 7.519833e+002
9.626044e+001, 7.317910e+002
9.674255e+001, 7.129529e+002
9.722467e+001, 6.946654e+002
9.770679e+001, 6.761203e+002
9.818890e+001, 6.598362e+002
9.867102e+001, 6.466896e+002
9.915314e+001, 6.349218e+002
9.963525e+001, 6.229553e+002
1.001174e+002, 6.100108e+002
1.005995e+002, 5.965596e+002
1.010816e+002, 5.843144e+002
1.015637e+002, 5.731848e+002
1.020458e+002, 5.632816e+002
1.025280e+002, 5.546868e+002
1.030101e+002, 5.471580e+002
1.034922e+002, 5.403493e+002
1.039743e+002, 5.340754e+002
1.044564e+002, 5.282952e+002
1.049385e+002, 5.231050e+002
1.054207e+002, 5.192782e+002
1.059028e+002, 5.151480e+002
1.063849e+002, 5.098623e+002
1.068670e+002, 5.033852e+002
1.073491e+002, 4.960383e+002
1.078312e+002, 4.876400e+002
1.083134e+002, 4.783055e+002
1.087955e+002, 4.702344e+002
1.092776e+002, 4.641522e+002
1.097597e+002, 4.593392e+002
1.102418e+002, 4.547537e+002
1.107239e+002, 4.501599e+002
1.112061e+002, 4.460389e+002
1.116882e+002, 4.429649e+002
1.121703e+002, 4.407230e+002
1.126524e+002, 4.386439e+002
1.131345e+002, 4.361610e+002
1.136166e+002, 4.333224e+002
1.140988e+002, 4.310844e+002
1.145809e+002, 4.303283e+002
1.150630e+002, 4.295797e+002
1.155451e+002, 4.280046e+002
1.160272e+002, 4.255695e+002
1.165093e+002, 4.228259e+002
1.169915e+002, 4.203895e+002
1.174736e+002, 4.182749e+002
1.179557e+002, 4.164687e+002
1.184378e+002, 4.149745e+002
1.189199e+002, 4.137135e+002
1.194020e+002, 4.126337e+002
1.198842e+002, 4.117154e+002
1.203663e+002, 4.109740e+002
1.208484e+002, 4.104451e+002
1.213305e+002, 4.102249e+002
1.218126e+002, 4.101416e+002
1.222947e+002, 4.105718e+002
1.227769e+002, 4.110453e+002
1.232590e+002, 4.108839e+002
1.237411e+002, 4.096792e+002
1.242232e+002, 4.077039e+002
1.247053e+002, 4.062018e+002
1.251874e+002, 4.047079e+002
1.256696e+002, 4.039958e+002
1.261517e+002, 4.046434e+002
1.266338e+002, 4.064288e+002
1.271159e+002, 4.084716e+002
1.275980e+002, 4.103515e+002
1.280801e+002, 4.120354e+002
1.285623e+002, 4.135294e+002
1.290444e+002, 4.145734e+002
1.295265e+002, 4.156086e+002
1.300086e+002, 4.171685e+002
1.304907e+002, 4.193575e+002
1.309728e+002, 4.215332e+002
1.314550e+002, 4.236071e+002
1.319371e+002, 4.253763e+002
1.324192e+002, 4.263711e+002
1.329013e+002, 4.259202e+002
1.333834e+002, 4.246392e+002
1.338655e+002, 4.244333e+002
1.343477e+002, 4.260121e+002
1.348298e+002, 4.276996e+002
1.353119e+002, 4.289979e+002
1.357940e+002, 4.298814e+002
1.362761e+002, 4.303145e+002
1.367582e+002, 4.302040e+002
1.372404e+002, 4.295395e+002
1.377225e+002, 4.288406e+002
1.382046e+002, 4.285483e+002
1.386867e+002, 4.278293e+002
1.391688e+002, 4.262519e+002
1.396509e+002, 4.239358e+002
1.401331e+002, 4.212825e+002
1.406152e+002, 4.185519e+002
1.410973e+002, 4.154034e+002
1.415794e+002, 4.136933e+002
1.420615e+002, 4.133148e+002
1.425436e+002, 4.140901e+002
1.430258e+002, 4.158116e+002
1.435079e+002, 4.184808e+002
1.439900e+002, 4.223570e+002
1.444721e+002, 4.277565e+002
1.449542e+002, 4.347444e+002
1.454363e+002, 4.437575e+002
1.459185e+002, 4.563283e+002
1.464006e+002, 4.704022e+002
1.468827e+002, 4.845672e+002
1.473648e+002, 4.988789e+002
1.478469e+002, 5.111050e+002
1.483290e+002, 5.174968e+002
1.488112e+002, 5.192296e+002
1.492933e+002, 5.149098e+002
1.497754e+002, 5.015170e+002
1.502575e+002, 4.813130e+002
1.507396e+002, 4.603683e+002
1.512217e+002, 4.395815e+002
1.517039e+002, 4.200330e+002
1.521860e+002, 4.025592e+002
1.526681e+002, 3.870470e+002
1.531502e+002, 3.738514e+002
1.536323e+002, 3.635771e+002
1.541144e+002, 3.563286e+002
1.545966e+002, 3.500801e+002
1.550787e+002, 3.446269e+002
1.555608e+002, 3.398890e+002
1.560429e+002, 3.360048e+002
1.565250e+002, 3.329985e+002
1.570071e+002, 3.305308e+002
1.574893e+002, 3.280544e+002
1.579714e+002, 3.253167e+002
1.584535e+002, 3.233127e+002
1.589356e+002, 3.226397e+002
1.594177e+002, 3.224213e+002
1.598998e+002, 3.220025e+002
1.603820e+002, 3.211370e+002
1.608641e+002, 3.200341e+002
1.613462e+002, 3.192221e+002
1.618283e+002, 3.191742e+002
1.623104e+002, 3.187356e+002
1.627925e+002, 3.176241e+002
1.632747e+002, 3.161640e+002
1.637568e+002, 3.146241e+002
1.642389e+002, 3.131387e+002
1.647210e+002, 3.117645e+002
1.652031e+002, 3.107691e+002
1.656852e+002, 3.105573e+002
1.661674e+002, 3.102671e+002
1.666495e+002, 3.097016e+002
1.671316e+002, 3.089705e+002
1.676137e+002, 3.082928e+002
1.680958e+002, 3.078068e+002
1.685779e+002, 3.074621e+002
1.690601e+002, 3.069244e+002
1.695422e+002, 3.061269e+002
1.700243e+002, 3.052558e+002
1.705064e+002, 3.042297e+002
1.709885e+002, 3.031369e+002
1.714706e+002, 3.022998e+002
1.719528e+002, 3.019210e+002
1.724349e+002, 3.020053e+002
1.729170e+002, 3.022950e+002
1.733991e+002, 3.031157e+002
1.738812e+002, 3.038831e+002
1.743633e+002, 3.040268e+002
1.748455e+002, 3.035299e+002
1.753276e+002, 3.031023e+002
1.758097e+002, 3.032647e+002
1.762918e+002, 3.037860e+002
1.767739e+002, 3.042969e+002
1.772560e+002, 3.049854e+002
1.777382e+002, 3.054437e+002
1.782203e+002, 3.051241e+002
1.787024e+002, 3.040075e+002
1.791845e+002, 3.021551e+002
1.796666e+002, 2.996149e+002
1.801487e+002, 2.964261e+002
1.806309e+002, 2.924926e+002
1.811130e+002, 2.875729e+002
1.815951e+002, 2.819908e+002
1.820772e+002, 2.765109e+002
1.825593e+002, 2.710818e+002
1.830414e+002, 2.659065e+002
1.835236e+002, 2.609649e+002
1.840057e+002, 2.562856e+002
1.844878e+002, 2.518795e+002
1.849699e+002, 2.477067e+002
1.854520e+002, 2.438233e+002
1.859341e+002, 2.406127e+002
1.864163e+002, 2.386407e+002
1.868984e+002, 2.367879e+002
1.873805e+002, 2.346357e+002
1.878626e+002, 2.324093e+002
1.883447e+002, 2.305689e+002
1.888268e+002, 2.294908e+002
1.893090e+002, 2.291441e+002
1.897911e+002, 2.282814e+002
1.902732e+002, 2.258691e+002
1.907553e+002, 2.239867e+002
1.912374e+002, 2.234989e+002
1.917195e+002, 2.240268e+002
1.922017e+002, 2.246783e+002
1.926838e+002, 2.247961e+002
1.931659e+002, 2.243679e+002
1.936480e+002, 2.236633e+002
1.941301e+002, 2.223933e+002
1.946122e+002, 2.211884e+002
1.950944e+002, 2.202759e+002
1.955765e+002, 2.196621e+002
1.960586e+002, 2.192839e+002
1.965407e+002, 2.191287e+002
1.970228e+002, 2.192082e+002
1.975049e+002, 2.192091e+002
1.979871e+002, 2.193250e+002
1.984692e+002, 2.192192e+002
1.989513e+002, 2.184262e+002
1.994334e+002, 2.170309e+002
1.999155e+002, 2.158674e+002
2.003976e+002, 2.157212e+002
2.008798e+002, 2.165397e+002
2.013619e+002, 2.170251e+002
2.018440e+002, 2.170531e+002
2.023261e+002, 2.167831e+002
2.028082e+002, 2.162084e+002
2.032903e+002, 2.153154e+002
2.037725e+002, 2.145583e+002
2.042546e+002, 2.144442e+002
2.047367e+002, 2.147679e+002
2.052188e+002, 2.149434e+002
2.057009e+002, 2.147841e+002
2.061830e+002, 2.144536e+002
2.066652e+002, 2.141436e+002
2.071473e+002, 2.138474e+002
2.076294e+002, 2.136106e+002
2.081115e+002, 2.134159e+002
2.085936e+002, 2.133030e+002
2.090757e+002, 2.133818e+002
2.095579e+002, 2.138755e+002
2.100400e+002, 2.145130e+002
2.105221e+002, 2.146954e+002
2.110042e+002, 2.142242e+002
2.114863e+002, 2.137380e+002
2.119685e+002, 2.136217e+002
2.124506e+002, 2.136834e+002
2.129327e+002, 2.136412e+002
2.134148e+002, 2.133186e+002
2.138969e+002, 2.128190e+002
2.143790e+002, 2.124748e+002
2.148612e+002, 2.123845e+002
2.153433e+002, 2.122920e+002
2.158254e+002, 2.120116e+002
2.163075e+002, 2.116921e+002
2.167896e+002, 2.115537e+002
2.172717e+002, 2.117507e+002
2.177539e+002, 2.121994e+002
2.182360e+002, 2.125295e+002
2.187181e+002, 2.127436e+002
2.192002e+002, 2.128108e+002
2.196823e+002, 2.126249e+002
2.201644e+002, 2.123216e+002
2.206466e+002, 2.120920e+002
2.211287e+002, 2.120596e+002
2.216108e+002, 2.121808e+002
2.220929e+002, 2.122075e+002
2.225750e+002, 2.120195e+002
2.230571e+002, 2.118626e+002
2.235393e+002, 2.118591e+002
2.240214e+002, 2.118976e+002
2.245035e+002, 2.117708e+002
2.249856e+002, 2.113327e+002
2.254677e+002, 2.106796e+002
2.259498e+002, 2.104324e+002
2.264320e+002, 2.111672e+002
2.269141e+002, 2.116907e+002
2.273962e+002, 2.115474e+002
2.278783e+002, 2.111058e+002
2.283604e+002, 2.109987e+002
2.288425e+002, 2.116226e+002
2.293247e+002, 2.127999e+002
2.298068e+002, 2.135029e+002
2.302889e+002, 2.133302e+002
2.307710e+002, 2.131788e+002
2.312531e+002, 2.131403e+002
2.317352e+002, 2.132532e+002
2.322174e+002, 2.136113e+002
2.326995e+002, 2.142966e+002
2.331816e+002, 2.152007e+002
2.336637e+002, 2.158342e+002
2.341458e+002, 2.160147e+002
2.346279e+002, 2.161905e+002
2.351101e+002, 2.164939e+002
2.355922e+002, 2.168696e+002
2.360743e+002, 2.172020e+002
2.365564e+002, 2.174260e+002
2.370385e+002, 2.175832e+002
2.375206e+002, 2.177941e+002
2.380028e+002, 2.179907e+002
2.384849e+002, 2.183224e+002
2.389670e+002, 2.189315e+002
2.394491e+002, 2.197132e+002
2.399312e+002, 2.204450e+002
2.404133e+002, 2.210317e+002
2.408955e+002, 2.215045e+002
2.413776e+002, 2.219381e+002
2.418597e+002, 2.223303e+002
2.423418e+002, 2.226975e+002
2.428239e+002, 2.229944e+002
2.433060e+002, 2.232638e+002
2.437882e+002, 2.236458e+002
2.442703e+002, 2.242318e+002
2.447524e+002, 2.248895e+002
2.452345e+002, 2.253378e+002
2.457166e+002, 2.254913e+002
2.461987e+002, 2.258441e+002
2.466809e+002, 2.268902e+002
2.471630e+002, 2.283756e+002
2.476451e+002, 2.294029e+002
2.481272e+002, 2.295131e+002
2.486093e+002, 2.293556e+002
2.490914e+002, 2.297022e+002
2.495736e+002, 2.305473e+002
2.500557e+002, 2.315460e+002
2.505378e+002, 2.325957e+002
2.510199e+002, 2.336630e+002
2.515020e+002, 2.346502e+002
2.519841e+002, 2.356540e+002
2.524663e+002, 2.363839e+002
2.529484e+002, 2.363821e+002
2.534305e+002, 2.357571e+002
2.539126e+002, 2.354874e+002
2.543947e+002, 2.364081e+002
2.548768e+002, 2.382556e+002
2.553590e+002, 2.397891e+002
2.558411e+002, 2.409133e+002
2.563232e+002, 2.416118e+002
2.568053e+002, 2.418925e+002
2.572874e+002, 2.418086e+002
2.577695e+002, 2.415477e+002
2.582516e+002, 2.410754e+002
2.587338e+002, 2.404688e+002
2.592159e+002, 2.402108e+002
2.596980e+002, 2.406243e+002
2.601801e+002, 2.409323e+002
2.606622e+002, 2.407090e+002
2.611443e+002, 2.400866e+002
2.616265e+002, 2.393498e+002
2.621086e+002, 2.385918e+002
2.625907e+002, 2.378499e+002
2.630728e+002, 2.373324e+002
2.635549e+002, 2.371784e+002
2.640370e+002, 2.370428e+002
2.645192e+002, 2.366081e+002
2.650013e+002, 2.361150e+002
2.654834e+002, 2.359636e+002
2.659655e+002, 2.364162e+002
2.664476e+002, 2.373363e+002
2.669297e+002, 2.382407e+002
2.674119e+002, 2.390124e+002
2.678940e+002, 2.399745e+002
2.683761e+002, 2.410952e+002
2.688582e+002, 2.424603e+002
2.693403e+002, 2.442364e+002
2.698224e+002, 2.465468e+002
2.703046e+002, 2.491929e+002
2.707867e+002, 2.515984e+002
2.712688e+002, 2.534953e+002
2.717509e+002, 2.556380e+002
2.722330e+002, 2.583035e+002
2.727151e+002, 2.611977e+002
2.731973e+002, 2.641158e+002
2.736794e+002, 2.669868e+002
2.741615e+002, 2.696966e+002
2.746436e+002, 2.720716e+002
2.751257e+002, 2.742525e+002
2.756078e+002, 2.757388e+002
2.760900e+002, 2.762429e+002
2.765721e+002, 2.763036e+002
2.770542e+002, 2.763201e+002
2.775363e+002, 2.764196e+002
2.780184e+002, 2.765136e+002
2.785005e+002, 2.764440e+002
2.789827e+002, 2.761302e+002
2.794648e+002, 2.758246e+002
2.799469e+002, 2.755197e+002
2.804290e+002, 2.752399e+002
2.809111e+002, 2.750170e+002
2.813932e+002, 2.748498e+002
2.818754e+002, 2.747008e+002
2.823575e+002, 2.745464e+002
2.828396e+002, 2.744596e+002
2.833217e+002, 2.741440e+002
2.838038e+002, 2.736480e+002
2.842859e+002, 2.729241e+002
2.847681e+002, 2.720998e+002
2.852502e+002, 2.710802e+002
2.857323e+002, 2.695346e+002
2.862144e+002, 2.670676e+002
2.866965e+002, 2.635248e+002
2.871786e+002, 2.598904e+002
2.876608e+002, 2.560528e+002
2.881429e+002, 2.522190e+002
2.886250e+002, 2.484136e+002
2.891071e+002, 2.446777e+002
2.895892e+002, 2.410611e+002
2.900714e+002, 2.375752e+002
2.905535e+002, 2.342322e+002
2.910356e+002, 2.311237e+002
2.915177e+002, 2.281557e+002
2.919998e+002, 2.255308e+002
2.924819e+002, 2.232348e+002
2.929641e+002, 2.213271e+002
2.934462e+002, 2.199307e+002
2.939283e+002, 2.191429e+002
2.944104e+002, 2.188940e+002
2.948925e+002, 2.186700e+002
2.953746e+002, 2.184928e+002
2.958568e+002, 2.183175e+002
2.963389e+002, 2.182157e+002
2.968210e+002, 2.180896e+002
2.973031e+002, 2.178106e+002
2.977852e+002, 2.173151e+002
2.982673e+002, 2.166382e+002
2.987495e+002, 2.158955e+002
2.992316e+002, 2.151664e+002
2.997137e+002, 2.142354e+002
3.001958e+002, 2.131817e+002
3.006779e+002, 2.118820e+002
3.011600e+002, 2.101246e+002
3.016422e+002, 2.078584e+002
3.021243e+002, 2.053462e+002
3.026064e+002, 2.030747e+002
3.030885e+002, 2.011986e+002
3.035706e+002, 1.993173e+002
3.040527e+002, 1.973836e+002
3.045349e+002, 1.954816e+002
3.050170e+002, 1.936550e+002
3.054991e+002, 1.919248e+002
3.059812e+002, 1.903267e+002
3.064633e+002, 1.889033e+002
3.069454e+002, 1.876660e+002
3.074276e+002, 1.866067e+002
3.079097e+002, 1.856960e+002
3.083918e+002, 1.849614e+002
3.088739e+002, 1.844727e+002
3.093560e+002, 1.841934e+002
3.098381e+002, 1.840056e+002
3.103203e+002, 1.838100e+002
3.108024e+002, 1.836086e+002
3.112845e+002, 1.833953e+002
3.117666e+002, 1.827663e+002
3.122487e+002, 1.825317e+002
3.127308e+002, 1.833609e+002
3.132130e+002, 1.848111e+002
3.136951e+002, 1.858762e+002
3.141772e+002, 1.858599e+002
3.146593e+002, 1.849769e+002
3.151414e+002, 1.847243e+002
3.156235e+002, 1.856100e+002
3.161057e+002, 1.865419e+002
3.165878e+002, 1.873464e+002
3.170699e+002, 1.880949e+002
3.175520e+002, 1.889226e+002
3.180341e+002, 1.898897e+002
3.185162e+002, 1.909155e+002
3.189984e+002, 1.917752e+002
3.194805e+002, 1.920647e+002
3.199626e+002, 1.927339e+002
3.204447e+002, 1.940045e+002
3.209268e+002, 1.955365e+002
3.214089e+002, 1.970620e+002
3.218911e+002, 1.984987e+002
3.223732e+002, 1.998602e+002
3.228553e+002, 2.011571e+002
3.233374e+002, 2.022510e+002
3.238195e+002, 2.036333e+002
3.243016e+002, 2.055147e+002
3.247838e+002, 2.074689e+002
3.252659e+002, 2.091548e+002
3.257480e+002, 2.106040e+002
3.262301e+002, 2.121115e+002
3.267122e+002, 2.139931e+002
3.271943e+002, 2.162911e+002
3.276765e+002, 2.185474e+002
3.281586e+002, 2.207500e+002
3.286407e+002, 2.229162e+002
3.291228e+002, 2.250683e+002
3.296049e+002, 2.271927e+002
3.300870e+002, 2.292733e+002
3.305692e+002, 2.313015e+002
3.310513e+002, 2.332768e+002
3.315334e+002, 2.351587e+002
3.320155e+002, 2.369603e+002
3.324976e+002, 2.386661e+002
3.329797e+002, 2.404164e+002
3.334619e+002, 2.420257e+002
3.339440e+002, 2.432498e+002
3.344261e+002, 2.439811e+002
3.349082e+002, 2.443222e+002
3.353904e+002, 2.445376e+002
3.358725e+002, 2.448617e+002
3.363546e+002, 2.446375e+002
3.368367e+002, 2.437800e+002
3.373188e+002, 2.424681e+002
3.378009e+002, 2.408103e+002
3.382831e+002, 2.388527e+002
3.387652e+002, 2.366112e+002
3.392473e+002, 2.340830e+002
3.397294e+002, 2.311159e+002
3.402115e+002, 2.283018e+002
3.406936e+002, 2.257976e+002
3.411758e+002, 2.232815e+002
3.416579e+002, 2.205474e+002
3.421400e+002, 2.176336e+002
3.426221e+002, 2.147459e+002
3.431042e+002, 2.120451e+002
3.435863e+002, 2.095303e+002
3.440685e+002, 2.071425e+002
3.445506e+002, 2.049985e+002
3.450327e+002, 2.028844e+002
3.455148e+002, 2.007110e+002
3.459969e+002, 1.985491e+002
3.464790e+002, 1.965314e+002
3.469612e+002, 1.947214e+002
3.474433e+002, 1.930860e+002
3.479254e+002, 1.914857e+002
3.484075e+002, 1.900039e+002
3.488896e+002, 1.884345e+002
3.493717e+002, 1.865101e+002
3.498539e+002, 1.846389e+002
3.503360e+002, 1.832443e+002
3.508181e+002, 1.824409e+002
3.513002e+002, 1.818559e+002
3.517823e+002, 1.808775e+002
3.522644e+002, 1.792790e+002
3.527466e+002, 1.780388e+002
3.532287e+002, 1.776736e+002
3.537108e+002, 1.772877e+002
3.541929e+002, 1.762945e+002
3.546750e+002, 1.747766e+002
3.551571e+002, 1.732986e+002
3.556393e+002, 1.723856e+002
3.561214e+002, 1.720306e+002
3.566035e+002, 1.716416e+002
3.570856e+002, 1.711842e+002
3.575677e+002, 1.707364e+002
3.580498e+002, 1.702868e+002
3.585320e+002, 1.698710e+002
3.590141e+002, 1.695537e+002
3.594962e+002, 1.693865e+002
3.599783e+002, 1.693168e+002
3.604604e+002, 1.692384e+002
3.609425e+002, 1.692290e+002
3.614247e+002, 1.690171e+002
3.619068e+002, 1.683916e+002
3.623889e+002, 1.676141e+002
3.628710e+002, 1.668560e+002
3.633531e+002, 1.661562e+002
3.638352e+002, 1.656353e+002
3.643174e+002, 1.654776e+002
3.647995e+002, 1.657127e+002
3.652816e+002, 1.660187e+002
3.657637e+002, 1.665123e+002
3.662458e+002, 1.669014e+002
3.667279e+002, 1.669575e+002
3.672101e+002, 1.667107e+002
3.676922e+002, 1.664001e+002
3.681743e+002, 1.661113e+002
3.686564e+002, 1.658771e+002
3.691385e+002, 1.658830e+002
3.696206e+002, 1.662580e+002
3.701028e+002, 1.666401e+002
3.705849e+002, 1.667494e+002
3.710670e+002, 1.667232e+002
3.715491e+002, 1.668114e+002
3.720312e+002, 1.671589e+002
3.725133e+002, 1.676065e+002
3.729955e+002, 1.679048e+002
3.734776e+002, 1.680304e+002
3.739597e+002, 1.682310e+002
3.744418e+002, 1.686895e+002
3.749239e+002, 1.692353e+002
3.754060e+002, 1.696019e+002
3.758882e+002, 1.696971e+002
3.763703e+002, 1.699145e+002
3.768524e+002, 1.706192e+002
3.773345e+002, 1.716997e+002
3.778166e+002, 1.727247e+002
3.782987e+002, 1.736400e+002
3.787809e+002, 1.743904e+002
3.792630e+002, 1.748255e+002
3.797451e+002, 1.749913e+002
3.802272e+002, 1.752447e+002
3.807093e+002, 1.757337e+002
3.811914e+002, 1.763585e+002
3.816736e+002, 1.770626e+002
3.821557e+002, 1.778467e+002
3.826378e+002, 1.784713e+002
3.831199e+002, 1.787210e+002
3.836020e+002, 1.786454e+002
3.840841e+002, 1.785685e+002
3.845663e+002, 1.784534e+002
3.850484e+002, 1.783822e+002
3.855305e+002, 1.784562e+002
3.860126e+002, 1.786219e+002
3.864947e+002, 1.787213e+002
3.869768e+002, 1.786987e+002
3.874590e+002, 1.785556e+002
3.879411e+002, 1.782527e+002
3.884232e+002, 1.777194e+002
3.889053e+002, 1.772679e+002
3.893874e+002, 1.771485e+002
3.898695e+002, 1.770526e+002
3.903517e+002, 1.764983e+002
3.908338e+002, 1.754199e+002
3.913159e+002, 1.743972e+002
3.917980e+002, 1.740836e+002
3.922801e+002, 1.746106e+002
3.927622e+002, 1.746688e+002
3.932444e+002, 1.737210e+002
3.937265e+002, 1.728572e+002
3.942086e+002, 1.728370e+002
3.946907e+002, 1.733767e+002
3.951728e+002, 1.736238e+002
3.956549e+002, 1.730427e+002
3.961371e+002, 1.718993e+002
3.966192e+002, 1.712768e+002
3.971013e+002, 1.716581e+002
3.975834e+002, 1.719788e+002
3.980655e+002, 1.721131e+002
3.985476e+002, 1.721778e+002
3.990298e+002, 1.722715e+002
3.995119e+002, 1.724279e+002
3.999940e+002, 1.726611e+002
4.004761e+002, 1.730303e+002
4.009582e+002, 1.736800e+002
4.014403e+002, 1.739393e+002
4.019225e+002, 1.734436e+002
4.024046e+002, 1.729549e+002
4.028867e+002, 1.728253e+002
4.033688e+002, 1.729993e+002
4.038509e+002, 1.732877e+002
4.043330e+002, 1.736077e+002
4.048152e+002, 1.738904e+002
4.052973e+002, 1.737027e+002
4.057794e+002, 1.724499e+002
4.062615e+002, 1.716260e+002
4.067436e+002, 1.718021e+002
4.072257e+002, 1.723467e+002
4.077079e+002, 1.727015e+002
4.081900e+002, 1.726851e+002
4.086721e+002, 1.723224e+002
4.091542e+002, 1.715493e+002
4.096363e+002, 1.702544e+002
4.101184e+002, 1.691443e+002
4.106006e+002, 1.683749e+002
4.110827e+002, 1.677408e+002
4.115648e+002, 1.672196e+002
4.120469e+002, 1.667595e+002
4.125290e+002, 1.662224e+002
4.130111e+002, 1.654091e+002
4.134933e+002, 1.644697e+002
4.139754e+002, 1.639531e+002
4.144575e+002, 1.640417e+002
4.149396e+002, 1.640711e+002
4.154217e+002, 1.636708e+002
4.159038e+002, 1.630531e+002
4.163860e+002, 1.624123e+002
4.168681e+002, 1.617508e+002
4.173502e+002, 1.611978e+002
4.178323e+002, 1.608300e+002
4.183144e+002, 1.606585e+002
4.187965e+002, 1.608530e+002
4.192787e+002, 1.616551e+002
4.197608e+002, 1.625501e+002
4.202429e+002, 1.628654e+002
4.207250e+002, 1.626584e+002
4.212071e+002, 1.626687e+002
4.216892e+002, 1.632537e+002
4.221714e+002, 1.641524e+002
4.226535e+002, 1.650249e+002
4.231356e+002, 1.658458e+002
4.236177e+002, 1.667159e+002
4.240998e+002, 1.676814e+002
4.245819e+002, 1.687635e+002
4.250641e+002, 1.699744e+002
4.255462e+002, 1.711834e+002
4.260283e+002, 1.726732e+002
4.265104e+002, 1.747717e+002
4.269925e+002, 1.772092e+002
4.274746e+002, 1.794045e+002
4.279568e+002, 1.811528e+002
4.284389e+002, 1.827976e+002
4.289210e+002, 1.848677e+002
4.294031e+002, 1.875025e+002
4.298852e+002, 1.902702e+002
4.303673e+002, 1.931474e+002
4.308495e+002, 1.961963e+002
4.313316e+002, 1.994038e+002
4.318137e+002, 2.028196e+002
4.322958e+002, 2.066297e+002
4.327779e+002, 2.110159e+002
4.332600e+002, 2.159142e+002
4.337422e+002, 2.207275e+002
4.342243e+002, 2.252360e+002
4.347064e+002, 2.299264e+002
4.351885e+002, 2.347065e+002
4.356706e+002, 2.397578e+002
4.361527e+002, 2.451974e+002
4.366349e+002, 2.510766e+002
4.371170e+002, 2.574424e+002
4.375991e+002, 2.643272e+002
4.380812e+002, 2.716465e+002
4.385633e+002, 2.797805e+002
4.390454e+002, 2.889159e+002
4.395276e+002, 2.986444e+002
4.400097e+002, 3.088752e+002
4.404918e+002, 3.195435e+002
4.409739e+002, 3.306919e+002
4.414560e+002, 3.422416e+002
4.419381e+002, 3.543149e+002
4.424203e+002, 3.675913e+002
4.429024e+002, 3.824554e+002
4.433845e+002, 3.973441e+002
4.438666e+002, 4.125029e+002
4.443487e+002, 4.270584e+002
4.448308e+002, 4.407032e+002
4.453130e+002, 4.533332e+002
4.457951e+002, 4.639767e+002
4.462772e+002, 4.724500e+002
4.467593e+002, 4.784587e+002
4.472414e+002, 4.801513e+002
4.477235e+002, 4.768362e+002
4.482057e+002, 4.701057e+002
4.486878e+002, 4.607122e+002
4.491699e+002, 4.488844e+002
4.496520e+002, 4.347365e+002
4.501341e+002, 4.171359e+002
4.506162e+002, 3.982357e+002
4.510984e+002, 3.794053e+002
4.515805e+002, 3.607938e+002
4.520626e+002, 3.433633e+002
4.525447e+002, 3.275568e+002
4.530268e+002, 3.130372e+002
4.535089e+002, 2.992691e+002
4.539911e+002, 2.859576e+002
4.544732e+002, 2.740256e+002
4.549553e+002, 2.641220e+002
4.554374e+002, 2.554338e+002
4.559195e+002, 2.471273e+002
4.564016e+002, 2.390835e+002
4.568838e+002, 2.316520e+002
4.573659e+002, 2.250383e+002
4.578480e+002, 2.192564e+002
4.583301e+002, 2.143908e+002
4.588122e+002, 2.111600e+002
4.592943e+002, 2.078123e+002
4.597765e+002, 2.035136e+002
4.602586e+002, 1.989858e+002
4.607407e+002, 1.951772e+002
4.612228e+002, 1.924162e+002
4.617049e+002, 1.903368e+002
4.621870e+002, 1.884357e+002
4.626692e+002, 1.867783e+002
4.631513e+002, 1.851102e+002
4.636334e+002, 1.833488e+002
4.641155e+002, 1.816696e+002
4.645976e+002, 1.800820e+002
4.650797e+002, 1.786406e+002
4.655619e+002, 1.774196e+002
4.660440e+002, 1.764830e+002
4.665261e+002, 1.757746e+002
4.670082e+002, 1.751602e+002
4.674903e+002, 1.746451e+002
4.679724e+002, 1.742059e+002
4.684546e+002, 1.737892e+002
4.689367e+002, 1.734803e+002
4.694188e+002, 1.734329e+002
4.699009e+002, 1.736338e+002
4.703830e+002, 1.737599e+002
4.708651e+002, 1.734301e+002
4.713473e+002, 1.728102e+002
4.718294e+002, 1.725380e+002
4.723115e+002, 1.727250e+002
4.727936e+002, 1.730180e+002
4.732757e+002, 1.732071e+002
4.737578e+002, 1.733399e+002
4.742400e+002, 1.735148e+002
4.747221e+002, 1.738143e+002
4.752042e+002, 1.740466e+002
4.756863e+002, 1.739770e+002
4.761684e+002, 1.737294e+002
4.766505e+002, 1.737452e+002
4.771327e+002, 1.742239e+002
4.776148e+002, 1.746914e+002
4.780969e+002, 1.745460e+002
4.785790e+002, 1.737155e+002
4.790611e+002, 1.726803e+002
4.795432e+002, 1.713046e+002
4.800254e+002, 1.698751e+002
4.805075e+002, 1.685476e+002
4.809896e+002, 1.673166e+002
4.814717e+002, 1.661342e+002
4.819538e+002, 1.649729e+002
4.824359e+002, 1.638416e+002
4.829181e+002, 1.627688e+002
4.834002e+002, 1.618171e+002
4.838823e+002, 1.608261e+002
4.843644e+002, 1.597818e+002
4.848465e+002, 1.587091e+002
4.853286e+002, 1.575364e+002
4.858108e+002, 1.563237e+002
4.862929e+002, 1.553036e+002
4.867750e+002, 1.547356e+002
4.872571e+002, 1.545436e+002
4.877392e+002, 1.540092e+002
4.882213e+002, 1.528365e+002
4.887035e+002, 1.518029e+002
4.891856e+002, 1.511875e+002
4.896677e+002, 1.507559e+002
4.901498e+002, 1.502925e+002
4.906319e+002, 1.497429e+002
4.911140e+002, 1.491238e+002
4.915962e+002, 1.484035e+002
4.920783e+002, 1.476031e+002
4.925604e+002, 1.469288e+002
4.930425e+002, 1.464370e+002
4.935246e+002, 1.460056e+002
4.940067e+002, 1.454904e+002
4.944889e+002, 1.449654e+002
4.949710e+002, 1.446170e+002
4.954531e+002, 1.445596e+002
4.959352e+002, 1.446086e+002
4.964173e+002, 1.446292e+002
4.968994e+002, 1.446345e+002
4.973816e+002, 1.446919e+002
4.978637e+002, 1.448450e+002
4.983458e+002, 1.449904e+002
4.988279e+002, 1.449842e+002
4.993100e+002, 1.448149e+002
4.997921e+002, 1.445310e+002
5.002743e+002, 1.438608e+002
5.007564e+002, 1.433126e+002
5.012385e+002, 1.433843e+002
5.017206e+002, 1.438886e+002
5.022027e+002, 1.442627e+002
5.026848e+002, 1.441942e+002
5.031670e+002, 1.437565e+002
5.036491e+002, 1.431368e+002
5.041312e+002, 1.419430e+002
5.046133e+002, 1.412216e+002
5.050954e+002, 1.413437e+002
5.055775e+002, 1.416296e+002
5.060597e+002, 1.416288e+002
5.065418e+002, 1.413356e+002
5.070239e+002, 1.409971e+002
5.075060e+002, 1.408116e+002
5.079881e+002, 1.407375e+002
5.084702e+002, 1.405759e+002
5.089524e+002, 1.403068e+002
5.094345e+002, 1.399945e+002
5.099166e+002, 1.395176e+002
5.103987e+002, 1.390919e+002
5.108808e+002, 1.390225e+002
5.113629e+002, 1.393595e+002
5.118451e+002, 1.395716e+002
5.123271e+002, 1.390403e+002
5.128093e+002, 1.380869e+002
5.132914e+002, 1.376920e+002
5.137735e+002, 1.380257e+002
5.142556e+002, 1.385033e+002
5.147377e+002, 1.388661e+002
5.152198e+002, 1.390323e+002
5.157020e+002, 1.387867e+002
5.161841e+002, 1.377424e+002
5.166662e+002, 1.368374e+002
5.171483e+002, 1.365662e+002
5.176304e+002, 1.366803e+002
5.181125e+002, 1.368534e+002
5.185947e+002, 1.369949e+002
5.190768e+002, 1.369536e+002
5.195589e+002, 1.365086e+002
5.200410e+002, 1.355756e+002
5.205231e+002, 1.350427e+002
5.210052e+002, 1.352288e+002
5.214874e+002, 1.353895e+002
5.219695e+002, 1.352763e+002
5.224516e+002, 1.349972e+002
5.229337e+002, 1.346969e+002
5.234158e+002, 1.344336e+002
5.238979e+002, 1.342350e+002
5.243801e+002, 1.341812e+002
5.248622e+002, 1.343297e+002
5.253443e+002, 1.343220e+002
5.258264e+002, 1.340466e+002
5.263085e+002, 1.337182e+002
5.267906e+002, 1.333640e+002
5.272728e+002, 1.330355e+002
5.277549e+002, 1.328339e+002
5.282370e+002, 1.328364e+002
5.287191e+002, 1.328997e+002
5.292012e+002, 1.328468e+002
5.296833e+002, 1.326826e+002
5.301655e+002, 1.324577e+002
5.306476e+002, 1.321150e+002
5.311297e+002, 1.318297e+002
5.316118e+002, 1.318920e+002
5.320939e+002, 1.322438e+002
5.325760e+002, 1.324408e+002
5.330582e+002, 1.323360e+002
5.335403e+002, 1.320966e+002
5.340224e+002, 1.317738e+002
5.345045e+002, 1.314167e+002
5.349866e+002, 1.311559e+002
5.354688e+002, 1.310513e+002
5.359509e+002, 1.310639e+002
5.364330e+002, 1.311391e+002
5.369151e+002, 1.313784e+002
5.373972e+002, 1.314254e+002
5.378793e+002, 1.311381e+002
5.383615e+002, 1.308090e+002
5.388436e+002, 1.305392e+002
5.393257e+002, 1.303634e+002
5.398078e+002, 1.303469e+002
5.402899e+002, 1.305447e+002
5.407720e+002, 1.308200e+002
5.412542e+002, 1.307872e+002
5.417363e+002, 1.302552e+002
5.422184e+002, 1.300644e+002
5.427005e+002, 1.308738e+002
5.431826e+002, 1.316004e+002
5.436647e+002, 1.314837e+002
5.441469e+002, 1.306880e+002
5.446290e+002, 1.299723e+002
5.451111e+002, 1.297653e+002
5.455932e+002, 1.298186e+002
5.460753e+002, 1.297921e+002
5.465574e+002, 1.296869e+002
5.470396e+002, 1.295026e+002
5.475217e+002, 1.291566e+002
5.480038e+002, 1.288428e+002
5.484859e+002, 1.289655e+002
5.489680e+002, 1.295785e+002
5.494501e+002, 1.299750e+002
5.499323e+002, 1.299495e+002
5.504144e+002, 1.297264e+002
5.508965e+002, 1.294079e+002
5.513786e+002, 1.290402e+002
5.518607e+002, 1.287057e+002
5.523428e+002, 1.284472e+002
5.528250e+002, 1.282580e+002
5.533071e+002, 1.281112e+002
5.537892e+002, 1.278966e+002
5.542713e+002, 1.279415e+002
5.547534e+002, 1.285145e+002
5.552355e+002, 1.290693e+002
5.557177e+002, 1.293420e+002
5.561998e+002, 1.293304e+002
5.566819e+002, 1.291033e+002
5.571640e+002, 1.286687e+002
5.576461e+002, 1.281157e+002
5.581282e+002, 1.275603e+002
5.586104e+002, 1.269407e+002
5.590925e+002, 1.267423e+002
5.595746e+002, 1.274669e+002
5.600567e+002, 1.282713e+002
5.605388e+002, 1.283451e+002
5.610209e+002, 1.277805e+002
5.615031e+002, 1.272593e+002
5.619852e+002, 1.270361e+002
5.624673e+002, 1.269724e+002
5.629494e+002, 1.269554e+002
5.634315e+002, 1.269773e+002
5.639136e+002, 1.270286e+002
5.643958e+002, 1.271156e+002
5.648779e+002, 1.271962e+002
5.653600e+002, 1.271952e+002
5.658421e+002, 1.270772e+002
5.663242e+002, 1.269713e+002
5.668063e+002, 1.268415e+002
5.672885e+002, 1.267564e+002
5.677706e+002, 1.268396e+002
5.682527e+002, 1.269881e+002
5.687348e+002, 1.269443e+002
5.692169e+002, 1.265743e+002
5.696990e+002, 1.261117e+002
5.701812e+002, 1.260292e+002
5.706633e+002, 1.264137e+002
5.711454e+002, 1.268406e+002
5.716275e+002, 1.275195e+002
5.721096e+002, 1.279767e+002
5.725917e+002, 1.277763e+002
5.730739e+002, 1.271895e+002
5.735560e+002, 1.268613e+002
5.740381e+002, 1.271367e+002
5.745202e+002, 1.275863e+002
5.750023e+002, 1.277270e+002
5.754844e+002, 1.276078e+002
5.759666e+002, 1.274766e+002
5.764487e+002, 1.273649e+002
5.769308e+002, 1.273575e+002
5.774129e+002, 1.276567e+002
5.778950e+002, 1.282620e+002
5.783771e+002, 1.284079e+002
5.788593e+002, 1.274906e+002
5.793414e+002, 1.267440e+002
5.798235e+002, 1.269463e+002
5.803056e+002, 1.276175e+002
5.807877e+002, 1.279496e+002
5.812698e+002, 1.277048e+002
5.817520e+002, 1.272558e+002
5.822341e+002, 1.270821e+002
5.827162e+002, 1.272231e+002
5.831984e+002, 1.272406e+002
5.836805e+002, 1.269211e+002
5.841626e+002, 1.267480e+002
5.846447e+002, 1.269340e+002
5.851268e+002, 1.272978e+002
5.856089e+002, 1.276716e+002
5.860911e+002, 1.280134e+002
5.865732e+002, 1.281924e+002
5.870553e+002, 1.279888e+002
5.875374e+002, 1.275105e+002
5.880195e+002, 1.271999e+002
5.885016e+002, 1.271276e+002
5.889838e+002, 1.270308e+002
5.894659e+002, 1.266535e+002
5.899480e+002, 1.261601e+002
5.904301e+002, 1.260564e+002
5.909122e+002, 1.266403e+002
5.913943e+002, 1.270140e+002
5.918765e+002, 1.266504e+002
5.923586e+002, 1.260942e+002
5.928407e+002, 1.259951e+002
5.933228e+002, 1.263625e+002
5.938049e+002, 1.266888e+002
5.942870e+002, 1.265503e+002
5.947692e+002, 1.261431e+002
5.952513e+002, 1.264796e+002
5.957334e+002, 1.285781e+002
5.962155e+002, 1.295802e+002
5.966976e+002, 1.283997e+002
5.971797e+002, 1.268150e+002
5.976619e+002, 1.259045e+002
5.981440e+002, 1.257093e+002
5.986261e+002, 1.258144e+002
5.991082e+002, 1.260926e+002
5.995903e+002, 1.264022e+002
6.000724e+002, 1.264237e+002
6.005546e+002, 1.261547e+002
6.010367e+002, 1.260089e+002
6.015188e+002, 1.261677e+002
6.020009e+002, 1.264230e+002
6.024830e+002, 1.265219e+002
6.029651e+002, 1.264720e+002
6.034473e+002, 1.263639e+002
6.039294e+002, 1.261349e+002
6.044115e+002, 1.259236e+002
6.048936e+002, 1.257721e+002
6.053757e+002, 1.257103e+002
6.058578e+002, 1.258302e+002
6.063400e+002, 1.261597e+002
6.068221e+002, 1.265411e+002
6.073042e+002, 1.267469e+002
6.077863e+002, 1.267507e+002
6.082684e+002, 1.267568e+002
6.087505e+002, 1.267669e+002
6.092327e+002, 1.267803e+002
6.097148e+002, 1.267330e+002
6.101969e+002, 1.267176e+002
6.106790e+002, 1.268999e+002
6.111611e+002, 1.273319e+002
6.116432e+002, 1.277290e+002
6.121254e+002, 1.276127e+002
6.126075e+002, 1.272638e+002
6.130896e+002, 1.277638e+002
6.135717e+002, 1.293344e+002
6.140538e+002, 1.306135e+002
6.145359e+002, 1.306005e+002
6.150181e+002, 1.297956e+002
6.155002e+002, 1.297174e+002
6.159823e+002, 1.307889e+002
6.164644e+002, 1.315393e+002
6.169465e+002, 1.312178e+002
6.174286e+002, 1.307933e+002
6.179108e+002, 1.312307e+002
6.183929e+002, 1.323827e+002
6.188750e+002, 1.334150e+002
6.193571e+002, 1.337825e+002
6.198392e+002, 1.337962e+002
6.203214e+002, 1.343306e+002
6.208035e+002, 1.356340e+002
6.212856e+002, 1.366959e+002
6.217677e+002, 1.372408e+002
6.222498e+002, 1.376766e+002
6.227319e+002, 1.381064e+002
6.232141e+002, 1.385978e+002
6.236962e+002, 1.393002e+002
6.241783e+002, 1.403265e+002
6.246604e+002, 1.414843e+002
6.251425e+002, 1.426328e+002
6.256246e+002, 1.437670e+002
6.261068e+002, 1.449104e+002
6.265889e+002, 1.460943e+002
6.270710e+002, 1.470746e+002
6.275531e+002, 1.475756e+002
6.280352e+002, 1.476189e+002
6.285173e+002, 1.477484e+002
6.289995e+002, 1.483336e+002
6.294816e+002, 1.485209e+002
6.299637e+002, 1.480506e+002
6.304458e+002, 1.471555e+002
6.309279e+002, 1.459321e+002
6.314100e+002, 1.444826e+002
6.318922e+002, 1.430575e+002
6.323743e+002, 1.418800e+002
6.328564e+002, 1.408728e+002
6.333385e+002, 1.397539e+002
6.338206e+002, 1.385091e+002
6.343027e+002, 1.371974e+002
6.347849e+002, 1.357234e+002
6.352670e+002, 1.342942e+002
6.357491e+002, 1.330734e+002
6.362312e+002, 1.320519e+002
6.367133e+002, 1.312040e+002
6.371954e+002, 1.305872e+002
6.376776e+002, 1.300767e+002
6.381597e+002, 1.296173e+002
6.386418e+002, 1.291816e+002
6.391239e+002, 1.286837e+002
6.396060e+002, 1.280983e+002
6.400881e+002, 1.275471e+002
6.405703e+002, 1.272085e+002
6.410524e+002, 1.271154e+002
6.415345e+002, 1.268657e+002
6.420166e+002, 1.261511e+002
6.424987e+002, 1.256530e+002
6.429808e+002, 1.256254e+002
6.434630e+002, 1.258110e+002
6.439451e+002, 1.259822e+002
6.444272e+002, 1.260832e+002
6.449093e+002, 1.261175e+002
6.453914e+002, 1.260250e+002
6.458735e+002, 1.258807e+002
6.463557e+002, 1.259230e+002
6.468378e+002, 1.261643e+002
6.473199e+002, 1.262688e+002
6.478020e+002, 1.260650e+002
6.482841e+002, 1.256977e+002
6.487662e+002, 1.253515e+002
6.492484e+002, 1.249853e+002
6.497305e+002, 1.248568e+002
6.502126e+002, 1.252129e+002
6.506947e+002, 1.255851e+002
6.511768e+002, 1.257604e+002
6.516589e+002, 1.257579e+002
6.521411e+002, 1.256027e+002
6.526232e+002, 1.253143e+002
6.531053e+002, 1.249908e+002
6.535874e+002, 1.247436e+002
6.540695e+002, 1.245726e+002
6.545516e+002, 1.245031e+002
6.550338e+002, 1.245861e+002
6.555159e+002, 1.246696e+002
6.559980e+002, 1.247673e+002
6.564801e+002, 1.247882e+002
6.569622e+002, 1.245840e+002
6.574443e+002, 1.241182e+002
6.579265e+002, 1.236768e+002
6.584086e+002, 1.232708e+002
6.588907e+002, 1.230331e+002
6.593728e+002, 1.233303e+002
6.598549e+002, 1.239837e+002
6.603370e+002, 1.241750e+002
6.608192e+002, 1.234947e+002
6.613013e+002, 1.224970e+002
6.617834e+002, 1.221883e+002
6.622655e+002, 1.228206e+002
6.627476e+002, 1.231926e+002
6.632297e+002, 1.231878e+002
6.637119e+002, 1.230456e+002
6.641940e+002, 1.227032e+002
6.646761e+002, 1.223217e+002
6.651582e+002, 1.221453e+002
6.656403e+002, 1.222383e+002
6.661224e+002, 1.223265e+002
6.666046e+002, 1.220719e+002
6.670867e+002, 1.216681e+002
6.675688e+002, 1.216479e+002
6.680509e+002, 1.220435e+002
6.685330e+002, 1.223570e+002
6.690151e+002, 1.223215e+002
6.694973e+002, 1.220885e+002
6.699794e+002, 1.219507e+002
6.704615e+002, 1.219318e+002
6.709436e+002, 1.219536e+002
6.714257e+002, 1.220856e+002
6.719078e+002, 1.221859e+002
6.723900e+002, 1.221604e+002
6.728721e+002, 1.220576e+002
6.733542e+002, 1.219669e+002
6.738363e+002, 1.219198e+002
6.743184e+002, 1.218759e+002
6.748005e+002, 1.217535e+002
6.752827e+002, 1.215708e+002
6.757648e+002, 1.215240e+002
6.762469e+002, 1.216391e+002
6.767290e+002, 1.218235e+002
6.772111e+002, 1.221443e+002
6.776932e+002, 1.224360e+002
6.781754e+002, 1.224048e+002
6.786575e+002, 1.220016e+002
6.791396e+002, 1.215638e+002
6.796217e+002, 1.209788e+002
6.801038e+002, 1.205528e+002
6.805859e+002, 1.206568e+002
6.810681e+002, 1.210908e+002
6.815502e+002, 1.213593e+002
6.820323e+002, 1.212714e+002
6.825144e+002, 1.210972e+002
6.829965e+002, 1.212701e+002
6.834786e+002, 1.218261e+002
6.839608e+002, 1.221042e+002
6.844429e+002, 1.219698e+002
6.849250e+002, 1.217963e+002
6.854071e+002, 1.217530e+002
6.858892e+002, 1.217363e+002
6.863713e+002, 1.215880e+002
6.868535e+002, 1.212806e+002
6.873356e+002, 1.211188e+002
6.878177e+002, 1.213114e+002
6.882998e+002, 1.216552e+002
6.887819e+002, 1.219019e+002
6.892640e+002, 1.221138e+002
6.897462e+002, 1.226582e+002
6.902283e+002, 1.236949e+002
6.907104e+002, 1.245865e+002
6.911925e+002, 1.243160e+002
6.916746e+002, 1.226875e+002
6.921567e+002, 1.216686e+002
6.926389e+002, 1.214917e+002
6.931210e+002, 1.216301e+002
6.936031e+002, 1.223224e+002
6.940852e+002, 1.230114e+002
6.945673e+002, 1.229895e+002
6.950494e+002, 1.222260e+002
6.955316e+002, 1.216078e+002
6.960137e+002, 1.218255e+002
6.964958e+002, 1.223727e+002
6.969779e+002, 1.226212e+002
6.974600e+002, 1.225984e+002
6.979421e+002, 1.224789e+002
6.984243e+002, 1.223200e+002
6.989064e+002, 1.221025e+002
6.993885e+002, 1.217769e+002
6.998706e+002, 1.213213e+002
7.003527e+002, 1.210460e+002
7.008348e+002, 1.212032e+002
7.013170e+002, 1.212317e+002
7.017991e+002, 1.207922e+002
7.022812e+002, 1.203432e+002
7.027633e+002, 1.204140e+002
7.032454e+002, 1.209769e+002
7.037275e+002, 1.214521e+002
7.042097e+002, 1.214106e+002
7.046918e+002, 1.211253e+002
7.051739e+002, 1.209911e+002
7.056560e+002, 1.209917e+002
7.061381e+002, 1.210275e+002
7.066202e+002, 1.210681e+002
7.071024e+002, 1.211621e+002
7.075845e+002, 1.213967e+002
7.080666e+002, 1.217668e+002
7.085487e+002, 1.219026e+002
7.090308e+002, 1.215050e+002
7.095129e+002, 1.212815e+002
7.099951e+002, 1.215346e+002
7.104772e+002, 1.218507e+002
7.109593e+002, 1.218338e+002
7.114414e+002, 1.215300e+002
7.119235e+002, 1.212877e+002
7.124056e+002, 1.213291e+002
7.128878e+002, 1.214931e+002
7.133699e+002, 1.214993e+002
7.138520e+002, 1.213835e+002
7.143341e+002, 1.214147e+002
7.148162e+002, 1.216600e+002
7.152983e+002, 1.219839e+002
7.157805e+002, 1.223244e+002
7.162626e+002, 1.226510e+002
7.167447e+002, 1.227830e+002
7.172268e+002, 1.226287e+002
7.177089e+002, 1.224282e+002
7.181910e+002, 1.221037e+002
7.186732e+002, 1.218222e+002
7.191553e+002, 1.217734e+002
7.196374e+002, 1.218637e+002
7.201195e+002, 1.217922e+002
7.206016e+002, 1.213764e+002
7.210837e+002, 1.210056e+002
7.215659e+002, 1.213611e+002
7.220480e+002, 1.222717e+002
7.225301e+002, 1.227604e+002
7.230122e+002, 1.226936e+002
7.234943e+002, 1.224161e+002
7.239764e+002, 1.220523e+002
7.244586e+002, 1.216762e+002
7.249407e+002, 1.214834e+002
7.254228e+002, 1.215434e+002
7.259049e+002, 1.216088e+002
7.263870e+002, 1.216692e+002
7.268691e+002, 1.217295e+002
7.273513e+002, 1.217913e+002
7.278334e+002, 1.218551e+002
7.283155e+002, 1.219055e+002
7.287976e+002, 1.219408e+002
7.292797e+002, 1.220216e+002
7.297618e+002, 1.223216e+002
7.302440e+002, 1.227212e+002
7.307261e+002, 1.226565e+002
7.312082e+002, 1.220655e+002
7.316903e+002, 1.217976e+002
7.321724e+002, 1.223128e+002
7.326545e+002, 1.231203e+002
7.331367e+002, 1.235185e+002
7.336188e+002, 1.234279e+002
7.341009e+002, 1.233200e+002
7.345830e+002, 1.231387e+002
7.350651e+002, 1.230061e+002
7.355472e+002, 1.230806e+002
7.360294e+002, 1.231591e+002
7.365115e+002, 1.228740e+002
7.369936e+002, 1.222692e+002
7.374757e+002, 1.219129e+002
7.379578e+002, 1.223605e+002
7.384399e+002, 1.232054e+002
7.389221e+002, 1.236305e+002
7.394042e+002, 1.236566e+002
7.398863e+002, 1.236187e+002
7.403684e+002, 1.235931e+002
7.408505e+002, 1.235405e+002
7.413326e+002, 1.234093e+002
7.418148e+002, 1.232106e+002
7.422969e+002, 1.230757e+002
7.427790e+002, 1.230038e+002
7.432611e+002, 1.229914e+002
7.437432e+002, 1.230707e+002
7.442253e+002, 1.231833e+002
7.447075e+002, 1.232833e+002
7.451896e+002, 1.233792e+002
7.456717e+002, 1.235039e+002
7.461538e+002, 1.236731e+002
7.466359e+002, 1.238782e+002
7.471180e+002, 1.241381e+002
7.476002e+002, 1.244273e+002
7.480823e+002, 1.246562e+002
7.485644e+002, 1.248144e+002
7.490465e+002, 1.249228e+002
7.495286e+002, 1.249725e+002
7.500107e+002, 1.250139e+002
7.504929e+002, 1.251722e+002
7.509750e+002, 1.255131e+002
7.514571e+002, 1.258118e+002
7.519392e+002, 1.260382e+002
7.524213e+002, 1.262590e+002
7.529034e+002, 1.265084e+002
7.533856e+002, 1.267655e+002
7.538677e+002, 1.270129e+002
7.543498e+002, 1.272438e+002
7.548319e+002, 1.274229e+002
7.553140e+002, 1.273406e+002
7.557961e+002, 1.272851e+002
7.562783e+002, 1.278945e+002
7.567604e+002, 1.290367e+002
7.572425e+002, 1.299303e+002
7.577246e+002, 1.303048e+002
7.582067e+002, 1.304218e+002
7.586888e+002, 1.305831e+002
7.591710e+002, 1.307867e+002
7.596531e+002, 1.307593e+002
7.601352e+002, 1.302013e+002
7.606173e+002, 1.298710e+002
7.610994e+002, 1.301476e+002
7.615815e+002, 1.304490e+002
7.620637e+002, 1.302864e+002
7.625458e+002, 1.297572e+002
7.630279e+002, 1.293251e+002
7.635100e+002, 1.292708e+002
7.639921e+002, 1.291820e+002
7.644742e+002, 1.286144e+002
7.649564e+002, 1.278128e+002
7.654385e+002, 1.271914e+002
7.659206e+002, 1.268092e+002
7.664027e+002, 1.266350e+002
7.668848e+002, 1.266631e+002
7.673669e+002, 1.268260e+002
7.678491e+002, 1.270012e+002
7.683312e+002, 1.272632e+002
7.688133e+002, 1.272411e+002
7.692954e+002, 1.266905e+002
7.697775e+002, 1.261909e+002
7.702596e+002, 1.260909e+002
7.707418e+002, 1.261404e+002
7.712239e+002, 1.259897e+002
7.717060e+002, 1.255781e+002
7.721881e+002, 1.252308e+002
7.726702e+002, 1.251326e+002
7.731523e+002, 1.250901e+002
7.736345e+002, 1.248675e+002
7.741166e+002, 1.246000e+002
7.745987e+002, 1.246344e+002
7.750808e+002, 1.250357e+002
7.755629e+002, 1.254537e+002
7.760450e+002, 1.255300e+002
7.765272e+002, 1.253346e+002
7.770093e+002, 1.251875e+002
7.774914e+002, 1.250893e+002
7.779735e+002, 1.250404e+002
7.784556e+002, 1.250545e+002
7.789377e+002, 1.250967e+002
7.794199e+002, 1.251402e+002
7.799020e+002, 1.251864e+002
7.803841e+002, 1.252435e+002
7.808662e+002, 1.253283e+002
7.813483e+002, 1.253984e+002
7.818304e+002, 1.254238e+002
7.823126e+002, 1.254463e+002
7.827947e+002, 1.254969e+002
7.832768e+002, 1.255748e+002
7.837589e+002, 1.256682e+002
7.842410e+002, 1.257720e+002
7.847231e+002, 1.258860e+002
7.852053e+002, 1.259856e+002
7.856874e+002, 1.260932e+002
7.861695e+002, 1.263455e+002
7.866516e+002, 1.267591e+002
7.871337e+002, 1.270883e+002
7.876158e+002, 1.272562e+002
7.880980e+002, 1.272013e+002
7.885801e+002, 1.267344e+002
7.890622e+002, 1.257048e+002
7.895443e+002, 1.252741e+002
7.900264e+002, 1.259587e+002
7.905085e+002, 1.265621e+002
7.909907e+002, 1.268422e+002
7.914728e+002, 1.269217e+002
7.919549e+002, 1.268293e+002
7.924370e+002, 1.266327e+002
7.929191e+002, 1.265409e+002
7.934012e+002, 1.266674e+002
7.938834e+002, 1.269224e+002
7.943655e+002, 1.274285e+002
7.948476e+002, 1.279421e+002
7.953297e+002, 1.277343e+002
7.958118e+002, 1.268117e+002
7.962939e+002, 1.262032e+002
7.967761e+002, 1.266178e+002
7.972582e+002, 1.276035e+002
7.977403e+002, 1.280604e+002
7.982224e+002, 1.278531e+002
7.987045e+002, 1.276939e+002
7.991866e+002, 1.275689e+002
7.996688e+002, 1.275370e+002
8.001509e+002, 1.276884e+002
8.006330e+002, 1.279181e+002
8.011151e+002, 1.280983e+002
8.015972e+002, 1.282166e+002
8.020793e+002, 1.283641e+002
8.025615e+002, 1.285374e+002
8.030436e+002, 1.287791e+002
8.035257e+002, 1.292127e+002
8.040078e+002, 1.296884e+002
8.044899e+002, 1.299253e+002
8.049720e+002, 1.299186e+002
8.054542e+002, 1.299816e+002
8.059363e+002, 1.303955e+002
8.064184e+002, 1.309697e+002
8.069005e+002, 1.312053e+002
8.073826e+002, 1.311261e+002
8.078647e+002, 1.313310e+002
8.083469e+002, 1.319691e+002
8.088290e+002, 1.326583e+002
8.093111e+002, 1.331197e+002
8.097932e+002, 1.334455e+002
8.102753e+002, 1.339165e+002
8.107574e+002, 1.346339e+002
8.112396e+002, 1.353005e+002
8.117217e+002, 1.357136e+002
8.122038e+002, 1.363051e+002
8.126859e+002, 1.374270e+002
8.131680e+002, 1.387616e+002
8.136501e+002, 1.398413e+002
8.141323e+002, 1.405936e+002
8.146144e+002, 1.413771e+002
8.150965e+002, 1.425330e+002
8.155786e+002, 1.437436e+002
8.160607e+002, 1.447072e+002
8.165428e+002, 1.454114e+002
8.170250e+002, 1.457710e+002
8.175071e+002, 1.457907e+002
8.179892e+002, 1.457843e+002
8.184713e+002, 1.460907e+002
8.189534e+002, 1.464326e+002
8.194355e+002, 1.456902e+002
8.199177e+002, 1.435675e+002
8.203998e+002, 1.417179e+002
8.208819e+002, 1.403543e+002
8.213640e+002, 1.392205e+002
8.218461e+002, 1.383016e+002
8.223282e+002, 1.374661e+002
8.228104e+002, 1.363554e+002
8.232925e+002, 1.347439e+002
8.237746e+002, 1.337053e+002
8.242567e+002, 1.340224e+002
8.247388e+002, 1.343565e+002
8.252209e+002, 1.338309e+002
8.257031e+002, 1.328842e+002
8.261852e+002, 1.321497e+002
8.266673e+002, 1.317773e+002
8.271494e+002, 1.316085e+002
8.276315e+002, 1.315919e+002
8.281136e+002, 1.316318e+002
8.285958e+002, 1.315692e+002
8.290779e+002, 1.314160e+002
8.295600e+002, 1.312075e+002
8.300421e+002, 1.309472e+002
8.305242e+002, 1.307412e+002
8.310063e+002, 1.306795e+002
8.314885e+002, 1.307072e+002
8.319706e+002, 1.306598e+002
8.324527e+002, 1.305248e+002
8.329348e+002, 1.303371e+002
8.334169e+002, 1.299209e+002
8.338990e+002, 1.296800e+002
8.343812e+002, 1.297702e+002
8.348633e+002, 1.301109e+002
8.353454e+002, 1.307613e+002
8.358275e+002, 1.317386e+002
8.363096e+002, 1.322483e+002
8.367917e+002, 1.314988e+002
8.372739e+002, 1.307722e+002
8.377560e+002, 1.310420e+002
8.382381e+002, 1.317464e+002
8.387202e+002, 1.321263e+002
8.392023e+002, 1.320556e+002
8.396844e+002, 1.317092e+002
8.401666e+002, 1.311344e+002
8.406487e+002, 1.305911e+002
8.411308e+002, 1.306721e+002
8.416129e+002, 1.312591e+002
8.420950e+002, 1.314782e+002
8.425771e+002, 1.312114e+002
8.430593e+002, 1.309175e+002
8.435414e+002, 1.308349e+002
8.440235e+002, 1.308899e+002
8.445056e+002, 1.309553e+002
8.449877e+002, 1.310391e+002
8.454698e+002, 1.310940e+002
8.459520e+002, 1.311142e+002
8.464341e+002, 1.311131e+002
8.469162e+002, 1.309810e+002
8.473983e+002, 1.309153e+002
8.478804e+002, 1.311978e+002
8.483625e+002, 1.317445e+002
8.488447e+002, 1.320666e+002
8.493268e+002, 1.319201e+002
8.498089e+002, 1.316574e+002
8.502910e+002, 1.314023e+002
8.507731e+002, 1.311851e+002
8.512552e+002, 1.310628e+002
8.517374e+002, 1.310124e+002
8.522195e+002, 1.309459e+002
8.527016e+002, 1.308228e+002
8.531837e+002, 1.307041e+002
8.536658e+002, 1.306640e+002
8.541479e+002, 1.306963e+002
8.546301e+002, 1.307806e+002
8.551122e+002, 1.309165e+002
8.555943e+002, 1.310924e+002
8.560764e+002, 1.313303e+002
8.565585e+002, 1.315063e+002
8.570406e+002, 1.314820e+002
8.575228e+002, 1.312709e+002
8.580049e+002, 1.310118e+002
8.584870e+002, 1.305571e+002
8.589691e+002, 1.303140e+002
8.594512e+002, 1.304870e+002
8.599333e+002, 1.307014e+002
8.604155e+002, 1.307224e+002
8.608976e+002, 1.306585e+002
8.613797e+002, 1.307511e+002
8.618618e+002, 1.310801e+002
8.623439e+002, 1.313402e+002
8.628260e+002, 1.313529e+002
8.633082e+002, 1.312970e+002
8.637903e+002, 1.313560e+002
8.642724e+002, 1.314308e+002
8.647545e+002, 1.313155e+002
8.652366e+002, 1.309864e+002
8.657188e+002, 1.306029e+002
8.662009e+002, 1.302340e+002
8.666830e+002, 1.299813e+002
8.671651e+002, 1.300755e+002
8.676472e+002, 1.304762e+002
8.681293e+002, 1.310692e+002
8.686115e+002, 1.318627e+002
8.690936e+002, 1.321807e+002
8.695757e+002, 1.315177e+002
8.700578e+002, 1.303792e+002
8.705399e+002, 1.297813e+002
8.710220e+002, 1.297816e+002
8.715042e+002, 1.300894e+002
8.719863e+002, 1.311566e+002
8.724684e+002, 1.318034e+002
8.729505e+002, 1.312363e+002
8.734326e+002, 1.304154e+002
8.739147e+002, 1.301860e+002
8.743969e+002, 1.304840e+002
8.748790e+002, 1.307533e+002
8.753611e+002, 1.310291e+002
8.758432e+002, 1.310656e+002
8.763253e+002, 1.304071e+002
8.768074e+002, 1.297847e+002
8.772896e+002, 1.300069e+002
8.777717e+002, 1.307725e+002
8.782538e+002, 1.312981e+002
8.787359e+002, 1.312972e+002
8.792180e+002, 1.310294e+002
8.797001e+002, 1.305801e+002
8.801823e+002, 1.301014e+002
8.806644e+002, 1.299106e+002
8.811465e+002, 1.299537e+002
8.816286e+002, 1.299838e+002
8.821107e+002, 1.299352e+002
8.825928e+002, 1.298682e+002
8.830750e+002, 1.298151e+002
8.835571e+002, 1.298238e+002
8.840392e+002, 1.301274e+002
8.845213e+002, 1.308235e+002
8.850034e+002, 1.312192e+002
8.854855e+002, 1.311592e+002
8.859677e+002, 1.310117e+002
8.864498e+002, 1.309342e+002
8.869319e+002, 1.309025e+002
8.874140e+002, 1.308708e+002
8.878961e+002, 1.308317e+002
8.883782e+002, 1.308494e+002
8.888604e+002, 1.311200e+002
8.893425e+002, 1.311989e+002
8.898246e+002, 1.307062e+002
8.903067e+002, 1.301798e+002
8.907888e+002, 1.301672e+002
8.912709e+002, 1.305484e+002
8.917531e+002, 1.308080e+002
8.922352e+002, 1.307476e+002
8.927173e+002, 1.305927e+002
8.931994e+002, 1.304013e+002
8.936815e+002, 1.302686e+002
8.941636e+002, 1.303109e+002
8.946458e+002, 1.305096e+002
8.951279e+002, 1.308886e+002
8.956100e+002, 1.314160e+002
8.960921e+002, 1.317334e+002
8.965742e+002, 1.314001e+002
8.970563e+002, 1.307021e+002
8.975385e+002, 1.303755e+002
8.980206e+002, 1.304050e+002
8.985027e+002, 1.306656e+002
8.989848e+002, 1.311674e+002
8.994669e+002, 1.315346e+002
8.999490e+002, 1.314953e+002
9.004312e+002, 1.312184e+002
9.009133e+002, 1.310821e+002
9.013954e+002, 1.310961e+002
9.018775e+002, 1.312203e+002
9.023596e+002, 1.315920e+002
9.028417e+002, 1.318399e+002
9.033239e+002, 1.317628e+002
9.038060e+002, 1.315836e+002
9.042881e+002, 1.315367e+002
9.047702e+002, 1.315898e+002
9.052523e+002, 1.315261e+002
9.057344e+002, 1.311286e+002
9.062166e+002, 1.308962e+002
9.066987e+002, 1.310565e+002
9.071808e+002, 1.313189e+002
9.076629e+002, 1.315063e+002
9.081450e+002, 1.316309e+002
9.086271e+002, 1.317650e+002
9.091093e+002, 1.319237e+002
9.095914e+002, 1.320183e+002
9.100735e+002, 1.318873e+002
9.105556e+002, 1.317448e+002
9.110377e+002, 1.318688e+002
9.115198e+002, 1.321498e+002
9.120020e+002, 1.323735e+002
9.124841e+002, 1.325007e+002
9.129662e+002, 1.325590e+002
9.134483e+002, 1.325539e+002
9.139304e+002, 1.325765e+002
9.144125e+002, 1.328691e+002
9.148947e+002, 1.333690e+002
9.153768e+002, 1.334844e+002
9.158589e+002, 1.331655e+002
9.163410e+002, 1.330863e+002
9.168231e+002, 1.335404e+002
9.173052e+002, 1.341137e+002
9.177874e+002, 1.342903e+002
9.182695e+002, 1.341539e+002
9.187516e+002, 1.345701e+002
9.192337e+002, 1.360252e+002
9.197158e+002, 1.368537e+002
9.201979e+002, 1.365175e+002
9.206801e+002, 1.360224e+002
9.211622e+002, 1.359816e+002
9.216443e+002, 1.361070e+002
9.221264e+002, 1.358247e+002
9.226085e+002, 1.349850e+002
9.230906e+002, 1.347200e+002
9.235728e+002, 1.356917e+002
9.240549e+002, 1.366313e+002
9.245370e+002, 1.370241e+002
9.250191e+002, 1.371999e+002
9.255012e+002, 1.374664e+002
9.259833e+002, 1.378143e+002
9.264655e+002, 1.380806e+002
9.269476e+002, 1.381751e+002
9.274297e+002, 1.383002e+002
9.279118e+002, 1.382935e+002
9.283939e+002, 1.386267e+002
9.288760e+002, 1.403770e+002
9.293582e+002, 1.427832e+002
9.298403e+002, 1.439781e+002
9.303224e+002, 1.435939e+002
9.308045e+002, 1.428967e+002
9.312866e+002, 1.428870e+002
9.317687e+002, 1.432133e+002
9.322509e+002, 1.431528e+002
9.327330e+002, 1.428361e+002
9.332151e+002, 1.428684e+002
9.336972e+002, 1.433095e+002
9.341793e+002, 1.439169e+002
9.346614e+002, 1.445843e+002
9.351436e+002, 1.452729e+002
9.356257e+002, 1.459417e+002
9.361078e+002, 1.465845e+002
9.365899e+002, 1.470175e+002
9.370720e+002, 1.471518e+002
9.375541e+002, 1.474429e+002
9.380363e+002, 1.480546e+002
9.385184e+002, 1.486783e+002
9.390005e+002, 1.490178e+002
9.394826e+002, 1.492332e+002
9.399647e+002, 1.498020e+002
9.404468e+002, 1.508893e+002
9.409290e+002, 1.518715e+002
9.414111e+002, 1.526850e+002
9.418932e+002, 1.534833e+002
9.423753e+002, 1.543078e+002
9.428574e+002, 1.551370e+002
9.433395e+002, 1.559683e+002
9.438217e+002, 1.567908e+002
9.443038e+002, 1.575348e+002
9.447859e+002, 1.580753e+002
9.452680e+002, 1.587524e+002
9.457501e+002, 1.599829e+002
9.462322e+002, 1.611131e+002
9.467144e+002, 1.613855e+002
9.471965e+002, 1.613160e+002
9.476786e+002, 1.619337e+002
9.481607e+002, 1.633649e+002
9.486428e+002, 1.645720e+002
9.491249e+002, 1.645661e+002
9.496071e+002, 1.644692e+002
9.500892e+002, 1.656699e+002
9.505713e+002, 1.674406e+002
9.510534e+002, 1.685765e+002
9.515355e+002, 1.690345e+002
9.520176e+002, 1.692786e+002
9.524998e+002, 1.695225e+002
9.529819e+002, 1.698412e+002
9.534640e+002, 1.703430e+002
9.539461e+002, 1.709839e+002
9.544282e+002, 1.716650e+002
9.549103e+002, 1.723745e+002
9.553925e+002, 1.730115e+002
9.558746e+002, 1.735588e+002
9.563567e+002, 1.740366e+002
9.568388e+002, 1.744593e+002
9.573209e+002, 1.748259e+002
9.578030e+002, 1.750849e+002
9.582852e+002, 1.752000e+002
9.587673e+002, 1.757468e+002
9.592494e+002, 1.769676e+002
9.597315e+002, 1.775840e+002
9.602136e+002, 1.769559e+002
9.606957e+002, 1.761179e+002
9.611779e+002, 1.761128e+002
9.616600e+002, 1.767456e+002
9.621421e+002, 1.769617e+002
9.626242e+002, 1.765402e+002
9.631063e+002, 1.761405e+002
9.635884e+002, 1.756693e+002
9.640706e+002, 1.753481e+002
9.645527e+002, 1.754563e+002
9.650348e+002, 1.756212e+002
9.655169e+002, 1.754345e+002
9.659990e+002, 1.748978e+002
9.664811e+002, 1.742279e+002
9.669633e+002, 1.731983e+002
9.674454e+002, 1.724044e+002
9.679275e+002, 1.720864e+002
9.684096e+002, 1.719354e+002
9.688917e+002, 1.719022e+002
9.693738e+002, 1.718205e+002
9.698560e+002, 1.713626e+002
9.703381e+002, 1.704851e+002
9.708202e+002, 1.697687e+002
9.713023e+002, 1.698345e+002
9.717844e+002, 1.697579e+002
9.722665e+002, 1.686590e+002
9.727487e+002, 1.672632e+002
9.732308e+002, 1.664828e+002
9.737129e+002, 1.662165e+002
9.741950e+002, 1.658512e+002
9.746771e+002, 1.651520e+002
9.751592e+002, 1.644728e+002
9.756414e+002, 1.641326e+002
9.761235e+002, 1.640012e+002
9.766056e+002, 1.639973e+002
9.770877e+002, 1.640244e+002
9.775698e+002, 1.638493e+002
9.780519e+002, 1.634504e+002
9.785341e+002, 1.629460e+002
9.790162e+002, 1.623978e+002
9.794983e+002, 1.618847e+002
9.799804e+002, 1.615164e+002
9.804625e+002, 1.612796e+002
9.809446e+002, 1.611308e+002
9.814268e+002, 1.610672e+002
9.819089e+002, 1.610797e+002
9.823910e+002, 1.611666e+002
9.828731e+002, 1.612383e+002
9.833552e+002, 1.611967e+002
9.838373e+002, 1.611704e+002
9.843195e+002, 1.615900e+002
9.848016e+002, 1.624953e+002
9.852837e+002, 1.628153e+002
9.857658e+002, 1.623438e+002
9.862479e+002, 1.623287e+002
9.867300e+002, 1.633405e+002
9.872122e+002, 1.645460e+002
9.876943e+002, 1.650789e+002
9.881764e+002, 1.650961e+002
9.886585e+002, 1.654450e+002
9.891406e+002, 1.661572e+002
9.896227e+002, 1.671193e+002
9.901049e+002, 1.683984e+002
9.905870e+002, 1.698187e+002
9.910691e+002, 1.715052e+002
9.915512e+002, 1.731033e+002
9.920333e+002, 1.740286e+002
9.925154e+002, 1.743166e+002
9.929976e+002, 1.752349e+002
9.934797e+002, 1.772190e+002
9.939618e+002, 1.791665e+002
9.944439e+002, 1.809765e+002
9.949260e+002, 1.828021e+002
9.954081e+002, 1.847767e+002
9.958903e+002, 1.867787e+002
9.963724e+002, 1.885201e+002
9.968545e+002, 1.900016e+002
9.973366e+002, 1.919558e+002
9.978187e+002, 1.948001e+002
9.983008e+002, 1.977510e+002
9.987830e+002, 2.008219e+002
9.992651e+002, 2.037067e+002
9.997472e+002, 2.060064e+002
1.000229e+003, 2.080321e+002
1.000711e+003, 2.103047e+002
1.001194e+003, 2.129209e+002
1.001676e+003, 2.158284e+002
1.002158e+003, 2.193725e+002
1.002640e+003, 2.227662e+002
1.003122e+003, 2.253677e+002
1.003604e+003, 2.277393e+002
1.004086e+003, 2.305921e+002
1.004568e+003, 2.337107e+002
1.005050e+003, 2.364929e+002
1.005533e+003, 2.387476e+002
1.006015e+003, 2.406317e+002
1.006497e+003, 2.422113e+002
1.006979e+003, 2.435134e+002
1.007461e+003, 2.445953e+002
1.007943e+003, 2.454015e+002
1.008425e+003, 2.459377e+002
1.008907e+003, 2.461131e+002
1.009390e+003, 2.455823e+002
1.009872e+003, 2.442007e+002
1.010354e+003, 2.425438e+002
1.010836e+003, 2.413637e+002
1.011318e+003, 2.401265e+002
1.011800e+003, 2.378343e+002
1.012282e+003, 2.348211e+002
1.012764e+003, 2.318831e+002
1.013246e+003, 2.291295e+002
1.013729e+003, 2.262768e+002
1.014211e+003, 2.231623e+002
1.014693e+003, 2.199068e+002
1.015175e+003, 2.165456e+002
1.015657e+003, 2.131951e+002
1.016139e+003, 2.102624e+002
1.016621e+003, 2.076720e+002
1.017103e+003, 2.049691e+002
1.017586e+003, 2.020930e+002
1.018068e+003, 1.994932e+002
1.018550e+003, 1.974775e+002
1.019032e+003, 1.957458e+002
1.019514e+003, 1.938112e+002
1.019996e+003, 1.917253e+002
1.020478e+003, 1.898774e+002
1.020960e+003, 1.882653e+002
1.021442e+003, 1.869826e+002
1.021925e+003, 1.860691e+002
1.022407e+003, 1.852695e+002
1.022889e+003, 1.844307e+002
1.023371e+003, 1.835280e+002
1.023853e+003, 1.824731e+002
1.024335e+003, 1.812645e+002
1.024817e+003, 1.802017e+002
1.025299e+003, 1.792981e+002
1.025781e+003, 1.783554e+002
1.026264e+003, 1.772114e+002
1.026746e+003, 1.765937e+002
1.027228e+003, 1.773095e+002
1.027710e+003, 1.784469e+002
1.028192e+003, 1.776722e+002
1.028674e+003, 1.746641e+002
1.029156e+003, 1.723098e+002
1.029638e+003, 1.707091e+002
1.030120e+003, 1.694674e+002
1.030603e+003, 1.685264e+002
1.031085e+003, 1.678425e+002
1.031567e+003, 1.674302e+002
1.032049e+003, 1.672152e+002
1.032531e+003, 1.670005e+002
1.033013e+003, 1.667793e+002
1.033495e+003, 1.666098e+002
1.033977e+003, 1.666244e+002
1.034460e+003, 1.664016e+002
1.034942e+003, 1.657177e+002
1.035424e+003, 1.649325e+002
1.035906e+003, 1.642459e+002
1.036388e+003, 1.637062e+002
1.036870e+003, 1.634920e+002
1.037352e+003, 1.637831e+002
1.037834e+003, 1.637818e+002
1.038317e+003, 1.634746e+002
1.038799e+003, 1.628872e+002
1.039281e+003, 1.616866e+002
1.039763e+003, 1.605482e+002
1.040245e+003, 1.601447e+002
1.040727e+003, 1.601771e+002
1.041209e+003, 1.597877e+002
1.041691e+003, 1.588954e+002
1.042173e+003, 1.578435e+002
1.042656e+003, 1.562185e+002
1.043138e+003, 1.549849e+002
1.043620e+003, 1.546875e+002
1.044102e+003, 1.545757e+002
1.044584e+003, 1.540806e+002
1.045066e+003, 1.533296e+002
1.045548e+003, 1.527031e+002
1.046030e+003, 1.522892e+002
1.046512e+003, 1.517459e+002
1.046995e+003, 1.510559e+002
1.047477e+003, 1.502061e+002
1.047959e+003, 1.490519e+002
1.048441e+003, 1.478620e+002
1.048923e+003, 1.467241e+002
1.049405e+003, 1.457451e+002
1.049887e+003, 1.451978e+002
1.050369e+003, 1.452037e+002
1.050852e+003, 1.451601e+002
1.051334e+003, 1.450391e+002
1.051816e+003, 1.447376e+002
1.052298e+003, 1.441947e+002
1.052780e+003, 1.434804e+002
1.053262e+003, 1.423921e+002
1.053744e+003, 1.412414e+002
1.054226e+003, 1.408137e+002
1.054708e+003, 1.413637e+002
1.055191e+003, 1.415092e+002
1.055673e+003, 1.403936e+002
1.056155e+003, 1.394421e+002
1.056637e+003, 1.393939e+002
1.057119e+003, 1.395644e+002
1.057601e+003, 1.394375e+002
1.058083e+003, 1.390611e+002
1.058565e+003, 1.385473e+002
1.059047e+003, 1.378956e+002
1.059530e+003, 1.375726e+002
1.060012e+003, 1.382048e+002
1.060494e+003, 1.385870e+002
1.060976e+003, 1.378360e+002
1.061458e+003, 1.369694e+002
1.061940e+003, 1.368958e+002
1.062422e+003, 1.373266e+002
1.062904e+003, 1.376191e+002
1.063387e+003, 1.376476e+002
1.063869e+003, 1.375378e+002
1.064351e+003, 1.372561e+002
1.064833e+003, 1.369509e+002
1.065315e+003, 1.366500e+002
1.065797e+003, 1.363891e+002
1.066279e+003, 1.361744e+002
1.066761e+003, 1.360316e+002
1.067244e+003, 1.360449e+002
1.067726e+003, 1.362130e+002
1.068208e+003, 1.363076e+002
1.068690e+003, 1.361265e+002
1.069172e+003, 1.360000e+002
1.069654e+003, 1.361640e+002
1.070136e+003, 1.363597e+002
1.070618e+003, 1.363699e+002
1.071100e+003, 1.362680e+002
1.071583e+003, 1.361865e+002
1.072065e+003, 1.361486e+002
1.072547e+003, 1.361148e+002
1.073029e+003, 1.360141e+002
1.073511e+003, 1.360090e+002
1.073993e+003, 1.362987e+002
1.074475e+003, 1.365916e+002
1.074957e+003, 1.366634e+002
1.075439e+003, 1.365892e+002
1.075922e+003, 1.364444e+002
1.076404e+003, 1.362761e+002
1.076886e+003, 1.362250e+002
1.077368e+003, 1.363772e+002
1.077850e+003, 1.365769e+002
1.078332e+003, 1.369110e+002
1.078814e+003, 1.370996e+002
1.079297e+003, 1.367709e+002
1.079779e+003, 1.362779e+002
1.080261e+003, 1.360851e+002
1.080743e+003, 1.362014e+002
1.081225e+003, 1.363861e+002
1.081707e+003, 1.365904e+002
1.082189e+003, 1.367461e+002
1.082671e+003, 1.367732e+002
1.083153e+003, 1.367949e+002
1.083635e+003, 1.369150e+002
1.084118e+003, 1.370568e+002
1.084600e+003, 1.371898e+002
1.085082e+003, 1.372565e+002
1.085564e+003, 1.370730e+002
1.086046e+003, 1.365171e+002
1.086528e+003, 1.361070e+002
1.087010e+003, 1.360945e+002
1.087492e+003, 1.362490e+002
1.087975e+003, 1.365978e+002
1.088457e+003, 1.369247e+002
1.088939e+003, 1.369920e+002
1.089421e+003, 1.368669e+002
1.089903e+003, 1.367354e+002
1.090385e+003, 1.366333e+002
1.090867e+003, 1.366211e+002
1.091349e+003, 1.368979e+002
1.091832e+003, 1.370430e+002
1.092314e+003, 1.365947e+002
1.092796e+003, 1.361781e+002
1.093278e+003, 1.364452e+002
1.093760e+003, 1.371021e+002
1.094242e+003, 1.375479e+002
1.094724e+003, 1.376792e+002
1.095206e+003, 1.377406e+002
1.095688e+003, 1.377633e+002
1.096171e+003, 1.377918e+002
1.096653e+003, 1.378950e+002
1.097135e+003, 1.379532e+002
1.097617e+003, 1.376850e+002
1.098099e+003, 1.374263e+002
1.098581e+003, 1.378329e+002
1.099063e+003, 1.388693e+002
1.099545e+003, 1.394689e+002
1.100027e+003, 1.390090e+002
1.100510e+003, 1.387161e+002
1.100992e+003, 1.390778e+002
1.101474e+003, 1.394828e+002
1.101956e+003, 1.396239e+002
1.102438e+003, 1.396113e+002
1.102920e+003, 1.395317e+002
1.103402e+003, 1.394250e+002
1.103884e+003, 1.394125e+002
1.104367e+003, 1.395025e+002
1.104849e+003, 1.397133e+002
1.105331e+003, 1.402950e+002
1.105813e+003, 1.406850e+002
1.106295e+003, 1.403662e+002
1.106777e+003, 1.400199e+002
1.107259e+003, 1.403878e+002
1.107741e+003, 1.412175e+002
1.108224e+003, 1.416898e+002
1.108706e+003, 1.415982e+002
1.109188e+003, 1.417181e+002
1.109670e+003, 1.424030e+002
1.110152e+003, 1.429059e+002
1.110634e+003, 1.430384e+002
1.111116e+003, 1.429561e+002
1.111598e+003, 1.426156e+002
1.112080e+003, 1.421885e+002
1.112563e+003, 1.420130e+002
1.113045e+003, 1.421233e+002
1.113527e+003, 1.422079e+002
1.114009e+003, 1.422202e+002
1.114491e+003, 1.422847e+002
1.114973e+003, 1.424498e+002
1.115455e+003, 1.426213e+002
1.115937e+003, 1.427318e+002
1.116419e+003, 1.428535e+002
1.116902e+003, 1.432110e+002
1.117384e+003, 1.437334e+002
1.117866e+003, 1.434975e+002
1.118348e+003, 1.417533e+002
1.118830e+003, 1.410271e+002
1.119312e+003, 1.417683e+002
1.119794e+003, 1.428297e+002
1.120276e+003, 1.440103e+002
1.120759e+003, 1.450456e+002
1.121241e+003, 1.457354e+002
1.121723e+003, 1.460570e+002
1.122205e+003, 1.458512e+002
1.122687e+003, 1.448477e+002
1.123169e+003, 1.445911e+002
1.123651e+003, 1.452470e+002
1.124133e+003, 1.461380e+002
1.124615e+003, 1.471982e+002
1.125098e+003, 1.481690e+002
1.125580e+003, 1.488628e+002
1.126062e+003, 1.493663e+002
1.126544e+003, 1.498103e+002
1.127026e+003, 1.501983e+002
1.127508e+003, 1.507727e+002
1.127990e+003, 1.515427e+002
1.128472e+003, 1.524341e+002
1.128954e+003, 1.534463e+002
1.129437e+003, 1.544909e+002
1.129919e+003, 1.555060e+002
1.130401e+003, 1.566708e+002
1.130883e+003, 1.582637e+002
1.131365e+003, 1.601552e+002
1.131847e+003, 1.618185e+002
1.132329e+003, 1.632755e+002
1.132811e+003, 1.648054e+002
1.133294e+003, 1.664396e+002
1.133776e+003, 1.683007e+002
1.134258e+003, 1.704302e+002
1.134740e+003, 1.727634e+002
1.135222e+003, 1.752095e+002
1.135704e+003, 1.779673e+002
1.136186e+003, 1.818263e+002
1.136668e+003, 1.862876e+002
1.137151e+003, 1.891359e+002
1.137633e+003, 1.906228e+002
1.138115e+003, 1.920971e+002
1.138597e+003, 1.938937e+002
1.139079e+003, 1.962282e+002
1.139561e+003, 1.992265e+002
1.140043e+003, 2.022351e+002
1.140525e+003, 2.046058e+002
1.141007e+003, 2.063506e+002
1.141490e+003, 2.075235e+002
1.141972e+003, 2.080638e+002
1.142454e+003, 2.077657e+002
1.142936e+003, 2.066968e+002
1.143418e+003, 2.051016e+002
1.143900e+003, 2.030919e+002
1.144382e+003, 2.007697e+002
1.144864e+003, 1.980968e+002
1.145346e+003, 1.953921e+002
1.145829e+003, 1.932957e+002
1.146311e+003, 1.911555e+002
1.146793e+003, 1.878495e+002
1.147275e+003, 1.839471e+002
1.147757e+003, 1.805816e+002
1.148239e+003, 1.779239e+002
1.148721e+003, 1.756048e+002
1.149203e+003, 1.735064e+002
1.149686e+003, 1.715060e+002
1.150168e+003, 1.694631e+002
1.150650e+003, 1.675756e+002
1.151132e+003, 1.660388e+002
1.151614e+003, 1.646889e+002
1.152096e+003, 1.633790e+002
1.152578e+003, 1.620899e+002
1.153060e+003, 1.608483e+002
1.153542e+003, 1.596689e+002
1.154025e+003, 1.583931e+002
1.154507e+003, 1.566353e+002
1.154989e+003, 1.552406e+002
1.155471e+003, 1.546546e+002
1.155953e+003, 1.543627e+002
1.156435e+003, 1.542395e+002
1.156917e+003, 1.540653e+002
1.157399e+003, 1.534326e+002
1.157881e+003, 1.524119e+002
1.158364e+003, 1.518098e+002
1.158846e+003, 1.521238e+002
1.159328e+003, 1.520546e+002
1.159810e+003, 1.512636e+002
1.160292e+003, 1.504246e+002
1.160774e+003, 1.495818e+002
1.161256e+003, 1.489295e+002
1.161738e+003, 1.487159e+002
1.162221e+003, 1.487613e+002
1.162703e+003, 1.486309e+002
1.163185e+003, 1.483052e+002
1.163667e+003, 1.479783e+002
1.164149e+003, 1.476720e+002
1.164631e+003, 1.472900e+002
1.165113e+003, 1.467667e+002
1.165595e+003, 1.463184e+002
1.166078e+003, 1.460590e+002
1.166560e+003, 1.459145e+002
1.167042e+003, 1.458192e+002
1.167524e+003, 1.457327e+002
1.168006e+003, 1.453702e+002
1.168488e+003, 1.447019e+002
1.168970e+003, 1.447108e+002
1.169452e+003, 1.454791e+002
1.169934e+003, 1.457007e+002
1.170417e+003, 1.449814e+002
1.170899e+003, 1.443254e+002
1.171381e+003, 1.444815e+002
1.171863e+003, 1.450267e+002
1.172345e+003, 1.453511e+002
1.172827e+003, 1.454503e+002
1.173309e+003, 1.451784e+002
1.173791e+003, 1.446659e+002
1.174273e+003, 1.444910e+002
1.174756e+003, 1.446430e+002
1.175238e+003, 1.445613e+002
1.175720e+003, 1.440489e+002
1.176202e+003, 1.436235e+002
1.176684e+003, 1.437842e+002
1.177166e+003, 1.441497e+002
1.177648e+003, 1.442755e+002
1.178130e+003, 1.442740e+002
1.178613e+003, 1.442535e+002
1.179095e+003, 1.442649e+002
1.179577e+003, 1.444511e+002
1.180059e+003, 1.447592e+002
1.180541e+003, 1.448524e+002
1.181023e+003, 1.445378e+002
1.181505e+003, 1.443022e+002
1.181987e+003, 1.445676e+002
1.182469e+003, 1.448607e+002
1.182952e+003, 1.448039e+002
1.183434e+003, 1.446766e+002
1.183916e+003, 1.448464e+002
1.184398e+003, 1.451313e+002
1.184880e+003, 1.450419e+002
1.185362e+003, 1.445314e+002
1.185844e+003, 1.443451e+002
1.186326e+003, 1.449336e+002
1.186808e+003, 1.454256e+002
1.187291e+003, 1.457751e+002
1.187773e+003, 1.458707e+002
1.188255e+003, 1.454049e+002
1.188737e+003, 1.448870e+002
1.189219e+003, 1.448414e+002
1.189701e+003, 1.451187e+002
1.190183e+003, 1.452610e+002
1.190665e+003, 1.452514e+002
1.191148e+003, 1.452039e+002
1.191630e+003, 1.451485e+002
1.192112e+003, 1.449098e+002
1.192594e+003, 1.442597e+002
1.193076e+003, 1.440891e+002
1.193558e+003, 1.450343e+002
1.194040e+003, 1.461705e+002
1.194522e+003, 1.462868e+002
1.195005e+003, 1.456277e+002
1.195487e+003, 1.451519e+002
1.195969e+003, 1.448609e+002
1.196451e+003, 1.447395e+002
1.196933e+003, 1.447876e+002
1.197415e+003, 1.450634e+002
1.197897e+003, 1.455666e+002
1.198379e+003, 1.460117e+002
1.198861e+003, 1.462273e+002
1.199344e+003, 1.462016e+002
1.199826e+003, 1.457394e+002
1.200308e+003, 1.451470e+002
1.200790e+003, 1.451587e+002
1.201272e+003, 1.454913e+002
1.201754e+003, 1.454296e+002
1.202236e+003, 1.450951e+002
1.202718e+003, 1.451868e+002
1.203200e+003, 1.458234e+002
1.203683e+003, 1.462682e+002
1.204165e+003, 1.460198e+002
1.204647e+003, 1.456279e+002
1.205129e+003, 1.454514e+002
1.205611e+003, 1.453645e+002
1.206093e+003, 1.453398e+002
1.206575e+003, 1.452852e+002
1.207057e+003, 1.449416e+002
1.207540e+003, 1.445074e+002
1.208022e+003, 1.446145e+002
1.208504e+003, 1.454528e+002
1.208986e+003, 1.459735e+002
1.209468e+003, 1.455821e+002
1.209950e+003, 1.453684e+002
1.210432e+003, 1.457163e+002
1.210914e+003, 1.461242e+002
1.211396e+003, 1.463525e+002
1.211879e+003, 1.465072e+002
1.212361e+003, 1.467503e+002
1.212843e+003, 1.470047e+002
1.213325e+003, 1.469138e+002
1.213807e+003, 1.463260e+002
1.214289e+003, 1.461750e+002
1.214771e+003, 1.466237e+002
1.215253e+003, 1.468416e+002
1.215735e+003, 1.466327e+002
1.216218e+003, 1.463084e+002
1.216700e+003, 1.460011e+002
1.217182e+003, 1.458536e+002
1.217664e+003, 1.461042e+002
1.218146e+003, 1.465584e+002
1.218628e+003, 1.465738e+002
1.219110e+003, 1.462331e+002
1.219592e+003, 1.459095e+002
1.220075e+003, 1.456453e+002
1.220557e+003, 1.454725e+002
1.221039e+003, 1.454178e+002
1.221521e+003, 1.456360e+002
1.222003e+003, 1.462281e+002
1.222485e+003, 1.467750e+002
1.222967e+003, 1.467771e+002
1.223449e+003, 1.465861e+002
1.223932e+003, 1.465724e+002
1.224414e+003, 1.466395e+002
1.224896e+003, 1.466802e+002
1.225378e+003, 1.466892e+002
1.225860e+003, 1.466379e+002
1.226342e+003, 1.465578e+002
1.226824e+003, 1.466361e+002
1.227306e+003, 1.469633e+002
1.227788e+003, 1.473786e+002
1.228271e+003, 1.480086e+002
1.228753e+003, 1.484807e+002
1.229235e+003, 1.485381e+002
1.229717e+003, 1.484678e+002
1.230199e+003, 1.484239e+002
1.230681e+003, 1.484447e+002
1.231163e+003, 1.486226e+002
1.231645e+003, 1.489503e+002
1.232127e+003, 1.490959e+002
1.232610e+003, 1.489424e+002
1.233092e+003, 1.490042e+002
1.233574e+003, 1.494390e+002
1.234056e+003, 1.495371e+002
1.234538e+003, 1.489633e+002
1.235020e+003, 1.486321e+002
1.235502e+003, 1.493085e+002
1.235984e+003, 1.502276e+002
1.236467e+003, 1.499255e+002
1.236949e+003, 1.487893e+002
1.237431e+003, 1.485112e+002
1.237913e+003, 1.489035e+002
1.238395e+003, 1.491702e+002
1.238877e+003, 1.492475e+002
1.239359e+003, 1.493703e+002
1.239841e+003, 1.495691e+002
1.240323e+003, 1.494747e+002
1.240806e+003, 1.487728e+002
1.241288e+003, 1.481026e+002
1.241770e+003, 1.479680e+002
1.242252e+003, 1.482698e+002
1.242734e+003, 1.493169e+002
1.243216e+003, 1.504258e+002
1.243698e+003, 1.507224e+002
1.244180e+003, 1.504151e+002
1.244662e+003, 1.500377e+002
1.245145e+003, 1.497020e+002
1.245627e+003, 1.494522e+002
1.246109e+003, 1.491292e+002
1.246591e+003, 1.492097e+002
1.247073e+003, 1.504362e+002
1.247555e+003, 1.511720e+002
1.248037e+003, 1.503750e+002
1.248519e+003, 1.495231e+002
1.249002e+003, 1.497784e+002
1.249484e+003, 1.505274e+002
1.249966e+003, 1.506169e+002
1.250448e+003, 1.500986e+002
1.250930e+003, 1.498906e+002
1.251412e+003, 1.500238e+002
1.251894e+003, 1.501334e+002
1.252376e+003, 1.501915e+002
1.252859e+003, 1.501761e+002
1.253341e+003, 1.500824e+002
1.253823e+003, 1.502533e+002
1.254305e+003, 1.509612e+002
1.254787e+003, 1.516562e+002
1.255269e+003, 1.513862e+002
1.255751e+003, 1.507307e+002
1.256233e+003, 1.508519e+002
1.256715e+003, 1.513433e+002
1.257198e+003, 1.513791e+002
1.257680e+003, 1.511267e+002
1.258162e+003, 1.512695e+002
1.258644e+003, 1.518535e+002
1.259126e+003, 1.521996e+002
1.259608e+003, 1.519173e+002
1.260090e+003, 1.517751e+002
1.260572e+003, 1.524202e+002
1.261054e+003, 1.529084e+002
1.261537e+003, 1.525724e+002
1.262019e+003, 1.521295e+002
1.262501e+003, 1.521873e+002
1.262983e+003, 1.524701e+002
1.263465e+003, 1.524963e+002
1.263947e+003, 1.523030e+002
1.264429e+003, 1.521817e+002
1.264911e+003, 1.520308e+002
1.265394e+003, 1.524000e+002
1.265876e+003, 1.535202e+002
1.266358e+003, 1.540567e+002
1.266840e+003, 1.536322e+002
1.267322e+003, 1.531438e+002
1.267804e+003, 1.530799e+002
1.268286e+003, 1.532151e+002
1.268768e+003, 1.532891e+002
1.269250e+003, 1.533438e+002
1.269733e+003, 1.534527e+002
1.270215e+003, 1.536271e+002
1.270697e+003, 1.539884e+002
1.271179e+003, 1.544165e+002
1.271661e+003, 1.545785e+002
1.272143e+003, 1.544727e+002
1.272625e+003, 1.543123e+002
1.273107e+003, 1.541785e+002
1.273589e+003, 1.541371e+002
1.274072e+003, 1.543488e+002
1.274554e+003, 1.544944e+002
1.275036e+003, 1.543416e+002
1.275518e+003, 1.541533e+002
1.276000e+003, 1.540408e+002
1.276482e+003, 1.540332e+002
1.276964e+003, 1.541729e+002
1.277446e+003, 1.544577e+002
1.277929e+003, 1.548353e+002
1.278411e+003, 1.553322e+002
1.278893e+003, 1.556409e+002
1.279375e+003, 1.556988e+002
1.279857e+003, 1.558428e+002
1.280339e+003, 1.561589e+002
1.280821e+003, 1.562137e+002
1.281303e+003, 1.558160e+002
1.281786e+003, 1.555827e+002
1.282268e+003, 1.559540e+002
##END=



