##NAMES=Sulvanite
##RRUFFID=R060853
##IDEAL CHEMISTRY=Cu^2+^_3_V^3+^S^2-^_4_
##LOCALITY=Burra Burra, South Australia, Australia
##OWNER=RRUFF
##SOURCE=Michael Scott
##DESCRIPTION=Brassy metallic massive with black tarnished surfaces
##STATUS=The identification of this mineral is confirmed by single-crystal X-ray diffraction and chemical analysis.
##URL=rruff.info/R060853
##MEASURED CHEMISTRY=Cu_3.00_V_1.00_S_4.00_
179.3814, 442443.9
179.8635, 442911.8
180.3457, 443507.9
180.8278, 444267.2
181.3099, 445210.7
181.7920, 446165.5
182.2741, 447013.5
182.7562, 447828.1
183.2384, 448679.4
183.7205, 449566.9
184.2026, 450515.3
184.6847, 451607.1
185.1668, 452876.0
185.6489, 454081.8
186.1311, 455062.2
186.6132, 455935.2
187.0953, 456807.8
187.5774, 457712.7
188.0595, 458623.9
188.5416, 459512.8
189.0238, 460393.0
189.5059, 461209.8
189.9880, 461896.0
190.4701, 462532.3
190.9522, 463186.5
191.4343, 463883.3
191.9165, 464610.5
192.3986, 465344.4
192.8807, 466081.2
193.3628, 466874.1
193.8449, 467847.4
194.3270, 468855.5
194.8092, 469735.7
195.2913, 470413.6
195.7734, 471050.6
196.2555, 471911.0
196.7376, 473069.9
197.2197, 474119.4
197.7019, 474730.8
198.1840, 475245.5
198.6661, 475980.8
199.1482, 477072.6
199.6303, 478242.0
200.1124, 479083.3
200.5946, 479527.6
201.0767, 480018.0
201.5588, 480815.9
202.0409, 481671.6
202.5230, 482404.8
203.0051, 482969.1
203.4873, 483395.5
203.9694, 483706.4
204.4515, 483891.3
204.9336, 483996.8
205.4157, 483942.1
205.8978, 483854.7
206.3800, 483827.8
206.8621, 483877.6
207.3442, 483981.5
207.8263, 484128.2
208.3084, 484320.6
208.7905, 484498.8
209.2727, 484558.4
209.7548, 484652.3
210.2369, 484924.2
210.7190, 485404.2
211.2011, 485941.6
211.6832, 486397.2
212.1654, 486766.7
212.6475, 487098.2
213.1296, 487288.6
213.6117, 487537.8
214.0938, 488022.3
214.5759, 488769.1
215.0581, 489600.3
215.5402, 490366.2
216.0223, 491070.8
216.5044, 491845.6
216.9865, 492895.8
217.4686, 493868.5
217.9508, 494437.8
218.4329, 494596.5
218.9150, 494743.6
219.3971, 495167.4
219.8792, 495856.7
220.3613, 496673.5
220.8435, 497752.3
221.3256, 498783.7
221.8077, 499526.9
222.2898, 499997.0
222.7719, 500377.3
223.2540, 500788.6
223.7362, 501210.5
224.2183, 501527.5
224.7004, 501651.1
225.1825, 501756.1
225.6646, 501985.4
226.1467, 502317.4
226.6289, 502646.8
227.1110, 502887.9
227.5931, 503074.7
228.0752, 503321.1
228.5573, 503648.1
229.0394, 504004.8
229.5216, 504321.7
230.0037, 504620.7
230.4858, 504994.5
230.9679, 505580.4
231.4500, 506251.8
231.9321, 506709.3
232.4143, 506868.2
232.8964, 507010.7
233.3785, 507379.0
233.8606, 507896.7
234.3427, 508394.2
234.8248, 508748.2
235.3070, 509081.6
235.7891, 509612.5
236.2712, 510388.9
236.7533, 511142.6
237.2354, 511640.9
237.7175, 511984.9
238.1997, 512384.4
238.6818, 512953.5
239.1639, 513552.8
239.6460, 514014.9
240.1281, 514337.4
240.6102, 514678.9
241.0924, 515182.6
241.5745, 515760.8
242.0566, 516189.6
242.5387, 516358.0
243.0208, 516483.3
243.5029, 516799.5
243.9851, 517271.9
244.4672, 517584.6
244.9493, 517536.0
245.4314, 517252.4
245.9135, 517058.6
246.3956, 516931.7
246.8778, 516932.7
247.3599, 517170.5
247.8420, 517581.7
248.3241, 517943.4
248.8062, 518154.1
249.2883, 518284.6
249.7705, 518483.0
250.2526, 518754.2
250.7347, 519044.2
251.2168, 519282.8
251.6989, 519523.4
252.1810, 519877.8
252.6632, 520383.9
253.1453, 520977.9
253.6274, 521564.9
254.1095, 522124.5
254.5916, 522714.6
255.0737, 523397.6
255.5559, 524089.8
256.0380, 524678.8
256.5201, 525137.9
257.0022, 525542.9
257.4843, 526006.9
257.9665, 526583.8
258.4486, 526988.3
258.9307, 527033.4
259.4128, 527027.3
259.8949, 527254.7
260.3770, 527735.6
260.8592, 528256.7
261.3413, 528605.6
261.8234, 528745.5
262.3055, 529037.8
262.7876, 529708.4
263.2697, 530323.5
263.7519, 530596.7
264.2340, 530584.3
264.7161, 530543.8
265.1982, 530674.2
265.6803, 530969.8
266.1624, 531132.2
266.6446, 530983.9
267.1267, 530914.8
267.6088, 531126.8
268.0909, 531498.2
268.5730, 531795.3
269.0551, 531881.8
269.5373, 531801.3
270.0194, 531746.9
270.5015, 531654.4
270.9836, 531671.9
271.4657, 531887.6
271.9478, 532194.5
272.4300, 532437.0
272.9121, 532553.3
273.3942, 532657.9
273.8763, 533027.3
274.3584, 533913.9
274.8405, 534620.4
275.3227, 534935.0
275.8048, 535177.7
276.2869, 535573.4
276.7690, 536178.8
277.2511, 536935.5
277.7332, 537801.2
278.2154, 538836.6
278.6975, 539757.7
279.1796, 540398.6
279.6617, 541051.9
280.1438, 541888.9
280.6259, 542896.5
281.1081, 543929.0
281.5902, 544904.8
282.0723, 545829.5
282.5544, 546519.9
283.0365, 546694.8
283.5186, 546942.9
284.0008, 547644.5
284.4829, 548608.8
284.9650, 549389.4
285.4471, 549637.0
285.9292, 549523.1
286.4113, 549674.7
286.8935, 550281.3
287.3756, 550765.0
287.8577, 550851.1
288.3398, 550688.9
288.8219, 550447.3
289.3040, 550149.4
289.7862, 549866.2
290.2683, 549662.9
290.7504, 549534.2
291.2325, 549585.9
291.7146, 549921.7
292.1967, 550449.8
292.6789, 551055.5
293.1610, 551710.7
293.6431, 552497.1
294.1252, 553473.6
294.6073, 554634.4
295.0894, 555949.6
295.5716, 557416.1
296.0537, 559031.6
296.5358, 560777.7
297.0179, 562642.9
297.5000, 564603.1
297.9821, 566673.2
298.4643, 568798.1
298.9464, 570961.4
299.4285, 573179.1
299.9106, 575235.9
300.3927, 577038.4
300.8748, 578567.8
301.3570, 579319.4
301.8391, 579003.1
302.3212, 578047.9
302.8033, 576755.4
303.2854, 575145.3
303.7675, 573131.8
304.2497, 570515.1
304.7318, 567380.4
305.2139, 564878.9
305.6960, 563212.9
306.1781, 561854.1
306.6602, 560666.3
307.1424, 559637.0
307.6245, 558759.4
308.1066, 558037.2
308.5887, 557447.4
309.0708, 556918.9
309.5529, 556562.8
310.0351, 556136.6
310.5172, 555625.3
310.9993, 555043.6
311.4814, 554370.8
311.9635, 553614.9
312.4456, 552862.7
312.9278, 552226.3
313.4099, 551687.8
313.8920, 551345.6
314.3741, 551381.5
314.8562, 551441.8
315.3383, 551312.3
315.8205, 551014.8
316.3026, 550722.1
316.7847, 550596.7
317.2668, 550641.5
317.7489, 550629.4
318.2310, 550419.4
318.7132, 550330.4
319.1953, 550492.5
319.6774, 550832.3
320.1595, 551226.9
320.6416, 551614.4
321.1237, 552003.6
321.6059, 552404.9
322.0880, 552797.6
322.5701, 553242.8
323.0522, 553700.7
323.5343, 554238.4
324.0164, 554975.6
324.4986, 555970.1
324.9807, 556955.6
325.4628, 557637.0
325.9449, 558031.1
326.4270, 558434.9
326.9091, 558956.4
327.3913, 559451.4
327.8734, 559727.8
328.3555, 559790.0
328.8376, 559928.2
329.3197, 560434.5
329.8018, 561056.9
330.2840, 561339.4
330.7661, 561203.3
331.2482, 560917.8
331.7303, 560702.8
332.2124, 560546.0
332.6945, 560293.2
333.1767, 559897.6
333.6588, 559443.8
334.1409, 558937.0
334.6230, 558411.3
335.1051, 557999.5
335.5872, 557807.0
336.0694, 557753.6
336.5515, 557493.3
337.0336, 556779.2
337.5157, 556208.2
337.9978, 556041.1
338.4799, 556012.6
338.9621, 555688.3
339.4442, 554948.8
339.9263, 554194.4
340.4084, 554093.7
340.8905, 555086.8
341.3727, 555678.1
341.8548, 555493.5
342.3369, 555271.8
342.8190, 555489.6
343.3011, 556101.9
343.7832, 556731.7
344.2654, 557039.1
344.7475, 557038.4
345.2296, 557210.9
345.7117, 557658.1
346.1938, 558156.0
346.6759, 558634.6
347.1581, 559118.5
347.6402, 559655.8
348.1223, 560283.9
348.6044, 560930.6
349.0865, 561462.6
349.5686, 561864.9
350.0508, 562227.2
350.5329, 562536.0
351.0150, 562839.3
351.4971, 563204.6
351.9792, 563642.2
352.4613, 564010.3
352.9435, 564162.0
353.4256, 564153.6
353.9077, 564213.9
354.3898, 564425.8
354.8719, 564598.2
355.3540, 564510.4
355.8362, 564221.4
356.3183, 563927.4
356.8004, 563647.7
357.2825, 563403.3
357.7646, 563209.0
358.2467, 563067.9
358.7289, 563014.3
359.2110, 563114.7
359.6931, 563299.0
360.1752, 563256.8
360.6573, 562507.6
361.1394, 562163.0
361.6216, 562744.6
362.1037, 563820.4
362.5858, 564700.4
363.0679, 565177.2
363.5500, 565722.3
364.0321, 567063.6
364.5143, 569526.7
364.9964, 572039.6
365.4785, 574351.1
365.9606, 576921.3
366.4427, 579966.0
366.9248, 583500.8
367.4070, 587483.9
367.8891, 591888.0
368.3712, 596702.9
368.8533, 601692.8
369.3354, 606842.4
369.8175, 612239.3
370.2997, 617955.9
370.7818, 623862.6
371.2639, 629841.4
371.7460, 635879.4
372.2281, 641750.8
372.7102, 647576.6
373.1924, 653453.9
373.6745, 657712.4
374.1566, 660291.8
374.6387, 660642.3
375.1208, 658438.8
375.6029, 653729.4
376.0851, 647477.9
376.5672, 639420.6
377.0493, 630333.8
377.5314, 621402.6
378.0135, 612658.9
378.4956, 604566.2
378.9778, 597402.8
379.4599, 591264.3
379.9420, 585934.0
380.4241, 581639.1
380.9062, 577916.6
381.3883, 574516.3
381.8705, 571539.1
382.3526, 569284.8
382.8347, 567926.3
383.3168, 567073.9
383.7989, 566017.4
384.2810, 564548.0
384.7632, 563269.6
385.2453, 562181.4
385.7274, 561287.8
386.2095, 560697.4
386.6916, 560348.3
387.1737, 559968.8
387.6559, 559262.4
388.1380, 558260.9
388.6201, 557874.6
389.1022, 558717.4
389.5843, 559433.2
390.0664, 559594.6
390.5486, 559491.3
391.0307, 559489.3
391.5128, 559728.3
391.9949, 560084.4
392.4770, 560374.3
392.9591, 560581.8
393.4413, 560862.8
393.9234, 561327.3
394.4055, 561791.1
394.8876, 562094.9
395.3697, 562247.9
395.8518, 562387.1
396.3340, 562591.1
396.8161, 562814.3
397.2982, 562994.8
397.7803, 563128.6
398.2624, 563197.1
398.7445, 563235.8
399.2267, 563178.8
399.7088, 562822.1
400.1909, 561765.3
400.6730, 560887.4
401.1551, 560666.2
401.6372, 560808.9
402.1194, 560844.9
402.6015, 560623.4
403.0836, 560233.8
403.5657, 559806.6
404.0478, 559343.2
404.5299, 558839.1
405.0121, 558240.2
405.4942, 557669.1
405.9763, 557182.2
406.4584, 556784.5
406.9405, 556480.6
407.4226, 556284.4
407.9048, 556175.1
408.3869, 556041.9
408.8690, 555822.6
409.3511, 555723.8
409.8332, 555899.7
410.3153, 556146.9
410.7975, 556275.7
411.2796, 556245.3
411.7617, 556191.4
412.2438, 556145.9
412.7259, 556144.9
413.2080, 556452.3
413.6902, 557182.9
414.1723, 558009.4
414.6544, 558678.0
415.1365, 559219.1
415.6186, 559713.9
416.1007, 560211.4
416.5829, 560632.2
417.0650, 560885.6
417.5471, 561003.1
418.0292, 561125.2
418.5113, 561335.7
418.9934, 561523.4
419.4756, 561437.6
419.9577, 560833.9
420.4398, 560410.7
420.9219, 560377.9
421.4040, 560407.6
421.8861, 560198.2
422.3683, 559775.8
422.8504, 559420.4
423.3325, 559393.4
423.8146, 559659.9
424.2967, 559756.6
424.7788, 559596.6
425.2610, 559378.6
425.7431, 559194.6
426.2252, 558961.9
426.7073, 558536.4
427.1894, 557870.1
427.6715, 557210.2
428.1537, 556885.4
428.6358, 556871.9
429.1179, 556802.1
429.6000, 556646.2
430.0821, 556387.1
430.5642, 555911.1
431.0464, 555292.9
431.5285, 554843.7
432.0106, 554771.9
432.4927, 554808.2
432.9748, 554702.8
433.4569, 554486.1
433.9391, 554330.7
434.4212, 554338.8
434.9033, 554407.4
435.3854, 554277.5
435.8675, 553667.4
436.3496, 553384.4
436.8318, 553786.8
437.3139, 554310.3
437.7960, 554480.9
438.2781, 554300.3
438.7602, 554094.1
439.2423, 554142.3
439.7245, 554414.8
440.2066, 554603.1
440.6887, 554626.6
441.1708, 554681.2
441.6529, 554801.5
442.1350, 554972.3
442.6172, 555208.3
443.0993, 555514.0
443.5814, 555762.6
444.0635, 555753.1
444.5456, 555532.8
445.0277, 555488.4
445.5099, 555734.0
445.9920, 556003.4
446.4741, 556087.9
446.9562, 556015.6
447.4383, 555856.8
447.9204, 555639.4
448.4026, 555325.6
448.8847, 554813.0
449.3668, 554184.7
449.8489, 553705.3
450.3310, 553499.4
450.8131, 553368.2
451.2953, 552945.6
451.7774, 552030.5
452.2595, 551307.9
452.7416, 550919.0
453.2237, 550599.0
453.7059, 550186.1
454.1880, 549708.3
454.6701, 549280.3
455.1522, 548978.4
455.6343, 548773.9
456.1165, 548551.9
456.5986, 548228.9
457.0807, 548091.4
457.5628, 548396.5
458.0449, 548784.6
458.5270, 549002.6
459.0092, 549018.9
459.4913, 548932.8
459.9734, 548689.2
460.4555, 548407.4
460.9376, 548385.2
461.4197, 548659.7
461.9019, 548915.1
462.3840, 548904.3
462.8661, 548720.3
463.3482, 548762.1
463.8303, 549425.1
464.3124, 549789.4
464.7946, 549307.6
465.2767, 548526.2
465.7588, 548135.9
466.2409, 548272.5
466.7230, 548597.6
467.2051, 548759.6
467.6873, 548755.7
468.1694, 548662.9
468.6515, 548376.9
469.1336, 548119.4
469.6157, 548004.2
470.0978, 547925.8
470.5800, 547732.5
471.0621, 547363.8
471.5442, 546913.8
472.0263, 546480.8
472.5084, 546060.0
472.9905, 545618.5
473.4727, 545127.9
473.9548, 544651.4
474.4369, 544287.9
474.9190, 543997.9
475.4011, 543632.1
475.8832, 543035.5
476.3654, 542471.6
476.8475, 542199.9
477.3296, 542104.6
477.8117, 541836.3
478.2938, 541247.0
478.7759, 540588.3
479.2581, 540304.8
479.7402, 540653.1
480.2223, 540704.2
480.7044, 540181.1
481.1865, 539679.4
481.6686, 539491.7
482.1508, 539561.9
482.6329, 539731.1
483.1150, 539936.3
483.5971, 540124.0
484.0792, 540139.9
484.5613, 539936.1
485.0435, 539869.3
485.5256, 540085.4
486.0077, 540404.5
486.4898, 540648.2
486.9719, 540822.7
487.4540, 541039.9
487.9362, 541479.3
488.4183, 541879.4
488.9004, 541872.8
489.3825, 541522.4
489.8646, 541258.6
490.3467, 541317.1
490.8289, 541525.8
491.3110, 541474.0
491.7931, 540929.3
492.2752, 540490.4
492.7573, 540251.8
493.2394, 540036.4
493.7216, 539776.1
494.2037, 539436.9
494.6858, 538946.3
495.1679, 538201.9
495.6500, 537350.3
496.1321, 536920.1
496.6143, 537109.4
497.0964, 537049.9
497.5785, 536219.5
498.0606, 535259.8
498.5427, 534778.8
499.0248, 534795.8
499.5070, 534772.6
499.9891, 534359.0
500.4712, 533821.9
500.9533, 533563.1
501.4354, 533566.4
501.9175, 533479.0
502.3997, 533075.8
502.8818, 532498.1
503.3639, 532147.8
503.8460, 532291.6
504.3281, 532278.1
504.8102, 531975.8
505.2924, 531607.9
505.7745, 531293.4
506.2566, 531066.3
506.7387, 530946.2
507.2208, 530946.9
507.7029, 531066.3
508.1851, 531356.2
508.6672, 531943.5
509.1493, 532283.2
509.6314, 532051.3
510.1135, 531618.4
510.5956, 531262.8
511.0778, 530997.4
511.5599, 530908.6
512.0420, 531233.1
512.5241, 531635.9
513.0062, 531646.4
513.4883, 531292.8
513.9705, 530967.1
514.4526, 530902.8
514.9347, 530973.3
515.4168, 530835.8
515.8989, 530248.9
516.3810, 529817.7
516.8632, 529655.4
517.3453, 529551.9
517.8274, 529371.1
518.3095, 529116.3
518.7916, 528860.2
519.2737, 528669.8
519.7559, 528486.5
520.2380, 528125.7
520.7201, 527540.5
521.2022, 527032.9
521.6843, 526695.8
522.1664, 526464.5
522.6486, 526322.1
523.1307, 526262.9
523.6128, 526045.4
524.0949, 525315.8
524.5770, 524603.4
525.0591, 524520.8
525.5413, 524919.6
526.0234, 525210.8
526.5055, 525121.4
526.9876, 524746.9
527.4697, 524262.0
527.9518, 523574.3
528.4340, 523003.1
528.9161, 522537.5
529.3982, 522189.4
529.8803, 521996.1
530.3624, 521927.3
530.8445, 521932.7
531.3267, 522010.3
531.8088, 522101.6
532.2909, 522094.1
532.7730, 521994.0
533.2551, 521948.3
533.7372, 522013.0
534.2194, 522093.7
534.7015, 522049.4
535.1836, 521893.4
535.6657, 521876.9
536.1478, 522214.8
536.6299, 522492.9
537.1121, 522430.9
537.5942, 522154.8
538.0763, 521919.6
538.5584, 521805.4
539.0405, 521682.4
539.5226, 521363.8
540.0048, 520816.3
540.4869, 520263.1
540.9690, 519636.0
541.4511, 519088.8
541.9332, 518796.1
542.4153, 518572.3
542.8975, 518117.9
543.3796, 517308.8
543.8617, 516494.3
544.3438, 516007.0
544.8259, 515726.5
545.3080, 515320.6
545.7902, 514739.6
546.2723, 514134.7
546.7544, 513622.1
547.2365, 513189.5
547.7186, 512746.7
548.2007, 512319.1
548.6829, 511846.6
549.1650, 511221.8
549.6471, 510608.2
550.1292, 510144.6
550.6113, 509849.9
551.0934, 509672.8
551.5756, 509567.5
552.0577, 509542.7
552.5398, 509692.7
553.0219, 510101.2
553.5040, 510326.0
553.9861, 510090.4
554.4683, 509688.5
554.9504, 509526.4
555.4325, 509634.3
555.9146, 509649.4
556.3967, 509269.0
556.8788, 508901.9
557.3610, 509013.6
557.8431, 509477.5
558.3252, 509800.0
558.8073, 509731.3
559.2894, 509465.3
559.7715, 509419.6
560.2537, 509755.4
560.7358, 509876.4
561.2179, 509600.9
561.7000, 509266.5
562.1821, 508969.4
562.6642, 508713.4
563.1464, 508506.6
563.6285, 508386.3
564.1106, 508219.6
564.5927, 507793.9
565.0748, 507198.2
565.5569, 506818.9
566.0391, 506764.8
566.5212, 506634.9
567.0033, 506034.6
567.4854, 504983.2
567.9675, 504109.0
568.4496, 503548.6
568.9318, 502972.6
569.4139, 502286.9
569.8960, 501577.2
570.3781, 500945.3
570.8602, 500403.9
571.3423, 499876.3
571.8245, 499281.0
572.3066, 498656.7
572.7887, 498153.1
573.2708, 497810.2
573.7529, 497405.2
574.2350, 496833.3
574.7172, 496177.6
575.1993, 495487.1
575.6814, 494718.4
576.1635, 494240.4
576.6456, 494367.9
577.1277, 494611.2
577.6099, 494580.6
578.0920, 494363.6
578.5741, 494253.4
579.0562, 494383.5
579.5383, 494611.0
580.0204, 494680.2
580.5026, 494545.3
580.9847, 494464.0
581.4668, 494471.2
581.9489, 494490.0
582.4310, 494522.2
582.9131, 494528.3
583.3953, 494422.5
583.8774, 494135.0
584.3595, 493866.0
584.8416, 493795.2
585.3237, 493810.7
585.8058, 493688.1
586.2880, 493409.5
586.7701, 493181.7
587.2522, 493188.1
587.7343, 493350.8
588.2164, 493264.5
588.6985, 492717.2
589.1807, 492259.0
589.6628, 492014.4
590.1449, 491803.5
590.6270, 491519.2
591.1091, 491157.7
591.5912, 490751.3
592.0734, 490297.8
592.5555, 489832.0
593.0376, 489417.4
593.5197, 489037.4
594.0018, 488570.3
594.4839, 487954.5
594.9661, 487376.5
595.4482, 487093.7
595.9303, 487150.2
596.4124, 486915.5
596.8945, 485994.9
597.3766, 485288.8
597.8588, 485262.4
598.3409, 485463.9
598.8230, 485376.8
599.3051, 484902.5
599.7872, 484310.7
600.2693, 483787.1
600.7515, 483344.7
601.2336, 483057.4
601.7157, 482954.7
602.1978, 482782.3
602.6799, 482420.9
603.1620, 481959.3
603.6442, 481518.2
604.1263, 481083.3
604.6084, 480744.9
605.0905, 480573.6
605.5726, 480445.1
606.0547, 480308.7
606.5369, 480154.6
607.0190, 479956.8
607.5011, 479706.1
607.9832, 479468.8
608.4653, 479375.7
608.9474, 479416.6
609.4296, 479264.5
609.9117, 478775.1
610.3938, 478427.1
610.8759, 478632.8
611.3580, 479092.5
611.8401, 479187.4
612.3223, 478804.1
612.8044, 478336.5
613.2865, 477798.8
613.7686, 477297.8
614.2507, 476960.8
614.7328, 476755.1
615.2150, 476546.7
615.6971, 476261.0
616.1792, 475959.4
616.6613, 475789.3
617.1434, 475789.7
617.6255, 475685.5
618.1077, 475417.7
618.5898, 475101.3
619.0719, 474774.3
619.5540, 474458.7
620.0361, 474215.9
620.5182, 474110.9
621.0004, 473966.5
621.4825, 473687.5
621.9646, 473326.8
622.4467, 472915.3
622.9288, 472475.8
623.4109, 472085.4
623.8931, 471805.1
624.3752, 471581.3
624.8573, 471243.6
625.3394, 470758.4
625.8215, 470270.5
626.3036, 469741.4
626.7858, 469284.8
627.2679, 469073.3
627.7500, 469002.0
628.2321, 468725.3
628.7142, 467999.8
629.1964, 467283.5
629.6785, 466851.7
630.1606, 466606.8
630.6427, 466459.6
631.1248, 466363.4
631.6069, 466152.3
632.0891, 465655.0
632.5712, 464975.2
633.0533, 464632.2
633.5354, 464815.3
634.0175, 464833.4
634.4996, 464325.1
634.9818, 463826.8
635.4639, 463786.2
635.9460, 464091.7
636.4281, 464242.6
636.9102, 463936.3
637.3923, 463588.4
637.8745, 463539.0
638.3566, 463622.6
638.8387, 463512.7
639.3208, 463158.8
639.8029, 462801.1
640.2850, 462669.4
640.7672, 462712.2
641.2493, 462610.3
641.7314, 462296.1
642.2135, 461988.1
642.6956, 461746.0
643.1777, 461513.4
643.6599, 461307.7
644.1420, 461097.1
644.6241, 460720.0
645.1062, 459871.4
645.5883, 459102.3
646.0704, 458983.7
646.5526, 459163.7
647.0347, 458966.1
647.5168, 458270.9
647.9989, 457471.4
648.4810, 456926.1
648.9631, 456599.7
649.4453, 456245.1
649.9274, 455823.0
650.4095, 455474.6
650.8916, 455208.3
651.3737, 455049.7
651.8558, 455110.2
652.3380, 455329.8
652.8201, 455366.0
653.3022, 454950.1
653.7843, 454487.3
654.2664, 454297.9
654.7485, 454205.3
655.2307, 453855.6
655.7128, 453209.4
656.1949, 452612.4
656.6770, 452403.0
657.1591, 452477.3
657.6412, 452269.3
658.1234, 451655.3
658.6055, 451155.8
659.0876, 450930.3
659.5697, 450810.4
660.0518, 450758.4
660.5339, 450722.3
661.0161, 450387.3
661.4982, 449341.4
661.9803, 448375.7
662.4624, 448046.5
662.9445, 447969.6
663.4266, 447554.0
663.9088, 446762.2
664.3909, 446070.4
664.8730, 445910.4
665.3551, 446096.7
665.8372, 445997.4
666.3193, 445573.3
666.8015, 445103.4
667.2836, 444567.8
667.7657, 444116.9
668.2478, 443946.4
668.7299, 443999.2
669.2120, 443980.7
669.6942, 443758.3
670.1763, 443594.2
670.6584, 443638.4
671.1405, 443741.9
671.6226, 443757.3
672.1047, 443669.4
672.5869, 443537.1
673.0690, 443403.9
673.5511, 443241.3
674.0332, 442961.6
674.5153, 442565.3
674.9974, 442238.1
675.4796, 442017.8
675.9617, 441870.2
676.4438, 441823.9
676.9259, 441838.3
677.4080, 441646.1
677.8901, 441080.3
678.3723, 440560.3
678.8544, 440298.3
679.3365, 439974.3
679.8186, 439213.6
680.3007, 438170.3
680.7828, 437345.0
681.2650, 437034.3
681.7471, 436902.7
682.2292, 436531.7
682.7113, 435969.3
683.1934, 435386.0
683.6755, 434800.1
684.1577, 434288.0
684.6398, 433906.3
685.1219, 433630.8
685.6040, 433387.3
686.0861, 433216.7
686.5682, 433009.7
687.0504, 432816.2
687.5325, 432542.6
688.0146, 432054.7
688.4967, 431476.6
688.9788, 431052.4
689.4609, 430880.8
689.9431, 430741.6
690.4252, 430377.8
690.9073, 429972.2
691.3894, 429878.0
691.8715, 430077.8
692.3536, 430313.9
692.8358, 430466.4
693.3179, 430502.1
693.8000, 430340.7
694.2821, 429930.2
694.7642, 429527.8
695.2463, 429042.4
695.7285, 428691.4
696.2106, 428636.4
696.6927, 428717.3
697.1748, 428772.6
697.6569, 428795.3
698.1390, 428678.3
698.6212, 428255.3
699.1033, 427786.1
699.5854, 427583.7
700.0675, 427491.8
700.5496, 427109.5
701.0317, 426323.2
701.5139, 425454.7
701.9960, 424857.3
702.4781, 424511.4
702.9602, 424282.2
703.4423, 424247.5
703.9244, 423949.3
704.4066, 423118.6
704.8887, 422108.8
705.3708, 421335.9
705.8529, 420812.2
706.3350, 420277.8
706.8171, 419631.1
707.2993, 419083.8
707.7814, 418818.2
708.2635, 418619.5
708.7456, 418259.5
709.2277, 417719.5
709.7098, 417115.8
710.1920, 416473.5
710.6741, 415878.9
711.1562, 415507.8
711.6383, 415316.6
712.1204, 415075.2
712.6025, 414729.1
713.0847, 414403.1
713.5668, 414193.7
714.0489, 414092.5
714.5310, 414070.6
715.0131, 414281.3
715.4952, 414287.5
715.9774, 413910.7
716.4595, 413472.3
716.9416, 413147.9
717.4237, 412892.1
717.9058, 412558.8
718.3879, 412036.8
718.8701, 411646.8
719.3522, 411770.8
719.8343, 412023.6
720.3164, 411835.3
720.7985, 411283.7
721.2806, 410886.1
721.7628, 410907.9
722.2449, 411032.7
722.7270, 410673.0
723.2091, 409804.0
723.6912, 409191.6
724.1733, 408942.8
724.6555, 408678.6
725.1376, 408216.1
725.6197, 407657.8
726.1018, 407161.7
726.5839, 406736.2
727.0660, 406335.8
727.5482, 406057.8
728.0303, 405702.8
728.5124, 405109.3
728.9945, 404436.3
729.4766, 403900.6
729.9587, 403530.3
730.4409, 403139.6
730.9230, 402523.6
731.4051, 401855.3
731.8872, 401470.4
732.3693, 401300.5
732.8514, 401009.6
733.3336, 400505.4
733.8157, 399979.4
734.2978, 399598.2
734.7799, 399346.9
735.2620, 399150.8
735.7441, 399110.6
736.2263, 398896.6
736.7084, 398285.4
737.1905, 397657.2
737.6726, 397275.5
738.1547, 397048.5
738.6368, 396702.2
739.1190, 396052.2
739.6011, 395585.9
740.0832, 395723.1
740.5653, 395995.5
741.0474, 395907.6
741.5295, 395537.4
742.0117, 395229.3
742.4938, 395139.9
742.9759, 395124.7
743.4580, 395061.5
743.9401, 394919.0
744.4222, 394399.3
744.9044, 393436.4
745.3865, 392723.6
745.8686, 392603.4
746.3507, 392769.6
746.8328, 392788.2
747.3149, 392634.1
747.7971, 392478.3
748.2792, 392416.8
748.7613, 392228.6
749.2434, 391736.2
749.7255, 391188.5
750.2076, 390848.8
750.6898, 390700.4
751.1719, 390482.1
751.6540, 390041.6
752.1361, 389536.3
752.6182, 389008.6
753.1003, 388535.8
753.5825, 388375.3
754.0646, 388468.7
754.5467, 388292.0
755.0288, 387445.7
755.5109, 386295.8
755.9930, 385686.9
756.4752, 385640.0
756.9573, 385522.6
757.4394, 385313.0
757.9215, 384900.7
758.4036, 384125.6
758.8857, 383181.1
759.3679, 382514.5
759.8500, 382270.2
760.3321, 381952.7
760.8142, 381493.2
761.2963, 381040.0
761.7784, 380649.4
762.2606, 380294.7
762.7427, 379911.4
763.2248, 379495.0
763.7069, 379164.7
764.1890, 379056.0
764.6711, 379003.4
765.1533, 378849.0
765.6354, 378604.8
766.1175, 378265.2
766.5996, 377848.7
767.0817, 377499.4
767.5638, 377363.5
768.0460, 377348.5
768.5281, 377129.0
769.0102, 376672.6
769.4923, 376346.7
769.9744, 376281.9
770.4565, 376168.9
770.9387, 375767.4
771.4208, 375173.8
771.9029, 374685.8
772.3850, 374320.9
772.8671, 374034.6
773.3492, 374022.5
773.8314, 373883.6
774.3135, 373273.3
774.7956, 372479.3
775.2777, 371972.8
775.7598, 371853.8
776.2419, 371686.5
776.7241, 371056.2
777.2062, 370363.9
777.6883, 370119.1
778.1704, 370153.5
778.6525, 370046.3
779.1346, 369695.7
779.6168, 369258.2
780.0989, 368862.2
780.5810, 368507.7
781.0631, 368208.0
781.5452, 367965.0
782.0273, 367714.4
782.5095, 367433.5
782.9916, 367180.1
783.4737, 367017.3
783.9558, 366900.9
784.4379, 366680.2
784.9200, 366248.0
785.4022, 365898.7
785.8843, 365690.8
786.3664, 365488.8
786.8485, 365243.7
787.3306, 364956.1
787.8127, 364619.5
788.2949, 364230.9
788.7770, 363845.2
789.2591, 363535.6
789.7412, 363202.2
790.2233, 362744.7
790.7054, 362211.2
791.1876, 361698.5
791.6697, 361223.9
792.1518, 360724.7
792.6339, 360133.4
793.1160, 359522.2
793.5981, 359091.6
794.0803, 358824.4
794.5624, 358451.6
795.0445, 357913.3
795.5266, 357449.7
796.0087, 357248.6
796.4908, 357194.0
796.9730, 356965.7
797.4551, 356463.3
797.9372, 356061.9
798.4193, 355850.3
798.9014, 355619.1
799.3835, 355253.9
799.8657, 354846.8
800.3478, 354490.4
800.8299, 354191.6
801.3120, 353967.0
801.7941, 353899.9
802.2762, 353819.5
802.7584, 353662.1
803.2405, 353428.2
803.7226, 353064.2
804.2047, 352614.0
804.6868, 352255.4
805.1689, 352117.0
805.6511, 352048.5
806.1332, 351827.6
806.6153, 351535.0
807.0974, 351431.3
807.5795, 351514.7
808.0616, 351518.5
808.5438, 351304.5
809.0259, 350937.0
809.5080, 350491.1
809.9901, 349955.7
810.4722, 349552.1
810.9543, 349314.2
811.4365, 349085.1
811.9186, 348790.9
812.4007, 348515.4
812.8828, 348400.0
813.3649, 348440.3
813.8470, 348261.6
814.3292, 347751.5
814.8113, 347186.7
815.2934, 346483.1
815.7755, 345854.1
816.2576, 345541.0
816.7397, 345407.1
817.2219, 345071.6
817.7040, 344349.7
818.1861, 343759.2
818.6682, 343868.8
819.1503, 344047.7
819.6324, 343574.2
820.1146, 342656.2
820.5967, 341803.8
821.0788, 341187.7
821.5609, 340682.5
822.0430, 340166.5
822.5251, 339682.9
823.0073, 339343.5
823.4894, 339139.1
823.9716, 339072.9
824.4537, 339155.8
824.9358, 339129.3
825.4179, 338762.8
825.9000, 338198.8
826.3821, 337922.4
826.8643, 338060.3
827.3464, 337982.5
827.8285, 337547.5
828.3106, 337106.2
828.7927, 336788.7
829.2748, 336578.5
829.7570, 336493.0
830.2391, 336562.8
830.7212, 336477.8
831.2033, 335997.8
831.6854, 335635.3
832.1675, 335682.2
832.6497, 335819.2
833.1318, 335715.7
833.6139, 335413.3
834.0960, 335206.6
834.5781, 335270.0
835.0602, 335309.8
835.5424, 335062.7
836.0245, 334722.4
836.5066, 334597.2
836.9887, 334589.4
837.4708, 334335.8
837.9529, 333706.1
838.4351, 332999.9
838.9172, 332565.1
839.3993, 332304.8
839.8814, 331930.1
840.3635, 331462.5
840.8456, 331060.2
841.3278, 330770.6
841.8099, 330453.8
842.2920, 329971.9
842.7741, 329396.6
843.2562, 328993.9
843.7383, 328827.0
844.2205, 328558.8
844.7026, 328140.4
845.1847, 327666.5
845.6668, 327148.3
846.1489, 326617.5
846.6310, 326101.1
847.1132, 325553.2
847.5953, 325230.1
848.0774, 325401.6
848.5595, 325436.7
849.0416, 325110.3
849.5237, 324621.4
850.0059, 324081.7
850.4880, 323533.7
850.9701, 323082.3
851.4522, 322822.1
851.9343, 322534.5
852.4164, 322012.0
852.8986, 321500.7
853.3807, 321348.4
853.8628, 321380.4
854.3449, 321143.6
854.8270, 320512.0
855.3091, 319877.4
855.7913, 319630.2
856.2734, 319576.4
856.7555, 319433.1
857.2376, 319216.3
857.7197, 318942.6
858.2018, 318630.2
858.6840, 318421.6
859.1661, 318440.2
859.6482, 318548.5
860.1303, 318418.9
860.6124, 318058.6
861.0945, 317796.2
861.5767, 317667.7
862.0588, 317516.4
862.5409, 317277.4
863.0230, 316961.6
863.5051, 316562.4
863.9872, 316077.3
864.4694, 315709.8
864.9515, 315555.9
865.4336, 315320.2
865.9157, 314852.1
866.3978, 314401.1
866.8799, 314238.6
867.3621, 314231.2
867.8442, 313996.9
868.3263, 313444.6
868.8084, 312858.2
869.2905, 312243.0
869.7726, 311635.5
870.2548, 311031.5
870.7369, 310464.9
871.2190, 309966.4
871.7011, 309544.1
872.1832, 309214.8
872.6653, 309096.0
873.1475, 308939.3
873.6296, 308551.4
874.1117, 308068.8
874.5938, 307610.0
875.0759, 307202.6
875.5580, 306885.7
876.0402, 306678.5
876.5223, 306454.6
877.0044, 306026.6
877.4865, 305528.3
877.9686, 305230.2
878.4507, 305067.6
878.9329, 304762.6
879.4150, 304266.8
879.8971, 303871.4
880.3792, 303855.9
880.8613, 304010.9
881.3434, 303803.1
881.8256, 303270.8
882.3077, 302829.9
882.7898, 302526.3
883.2719, 302317.4
883.7540, 302208.6
884.2361, 302092.8
884.7183, 301786.1
885.2004, 301290.6
885.6825, 300937.9
886.1646, 300811.8
886.6467, 300567.2
887.1288, 300055.2
887.6110, 299530.5
888.0931, 299169.6
888.5752, 298955.2
889.0573, 298843.6
889.5394, 298977.8
890.0215, 298899.1
890.5037, 298366.9
890.9858, 297912.2
891.4679, 297799.5
891.9500, 297797.1
892.4321, 297658.4
892.9142, 297377.4
893.3964, 297091.3
893.8785, 296794.2
894.3606, 296542.2
894.8427, 296502.3
895.3248, 296380.8
895.8069, 295779.7
896.2891, 294967.4
896.7712, 294565.3
897.2533, 294761.1
897.7354, 294849.7
898.2175, 294297.5
898.6996, 293601.4
899.1818, 293097.2
899.6639, 292764.1
900.1460, 292627.7
900.6281, 292620.6
901.1102, 292505.4
901.5923, 292136.3
902.0745, 291674.4
902.5566, 291319.1
903.0387, 290988.5
903.5208, 290434.4
904.0029, 289750.7
904.4850, 289346.1
904.9672, 289337.3
905.4493, 289417.6
905.9314, 289329.6
906.4135, 289077.9
906.8956, 288572.5
907.3777, 287875.3
907.8599, 287488.6
908.3420, 287472.3
908.8241, 287371.3
909.3062, 286926.6
909.7883, 286366.5
910.2704, 286074.8
910.7526, 286034.0
911.2347, 285812.6
911.7168, 285375.3
912.1989, 284964.5
912.6810, 284628.2
913.1631, 284365.9
913.6453, 284212.8
914.1274, 284098.8
914.6095, 283769.2
915.0916, 283066.5
915.5737, 282672.7
916.0558, 282799.1
916.5380, 282835.8
917.0201, 282529.3
917.5022, 282080.7
917.9843, 281670.5
918.4664, 281303.1
918.9485, 281061.1
919.4307, 281121.3
919.9128, 281041.3
920.3949, 280652.1
920.8770, 280277.6
921.3591, 280127.0
921.8412, 280068.5
922.3234, 279898.7
922.8055, 279595.5
923.2876, 279279.4
923.7697, 278854.1
924.2518, 278575.9
924.7339, 278734.2
925.2161, 278898.2
925.6982, 278591.0
926.1803, 278009.6
926.6624, 277750.4
927.1445, 278054.7
927.6266, 278162.0
928.1088, 277529.7
928.5909, 276796.0
929.0730, 276346.8
929.5551, 276096.2
930.0372, 276000.6
930.5193, 275972.2
931.0015, 275743.7
931.4836, 275110.2
931.9657, 274492.2
932.4478, 274322.0
932.9299, 274263.0
933.4120, 273883.2
933.8942, 273304.8
934.3763, 272873.3
934.8584, 272653.8
935.3405, 272409.0
935.8226, 271963.9
936.3047, 271421.9
936.7869, 270864.0
937.2690, 270328.0
937.7511, 269924.7
938.2332, 269617.3
938.7153, 269195.3
939.1974, 268584.0
939.6796, 268012.9
940.1617, 267764.6
940.6438, 267692.0
941.1259, 267424.9
941.6080, 267037.6
942.0901, 266864.8
942.5723, 266933.0
943.0544, 266972.6
943.5365, 266832.2
944.0186, 266596.1
944.5007, 266374.5
944.9828, 266168.9
945.4650, 266032.8
945.9471, 265956.6
946.4292, 265717.3
946.9113, 265252.7
947.3934, 264904.4
947.8755, 264947.2
948.3577, 265205.3
948.8398, 265281.7
949.3219, 265174.1
949.8040, 265044.8
950.2861, 264897.3
950.7682, 264719.9
951.2504, 264509.3
951.7325, 264250.6
952.2146, 263900.9
952.6967, 263517.6
953.1788, 263377.3
953.6609, 263560.5
954.1431, 263520.6
954.6252, 263209.0
955.1073, 262712.3
955.5894, 261961.3
956.0715, 261258.2
956.5536, 261014.6
957.0358, 261170.1
957.5179, 261034.1
958.0000, 260507.4
958.4821, 259975.0
958.9642, 259428.1
959.4464, 258981.0
959.9285, 258751.9
960.4106, 258594.7
960.8927, 258268.0
961.3748, 257758.1
961.8569, 257420.2
962.3391, 257442.2
962.8212, 257271.5
963.3033, 256656.4
963.7854, 256069.2
964.2675, 255831.4
964.7496, 255777.0
965.2318, 255589.8
965.7139, 255240.4
966.1960, 254900.7
966.6781, 254506.0
967.1602, 254207.1
967.6423, 254188.1
968.1245, 254119.9
968.6066, 253686.0
969.0887, 253061.3
969.5708, 252678.0
970.0529, 252628.8
970.5350, 252539.9
971.0172, 252372.1
971.4993, 252184.7
971.9814, 251967.4
972.4635, 251762.9
972.9456, 251646.7
973.4277, 251570.2
973.9099, 251361.4
974.3920, 250912.8
974.8741, 250593.3
975.3562, 250552.4
975.8383, 250532.1
976.3204, 250487.1
976.8026, 250369.2
977.2847, 250058.1
977.7668, 249625.9
978.2489, 249385.8
978.7310, 249552.8
979.2131, 249511.1
979.6953, 248797.8
980.1774, 248208.5
980.6595, 248347.1
981.1416, 248682.3
981.6237, 248613.0
982.1058, 248142.4
982.5880, 247607.0
983.0701, 247005.5
983.5522, 246522.4
984.0343, 246295.6
984.5164, 246115.0
984.9985, 245880.7
985.4807, 245602.8
985.9628, 245312.6
986.4449, 245007.1
986.9270, 244647.7
987.4091, 244171.5
987.8912, 243727.5
988.3734, 243374.8
988.8555, 243069.7
989.3376, 242843.4
989.8197, 242610.3
990.3018, 242220.1
990.7839, 241678.2
991.2661, 241192.6
991.7482, 240862.0
992.2303, 240564.2
992.7124, 240287.0
993.1945, 239986.4
993.6766, 239523.3
994.1588, 239066.3
994.6409, 238965.3
995.1230, 239220.1
995.6051, 239299.1
996.0872, 238796.3
996.5693, 238353.5
997.0515, 238356.8
997.5336, 238444.8
998.0157, 238336.0
998.4978, 238092.0
998.9799, 237799.7
999.4620, 237496.0
999.9442, 237359.2
1000.426, 237672.6
1000.908, 237884.4
1001.391, 237621.0
1001.873, 237246.0
1002.355, 237084.2
1002.837, 237025.9
1003.319, 236811.0
1003.801, 236404.7
1004.283, 236055.3
1004.765, 235921.2
1005.247, 235804.6
1005.730, 235622.2
1006.212, 235409.3
1006.694, 235180.3
1007.176, 234951.6
1007.658, 234754.6
1008.140, 234593.7
1008.622, 234409.0
1009.104, 234222.1
1009.586, 233947.5
1010.069, 233437.5
1010.551, 232921.1
1011.033, 232634.9
1011.515, 232466.9
1011.997, 232181.3
1012.479, 231740.9
1012.961, 231334.7
1013.443, 230963.5
1013.926, 230738.3
1014.408, 230939.9
1014.890, 231086.0
1015.372, 230662.1
1015.854, 229949.7
1016.336, 229506.8
1016.818, 229414.4
1017.300, 229211.4
1017.782, 228552.9
1018.265, 227990.1
1018.747, 227864.9
1019.229, 227795.0
1019.711, 227472.3
1020.193, 227013.0
1020.675, 226624.7
1021.157, 226342.0
1021.639, 226126.1
1022.122, 226122.3
1022.604, 225969.8
1023.086, 225342.0
1023.568, 224739.5
1024.050, 224568.0
1024.532, 224625.7
1025.014, 224602.1
1025.496, 224456.6
1025.978, 224232.9
1026.461, 223770.1
1026.943, 223478.7
1027.425, 223630.6
1027.907, 223806.8
1028.389, 223733.9
1028.871, 223536.3
1029.353, 223426.0
1029.835, 223408.5
1030.318, 223282.2
1030.800, 222940.5
1031.282, 222590.1
1031.764, 222164.0
1032.246, 221851.7
1032.728, 221847.0
1033.210, 221952.1
1033.692, 221927.8
1034.174, 221768.5
1034.656, 221574.2
1035.139, 221427.0
1035.621, 221137.4
1036.103, 220543.9
1036.585, 219985.7
1037.067, 219584.8
1037.549, 219312.4
1038.031, 219195.5
1038.513, 219204.6
1038.996, 219058.8
1039.478, 218609.4
1039.960, 218258.8
1040.442, 218043.5
1040.924, 217874.1
1041.406, 217821.3
1041.888, 217694.6
1042.370, 217230.6
1042.853, 216522.2
1043.335, 216067.0
1043.817, 216023.0
1044.299, 215834.1
1044.781, 215422.8
1045.263, 215013.8
1045.745, 214646.5
1046.227, 214355.0
1046.709, 214195.5
1047.192, 214121.9
1047.674, 213981.2
1048.156, 213777.3
1048.638, 213504.9
1049.120, 213165.8
1049.602, 212737.8
1050.084, 212135.2
1050.566, 211662.5
1051.048, 211593.7
1051.531, 211749.9
1052.013, 211703.3
1052.495, 211434.4
1052.977, 211235.9
1053.459, 211115.0
1053.941, 211003.8
1054.423, 210890.3
1054.905, 210756.5
1055.388, 210587.3
1055.870, 210394.9
1056.352, 210192.2
1056.834, 209982.9
1057.316, 209830.9
1057.798, 209734.0
1058.280, 209566.3
1058.762, 209306.5
1059.245, 209015.4
1059.727, 208721.8
1060.209, 208440.4
1060.691, 208195.6
1061.173, 207976.2
1061.655, 207745.0
1062.137, 207503.3
1062.619, 207281.8
1063.101, 207068.7
1063.583, 206712.3
1064.066, 206154.1
1064.548, 205605.3
1065.030, 205278.7
1065.512, 205082.1
1065.994, 204847.5
1066.476, 204601.6
1066.958, 204403.8
1067.440, 204259.4
1067.923, 204190.5
1068.405, 204186.3
1068.887, 204122.6
1069.369, 203877.4
1069.851, 203612.2
1070.333, 203573.0
1070.815, 203592.6
1071.297, 203420.1
1071.780, 203108.9
1072.262, 202791.3
1072.744, 202500.0
1073.226, 202225.6
1073.708, 201968.3
1074.190, 201712.2
1074.672, 201409.4
1075.154, 201138.9
1075.636, 201024.1
1076.119, 200949.0
1076.601, 200764.1
1077.083, 200461.8
1077.565, 200059.3
1078.047, 199517.3
1078.529, 199151.9
1079.011, 199346.4
1079.493, 199449.0
1079.976, 199013.3
1080.458, 198433.3
1080.940, 198029.6
1081.422, 197783.5
1081.904, 197613.9
1082.386, 197522.5
1082.868, 197358.0
1083.350, 197064.5
1083.833, 196741.5
1084.315, 196336.5
1084.797, 195993.6
1085.279, 195838.8
1085.761, 195772.3
1086.243, 195630.7
1086.725, 195418.6
1087.207, 195294.9
1087.689, 195378.5
1088.172, 195290.2
1088.654, 194853.7
1089.136, 194547.2
1089.618, 194607.5
1090.100, 194775.5
1090.582, 194799.0
1091.064, 194703.4
1091.546, 194584.9
1092.028, 194425.0
1092.511, 194355.1
1092.993, 194407.7
1093.475, 194357.0
1093.957, 194132.0
1094.439, 193845.8
1094.921, 193568.1
1095.403, 193327.7
1095.885, 193214.8
1096.368, 193199.4
1096.850, 193030.5
1097.332, 192723.5
1097.814, 192432.5
1098.296, 192182.2
1098.778, 191958.1
1099.260, 191754.3
1099.742, 191481.7
1100.224, 190984.6
1100.707, 190414.2
1101.189, 190120.1
1101.671, 189973.7
1102.153, 189688.9
1102.635, 189265.9
1103.117, 188804.1
1103.599, 188338.8
1104.081, 187883.9
1104.563, 187423.2
1105.046, 187046.2
1105.528, 186914.9
1106.010, 186847.4
1106.492, 186644.4
1106.974, 186361.7
1107.456, 186079.2
1107.938, 185828.4
1108.420, 185654.9
1108.903, 185584.3
1109.385, 185545.5
1109.867, 185590.8
1110.349, 185550.0
1110.831, 185217.1
1111.313, 184856.1
1111.795, 184759.0
1112.277, 184808.7
1112.760, 184669.7
1113.242, 184260.5
1113.724, 184063.0
1114.206, 184398.1
1114.688, 184528.2
1115.170, 184199.5
1115.652, 183878.0
1116.134, 183822.2
1116.616, 183846.6
1117.099, 183727.0
1117.581, 183480.3
1118.063, 183199.9
1118.545, 182861.4
1119.027, 182600.6
1119.509, 182424.5
1119.991, 182356.5
1120.473, 182443.8
1120.955, 182417.5
1121.438, 182036.2
1121.920, 181490.2
1122.402, 181160.6
1122.884, 181027.1
1123.366, 181026.4
1123.848, 181118.0
1124.330, 180969.2
1124.812, 180559.9
1125.295, 180229.4
1125.777, 180135.5
1126.259, 180040.5
1126.741, 179653.4
1127.223, 179179.1
1127.705, 178970.4
1128.187, 178872.2
1128.669, 178614.3
1129.151, 178232.1
1129.634, 177860.1
1130.116, 177534.4
1130.598, 177226.4
1131.080, 176937.8
1131.562, 176622.6
1132.044, 176161.3
1132.526, 175767.8
1133.008, 175704.8
1133.490, 175712.3
1133.973, 175472.1
1134.455, 175042.0
1134.937, 174660.1
1135.419, 174356.9
1135.901, 174137.3
1136.383, 174119.0
1136.865, 174010.1
1137.347, 173655.1
1137.830, 173306.5
1138.312, 173061.8
1138.794, 172918.9
1139.276, 172911.2
1139.758, 173008.5
1140.240, 172948.0
1140.722, 172690.2
1141.204, 172457.3
1141.687, 172258.3
1142.169, 172099.3
1142.651, 171991.7
1143.133, 171843.7
1143.615, 171570.0
1144.097, 171276.8
1144.579, 171195.1
1145.061, 171257.8
1145.543, 171140.0
1146.026, 170894.9
1146.508, 170765.5
1146.990, 170755.9
1147.472, 170711.3
1147.954, 170565.8
1148.436, 170299.0
1148.918, 169797.8
1149.400, 169340.2
1149.882, 169305.2
1150.365, 169410.1
1150.847, 169353.5
1151.329, 169173.5
1151.811, 168939.7
1152.293, 168692.2
1152.775, 168532.3
1153.257, 168546.1
1153.739, 168445.2
1154.222, 167974.4
1154.704, 167581.7
1155.186, 167548.9
1155.668, 167552.4
1156.150, 167315.7
1156.632, 166957.0
1157.114, 166693.3
1157.596, 166521.7
1158.078, 166388.5
1158.561, 166327.2
1159.043, 166187.9
1159.525, 165934.0
1160.007, 165689.9
1160.489, 165504.0
1160.971, 165317.7
1161.453, 165084.5
1161.935, 164809.6
1162.417, 164485.1
1162.900, 164125.8
1163.382, 163782.5
1163.864, 163473.1
1164.346, 163340.7
1164.828, 163353.6
1165.310, 163174.8
1165.792, 162679.3
1166.274, 162243.2
1166.757, 162258.6
1167.239, 162348.1
1167.721, 162032.7
1168.203, 161625.3
1168.685, 161529.4
1169.167, 161582.1
1169.649, 161477.0
1170.131, 161208.2
1170.614, 160962.9
1171.096, 160790.1
1171.578, 160654.0
1172.060, 160622.4
1172.542, 160519.5
1173.024, 160179.3
1173.506, 159872.1
1173.988, 159799.9
1174.470, 159841.6
1174.953, 159853.0
1175.435, 159826.3
1175.917, 159648.5
1176.399, 159250.2
1176.881, 159077.3
1177.363, 159192.8
1177.845, 159206.3
1178.327, 159002.9
1178.809, 158726.8
1179.292, 158473.5
1179.774, 158250.4
1180.256, 158082.3
1180.738, 157947.4
1181.220, 157795.2
1181.702, 157628.4
1182.184, 157451.1
1182.666, 157265.1
1183.149, 157074.5
1183.631, 156880.5
1184.113, 156671.3
1184.595, 156428.7
1185.077, 156202.8
1185.559, 156094.8
1186.041, 155937.3
1186.523, 155538.5
1187.005, 155093.0
1187.488, 154786.1
1187.970, 154604.5
1188.452, 154492.8
1188.934, 154458.9
1189.416, 154362.4
1189.898, 154178.4
1190.380, 153975.2
1190.862, 153756.5
1191.344, 153523.8
1191.827, 153286.6
1192.309, 152994.1
1192.791, 152576.9
1193.273, 152135.3
1193.755, 151926.0
1194.237, 151915.0
1194.719, 151891.6
1195.201, 151846.3
1195.684, 151711.6
1196.166, 151498.1
1196.648, 151309.5
1197.130, 151181.6
1197.612, 151028.6
1198.094, 150751.5
1198.576, 150498.9
1199.058, 150433.2
1199.541, 150423.5
1200.023, 150358.0
1200.505, 150261.7
1200.987, 150171.1
1201.469, 150087.9
1201.951, 150013.4
1202.433, 149958.5
1202.915, 149833.2
1203.397, 149555.4
1203.880, 149325.3
1204.362, 149177.1
1204.844, 149063.1
1205.326, 149006.2
1205.808, 148880.5
1206.290, 148529.3
1206.772, 148078.0
1207.254, 147879.9
1207.736, 147905.7
1208.219, 147801.1
1208.701, 147584.5
1209.183, 147367.9
1209.665, 147173.6
1210.147, 147026.2
1210.629, 146927.9
1211.111, 146802.8
1211.593, 146573.9
1212.076, 146333.6
1212.558, 146145.5
1213.040, 146009.1
1213.522, 146003.3
1214.004, 145990.3
1214.486, 145699.7
1214.968, 145266.7
1215.450, 145163.4
1215.932, 145525.0
1216.415, 145629.5
1216.897, 145270.6
1217.379, 144906.3
1217.861, 144538.0
1218.343, 144246.2
1218.825, 144094.5
1219.307, 143924.3
1219.789, 143570.1
1220.271, 143169.6
1220.754, 143034.8
1221.236, 143114.6
1221.718, 143157.1
1222.200, 143149.4
1222.682, 143014.2
1223.164, 142769.0
1223.646, 142516.8
1224.128, 142290.2
1224.611, 142060.1
1225.093, 141787.5
1225.575, 141573.2
1226.057, 141588.7
1226.539, 141572.2
1227.021, 141264.4
1227.503, 140901.9
1227.985, 140762.1
1228.468, 140734.9
1228.950, 140531.0
1229.432, 140141.8
1229.914, 139899.3
1230.396, 139898.7
1230.878, 139752.3
1231.360, 139390.3
1231.842, 139132.1
1232.324, 139077.8
1232.807, 139030.7
1233.289, 138859.3
1233.771, 138679.0
1234.253, 138675.5
1234.735, 138745.6
1235.217, 138680.2
1235.699, 138508.6
1236.181, 138200.8
1236.663, 137872.3
1237.146, 137846.7
1237.628, 138077.3
1238.110, 138084.8
1238.592, 137649.0
1239.074, 137279.9
1239.556, 137170.5
1240.038, 137162.3
1240.520, 137371.1
1241.003, 137460.2
1241.485, 137163.8
1241.967, 136773.2
1242.449, 136598.1
1242.931, 136575.9
1243.413, 136520.8
1243.895, 136434.7
1244.377, 136198.0
1244.859, 135826.8
1245.342, 135585.1
1245.824, 135496.9
1246.306, 135434.5
1246.788, 135341.5
1247.270, 135146.6
1247.752, 134757.9
1248.234, 134374.3
1248.716, 134224.6
1249.198, 134118.3
1249.681, 133861.9
1250.163, 133578.3
1250.645, 133430.1
1251.127, 133357.5
1251.609, 133233.8
1252.091, 133043.2
1252.573, 132710.6
1253.055, 132067.2
1253.538, 131757.3
1254.020, 131908.8
1254.502, 131959.9
1254.984, 131767.6
1255.466, 131478.5
1255.948, 131165.2
1256.430, 130923.0
1256.912, 130905.1
1257.395, 130961.3
1257.877, 130751.4
1258.359, 130443.8
1258.841, 130383.4
1259.323, 130445.0
1259.805, 130344.7
1260.287, 130087.5
1260.769, 129821.4
1261.251, 129575.6
1261.734, 129475.7
1262.216, 129736.5
1262.698, 129861.0
1263.180, 129695.5
1263.662, 129477.0
1264.144, 129240.4
1264.626, 129063.4
1265.108, 129022.9
1265.590, 129049.7
1266.073, 129022.2
##END=



