##NAMES=Sussexite
##RRUFFID=R130121
##IDEAL CHEMISTRY=Mn^2+^BO_2_(OH)
##LOCALITY=Mine Hill, Franklin, Sussex County, New Jersey, USA
##OWNER=RRUFF
##SOURCE=Rock Currier
##DESCRIPTION=Pink massive
##STATUS=The identification of this mineral has been confirmed by X-ray diffraction.
##URL=rruff.info/R130121
8.936163e+001, 0.000000e+000
8.984375e+001, 8.182198e+002
9.032587e+001, 8.260121e+002
9.080798e+001, 8.274291e+002
9.129010e+001, 8.196827e+002
9.177222e+001, 8.088059e+002
9.225433e+001, 8.027735e+002
9.273645e+001, 8.011221e+002
9.321857e+001, 7.991205e+002
9.370068e+001, 7.928923e+002
9.418280e+001, 7.831297e+002
9.466492e+001, 7.719287e+002
9.514703e+001, 7.581779e+002
9.562915e+001, 7.438046e+002
9.611127e+001, 7.347361e+002
9.659338e+001, 7.317475e+002
9.707550e+001, 7.304835e+002
9.755762e+001, 7.252512e+002
9.803973e+001, 7.159390e+002
9.852185e+001, 7.072670e+002
9.900397e+001, 7.013945e+002
9.948608e+001, 6.983689e+002
9.996820e+001, 6.955377e+002
1.004503e+002, 6.937039e+002
1.009324e+002, 6.910712e+002
1.014146e+002, 6.828961e+002
1.018967e+002, 6.670084e+002
1.023788e+002, 6.515707e+002
1.028609e+002, 6.409178e+002
1.033430e+002, 6.364634e+002
1.038251e+002, 6.326770e+002
1.043073e+002, 6.297270e+002
1.047894e+002, 6.272646e+002
1.052715e+002, 6.234988e+002
1.057536e+002, 6.182067e+002
1.062357e+002, 6.118257e+002
1.067178e+002, 6.043348e+002
1.072000e+002, 5.935540e+002
1.076821e+002, 5.849704e+002
1.081642e+002, 5.804042e+002
1.086463e+002, 5.803078e+002
1.091284e+002, 5.779386e+002
1.096105e+002, 5.728055e+002
1.100927e+002, 5.655888e+002
1.105748e+002, 5.569841e+002
1.110569e+002, 5.432688e+002
1.115390e+002, 5.316770e+002
1.120211e+002, 5.246331e+002
1.125032e+002, 5.237070e+002
1.129854e+002, 5.217938e+002
1.134675e+002, 5.173770e+002
1.139496e+002, 5.115396e+002
1.144317e+002, 5.057783e+002
1.149138e+002, 4.990055e+002
1.153959e+002, 4.934938e+002
1.158781e+002, 4.908557e+002
1.163602e+002, 4.934414e+002
1.168423e+002, 4.943912e+002
1.173244e+002, 4.902117e+002
1.178065e+002, 4.824387e+002
1.182886e+002, 4.749801e+002
1.187708e+002, 4.688941e+002
1.192529e+002, 4.640606e+002
1.197350e+002, 4.605728e+002
1.202171e+002, 4.593647e+002
1.206992e+002, 4.583916e+002
1.211813e+002, 4.565647e+002
1.216635e+002, 4.539213e+002
1.221456e+002, 4.506868e+002
1.226277e+002, 4.468112e+002
1.231098e+002, 4.424713e+002
1.235919e+002, 4.379013e+002
1.240740e+002, 4.332467e+002
1.245562e+002, 4.283387e+002
1.250383e+002, 4.226557e+002
1.255204e+002, 4.161800e+002
1.260025e+002, 4.102945e+002
1.264846e+002, 4.063127e+002
1.269667e+002, 4.038671e+002
1.274489e+002, 4.020385e+002
1.279310e+002, 4.011041e+002
1.284131e+002, 4.004104e+002
1.288952e+002, 3.987191e+002
1.293773e+002, 3.959650e+002
1.298594e+002, 3.923154e+002
1.303416e+002, 3.869433e+002
1.308237e+002, 3.802665e+002
1.313058e+002, 3.749726e+002
1.317879e+002, 3.737275e+002
1.322700e+002, 3.755149e+002
1.327521e+002, 3.750359e+002
1.332343e+002, 3.712447e+002
1.337164e+002, 3.661783e+002
1.341985e+002, 3.636702e+002
1.346806e+002, 3.638847e+002
1.351627e+002, 3.644857e+002
1.356448e+002, 3.646870e+002
1.361270e+002, 3.645293e+002
1.366091e+002, 3.615246e+002
1.370912e+002, 3.543190e+002
1.375733e+002, 3.445801e+002
1.380554e+002, 3.375211e+002
1.385375e+002, 3.335602e+002
1.390197e+002, 3.310321e+002
1.395018e+002, 3.285904e+002
1.399839e+002, 3.260754e+002
1.404660e+002, 3.246000e+002
1.409481e+002, 3.251039e+002
1.414302e+002, 3.272438e+002
1.419124e+002, 3.262154e+002
1.423945e+002, 3.206290e+002
1.428766e+002, 3.138173e+002
1.433587e+002, 3.090995e+002
1.438408e+002, 3.073842e+002
1.443229e+002, 3.060064e+002
1.448051e+002, 3.045157e+002
1.452872e+002, 3.028926e+002
1.457693e+002, 3.011203e+002
1.462514e+002, 2.988994e+002
1.467335e+002, 2.966924e+002
1.472156e+002, 2.951182e+002
1.476978e+002, 2.951158e+002
1.481799e+002, 2.946056e+002
1.486620e+002, 2.929401e+002
1.491441e+002, 2.896160e+002
1.496262e+002, 2.865218e+002
1.501083e+002, 2.834145e+002
1.505905e+002, 2.806153e+002
1.510726e+002, 2.786919e+002
1.515547e+002, 2.787171e+002
1.520368e+002, 2.787085e+002
1.525189e+002, 2.781914e+002
1.530010e+002, 2.777332e+002
1.534832e+002, 2.757285e+002
1.539653e+002, 2.702804e+002
1.544474e+002, 2.631097e+002
1.549295e+002, 2.583488e+002
1.554116e+002, 2.589494e+002
1.558937e+002, 2.602996e+002
1.563759e+002, 2.602956e+002
1.568580e+002, 2.575082e+002
1.573401e+002, 2.548882e+002
1.578222e+002, 2.527446e+002
1.583043e+002, 2.511371e+002
1.587864e+002, 2.502852e+002
1.592686e+002, 2.508665e+002
1.597507e+002, 2.518621e+002
1.602328e+002, 2.526322e+002
1.607149e+002, 2.537239e+002
1.611970e+002, 2.538678e+002
1.616791e+002, 2.521872e+002
1.621613e+002, 2.489560e+002
1.626434e+002, 2.458153e+002
1.631255e+002, 2.428935e+002
1.636076e+002, 2.406095e+002
1.640897e+002, 2.393367e+002
1.645718e+002, 2.405788e+002
1.650540e+002, 2.417170e+002
1.655361e+002, 2.414382e+002
1.660182e+002, 2.397565e+002
1.665003e+002, 2.374848e+002
1.669824e+002, 2.348568e+002
1.674645e+002, 2.319195e+002
1.679467e+002, 2.287709e+002
1.684288e+002, 2.245388e+002
1.689109e+002, 2.206973e+002
1.693930e+002, 2.184380e+002
1.698751e+002, 2.178352e+002
1.703572e+002, 2.178177e+002
1.708394e+002, 2.181785e+002
1.713215e+002, 2.185736e+002
1.718036e+002, 2.184222e+002
1.722857e+002, 2.173927e+002
1.727678e+002, 2.157393e+002
1.732499e+002, 2.133209e+002
1.737321e+002, 2.099346e+002
1.742142e+002, 2.071579e+002
1.746963e+002, 2.068669e+002
1.751784e+002, 2.082189e+002
1.756605e+002, 2.092217e+002
1.761426e+002, 2.082326e+002
1.766248e+002, 2.064996e+002
1.771069e+002, 2.059935e+002
1.775890e+002, 2.071768e+002
1.780711e+002, 2.083365e+002
1.785532e+002, 2.070597e+002
1.790353e+002, 2.040020e+002
1.795175e+002, 2.015629e+002
1.799996e+002, 2.015370e+002
1.804817e+002, 2.029771e+002
1.809638e+002, 2.039719e+002
1.814459e+002, 2.041521e+002
1.819280e+002, 2.042539e+002
1.824102e+002, 2.055735e+002
1.828923e+002, 2.078811e+002
1.833744e+002, 2.098791e+002
1.838565e+002, 2.103352e+002
1.843386e+002, 2.097904e+002
1.848207e+002, 2.098519e+002
1.853029e+002, 2.108958e+002
1.857850e+002, 2.123347e+002
1.862671e+002, 2.131540e+002
1.867492e+002, 2.133799e+002
1.872313e+002, 2.136486e+002
1.877134e+002, 2.143593e+002
1.881956e+002, 2.154820e+002
1.886777e+002, 2.169954e+002
1.891598e+002, 2.192650e+002
1.896419e+002, 2.215088e+002
1.901240e+002, 2.217320e+002
1.906061e+002, 2.198500e+002
1.910883e+002, 2.177384e+002
1.915704e+002, 2.169622e+002
1.920525e+002, 2.173632e+002
1.925346e+002, 2.173206e+002
1.930167e+002, 2.162028e+002
1.934988e+002, 2.145482e+002
1.939810e+002, 2.138291e+002
1.944631e+002, 2.140100e+002
1.949452e+002, 2.147245e+002
1.954273e+002, 2.149336e+002
1.959094e+002, 2.146511e+002
1.963915e+002, 2.140430e+002
1.968737e+002, 2.129068e+002
1.973558e+002, 2.115654e+002
1.978379e+002, 2.113961e+002
1.983200e+002, 2.126329e+002
1.988021e+002, 2.139534e+002
1.992842e+002, 2.141404e+002
1.997664e+002, 2.131686e+002
2.002485e+002, 2.120155e+002
2.007306e+002, 2.107390e+002
2.012127e+002, 2.094370e+002
2.016948e+002, 2.088132e+002
2.021769e+002, 2.091177e+002
2.026591e+002, 2.093322e+002
2.031412e+002, 2.082146e+002
2.036233e+002, 2.055051e+002
2.041054e+002, 2.034382e+002
2.045875e+002, 2.025732e+002
2.050696e+002, 2.027976e+002
2.055518e+002, 2.033193e+002
2.060339e+002, 2.043184e+002
2.065160e+002, 2.052083e+002
2.069981e+002, 2.052753e+002
2.074802e+002, 2.043336e+002
2.079623e+002, 2.034666e+002
2.084445e+002, 2.030302e+002
2.089266e+002, 2.029847e+002
2.094087e+002, 2.023456e+002
2.098908e+002, 2.008674e+002
2.103729e+002, 1.992354e+002
2.108550e+002, 1.983321e+002
2.113372e+002, 1.984937e+002
2.118193e+002, 1.982140e+002
2.123014e+002, 1.970246e+002
2.127835e+002, 1.949378e+002
2.132656e+002, 1.929417e+002
2.137477e+002, 1.910119e+002
2.142299e+002, 1.891927e+002
2.147120e+002, 1.875704e+002
2.151941e+002, 1.861631e+002
2.156762e+002, 1.848421e+002
2.161583e+002, 1.835032e+002
2.166404e+002, 1.821333e+002
2.171226e+002, 1.811911e+002
2.176047e+002, 1.808723e+002
2.180868e+002, 1.807429e+002
2.185689e+002, 1.802929e+002
2.190510e+002, 1.794873e+002
2.195331e+002, 1.784139e+002
2.200153e+002, 1.768706e+002
2.204974e+002, 1.747223e+002
2.209795e+002, 1.736855e+002
2.214616e+002, 1.743875e+002
2.219437e+002, 1.755340e+002
2.224258e+002, 1.754402e+002
2.229080e+002, 1.735523e+002
2.233901e+002, 1.716082e+002
2.238722e+002, 1.699849e+002
2.243543e+002, 1.686220e+002
2.248364e+002, 1.679798e+002
2.253185e+002, 1.685222e+002
2.258007e+002, 1.693527e+002
2.262828e+002, 1.692334e+002
2.267649e+002, 1.675098e+002
2.272470e+002, 1.661222e+002
2.277291e+002, 1.656872e+002
2.282112e+002, 1.663387e+002
2.286934e+002, 1.668793e+002
2.291755e+002, 1.675402e+002
2.296576e+002, 1.678931e+002
2.301397e+002, 1.673014e+002
2.306218e+002, 1.652742e+002
2.311039e+002, 1.631841e+002
2.315861e+002, 1.613504e+002
2.320682e+002, 1.597406e+002
2.325503e+002, 1.584758e+002
2.330324e+002, 1.577576e+002
2.335145e+002, 1.572243e+002
2.339966e+002, 1.563406e+002
2.344788e+002, 1.546747e+002
2.349609e+002, 1.534619e+002
2.354430e+002, 1.532075e+002
2.359251e+002, 1.541425e+002
2.364072e+002, 1.543708e+002
2.368893e+002, 1.535219e+002
2.373715e+002, 1.522715e+002
2.378536e+002, 1.514689e+002
2.383357e+002, 1.513266e+002
2.388178e+002, 1.512397e+002
2.392999e+002, 1.510639e+002
2.397820e+002, 1.507899e+002
2.402642e+002, 1.504880e+002
2.407463e+002, 1.501212e+002
2.412284e+002, 1.497515e+002
2.417105e+002, 1.494781e+002
2.421926e+002, 1.494309e+002
2.426747e+002, 1.492325e+002
2.431569e+002, 1.487241e+002
2.436390e+002, 1.478364e+002
2.441211e+002, 1.471871e+002
2.446032e+002, 1.468218e+002
2.450853e+002, 1.466455e+002
2.455674e+002, 1.465978e+002
2.460496e+002, 1.468956e+002
2.465317e+002, 1.469221e+002
2.470138e+002, 1.465027e+002
2.474959e+002, 1.456023e+002
2.479780e+002, 1.446237e+002
2.484601e+002, 1.434064e+002
2.489423e+002, 1.422643e+002
2.494244e+002, 1.415407e+002
2.499065e+002, 1.413070e+002
2.503886e+002, 1.413784e+002
2.508707e+002, 1.419075e+002
2.513528e+002, 1.429423e+002
2.518350e+002, 1.431948e+002
2.523171e+002, 1.421367e+002
2.527992e+002, 1.408685e+002
2.532813e+002, 1.406369e+002
2.537634e+002, 1.421297e+002
2.542455e+002, 1.431505e+002
2.547277e+002, 1.431100e+002
2.552098e+002, 1.419824e+002
2.556919e+002, 1.412025e+002
2.561740e+002, 1.408810e+002
2.566561e+002, 1.407622e+002
2.571382e+002, 1.405195e+002
2.576204e+002, 1.398207e+002
2.581025e+002, 1.398399e+002
2.585846e+002, 1.411043e+002
2.590667e+002, 1.435244e+002
2.595488e+002, 1.449714e+002
2.600309e+002, 1.450144e+002
2.605131e+002, 1.446779e+002
2.609952e+002, 1.449326e+002
2.614773e+002, 1.461467e+002
2.619594e+002, 1.469055e+002
2.624415e+002, 1.468112e+002
2.629236e+002, 1.459767e+002
2.634058e+002, 1.455760e+002
2.638879e+002, 1.457294e+002
2.643700e+002, 1.461087e+002
2.648521e+002, 1.464729e+002
2.653342e+002, 1.468058e+002
2.658163e+002, 1.471945e+002
2.662985e+002, 1.477565e+002
2.667806e+002, 1.483943e+002
2.672627e+002, 1.484681e+002
2.677448e+002, 1.477498e+002
2.682269e+002, 1.469416e+002
2.687090e+002, 1.466433e+002
2.691912e+002, 1.470490e+002
2.696733e+002, 1.470752e+002
2.701554e+002, 1.464431e+002
2.706375e+002, 1.453669e+002
2.711196e+002, 1.447105e+002
2.716017e+002, 1.445026e+002
2.720839e+002, 1.446291e+002
2.725660e+002, 1.452212e+002
2.730481e+002, 1.464561e+002
2.735302e+002, 1.469319e+002
2.740123e+002, 1.462383e+002
2.744944e+002, 1.448839e+002
2.749766e+002, 1.444455e+002
2.754587e+002, 1.451335e+002
2.759408e+002, 1.459220e+002
2.764229e+002, 1.462043e+002
2.769050e+002, 1.459589e+002
2.773871e+002, 1.454709e+002
2.778693e+002, 1.446232e+002
2.783514e+002, 1.437016e+002
2.788335e+002, 1.434405e+002
2.793156e+002, 1.439447e+002
2.797977e+002, 1.444766e+002
2.802798e+002, 1.446083e+002
2.807620e+002, 1.443363e+002
2.812441e+002, 1.440555e+002
2.817262e+002, 1.437180e+002
2.822083e+002, 1.434937e+002
2.826904e+002, 1.438569e+002
2.831725e+002, 1.448637e+002
2.836547e+002, 1.456364e+002
2.841368e+002, 1.453801e+002
2.846189e+002, 1.442515e+002
2.851010e+002, 1.443618e+002
2.855831e+002, 1.460681e+002
2.860652e+002, 1.481359e+002
2.865474e+002, 1.486584e+002
2.870295e+002, 1.476640e+002
2.875116e+002, 1.465097e+002
2.879937e+002, 1.458360e+002
2.884758e+002, 1.455245e+002
2.889579e+002, 1.448488e+002
2.894401e+002, 1.437344e+002
2.899222e+002, 1.426115e+002
2.904043e+002, 1.420970e+002
2.908864e+002, 1.421163e+002
2.913685e+002, 1.420737e+002
2.918506e+002, 1.418399e+002
2.923328e+002, 1.413659e+002
2.928149e+002, 1.403713e+002
2.932970e+002, 1.388100e+002
2.937791e+002, 1.372361e+002
2.942612e+002, 1.364146e+002
2.947433e+002, 1.361322e+002
2.952255e+002, 1.355335e+002
2.957076e+002, 1.341790e+002
2.961897e+002, 1.324259e+002
2.966718e+002, 1.309943e+002
2.971539e+002, 1.298831e+002
2.976360e+002, 1.288616e+002
2.981182e+002, 1.277628e+002
2.986003e+002, 1.266117e+002
2.990824e+002, 1.254539e+002
2.995645e+002, 1.243470e+002
3.000466e+002, 1.231850e+002
3.005287e+002, 1.216792e+002
3.010109e+002, 1.198982e+002
3.014930e+002, 1.182752e+002
3.019751e+002, 1.172647e+002
3.024572e+002, 1.166096e+002
3.029393e+002, 1.158600e+002
3.034214e+002, 1.147918e+002
3.039036e+002, 1.138196e+002
3.043857e+002, 1.135871e+002
3.048678e+002, 1.138962e+002
3.053499e+002, 1.140131e+002
3.058320e+002, 1.133464e+002
3.063141e+002, 1.122913e+002
3.067963e+002, 1.112976e+002
3.072784e+002, 1.103998e+002
3.077605e+002, 1.096545e+002
3.082426e+002, 1.092138e+002
3.087247e+002, 1.089678e+002
3.092068e+002, 1.086537e+002
3.096890e+002, 1.079864e+002
3.101711e+002, 1.072753e+002
3.106532e+002, 1.068301e+002
3.111353e+002, 1.067306e+002
3.116174e+002, 1.066483e+002
3.120995e+002, 1.065448e+002
3.125817e+002, 1.062970e+002
3.130638e+002, 1.057092e+002
3.135459e+002, 1.040943e+002
3.140280e+002, 1.025625e+002
3.145101e+002, 1.019493e+002
3.149922e+002, 1.023697e+002
3.154744e+002, 1.027041e+002
3.159565e+002, 1.021246e+002
3.164386e+002, 1.012719e+002
3.169207e+002, 1.008815e+002
3.174028e+002, 1.017598e+002
3.178849e+002, 1.026145e+002
3.183671e+002, 1.029012e+002
3.188492e+002, 1.026330e+002
3.193313e+002, 1.022643e+002
3.198134e+002, 1.018162e+002
3.202955e+002, 1.013951e+002
3.207776e+002, 1.010901e+002
3.212598e+002, 1.012180e+002
3.217419e+002, 1.011415e+002
3.222240e+002, 1.005624e+002
3.227061e+002, 9.958907e+001
3.231882e+002, 9.879683e+001
3.236703e+002, 9.836343e+001
3.241525e+002, 9.809028e+001
3.246346e+002, 9.787545e+001
3.251167e+002, 9.772411e+001
3.255988e+002, 9.760426e+001
3.260809e+002, 9.755686e+001
3.265630e+002, 9.754391e+001
3.270452e+002, 9.746010e+001
3.275273e+002, 9.718699e+001
3.280094e+002, 9.694189e+001
3.284915e+002, 9.680823e+001
3.289736e+002, 9.685263e+001
3.294557e+002, 9.686722e+001
3.299379e+002, 9.689809e+001
3.304200e+002, 9.688379e+001
3.309021e+002, 9.672116e+001
3.313842e+002, 9.630608e+001
3.318663e+002, 9.587702e+001
3.323484e+002, 9.549373e+001
3.328306e+002, 9.517117e+001
3.333127e+002, 9.481400e+001
3.337948e+002, 9.429143e+001
3.342769e+002, 9.384956e+001
3.347590e+002, 9.379567e+001
3.352411e+002, 9.430476e+001
3.357233e+002, 9.481060e+001
3.362054e+002, 9.519053e+001
3.366875e+002, 9.545800e+001
3.371696e+002, 9.577695e+001
3.376517e+002, 9.618169e+001
3.381339e+002, 9.657483e+001
3.386160e+002, 9.689482e+001
3.390981e+002, 9.716292e+001
3.395802e+002, 9.724084e+001
3.400623e+002, 9.702348e+001
3.405444e+002, 9.663962e+001
3.410266e+002, 9.653772e+001
3.415087e+002, 9.674207e+001
3.419908e+002, 9.709205e+001
3.424729e+002, 9.757407e+001
3.429550e+002, 9.818114e+001
3.434371e+002, 9.855887e+001
3.439193e+002, 9.862637e+001
3.444014e+002, 9.854308e+001
3.448835e+002, 9.859468e+001
3.453656e+002, 9.878024e+001
3.458477e+002, 9.896519e+001
3.463298e+002, 9.903092e+001
3.468120e+002, 9.903008e+001
3.472941e+002, 9.925583e+001
3.477762e+002, 9.976754e+001
3.482583e+002, 1.002388e+002
3.487404e+002, 1.001333e+002
3.492225e+002, 9.960162e+001
3.497047e+002, 9.928840e+001
3.501868e+002, 9.963494e+001
3.506689e+002, 1.002661e+002
3.511510e+002, 1.004657e+002
3.516331e+002, 1.002402e+002
3.521152e+002, 9.999671e+001
3.525974e+002, 1.000737e+002
3.530795e+002, 1.003716e+002
3.535616e+002, 1.007045e+002
3.540437e+002, 1.010008e+002
3.545258e+002, 1.013354e+002
3.550079e+002, 1.020229e+002
3.554901e+002, 1.029114e+002
3.559722e+002, 1.033390e+002
3.564543e+002, 1.024144e+002
3.569364e+002, 1.010519e+002
3.574185e+002, 1.002383e+002
3.579006e+002, 1.003400e+002
3.583828e+002, 1.004935e+002
3.588649e+002, 1.001614e+002
3.593470e+002, 9.948931e+001
3.598291e+002, 9.877168e+001
3.603112e+002, 9.787093e+001
3.607933e+002, 9.716264e+001
3.612755e+002, 9.694138e+001
3.617576e+002, 9.729903e+001
3.622397e+002, 9.765247e+001
3.627218e+002, 9.788258e+001
3.632039e+002, 9.795427e+001
3.636860e+002, 9.782858e+001
3.641682e+002, 9.720092e+001
3.646503e+002, 9.665749e+001
3.651324e+002, 9.651616e+001
3.656145e+002, 9.675230e+001
3.660966e+002, 9.670960e+001
3.665787e+002, 9.588735e+001
3.670609e+002, 9.499911e+001
3.675430e+002, 9.450225e+001
3.680251e+002, 9.530166e+001
3.685072e+002, 9.546169e+001
3.689893e+002, 9.436884e+001
3.694714e+002, 9.247123e+001
3.699536e+002, 9.126938e+001
3.704357e+002, 9.122261e+001
3.709178e+002, 9.138770e+001
3.713999e+002, 9.139036e+001
3.718820e+002, 9.110923e+001
3.723641e+002, 9.099754e+001
3.728463e+002, 9.119934e+001
3.733284e+002, 9.147629e+001
3.738105e+002, 9.143502e+001
3.742926e+002, 9.093623e+001
3.747747e+002, 9.042674e+001
3.752568e+002, 9.002125e+001
3.757390e+002, 8.971861e+001
3.762211e+002, 8.946484e+001
3.767032e+002, 8.927087e+001
3.771853e+002, 8.909501e+001
3.776674e+002, 8.885191e+001
3.781495e+002, 8.851498e+001
3.786317e+002, 8.836378e+001
3.791138e+002, 8.852382e+001
3.795959e+002, 8.885971e+001
3.800780e+002, 8.900449e+001
3.805601e+002, 8.896265e+001
3.810422e+002, 8.866655e+001
3.815244e+002, 8.777080e+001
3.820065e+002, 8.646538e+001
3.824886e+002, 8.599118e+001
3.829707e+002, 8.666321e+001
3.834528e+002, 8.762440e+001
3.839349e+002, 8.753913e+001
3.844171e+002, 8.658594e+001
3.848992e+002, 8.574673e+001
3.853813e+002, 8.554065e+001
3.858634e+002, 8.573692e+001
3.863455e+002, 8.604299e+001
3.868276e+002, 8.646016e+001
3.873098e+002, 8.670647e+001
3.877919e+002, 8.644209e+001
3.882740e+002, 8.584827e+001
3.887561e+002, 8.523694e+001
3.892382e+002, 8.447939e+001
3.897203e+002, 8.396337e+001
3.902025e+002, 8.434709e+001
3.906846e+002, 8.539990e+001
3.911667e+002, 8.604051e+001
3.916488e+002, 8.514207e+001
3.921309e+002, 8.384866e+001
3.926130e+002, 8.315757e+001
3.930952e+002, 8.350864e+001
3.935773e+002, 8.394975e+001
3.940594e+002, 8.414232e+001
3.945415e+002, 8.414543e+001
3.950236e+002, 8.406841e+001
3.955057e+002, 8.368919e+001
3.959879e+002, 8.346140e+001
3.964700e+002, 8.368806e+001
3.969521e+002, 8.450484e+001
3.974342e+002, 8.501601e+001
3.979163e+002, 8.487669e+001
3.983984e+002, 8.447124e+001
3.988806e+002, 8.415032e+001
3.993627e+002, 8.396153e+001
3.998448e+002, 8.383241e+001
4.003269e+002, 8.380461e+001
4.008090e+002, 8.385314e+001
4.012911e+002, 8.378026e+001
4.017733e+002, 8.343918e+001
4.022554e+002, 8.314869e+001
4.027375e+002, 8.308731e+001
4.032196e+002, 8.335522e+001
4.037017e+002, 8.360571e+001
4.041838e+002, 8.383508e+001
4.046660e+002, 8.404393e+001
4.051481e+002, 8.427360e+001
4.056302e+002, 8.459485e+001
4.061123e+002, 8.466743e+001
4.065944e+002, 8.418098e+001
4.070765e+002, 8.318979e+001
4.075587e+002, 8.301978e+001
4.080408e+002, 8.382895e+001
4.085229e+002, 8.484576e+001
4.090050e+002, 8.527236e+001
4.094871e+002, 8.513917e+001
4.099692e+002, 8.492623e+001
4.104514e+002, 8.470756e+001
4.109335e+002, 8.450078e+001
4.114156e+002, 8.438177e+001
4.118977e+002, 8.433914e+001
4.123798e+002, 8.423082e+001
4.128619e+002, 8.373196e+001
4.133441e+002, 8.314518e+001
4.138262e+002, 8.320828e+001
4.143083e+002, 8.414278e+001
4.147904e+002, 8.503647e+001
4.152725e+002, 8.481815e+001
4.157546e+002, 8.390945e+001
4.162368e+002, 8.317820e+001
4.167189e+002, 8.321962e+001
4.172010e+002, 8.345425e+001
4.176831e+002, 8.340904e+001
4.181652e+002, 8.309211e+001
4.186473e+002, 8.278803e+001
4.191295e+002, 8.278426e+001
4.196116e+002, 8.279755e+001
4.200937e+002, 8.256512e+001
4.205758e+002, 8.184402e+001
4.210579e+002, 8.112801e+001
4.215400e+002, 8.035865e+001
4.220222e+002, 7.969883e+001
4.225043e+002, 7.952843e+001
4.229864e+002, 8.068635e+001
4.234685e+002, 8.169885e+001
4.239506e+002, 8.187459e+001
4.244327e+002, 8.077065e+001
4.249149e+002, 8.020187e+001
4.253970e+002, 8.060180e+001
4.258791e+002, 8.135685e+001
4.263612e+002, 8.187943e+001
4.268433e+002, 8.212349e+001
4.273254e+002, 8.219013e+001
4.278076e+002, 8.202341e+001
4.282897e+002, 8.166596e+001
4.287718e+002, 8.146825e+001
4.292539e+002, 8.154746e+001
4.297360e+002, 8.155067e+001
4.302181e+002, 8.117460e+001
4.307003e+002, 8.031052e+001
4.311824e+002, 7.982772e+001
4.316645e+002, 7.985941e+001
4.321466e+002, 8.011755e+001
4.326287e+002, 8.006143e+001
4.331108e+002, 7.968321e+001
4.335930e+002, 7.946612e+001
4.340751e+002, 7.970464e+001
4.345572e+002, 8.023281e+001
4.350393e+002, 8.046609e+001
4.355214e+002, 8.039861e+001
4.360035e+002, 8.028571e+001
4.364857e+002, 8.032951e+001
4.369678e+002, 8.050171e+001
4.374499e+002, 8.076359e+001
4.379320e+002, 8.117577e+001
4.384141e+002, 8.153385e+001
4.388962e+002, 8.154103e+001
4.393784e+002, 8.129549e+001
4.398605e+002, 8.108647e+001
4.403426e+002, 8.113845e+001
4.408247e+002, 8.124821e+001
4.413068e+002, 8.118655e+001
4.417889e+002, 8.090953e+001
4.422711e+002, 8.078259e+001
4.427532e+002, 8.126588e+001
4.432353e+002, 8.188121e+001
4.437174e+002, 8.213184e+001
4.441995e+002, 8.123938e+001
4.446816e+002, 8.063686e+001
4.451638e+002, 8.082888e+001
4.456459e+002, 8.167956e+001
4.461280e+002, 8.255386e+001
4.466101e+002, 8.377319e+001
4.470922e+002, 8.465543e+001
4.475743e+002, 8.483871e+001
4.480565e+002, 8.399090e+001
4.485386e+002, 8.327286e+001
4.490207e+002, 8.261035e+001
4.495028e+002, 8.212904e+001
4.499849e+002, 8.206277e+001
4.504670e+002, 8.269036e+001
4.509492e+002, 8.308678e+001
4.514313e+002, 8.293172e+001
4.519134e+002, 8.234327e+001
4.523955e+002, 8.223929e+001
4.528776e+002, 8.273500e+001
4.533597e+002, 8.332298e+001
4.538419e+002, 8.365597e+001
4.543240e+002, 8.373757e+001
4.548061e+002, 8.380944e+001
4.552882e+002, 8.389371e+001
4.557703e+002, 8.396592e+001
4.562524e+002, 8.399132e+001
4.567346e+002, 8.397081e+001
4.572167e+002, 8.391142e+001
4.576988e+002, 8.380804e+001
4.581809e+002, 8.366987e+001
4.586630e+002, 8.347583e+001
4.591451e+002, 8.323360e+001
4.596273e+002, 8.305010e+001
4.601094e+002, 8.299365e+001
4.605915e+002, 8.305079e+001
4.610736e+002, 8.321057e+001
4.615557e+002, 8.349072e+001
4.620378e+002, 8.383196e+001
4.625200e+002, 8.416248e+001
4.630021e+002, 8.453093e+001
4.634842e+002, 8.502554e+001
4.639663e+002, 8.594726e+001
4.644484e+002, 8.677739e+001
4.649305e+002, 8.718940e+001
4.654127e+002, 8.714446e+001
4.658948e+002, 8.717383e+001
4.663769e+002, 8.734743e+001
4.668590e+002, 8.765608e+001
4.673411e+002, 8.809400e+001
4.678232e+002, 8.888758e+001
4.683054e+002, 8.951183e+001
4.687875e+002, 8.977354e+001
4.692696e+002, 8.988026e+001
4.697517e+002, 9.038449e+001
4.702338e+002, 9.150593e+001
4.707159e+002, 9.261324e+001
4.711981e+002, 9.349710e+001
4.716802e+002, 9.415258e+001
4.721623e+002, 9.466489e+001
4.726444e+002, 9.496960e+001
4.731265e+002, 9.528785e+001
4.736086e+002, 9.588229e+001
4.740908e+002, 9.674670e+001
4.745729e+002, 9.750411e+001
4.750550e+002, 9.804626e+001
4.755371e+002, 9.850963e+001
4.760192e+002, 9.919611e+001
4.765013e+002, 1.000746e+002
4.769835e+002, 1.008807e+002
4.774656e+002, 1.013424e+002
4.779477e+002, 1.016882e+002
4.784298e+002, 1.022555e+002
4.789119e+002, 1.030582e+002
4.793940e+002, 1.041021e+002
4.798762e+002, 1.057904e+002
4.803583e+002, 1.075979e+002
4.808404e+002, 1.088091e+002
4.813225e+002, 1.088649e+002
4.818046e+002, 1.087820e+002
4.822867e+002, 1.091830e+002
4.827689e+002, 1.098590e+002
4.832510e+002, 1.102698e+002
4.837331e+002, 1.100333e+002
4.842152e+002, 1.096732e+002
4.846973e+002, 1.095168e+002
4.851794e+002, 1.097252e+002
4.856616e+002, 1.094240e+002
4.861437e+002, 1.081334e+002
4.866258e+002, 1.065491e+002
4.871079e+002, 1.051785e+002
4.875900e+002, 1.040825e+002
4.880721e+002, 1.030676e+002
4.885543e+002, 1.020271e+002
4.890364e+002, 1.010808e+002
4.895185e+002, 1.007422e+002
4.900006e+002, 1.013123e+002
4.904827e+002, 1.015271e+002
4.909648e+002, 1.006397e+002
4.914470e+002, 9.872108e+001
4.919291e+002, 9.732883e+001
4.924112e+002, 9.652137e+001
4.928933e+002, 9.600019e+001
4.933754e+002, 9.551224e+001
4.938575e+002, 9.506149e+001
4.943397e+002, 9.467234e+001
4.948218e+002, 9.435764e+001
4.953039e+002, 9.410337e+001
4.957860e+002, 9.383305e+001
4.962681e+002, 9.359657e+001
4.967502e+002, 9.356225e+001
4.972324e+002, 9.411827e+001
4.977145e+002, 9.473083e+001
4.981966e+002, 9.479634e+001
4.986787e+002, 9.428246e+001
4.991608e+002, 9.387590e+001
4.996429e+002, 9.406747e+001
5.001251e+002, 9.445844e+001
5.006072e+002, 9.469309e+001
5.010893e+002, 9.450920e+001
5.015714e+002, 9.440878e+001
5.020535e+002, 9.462820e+001
5.025356e+002, 9.500066e+001
5.030178e+002, 9.514536e+001
5.034999e+002, 9.463287e+001
5.039820e+002, 9.433348e+001
5.044641e+002, 9.455542e+001
5.049462e+002, 9.532796e+001
5.054283e+002, 9.587181e+001
5.059105e+002, 9.619671e+001
5.063926e+002, 9.627402e+001
5.068747e+002, 9.600094e+001
5.073568e+002, 9.530447e+001
5.078389e+002, 9.477376e+001
5.083210e+002, 9.448343e+001
5.088032e+002, 9.435817e+001
5.092853e+002, 9.437599e+001
5.097674e+002, 9.451607e+001
5.102495e+002, 9.443091e+001
5.107316e+002, 9.381773e+001
5.112137e+002, 9.294932e+001
5.116959e+002, 9.253744e+001
5.121780e+002, 9.253661e+001
5.126601e+002, 9.232029e+001
5.131422e+002, 9.110273e+001
5.136243e+002, 8.952915e+001
5.141064e+002, 8.846294e+001
5.145886e+002, 8.815364e+001
5.150707e+002, 8.799352e+001
5.155528e+002, 8.767260e+001
5.160349e+002, 8.724916e+001
5.165170e+002, 8.680244e+001
5.169991e+002, 8.646260e+001
5.174813e+002, 8.600046e+001
5.179634e+002, 8.531808e+001
5.184455e+002, 8.443291e+001
5.189276e+002, 8.348770e+001
5.194097e+002, 8.223117e+001
5.198918e+002, 8.116419e+001
5.203740e+002, 8.052018e+001
5.208561e+002, 8.040482e+001
5.213382e+002, 8.037472e+001
5.218203e+002, 8.052738e+001
5.223024e+002, 8.064925e+001
5.227845e+002, 8.042387e+001
5.232667e+002, 7.975483e+001
5.237488e+002, 7.928257e+001
5.242309e+002, 7.917695e+001
5.247130e+002, 7.930700e+001
5.251951e+002, 7.935509e+001
5.256772e+002, 7.932313e+001
5.261594e+002, 7.929211e+001
5.266415e+002, 7.939088e+001
5.271236e+002, 7.950925e+001
5.276057e+002, 7.935704e+001
5.280878e+002, 7.892446e+001
5.285699e+002, 7.844675e+001
5.290521e+002, 7.806022e+001
5.295342e+002, 7.777108e+001
5.300163e+002, 7.758471e+001
5.304984e+002, 7.748428e+001
5.309805e+002, 7.752611e+001
5.314626e+002, 7.797316e+001
5.319448e+002, 7.856426e+001
5.324269e+002, 7.879239e+001
5.329090e+002, 7.810093e+001
5.333911e+002, 7.742369e+001
5.338732e+002, 7.713216e+001
5.343553e+002, 7.725793e+001
5.348375e+002, 7.718820e+001
5.353196e+002, 7.662682e+001
5.358017e+002, 7.614608e+001
5.362838e+002, 7.613938e+001
5.367659e+002, 7.697798e+001
5.372480e+002, 7.715069e+001
5.377302e+002, 7.632987e+001
5.382123e+002, 7.527322e+001
5.386944e+002, 7.527557e+001
5.391765e+002, 7.643417e+001
5.396586e+002, 7.725193e+001
5.401407e+002, 7.723245e+001
5.406229e+002, 7.669359e+001
5.411050e+002, 7.628216e+001
5.415871e+002, 7.600345e+001
5.420692e+002, 7.590228e+001
5.425513e+002, 7.624519e+001
5.430334e+002, 7.669486e+001
5.435156e+002, 7.660409e+001
5.439977e+002, 7.590574e+001
5.444798e+002, 7.535803e+001
5.449619e+002, 7.576311e+001
5.454440e+002, 7.649709e+001
5.459261e+002, 7.685526e+001
5.464083e+002, 7.627656e+001
5.468904e+002, 7.583328e+001
5.473725e+002, 7.606762e+001
5.478546e+002, 7.667712e+001
5.483367e+002, 7.702115e+001
5.488188e+002, 7.670767e+001
5.493010e+002, 7.642979e+001
5.497831e+002, 7.635886e+001
5.502652e+002, 7.649181e+001
5.507473e+002, 7.664168e+001
5.512294e+002, 7.681649e+001
5.517115e+002, 7.699533e+001
5.521937e+002, 7.715641e+001
5.526758e+002, 7.729282e+001
5.531579e+002, 7.749412e+001
5.536400e+002, 7.777550e+001
5.541221e+002, 7.809511e+001
5.546042e+002, 7.849125e+001
5.550864e+002, 7.891810e+001
5.555685e+002, 7.905512e+001
5.560506e+002, 7.867239e+001
5.565327e+002, 7.812534e+001
5.570148e+002, 7.786861e+001
5.574969e+002, 7.787260e+001
5.579791e+002, 7.802922e+001
5.584612e+002, 7.844155e+001
5.589433e+002, 7.886568e+001
5.594254e+002, 7.913013e+001
5.599075e+002, 7.922453e+001
5.603896e+002, 7.912084e+001
5.608718e+002, 7.848538e+001
5.613539e+002, 7.784605e+001
5.618360e+002, 7.761211e+001
5.623181e+002, 7.829046e+001
5.628002e+002, 7.869109e+001
5.632823e+002, 7.851377e+001
5.637645e+002, 7.813024e+001
5.642466e+002, 7.813927e+001
5.647287e+002, 7.877110e+001
5.652108e+002, 7.928551e+001
5.656929e+002, 7.953386e+001
5.661750e+002, 7.953268e+001
5.666572e+002, 7.927184e+001
5.671393e+002, 7.870013e+001
5.676214e+002, 7.824699e+001
5.681035e+002, 7.819975e+001
5.685856e+002, 7.848278e+001
5.690677e+002, 7.888124e+001
5.695499e+002, 7.939836e+001
5.700320e+002, 7.980054e+001
5.705141e+002, 7.968246e+001
5.709962e+002, 7.934292e+001
5.714783e+002, 7.931285e+001
5.719604e+002, 7.990561e+001
5.724426e+002, 8.044950e+001
5.729247e+002, 8.046247e+001
5.734068e+002, 8.013784e+001
5.738889e+002, 7.982174e+001
5.743710e+002, 7.939980e+001
5.748531e+002, 7.923611e+001
5.753353e+002, 7.961840e+001
5.758174e+002, 8.049261e+001
5.762995e+002, 8.107430e+001
5.767816e+002, 8.121741e+001
5.772637e+002, 8.121170e+001
5.777458e+002, 8.114321e+001
5.782280e+002, 8.097069e+001
5.787101e+002, 8.096756e+001
5.791922e+002, 8.116319e+001
5.796743e+002, 8.146302e+001
5.801564e+002, 8.176439e+001
5.806385e+002, 8.206941e+001
5.811207e+002, 8.246751e+001
5.816028e+002, 8.299821e+001
5.820849e+002, 8.356670e+001
5.825670e+002, 8.409512e+001
5.830491e+002, 8.454860e+001
5.835313e+002, 8.483853e+001
5.840134e+002, 8.478535e+001
5.844955e+002, 8.464192e+001
5.849776e+002, 8.454250e+001
5.854597e+002, 8.452087e+001
5.859418e+002, 8.475425e+001
5.864240e+002, 8.549480e+001
5.869061e+002, 8.638207e+001
5.873882e+002, 8.727879e+001
5.878703e+002, 8.823766e+001
5.883524e+002, 8.890441e+001
5.888345e+002, 8.877612e+001
5.893167e+002, 8.864194e+001
5.897988e+002, 8.919261e+001
5.902809e+002, 9.098215e+001
5.907630e+002, 9.214997e+001
5.912451e+002, 9.237954e+001
5.917272e+002, 9.212202e+001
5.922094e+002, 9.214908e+001
5.926915e+002, 9.245837e+001
5.931736e+002, 9.310200e+001
5.936557e+002, 9.421970e+001
5.941378e+002, 9.560184e+001
5.946199e+002, 9.678677e+001
5.951021e+002, 9.777370e+001
5.955842e+002, 9.863796e+001
5.960663e+002, 9.932565e+001
5.965484e+002, 9.996658e+001
5.970305e+002, 1.006276e+002
5.975126e+002, 1.013036e+002
5.979948e+002, 1.023433e+002
5.984769e+002, 1.043277e+002
5.989590e+002, 1.065310e+002
5.994411e+002, 1.083363e+002
5.999232e+002, 1.094015e+002
6.004053e+002, 1.104399e+002
6.008875e+002, 1.114470e+002
6.013696e+002, 1.125148e+002
6.018517e+002, 1.137672e+002
6.023338e+002, 1.151966e+002
6.028159e+002, 1.168534e+002
6.032980e+002, 1.189861e+002
6.037802e+002, 1.212856e+002
6.042623e+002, 1.224927e+002
6.047444e+002, 1.224520e+002
6.052265e+002, 1.225536e+002
6.057086e+002, 1.237409e+002
6.061907e+002, 1.256414e+002
6.066729e+002, 1.269997e+002
6.071550e+002, 1.278160e+002
6.076371e+002, 1.283471e+002
6.081192e+002, 1.285695e+002
6.086013e+002, 1.287115e+002
6.090834e+002, 1.290436e+002
6.095656e+002, 1.296028e+002
6.100477e+002, 1.304048e+002
6.105298e+002, 1.315159e+002
6.110119e+002, 1.328477e+002
6.114940e+002, 1.343173e+002
6.119761e+002, 1.360468e+002
6.124583e+002, 1.377296e+002
6.129404e+002, 1.392604e+002
6.134225e+002, 1.407319e+002
6.139046e+002, 1.424208e+002
6.143867e+002, 1.444383e+002
6.148688e+002, 1.463681e+002
6.153510e+002, 1.480170e+002
6.158331e+002, 1.494739e+002
6.163152e+002, 1.514809e+002
6.167973e+002, 1.541001e+002
6.172794e+002, 1.565608e+002
6.177615e+002, 1.582430e+002
6.182437e+002, 1.593374e+002
6.187258e+002, 1.604637e+002
6.192079e+002, 1.616688e+002
6.196900e+002, 1.626448e+002
6.201721e+002, 1.631063e+002
6.206542e+002, 1.631969e+002
6.211364e+002, 1.631425e+002
6.216185e+002, 1.631611e+002
6.221006e+002, 1.626568e+002
6.225827e+002, 1.611081e+002
6.230648e+002, 1.589636e+002
6.235469e+002, 1.568487e+002
6.240291e+002, 1.547384e+002
6.245112e+002, 1.528421e+002
6.249933e+002, 1.513222e+002
6.254754e+002, 1.500282e+002
6.259575e+002, 1.484776e+002
6.264396e+002, 1.466223e+002
6.269218e+002, 1.446283e+002
6.274039e+002, 1.424785e+002
6.278860e+002, 1.402318e+002
6.283681e+002, 1.382641e+002
6.288502e+002, 1.365798e+002
6.293323e+002, 1.350288e+002
6.298145e+002, 1.334365e+002
6.302966e+002, 1.319169e+002
6.307787e+002, 1.307355e+002
6.312608e+002, 1.299435e+002
6.317429e+002, 1.291197e+002
6.322250e+002, 1.277513e+002
6.327072e+002, 1.262762e+002
6.331893e+002, 1.251566e+002
6.336714e+002, 1.246699e+002
6.341535e+002, 1.242869e+002
6.346356e+002, 1.239235e+002
6.351177e+002, 1.235688e+002
6.355999e+002, 1.231990e+002
6.360820e+002, 1.228081e+002
6.365641e+002, 1.224171e+002
6.370462e+002, 1.220602e+002
6.375283e+002, 1.216970e+002
6.380104e+002, 1.211623e+002
6.384926e+002, 1.204227e+002
6.389747e+002, 1.196986e+002
6.394568e+002, 1.190489e+002
6.399389e+002, 1.184910e+002
6.404210e+002, 1.181452e+002
6.409031e+002, 1.179977e+002
6.413853e+002, 1.178442e+002
6.418674e+002, 1.176724e+002
6.423495e+002, 1.173434e+002
6.428316e+002, 1.165782e+002
6.433137e+002, 1.152851e+002
6.437958e+002, 1.141611e+002
6.442780e+002, 1.135344e+002
6.447601e+002, 1.132307e+002
6.452422e+002, 1.131259e+002
6.457243e+002, 1.136194e+002
6.462064e+002, 1.136385e+002
6.466885e+002, 1.129371e+002
6.471707e+002, 1.118637e+002
6.476528e+002, 1.108636e+002
6.481349e+002, 1.099128e+002
6.486170e+002, 1.091009e+002
6.490991e+002, 1.084893e+002
6.495812e+002, 1.079673e+002
6.500634e+002, 1.072035e+002
6.505455e+002, 1.062137e+002
6.510276e+002, 1.053136e+002
6.515097e+002, 1.045403e+002
6.519918e+002, 1.040000e+002
6.524739e+002, 1.040813e+002
6.529561e+002, 1.046399e+002
6.534382e+002, 1.049213e+002
6.539203e+002, 1.043879e+002
6.544024e+002, 1.034944e+002
6.548845e+002, 1.024181e+002
6.553666e+002, 1.011448e+002
6.558488e+002, 1.001610e+002
6.563309e+002, 9.973844e+001
6.568130e+002, 9.952122e+001
6.572951e+002, 9.931487e+001
6.577772e+002, 9.918044e+001
6.582593e+002, 9.890427e+001
6.587415e+002, 9.851105e+001
6.592236e+002, 9.793691e+001
6.597057e+002, 9.695540e+001
6.601878e+002, 9.558590e+001
6.606699e+002, 9.462516e+001
6.611520e+002, 9.430186e+001
6.616342e+002, 9.426286e+001
6.621163e+002, 9.403371e+001
6.625984e+002, 9.369088e+001
6.630805e+002, 9.344028e+001
6.635626e+002, 9.348633e+001
6.640447e+002, 9.352734e+001
6.645269e+002, 9.332007e+001
6.650090e+002, 9.293394e+001
6.654911e+002, 9.256776e+001
6.659732e+002, 9.212014e+001
6.664553e+002, 9.186361e+001
6.669374e+002, 9.205038e+001
6.674196e+002, 9.263132e+001
6.679017e+002, 9.286011e+001
6.683838e+002, 9.266322e+001
6.688659e+002, 9.225547e+001
6.693480e+002, 9.163412e+001
6.698301e+002, 9.080711e+001
6.703123e+002, 9.042834e+001
6.707944e+002, 9.055427e+001
6.712765e+002, 9.069090e+001
6.717586e+002, 9.038113e+001
6.722407e+002, 8.975716e+001
6.727228e+002, 8.908041e+001
6.732050e+002, 8.835800e+001
6.736871e+002, 8.772647e+001
6.741692e+002, 8.733823e+001
6.746513e+002, 8.706564e+001
6.751334e+002, 8.676789e+001
6.756155e+002, 8.642020e+001
6.760977e+002, 8.601828e+001
6.765798e+002, 8.540467e+001
6.770619e+002, 8.479546e+001
6.775440e+002, 8.457207e+001
6.780261e+002, 8.511940e+001
6.785082e+002, 8.521569e+001
6.789904e+002, 8.451577e+001
6.794725e+002, 8.333834e+001
6.799546e+002, 8.242640e+001
6.804367e+002, 8.179511e+001
6.809188e+002, 8.141642e+001
6.814009e+002, 8.143106e+001
6.818831e+002, 8.159943e+001
6.823652e+002, 8.133227e+001
6.828473e+002, 8.075257e+001
6.833294e+002, 8.048316e+001
6.838115e+002, 8.113607e+001
6.842936e+002, 8.204249e+001
6.847758e+002, 8.286293e+001
6.852579e+002, 8.355839e+001
6.857400e+002, 8.383398e+001
6.862221e+002, 8.311240e+001
6.867042e+002, 8.236481e+001
6.871863e+002, 8.210017e+001
6.876685e+002, 8.243798e+001
6.881506e+002, 8.275174e+001
6.886327e+002, 8.302611e+001
6.891148e+002, 8.331556e+001
6.895969e+002, 8.361885e+001
6.900790e+002, 8.395046e+001
6.905612e+002, 8.449706e+001
6.910433e+002, 8.527039e+001
6.915254e+002, 8.627834e+001
6.920075e+002, 8.772408e+001
6.924896e+002, 8.935385e+001
6.929717e+002, 9.065893e+001
6.934539e+002, 9.133390e+001
6.939360e+002, 9.198128e+001
6.944181e+002, 9.280717e+001
6.949002e+002, 9.385586e+001
6.953823e+002, 9.520162e+001
6.958644e+002, 9.739017e+001
6.963466e+002, 9.920700e+001
6.968287e+002, 1.004419e+002
6.973108e+002, 1.012194e+002
6.977929e+002, 1.018585e+002
6.982750e+002, 1.024326e+002
6.987571e+002, 1.025932e+002
6.992393e+002, 1.021619e+002
6.997214e+002, 1.012768e+002
7.002035e+002, 1.004068e+002
7.006856e+002, 9.951828e+001
7.011677e+002, 9.833685e+001
7.016498e+002, 9.653385e+001
7.021320e+002, 9.445383e+001
7.026141e+002, 9.230650e+001
7.030962e+002, 9.014838e+001
7.035783e+002, 8.843276e+001
7.040604e+002, 8.772458e+001
7.045425e+002, 8.719907e+001
7.050247e+002, 8.641026e+001
7.055068e+002, 8.527464e+001
7.059889e+002, 8.408144e+001
7.064710e+002, 8.272562e+001
7.069531e+002, 8.144727e+001
7.074352e+002, 8.040670e+001
7.079174e+002, 7.961560e+001
7.083995e+002, 7.898333e+001
7.088816e+002, 7.852254e+001
7.093637e+002, 7.815602e+001
7.098458e+002, 7.791121e+001
7.103279e+002, 7.769255e+001
7.108101e+002, 7.716334e+001
7.112922e+002, 7.616301e+001
7.117743e+002, 7.532754e+001
7.122564e+002, 7.527377e+001
7.127385e+002, 7.560218e+001
7.132206e+002, 7.583669e+001
7.137028e+002, 7.577824e+001
7.141849e+002, 7.571938e+001
7.146670e+002, 7.575402e+001
7.151491e+002, 7.580055e+001
7.156312e+002, 7.578127e+001
7.161133e+002, 7.579319e+001
7.165955e+002, 7.539822e+001
7.170776e+002, 7.432094e+001
7.175597e+002, 7.303883e+001
7.180418e+002, 7.271423e+001
7.185239e+002, 7.325246e+001
7.190060e+002, 7.375285e+001
7.194882e+002, 7.381677e+001
7.199703e+002, 7.371310e+001
7.204524e+002, 7.372400e+001
7.209345e+002, 7.383887e+001
7.214166e+002, 7.402843e+001
7.218987e+002, 7.436977e+001
7.223809e+002, 7.469530e+001
7.228630e+002, 7.496562e+001
7.233451e+002, 7.516342e+001
7.238272e+002, 7.515913e+001
7.243093e+002, 7.475887e+001
7.247914e+002, 7.445234e+001
7.252736e+002, 7.449253e+001
7.257557e+002, 7.483123e+001
7.262378e+002, 7.478385e+001
7.267199e+002, 7.429931e+001
7.272020e+002, 7.386781e+001
7.276841e+002, 7.389840e+001
7.281663e+002, 7.419443e+001
7.286484e+002, 7.438377e+001
7.291305e+002, 7.444716e+001
7.296126e+002, 7.429088e+001
7.300947e+002, 7.345033e+001
7.305768e+002, 7.263383e+001
7.310590e+002, 7.253358e+001
7.315411e+002, 7.342275e+001
7.320232e+002, 7.402030e+001
7.325053e+002, 7.396423e+001
7.329874e+002, 7.364973e+001
7.334695e+002, 7.327061e+001
7.339517e+002, 7.277676e+001
7.344338e+002, 7.236836e+001
7.349159e+002, 7.200626e+001
7.353980e+002, 7.183003e+001
7.358801e+002, 7.210770e+001
7.363622e+002, 7.272379e+001
7.368444e+002, 7.321499e+001
7.373265e+002, 7.351854e+001
7.378086e+002, 7.364651e+001
7.382907e+002, 7.349387e+001
7.387728e+002, 7.321651e+001
7.392549e+002, 7.302534e+001
7.397371e+002, 7.306615e+001
7.402192e+002, 7.304533e+001
7.407013e+002, 7.271875e+001
7.411834e+002, 7.235784e+001
7.416655e+002, 7.233413e+001
7.421476e+002, 7.282691e+001
7.426298e+002, 7.321459e+001
7.431119e+002, 7.337315e+001
7.435940e+002, 7.345911e+001
7.440761e+002, 7.381695e+001
7.445582e+002, 7.440696e+001
7.450403e+002, 7.486506e+001
7.455225e+002, 7.507711e+001
7.460046e+002, 7.511486e+001
7.464867e+002, 7.500265e+001
7.469688e+002, 7.478960e+001
7.474509e+002, 7.458311e+001
7.479330e+002, 7.429445e+001
7.484152e+002, 7.416138e+001
7.488973e+002, 7.438519e+001
7.493794e+002, 7.484963e+001
7.498615e+002, 7.516546e+001
7.503436e+002, 7.532191e+001
7.508257e+002, 7.533608e+001
7.513079e+002, 7.517020e+001
7.517900e+002, 7.488258e+001
7.522721e+002, 7.466393e+001
7.527542e+002, 7.451368e+001
7.532363e+002, 7.446165e+001
7.537184e+002, 7.462464e+001
7.542006e+002, 7.482973e+001
7.546827e+002, 7.478640e+001
7.551648e+002, 7.453537e+001
7.556469e+002, 7.424690e+001
7.561290e+002, 7.385101e+001
7.566111e+002, 7.358184e+001
7.570933e+002, 7.363695e+001
7.575754e+002, 7.399863e+001
7.580575e+002, 7.423488e+001
7.585396e+002, 7.419601e+001
7.590217e+002, 7.421635e+001
7.595038e+002, 7.444680e+001
7.599860e+002, 7.486349e+001
7.604681e+002, 7.518922e+001
7.609502e+002, 7.540809e+001
7.614323e+002, 7.570701e+001
7.619144e+002, 7.649009e+001
7.623965e+002, 7.733507e+001
7.628787e+002, 7.730040e+001
7.633608e+002, 7.643694e+001
7.638429e+002, 7.563524e+001
7.643250e+002, 7.539787e+001
7.648071e+002, 7.543604e+001
7.652892e+002, 7.559941e+001
7.657714e+002, 7.589180e+001
7.662535e+002, 7.616459e+001
7.667356e+002, 7.638879e+001
7.672177e+002, 7.661966e+001
7.676998e+002, 7.693591e+001
7.681819e+002, 7.736095e+001
7.686641e+002, 7.741087e+001
7.691462e+002, 7.702407e+001
7.696283e+002, 7.673125e+001
7.701104e+002, 7.711977e+001
7.705925e+002, 7.787844e+001
7.710746e+002, 7.844795e+001
7.715568e+002, 7.877442e+001
7.720389e+002, 7.890240e+001
7.725210e+002, 7.864551e+001
7.730031e+002, 7.834398e+001
7.734852e+002, 7.830196e+001
7.739673e+002, 7.870879e+001
7.744495e+002, 7.886948e+001
7.749316e+002, 7.860279e+001
7.754137e+002, 7.827644e+001
7.758958e+002, 7.820488e+001
7.763779e+002, 7.842134e+001
7.768600e+002, 7.841241e+001
7.773422e+002, 7.812920e+001
7.778243e+002, 7.781849e+001
7.783064e+002, 7.770261e+001
7.787885e+002, 7.774385e+001
7.792706e+002, 7.789912e+001
7.797527e+002, 7.818051e+001
7.802349e+002, 7.844971e+001
7.807170e+002, 7.859927e+001
7.811991e+002, 7.871317e+001
7.816812e+002, 7.887390e+001
7.821633e+002, 7.918840e+001
7.826454e+002, 7.933762e+001
7.831276e+002, 7.917758e+001
7.836097e+002, 7.902583e+001
7.840918e+002, 7.925206e+001
7.845739e+002, 7.986327e+001
7.850560e+002, 8.033408e+001
7.855381e+002, 8.059340e+001
7.860203e+002, 8.079701e+001
7.865024e+002, 8.114831e+001
7.869845e+002, 8.155219e+001
7.874666e+002, 8.184036e+001
7.879487e+002, 8.194872e+001
7.884308e+002, 8.202943e+001
7.889130e+002, 8.210799e+001
7.893951e+002, 8.222403e+001
7.898772e+002, 8.242441e+001
7.903593e+002, 8.275736e+001
7.908414e+002, 8.307400e+001
7.913235e+002, 8.332212e+001
7.918057e+002, 8.362141e+001
7.922878e+002, 8.414046e+001
7.927699e+002, 8.486878e+001
7.932520e+002, 8.555016e+001
7.937341e+002, 8.615096e+001
7.942162e+002, 8.670802e+001
7.946984e+002, 8.723054e+001
7.951805e+002, 8.775661e+001
7.956626e+002, 8.834138e+001
7.961447e+002, 8.902096e+001
7.966268e+002, 8.973035e+001
7.971089e+002, 9.051366e+001
7.975911e+002, 9.128792e+001
7.980732e+002, 9.191020e+001
7.985553e+002, 9.203141e+001
7.990374e+002, 9.289905e+001
7.995195e+002, 9.477414e+001
8.000016e+002, 9.704301e+001
8.004838e+002, 9.894634e+001
8.009659e+002, 1.005611e+002
8.014480e+002, 1.023951e+002
8.019301e+002, 1.045712e+002
8.024122e+002, 1.068365e+002
8.028943e+002, 1.087246e+002
8.033765e+002, 1.106088e+002
8.038586e+002, 1.130274e+002
8.043407e+002, 1.163601e+002
8.048228e+002, 1.197699e+002
8.053049e+002, 1.227748e+002
8.057870e+002, 1.260022e+002
8.062692e+002, 1.301566e+002
8.067513e+002, 1.354616e+002
8.072334e+002, 1.407904e+002
8.077155e+002, 1.459316e+002
8.081976e+002, 1.512470e+002
8.086797e+002, 1.572098e+002
8.091619e+002, 1.637060e+002
8.096440e+002, 1.702886e+002
8.101261e+002, 1.766880e+002
8.106082e+002, 1.838732e+002
8.110903e+002, 1.930103e+002
8.115724e+002, 2.030251e+002
8.120546e+002, 2.126726e+002
8.125367e+002, 2.207670e+002
8.130188e+002, 2.301171e+002
8.135009e+002, 2.413429e+002
8.139830e+002, 2.533774e+002
8.144651e+002, 2.646648e+002
8.149473e+002, 2.751670e+002
8.154294e+002, 2.872874e+002
8.159115e+002, 3.014521e+002
8.163936e+002, 3.167273e+002
8.168757e+002, 3.324540e+002
8.173578e+002, 3.483854e+002
8.178400e+002, 3.643463e+002
8.183221e+002, 3.802999e+002
8.188042e+002, 3.964601e+002
8.192863e+002, 4.136838e+002
8.197684e+002, 4.307118e+002
8.202505e+002, 4.463556e+002
8.207327e+002, 4.606351e+002
8.212148e+002, 4.733213e+002
8.216969e+002, 4.848503e+002
8.221790e+002, 4.940017e+002
8.226611e+002, 4.995689e+002
8.231432e+002, 5.015778e+002
8.236254e+002, 4.995957e+002
8.241075e+002, 4.935301e+002
8.245896e+002, 4.839630e+002
8.250717e+002, 4.713573e+002
8.255538e+002, 4.556478e+002
8.260359e+002, 4.365740e+002
8.265181e+002, 4.134094e+002
8.270002e+002, 3.894858e+002
8.274823e+002, 3.640961e+002
8.279644e+002, 3.392254e+002
8.284465e+002, 3.158991e+002
8.289286e+002, 2.944989e+002
8.294108e+002, 2.735479e+002
8.298929e+002, 2.529463e+002
8.303750e+002, 2.337125e+002
8.308571e+002, 2.167664e+002
8.313392e+002, 2.019467e+002
8.318214e+002, 1.887801e+002
8.323035e+002, 1.773452e+002
8.327856e+002, 1.671781e+002
8.332677e+002, 1.582289e+002
8.337498e+002, 1.504049e+002
8.342319e+002, 1.437390e+002
8.347141e+002, 1.384613e+002
8.351962e+002, 1.335721e+002
8.356783e+002, 1.291250e+002
8.361604e+002, 1.249856e+002
8.366425e+002, 1.210394e+002
8.371246e+002, 1.173121e+002
8.376068e+002, 1.142101e+002
8.380889e+002, 1.117366e+002
8.385710e+002, 1.097918e+002
8.390531e+002, 1.088925e+002
8.395352e+002, 1.081146e+002
8.400173e+002, 1.061878e+002
8.404995e+002, 1.030488e+002
8.409816e+002, 1.004787e+002
8.414637e+002, 9.961520e+001
8.419458e+002, 9.892210e+001
8.424279e+002, 9.758522e+001
8.429100e+002, 9.562767e+001
8.433922e+002, 9.443918e+001
8.438743e+002, 9.411833e+001
8.443564e+002, 9.402178e+001
8.448385e+002, 9.399814e+001
8.453206e+002, 9.385511e+001
8.458027e+002, 9.291402e+001
8.462849e+002, 9.133569e+001
8.467670e+002, 9.004440e+001
8.472491e+002, 8.988412e+001
8.477312e+002, 8.986015e+001
8.482133e+002, 8.938592e+001
8.486954e+002, 8.848980e+001
8.491776e+002, 8.771832e+001
8.496597e+002, 8.712190e+001
8.501418e+002, 8.656188e+001
8.506239e+002, 8.594557e+001
8.511060e+002, 8.536281e+001
8.515881e+002, 8.526180e+001
8.520703e+002, 8.557136e+001
8.525524e+002, 8.568217e+001
8.530345e+002, 8.503837e+001
8.535166e+002, 8.429652e+001
8.539987e+002, 8.406913e+001
8.544808e+002, 8.421525e+001
8.549630e+002, 8.437857e+001
8.554451e+002, 8.460107e+001
8.559272e+002, 8.463506e+001
8.564093e+002, 8.435661e+001
8.568914e+002, 8.390103e+001
8.573735e+002, 8.357619e+001
8.578557e+002, 8.339396e+001
8.583378e+002, 8.315708e+001
8.588199e+002, 8.275854e+001
8.593020e+002, 8.238896e+001
8.597841e+002, 8.237346e+001
8.602662e+002, 8.259817e+001
8.607484e+002, 8.285331e+001
8.612305e+002, 8.336546e+001
8.617126e+002, 8.344930e+001
8.621947e+002, 8.231994e+001
8.626768e+002, 8.083691e+001
8.631589e+002, 8.022160e+001
8.636411e+002, 8.072915e+001
8.641232e+002, 8.146776e+001
8.646053e+002, 8.252885e+001
8.650874e+002, 8.338691e+001
8.655695e+002, 8.318997e+001
8.660516e+002, 8.221380e+001
8.665338e+002, 8.124333e+001
8.670159e+002, 8.034627e+001
8.674980e+002, 7.983027e+001
8.679801e+002, 8.031223e+001
8.684622e+002, 8.104444e+001
8.689443e+002, 8.127724e+001
8.694265e+002, 8.062236e+001
8.699086e+002, 8.012482e+001
8.703907e+002, 7.982240e+001
8.708728e+002, 7.962849e+001
8.713549e+002, 7.952033e+001
8.718370e+002, 7.948307e+001
8.723192e+002, 7.929948e+001
8.728013e+002, 7.895449e+001
8.732834e+002, 7.868559e+001
8.737655e+002, 7.874023e+001
8.742476e+002, 7.893192e+001
8.747297e+002, 7.914408e+001
8.752119e+002, 7.936992e+001
8.756940e+002, 7.935697e+001
8.761761e+002, 7.883377e+001
8.766582e+002, 7.827518e+001
8.771403e+002, 7.787582e+001
8.776224e+002, 7.761872e+001
8.781046e+002, 7.720354e+001
8.785867e+002, 7.661507e+001
8.790688e+002, 7.622478e+001
8.795509e+002, 7.649084e+001
8.800330e+002, 7.695893e+001
8.805151e+002, 7.689057e+001
8.809973e+002, 7.643005e+001
8.814794e+002, 7.613658e+001
8.819615e+002, 7.653218e+001
8.824436e+002, 7.682809e+001
8.829257e+002, 7.677420e+001
8.834078e+002, 7.639944e+001
8.838900e+002, 7.559515e+001
8.843721e+002, 7.417236e+001
8.848542e+002, 7.335852e+001
8.853363e+002, 7.364918e+001
8.858184e+002, 7.449638e+001
8.863005e+002, 7.514733e+001
8.867827e+002, 7.557574e+001
8.872648e+002, 7.569202e+001
8.877469e+002, 7.525334e+001
8.882290e+002, 7.481702e+001
8.887111e+002, 7.475288e+001
8.891932e+002, 7.478442e+001
8.896754e+002, 7.446414e+001
8.901575e+002, 7.349345e+001
8.906396e+002, 7.300382e+001
8.911217e+002, 7.321132e+001
8.916038e+002, 7.362055e+001
8.920859e+002, 7.361453e+001
8.925681e+002, 7.330397e+001
8.930502e+002, 7.298655e+001
8.935323e+002, 7.269314e+001
8.940144e+002, 7.254524e+001
8.944965e+002, 7.279728e+001
8.949786e+002, 7.312210e+001
8.954608e+002, 7.322798e+001
8.959429e+002, 7.301123e+001
8.964250e+002, 7.283357e+001
8.969071e+002, 7.270361e+001
8.973892e+002, 7.259704e+001
8.978713e+002, 7.247986e+001
8.983535e+002, 7.236694e+001
8.988356e+002, 7.242138e+001
8.993177e+002, 7.262462e+001
8.997998e+002, 7.269389e+001
9.002819e+002, 7.224580e+001
9.007640e+002, 7.175021e+001
9.012462e+002, 7.164133e+001
9.017283e+002, 7.188133e+001
9.022104e+002, 7.189239e+001
9.026925e+002, 7.150282e+001
9.031746e+002, 7.106460e+001
9.036567e+002, 7.059811e+001
9.041389e+002, 7.019949e+001
9.046210e+002, 7.029659e+001
9.051031e+002, 7.082117e+001
9.055852e+002, 7.114948e+001
9.060673e+002, 7.086516e+001
9.065494e+002, 7.050386e+001
9.070316e+002, 7.066434e+001
9.075137e+002, 7.106639e+001
9.079958e+002, 7.121723e+001
9.084779e+002, 7.068234e+001
9.089600e+002, 7.031892e+001
9.094421e+002, 7.028993e+001
9.099243e+002, 7.036696e+001
9.104064e+002, 7.022900e+001
9.108885e+002, 6.988755e+001
9.113706e+002, 6.947451e+001
9.118527e+002, 6.895963e+001
9.123348e+002, 6.870094e+001
9.128170e+002, 6.949228e+001
9.132991e+002, 7.049212e+001
9.137812e+002, 7.059883e+001
9.142633e+002, 6.929598e+001
9.147454e+002, 6.856608e+001
9.152275e+002, 6.914131e+001
9.157097e+002, 6.983633e+001
9.161918e+002, 6.996095e+001
9.166739e+002, 6.952457e+001
9.171560e+002, 6.907793e+001
9.176381e+002, 6.862302e+001
9.181202e+002, 6.832948e+001
9.186024e+002, 6.830374e+001
9.190845e+002, 6.851059e+001
9.195666e+002, 6.910107e+001
9.200487e+002, 6.995729e+001
9.205308e+002, 7.047267e+001
9.210129e+002, 7.015675e+001
9.214951e+002, 6.984694e+001
9.219772e+002, 6.978719e+001
9.224593e+002, 6.986661e+001
9.229414e+002, 6.971297e+001
9.234235e+002, 6.933270e+001
9.239056e+002, 6.902603e+001
9.243878e+002, 6.888186e+001
9.248699e+002, 6.886917e+001
9.253520e+002, 6.896865e+001
9.258341e+002, 6.916831e+001
9.263162e+002, 6.946017e+001
9.267983e+002, 7.015163e+001
9.272805e+002, 7.044784e+001
9.277626e+002, 7.015176e+001
9.282447e+002, 6.957265e+001
9.287268e+002, 6.892285e+001
9.292089e+002, 6.820216e+001
9.296910e+002, 6.787167e+001
9.301732e+002, 6.798588e+001
9.306553e+002, 6.827410e+001
9.311374e+002, 6.870635e+001
9.316195e+002, 6.905070e+001
9.321016e+002, 6.894258e+001
9.325837e+002, 6.831944e+001
9.330659e+002, 6.791567e+001
9.335480e+002, 6.805790e+001
9.340301e+002, 6.826420e+001
9.345122e+002, 6.833513e+001
9.349943e+002, 6.830676e+001
9.354764e+002, 6.850639e+001
9.359586e+002, 6.892313e+001
9.364407e+002, 6.913782e+001
9.369228e+002, 6.872201e+001
9.374049e+002, 6.821085e+001
9.378870e+002, 6.816083e+001
9.383691e+002, 6.844701e+001
9.388513e+002, 6.878208e+001
9.393334e+002, 6.930882e+001
9.398155e+002, 6.957648e+001
9.402976e+002, 6.948125e+001
9.407797e+002, 6.915885e+001
9.412618e+002, 6.877315e+001
9.417440e+002, 6.833375e+001
9.422261e+002, 6.792343e+001
9.427082e+002, 6.752513e+001
9.431903e+002, 6.731770e+001
9.436724e+002, 6.761140e+001
9.441545e+002, 6.810343e+001
9.446367e+002, 6.848619e+001
9.451188e+002, 6.868379e+001
9.456009e+002, 6.885588e+001
9.460830e+002, 6.898765e+001
9.465651e+002, 6.914088e+001
9.470472e+002, 6.941508e+001
9.475294e+002, 6.976568e+001
9.480115e+002, 6.969654e+001
9.484936e+002, 6.925098e+001
9.489757e+002, 6.893787e+001
9.494578e+002, 6.926976e+001
9.499399e+002, 6.969140e+001
9.504221e+002, 6.968350e+001
9.509042e+002, 6.938389e+001
9.513863e+002, 6.937653e+001
9.518684e+002, 6.992213e+001
9.523505e+002, 7.036909e+001
9.528326e+002, 7.057401e+001
9.533148e+002, 7.066574e+001
9.537969e+002, 7.094187e+001
9.542790e+002, 7.133166e+001
9.547611e+002, 7.147211e+001
9.552432e+002, 7.117703e+001
9.557253e+002, 7.096870e+001
9.562075e+002, 7.145778e+001
9.566896e+002, 7.207981e+001
9.571717e+002, 7.220247e+001
9.576538e+002, 7.147527e+001
9.581359e+002, 7.126271e+001
9.586180e+002, 7.173275e+001
9.591002e+002, 7.229222e+001
9.595823e+002, 7.244312e+001
9.600644e+002, 7.234384e+001
9.605465e+002, 7.249731e+001
9.610286e+002, 7.288420e+001
9.615107e+002, 7.327822e+001
9.619929e+002, 7.359699e+001
9.624750e+002, 7.384762e+001
9.629571e+002, 7.399046e+001
9.634392e+002, 7.406679e+001
9.639213e+002, 7.424561e+001
9.644034e+002, 7.457568e+001
9.648856e+002, 7.478737e+001
9.653677e+002, 7.476340e+001
9.658498e+002, 7.470187e+001
9.663319e+002, 7.497212e+001
9.668140e+002, 7.543558e+001
9.672961e+002, 7.580737e+001
9.677783e+002, 7.602768e+001
9.682604e+002, 7.611555e+001
9.687425e+002, 7.589156e+001
9.692246e+002, 7.568502e+001
9.697067e+002, 7.584875e+001
9.701888e+002, 7.651743e+001
9.706710e+002, 7.639870e+001
9.711531e+002, 7.539722e+001
9.716352e+002, 7.452436e+001
9.721173e+002, 7.481271e+001
9.725994e+002, 7.553744e+001
9.730815e+002, 7.575541e+001
9.735637e+002, 7.550713e+001
9.740458e+002, 7.524931e+001
9.745279e+002, 7.500520e+001
9.750100e+002, 7.493742e+001
9.754921e+002, 7.511972e+001
9.759742e+002, 7.547655e+001
9.764564e+002, 7.592591e+001
9.769385e+002, 7.645014e+001
9.774206e+002, 7.658399e+001
9.779027e+002, 7.610706e+001
9.783848e+002, 7.552531e+001
9.788669e+002, 7.529449e+001
9.793491e+002, 7.525111e+001
9.798312e+002, 7.520670e+001
9.803133e+002, 7.514683e+001
9.807954e+002, 7.502595e+001
9.812775e+002, 7.480701e+001
9.817596e+002, 7.458839e+001
9.822418e+002, 7.440801e+001
9.827239e+002, 7.427959e+001
9.832060e+002, 7.436942e+001
9.836881e+002, 7.463738e+001
9.841702e+002, 7.473971e+001
9.846523e+002, 7.418864e+001
9.851345e+002, 7.367379e+001
9.856166e+002, 7.373644e+001
9.860987e+002, 7.418616e+001
9.865808e+002, 7.427702e+001
9.870629e+002, 7.389860e+001
9.875450e+002, 7.347176e+001
9.880272e+002, 7.301868e+001
9.885093e+002, 7.269243e+001
9.889914e+002, 7.284459e+001
9.894735e+002, 7.327402e+001
9.899556e+002, 7.354092e+001
9.904377e+002, 7.349019e+001
9.909199e+002, 7.353882e+001
9.914020e+002, 7.416431e+001
9.918841e+002, 7.467814e+001
9.923662e+002, 7.456268e+001
9.928483e+002, 7.379607e+001
9.933304e+002, 7.321483e+001
9.938126e+002, 7.281198e+001
9.942947e+002, 7.271310e+001
9.947768e+002, 7.341061e+001
9.952589e+002, 7.415529e+001
9.957410e+002, 7.389074e+001
9.962231e+002, 7.292106e+001
9.967053e+002, 7.213131e+001
9.971874e+002, 7.169469e+001
9.976695e+002, 7.163892e+001
9.981516e+002, 7.219939e+001
9.986337e+002, 7.286731e+001
9.991158e+002, 7.268407e+001
9.995980e+002, 7.181660e+001
1.000080e+003, 7.156316e+001
1.000562e+003, 7.218392e+001
1.001044e+003, 7.275464e+001
1.001526e+003, 7.244079e+001
1.002009e+003, 7.186868e+001
1.002491e+003, 7.154350e+001
1.002973e+003, 7.152856e+001
1.003455e+003, 7.156733e+001
1.003937e+003, 7.164809e+001
1.004419e+003, 7.183448e+001
1.004901e+003, 7.224950e+001
1.005383e+003, 7.270966e+001
1.005865e+003, 7.280031e+001
1.006348e+003, 7.260209e+001
1.006830e+003, 7.234702e+001
1.007312e+003, 7.205840e+001
1.007794e+003, 7.182285e+001
1.008276e+003, 7.175379e+001
1.008758e+003, 7.168996e+001
1.009240e+003, 7.136856e+001
1.009722e+003, 7.072187e+001
1.010205e+003, 7.061931e+001
1.010687e+003, 7.116404e+001
1.011169e+003, 7.177796e+001
1.011651e+003, 7.202034e+001
1.012133e+003, 7.201429e+001
1.012615e+003, 7.181542e+001
1.013097e+003, 7.144733e+001
1.013579e+003, 7.118275e+001
1.014061e+003, 7.115001e+001
1.014544e+003, 7.108076e+001
1.015026e+003, 7.088203e+001
1.015508e+003, 7.061592e+001
1.015990e+003, 7.042037e+001
1.016472e+003, 7.028760e+001
1.016954e+003, 7.018409e+001
1.017436e+003, 7.009176e+001
1.017918e+003, 7.004346e+001
1.018401e+003, 7.006712e+001
1.018883e+003, 7.014145e+001
1.019365e+003, 7.025595e+001
1.019847e+003, 7.043045e+001
1.020329e+003, 7.055553e+001
1.020811e+003, 7.064196e+001
1.021293e+003, 7.062289e+001
1.021775e+003, 7.026792e+001
1.022257e+003, 6.988003e+001
1.022740e+003, 7.019276e+001
1.023222e+003, 7.094563e+001
1.023704e+003, 7.113248e+001
1.024186e+003, 6.963480e+001
1.024668e+003, 6.851527e+001
1.025150e+003, 6.827938e+001
1.025632e+003, 6.855070e+001
1.026114e+003, 6.874831e+001
1.026596e+003, 6.888106e+001
1.027079e+003, 6.906084e+001
1.027561e+003, 6.930505e+001
1.028043e+003, 6.959612e+001
1.028525e+003, 7.008555e+001
1.029007e+003, 7.049629e+001
1.029489e+003, 7.048330e+001
1.029971e+003, 6.998927e+001
1.030453e+003, 6.986496e+001
1.030936e+003, 7.020222e+001
1.031418e+003, 7.061927e+001
1.031900e+003, 7.101538e+001
1.032382e+003, 7.132812e+001
1.032864e+003, 7.143488e+001
1.033346e+003, 7.135641e+001
1.033828e+003, 7.112790e+001
1.034310e+003, 7.054104e+001
1.034792e+003, 7.014993e+001
1.035275e+003, 7.012083e+001
1.035757e+003, 7.031258e+001
1.036239e+003, 7.073722e+001
1.036721e+003, 7.139212e+001
1.037203e+003, 7.144174e+001
1.037685e+003, 7.086470e+001
1.038167e+003, 7.037941e+001
1.038649e+003, 7.072343e+001
1.039132e+003, 7.119765e+001
1.039614e+003, 7.116846e+001
1.040096e+003, 7.073913e+001
1.040578e+003, 7.055847e+001
1.041060e+003, 7.071016e+001
1.041542e+003, 7.099616e+001
1.042024e+003, 7.145640e+001
1.042506e+003, 7.186003e+001
1.042989e+003, 7.165788e+001
1.043471e+003, 7.118850e+001
1.043953e+003, 7.129275e+001
1.044435e+003, 7.228882e+001
1.044917e+003, 7.288420e+001
1.045399e+003, 7.200896e+001
1.045881e+003, 7.119184e+001
1.046363e+003, 7.126990e+001
1.046845e+003, 7.210854e+001
1.047328e+003, 7.261399e+001
1.047810e+003, 7.281199e+001
1.048292e+003, 7.304283e+001
1.048774e+003, 7.360741e+001
1.049256e+003, 7.407536e+001
1.049738e+003, 7.395470e+001
1.050220e+003, 7.356172e+001
1.050702e+003, 7.341460e+001
1.051184e+003, 7.366492e+001
1.051667e+003, 7.389486e+001
1.052149e+003, 7.409293e+001
1.052631e+003, 7.427994e+001
1.053113e+003, 7.445823e+001
1.053595e+003, 7.464845e+001
1.054077e+003, 7.500334e+001
1.054559e+003, 7.546187e+001
1.055041e+003, 7.561073e+001
1.055523e+003, 7.482920e+001
1.056006e+003, 7.427982e+001
1.056488e+003, 7.434245e+001
1.056970e+003, 7.475737e+001
1.057452e+003, 7.497656e+001
1.057934e+003, 7.503702e+001
1.058416e+003, 7.533618e+001
1.058898e+003, 7.600306e+001
1.059380e+003, 7.657426e+001
1.059863e+003, 7.659348e+001
1.060345e+003, 7.640726e+001
1.060827e+003, 7.624204e+001
1.061309e+003, 7.611050e+001
1.061791e+003, 7.622167e+001
1.062273e+003, 7.662066e+001
1.062755e+003, 7.705379e+001
1.063237e+003, 7.744128e+001
1.063719e+003, 7.775233e+001
1.064202e+003, 7.800245e+001
1.064684e+003, 7.812999e+001
1.065166e+003, 7.800233e+001
1.065648e+003, 7.732458e+001
1.066130e+003, 7.685772e+001
1.066612e+003, 7.680894e+001
1.067094e+003, 7.678678e+001
1.067576e+003, 7.641516e+001
1.068059e+003, 7.577330e+001
1.068541e+003, 7.532035e+001
1.069023e+003, 7.505341e+001
1.069505e+003, 7.490141e+001
1.069987e+003, 7.504144e+001
1.070469e+003, 7.505619e+001
1.070951e+003, 7.459764e+001
1.071433e+003, 7.390688e+001
1.071916e+003, 7.342380e+001
1.072398e+003, 7.316654e+001
1.072880e+003, 7.298076e+001
1.073362e+003, 7.284188e+001
1.073844e+003, 7.281178e+001
1.074326e+003, 7.311206e+001
1.074808e+003, 7.345132e+001
1.075290e+003, 7.346038e+001
1.075772e+003, 7.310745e+001
1.076255e+003, 7.294933e+001
1.076737e+003, 7.319299e+001
1.077219e+003, 7.318478e+001
1.077701e+003, 7.252666e+001
1.078183e+003, 7.177644e+001
1.078665e+003, 7.230696e+001
1.079147e+003, 7.357167e+001
1.079629e+003, 7.425495e+001
1.080111e+003, 7.380877e+001
1.080594e+003, 7.337478e+001
1.081076e+003, 7.336520e+001
1.081558e+003, 7.347427e+001
1.082040e+003, 7.362247e+001
1.082522e+003, 7.377018e+001
1.083004e+003, 7.329893e+001
1.083486e+003, 7.229688e+001
1.083968e+003, 7.164803e+001
1.084450e+003, 7.226650e+001
1.084933e+003, 7.291838e+001
1.085415e+003, 7.268738e+001
1.085897e+003, 7.203835e+001
1.086379e+003, 7.172576e+001
1.086861e+003, 7.184344e+001
1.087343e+003, 7.203418e+001
1.087825e+003, 7.231520e+001
1.088307e+003, 7.245517e+001
1.088790e+003, 7.206398e+001
1.089272e+003, 7.154488e+001
1.089754e+003, 7.138741e+001
1.090236e+003, 7.156413e+001
1.090718e+003, 7.181160e+001
1.091200e+003, 7.232815e+001
1.091682e+003, 7.242722e+001
1.092164e+003, 7.187121e+001
1.092646e+003, 7.107224e+001
1.093129e+003, 7.059972e+001
1.093611e+003, 7.039616e+001
1.094093e+003, 7.032602e+001
1.094575e+003, 7.037173e+001
1.095057e+003, 7.049635e+001
1.095539e+003, 7.082840e+001
1.096021e+003, 7.106559e+001
1.096503e+003, 7.102375e+001
1.096986e+003, 7.080661e+001
1.097468e+003, 7.086596e+001
1.097950e+003, 7.115820e+001
1.098432e+003, 7.126773e+001
1.098914e+003, 7.093620e+001
1.099396e+003, 7.073416e+001
1.099878e+003, 7.140066e+001
1.100360e+003, 7.217884e+001
1.100843e+003, 7.221143e+001
1.101325e+003, 7.136298e+001
1.101807e+003, 7.116084e+001
1.102289e+003, 7.167182e+001
1.102771e+003, 7.209737e+001
1.103253e+003, 7.187402e+001
1.103735e+003, 7.143613e+001
1.104217e+003, 7.127853e+001
1.104699e+003, 7.128934e+001
1.105182e+003, 7.125710e+001
1.105664e+003, 7.116353e+001
1.106146e+003, 7.094649e+001
1.106628e+003, 7.051707e+001
1.107110e+003, 7.019450e+001
1.107592e+003, 7.037291e+001
1.108074e+003, 7.081798e+001
1.108556e+003, 7.108896e+001
1.109038e+003, 7.117547e+001
1.109521e+003, 7.113856e+001
1.110003e+003, 7.075302e+001
1.110485e+003, 7.059486e+001
1.110967e+003, 7.087539e+001
1.111449e+003, 7.131372e+001
1.111931e+003, 7.150779e+001
1.112413e+003, 7.148836e+001
1.112895e+003, 7.137685e+001
1.113377e+003, 7.118610e+001
1.113860e+003, 7.096867e+001
1.114342e+003, 7.061578e+001
1.114824e+003, 7.039214e+001
1.115306e+003, 7.046570e+001
1.115788e+003, 7.077380e+001
1.116270e+003, 7.122488e+001
1.116752e+003, 7.181458e+001
1.117234e+003, 7.206458e+001
1.117717e+003, 7.179359e+001
1.118199e+003, 7.140763e+001
1.118681e+003, 7.112046e+001
1.119163e+003, 7.099137e+001
1.119645e+003, 7.112374e+001
1.120127e+003, 7.152427e+001
1.120609e+003, 7.190188e+001
1.121091e+003, 7.224929e+001
1.121573e+003, 7.265237e+001
1.122056e+003, 7.333410e+001
1.122538e+003, 7.378552e+001
1.123020e+003, 7.302795e+001
1.123502e+003, 7.172107e+001
1.123984e+003, 7.090170e+001
1.124466e+003, 7.103345e+001
1.124948e+003, 7.111622e+001
1.125430e+003, 7.108325e+001
1.125913e+003, 7.114192e+001
1.126395e+003, 7.164137e+001
1.126877e+003, 7.222962e+001
1.127359e+003, 7.187859e+001
1.127841e+003, 7.094253e+001
1.128323e+003, 7.040844e+001
1.128805e+003, 7.117895e+001
1.129287e+003, 7.159173e+001
1.129770e+003, 7.125701e+001
1.130252e+003, 7.077711e+001
1.130734e+003, 7.081616e+001
1.131216e+003, 7.121204e+001
1.131698e+003, 7.121214e+001
1.132180e+003, 7.086052e+001
1.132662e+003, 7.071017e+001
1.133144e+003, 7.148014e+001
1.133626e+003, 7.197407e+001
1.134109e+003, 7.148489e+001
1.134591e+003, 7.070255e+001
1.135073e+003, 7.082883e+001
1.135555e+003, 7.175842e+001
1.136037e+003, 7.213631e+001
1.136519e+003, 7.179716e+001
1.137001e+003, 7.149376e+001
1.137483e+003, 7.175883e+001
1.137965e+003, 7.224442e+001
1.138448e+003, 7.298513e+001
1.138930e+003, 7.375018e+001
1.139412e+003, 7.368873e+001
1.139894e+003, 7.274702e+001
1.140376e+003, 7.207687e+001
1.140858e+003, 7.192426e+001
1.141340e+003, 7.206443e+001
1.141822e+003, 7.247633e+001
1.142304e+003, 7.294388e+001
1.142787e+003, 7.331937e+001
1.143269e+003, 7.357784e+001
1.143751e+003, 7.350061e+001
1.144233e+003, 7.298274e+001
1.144715e+003, 7.273594e+001
1.145197e+003, 7.309422e+001
1.145679e+003, 7.361395e+001
1.146161e+003, 7.373782e+001
1.146644e+003, 7.366170e+001
1.147126e+003, 7.363503e+001
1.147608e+003, 7.370911e+001
1.148090e+003, 7.382096e+001
1.148572e+003, 7.399886e+001
1.149054e+003, 7.410572e+001
1.149536e+003, 7.397414e+001
1.150018e+003, 7.384740e+001
1.150500e+003, 7.434428e+001
1.150983e+003, 7.512976e+001
1.151465e+003, 7.553114e+001
1.151947e+003, 7.519176e+001
1.152429e+003, 7.476168e+001
1.152911e+003, 7.413222e+001
1.153393e+003, 7.375865e+001
1.153875e+003, 7.410133e+001
1.154357e+003, 7.488150e+001
1.154840e+003, 7.542779e+001
1.155322e+003, 7.575971e+001
1.155804e+003, 7.591570e+001
1.156286e+003, 7.566019e+001
1.156768e+003, 7.560302e+001
1.157250e+003, 7.587934e+001
1.157732e+003, 7.628398e+001
1.158214e+003, 7.666447e+001
1.158697e+003, 7.701302e+001
1.159179e+003, 7.726366e+001
1.159661e+003, 7.743366e+001
1.160143e+003, 7.762385e+001
1.160625e+003, 7.784327e+001
1.161107e+003, 7.815181e+001
1.161589e+003, 7.866096e+001
1.162071e+003, 7.917064e+001
1.162553e+003, 7.933727e+001
1.163036e+003, 7.923832e+001
1.163518e+003, 7.948162e+001
1.164000e+003, 8.009201e+001
1.164482e+003, 8.070500e+001
1.164964e+003, 8.092800e+001
1.165446e+003, 8.130532e+001
1.165928e+003, 8.232775e+001
1.166410e+003, 8.353798e+001
1.166892e+003, 8.397166e+001
1.167375e+003, 8.369703e+001
1.167857e+003, 8.356792e+001
1.168339e+003, 8.368328e+001
1.168821e+003, 8.425138e+001
1.169303e+003, 8.595362e+001
1.169785e+003, 8.765170e+001
1.170267e+003, 8.843628e+001
1.170749e+003, 8.866777e+001
1.171231e+003, 8.948852e+001
1.171714e+003, 9.089343e+001
1.172196e+003, 9.177768e+001
1.172678e+003, 9.183321e+001
1.173160e+003, 9.181980e+001
1.173642e+003, 9.225253e+001
1.174124e+003, 9.298021e+001
1.174606e+003, 9.402640e+001
1.175088e+003, 9.529744e+001
1.175571e+003, 9.619494e+001
1.176053e+003, 9.669904e+001
1.176535e+003, 9.738457e+001
1.177017e+003, 9.844324e+001
1.177499e+003, 9.966210e+001
1.177981e+003, 1.011229e+002
1.178463e+003, 1.024417e+002
1.178945e+003, 1.030500e+002
1.179427e+003, 1.029388e+002
1.179910e+003, 1.036866e+002
1.180392e+003, 1.054292e+002
1.180874e+003, 1.066575e+002
1.181356e+003, 1.065785e+002
1.181838e+003, 1.063000e+002
1.182320e+003, 1.071718e+002
1.182802e+003, 1.084146e+002
1.183284e+003, 1.091012e+002
1.183767e+003, 1.090904e+002
1.184249e+003, 1.089076e+002
1.184731e+003, 1.084843e+002
1.185213e+003, 1.083868e+002
1.185695e+003, 1.091193e+002
1.186177e+003, 1.099404e+002
1.186659e+003, 1.098437e+002
1.187141e+003, 1.093411e+002
1.187624e+003, 1.092338e+002
1.188106e+003, 1.098768e+002
1.188588e+003, 1.098155e+002
1.189070e+003, 1.089157e+002
1.189552e+003, 1.081050e+002
1.190034e+003, 1.081359e+002
1.190516e+003, 1.083080e+002
1.190998e+003, 1.076956e+002
1.191480e+003, 1.066182e+002
1.191963e+003, 1.055984e+002
1.192445e+003, 1.047290e+002
1.192927e+003, 1.039182e+002
1.193409e+003, 1.031481e+002
1.193891e+003, 1.025027e+002
1.194373e+003, 1.020890e+002
1.194855e+003, 1.017830e+002
1.195337e+003, 1.016096e+002
1.195819e+003, 1.013807e+002
1.196302e+003, 1.006399e+002
1.196784e+003, 9.883931e+001
1.197266e+003, 9.770727e+001
1.197748e+003, 9.740495e+001
1.198230e+003, 9.721457e+001
1.198712e+003, 9.649666e+001
1.199194e+003, 9.560243e+001
1.199676e+003, 9.520393e+001
1.200158e+003, 9.502141e+001
1.200641e+003, 9.419303e+001
1.201123e+003, 9.186794e+001
1.201605e+003, 9.078089e+001
1.202087e+003, 9.134809e+001
1.202569e+003, 9.205346e+001
1.203051e+003, 9.135461e+001
1.203533e+003, 9.009423e+001
1.204015e+003, 8.939126e+001
1.204498e+003, 8.911388e+001
1.204980e+003, 8.860570e+001
1.205462e+003, 8.740463e+001
1.205944e+003, 8.696376e+001
1.206426e+003, 8.759105e+001
1.206908e+003, 8.824353e+001
1.207390e+003, 8.773031e+001
1.207872e+003, 8.674192e+001
1.208354e+003, 8.608639e+001
1.208837e+003, 8.576276e+001
1.209319e+003, 8.560205e+001
1.209801e+003, 8.567167e+001
1.210283e+003, 8.562375e+001
1.210765e+003, 8.540127e+001
1.211247e+003, 8.510781e+001
1.211729e+003, 8.497447e+001
1.212211e+003, 8.474831e+001
1.212694e+003, 8.382818e+001
1.213176e+003, 8.241148e+001
1.213658e+003, 8.188876e+001
1.214140e+003, 8.271359e+001
1.214622e+003, 8.337024e+001
1.215104e+003, 8.369259e+001
1.215586e+003, 8.358984e+001
1.216068e+003, 8.255064e+001
1.216551e+003, 8.130891e+001
1.217033e+003, 8.072786e+001
1.217515e+003, 8.082047e+001
1.217997e+003, 8.124224e+001
1.218479e+003, 8.219370e+001
1.218961e+003, 8.260595e+001
1.219443e+003, 8.224628e+001
1.219925e+003, 8.153559e+001
1.220407e+003, 8.064333e+001
1.220890e+003, 7.987128e+001
1.221372e+003, 7.960058e+001
1.221854e+003, 7.983440e+001
1.222336e+003, 8.023019e+001
1.222818e+003, 8.090603e+001
1.223300e+003, 8.111098e+001
1.223782e+003, 8.060561e+001
1.224264e+003, 8.002471e+001
1.224746e+003, 8.013969e+001
1.225229e+003, 8.049569e+001
1.225711e+003, 8.065662e+001
1.226193e+003, 8.058283e+001
1.226675e+003, 8.037070e+001
1.227157e+003, 7.995985e+001
1.227639e+003, 7.978548e+001
1.228121e+003, 7.998656e+001
1.228603e+003, 8.022095e+001
1.229085e+003, 7.993226e+001
1.229568e+003, 7.964722e+001
1.230050e+003, 8.008958e+001
1.230532e+003, 8.114401e+001
1.231014e+003, 8.137273e+001
1.231496e+003, 8.066634e+001
1.231978e+003, 8.009680e+001
1.232460e+003, 7.990352e+001
1.232942e+003, 7.992955e+001
1.233425e+003, 8.021085e+001
1.233907e+003, 8.048968e+001
1.234389e+003, 8.047022e+001
1.234871e+003, 8.021592e+001
1.235353e+003, 8.013653e+001
1.235835e+003, 8.023179e+001
1.236317e+003, 8.059473e+001
1.236799e+003, 8.132103e+001
1.237281e+003, 8.190795e+001
1.237764e+003, 8.160957e+001
1.238246e+003, 8.128029e+001
1.238728e+003, 8.181609e+001
1.239210e+003, 8.292947e+001
1.239692e+003, 8.324609e+001
1.240174e+003, 8.280518e+001
1.240656e+003, 8.285380e+001
1.241138e+003, 8.378193e+001
1.241621e+003, 8.465718e+001
1.242103e+003, 8.453853e+001
1.242585e+003, 8.436608e+001
1.243067e+003, 8.487464e+001
1.243549e+003, 8.581039e+001
1.244031e+003, 8.612025e+001
1.244513e+003, 8.591150e+001
1.244995e+003, 8.607259e+001
1.245478e+003, 8.687387e+001
1.245960e+003, 8.766451e+001
1.246442e+003, 8.796050e+001
1.246924e+003, 8.823277e+001
1.247406e+003, 8.869490e+001
1.247888e+003, 8.934628e+001
1.248370e+003, 9.027027e+001
1.248852e+003, 9.137798e+001
1.249334e+003, 9.228922e+001
1.249817e+003, 9.288589e+001
1.250299e+003, 9.347413e+001
1.250781e+003, 9.417930e+001
1.251263e+003, 9.492017e+001
1.251745e+003, 9.556945e+001
1.252227e+003, 9.631939e+001
1.252709e+003, 9.795142e+001
1.253191e+003, 1.000677e+002
1.253673e+003, 1.014956e+002
1.254156e+003, 1.019402e+002
1.254638e+003, 1.021718e+002
1.255120e+003, 1.020215e+002
1.255602e+003, 1.023520e+002
1.256084e+003, 1.035565e+002
1.256566e+003, 1.052569e+002
1.257048e+003, 1.068434e+002
1.257530e+003, 1.083106e+002
1.258012e+003, 1.096192e+002
1.258495e+003, 1.107641e+002
1.258977e+003, 1.117974e+002
1.259459e+003, 1.127299e+002
1.259941e+003, 1.136122e+002
1.260423e+003, 1.145694e+002
1.260905e+003, 1.152461e+002
1.261387e+003, 1.147359e+002
1.261869e+003, 1.137443e+002
1.262352e+003, 1.133662e+002
1.262834e+003, 1.138052e+002
1.263316e+003, 1.140431e+002
1.263798e+003, 1.140006e+002
1.264280e+003, 1.138390e+002
1.264762e+003, 1.135773e+002
1.265244e+003, 1.133072e+002
1.265726e+003, 1.132223e+002
1.266208e+003, 1.131342e+002
1.266691e+003, 1.127660e+002
1.267173e+003, 1.121059e+002
1.267655e+003, 1.117657e+002
1.268137e+003, 1.118375e+002
1.268619e+003, 1.113277e+002
1.269101e+003, 1.097949e+002
1.269583e+003, 1.084375e+002
1.270065e+003, 1.086812e+002
1.270548e+003, 1.093637e+002
1.271030e+003, 1.094204e+002
1.271512e+003, 1.089815e+002
1.271994e+003, 1.087529e+002
1.272476e+003, 1.087285e+002
1.272958e+003, 1.085299e+002
1.273440e+003, 1.080466e+002
1.273922e+003, 1.075997e+002
1.274405e+003, 1.074697e+002
1.274887e+003, 1.073957e+002
1.275369e+003, 1.071084e+002
1.275851e+003, 1.068095e+002
1.276333e+003, 1.072513e+002
1.276815e+003, 1.082431e+002
1.277297e+003, 1.087612e+002
1.277779e+003, 1.085844e+002
1.278261e+003, 1.083787e+002
1.278744e+003, 1.085260e+002
1.279226e+003, 1.086580e+002
1.279708e+003, 1.086459e+002
1.280190e+003, 1.085312e+002
1.280672e+003, 1.083632e+002
1.281154e+003, 1.081625e+002
1.281636e+003, 1.079798e+002
1.282118e+003, 1.078197e+002
1.282600e+003, 1.076852e+002
1.283083e+003, 1.076232e+002
1.283565e+003, 1.075274e+002
1.284047e+003, 1.074259e+002
1.284529e+003, 1.071591e+002
1.285011e+003, 1.063457e+002
1.285493e+003, 1.052985e+002
1.285975e+003, 1.044495e+002
1.286457e+003, 1.038525e+002
1.286939e+003, 1.035662e+002
1.287422e+003, 1.036925e+002
1.287904e+003, 1.037314e+002
1.288386e+003, 1.035848e+002
1.288868e+003, 1.033566e+002
1.289350e+003, 1.030652e+002
1.289832e+003, 1.028228e+002
1.290314e+003, 1.028839e+002
1.290796e+003, 1.031109e+002
1.291279e+003, 1.027768e+002
1.291761e+003, 1.017831e+002
1.292243e+003, 1.013417e+002
1.292725e+003, 1.016607e+002
1.293207e+003, 1.018899e+002
1.293689e+003, 1.010097e+002
1.294171e+003, 1.001433e+002
1.294653e+003, 1.002971e+002
1.295135e+003, 1.008631e+002
1.295618e+003, 1.007737e+002
1.296100e+003, 1.001010e+002
1.296582e+003, 9.948721e+001
1.297064e+003, 9.901071e+001
1.297546e+003, 9.874699e+001
1.298028e+003, 9.874866e+001
1.298510e+003, 9.897257e+001
1.298992e+003, 9.961126e+001
1.299475e+003, 1.001541e+002
1.299957e+003, 9.980831e+001
1.300439e+003, 9.885132e+001
1.300921e+003, 9.791875e+001
1.301403e+003, 9.712222e+001
1.301885e+003, 9.669029e+001
##END=



