##NAMES=Sussexite
##RRUFFID=R130121
##IDEAL CHEMISTRY=Mn^2+^BO_2_(OH)
##LOCALITY=Mine Hill, Franklin, Sussex County, New Jersey, USA
##OWNER=RRUFF
##SOURCE=Rock Currier
##DESCRIPTION=Pink massive
##STATUS=The identification of this mineral has been confirmed by X-ray diffraction.
##URL=rruff.info/R130121
8.975323e+001, 0.000000e+000
9.023535e+001, 3.718549e+002
9.071747e+001, 3.731406e+002
9.119958e+001, 3.721800e+002
9.168170e+001, 3.732325e+002
9.216382e+001, 3.722562e+002
9.264594e+001, 3.701022e+002
9.312805e+001, 3.682291e+002
9.361017e+001, 3.667358e+002
9.409229e+001, 3.635644e+002
9.457440e+001, 3.567849e+002
9.505651e+001, 3.516394e+002
9.553863e+001, 3.487723e+002
9.602074e+001, 3.472427e+002
9.650286e+001, 3.463791e+002
9.698498e+001, 3.456770e+002
9.746709e+001, 3.443695e+002
9.794921e+001, 3.428690e+002
9.843133e+001, 3.419959e+002
9.891344e+001, 3.402499e+002
9.939556e+001, 3.368208e+002
9.987768e+001, 3.320782e+002
1.003598e+002, 3.270810e+002
1.008419e+002, 3.222802e+002
1.013240e+002, 3.177231e+002
1.018061e+002, 3.134774e+002
1.022883e+002, 3.094258e+002
1.027704e+002, 3.056755e+002
1.032525e+002, 3.024633e+002
1.037346e+002, 2.998524e+002
1.042167e+002, 2.972704e+002
1.046988e+002, 2.943970e+002
1.051810e+002, 2.912215e+002
1.056631e+002, 2.876797e+002
1.061452e+002, 2.839199e+002
1.066273e+002, 2.797879e+002
1.071094e+002, 2.745530e+002
1.075915e+002, 2.674343e+002
1.080737e+002, 2.600374e+002
1.085558e+002, 2.528817e+002
1.090379e+002, 2.459778e+002
1.095200e+002, 2.393405e+002
1.100021e+002, 2.329465e+002
1.104842e+002, 2.268025e+002
1.109664e+002, 2.210239e+002
1.114485e+002, 2.156353e+002
1.119306e+002, 2.105343e+002
1.124127e+002, 2.056905e+002
1.128948e+002, 2.011096e+002
1.133769e+002, 1.967524e+002
1.138591e+002, 1.926055e+002
1.143412e+002, 1.885563e+002
1.148233e+002, 1.849444e+002
1.153054e+002, 1.819628e+002
1.157875e+002, 1.792883e+002
1.162696e+002, 1.765810e+002
1.167517e+002, 1.737031e+002
1.172339e+002, 1.708055e+002
1.177160e+002, 1.683049e+002
1.181981e+002, 1.662666e+002
1.186802e+002, 1.643466e+002
1.191623e+002, 1.624953e+002
1.196444e+002, 1.606967e+002
1.201266e+002, 1.588804e+002
1.206087e+002, 1.569817e+002
1.210908e+002, 1.550916e+002
1.215729e+002, 1.533815e+002
1.220550e+002, 1.519514e+002
1.225371e+002, 1.505291e+002
1.230193e+002, 1.488176e+002
1.235014e+002, 1.467614e+002
1.239835e+002, 1.448555e+002
1.244656e+002, 1.435565e+002
1.249477e+002, 1.424660e+002
1.254298e+002, 1.412021e+002
1.259120e+002, 1.395780e+002
1.263941e+002, 1.377980e+002
1.268762e+002, 1.363529e+002
1.273583e+002, 1.353989e+002
1.278404e+002, 1.345447e+002
1.283225e+002, 1.337457e+002
1.288047e+002, 1.329372e+002
1.292868e+002, 1.320367e+002
1.297689e+002, 1.309840e+002
1.302510e+002, 1.297888e+002
1.307331e+002, 1.285914e+002
1.312152e+002, 1.273779e+002
1.316974e+002, 1.261676e+002
1.321795e+002, 1.249311e+002
1.326616e+002, 1.236969e+002
1.331437e+002, 1.225305e+002
1.336258e+002, 1.214820e+002
1.341079e+002, 1.205543e+002
1.345901e+002, 1.197417e+002
1.350722e+002, 1.191250e+002
1.355543e+002, 1.185336e+002
1.360364e+002, 1.178364e+002
1.365185e+002, 1.170354e+002
1.370006e+002, 1.162738e+002
1.374828e+002, 1.157607e+002
1.379649e+002, 1.155745e+002
1.384470e+002, 1.151997e+002
1.389291e+002, 1.144622e+002
1.394112e+002, 1.135782e+002
1.398933e+002, 1.127877e+002
1.403755e+002, 1.121467e+002
1.408576e+002, 1.115999e+002
1.413397e+002, 1.111597e+002
1.418218e+002, 1.108235e+002
1.423039e+002, 1.103347e+002
1.427860e+002, 1.092551e+002
1.432681e+002, 1.078586e+002
1.437503e+002, 1.072385e+002
1.442324e+002, 1.082222e+002
1.447145e+002, 1.093880e+002
1.451966e+002, 1.094256e+002
1.456787e+002, 1.083232e+002
1.461608e+002, 1.069382e+002
1.466430e+002, 1.059613e+002
1.471251e+002, 1.054259e+002
1.476072e+002, 1.049606e+002
1.480893e+002, 1.045241e+002
1.485714e+002, 1.041200e+002
1.490535e+002, 1.037510e+002
1.495357e+002, 1.034195e+002
1.500178e+002, 1.031250e+002
1.504999e+002, 1.028801e+002
1.509820e+002, 1.027224e+002
1.514641e+002, 1.025271e+002
1.519462e+002, 1.022482e+002
1.524284e+002, 1.019535e+002
1.529105e+002, 1.017503e+002
1.533926e+002, 1.016707e+002
1.538747e+002, 1.015849e+002
1.543568e+002, 1.011554e+002
1.548389e+002, 9.970733e+001
1.553211e+002, 9.873171e+001
1.558032e+002, 9.853559e+001
1.562853e+002, 9.877151e+001
1.567674e+002, 9.906846e+001
1.572495e+002, 9.925052e+001
1.577316e+002, 9.931883e+001
1.582138e+002, 9.926350e+001
1.586959e+002, 9.891600e+001
1.591780e+002, 9.865023e+001
1.596601e+002, 9.867477e+001
1.601422e+002, 9.885962e+001
1.606243e+002, 9.886989e+001
1.611065e+002, 9.845165e+001
1.615886e+002, 9.774969e+001
1.620707e+002, 9.741668e+001
1.625528e+002, 9.776894e+001
1.630349e+002, 9.815605e+001
1.635170e+002, 9.805893e+001
1.639991e+002, 9.754410e+001
1.644813e+002, 9.729910e+001
1.649634e+002, 9.796165e+001
1.654455e+002, 9.915515e+001
1.659276e+002, 9.997629e+001
1.664097e+002, 1.001422e+002
1.668918e+002, 1.000519e+002
1.673740e+002, 1.001841e+002
1.678561e+002, 1.006052e+002
1.683382e+002, 1.009309e+002
1.688203e+002, 1.007443e+002
1.693024e+002, 1.003696e+002
1.697845e+002, 1.002107e+002
1.702667e+002, 1.004647e+002
1.707488e+002, 1.009999e+002
1.712309e+002, 1.015435e+002
1.717130e+002, 1.021609e+002
1.721951e+002, 1.026528e+002
1.726772e+002, 1.028203e+002
1.731594e+002, 1.028614e+002
1.736415e+002, 1.030778e+002
1.741236e+002, 1.036969e+002
1.746057e+002, 1.046297e+002
1.750878e+002, 1.053136e+002
1.755699e+002, 1.054204e+002
1.760521e+002, 1.056404e+002
1.765342e+002, 1.061759e+002
1.770163e+002, 1.069514e+002
1.774984e+002, 1.078394e+002
1.779805e+002, 1.087884e+002
1.784626e+002, 1.098027e+002
1.789448e+002, 1.104826e+002
1.794269e+002, 1.103927e+002
1.799090e+002, 1.103985e+002
1.803911e+002, 1.107739e+002
1.808732e+002, 1.114703e+002
1.813553e+002, 1.123004e+002
1.818375e+002, 1.131145e+002
1.823196e+002, 1.139107e+002
1.828017e+002, 1.147009e+002
1.832838e+002, 1.155150e+002
1.837659e+002, 1.162978e+002
1.842480e+002, 1.170808e+002
1.847301e+002, 1.178304e+002
1.852123e+002, 1.184077e+002
1.856944e+002, 1.186411e+002
1.861765e+002, 1.184640e+002
1.866586e+002, 1.184968e+002
1.871407e+002, 1.188861e+002
1.876228e+002, 1.193702e+002
1.881050e+002, 1.197541e+002
1.885871e+002, 1.200168e+002
1.890692e+002, 1.202783e+002
1.895513e+002, 1.207241e+002
1.900334e+002, 1.213341e+002
1.905155e+002, 1.216466e+002
1.909977e+002, 1.212958e+002
1.914798e+002, 1.207674e+002
1.919619e+002, 1.206947e+002
1.924440e+002, 1.212287e+002
1.929261e+002, 1.217962e+002
1.934082e+002, 1.216996e+002
1.938904e+002, 1.211457e+002
1.943725e+002, 1.207535e+002
1.948546e+002, 1.208023e+002
1.953367e+002, 1.211240e+002
1.958188e+002, 1.213839e+002
1.963009e+002, 1.215241e+002
1.967831e+002, 1.216752e+002
1.972652e+002, 1.219611e+002
1.977473e+002, 1.223379e+002
1.982294e+002, 1.226887e+002
1.987115e+002, 1.229836e+002
1.991936e+002, 1.232124e+002
1.996758e+002, 1.233525e+002
2.001579e+002, 1.235134e+002
2.006400e+002, 1.233931e+002
2.011221e+002, 1.226310e+002
2.016042e+002, 1.214730e+002
2.020863e+002, 1.205423e+002
2.025685e+002, 1.205082e+002
2.030506e+002, 1.212807e+002
2.035327e+002, 1.212700e+002
2.040148e+002, 1.196570e+002
2.044969e+002, 1.180565e+002
2.049790e+002, 1.170882e+002
2.054612e+002, 1.166393e+002
2.059433e+002, 1.163455e+002
2.064254e+002, 1.159517e+002
2.069075e+002, 1.154589e+002
2.073896e+002, 1.148392e+002
2.078717e+002, 1.139173e+002
2.083539e+002, 1.130207e+002
2.088360e+002, 1.122771e+002
2.093181e+002, 1.116562e+002
2.098002e+002, 1.110441e+002
2.102823e+002, 1.103217e+002
2.107644e+002, 1.094608e+002
2.112466e+002, 1.087858e+002
2.117287e+002, 1.085602e+002
2.122108e+002, 1.082611e+002
2.126929e+002, 1.075877e+002
2.131750e+002, 1.066243e+002
2.136571e+002, 1.056817e+002
2.141393e+002, 1.050557e+002
2.146214e+002, 1.048036e+002
2.151035e+002, 1.044758e+002
2.155856e+002, 1.039263e+002
2.160677e+002, 1.034448e+002
2.165498e+002, 1.032397e+002
2.170320e+002, 1.032682e+002
2.175141e+002, 1.032910e+002
2.179962e+002, 1.030798e+002
2.184783e+002, 1.025960e+002
2.189604e+002, 1.022124e+002
2.194425e+002, 1.018465e+002
2.199247e+002, 1.016282e+002
2.204068e+002, 1.017367e+002
2.208889e+002, 1.021316e+002
2.213710e+002, 1.025311e+002
2.218531e+002, 1.027536e+002
2.223352e+002, 1.027599e+002
2.228174e+002, 1.023395e+002
2.232995e+002, 1.010409e+002
2.237816e+002, 9.964977e+001
2.242637e+002, 9.877950e+001
2.247458e+002, 9.845005e+001
2.252279e+002, 9.828339e+001
2.257100e+002, 9.803207e+001
2.261922e+002, 9.768696e+001
2.266743e+002, 9.724847e+001
2.271564e+002, 9.649051e+001
2.276385e+002, 9.578030e+001
2.281206e+002, 9.553690e+001
2.286027e+002, 9.579203e+001
2.290849e+002, 9.610491e+001
2.295670e+002, 9.615723e+001
2.300491e+002, 9.601907e+001
2.305312e+002, 9.588943e+001
2.310133e+002, 9.595537e+001
2.314954e+002, 9.595744e+001
2.319776e+002, 9.552634e+001
2.324597e+002, 9.460290e+001
2.329418e+002, 9.366056e+001
2.334239e+002, 9.291234e+001
2.339060e+002, 9.235705e+001
2.343881e+002, 9.205505e+001
2.348703e+002, 9.223309e+001
2.353524e+002, 9.249250e+001
2.358345e+002, 9.220074e+001
2.363166e+002, 9.120572e+001
2.367987e+002, 9.028286e+001
2.372808e+002, 8.987508e+001
2.377630e+002, 8.974691e+001
2.382451e+002, 8.970555e+001
2.387272e+002, 8.977876e+001
2.392093e+002, 8.978686e+001
2.396914e+002, 8.937015e+001
2.401735e+002, 8.836667e+001
2.406557e+002, 8.745248e+001
2.411378e+002, 8.680294e+001
2.416199e+002, 8.639925e+001
2.421020e+002, 8.633482e+001
2.425841e+002, 8.671919e+001
2.430662e+002, 8.721415e+001
2.435484e+002, 8.716593e+001
2.440305e+002, 8.631480e+001
2.445126e+002, 8.563155e+001
2.449947e+002, 8.537476e+001
2.454768e+002, 8.538656e+001
2.459589e+002, 8.567547e+001
2.464410e+002, 8.627186e+001
2.469232e+002, 8.681998e+001
2.474053e+002, 8.661495e+001
2.478874e+002, 8.524293e+001
2.483695e+002, 8.409879e+001
2.488516e+002, 8.339445e+001
2.493337e+002, 8.299789e+001
2.498159e+002, 8.287821e+001
2.502980e+002, 8.301659e+001
2.507801e+002, 8.329550e+001
2.512622e+002, 8.358813e+001
2.517443e+002, 8.411272e+001
2.522264e+002, 8.410944e+001
2.527086e+002, 8.306734e+001
2.531907e+002, 8.185286e+001
2.536728e+002, 8.107322e+001
2.541549e+002, 8.088162e+001
2.546370e+002, 8.101405e+001
2.551191e+002, 8.107821e+001
2.556013e+002, 8.102104e+001
2.560834e+002, 8.101062e+001
2.565655e+002, 8.105154e+001
2.570476e+002, 8.112905e+001
2.575297e+002, 8.124853e+001
2.580118e+002, 8.140365e+001
2.584940e+002, 8.156624e+001
2.589761e+002, 8.169685e+001
2.594582e+002, 8.177906e+001
2.599403e+002, 8.187009e+001
2.604224e+002, 8.198177e+001
2.609045e+002, 8.209235e+001
2.613867e+002, 8.220258e+001
2.618688e+002, 8.230489e+001
2.623509e+002, 8.236970e+001
2.628330e+002, 8.235051e+001
2.633151e+002, 8.219242e+001
2.637972e+002, 8.215920e+001
2.642794e+002, 8.228350e+001
2.647615e+002, 8.247739e+001
2.652436e+002, 8.275910e+001
2.657257e+002, 8.308709e+001
2.662078e+002, 8.333278e+001
2.666899e+002, 8.334717e+001
2.671721e+002, 8.306664e+001
2.676542e+002, 8.297103e+001
2.681363e+002, 8.315883e+001
2.686184e+002, 8.340001e+001
2.691005e+002, 8.360354e+001
2.695826e+002, 8.376135e+001
2.700648e+002, 8.389719e+001
2.705469e+002, 8.403318e+001
2.710290e+002, 8.416998e+001
2.715111e+002, 8.424809e+001
2.719932e+002, 8.425629e+001
2.724753e+002, 8.423091e+001
2.729575e+002, 8.419510e+001
2.734396e+002, 8.413981e+001
2.739217e+002, 8.400939e+001
2.744038e+002, 8.373248e+001
2.748859e+002, 8.334428e+001
2.753680e+002, 8.330948e+001
2.758501e+002, 8.393199e+001
2.763322e+002, 8.448949e+001
2.768144e+002, 8.474123e+001
2.772965e+002, 8.474596e+001
2.777786e+002, 8.462193e+001
2.782607e+002, 8.440540e+001
2.787428e+002, 8.414890e+001
2.792249e+002, 8.409335e+001
2.797071e+002, 8.436210e+001
2.801892e+002, 8.464097e+001
2.806713e+002, 8.493028e+001
2.811534e+002, 8.516886e+001
2.816355e+002, 8.518665e+001
2.821176e+002, 8.486944e+001
2.825998e+002, 8.442400e+001
2.830819e+002, 8.445232e+001
2.835640e+002, 8.541837e+001
2.840461e+002, 8.592588e+001
2.845282e+002, 8.519631e+001
2.850103e+002, 8.396676e+001
2.854925e+002, 8.339558e+001
2.859746e+002, 8.390646e+001
2.864567e+002, 8.490241e+001
2.869388e+002, 8.540293e+001
2.874209e+002, 8.533834e+001
2.879030e+002, 8.508278e+001
2.883852e+002, 8.452635e+001
2.888673e+002, 8.387249e+001
2.893494e+002, 8.338779e+001
2.898315e+002, 8.313621e+001
2.903136e+002, 8.296932e+001
2.907957e+002, 8.272975e+001
2.912779e+002, 8.242197e+001
2.917600e+002, 8.198263e+001
2.922421e+002, 8.125532e+001
2.927242e+002, 8.047708e+001
2.932063e+002, 7.991800e+001
2.936884e+002, 7.960632e+001
2.941706e+002, 7.931313e+001
2.946527e+002, 7.882669e+001
2.951348e+002, 7.813734e+001
2.956169e+002, 7.744637e+001
2.960990e+002, 7.674901e+001
2.965811e+002, 7.606069e+001
2.970633e+002, 7.536724e+001
2.975454e+002, 7.467921e+001
2.980275e+002, 7.407822e+001
2.985096e+002, 7.367748e+001
2.989917e+002, 7.341866e+001
2.994738e+002, 7.294736e+001
2.999560e+002, 7.207018e+001
3.004381e+002, 7.116576e+001
3.009202e+002, 7.043063e+001
3.014023e+002, 6.985087e+001
3.018844e+002, 6.934745e+001
3.023665e+002, 6.889626e+001
3.028487e+002, 6.847989e+001
3.033308e+002, 6.803111e+001
3.038129e+002, 6.746428e+001
3.042950e+002, 6.699709e+001
3.047771e+002, 6.684190e+001
3.052592e+002, 6.686846e+001
3.057414e+002, 6.672239e+001
3.062235e+002, 6.624148e+001
3.067056e+002, 6.558011e+001
3.071877e+002, 6.501442e+001
3.076698e+002, 6.452007e+001
3.081519e+002, 6.415237e+001
3.086341e+002, 6.409000e+001
3.091162e+002, 6.413474e+001
3.095983e+002, 6.386609e+001
3.100804e+002, 6.311500e+001
3.105625e+002, 6.231413e+001
3.110446e+002, 6.215371e+001
3.115268e+002, 6.265620e+001
3.120089e+002, 6.293772e+001
3.124910e+002, 6.262555e+001
3.129731e+002, 6.209521e+001
3.134552e+002, 6.182298e+001
3.139373e+002, 6.188572e+001
3.144195e+002, 6.197876e+001
3.149016e+002, 6.181118e+001
3.153837e+002, 6.139474e+001
3.158658e+002, 6.100594e+001
3.163479e+002, 6.058640e+001
3.168300e+002, 6.025907e+001
3.173121e+002, 6.020202e+001
3.177943e+002, 6.039454e+001
3.182764e+002, 6.052832e+001
3.187585e+002, 6.034077e+001
3.192406e+002, 5.993354e+001
3.197227e+002, 5.979370e+001
3.202048e+002, 6.026878e+001
3.206870e+002, 6.065863e+001
3.211691e+002, 6.049546e+001
3.216512e+002, 5.990621e+001
3.221333e+002, 5.932576e+001
3.226154e+002, 5.894494e+001
3.230975e+002, 5.871375e+001
3.235797e+002, 5.851183e+001
3.240618e+002, 5.833212e+001
3.245439e+002, 5.818624e+001
3.250260e+002, 5.801866e+001
3.255081e+002, 5.789508e+001
3.259902e+002, 5.800884e+001
3.264724e+002, 5.847718e+001
3.269545e+002, 5.898875e+001
3.274366e+002, 5.899240e+001
3.279187e+002, 5.840696e+001
3.284008e+002, 5.791296e+001
3.288829e+002, 5.759306e+001
3.293651e+002, 5.744875e+001
3.298472e+002, 5.756959e+001
3.303293e+002, 5.797111e+001
3.308114e+002, 5.835316e+001
3.312935e+002, 5.838152e+001
3.317756e+002, 5.802093e+001
3.322578e+002, 5.779893e+001
3.327399e+002, 5.788834e+001
3.332220e+002, 5.800331e+001
3.337041e+002, 5.790264e+001
3.341862e+002, 5.760349e+001
3.346683e+002, 5.730271e+001
3.351505e+002, 5.711718e+001
3.356326e+002, 5.705386e+001
3.361147e+002, 5.711244e+001
3.365968e+002, 5.730449e+001
3.370789e+002, 5.758882e+001
3.375610e+002, 5.810632e+001
3.380432e+002, 5.871008e+001
3.385253e+002, 5.899367e+001
3.390074e+002, 5.871492e+001
3.394895e+002, 5.813118e+001
3.399716e+002, 5.795908e+001
3.404537e+002, 5.841027e+001
3.409359e+002, 5.881697e+001
3.414180e+002, 5.902397e+001
3.419001e+002, 5.912891e+001
3.423822e+002, 5.929437e+001
3.428643e+002, 5.956676e+001
3.433464e+002, 5.977605e+001
3.438286e+002, 5.964411e+001
3.443107e+002, 5.894170e+001
3.447928e+002, 5.859090e+001
3.452749e+002, 5.888119e+001
3.457570e+002, 5.932983e+001
3.462391e+002, 5.952053e+001
3.467213e+002, 5.944897e+001
3.472034e+002, 5.946574e+001
3.476855e+002, 5.995468e+001
3.481676e+002, 6.096107e+001
3.486497e+002, 6.131000e+001
3.491318e+002, 6.040492e+001
3.496140e+002, 5.956043e+001
3.500961e+002, 5.940779e+001
3.505782e+002, 5.976397e+001
3.510603e+002, 6.014832e+001
3.515424e+002, 6.028625e+001
3.520245e+002, 6.022664e+001
3.525067e+002, 6.017547e+001
3.529888e+002, 6.021620e+001
3.534709e+002, 6.016250e+001
3.539530e+002, 5.979643e+001
3.544351e+002, 5.940048e+001
3.549172e+002, 5.940252e+001
3.553994e+002, 5.993556e+001
3.558815e+002, 6.060955e+001
3.563636e+002, 6.073533e+001
3.568457e+002, 5.983038e+001
3.573278e+002, 5.935705e+001
3.578099e+002, 5.966713e+001
3.582920e+002, 6.010265e+001
3.587741e+002, 6.022996e+001
3.592563e+002, 6.001079e+001
3.597384e+002, 5.964296e+001
3.602205e+002, 5.930608e+001
3.607026e+002, 5.899929e+001
3.611847e+002, 5.873400e+001
3.616668e+002, 5.847766e+001
3.621490e+002, 5.829314e+001
3.626311e+002, 5.821117e+001
3.631132e+002, 5.821636e+001
3.635953e+002, 5.829535e+001
3.640774e+002, 5.844806e+001
3.645595e+002, 5.864336e+001
3.650417e+002, 5.875489e+001
3.655238e+002, 5.885239e+001
3.660059e+002, 5.874571e+001
3.664880e+002, 5.813422e+001
3.669701e+002, 5.746035e+001
3.674522e+002, 5.726348e+001
3.679344e+002, 5.768372e+001
3.684165e+002, 5.825587e+001
3.688986e+002, 5.818435e+001
3.693807e+002, 5.710276e+001
3.698628e+002, 5.637952e+001
3.703449e+002, 5.628146e+001
3.708271e+002, 5.633957e+001
3.713092e+002, 5.634110e+001
3.717913e+002, 5.626804e+001
3.722734e+002, 5.619654e+001
3.727555e+002, 5.620227e+001
3.732376e+002, 5.628189e+001
3.737198e+002, 5.632115e+001
3.742019e+002, 5.634320e+001
3.746840e+002, 5.628710e+001
3.751661e+002, 5.610571e+001
3.756482e+002, 5.584552e+001
3.761303e+002, 5.557304e+001
3.766125e+002, 5.531403e+001
3.770946e+002, 5.507213e+001
3.775767e+002, 5.485042e+001
3.780588e+002, 5.464084e+001
3.785409e+002, 5.447532e+001
3.790230e+002, 5.432062e+001
3.795052e+002, 5.423692e+001
3.799873e+002, 5.435688e+001
3.804694e+002, 5.470048e+001
3.809515e+002, 5.496250e+001
3.814336e+002, 5.469429e+001
3.819157e+002, 5.391190e+001
3.823979e+002, 5.351209e+001
3.828800e+002, 5.390919e+001
3.833621e+002, 5.436377e+001
3.838442e+002, 5.433241e+001
3.843263e+002, 5.392219e+001
3.848084e+002, 5.353477e+001
3.852906e+002, 5.339242e+001
3.857727e+002, 5.342270e+001
3.862548e+002, 5.350639e+001
3.867369e+002, 5.369215e+001
3.872190e+002, 5.375296e+001
3.877011e+002, 5.345230e+001
3.881833e+002, 5.296992e+001
3.886654e+002, 5.253582e+001
3.891475e+002, 5.215877e+001
3.896296e+002, 5.190134e+001
3.901117e+002, 5.188020e+001
3.905938e+002, 5.206394e+001
3.910760e+002, 5.219728e+001
3.915581e+002, 5.216318e+001
3.920402e+002, 5.208702e+001
3.925223e+002, 5.220191e+001
3.930044e+002, 5.253924e+001
3.934865e+002, 5.269202e+001
3.939687e+002, 5.225509e+001
3.944508e+002, 5.161364e+001
3.949329e+002, 5.143618e+001
3.954150e+002, 5.184655e+001
3.958971e+002, 5.240102e+001
3.963792e+002, 5.277756e+001
3.968614e+002, 5.296064e+001
3.973435e+002, 5.296130e+001
3.978256e+002, 5.263190e+001
3.983077e+002, 5.224878e+001
3.987898e+002, 5.195372e+001
3.992719e+002, 5.175080e+001
3.997540e+002, 5.165533e+001
4.002361e+002, 5.170174e+001
4.007183e+002, 5.181708e+001
4.012004e+002, 5.177363e+001
4.016825e+002, 5.142072e+001
4.021646e+002, 5.119684e+001
4.026467e+002, 5.122526e+001
4.031288e+002, 5.140029e+001
4.036110e+002, 5.165824e+001
4.040931e+002, 5.196878e+001
4.045752e+002, 5.221409e+001
4.050573e+002, 5.224373e+001
4.055394e+002, 5.200603e+001
4.060215e+002, 5.179540e+001
4.065037e+002, 5.154127e+001
4.069858e+002, 5.137681e+001
4.074679e+002, 5.144764e+001
4.079500e+002, 5.166581e+001
4.084321e+002, 5.181724e+001
4.089142e+002, 5.176726e+001
4.093964e+002, 5.154955e+001
4.098785e+002, 5.131572e+001
4.103606e+002, 5.091370e+001
4.108427e+002, 5.070608e+001
4.113248e+002, 5.096753e+001
4.118069e+002, 5.129905e+001
4.122891e+002, 5.119513e+001
4.127712e+002, 5.057943e+001
4.132533e+002, 4.995845e+001
4.137354e+002, 5.014098e+001
4.142175e+002, 5.150103e+001
4.146996e+002, 5.215913e+001
4.151818e+002, 5.140038e+001
4.156639e+002, 5.058356e+001
4.161460e+002, 5.019309e+001
4.166281e+002, 5.016985e+001
4.171102e+002, 5.027489e+001
4.175923e+002, 5.037899e+001
4.180745e+002, 5.047646e+001
4.185566e+002, 5.056208e+001
4.190387e+002, 5.067827e+001
4.195208e+002, 5.068288e+001
4.200029e+002, 5.042781e+001
4.204850e+002, 5.010536e+001
4.209672e+002, 4.989534e+001
4.214493e+002, 4.984215e+001
4.219314e+002, 4.985102e+001
4.224135e+002, 4.986330e+001
4.228956e+002, 4.987427e+001
4.233777e+002, 4.975252e+001
4.238599e+002, 4.929489e+001
4.243420e+002, 4.896425e+001
4.248241e+002, 4.923327e+001
4.253062e+002, 4.993928e+001
4.257883e+002, 5.049186e+001
4.262704e+002, 5.057235e+001
4.267526e+002, 5.039093e+001
4.272347e+002, 5.020757e+001
4.277168e+002, 5.001740e+001
4.281989e+002, 4.993953e+001
4.286810e+002, 5.014643e+001
4.291631e+002, 5.044962e+001
4.296453e+002, 5.043274e+001
4.301274e+002, 4.996244e+001
4.306095e+002, 4.947179e+001
4.310916e+002, 4.907832e+001
4.315737e+002, 4.883054e+001
4.320558e+002, 4.889752e+001
4.325380e+002, 4.935556e+001
4.330201e+002, 4.987948e+001
4.335022e+002, 5.005636e+001
4.339843e+002, 4.981911e+001
4.344664e+002, 4.978313e+001
4.349485e+002, 5.028841e+001
4.354307e+002, 5.072847e+001
4.359128e+002, 5.053888e+001
4.363949e+002, 4.989665e+001
4.368770e+002, 4.948830e+001
4.373591e+002, 4.975548e+001
4.378412e+002, 5.047025e+001
4.383234e+002, 5.075706e+001
4.388055e+002, 5.010229e+001
4.392876e+002, 4.967326e+001
4.397697e+002, 4.966721e+001
4.402518e+002, 4.985304e+001
4.407339e+002, 5.002776e+001
4.412160e+002, 5.014441e+001
4.416982e+002, 5.027633e+001
4.421803e+002, 5.053942e+001
4.426624e+002, 5.099232e+001
4.431445e+002, 5.115110e+001
4.436266e+002, 5.063427e+001
4.441087e+002, 5.021603e+001
4.445909e+002, 5.023029e+001
4.450730e+002, 5.048612e+001
4.455551e+002, 5.063691e+001
4.460372e+002, 5.049427e+001
4.465193e+002, 5.020710e+001
4.470014e+002, 5.012645e+001
4.474836e+002, 5.034727e+001
4.479657e+002, 5.049118e+001
4.484478e+002, 5.027203e+001
4.489299e+002, 5.011480e+001
4.494120e+002, 5.043733e+001
4.498941e+002, 5.118789e+001
4.503763e+002, 5.178347e+001
4.508584e+002, 5.159964e+001
4.513405e+002, 5.085574e+001
4.518226e+002, 5.055592e+001
4.523047e+002, 5.091589e+001
4.527868e+002, 5.122645e+001
4.532690e+002, 5.089949e+001
4.537511e+002, 5.029890e+001
4.542332e+002, 4.995966e+001
4.547153e+002, 5.010367e+001
4.551974e+002, 5.031742e+001
4.556795e+002, 5.018318e+001
4.561617e+002, 4.980287e+001
4.566438e+002, 4.965115e+001
4.571259e+002, 4.992377e+001
4.576080e+002, 5.033814e+001
4.580901e+002, 5.050049e+001
4.585722e+002, 5.041262e+001
4.590544e+002, 5.041471e+001
4.595365e+002, 5.069930e+001
4.600186e+002, 5.100309e+001
4.605007e+002, 5.104720e+001
4.609828e+002, 5.086723e+001
4.614649e+002, 5.072511e+001
4.619471e+002, 5.077856e+001
4.624292e+002, 5.099539e+001
4.629113e+002, 5.124755e+001
4.633934e+002, 5.168750e+001
4.638755e+002, 5.196259e+001
4.643576e+002, 5.186332e+001
4.648398e+002, 5.167389e+001
4.653219e+002, 5.172569e+001
4.658040e+002, 5.206066e+001
4.662861e+002, 5.243064e+001
4.667682e+002, 5.255358e+001
4.672503e+002, 5.239690e+001
4.677325e+002, 5.231274e+001
4.682146e+002, 5.226861e+001
4.686967e+002, 5.233531e+001
4.691788e+002, 5.260371e+001
4.696609e+002, 5.297750e+001
4.701430e+002, 5.333410e+001
4.706252e+002, 5.362269e+001
4.711073e+002, 5.383158e+001
4.715894e+002, 5.393032e+001
4.720715e+002, 5.390258e+001
4.725536e+002, 5.383294e+001
4.730357e+002, 5.353268e+001
4.735179e+002, 5.337483e+001
4.740000e+002, 5.366006e+001
4.744821e+002, 5.430632e+001
4.749642e+002, 5.495099e+001
4.754463e+002, 5.532660e+001
4.759284e+002, 5.557225e+001
4.764106e+002, 5.603733e+001
4.768927e+002, 5.676572e+001
4.773748e+002, 5.742362e+001
4.778569e+002, 5.782211e+001
4.783390e+002, 5.807069e+001
4.788211e+002, 5.834828e+001
4.793033e+002, 5.867236e+001
4.797854e+002, 5.898377e+001
4.802675e+002, 5.921760e+001
4.807496e+002, 5.942720e+001
4.812317e+002, 5.974972e+001
4.817138e+002, 6.021625e+001
4.821959e+002, 6.063668e+001
4.826780e+002, 6.084800e+001
4.831602e+002, 6.084138e+001
4.836423e+002, 6.074683e+001
4.841244e+002, 6.049846e+001
4.846065e+002, 6.023999e+001
4.850886e+002, 6.005439e+001
4.855707e+002, 5.989197e+001
4.860529e+002, 5.965812e+001
4.865350e+002, 5.931734e+001
4.870171e+002, 5.891604e+001
4.874992e+002, 5.850959e+001
4.879813e+002, 5.798305e+001
4.884634e+002, 5.777843e+001
4.889456e+002, 5.829036e+001
4.894277e+002, 5.869361e+001
4.899098e+002, 5.847905e+001
4.903919e+002, 5.783337e+001
4.908740e+002, 5.723724e+001
4.913561e+002, 5.698559e+001
4.918383e+002, 5.696106e+001
4.923204e+002, 5.681522e+001
4.928025e+002, 5.643807e+001
4.932846e+002, 5.624590e+001
4.937667e+002, 5.650726e+001
4.942488e+002, 5.685423e+001
4.947310e+002, 5.705632e+001
4.952131e+002, 5.709905e+001
4.956952e+002, 5.709203e+001
4.961773e+002, 5.708205e+001
4.966594e+002, 5.708133e+001
4.971415e+002, 5.714680e+001
4.976237e+002, 5.730449e+001
4.981058e+002, 5.740490e+001
4.985879e+002, 5.730504e+001
4.990700e+002, 5.711808e+001
4.995521e+002, 5.706511e+001
5.000342e+002, 5.719683e+001
5.005164e+002, 5.736466e+001
5.009985e+002, 5.751570e+001
5.014806e+002, 5.764845e+001
5.019627e+002, 5.773848e+001
5.024448e+002, 5.777932e+001
5.029269e+002, 5.786578e+001
5.034091e+002, 5.810452e+001
5.038912e+002, 5.850444e+001
5.043733e+002, 5.882206e+001
5.048554e+002, 5.909051e+001
5.053375e+002, 5.925129e+001
5.058196e+002, 5.918599e+001
5.063018e+002, 5.902908e+001
5.067839e+002, 5.900206e+001
5.072660e+002, 5.917945e+001
5.077481e+002, 5.942317e+001
5.082302e+002, 5.951657e+001
5.087123e+002, 5.941606e+001
5.091945e+002, 5.932273e+001
5.096766e+002, 5.937529e+001
5.101587e+002, 5.929545e+001
5.106408e+002, 5.890878e+001
5.111229e+002, 5.831885e+001
5.116050e+002, 5.771290e+001
5.120872e+002, 5.717021e+001
5.125693e+002, 5.669856e+001
5.130514e+002, 5.637132e+001
5.135335e+002, 5.623146e+001
5.140156e+002, 5.587962e+001
5.144977e+002, 5.504645e+001
5.149799e+002, 5.415193e+001
5.154620e+002, 5.357763e+001
5.159441e+002, 5.328051e+001
5.164262e+002, 5.295173e+001
5.169083e+002, 5.251518e+001
5.173904e+002, 5.194396e+001
5.178726e+002, 5.102803e+001
5.183547e+002, 4.981878e+001
5.188368e+002, 4.901205e+001
5.193189e+002, 4.903272e+001
5.198010e+002, 4.953754e+001
5.202831e+002, 4.976997e+001
5.207653e+002, 4.969622e+001
5.212474e+002, 4.952721e+001
5.217295e+002, 4.924903e+001
5.222116e+002, 4.892389e+001
5.226937e+002, 4.858179e+001
5.231758e+002, 4.824165e+001
5.236580e+002, 4.794061e+001
5.241401e+002, 4.770775e+001
5.246222e+002, 4.753691e+001
5.251043e+002, 4.739349e+001
5.255864e+002, 4.730837e+001
5.260685e+002, 4.720888e+001
5.265507e+002, 4.704240e+001
5.270328e+002, 4.689111e+001
5.275149e+002, 4.684915e+001
5.279970e+002, 4.690900e+001
5.284791e+002, 4.695608e+001
5.289612e+002, 4.684435e+001
5.294434e+002, 4.662490e+001
5.299255e+002, 4.667787e+001
5.304076e+002, 4.722412e+001
5.308897e+002, 4.752735e+001
5.313718e+002, 4.691376e+001
5.318539e+002, 4.606534e+001
5.323361e+002, 4.572783e+001
5.328182e+002, 4.607356e+001
5.333003e+002, 4.649344e+001
5.337824e+002, 4.655548e+001
5.342645e+002, 4.641463e+001
5.347466e+002, 4.647337e+001
5.352288e+002, 4.680795e+001
5.357109e+002, 4.697565e+001
5.361930e+002, 4.652295e+001
5.366751e+002, 4.560529e+001
5.371572e+002, 4.519996e+001
5.376393e+002, 4.566521e+001
5.381215e+002, 4.615245e+001
5.386036e+002, 4.645443e+001
5.390857e+002, 4.663304e+001
5.395678e+002, 4.676774e+001
5.400499e+002, 4.687411e+001
5.405320e+002, 4.691730e+001
5.410142e+002, 4.686246e+001
5.414963e+002, 4.670936e+001
5.419784e+002, 4.645188e+001
5.424604e+002, 4.559719e+001
5.429426e+002, 4.525130e+001
5.434247e+002, 4.618287e+001
5.439068e+002, 4.747249e+001
5.443889e+002, 4.801653e+001
5.448710e+002, 4.754243e+001
5.453531e+002, 4.676455e+001
5.458353e+002, 4.645797e+001
5.463174e+002, 4.657895e+001
5.467995e+002, 4.660622e+001
5.472816e+002, 4.644818e+001
5.477637e+002, 4.633202e+001
5.482458e+002, 4.645582e+001
5.487280e+002, 4.670380e+001
5.492101e+002, 4.689011e+001
5.496922e+002, 4.694879e+001
5.501743e+002, 4.701741e+001
5.506564e+002, 4.718811e+001
5.511385e+002, 4.743047e+001
5.516207e+002, 4.771936e+001
5.521028e+002, 4.805322e+001
5.525849e+002, 4.830377e+001
5.530670e+002, 4.834615e+001
5.535491e+002, 4.817867e+001
5.540313e+002, 4.794968e+001
5.545134e+002, 4.745838e+001
5.549955e+002, 4.715382e+001
5.554776e+002, 4.732967e+001
5.559597e+002, 4.768177e+001
5.564418e+002, 4.777527e+001
5.569240e+002, 4.752836e+001
5.574061e+002, 4.729340e+001
5.578882e+002, 4.756310e+001
5.583703e+002, 4.837091e+001
5.588524e+002, 4.866317e+001
5.593345e+002, 4.793201e+001
5.598167e+002, 4.740873e+001
5.602988e+002, 4.772392e+001
5.607809e+002, 4.835411e+001
5.612630e+002, 4.861954e+001
5.617451e+002, 4.831979e+001
5.622272e+002, 4.797478e+001
5.627094e+002, 4.809685e+001
5.631915e+002, 4.854317e+001
5.636736e+002, 4.886055e+001
5.641557e+002, 4.900819e+001
5.646378e+002, 4.895898e+001
5.651199e+002, 4.858373e+001
5.656021e+002, 4.799326e+001
5.660842e+002, 4.766888e+001
5.665663e+002, 4.763298e+001
5.670484e+002, 4.782598e+001
5.675305e+002, 4.853340e+001
5.680126e+002, 4.931397e+001
5.684948e+002, 4.947630e+001
5.689769e+002, 4.897660e+001
5.694590e+002, 4.850221e+001
5.699411e+002, 4.874382e+001
5.704232e+002, 4.964492e+001
5.709053e+002, 5.009576e+001
5.713875e+002, 4.969090e+001
5.718696e+002, 4.936614e+001
5.723517e+002, 4.920714e+001
5.728338e+002, 4.922331e+001
5.733159e+002, 4.952534e+001
5.737980e+002, 5.007692e+001
5.742802e+002, 5.054075e+001
5.747623e+002, 5.055876e+001
5.752444e+002, 5.023717e+001
5.757265e+002, 5.001339e+001
5.762086e+002, 4.990112e+001
5.766907e+002, 4.983034e+001
5.771729e+002, 4.977736e+001
5.776550e+002, 4.974483e+001
5.781371e+002, 4.969383e+001
5.786192e+002, 4.957169e+001
5.791013e+002, 4.966798e+001
5.795834e+002, 5.032547e+001
5.800656e+002, 5.112032e+001
5.805477e+002, 5.156356e+001
5.810298e+002, 5.164159e+001
5.815119e+002, 5.158989e+001
5.819940e+002, 5.153911e+001
5.824761e+002, 5.150177e+001
5.829583e+002, 5.151986e+001
5.834404e+002, 5.160165e+001
5.839225e+002, 5.173194e+001
5.844046e+002, 5.185886e+001
5.848867e+002, 5.207363e+001
5.853688e+002, 5.252331e+001
5.858510e+002, 5.312425e+001
5.863331e+002, 5.361428e+001
5.868152e+002, 5.379815e+001
5.872973e+002, 5.382692e+001
5.877794e+002, 5.407271e+001
5.882615e+002, 5.457996e+001
5.887437e+002, 5.499236e+001
5.892258e+002, 5.514195e+001
5.897079e+002, 5.526222e+001
5.901900e+002, 5.561533e+001
5.906721e+002, 5.615636e+001
5.911542e+002, 5.658660e+001
5.916364e+002, 5.672329e+001
5.921185e+002, 5.679106e+001
5.926006e+002, 5.693467e+001
5.930827e+002, 5.716243e+001
5.935648e+002, 5.752352e+001
5.940469e+002, 5.804586e+001
5.945291e+002, 5.858846e+001
5.950112e+002, 5.892713e+001
5.954933e+002, 5.895557e+001
5.959754e+002, 5.927952e+001
5.964575e+002, 6.015768e+001
5.969396e+002, 6.099839e+001
5.974218e+002, 6.155579e+001
5.979039e+002, 6.196251e+001
5.983860e+002, 6.241573e+001
5.988681e+002, 6.298479e+001
5.993502e+002, 6.361489e+001
5.998323e+002, 6.420167e+001
6.003145e+002, 6.475580e+001
6.007966e+002, 6.558194e+001
6.012787e+002, 6.689329e+001
6.017608e+002, 6.804205e+001
6.022429e+002, 6.845872e+001
6.027250e+002, 6.853146e+001
6.032072e+002, 6.883538e+001
6.036893e+002, 6.949593e+001
6.041714e+002, 7.021846e+001
6.046535e+002, 7.089515e+001
6.051356e+002, 7.152766e+001
6.056177e+002, 7.210475e+001
6.060999e+002, 7.262896e+001
6.065820e+002, 7.315923e+001
6.070641e+002, 7.376525e+001
6.075462e+002, 7.437707e+001
6.080283e+002, 7.467013e+001
6.085104e+002, 7.414952e+001
6.089926e+002, 7.402213e+001
6.094747e+002, 7.454759e+001
6.099568e+002, 7.529211e+001
6.104389e+002, 7.604176e+001
6.109210e+002, 7.673511e+001
6.114031e+002, 7.731528e+001
6.118853e+002, 7.771171e+001
6.123674e+002, 7.803167e+001
6.128495e+002, 7.847977e+001
6.133316e+002, 7.905669e+001
6.138137e+002, 7.980770e+001
6.142958e+002, 8.083056e+001
6.147780e+002, 8.192336e+001
6.152601e+002, 8.290318e+001
6.157422e+002, 8.378479e+001
6.162243e+002, 8.462623e+001
6.167064e+002, 8.552184e+001
6.171885e+002, 8.629848e+001
6.176707e+002, 8.685143e+001
6.181528e+002, 8.720211e+001
6.186349e+002, 8.732818e+001
6.191170e+002, 8.723576e+001
6.195991e+002, 8.717939e+001
6.200812e+002, 8.752834e+001
6.205634e+002, 8.834962e+001
6.210455e+002, 8.856387e+001
6.215276e+002, 8.762063e+001
6.220097e+002, 8.672148e+001
6.224918e+002, 8.618759e+001
6.229739e+002, 8.577778e+001
6.234561e+002, 8.525513e+001
6.239382e+002, 8.457260e+001
6.244203e+002, 8.380389e+001
6.249023e+002, 8.297668e+001
6.253845e+002, 8.211675e+001
6.258666e+002, 8.128590e+001
6.263487e+002, 8.048130e+001
6.268308e+002, 7.975886e+001
6.273129e+002, 7.920432e+001
6.277950e+002, 7.868520e+001
6.282772e+002, 7.791151e+001
6.287593e+002, 7.684032e+001
6.292414e+002, 7.579655e+001
6.297235e+002, 7.460131e+001
6.302056e+002, 7.364525e+001
6.306877e+002, 7.333984e+001
6.311699e+002, 7.348077e+001
6.316520e+002, 7.359090e+001
6.321341e+002, 7.345169e+001
6.326162e+002, 7.313752e+001
6.330983e+002, 7.274437e+001
6.335804e+002, 7.223991e+001
6.340626e+002, 7.182140e+001
6.345447e+002, 7.158892e+001
6.350268e+002, 7.131731e+001
6.355089e+002, 7.068711e+001
6.359910e+002, 7.003120e+001
6.364731e+002, 6.995318e+001
6.369553e+002, 7.072861e+001
6.374374e+002, 7.147701e+001
6.379195e+002, 7.160622e+001
6.384016e+002, 7.126504e+001
6.388837e+002, 7.061150e+001
6.393658e+002, 6.968611e+001
6.398480e+002, 6.884354e+001
6.403301e+002, 6.831310e+001
6.408122e+002, 6.803703e+001
6.412943e+002, 6.782205e+001
6.417764e+002, 6.775492e+001
6.422585e+002, 6.762068e+001
6.427407e+002, 6.741747e+001
6.432228e+002, 6.714966e+001
6.437049e+002, 6.678457e+001
6.441870e+002, 6.635793e+001
6.446691e+002, 6.595694e+001
6.451512e+002, 6.563790e+001
6.456334e+002, 6.532482e+001
6.461155e+002, 6.485341e+001
6.465976e+002, 6.422617e+001
6.470797e+002, 6.374424e+001
6.475618e+002, 6.351054e+001
6.480439e+002, 6.330827e+001
6.485261e+002, 6.294273e+001
6.490082e+002, 6.247696e+001
6.494903e+002, 6.212209e+001
6.499724e+002, 6.196519e+001
6.504545e+002, 6.181069e+001
6.509366e+002, 6.160936e+001
6.514188e+002, 6.135490e+001
6.519009e+002, 6.097326e+001
6.523830e+002, 6.050218e+001
6.528651e+002, 6.018562e+001
6.533472e+002, 6.024831e+001
6.538293e+002, 6.050971e+001
6.543115e+002, 6.021450e+001
6.547936e+002, 5.895486e+001
6.552757e+002, 5.813097e+001
6.557578e+002, 5.845514e+001
6.562399e+002, 5.881822e+001
6.567220e+002, 5.856430e+001
6.572042e+002, 5.783598e+001
6.576863e+002, 5.714448e+001
6.581684e+002, 5.664171e+001
6.586505e+002, 5.630687e+001
6.591326e+002, 5.628299e+001
6.596147e+002, 5.640775e+001
6.600969e+002, 5.612772e+001
6.605790e+002, 5.531152e+001
6.610611e+002, 5.452893e+001
6.615432e+002, 5.429552e+001
6.620253e+002, 5.455758e+001
6.625074e+002, 5.473479e+001
6.629896e+002, 5.488000e+001
6.634717e+002, 5.486508e+001
6.639538e+002, 5.451200e+001
6.644359e+002, 5.412250e+001
6.649180e+002, 5.398206e+001
6.654001e+002, 5.404498e+001
6.658823e+002, 5.402370e+001
6.663644e+002, 5.368680e+001
6.668465e+002, 5.325522e+001
6.673286e+002, 5.321165e+001
6.678107e+002, 5.353915e+001
6.682928e+002, 5.359268e+001
6.687750e+002, 5.311580e+001
6.692571e+002, 5.260864e+001
6.697392e+002, 5.260968e+001
6.702213e+002, 5.305428e+001
6.707034e+002, 5.323970e+001
6.711855e+002, 5.302730e+001
6.716677e+002, 5.271177e+001
6.721498e+002, 5.241156e+001
6.726319e+002, 5.204033e+001
6.731140e+002, 5.137790e+001
6.735961e+002, 5.049301e+001
6.740782e+002, 4.982064e+001
6.745604e+002, 4.975163e+001
6.750425e+002, 5.003497e+001
6.755246e+002, 4.978859e+001
6.760067e+002, 4.885798e+001
6.764888e+002, 4.808653e+001
6.769709e+002, 4.768445e+001
6.774531e+002, 4.743665e+001
6.779352e+002, 4.716833e+001
6.784173e+002, 4.690202e+001
6.788994e+002, 4.672439e+001
6.793815e+002, 4.669503e+001
6.798636e+002, 4.670823e+001
6.803458e+002, 4.667049e+001
6.808279e+002, 4.664734e+001
6.813100e+002, 4.681778e+001
6.817921e+002, 4.717180e+001
6.822742e+002, 4.740771e+001
6.827563e+002, 4.726012e+001
6.832385e+002, 4.681035e+001
6.837206e+002, 4.644292e+001
6.842027e+002, 4.611639e+001
6.846848e+002, 4.596392e+001
6.851669e+002, 4.613068e+001
6.856490e+002, 4.636660e+001
6.861312e+002, 4.654708e+001
6.866133e+002, 4.667791e+001
6.870954e+002, 4.679911e+001
6.875775e+002, 4.690198e+001
6.880596e+002, 4.704136e+001
6.885417e+002, 4.735855e+001
6.890239e+002, 4.773455e+001
6.895060e+002, 4.782695e+001
6.899881e+002, 4.758301e+001
6.904702e+002, 4.734019e+001
6.909523e+002, 4.733846e+001
6.914344e+002, 4.757498e+001
6.919166e+002, 4.805157e+001
6.923987e+002, 4.906556e+001
6.928808e+002, 4.984355e+001
6.933629e+002, 5.015248e+001
6.938450e+002, 5.040752e+001
6.943271e+002, 5.090171e+001
6.948093e+002, 5.155143e+001
6.952914e+002, 5.207554e+001
6.957735e+002, 5.230843e+001
6.962556e+002, 5.250752e+001
6.967377e+002, 5.306661e+001
6.972198e+002, 5.383948e+001
6.977020e+002, 5.435171e+001
6.981841e+002, 5.453527e+001
6.986662e+002, 5.433614e+001
6.991483e+002, 5.360469e+001
6.996304e+002, 5.252865e+001
7.001125e+002, 5.183891e+001
7.005947e+002, 5.207950e+001
7.010768e+002, 5.187360e+001
7.015589e+002, 5.084713e+001
7.020410e+002, 4.970233e+001
7.025231e+002, 4.886091e+001
7.030052e+002, 4.824352e+001
7.034874e+002, 4.754964e+001
7.039695e+002, 4.663633e+001
7.044516e+002, 4.578978e+001
7.049337e+002, 4.545713e+001
7.054158e+002, 4.552838e+001
7.058979e+002, 4.547579e+001
7.063801e+002, 4.525039e+001
7.068622e+002, 4.487792e+001
7.073442e+002, 4.426213e+001
7.078264e+002, 4.358829e+001
7.083085e+002, 4.335966e+001
7.087906e+002, 4.377431e+001
7.092727e+002, 4.409945e+001
7.097548e+002, 4.434700e+001
7.102369e+002, 4.443474e+001
7.107191e+002, 4.423924e+001
7.112012e+002, 4.386950e+001
7.116833e+002, 4.350861e+001
7.121654e+002, 4.322168e+001
7.126475e+002, 4.295896e+001
7.131296e+002, 4.265266e+001
7.136118e+002, 4.231625e+001
7.140939e+002, 4.198755e+001
7.145760e+002, 4.164610e+001
7.150581e+002, 4.147143e+001
7.155402e+002, 4.160512e+001
7.160223e+002, 4.189302e+001
7.165045e+002, 4.209837e+001
7.169866e+002, 4.222871e+001
7.174687e+002, 4.224950e+001
7.179508e+002, 4.203907e+001
7.184329e+002, 4.184443e+001
7.189150e+002, 4.182627e+001
7.193972e+002, 4.188564e+001
7.198793e+002, 4.184566e+001
7.203614e+002, 4.167570e+001
7.208435e+002, 4.153936e+001
7.213256e+002, 4.163810e+001
7.218077e+002, 4.189082e+001
7.222899e+002, 4.194883e+001
7.227720e+002, 4.178255e+001
7.232541e+002, 4.167786e+001
7.237362e+002, 4.176529e+001
7.242183e+002, 4.189045e+001
7.247004e+002, 4.186979e+001
7.251826e+002, 4.170557e+001
7.256647e+002, 4.153405e+001
7.261468e+002, 4.132106e+001
7.266289e+002, 4.115098e+001
7.271110e+002, 4.108865e+001
7.275931e+002, 4.106484e+001
7.280753e+002, 4.097617e+001
7.285574e+002, 4.083233e+001
7.290395e+002, 4.075885e+001
7.295216e+002, 4.086606e+001
7.300037e+002, 4.106945e+001
7.304858e+002, 4.115553e+001
7.309680e+002, 4.111758e+001
7.314501e+002, 4.116740e+001
7.319322e+002, 4.138401e+001
7.324143e+002, 4.160899e+001
7.328964e+002, 4.173954e+001
7.333785e+002, 4.176794e+001
7.338607e+002, 4.168354e+001
7.343428e+002, 4.138850e+001
7.348249e+002, 4.113366e+001
7.353070e+002, 4.096909e+001
7.357891e+002, 4.086332e+001
7.362712e+002, 4.077372e+001
7.367534e+002, 4.071895e+001
7.372355e+002, 4.076936e+001
7.377176e+002, 4.096734e+001
7.381997e+002, 4.121639e+001
7.386818e+002, 4.141784e+001
7.391639e+002, 4.155996e+001
7.396461e+002, 4.147655e+001
7.401282e+002, 4.108802e+001
7.406103e+002, 4.078455e+001
7.410924e+002, 4.081695e+001
7.415745e+002, 4.104939e+001
7.420566e+002, 4.118092e+001
7.425388e+002, 4.117574e+001
7.430209e+002, 4.120415e+001
7.435030e+002, 4.124684e+001
7.439851e+002, 4.136059e+001
7.444672e+002, 4.174677e+001
7.449493e+002, 4.215831e+001
7.454315e+002, 4.214685e+001
7.459136e+002, 4.162266e+001
7.463957e+002, 4.105001e+001
7.468778e+002, 4.088779e+001
7.473599e+002, 4.102580e+001
7.478420e+002, 4.115467e+001
7.483242e+002, 4.127526e+001
7.488063e+002, 4.136987e+001
7.492884e+002, 4.146281e+001
7.497705e+002, 4.144597e+001
7.502526e+002, 4.112137e+001
7.507347e+002, 4.045874e+001
7.512169e+002, 4.012651e+001
7.516990e+002, 4.034627e+001
7.521811e+002, 4.057914e+001
7.526632e+002, 4.078401e+001
7.531453e+002, 4.089733e+001
7.536274e+002, 4.074817e+001
7.541096e+002, 4.043456e+001
7.545917e+002, 4.034365e+001
7.550738e+002, 4.076426e+001
7.555559e+002, 4.136271e+001
7.560380e+002, 4.169557e+001
7.565201e+002, 4.180191e+001
7.570023e+002, 4.184095e+001
7.574844e+002, 4.183852e+001
7.579665e+002, 4.176250e+001
7.584486e+002, 4.156363e+001
7.589307e+002, 4.129890e+001
7.594128e+002, 4.115596e+001
7.598950e+002, 4.113581e+001
7.603771e+002, 4.124281e+001
7.608592e+002, 4.165915e+001
7.613413e+002, 4.200140e+001
7.618234e+002, 4.199974e+001
7.623055e+002, 4.183529e+001
7.627877e+002, 4.185051e+001
7.632698e+002, 4.215013e+001
7.637519e+002, 4.235540e+001
7.642340e+002, 4.204578e+001
7.647161e+002, 4.153771e+001
7.651982e+002, 4.133957e+001
7.656804e+002, 4.142791e+001
7.661625e+002, 4.156964e+001
7.666446e+002, 4.167955e+001
7.671267e+002, 4.175326e+001
7.676088e+002, 4.177465e+001
7.680909e+002, 4.173948e+001
7.685731e+002, 4.177102e+001
7.690552e+002, 4.192842e+001
7.695373e+002, 4.205603e+001
7.700194e+002, 4.208961e+001
7.705015e+002, 4.210601e+001
7.709836e+002, 4.222263e+001
7.714658e+002, 4.239431e+001
7.719479e+002, 4.237859e+001
7.724300e+002, 4.187346e+001
7.729121e+002, 4.144950e+001
7.733942e+002, 4.160823e+001
7.738763e+002, 4.206050e+001
7.743585e+002, 4.238693e+001
7.748406e+002, 4.252496e+001
7.753227e+002, 4.256571e+001
7.758048e+002, 4.256161e+001
7.762869e+002, 4.253794e+001
7.767690e+002, 4.256327e+001
7.772512e+002, 4.265170e+001
7.777333e+002, 4.268720e+001
7.782154e+002, 4.261021e+001
7.786975e+002, 4.257737e+001
7.791796e+002, 4.270348e+001
7.796617e+002, 4.291522e+001
7.801439e+002, 4.309644e+001
7.806260e+002, 4.324756e+001
7.811081e+002, 4.335558e+001
7.815902e+002, 4.338894e+001
7.820723e+002, 4.340606e+001
7.825544e+002, 4.342041e+001
7.830366e+002, 4.345302e+001
7.835187e+002, 4.354598e+001
7.840008e+002, 4.370280e+001
7.844829e+002, 4.386505e+001
7.849650e+002, 4.397715e+001
7.854471e+002, 4.405468e+001
7.859293e+002, 4.413912e+001
7.864114e+002, 4.423005e+001
7.868935e+002, 4.433870e+001
7.873756e+002, 4.447636e+001
7.878577e+002, 4.460457e+001
7.883398e+002, 4.467291e+001
7.888220e+002, 4.469521e+001
7.893040e+002, 4.478609e+001
7.897861e+002, 4.497681e+001
7.902682e+002, 4.518888e+001
7.907504e+002, 4.548595e+001
7.912325e+002, 4.573893e+001
7.917146e+002, 4.583820e+001
7.921967e+002, 4.583397e+001
7.926788e+002, 4.577730e+001
7.931609e+002, 4.565232e+001
7.936431e+002, 4.578408e+001
7.941252e+002, 4.667472e+001
7.946073e+002, 4.792711e+001
7.950894e+002, 4.880756e+001
7.955715e+002, 4.930799e+001
7.960536e+002, 4.964488e+001
7.965358e+002, 4.989909e+001
7.970179e+002, 5.013463e+001
7.975000e+002, 5.041980e+001
7.979821e+002, 5.075035e+001
7.984642e+002, 5.129321e+001
7.989464e+002, 5.215131e+001
7.994285e+002, 5.303812e+001
7.999106e+002, 5.388300e+001
8.003927e+002, 5.473101e+001
8.008748e+002, 5.555214e+001
8.013569e+002, 5.638689e+001
8.018391e+002, 5.739618e+001
8.023212e+002, 5.857966e+001
8.028033e+002, 6.000556e+001
8.032854e+002, 6.188612e+001
8.037675e+002, 6.390607e+001
8.042496e+002, 6.555193e+001
8.047318e+002, 6.694383e+001
8.052139e+002, 6.871678e+001
8.056960e+002, 7.121333e+001
8.061781e+002, 7.408553e+001
8.066602e+002, 7.665951e+001
8.071423e+002, 7.900076e+001
8.076245e+002, 8.206129e+001
8.081066e+002, 8.602889e+001
8.085887e+002, 8.999168e+001
8.090708e+002, 9.342554e+001
8.095529e+002, 9.678805e+001
8.100350e+002, 1.007808e+002
8.105172e+002, 1.055086e+002
8.109993e+002, 1.102287e+002
8.114814e+002, 1.151354e+002
8.119635e+002, 1.197654e+002
8.124456e+002, 1.235547e+002
8.129277e+002, 1.273112e+002
8.134099e+002, 1.317918e+002
8.138920e+002, 1.369604e+002
8.143741e+002, 1.422289e+002
8.148562e+002, 1.471603e+002
8.153383e+002, 1.523667e+002
8.158204e+002, 1.585118e+002
8.163026e+002, 1.653465e+002
8.167847e+002, 1.724827e+002
8.172668e+002, 1.798025e+002
8.177489e+002, 1.868765e+002
8.182310e+002, 1.934399e+002
8.187131e+002, 1.997356e+002
8.191953e+002, 2.063154e+002
8.196774e+002, 2.133453e+002
8.201595e+002, 2.197334e+002
8.206416e+002, 2.259291e+002
8.211237e+002, 2.307256e+002
8.216058e+002, 2.336400e+002
8.220880e+002, 2.348880e+002
8.225701e+002, 2.347534e+002
8.230522e+002, 2.332376e+002
8.235343e+002, 2.301499e+002
8.240164e+002, 2.253350e+002
8.244985e+002, 2.190962e+002
8.249807e+002, 2.112922e+002
8.254628e+002, 2.022793e+002
8.259449e+002, 1.920916e+002
8.264270e+002, 1.810672e+002
8.269091e+002, 1.700357e+002
8.273912e+002, 1.593645e+002
8.278734e+002, 1.490959e+002
8.283555e+002, 1.391794e+002
8.288376e+002, 1.296841e+002
8.293197e+002, 1.209033e+002
8.298018e+002, 1.129093e+002
8.302839e+002, 1.054422e+002
8.307661e+002, 9.835853e+001
8.312482e+002, 9.189288e+001
8.317303e+002, 8.638431e+001
8.322124e+002, 8.190725e+001
8.326945e+002, 7.804266e+001
8.331766e+002, 7.517679e+001
8.336588e+002, 7.241663e+001
8.341409e+002, 6.938766e+001
8.346230e+002, 6.654018e+001
8.351051e+002, 6.428263e+001
8.355872e+002, 6.255147e+001
8.360693e+002, 6.088676e+001
8.365515e+002, 5.903880e+001
8.370336e+002, 5.741101e+001
8.375157e+002, 5.626709e+001
8.379978e+002, 5.542446e+001
8.384799e+002, 5.481183e+001
8.389620e+002, 5.429930e+001
8.394442e+002, 5.351769e+001
8.399263e+002, 5.229102e+001
8.404084e+002, 5.107682e+001
8.408905e+002, 5.060593e+001
8.413726e+002, 5.073670e+001
8.418547e+002, 5.067004e+001
8.423369e+002, 5.038807e+001
8.428190e+002, 5.000966e+001
8.433011e+002, 4.957699e+001
8.437832e+002, 4.905513e+001
8.442653e+002, 4.832980e+001
8.447474e+002, 4.741467e+001
8.452296e+002, 4.698969e+001
8.457117e+002, 4.771653e+001
8.461938e+002, 4.796108e+001
8.466759e+002, 4.707695e+001
8.471580e+002, 4.616077e+001
8.476401e+002, 4.596700e+001
8.481223e+002, 4.625891e+001
8.486044e+002, 4.645770e+001
8.490865e+002, 4.644539e+001
8.495686e+002, 4.620531e+001
8.500507e+002, 4.547331e+001
8.505328e+002, 4.471232e+001
8.510150e+002, 4.446325e+001
8.514971e+002, 4.456008e+001
8.519792e+002, 4.455164e+001
8.524613e+002, 4.430714e+001
8.529434e+002, 4.402977e+001
8.534255e+002, 4.391785e+001
8.539077e+002, 4.392941e+001
8.543898e+002, 4.401360e+001
8.548719e+002, 4.417063e+001
8.553540e+002, 4.391422e+001
8.558361e+002, 4.301852e+001
8.563182e+002, 4.228540e+001
8.568004e+002, 4.239464e+001
8.572825e+002, 4.306449e+001
8.577646e+002, 4.338892e+001
8.582467e+002, 4.321610e+001
8.587288e+002, 4.302064e+001
8.592109e+002, 4.279546e+001
8.596931e+002, 4.255659e+001
8.601752e+002, 4.211019e+001
8.606573e+002, 4.176564e+001
8.611394e+002, 4.205178e+001
8.616215e+002, 4.297293e+001
8.621036e+002, 4.359874e+001
8.625858e+002, 4.343291e+001
8.630679e+002, 4.298864e+001
8.635500e+002, 4.246846e+001
8.640321e+002, 4.196740e+001
8.645142e+002, 4.160784e+001
8.649963e+002, 4.140134e+001
8.654785e+002, 4.133825e+001
8.659606e+002, 4.142739e+001
8.664427e+002, 4.153812e+001
8.669248e+002, 4.140398e+001
8.674069e+002, 4.109801e+001
8.678890e+002, 4.106368e+001
8.683712e+002, 4.133657e+001
8.688533e+002, 4.152117e+001
8.693354e+002, 4.144487e+001
8.698175e+002, 4.124306e+001
8.702996e+002, 4.110273e+001
8.707817e+002, 4.102514e+001
8.712639e+002, 4.081068e+001
8.717459e+002, 4.025312e+001
8.722280e+002, 3.992224e+001
8.727101e+002, 4.019542e+001
8.731923e+002, 4.045954e+001
8.736744e+002, 4.021479e+001
8.741565e+002, 3.969533e+001
8.746386e+002, 3.953379e+001
8.751207e+002, 4.001341e+001
8.756028e+002, 4.029229e+001
8.760850e+002, 3.994201e+001
8.765671e+002, 3.941632e+001
8.770492e+002, 3.886081e+001
8.775313e+002, 3.844099e+001
8.780134e+002, 3.846199e+001
8.784955e+002, 3.893915e+001
8.789777e+002, 3.946730e+001
8.794598e+002, 3.979675e+001
8.799419e+002, 3.991775e+001
8.804240e+002, 3.971892e+001
8.809061e+002, 3.929404e+001
8.813882e+002, 3.901084e+001
8.818704e+002, 3.891962e+001
8.823525e+002, 3.878486e+001
8.828346e+002, 3.843746e+001
8.833167e+002, 3.804921e+001
8.837988e+002, 3.803225e+001
8.842809e+002, 3.847118e+001
8.847631e+002, 3.862777e+001
8.852452e+002, 3.840346e+001
8.857273e+002, 3.813329e+001
8.862094e+002, 3.788728e+001
8.866915e+002, 3.769201e+001
8.871736e+002, 3.758774e+001
8.876558e+002, 3.757007e+001
8.881379e+002, 3.756257e+001
8.886200e+002, 3.756112e+001
8.891021e+002, 3.757241e+001
8.895842e+002, 3.765045e+001
8.900663e+002, 3.769188e+001
8.905485e+002, 3.760419e+001
8.910306e+002, 3.743170e+001
8.915127e+002, 3.729398e+001
8.919948e+002, 3.722896e+001
8.924769e+002, 3.705725e+001
8.929590e+002, 3.650570e+001
8.934412e+002, 3.592299e+001
8.939233e+002, 3.571582e+001
8.944054e+002, 3.575924e+001
8.948875e+002, 3.581601e+001
8.953696e+002, 3.581428e+001
8.958517e+002, 3.569756e+001
8.963339e+002, 3.538629e+001
8.968160e+002, 3.506655e+001
8.972981e+002, 3.518901e+001
8.977802e+002, 3.569859e+001
8.982623e+002, 3.605313e+001
8.987444e+002, 3.620031e+001
8.992266e+002, 3.622482e+001
8.997087e+002, 3.615766e+001
9.001908e+002, 3.600959e+001
9.006729e+002, 3.578435e+001
9.011550e+002, 3.547652e+001
9.016371e+002, 3.521314e+001
9.021193e+002, 3.501511e+001
9.026014e+002, 3.482100e+001
9.030835e+002, 3.464611e+001
9.035656e+002, 3.444472e+001
9.040477e+002, 3.403646e+001
9.045298e+002, 3.359407e+001
9.050120e+002, 3.363875e+001
9.054941e+002, 3.451660e+001
9.059762e+002, 3.504450e+001
9.064583e+002, 3.466339e+001
9.069404e+002, 3.414059e+001
9.074225e+002, 3.387874e+001
9.079047e+002, 3.379032e+001
9.083868e+002, 3.371918e+001
9.088689e+002, 3.364064e+001
9.093510e+002, 3.362657e+001
9.098331e+002, 3.377935e+001
9.103152e+002, 3.391869e+001
9.107974e+002, 3.379422e+001
9.112795e+002, 3.355241e+001
9.117616e+002, 3.342894e+001
9.122437e+002, 3.346041e+001
9.127258e+002, 3.371357e+001
9.132079e+002, 3.422099e+001
9.136901e+002, 3.465065e+001
9.141722e+002, 3.446191e+001
9.146543e+002, 3.379381e+001
9.151364e+002, 3.347756e+001
9.156185e+002, 3.352535e+001
9.161006e+002, 3.356267e+001
9.165828e+002, 3.349445e+001
9.170649e+002, 3.338636e+001
9.175470e+002, 3.325346e+001
9.180291e+002, 3.315700e+001
9.185112e+002, 3.335320e+001
9.189933e+002, 3.408580e+001
9.194755e+002, 3.449337e+001
9.199576e+002, 3.449793e+001
9.204397e+002, 3.428562e+001
9.209218e+002, 3.369225e+001
9.214039e+002, 3.307110e+001
9.218860e+002, 3.283104e+001
9.223682e+002, 3.296518e+001
9.228503e+002, 3.314549e+001
9.233324e+002, 3.355158e+001
9.238145e+002, 3.369522e+001
9.242966e+002, 3.326632e+001
9.247787e+002, 3.267733e+001
9.252609e+002, 3.212841e+001
9.257430e+002, 3.171049e+001
9.262251e+002, 3.155604e+001
9.267072e+002, 3.170799e+001
9.271893e+002, 3.196898e+001
9.276714e+002, 3.238248e+001
9.281536e+002, 3.268739e+001
9.286357e+002, 3.241406e+001
9.291178e+002, 3.190615e+001
9.295999e+002, 3.189590e+001
9.300820e+002, 3.242688e+001
9.305641e+002, 3.296840e+001
9.310463e+002, 3.319577e+001
9.315284e+002, 3.318542e+001
9.320105e+002, 3.300997e+001
9.324926e+002, 3.269705e+001
9.329747e+002, 3.233242e+001
9.334568e+002, 3.192820e+001
9.339390e+002, 3.156071e+001
9.344211e+002, 3.125274e+001
9.349032e+002, 3.107985e+001
9.353853e+002, 3.113962e+001
9.358674e+002, 3.139853e+001
9.363495e+002, 3.170388e+001
9.368317e+002, 3.213437e+001
9.373138e+002, 3.222279e+001
9.377959e+002, 3.172452e+001
9.382780e+002, 3.131489e+001
9.387601e+002, 3.144195e+001
9.392422e+002, 3.181804e+001
9.397244e+002, 3.189786e+001
9.402065e+002, 3.158806e+001
9.406886e+002, 3.153132e+001
9.411707e+002, 3.204079e+001
9.416528e+002, 3.236510e+001
9.421349e+002, 3.224714e+001
9.426171e+002, 3.200124e+001
9.430992e+002, 3.179014e+001
9.435813e+002, 3.164709e+001
9.440634e+002, 3.164404e+001
9.445455e+002, 3.185289e+001
9.450276e+002, 3.197836e+001
9.455098e+002, 3.179846e+001
9.459919e+002, 3.162671e+001
9.464740e+002, 3.166492e+001
9.469561e+002, 3.184355e+001
9.474382e+002, 3.214815e+001
9.479203e+002, 3.250161e+001
9.484025e+002, 3.262439e+001
9.488846e+002, 3.227091e+001
9.493667e+002, 3.188626e+001
9.498488e+002, 3.195115e+001
9.503309e+002, 3.222654e+001
9.508130e+002, 3.236568e+001
9.512952e+002, 3.236708e+001
9.517773e+002, 3.232431e+001
9.522594e+002, 3.227483e+001
9.527415e+002, 3.223317e+001
9.532236e+002, 3.218345e+001
9.537057e+002, 3.218889e+001
9.541878e+002, 3.249189e+001
9.546699e+002, 3.302352e+001
9.551520e+002, 3.330170e+001
9.556342e+002, 3.326036e+001
9.561163e+002, 3.314960e+001
9.565984e+002, 3.309288e+001
9.570805e+002, 3.310186e+001
9.575626e+002, 3.321006e+001
9.580447e+002, 3.341560e+001
9.585269e+002, 3.356166e+001
9.590090e+002, 3.364849e+001
9.594911e+002, 3.366218e+001
9.599732e+002, 3.354781e+001
9.604553e+002, 3.348839e+001
9.609374e+002, 3.368343e+001
9.614196e+002, 3.399535e+001
9.619017e+002, 3.400438e+001
9.623838e+002, 3.350107e+001
9.628659e+002, 3.334759e+001
9.633480e+002, 3.401256e+001
9.638301e+002, 3.438984e+001
9.643123e+002, 3.389542e+001
9.647944e+002, 3.323805e+001
9.652765e+002, 3.302190e+001
9.657586e+002, 3.318241e+001
9.662407e+002, 3.334711e+001
9.667228e+002, 3.344353e+001
9.672050e+002, 3.359639e+001
9.676871e+002, 3.395884e+001
9.681692e+002, 3.424820e+001
9.686513e+002, 3.420490e+001
9.691334e+002, 3.404549e+001
9.696155e+002, 3.410590e+001
9.700977e+002, 3.438902e+001
9.705798e+002, 3.455247e+001
9.710619e+002, 3.434558e+001
9.715440e+002, 3.414520e+001
9.720261e+002, 3.433797e+001
9.725082e+002, 3.454077e+001
9.729904e+002, 3.423933e+001
9.734725e+002, 3.362569e+001
9.739546e+002, 3.320333e+001
9.744367e+002, 3.311634e+001
9.749188e+002, 3.311535e+001
9.754009e+002, 3.298524e+001
9.758831e+002, 3.285502e+001
9.763652e+002, 3.291182e+001
9.768473e+002, 3.309547e+001
9.773294e+002, 3.332388e+001
9.778115e+002, 3.355605e+001
9.782936e+002, 3.367522e+001
9.787758e+002, 3.362699e+001
9.792579e+002, 3.349779e+001
9.797400e+002, 3.338768e+001
9.802221e+002, 3.328590e+001
9.807042e+002, 3.313704e+001
9.811863e+002, 3.295516e+001
9.816685e+002, 3.287361e+001
9.821506e+002, 3.291880e+001
9.826327e+002, 3.296583e+001
9.831148e+002, 3.294786e+001
9.835969e+002, 3.281388e+001
9.840790e+002, 3.239045e+001
9.845612e+002, 3.167389e+001
9.850433e+002, 3.137835e+001
9.855254e+002, 3.159450e+001
9.860075e+002, 3.167445e+001
9.864896e+002, 3.139695e+001
9.869717e+002, 3.110869e+001
9.874539e+002, 3.108855e+001
9.879360e+002, 3.127593e+001
9.884181e+002, 3.150903e+001
9.889002e+002, 3.187757e+001
9.893823e+002, 3.194052e+001
9.898644e+002, 3.144549e+001
9.903466e+002, 3.114615e+001
9.908287e+002, 3.148643e+001
9.913108e+002, 3.188059e+001
9.917929e+002, 3.167468e+001
9.922750e+002, 3.100169e+001
9.927571e+002, 3.065945e+001
9.932393e+002, 3.087608e+001
9.937214e+002, 3.101248e+001
9.942035e+002, 3.095731e+001
9.946856e+002, 3.094435e+001
9.951677e+002, 3.103140e+001
9.956498e+002, 3.122724e+001
9.961320e+002, 3.166287e+001
9.966141e+002, 3.226559e+001
9.970962e+002, 3.251915e+001
9.975783e+002, 3.205203e+001
9.980604e+002, 3.168619e+001
9.985425e+002, 3.181571e+001
9.990247e+002, 3.191139e+001
9.995068e+002, 3.153302e+001
9.999889e+002, 3.096779e+001
1.000471e+003, 3.057887e+001
1.000953e+003, 3.044118e+001
1.001435e+003, 3.060619e+001
1.001917e+003, 3.142344e+001
1.002399e+003, 3.204792e+001
1.002882e+003, 3.184977e+001
1.003364e+003, 3.139786e+001
1.003846e+003, 3.113981e+001
1.004328e+003, 3.107540e+001
1.004810e+003, 3.117436e+001
1.005292e+003, 3.138900e+001
1.005774e+003, 3.141205e+001
1.006256e+003, 3.079465e+001
1.006739e+003, 3.024930e+001
1.007221e+003, 3.065647e+001
1.007703e+003, 3.142251e+001
1.008185e+003, 3.175375e+001
1.008667e+003, 3.165413e+001
1.009149e+003, 3.137766e+001
1.009631e+003, 3.103086e+001
1.010113e+003, 3.069204e+001
1.010595e+003, 3.040775e+001
1.011078e+003, 3.019864e+001
1.011560e+003, 3.010873e+001
1.012042e+003, 3.011587e+001
1.012524e+003, 3.024667e+001
1.013006e+003, 3.043858e+001
1.013488e+003, 3.038186e+001
1.013970e+003, 2.994862e+001
1.014452e+003, 2.949713e+001
1.014935e+003, 2.944349e+001
1.015417e+003, 2.965727e+001
1.015899e+003, 2.985671e+001
1.016381e+003, 3.003249e+001
1.016863e+003, 3.010988e+001
1.017345e+003, 3.009030e+001
1.017827e+003, 3.013446e+001
1.018309e+003, 3.033118e+001
1.018791e+003, 3.051729e+001
1.019274e+003, 3.044612e+001
1.019756e+003, 3.017648e+001
1.020238e+003, 2.992864e+001
1.020720e+003, 2.971323e+001
1.021202e+003, 2.990723e+001
1.021684e+003, 3.060891e+001
1.022166e+003, 3.107668e+001
1.022648e+003, 3.086276e+001
1.023130e+003, 3.027592e+001
1.023613e+003, 2.975286e+001
1.024095e+003, 2.930669e+001
1.024577e+003, 2.923805e+001
1.025059e+003, 2.961390e+001
1.025541e+003, 2.978666e+001
1.026023e+003, 2.960597e+001
1.026505e+003, 2.932872e+001
1.026987e+003, 2.906602e+001
1.027469e+003, 2.891768e+001
1.027952e+003, 2.912766e+001
1.028434e+003, 2.972741e+001
1.028916e+003, 2.987527e+001
1.029398e+003, 2.938243e+001
1.029880e+003, 2.912623e+001
1.030362e+003, 2.937168e+001
1.030844e+003, 2.964488e+001
1.031326e+003, 2.964199e+001
1.031809e+003, 2.945456e+001
1.032291e+003, 2.921732e+001
1.032773e+003, 2.887294e+001
1.033255e+003, 2.902372e+001
1.033737e+003, 3.016648e+001
1.034219e+003, 3.067916e+001
1.034701e+003, 2.984797e+001
1.035183e+003, 2.894148e+001
1.035666e+003, 2.878907e+001
1.036148e+003, 2.913585e+001
1.036630e+003, 2.949227e+001
1.037112e+003, 2.989167e+001
1.037594e+003, 3.011033e+001
1.038076e+003, 3.009137e+001
1.038558e+003, 2.997434e+001
1.039040e+003, 2.957568e+001
1.039522e+003, 2.931183e+001
1.040005e+003, 2.960126e+001
1.040487e+003, 3.016757e+001
1.040969e+003, 3.044180e+001
1.041451e+003, 3.040257e+001
1.041933e+003, 3.019147e+001
1.042415e+003, 2.942930e+001
1.042897e+003, 2.903169e+001
1.043379e+003, 2.956749e+001
1.043861e+003, 3.011860e+001
1.044344e+003, 2.991873e+001
1.044826e+003, 2.937295e+001
1.045308e+003, 2.935633e+001
1.045790e+003, 3.003598e+001
1.046272e+003, 3.043291e+001
1.046754e+003, 3.015529e+001
1.047236e+003, 2.998307e+001
1.047718e+003, 3.032580e+001
1.048201e+003, 3.061993e+001
1.048683e+003, 3.037761e+001
1.049165e+003, 2.984484e+001
1.049647e+003, 2.947583e+001
1.050129e+003, 2.932232e+001
1.050611e+003, 2.933573e+001
1.051093e+003, 2.964537e+001
1.051575e+003, 2.993167e+001
1.052057e+003, 3.001825e+001
1.052540e+003, 3.012745e+001
1.053022e+003, 3.052997e+001
1.053504e+003, 3.102971e+001
1.053986e+003, 3.124977e+001
1.054468e+003, 3.113299e+001
1.054950e+003, 3.095501e+001
1.055432e+003, 3.068144e+001
1.055914e+003, 3.050322e+001
1.056396e+003, 3.056821e+001
1.056879e+003, 3.067220e+001
1.057361e+003, 3.060241e+001
1.057843e+003, 3.048804e+001
1.058325e+003, 3.063783e+001
1.058807e+003, 3.108640e+001
1.059289e+003, 3.131763e+001
1.059771e+003, 3.089865e+001
1.060253e+003, 3.059228e+001
1.060736e+003, 3.079451e+001
1.061218e+003, 3.111241e+001
1.061700e+003, 3.134557e+001
1.062182e+003, 3.143781e+001
1.062664e+003, 3.128676e+001
1.063146e+003, 3.090116e+001
1.063628e+003, 3.056904e+001
1.064110e+003, 3.031111e+001
1.064593e+003, 3.024240e+001
1.065075e+003, 3.067745e+001
1.065557e+003, 3.105514e+001
1.066039e+003, 3.082001e+001
1.066521e+003, 3.030039e+001
1.067003e+003, 3.003584e+001
1.067485e+003, 3.009093e+001
1.067967e+003, 3.017073e+001
1.068449e+003, 3.014755e+001
1.068932e+003, 3.016161e+001
1.069414e+003, 3.043905e+001
1.069896e+003, 3.061136e+001
1.070378e+003, 3.029346e+001
1.070860e+003, 2.975451e+001
1.071342e+003, 2.934060e+001
1.071824e+003, 2.911648e+001
1.072306e+003, 2.906379e+001
1.072788e+003, 2.929586e+001
1.073271e+003, 2.942110e+001
1.073753e+003, 2.911520e+001
1.074235e+003, 2.878488e+001
1.074717e+003, 2.874054e+001
1.075199e+003, 2.884240e+001
1.075681e+003, 2.895527e+001
1.076163e+003, 2.901565e+001
1.076645e+003, 2.885269e+001
1.077127e+003, 2.826220e+001
1.077610e+003, 2.791607e+001
1.078092e+003, 2.833784e+001
1.078574e+003, 2.887730e+001
1.079056e+003, 2.921112e+001
1.079538e+003, 2.933149e+001
1.080020e+003, 2.916227e+001
1.080502e+003, 2.880344e+001
1.080984e+003, 2.856942e+001
1.081467e+003, 2.858939e+001
1.081949e+003, 2.857444e+001
1.082431e+003, 2.831777e+001
1.082913e+003, 2.807595e+001
1.083395e+003, 2.798512e+001
1.083877e+003, 2.800728e+001
1.084359e+003, 2.808080e+001
1.084841e+003, 2.822695e+001
1.085323e+003, 2.860255e+001
1.085806e+003, 2.930289e+001
1.086288e+003, 2.966205e+001
1.086770e+003, 2.903821e+001
1.087252e+003, 2.845023e+001
1.087734e+003, 2.851398e+001
1.088216e+003, 2.877888e+001
1.088698e+003, 2.883099e+001
1.089180e+003, 2.873160e+001
1.089662e+003, 2.871067e+001
1.090145e+003, 2.881606e+001
1.090627e+003, 2.884774e+001
1.091109e+003, 2.862576e+001
1.091591e+003, 2.845476e+001
1.092073e+003, 2.858262e+001
1.092555e+003, 2.869837e+001
1.093037e+003, 2.851262e+001
1.093519e+003, 2.816087e+001
1.094002e+003, 2.785965e+001
1.094484e+003, 2.765023e+001
1.094966e+003, 2.755754e+001
1.095448e+003, 2.768201e+001
1.095930e+003, 2.778857e+001
1.096412e+003, 2.778587e+001
1.096894e+003, 2.775705e+001
1.097376e+003, 2.774852e+001
1.097859e+003, 2.775037e+001
1.098341e+003, 2.773262e+001
1.098823e+003, 2.770261e+001
1.099305e+003, 2.772631e+001
1.099787e+003, 2.788179e+001
1.100269e+003, 2.795923e+001
1.100751e+003, 2.787901e+001
1.101233e+003, 2.773891e+001
1.101715e+003, 2.748507e+001
1.102198e+003, 2.727291e+001
1.102680e+003, 2.729944e+001
1.103162e+003, 2.751309e+001
1.103644e+003, 2.769741e+001
1.104126e+003, 2.784635e+001
1.104608e+003, 2.788580e+001
1.105090e+003, 2.767615e+001
1.105572e+003, 2.751957e+001
1.106054e+003, 2.752909e+001
1.106537e+003, 2.762433e+001
1.107019e+003, 2.786373e+001
1.107501e+003, 2.810857e+001
1.107983e+003, 2.795668e+001
1.108465e+003, 2.724192e+001
1.108947e+003, 2.692850e+001
1.109429e+003, 2.756856e+001
1.109911e+003, 2.794898e+001
1.110394e+003, 2.763265e+001
1.110876e+003, 2.719561e+001
1.111358e+003, 2.687508e+001
1.111840e+003, 2.670683e+001
1.112322e+003, 2.677774e+001
1.112804e+003, 2.710007e+001
1.113286e+003, 2.740936e+001
1.113768e+003, 2.789478e+001
1.114250e+003, 2.804321e+001
1.114733e+003, 2.752123e+001
1.115215e+003, 2.706643e+001
1.115697e+003, 2.706205e+001
1.116179e+003, 2.721037e+001
1.116661e+003, 2.711415e+001
1.117143e+003, 2.684193e+001
1.117625e+003, 2.693776e+001
1.118107e+003, 2.779425e+001
1.118589e+003, 2.804089e+001
1.119072e+003, 2.723846e+001
1.119554e+003, 2.671390e+001
1.120036e+003, 2.709594e+001
1.120518e+003, 2.751942e+001
1.121000e+003, 2.711313e+001
1.121482e+003, 2.627578e+001
1.121964e+003, 2.626070e+001
1.122446e+003, 2.730055e+001
1.122929e+003, 2.769530e+001
1.123411e+003, 2.721386e+001
1.123893e+003, 2.687542e+001
1.124375e+003, 2.690709e+001
1.124857e+003, 2.710189e+001
1.125339e+003, 2.737439e+001
1.125821e+003, 2.763236e+001
1.126303e+003, 2.770456e+001
1.126786e+003, 2.760178e+001
1.127268e+003, 2.750524e+001
1.127750e+003, 2.740303e+001
1.128232e+003, 2.744372e+001
1.128714e+003, 2.767137e+001
1.129196e+003, 2.785294e+001
1.129678e+003, 2.788231e+001
1.130160e+003, 2.781817e+001
1.130642e+003, 2.770923e+001
1.131125e+003, 2.758794e+001
1.131607e+003, 2.758219e+001
1.132089e+003, 2.768493e+001
1.132571e+003, 2.781462e+001
1.133053e+003, 2.795987e+001
1.133535e+003, 2.783871e+001
1.134017e+003, 2.736604e+001
1.134499e+003, 2.692098e+001
1.134981e+003, 2.679367e+001
1.135464e+003, 2.688936e+001
1.135946e+003, 2.709079e+001
1.136428e+003, 2.736184e+001
1.136910e+003, 2.756806e+001
1.137392e+003, 2.771300e+001
1.137874e+003, 2.786618e+001
1.138356e+003, 2.801347e+001
1.138838e+003, 2.791401e+001
1.139321e+003, 2.744228e+001
1.139803e+003, 2.699697e+001
1.140285e+003, 2.706394e+001
1.140767e+003, 2.741416e+001
1.141249e+003, 2.773859e+001
1.141731e+003, 2.797260e+001
1.142213e+003, 2.788297e+001
1.142695e+003, 2.756350e+001
1.143177e+003, 2.741297e+001
1.143660e+003, 2.752975e+001
1.144142e+003, 2.757600e+001
1.144624e+003, 2.724123e+001
1.145106e+003, 2.691059e+001
1.145588e+003, 2.700451e+001
1.146070e+003, 2.732120e+001
1.146552e+003, 2.773090e+001
1.147034e+003, 2.811052e+001
1.147516e+003, 2.826719e+001
1.147999e+003, 2.819649e+001
1.148481e+003, 2.800169e+001
1.148963e+003, 2.768710e+001
1.149445e+003, 2.749731e+001
1.149927e+003, 2.775421e+001
1.150409e+003, 2.800006e+001
1.150891e+003, 2.770459e+001
1.151373e+003, 2.738364e+001
1.151856e+003, 2.779128e+001
1.152338e+003, 2.859355e+001
1.152820e+003, 2.891387e+001
1.153302e+003, 2.856956e+001
1.153784e+003, 2.813351e+001
1.154266e+003, 2.742791e+001
1.154748e+003, 2.718565e+001
1.155230e+003, 2.808862e+001
1.155713e+003, 2.904299e+001
1.156195e+003, 2.936733e+001
1.156677e+003, 2.934576e+001
1.157159e+003, 2.939410e+001
1.157641e+003, 2.950497e+001
1.158123e+003, 2.941064e+001
1.158605e+003, 2.888920e+001
1.159087e+003, 2.858507e+001
1.159569e+003, 2.854529e+001
1.160052e+003, 2.872324e+001
1.160534e+003, 2.934389e+001
1.161016e+003, 2.990475e+001
1.161498e+003, 2.990037e+001
1.161980e+003, 2.965271e+001
1.162462e+003, 2.990811e+001
1.162944e+003, 3.073979e+001
1.163426e+003, 3.129619e+001
1.163908e+003, 3.155735e+001
1.164391e+003, 3.154032e+001
1.164873e+003, 3.106991e+001
1.165355e+003, 3.087877e+001
1.165837e+003, 3.142520e+001
1.166319e+003, 3.208641e+001
1.166801e+003, 3.204674e+001
1.167283e+003, 3.158810e+001
1.167765e+003, 3.203723e+001
1.168247e+003, 3.344685e+001
1.168730e+003, 3.404985e+001
1.169212e+003, 3.374992e+001
1.169694e+003, 3.333389e+001
1.170176e+003, 3.300632e+001
1.170658e+003, 3.305750e+001
1.171140e+003, 3.372681e+001
1.171622e+003, 3.461301e+001
1.172104e+003, 3.503859e+001
1.172587e+003, 3.516748e+001
1.173069e+003, 3.558380e+001
1.173551e+003, 3.619555e+001
1.174033e+003, 3.662380e+001
1.174515e+003, 3.686807e+001
1.174997e+003, 3.720895e+001
1.175479e+003, 3.774767e+001
1.175961e+003, 3.832591e+001
1.176443e+003, 3.887650e+001
1.176926e+003, 3.926505e+001
1.177408e+003, 3.914354e+001
1.177890e+003, 3.888680e+001
1.178372e+003, 3.902091e+001
1.178854e+003, 3.946206e+001
1.179336e+003, 4.010482e+001
1.179818e+003, 4.081544e+001
1.180300e+003, 4.119212e+001
1.180782e+003, 4.102604e+001
1.181265e+003, 4.087702e+001
1.181747e+003, 4.108038e+001
1.182229e+003, 4.141800e+001
1.182711e+003, 4.192453e+001
1.183193e+003, 4.233887e+001
1.183675e+003, 4.226509e+001
1.184157e+003, 4.198011e+001
1.184639e+003, 4.211814e+001
1.185122e+003, 4.272735e+001
1.185604e+003, 4.297574e+001
1.186086e+003, 4.229108e+001
1.186568e+003, 4.185670e+001
1.187050e+003, 4.209217e+001
1.187532e+003, 4.233664e+001
1.188014e+003, 4.225738e+001
1.188496e+003, 4.211583e+001
1.188979e+003, 4.230422e+001
1.189461e+003, 4.258350e+001
1.189943e+003, 4.216553e+001
1.190425e+003, 4.081252e+001
1.190907e+003, 4.022774e+001
1.191389e+003, 4.081464e+001
1.191871e+003, 4.101484e+001
1.192353e+003, 4.046767e+001
1.192835e+003, 3.983134e+001
1.193318e+003, 3.938933e+001
1.193800e+003, 3.916566e+001
1.194282e+003, 3.926035e+001
1.194764e+003, 3.951754e+001
1.195246e+003, 3.926061e+001
1.195728e+003, 3.851427e+001
1.196210e+003, 3.793067e+001
1.196692e+003, 3.753592e+001
1.197174e+003, 3.715467e+001
1.197657e+003, 3.674617e+001
1.198139e+003, 3.638204e+001
1.198621e+003, 3.610868e+001
1.199103e+003, 3.587870e+001
1.199585e+003, 3.570570e+001
1.200067e+003, 3.547603e+001
1.200549e+003, 3.476741e+001
1.201031e+003, 3.389994e+001
1.201514e+003, 3.358308e+001
1.201996e+003, 3.377616e+001
1.202478e+003, 3.426846e+001
1.202960e+003, 3.489715e+001
1.203442e+003, 3.510673e+001
1.203924e+003, 3.448653e+001
1.204406e+003, 3.362369e+001
1.204888e+003, 3.271627e+001
1.205370e+003, 3.201771e+001
1.205853e+003, 3.184441e+001
1.206335e+003, 3.193211e+001
1.206817e+003, 3.206671e+001
1.207299e+003, 3.215069e+001
1.207781e+003, 3.199249e+001
1.208263e+003, 3.153199e+001
1.208745e+003, 3.124946e+001
1.209227e+003, 3.138741e+001
1.209709e+003, 3.152349e+001
1.210192e+003, 3.170506e+001
1.210674e+003, 3.170335e+001
1.211156e+003, 3.118658e+001
1.211638e+003, 3.062326e+001
1.212120e+003, 3.057659e+001
1.212602e+003, 3.085320e+001
1.213084e+003, 3.066084e+001
1.213566e+003, 2.979034e+001
1.214049e+003, 2.958566e+001
1.214531e+003, 3.031104e+001
1.215013e+003, 3.059826e+001
1.215495e+003, 3.009289e+001
1.215977e+003, 2.962057e+001
1.216459e+003, 2.963330e+001
1.216941e+003, 2.980664e+001
1.217423e+003, 2.974949e+001
1.217906e+003, 2.952909e+001
1.218388e+003, 2.933006e+001
1.218870e+003, 2.915687e+001
1.219352e+003, 2.895826e+001
1.219834e+003, 2.879312e+001
1.220316e+003, 2.913683e+001
1.220798e+003, 2.995665e+001
1.221280e+003, 3.024596e+001
1.221762e+003, 2.943563e+001
1.222245e+003, 2.862750e+001
1.222727e+003, 2.925876e+001
1.223209e+003, 3.014462e+001
1.223691e+003, 2.968499e+001
1.224173e+003, 2.884139e+001
1.224655e+003, 2.904564e+001
1.225137e+003, 2.981149e+001
1.225619e+003, 2.991713e+001
1.226101e+003, 2.926821e+001
1.226584e+003, 2.877278e+001
1.227066e+003, 2.877271e+001
1.227548e+003, 2.886737e+001
1.228030e+003, 2.903758e+001
1.228512e+003, 2.912190e+001
1.228994e+003, 2.892998e+001
1.229476e+003, 2.874670e+001
1.229958e+003, 2.889346e+001
1.230441e+003, 2.914905e+001
1.230923e+003, 2.902254e+001
1.231405e+003, 2.853823e+001
1.231887e+003, 2.860581e+001
1.232369e+003, 2.957422e+001
1.232851e+003, 2.998422e+001
1.233333e+003, 2.961219e+001
1.233815e+003, 2.923804e+001
1.234297e+003, 2.906771e+001
1.234780e+003, 2.907751e+001
1.235262e+003, 2.925818e+001
1.235744e+003, 2.957840e+001
1.236226e+003, 3.003765e+001
1.236708e+003, 3.056306e+001
1.237190e+003, 3.087364e+001
1.237672e+003, 3.097685e+001
1.238154e+003, 3.083377e+001
1.238636e+003, 3.051040e+001
1.239119e+003, 3.028545e+001
1.239601e+003, 3.024451e+001
1.240083e+003, 3.033176e+001
1.240565e+003, 3.051920e+001
1.241047e+003, 3.078806e+001
1.241529e+003, 3.117844e+001
1.242011e+003, 3.158079e+001
1.242493e+003, 3.190923e+001
1.242975e+003, 3.217380e+001
1.243458e+003, 3.234336e+001
1.243940e+003, 3.248249e+001
1.244422e+003, 3.281676e+001
1.244904e+003, 3.333651e+001
1.245386e+003, 3.342527e+001
1.245868e+003, 3.238091e+001
1.246350e+003, 3.190184e+001
1.246832e+003, 3.262046e+001
1.247315e+003, 3.348249e+001
1.247797e+003, 3.425548e+001
1.248279e+003, 3.490149e+001
1.248761e+003, 3.536201e+001
1.249243e+003, 3.570933e+001
1.249725e+003, 3.607499e+001
1.250207e+003, 3.645489e+001
1.250689e+003, 3.679235e+001
1.251172e+003, 3.708323e+001
1.251654e+003, 3.732544e+001
1.252136e+003, 3.750983e+001
1.252618e+003, 3.797534e+001
1.253100e+003, 3.882217e+001
1.253582e+003, 3.972055e+001
1.254064e+003, 4.044884e+001
1.254546e+003, 4.101379e+001
1.255028e+003, 4.127766e+001
1.255510e+003, 4.148306e+001
1.255993e+003, 4.222209e+001
1.256475e+003, 4.316302e+001
1.256957e+003, 4.369833e+001
1.257439e+003, 4.386723e+001
1.257921e+003, 4.381761e+001
1.258403e+003, 4.367070e+001
1.258885e+003, 4.380312e+001
1.259367e+003, 4.445854e+001
1.259850e+003, 4.508506e+001
1.260332e+003, 4.545770e+001
1.260814e+003, 4.569973e+001
1.261296e+003, 4.586771e+001
1.261778e+003, 4.593119e+001
1.262260e+003, 4.582372e+001
1.262742e+003, 4.561867e+001
1.263224e+003, 4.546520e+001
1.263707e+003, 4.533669e+001
1.264189e+003, 4.498758e+001
1.264671e+003, 4.428805e+001
1.265153e+003, 4.381880e+001
1.265635e+003, 4.363198e+001
1.266117e+003, 4.348763e+001
1.266599e+003, 4.335604e+001
1.267081e+003, 4.307277e+001
1.267563e+003, 4.253168e+001
1.268046e+003, 4.191779e+001
1.268528e+003, 4.142061e+001
1.269010e+003, 4.105784e+001
1.269492e+003, 4.094466e+001
1.269974e+003, 4.096147e+001
1.270456e+003, 4.079204e+001
1.270938e+003, 4.048624e+001
1.271420e+003, 4.021671e+001
1.271902e+003, 4.000999e+001
1.272385e+003, 3.982032e+001
1.272867e+003, 3.963068e+001
1.273349e+003, 3.944503e+001
1.273831e+003, 3.925905e+001
1.274313e+003, 3.908585e+001
1.274795e+003, 3.886325e+001
1.275277e+003, 3.873169e+001
1.275759e+003, 3.878547e+001
1.276242e+003, 3.897931e+001
1.276724e+003, 3.942963e+001
1.277206e+003, 3.994563e+001
1.277688e+003, 3.990179e+001
1.278170e+003, 3.921690e+001
1.278652e+003, 3.870499e+001
1.279134e+003, 3.835114e+001
1.279616e+003, 3.826769e+001
1.280099e+003, 3.853332e+001
1.280581e+003, 3.871734e+001
1.281063e+003, 3.866281e+001
1.281545e+003, 3.848675e+001
1.282027e+003, 3.826976e+001
1.282509e+003, 3.804867e+001
1.282991e+003, 3.790935e+001
1.283473e+003, 3.780054e+001
1.283955e+003, 3.762093e+001
##END=



