##NAMES=Suzukiite
##RRUFFID=R150039
##IDEAL CHEMISTRY=BaV^4+^Si_2_O_7_
##LOCALITY=Gun Claim, Yukon Territory, Canada
##OWNER=RRUFF
##SOURCE=Gunnar Farber
##DESCRIPTION=Isolated aggregates of bright-green granular or flake crystals, associated with pale grey walstromite (R150079), pellyite (R150078), diopside, benitoite, bavsiite (R150042) and celsian
##STATUS=The identification of this mineral has been confirmed by single-crystal X-ray diffraction.
##URL=rruff.info/R150039
8.930109e+001, 0.000000e+000
8.978320e+001, 6.119053e+002
9.026532e+001, 6.061533e+002
9.074744e+001, 6.058087e+002
9.122955e+001, 6.126636e+002
9.171167e+001, 6.231035e+002
9.219379e+001, 6.317380e+002
9.267590e+001, 6.393408e+002
9.315802e+001, 6.486212e+002
9.364014e+001, 6.598277e+002
9.412225e+001, 6.739048e+002
9.460437e+001, 6.941221e+002
9.508649e+001, 7.243746e+002
9.556860e+001, 7.589773e+002
9.605072e+001, 7.888015e+002
9.653284e+001, 8.151631e+002
9.701495e+001, 8.321764e+002
9.749707e+001, 8.269861e+002
9.797919e+001, 8.003660e+002
9.846130e+001, 7.838056e+002
9.894342e+001, 7.892362e+002
9.942554e+001, 8.146378e+002
9.990765e+001, 8.420056e+002
1.003898e+002, 8.802623e+002
1.008719e+002, 9.053763e+002
1.013540e+002, 8.750746e+002
1.018361e+002, 7.755734e+002
1.023182e+002, 6.762440e+002
1.028004e+002, 6.002891e+002
1.032825e+002, 5.497883e+002
1.037646e+002, 5.124469e+002
1.042467e+002, 4.901859e+002
1.047288e+002, 4.794078e+002
1.052109e+002, 4.724916e+002
1.056931e+002, 4.700475e+002
1.061752e+002, 4.701131e+002
1.066573e+002, 4.720492e+002
1.071394e+002, 4.780660e+002
1.076215e+002, 4.822534e+002
1.081036e+002, 4.846197e+002
1.085858e+002, 4.852193e+002
1.090679e+002, 4.839221e+002
1.095500e+002, 4.782321e+002
1.100321e+002, 4.725137e+002
1.105142e+002, 4.691144e+002
1.109963e+002, 4.694991e+002
1.114785e+002, 4.704654e+002
1.119606e+002, 4.717719e+002
1.124427e+002, 4.734038e+002
1.129248e+002, 4.752494e+002
1.134069e+002, 4.774556e+002
1.138890e+002, 4.797794e+002
1.143712e+002, 4.820522e+002
1.148533e+002, 4.841510e+002
1.153354e+002, 4.862593e+002
1.158175e+002, 4.886521e+002
1.162996e+002, 4.914495e+002
1.167817e+002, 4.935549e+002
1.172639e+002, 4.940263e+002
1.177460e+002, 4.937552e+002
1.182281e+002, 4.938708e+002
1.187102e+002, 4.943855e+002
1.191923e+002, 4.956705e+002
1.196744e+002, 4.977626e+002
1.201566e+002, 5.005070e+002
1.206387e+002, 5.047499e+002
1.211208e+002, 5.105758e+002
1.216029e+002, 5.182138e+002
1.220850e+002, 5.281246e+002
1.225671e+002, 5.444825e+002
1.230493e+002, 5.614932e+002
1.235314e+002, 5.739625e+002
1.240135e+002, 5.818890e+002
1.244956e+002, 5.830571e+002
1.249777e+002, 5.719714e+002
1.254598e+002, 5.510378e+002
1.259420e+002, 5.294931e+002
1.264241e+002, 5.115372e+002
1.269062e+002, 4.972498e+002
1.273883e+002, 4.869870e+002
1.278704e+002, 4.813881e+002
1.283525e+002, 4.790842e+002
1.288347e+002, 4.788246e+002
1.293168e+002, 4.805258e+002
1.297989e+002, 4.826419e+002
1.302810e+002, 4.837264e+002
1.307631e+002, 4.841112e+002
1.312452e+002, 4.852850e+002
1.317274e+002, 4.880157e+002
1.322095e+002, 4.915956e+002
1.326916e+002, 4.939582e+002
1.331737e+002, 4.949828e+002
1.336558e+002, 4.957658e+002
1.341379e+002, 4.975758e+002
1.346201e+002, 5.003976e+002
1.351022e+002, 5.029728e+002
1.355843e+002, 5.049716e+002
1.360664e+002, 5.064174e+002
1.365485e+002, 5.072826e+002
1.370306e+002, 5.074302e+002
1.375128e+002, 5.073279e+002
1.379949e+002, 5.074126e+002
1.384770e+002, 5.076074e+002
1.389591e+002, 5.084037e+002
1.394412e+002, 5.102653e+002
1.399233e+002, 5.133153e+002
1.404055e+002, 5.153914e+002
1.408876e+002, 5.162518e+002
1.413697e+002, 5.163652e+002
1.418518e+002, 5.162855e+002
1.423339e+002, 5.155074e+002
1.428160e+002, 5.156516e+002
1.432982e+002, 5.174919e+002
1.437803e+002, 5.216074e+002
1.442624e+002, 5.254774e+002
1.447445e+002, 5.287722e+002
1.452266e+002, 5.319365e+002
1.457087e+002, 5.358927e+002
1.461909e+002, 5.414296e+002
1.466730e+002, 5.468474e+002
1.471551e+002, 5.516111e+002
1.476372e+002, 5.560875e+002
1.481193e+002, 5.591791e+002
1.486014e+002, 5.598029e+002
1.490836e+002, 5.588983e+002
1.495657e+002, 5.597084e+002
1.500478e+002, 5.610248e+002
1.505299e+002, 5.649866e+002
1.510120e+002, 5.726080e+002
1.514941e+002, 5.864597e+002
1.519763e+002, 6.007976e+002
1.524584e+002, 6.170248e+002
1.529405e+002, 6.342515e+002
1.534226e+002, 6.484052e+002
1.539047e+002, 6.580731e+002
1.543868e+002, 6.653008e+002
1.548690e+002, 6.712005e+002
1.553511e+002, 6.743682e+002
1.558332e+002, 6.778397e+002
1.563153e+002, 6.820008e+002
1.567974e+002, 6.868340e+002
1.572795e+002, 6.921475e+002
1.577617e+002, 6.979885e+002
1.582438e+002, 7.042592e+002
1.587259e+002, 7.108909e+002
1.592080e+002, 7.175685e+002
1.596901e+002, 7.249093e+002
1.601722e+002, 7.331771e+002
1.606544e+002, 7.423607e+002
1.611365e+002, 7.520612e+002
1.616186e+002, 7.615911e+002
1.621007e+002, 7.717303e+002
1.625828e+002, 7.834388e+002
1.630649e+002, 7.963378e+002
1.635471e+002, 8.113154e+002
1.640292e+002, 8.280048e+002
1.645113e+002, 8.463953e+002
1.649934e+002, 8.691439e+002
1.654755e+002, 8.960188e+002
1.659576e+002, 9.285432e+002
1.664398e+002, 9.681398e+002
1.669219e+002, 1.015820e+003
1.674040e+002, 1.070955e+003
1.678861e+002, 1.131723e+003
1.683682e+002, 1.198089e+003
1.688503e+002, 1.273482e+003
1.693325e+002, 1.373867e+003
1.698146e+002, 1.483656e+003
1.702967e+002, 1.576224e+003
1.707788e+002, 1.673379e+003
1.712609e+002, 1.730784e+003
1.717430e+002, 1.691440e+003
1.722252e+002, 1.543994e+003
1.727073e+002, 1.373561e+003
1.731894e+002, 1.231814e+003
1.736715e+002, 1.116227e+003
1.741536e+002, 1.025286e+003
1.746357e+002, 9.641168e+002
1.751179e+002, 9.222870e+002
1.756000e+002, 8.882929e+002
1.760821e+002, 8.618333e+002
1.765642e+002, 8.415547e+002
1.770463e+002, 8.281452e+002
1.775284e+002, 8.203646e+002
1.780106e+002, 8.145980e+002
1.784927e+002, 8.092750e+002
1.789748e+002, 8.045861e+002
1.794569e+002, 8.008234e+002
1.799390e+002, 7.978636e+002
1.804211e+002, 7.962795e+002
1.809033e+002, 7.970748e+002
1.813854e+002, 7.999861e+002
1.818675e+002, 8.036844e+002
1.823496e+002, 8.067620e+002
1.828317e+002, 8.100823e+002
1.833138e+002, 8.159476e+002
1.837960e+002, 8.246783e+002
1.842781e+002, 8.356159e+002
1.847602e+002, 8.472585e+002
1.852423e+002, 8.598981e+002
1.857244e+002, 8.750233e+002
1.862065e+002, 8.935090e+002
1.866887e+002, 9.152999e+002
1.871708e+002, 9.401760e+002
1.876529e+002, 9.676494e+002
1.881350e+002, 9.990079e+002
1.886171e+002, 1.035556e+003
1.890992e+002, 1.077606e+003
1.895814e+002, 1.124867e+003
1.900635e+002, 1.176622e+003
1.905456e+002, 1.233796e+003
1.910277e+002, 1.297264e+003
1.915098e+002, 1.367438e+003
1.919919e+002, 1.444048e+003
1.924741e+002, 1.526744e+003
1.929562e+002, 1.615416e+003
1.934383e+002, 1.705097e+003
1.939204e+002, 1.798529e+003
1.944025e+002, 1.894235e+003
1.948846e+002, 1.969676e+003
1.953668e+002, 2.027488e+003
1.958489e+002, 2.057751e+003
1.963310e+002, 2.030215e+003
1.968131e+002, 1.940637e+003
1.972952e+002, 1.825871e+003
1.977773e+002, 1.698454e+003
1.982595e+002, 1.558078e+003
1.987416e+002, 1.438573e+003
1.992237e+002, 1.345191e+003
1.997058e+002, 1.275352e+003
2.001879e+002, 1.224863e+003
2.006700e+002, 1.194162e+003
2.011522e+002, 1.178894e+003
2.016343e+002, 1.177062e+003
2.021164e+002, 1.189021e+003
2.025985e+002, 1.211349e+003
2.030806e+002, 1.244379e+003
2.035627e+002, 1.286880e+003
2.040449e+002, 1.336097e+003
2.045270e+002, 1.393632e+003
2.050091e+002, 1.452599e+003
2.054912e+002, 1.513495e+003
2.059733e+002, 1.580596e+003
2.064554e+002, 1.624777e+003
2.069376e+002, 1.645381e+003
2.074197e+002, 1.639842e+003
2.079018e+002, 1.594379e+003
2.083839e+002, 1.500388e+003
2.088660e+002, 1.387927e+003
2.093481e+002, 1.274043e+003
2.098303e+002, 1.154588e+003
2.103124e+002, 1.049561e+003
2.107945e+002, 9.612588e+002
2.112766e+002, 8.893196e+002
2.117587e+002, 8.297811e+002
2.122408e+002, 7.841251e+002
2.127230e+002, 7.475948e+002
2.132051e+002, 7.172474e+002
2.136872e+002, 6.937493e+002
2.141693e+002, 6.741898e+002
2.146514e+002, 6.589498e+002
2.151335e+002, 6.474325e+002
2.156157e+002, 6.377758e+002
2.160978e+002, 6.302860e+002
2.165799e+002, 6.239062e+002
2.170620e+002, 6.177537e+002
2.175441e+002, 6.113613e+002
2.180262e+002, 6.066173e+002
2.185084e+002, 6.041953e+002
2.189905e+002, 6.035514e+002
2.194726e+002, 6.019686e+002
2.199547e+002, 5.988000e+002
2.204368e+002, 5.957633e+002
2.209189e+002, 5.940329e+002
2.214011e+002, 5.940009e+002
2.218832e+002, 5.942601e+002
2.223653e+002, 5.948032e+002
2.228474e+002, 5.955651e+002
2.233295e+002, 5.962108e+002
2.238116e+002, 5.965193e+002
2.242938e+002, 5.970438e+002
2.247759e+002, 5.981926e+002
2.252580e+002, 6.003088e+002
2.257401e+002, 6.021580e+002
2.262222e+002, 6.034724e+002
2.267043e+002, 6.044445e+002
2.271865e+002, 6.059985e+002
2.276686e+002, 6.083231e+002
2.281507e+002, 6.108890e+002
2.286328e+002, 6.133907e+002
2.291149e+002, 6.158158e+002
2.295970e+002, 6.181627e+002
2.300792e+002, 6.202551e+002
2.305613e+002, 6.222731e+002
2.310434e+002, 6.248271e+002
2.315255e+002, 6.278887e+002
2.320076e+002, 6.314932e+002
2.324897e+002, 6.357083e+002
2.329719e+002, 6.408890e+002
2.334540e+002, 6.458875e+002
2.339361e+002, 6.506481e+002
2.344182e+002, 6.552324e+002
2.349003e+002, 6.599201e+002
2.353824e+002, 6.647836e+002
2.358646e+002, 6.696508e+002
2.363467e+002, 6.743304e+002
2.368288e+002, 6.783061e+002
2.373109e+002, 6.832923e+002
2.377930e+002, 6.897772e+002
2.382751e+002, 6.972368e+002
2.387573e+002, 7.038548e+002
2.392394e+002, 7.091531e+002
2.397215e+002, 7.142772e+002
2.402036e+002, 7.198069e+002
2.406857e+002, 7.260286e+002
2.411678e+002, 7.320051e+002
2.416500e+002, 7.378703e+002
2.421321e+002, 7.434189e+002
2.426142e+002, 7.482534e+002
2.430963e+002, 7.523898e+002
2.435784e+002, 7.557355e+002
2.440605e+002, 7.582156e+002
2.445427e+002, 7.598046e+002
2.450248e+002, 7.606213e+002
2.455069e+002, 7.604647e+002
2.459890e+002, 7.596252e+002
2.464711e+002, 7.588773e+002
2.469532e+002, 7.589584e+002
2.474354e+002, 7.579163e+002
2.479175e+002, 7.546897e+002
2.483996e+002, 7.481676e+002
2.488817e+002, 7.431576e+002
2.493638e+002, 7.404669e+002
2.498459e+002, 7.388483e+002
2.503281e+002, 7.358677e+002
2.508102e+002, 7.305582e+002
2.512923e+002, 7.255750e+002
2.517744e+002, 7.217734e+002
2.522565e+002, 7.193616e+002
2.527386e+002, 7.174689e+002
2.532208e+002, 7.163471e+002
2.537029e+002, 7.155615e+002
2.541850e+002, 7.143066e+002
2.546671e+002, 7.120700e+002
2.551492e+002, 7.103301e+002
2.556313e+002, 7.094706e+002
2.561135e+002, 7.094656e+002
2.565956e+002, 7.104434e+002
2.570777e+002, 7.125000e+002
2.575598e+002, 7.154033e+002
2.580419e+002, 7.188605e+002
2.585240e+002, 7.227972e+002
2.590062e+002, 7.273471e+002
2.594883e+002, 7.326577e+002
2.599704e+002, 7.386652e+002
2.604525e+002, 7.448388e+002
2.609346e+002, 7.508282e+002
2.614167e+002, 7.573235e+002
2.618989e+002, 7.652969e+002
2.623810e+002, 7.752318e+002
2.628631e+002, 7.852022e+002
2.633452e+002, 7.946403e+002
2.638273e+002, 8.036810e+002
2.643094e+002, 8.131755e+002
2.647916e+002, 8.240985e+002
2.652737e+002, 8.342117e+002
2.657558e+002, 8.416871e+002
2.662379e+002, 8.465480e+002
2.667200e+002, 8.486020e+002
2.672021e+002, 8.481085e+002
2.676843e+002, 8.448926e+002
2.681664e+002, 8.369746e+002
2.686485e+002, 8.234332e+002
2.691306e+002, 8.071418e+002
2.696127e+002, 7.900914e+002
2.700948e+002, 7.718953e+002
2.705770e+002, 7.547647e+002
2.710591e+002, 7.388893e+002
2.715412e+002, 7.245031e+002
2.720233e+002, 7.124658e+002
2.725054e+002, 7.031699e+002
2.729875e+002, 6.956697e+002
2.734697e+002, 6.894000e+002
2.739518e+002, 6.842946e+002
2.744339e+002, 6.805760e+002
2.749160e+002, 6.784968e+002
2.753981e+002, 6.776942e+002
2.758802e+002, 6.770238e+002
2.763624e+002, 6.764120e+002
2.768445e+002, 6.762929e+002
2.773266e+002, 6.770321e+002
2.778087e+002, 6.786762e+002
2.782908e+002, 6.805355e+002
2.787729e+002, 6.825328e+002
2.792551e+002, 6.847499e+002
2.797372e+002, 6.873051e+002
2.802193e+002, 6.902119e+002
2.807014e+002, 6.934656e+002
2.811835e+002, 6.968741e+002
2.816656e+002, 7.004534e+002
2.821478e+002, 7.052499e+002
2.826299e+002, 7.113839e+002
2.831120e+002, 7.185919e+002
2.835941e+002, 7.263749e+002
2.840762e+002, 7.347515e+002
2.845583e+002, 7.440966e+002
2.850405e+002, 7.548508e+002
2.855226e+002, 7.669093e+002
2.860047e+002, 7.792819e+002
2.864868e+002, 7.919222e+002
2.869689e+002, 8.050111e+002
2.874510e+002, 8.193082e+002
2.879332e+002, 8.347130e+002
2.884153e+002, 8.493796e+002
2.888974e+002, 8.631589e+002
2.893795e+002, 8.755234e+002
2.898616e+002, 8.841736e+002
2.903438e+002, 8.891472e+002
2.908259e+002, 8.901044e+002
2.913080e+002, 8.862863e+002
2.917901e+002, 8.779484e+002
2.922722e+002, 8.662551e+002
2.927543e+002, 8.509365e+002
2.932365e+002, 8.329250e+002
2.937186e+002, 8.138229e+002
2.942007e+002, 7.937696e+002
2.946828e+002, 7.741108e+002
2.951649e+002, 7.555414e+002
2.956470e+002, 7.383958e+002
2.961292e+002, 7.231240e+002
2.966113e+002, 7.100085e+002
2.970934e+002, 6.989086e+002
2.975755e+002, 6.897817e+002
2.980576e+002, 6.825214e+002
2.985397e+002, 6.763762e+002
2.990219e+002, 6.707943e+002
2.995040e+002, 6.658387e+002
2.999861e+002, 6.617717e+002
3.004682e+002, 6.587836e+002
3.009503e+002, 6.564283e+002
3.014324e+002, 6.545243e+002
3.019146e+002, 6.529190e+002
3.023967e+002, 6.508713e+002
3.028788e+002, 6.473645e+002
3.033609e+002, 6.433190e+002
3.038430e+002, 6.401938e+002
3.043251e+002, 6.383245e+002
3.048073e+002, 6.368549e+002
3.052894e+002, 6.348393e+002
3.057715e+002, 6.325797e+002
3.062536e+002, 6.307614e+002
3.067357e+002, 6.298187e+002
3.072178e+002, 6.294538e+002
3.077000e+002, 6.293490e+002
3.081821e+002, 6.294518e+002
3.086642e+002, 6.299975e+002
3.091463e+002, 6.316908e+002
3.096284e+002, 6.338421e+002
3.101105e+002, 6.354042e+002
3.105927e+002, 6.351228e+002
3.110748e+002, 6.346505e+002
3.115569e+002, 6.352356e+002
3.120390e+002, 6.369070e+002
3.125211e+002, 6.387401e+002
3.130032e+002, 6.403867e+002
3.134854e+002, 6.418858e+002
3.139675e+002, 6.432562e+002
3.144496e+002, 6.445653e+002
3.149317e+002, 6.457080e+002
3.154138e+002, 6.465535e+002
3.158959e+002, 6.471573e+002
3.163781e+002, 6.478507e+002
3.168602e+002, 6.491594e+002
3.173423e+002, 6.503971e+002
3.178244e+002, 6.510439e+002
3.183065e+002, 6.507365e+002
3.187886e+002, 6.501885e+002
3.192708e+002, 6.494830e+002
3.197529e+002, 6.486911e+002
3.202350e+002, 6.480137e+002
3.207171e+002, 6.474089e+002
3.211992e+002, 6.470060e+002
3.216813e+002, 6.469348e+002
3.221635e+002, 6.474612e+002
3.226456e+002, 6.477194e+002
3.231277e+002, 6.471543e+002
3.236098e+002, 6.462679e+002
3.240919e+002, 6.459024e+002
3.245740e+002, 6.467349e+002
3.250562e+002, 6.476053e+002
3.255383e+002, 6.480756e+002
3.260204e+002, 6.479368e+002
3.265025e+002, 6.481814e+002
3.269846e+002, 6.492789e+002
3.274667e+002, 6.506328e+002
3.279489e+002, 6.516214e+002
3.284310e+002, 6.517783e+002
3.289131e+002, 6.521063e+002
3.293952e+002, 6.527279e+002
3.298773e+002, 6.536479e+002
3.303594e+002, 6.548926e+002
3.308416e+002, 6.564258e+002
3.313237e+002, 6.583039e+002
3.318058e+002, 6.605912e+002
3.322879e+002, 6.635813e+002
3.327700e+002, 6.664771e+002
3.332521e+002, 6.690918e+002
3.337343e+002, 6.715569e+002
3.342164e+002, 6.745392e+002
3.346985e+002, 6.780946e+002
3.351806e+002, 6.820098e+002
3.356627e+002, 6.861664e+002
3.361448e+002, 6.904579e+002
3.366270e+002, 6.952236e+002
3.371091e+002, 7.005710e+002
3.375912e+002, 7.062629e+002
3.380733e+002, 7.119116e+002
3.385554e+002, 7.174344e+002
3.390375e+002, 7.230103e+002
3.395197e+002, 7.286631e+002
3.400018e+002, 7.343289e+002
3.404839e+002, 7.405074e+002
3.409660e+002, 7.472040e+002
3.414481e+002, 7.541491e+002
3.419302e+002, 7.608564e+002
3.424124e+002, 7.673700e+002
3.428945e+002, 7.737151e+002
3.433766e+002, 7.796677e+002
3.438587e+002, 7.854739e+002
3.443408e+002, 7.928677e+002
3.448229e+002, 8.020120e+002
3.453051e+002, 8.113755e+002
3.457872e+002, 8.192756e+002
3.462693e+002, 8.259562e+002
3.467514e+002, 8.333439e+002
3.472335e+002, 8.418005e+002
3.477156e+002, 8.511124e+002
3.481978e+002, 8.608265e+002
3.486799e+002, 8.709343e+002
3.491620e+002, 8.812464e+002
3.496441e+002, 8.914091e+002
3.501262e+002, 9.017087e+002
3.506083e+002, 9.127808e+002
3.510905e+002, 9.248429e+002
3.515726e+002, 9.376046e+002
3.520547e+002, 9.513398e+002
3.525368e+002, 9.656494e+002
3.530189e+002, 9.793217e+002
3.535010e+002, 9.925988e+002
3.539832e+002, 1.004499e+003
3.544653e+002, 1.014566e+003
3.549474e+002, 1.022951e+003
3.554295e+002, 1.027071e+003
3.559116e+002, 1.023435e+003
3.563937e+002, 1.014524e+003
3.568759e+002, 1.004154e+003
3.573580e+002, 9.940485e+002
3.578401e+002, 9.825973e+002
3.583222e+002, 9.681398e+002
3.588043e+002, 9.509641e+002
3.592864e+002, 9.335683e+002
3.597686e+002, 9.163765e+002
3.602507e+002, 8.999110e+002
3.607328e+002, 8.847335e+002
3.612149e+002, 8.704819e+002
3.616970e+002, 8.580986e+002
3.621791e+002, 8.482661e+002
3.626613e+002, 8.405780e+002
3.631434e+002, 8.341068e+002
3.636255e+002, 8.281518e+002
3.641076e+002, 8.236598e+002
3.645897e+002, 8.211393e+002
3.650718e+002, 8.209304e+002
3.655540e+002, 8.218912e+002
3.660361e+002, 8.237625e+002
3.665182e+002, 8.267233e+002
3.670003e+002, 8.309897e+002
3.674824e+002, 8.373482e+002
3.679645e+002, 8.442450e+002
3.684467e+002, 8.510823e+002
3.689288e+002, 8.576838e+002
3.694109e+002, 8.661476e+002
3.698930e+002, 8.773124e+002
3.703751e+002, 8.897208e+002
3.708572e+002, 9.024680e+002
3.713394e+002, 9.152326e+002
3.718215e+002, 9.286980e+002
3.723036e+002, 9.432408e+002
3.727857e+002, 9.585161e+002
3.732678e+002, 9.733375e+002
3.737499e+002, 9.872340e+002
3.742321e+002, 1.001726e+003
3.747142e+002, 1.017411e+003
3.751963e+002, 1.034563e+003
3.756784e+002, 1.051994e+003
3.761605e+002, 1.069188e+003
3.766426e+002, 1.087200e+003
3.771248e+002, 1.107039e+003
3.776069e+002, 1.128985e+003
3.780890e+002, 1.152168e+003
3.785711e+002, 1.175747e+003
3.790532e+002, 1.200201e+003
3.795353e+002, 1.227394e+003
3.800175e+002, 1.257677e+003
3.804996e+002, 1.290246e+003
3.809817e+002, 1.324177e+003
3.814638e+002, 1.359480e+003
3.819459e+002, 1.397998e+003
3.824280e+002, 1.440159e+003
3.829102e+002, 1.485117e+003
3.833923e+002, 1.531583e+003
3.838744e+002, 1.579602e+003
3.843565e+002, 1.625757e+003
3.848386e+002, 1.669028e+003
3.853207e+002, 1.708608e+003
3.858029e+002, 1.742710e+003
3.862850e+002, 1.772335e+003
3.867671e+002, 1.791895e+003
3.872492e+002, 1.798080e+003
3.877313e+002, 1.790095e+003
3.882134e+002, 1.765803e+003
3.886956e+002, 1.720800e+003
3.891777e+002, 1.661930e+003
3.896598e+002, 1.590887e+003
3.901419e+002, 1.508710e+003
3.906240e+002, 1.426218e+003
3.911061e+002, 1.344660e+003
3.915883e+002, 1.267692e+003
3.920704e+002, 1.198770e+003
3.925525e+002, 1.139331e+003
3.930346e+002, 1.087569e+003
3.935167e+002, 1.042680e+003
3.939988e+002, 1.004205e+003
3.944810e+002, 9.702272e+002
3.949631e+002, 9.403621e+002
3.954452e+002, 9.145987e+002
3.959273e+002, 8.932723e+002
3.964094e+002, 8.771335e+002
3.968915e+002, 8.631223e+002
3.973737e+002, 8.510709e+002
3.978558e+002, 8.407074e+002
3.983379e+002, 8.316981e+002
3.988200e+002, 8.249880e+002
3.993021e+002, 8.185771e+002
3.997842e+002, 8.117229e+002
4.002664e+002, 8.044265e+002
4.007485e+002, 7.987551e+002
4.012306e+002, 7.953640e+002
4.017127e+002, 7.930052e+002
4.021948e+002, 7.909660e+002
4.026769e+002, 7.893538e+002
4.031591e+002, 7.877661e+002
4.036412e+002, 7.859344e+002
4.041233e+002, 7.842252e+002
4.046054e+002, 7.836354e+002
4.050875e+002, 7.844927e+002
4.055696e+002, 7.855209e+002
4.060518e+002, 7.860455e+002
4.065339e+002, 7.860336e+002
4.070160e+002, 7.870481e+002
4.074981e+002, 7.892635e+002
4.079802e+002, 7.920212e+002
4.084623e+002, 7.944906e+002
4.089445e+002, 7.967058e+002
4.094266e+002, 7.994266e+002
4.099087e+002, 8.030634e+002
4.103908e+002, 8.071705e+002
4.108729e+002, 8.106146e+002
4.113550e+002, 8.134333e+002
4.118372e+002, 8.161183e+002
4.123193e+002, 8.187848e+002
4.128014e+002, 8.216277e+002
4.132835e+002, 8.252372e+002
4.137656e+002, 8.298459e+002
4.142477e+002, 8.346752e+002
4.147299e+002, 8.385400e+002
4.152120e+002, 8.419215e+002
4.156941e+002, 8.458762e+002
4.161762e+002, 8.511608e+002
4.166583e+002, 8.570970e+002
4.171404e+002, 8.630992e+002
4.176226e+002, 8.691927e+002
4.181047e+002, 8.754711e+002
4.185868e+002, 8.826284e+002
4.190689e+002, 8.897246e+002
4.195510e+002, 8.959709e+002
4.200331e+002, 9.008648e+002
4.205153e+002, 9.051800e+002
4.209974e+002, 9.101251e+002
4.214795e+002, 9.147619e+002
4.219616e+002, 9.164722e+002
4.224437e+002, 9.143405e+002
4.229258e+002, 9.094188e+002
4.234080e+002, 9.017916e+002
4.238901e+002, 8.907753e+002
4.243722e+002, 8.794551e+002
4.248543e+002, 8.676462e+002
4.253364e+002, 8.558665e+002
4.258185e+002, 8.445868e+002
4.263007e+002, 8.324500e+002
4.267828e+002, 8.226366e+002
4.272649e+002, 8.158012e+002
4.277470e+002, 8.117369e+002
4.282291e+002, 8.091135e+002
4.287112e+002, 8.083568e+002
4.291934e+002, 8.083206e+002
4.296755e+002, 8.082745e+002
4.301576e+002, 8.080148e+002
4.306397e+002, 8.088242e+002
4.311218e+002, 8.109041e+002
4.316039e+002, 8.137618e+002
4.320861e+002, 8.166512e+002
4.325682e+002, 8.195480e+002
4.330503e+002, 8.228846e+002
4.335324e+002, 8.270046e+002
4.340145e+002, 8.316721e+002
4.344966e+002, 8.359328e+002
4.349788e+002, 8.397730e+002
4.354609e+002, 8.438443e+002
4.359430e+002, 8.484490e+002
4.364251e+002, 8.537689e+002
4.369072e+002, 8.603471e+002
4.373893e+002, 8.685446e+002
4.378715e+002, 8.774671e+002
4.383536e+002, 8.861100e+002
4.388357e+002, 8.946486e+002
4.393178e+002, 9.035690e+002
4.397999e+002, 9.133871e+002
4.402820e+002, 9.235606e+002
4.407642e+002, 9.339571e+002
4.412463e+002, 9.446468e+002
4.417284e+002, 9.538512e+002
4.422105e+002, 9.603100e+002
4.426926e+002, 9.650273e+002
4.431747e+002, 9.689818e+002
4.436569e+002, 9.729871e+002
4.441390e+002, 9.755813e+002
4.446211e+002, 9.772258e+002
4.451032e+002, 9.772191e+002
4.455853e+002, 9.734762e+002
4.460674e+002, 9.640139e+002
4.465496e+002, 9.521935e+002
4.470317e+002, 9.388771e+002
4.475138e+002, 9.234124e+002
4.479959e+002, 9.086072e+002
4.484780e+002, 8.938616e+002
4.489601e+002, 8.801374e+002
4.494423e+002, 8.681593e+002
4.499244e+002, 8.582542e+002
4.504065e+002, 8.497010e+002
4.508886e+002, 8.424391e+002
4.513707e+002, 8.364822e+002
4.518528e+002, 8.317606e+002
4.523350e+002, 8.284753e+002
4.528171e+002, 8.257250e+002
4.532992e+002, 8.227845e+002
4.537813e+002, 8.196181e+002
4.542634e+002, 8.176254e+002
4.547455e+002, 8.169233e+002
4.552277e+002, 8.169951e+002
4.557098e+002, 8.173527e+002
4.561919e+002, 8.179471e+002
4.566740e+002, 8.184908e+002
4.571561e+002, 8.186906e+002
4.576382e+002, 8.189423e+002
4.581204e+002, 8.200508e+002
4.586025e+002, 8.219384e+002
4.590846e+002, 8.239362e+002
4.595667e+002, 8.255290e+002
4.600488e+002, 8.270254e+002
4.605309e+002, 8.287773e+002
4.610131e+002, 8.307933e+002
4.614952e+002, 8.332672e+002
4.619773e+002, 8.362877e+002
4.624594e+002, 8.398319e+002
4.629415e+002, 8.439151e+002
4.634236e+002, 8.488486e+002
4.639058e+002, 8.539747e+002
4.643879e+002, 8.590827e+002
4.648700e+002, 8.641201e+002
4.653521e+002, 8.692648e+002
4.658342e+002, 8.747119e+002
4.663163e+002, 8.802107e+002
4.667985e+002, 8.856291e+002
4.672806e+002, 8.908541e+002
4.677627e+002, 8.961363e+002
4.682448e+002, 9.009448e+002
4.687269e+002, 9.059879e+002
4.692090e+002, 9.124591e+002
4.696912e+002, 9.214969e+002
4.701733e+002, 9.299702e+002
4.706554e+002, 9.368708e+002
4.711375e+002, 9.424455e+002
4.716196e+002, 9.490738e+002
4.721017e+002, 9.568417e+002
4.725839e+002, 9.654339e+002
4.730660e+002, 9.751263e+002
4.735481e+002, 9.858930e+002
4.740302e+002, 9.960277e+002
4.745123e+002, 1.005141e+003
4.749944e+002, 1.014324e+003
4.754766e+002, 1.025664e+003
4.759587e+002, 1.038803e+003
4.764408e+002, 1.051450e+003
4.769229e+002, 1.062495e+003
4.774050e+002, 1.072511e+003
4.778871e+002, 1.082623e+003
4.783693e+002, 1.092714e+003
4.788514e+002, 1.101597e+003
4.793335e+002, 1.109463e+003
4.798156e+002, 1.115239e+003
4.802977e+002, 1.117555e+003
4.807798e+002, 1.116053e+003
4.812620e+002, 1.111522e+003
4.817441e+002, 1.104018e+003
4.822262e+002, 1.093833e+003
4.827083e+002, 1.081399e+003
4.831904e+002, 1.065085e+003
4.836725e+002, 1.048156e+003
4.841547e+002, 1.031945e+003
4.846368e+002, 1.016458e+003
4.851189e+002, 1.000419e+003
4.856010e+002, 9.816688e+002
4.860831e+002, 9.638385e+002
4.865652e+002, 9.488235e+002
4.870474e+002, 9.370256e+002
4.875295e+002, 9.270429e+002
4.880116e+002, 9.194974e+002
4.884937e+002, 9.134193e+002
4.889758e+002, 9.073224e+002
4.894579e+002, 9.008798e+002
4.899401e+002, 8.954247e+002
4.904222e+002, 8.914155e+002
4.909043e+002, 8.886046e+002
4.913864e+002, 8.855947e+002
4.918685e+002, 8.822897e+002
4.923506e+002, 8.793850e+002
4.928328e+002, 8.774383e+002
4.933149e+002, 8.763215e+002
4.937970e+002, 8.755018e+002
4.942791e+002, 8.749963e+002
4.947612e+002, 8.745110e+002
4.952433e+002, 8.735577e+002
4.957255e+002, 8.723535e+002
4.962076e+002, 8.714291e+002
4.966897e+002, 8.709667e+002
4.971718e+002, 8.708908e+002
4.976539e+002, 8.715582e+002
4.981360e+002, 8.726878e+002
4.986182e+002, 8.731849e+002
4.991003e+002, 8.715594e+002
4.995824e+002, 8.697197e+002
5.000645e+002, 8.691190e+002
5.005466e+002, 8.701662e+002
5.010287e+002, 8.712598e+002
5.015109e+002, 8.723094e+002
5.019930e+002, 8.730042e+002
5.024751e+002, 8.730173e+002
5.029572e+002, 8.708554e+002
5.034393e+002, 8.697530e+002
5.039214e+002, 8.706876e+002
5.044036e+002, 8.729697e+002
5.048857e+002, 8.742228e+002
5.053678e+002, 8.741813e+002
5.058499e+002, 8.735654e+002
5.063320e+002, 8.723673e+002
5.068141e+002, 8.704711e+002
5.072963e+002, 8.699224e+002
5.077784e+002, 8.709973e+002
5.082605e+002, 8.726910e+002
5.087426e+002, 8.742548e+002
5.092247e+002, 8.756552e+002
5.097068e+002, 8.763558e+002
5.101890e+002, 8.761921e+002
5.106711e+002, 8.754013e+002
5.111532e+002, 8.741709e+002
5.116353e+002, 8.725782e+002
5.121174e+002, 8.710495e+002
5.125995e+002, 8.696866e+002
5.130817e+002, 8.685482e+002
5.135638e+002, 8.678028e+002
5.140459e+002, 8.674326e+002
5.145280e+002, 8.670646e+002
5.150101e+002, 8.663848e+002
5.154922e+002, 8.656413e+002
5.159744e+002, 8.650549e+002
5.164565e+002, 8.646075e+002
5.169386e+002, 8.644587e+002
5.174207e+002, 8.647783e+002
5.179028e+002, 8.654170e+002
5.183849e+002, 8.661248e+002
5.188671e+002, 8.672286e+002
5.193492e+002, 8.679929e+002
5.198313e+002, 8.679322e+002
5.203134e+002, 8.671560e+002
5.207955e+002, 8.673567e+002
5.212776e+002, 8.686922e+002
5.217598e+002, 8.707631e+002
5.222419e+002, 8.734703e+002
5.227240e+002, 8.769914e+002
5.232061e+002, 8.802428e+002
5.236882e+002, 8.832137e+002
5.241703e+002, 8.859184e+002
5.246525e+002, 8.882427e+002
5.251346e+002, 8.902341e+002
5.256167e+002, 8.925051e+002
5.260988e+002, 8.953592e+002
5.265809e+002, 8.984084e+002
5.270630e+002, 9.005936e+002
5.275452e+002, 9.021462e+002
5.280273e+002, 9.043835e+002
5.285094e+002, 9.087039e+002
5.289915e+002, 9.138292e+002
5.294736e+002, 9.181776e+002
5.299557e+002, 9.216107e+002
5.304379e+002, 9.254904e+002
5.309200e+002, 9.304277e+002
5.314021e+002, 9.363518e+002
5.318842e+002, 9.432816e+002
5.323663e+002, 9.522365e+002
5.328484e+002, 9.606900e+002
5.333306e+002, 9.676057e+002
5.338127e+002, 9.735916e+002
5.342948e+002, 9.797552e+002
5.347769e+002, 9.866044e+002
5.352590e+002, 9.932797e+002
5.357411e+002, 9.998827e+002
5.362233e+002, 1.006361e+003
5.367054e+002, 1.011464e+003
5.371875e+002, 1.015300e+003
5.376696e+002, 1.017511e+003
5.381517e+002, 1.018072e+003
5.386339e+002, 1.017059e+003
5.391160e+002, 1.013263e+003
5.395981e+002, 1.006283e+003
5.400802e+002, 9.974896e+002
5.405623e+002, 9.878903e+002
5.410444e+002, 9.776981e+002
5.415266e+002, 9.678585e+002
5.420087e+002, 9.585319e+002
5.424908e+002, 9.498502e+002
5.429729e+002, 9.421801e+002
5.434550e+002, 9.355041e+002
5.439371e+002, 9.295075e+002
5.444193e+002, 9.234908e+002
5.449014e+002, 9.183625e+002
5.453835e+002, 9.152679e+002
5.458656e+002, 9.143977e+002
5.463477e+002, 9.133776e+002
5.468298e+002, 9.105873e+002
5.473120e+002, 9.075681e+002
5.477941e+002, 9.056151e+002
5.482762e+002, 9.057460e+002
5.487583e+002, 9.058063e+002
5.492404e+002, 9.057260e+002
5.497225e+002, 9.054467e+002
5.502047e+002, 9.047863e+002
5.506868e+002, 9.032881e+002
5.511689e+002, 9.023080e+002
5.516510e+002, 9.023274e+002
5.521331e+002, 9.031819e+002
5.526152e+002, 9.038204e+002
5.530974e+002, 9.042408e+002
5.535795e+002, 9.045151e+002
5.540616e+002, 9.047099e+002
5.545437e+002, 9.048241e+002
5.550258e+002, 9.046346e+002
5.555079e+002, 9.040568e+002
5.559901e+002, 9.037911e+002
5.564722e+002, 9.049225e+002
5.569543e+002, 9.068782e+002
5.574364e+002, 9.084314e+002
5.579185e+002, 9.090380e+002
5.584006e+002, 9.094384e+002
5.588828e+002, 9.102305e+002
5.593649e+002, 9.112549e+002
5.598470e+002, 9.121716e+002
5.603291e+002, 9.124212e+002
5.608112e+002, 9.128752e+002
5.612933e+002, 9.140273e+002
5.617755e+002, 9.158865e+002
5.622576e+002, 9.176168e+002
5.627397e+002, 9.191913e+002
5.632218e+002, 9.204863e+002
5.637039e+002, 9.214299e+002
5.641860e+002, 9.219387e+002
5.646682e+002, 9.222943e+002
5.651503e+002, 9.224037e+002
5.656324e+002, 9.225086e+002
5.661145e+002, 9.228226e+002
5.665966e+002, 9.233262e+002
5.670787e+002, 9.245374e+002
5.675609e+002, 9.268980e+002
5.680430e+002, 9.296565e+002
5.685251e+002, 9.308873e+002
5.690072e+002, 9.307960e+002
5.694893e+002, 9.308682e+002
5.699714e+002, 9.319865e+002
5.704536e+002, 9.337296e+002
5.709357e+002, 9.355786e+002
5.714178e+002, 9.375025e+002
5.718999e+002, 9.394483e+002
5.723820e+002, 9.411464e+002
5.728641e+002, 9.429529e+002
5.733463e+002, 9.451174e+002
5.738284e+002, 9.476441e+002
5.743105e+002, 9.506776e+002
5.747926e+002, 9.546055e+002
5.752747e+002, 9.589284e+002
5.757568e+002, 9.630043e+002
5.762390e+002, 9.668301e+002
5.767211e+002, 9.703914e+002
5.772032e+002, 9.736262e+002
5.776853e+002, 9.766119e+002
5.781674e+002, 9.793984e+002
5.786495e+002, 9.817605e+002
5.791317e+002, 9.846168e+002
5.796138e+002, 9.885879e+002
5.800959e+002, 9.934882e+002
5.805780e+002, 9.978044e+002
5.810601e+002, 1.001576e+003
5.815422e+002, 1.004787e+003
5.820244e+002, 1.007134e+003
5.825065e+002, 1.008958e+003
5.829886e+002, 1.011063e+003
5.834707e+002, 1.013617e+003
5.839528e+002, 1.016322e+003
5.844349e+002, 1.018984e+003
5.849171e+002, 1.021616e+003
5.853992e+002, 1.024236e+003
5.858813e+002, 1.026650e+003
5.863634e+002, 1.029269e+003
5.868455e+002, 1.032142e+003
5.873276e+002, 1.035327e+003
5.878098e+002, 1.038897e+003
5.882919e+002, 1.043796e+003
5.887740e+002, 1.048103e+003
5.892561e+002, 1.051147e+003
5.897382e+002, 1.052902e+003
5.902203e+002, 1.054663e+003
5.907025e+002, 1.056658e+003
5.911846e+002, 1.058210e+003
5.916667e+002, 1.058731e+003
5.921488e+002, 1.058142e+003
5.926309e+002, 1.057816e+003
5.931130e+002, 1.057945e+003
5.935952e+002, 1.057842e+003
5.940773e+002, 1.056772e+003
5.945594e+002, 1.054780e+003
5.950415e+002, 1.051986e+003
5.955236e+002, 1.048169e+003
5.960057e+002, 1.044029e+003
5.964879e+002, 1.040223e+003
5.969700e+002, 1.036728e+003
5.974521e+002, 1.033532e+003
5.979342e+002, 1.030587e+003
5.984163e+002, 1.027962e+003
5.988984e+002, 1.025709e+003
5.993806e+002, 1.023807e+003
5.998627e+002, 1.022185e+003
6.003448e+002, 1.021286e+003
6.008269e+002, 1.020257e+003
6.013090e+002, 1.018589e+003
6.017911e+002, 1.015978e+003
6.022733e+002, 1.013878e+003
6.027554e+002, 1.012413e+003
6.032375e+002, 1.011280e+003
6.037196e+002, 1.010192e+003
6.042017e+002, 1.009113e+003
6.046838e+002, 1.008347e+003
6.051660e+002, 1.007866e+003
6.056481e+002, 1.007852e+003
6.061302e+002, 1.009230e+003
6.066123e+002, 1.011552e+003
6.070944e+002, 1.012643e+003
6.075765e+002, 1.010873e+003
6.080587e+002, 1.008308e+003
6.085408e+002, 1.007379e+003
6.090229e+002, 1.007718e+003
6.095050e+002, 1.007987e+003
6.099871e+002, 1.007388e+003
6.104692e+002, 1.006578e+003
6.109514e+002, 1.005927e+003
6.114335e+002, 1.005458e+003
6.119156e+002, 1.005001e+003
6.123977e+002, 1.004584e+003
6.128798e+002, 1.004110e+003
6.133619e+002, 1.003503e+003
6.138441e+002, 1.002589e+003
6.143262e+002, 1.001973e+003
6.148083e+002, 1.001737e+003
6.152904e+002, 1.001698e+003
6.157725e+002, 1.001808e+003
6.162546e+002, 1.002122e+003
6.167368e+002, 1.001658e+003
6.172189e+002, 9.999085e+002
6.177010e+002, 9.978577e+002
6.181831e+002, 9.974050e+002
6.186652e+002, 9.982561e+002
6.191473e+002, 9.992418e+002
6.196295e+002, 9.997075e+002
6.201116e+002, 1.000089e+003
6.205937e+002, 1.000916e+003
6.210758e+002, 1.002087e+003
6.215579e+002, 1.003130e+003
6.220400e+002, 1.003703e+003
6.225222e+002, 1.004136e+003
6.230043e+002, 1.004517e+003
6.234864e+002, 1.004773e+003
6.239685e+002, 1.005450e+003
6.244506e+002, 1.007081e+003
6.249327e+002, 1.008738e+003
6.254149e+002, 1.009734e+003
6.258970e+002, 1.009665e+003
6.263791e+002, 1.010115e+003
6.268612e+002, 1.011161e+003
6.273433e+002, 1.012692e+003
6.278254e+002, 1.014844e+003
6.283076e+002, 1.017560e+003
6.287897e+002, 1.019600e+003
6.292718e+002, 1.020448e+003
6.297539e+002, 1.020816e+003
6.302360e+002, 1.021884e+003
6.307181e+002, 1.023439e+003
6.312003e+002, 1.024786e+003
6.316824e+002, 1.024901e+003
6.321645e+002, 1.025218e+003
6.326466e+002, 1.027204e+003
6.331287e+002, 1.030604e+003
6.336108e+002, 1.033529e+003
6.340930e+002, 1.034306e+003
6.345751e+002, 1.035341e+003
6.350572e+002, 1.038061e+003
6.355393e+002, 1.042992e+003
6.360214e+002, 1.047122e+003
6.365035e+002, 1.049778e+003
6.369857e+002, 1.052461e+003
6.374678e+002, 1.056523e+003
6.379499e+002, 1.062262e+003
6.384320e+002, 1.066928e+003
6.389141e+002, 1.070028e+003
6.393962e+002, 1.072814e+003
6.398784e+002, 1.077114e+003
6.403605e+002, 1.082571e+003
6.408426e+002, 1.087734e+003
6.413247e+002, 1.091829e+003
6.418068e+002, 1.096077e+003
6.422889e+002, 1.101879e+003
6.427711e+002, 1.108875e+003
6.432532e+002, 1.116398e+003
6.437353e+002, 1.124245e+003
6.442174e+002, 1.132359e+003
6.446995e+002, 1.140957e+003
6.451816e+002, 1.149892e+003
6.456638e+002, 1.158426e+003
6.461459e+002, 1.165720e+003
6.466280e+002, 1.173330e+003
6.471101e+002, 1.181971e+003
6.475922e+002, 1.191640e+003
6.480743e+002, 1.201343e+003
6.485565e+002, 1.211501e+003
6.490386e+002, 1.220379e+003
6.495207e+002, 1.226340e+003
6.500028e+002, 1.229555e+003
6.504849e+002, 1.231787e+003
6.509670e+002, 1.233328e+003
6.514492e+002, 1.232475e+003
6.519313e+002, 1.226968e+003
6.524134e+002, 1.217799e+003
6.528955e+002, 1.206769e+003
6.533776e+002, 1.193508e+003
6.538597e+002, 1.179941e+003
6.543419e+002, 1.166713e+003
6.548240e+002, 1.154049e+003
6.553061e+002, 1.142517e+003
6.557882e+002, 1.132260e+003
6.562703e+002, 1.123190e+003
6.567524e+002, 1.115158e+003
6.572346e+002, 1.108302e+003
6.577167e+002, 1.103249e+003
6.581988e+002, 1.100546e+003
6.586809e+002, 1.098442e+003
6.591630e+002, 1.096380e+003
6.596451e+002, 1.094425e+003
6.601273e+002, 1.092959e+003
6.606094e+002, 1.091958e+003
6.610915e+002, 1.091397e+003
6.615736e+002, 1.091512e+003
6.620557e+002, 1.091948e+003
6.625378e+002, 1.091781e+003
6.630200e+002, 1.090965e+003
6.635021e+002, 1.090648e+003
6.639842e+002, 1.092277e+003
6.644663e+002, 1.094420e+003
6.649484e+002, 1.095647e+003
6.654305e+002, 1.095374e+003
6.659127e+002, 1.095214e+003
6.663948e+002, 1.095807e+003
6.668769e+002, 1.096578e+003
6.673590e+002, 1.096932e+003
6.678411e+002, 1.096640e+003
6.683232e+002, 1.096493e+003
6.688054e+002, 1.096779e+003
6.692875e+002, 1.097000e+003
6.697696e+002, 1.095977e+003
6.702517e+002, 1.093671e+003
6.707338e+002, 1.091946e+003
6.712159e+002, 1.091300e+003
6.716981e+002, 1.091601e+003
6.721802e+002, 1.093336e+003
6.726623e+002, 1.095991e+003
6.731444e+002, 1.097798e+003
6.736265e+002, 1.097148e+003
6.741086e+002, 1.095848e+003
6.745908e+002, 1.094906e+003
6.750729e+002, 1.094411e+003
6.755550e+002, 1.094597e+003
6.760371e+002, 1.096210e+003
6.765192e+002, 1.097937e+003
6.770013e+002, 1.099237e+003
6.774835e+002, 1.100086e+003
6.779656e+002, 1.100809e+003
6.784477e+002, 1.101285e+003
6.789298e+002, 1.101874e+003
6.794119e+002, 1.102897e+003
6.798940e+002, 1.104367e+003
6.803762e+002, 1.105439e+003
6.808583e+002, 1.105975e+003
6.813404e+002, 1.106846e+003
6.818225e+002, 1.109505e+003
6.823046e+002, 1.113076e+003
6.827867e+002, 1.115649e+003
6.832689e+002, 1.116484e+003
6.837510e+002, 1.117382e+003
6.842331e+002, 1.119808e+003
6.847152e+002, 1.122988e+003
6.851973e+002, 1.125883e+003
6.856794e+002, 1.128370e+003
6.861616e+002, 1.130424e+003
6.866437e+002, 1.131356e+003
6.871258e+002, 1.132048e+003
6.876079e+002, 1.134203e+003
6.880900e+002, 1.138429e+003
6.885721e+002, 1.142476e+003
6.890543e+002, 1.145844e+003
6.895364e+002, 1.148592e+003
6.900185e+002, 1.150744e+003
6.905006e+002, 1.152309e+003
6.909827e+002, 1.154036e+003
6.914648e+002, 1.157140e+003
6.919470e+002, 1.160207e+003
6.924291e+002, 1.160820e+003
6.929112e+002, 1.159297e+003
6.933933e+002, 1.157437e+003
6.938754e+002, 1.156346e+003
6.943575e+002, 1.155154e+003
6.948397e+002, 1.152972e+003
6.953218e+002, 1.149599e+003
6.958039e+002, 1.147336e+003
6.962860e+002, 1.147557e+003
6.967681e+002, 1.147953e+003
6.972502e+002, 1.147387e+003
6.977324e+002, 1.145703e+003
6.982145e+002, 1.143732e+003
6.986966e+002, 1.141258e+003
6.991787e+002, 1.139130e+003
6.996608e+002, 1.138333e+003
7.001429e+002, 1.138657e+003
7.006251e+002, 1.139038e+003
7.011072e+002, 1.139323e+003
7.015893e+002, 1.139688e+003
7.020714e+002, 1.140343e+003
7.025535e+002, 1.141163e+003
7.030356e+002, 1.142013e+003
7.035178e+002, 1.143057e+003
7.039999e+002, 1.143716e+003
7.044820e+002, 1.143188e+003
7.049641e+002, 1.142285e+003
7.054462e+002, 1.142322e+003
7.059283e+002, 1.144111e+003
7.064105e+002, 1.145641e+003
7.068926e+002, 1.146687e+003
7.073747e+002, 1.147325e+003
7.078568e+002, 1.147611e+003
7.083389e+002, 1.147508e+003
7.088210e+002, 1.147669e+003
7.093032e+002, 1.148445e+003
7.097853e+002, 1.149515e+003
7.102674e+002, 1.150068e+003
7.107495e+002, 1.150276e+003
7.112316e+002, 1.150835e+003
7.117137e+002, 1.152438e+003
7.121959e+002, 1.154268e+003
7.126780e+002, 1.155921e+003
7.131601e+002, 1.157337e+003
7.136422e+002, 1.158202e+003
7.141243e+002, 1.157485e+003
7.146064e+002, 1.157133e+003
7.150886e+002, 1.158104e+003
7.155707e+002, 1.160456e+003
7.160528e+002, 1.162247e+003
7.165349e+002, 1.163443e+003
7.170170e+002, 1.164213e+003
7.174991e+002, 1.164570e+003
7.179813e+002, 1.164564e+003
7.184634e+002, 1.164479e+003
7.189455e+002, 1.164304e+003
7.194276e+002, 1.164494e+003
7.199097e+002, 1.165832e+003
7.203918e+002, 1.167604e+003
7.208740e+002, 1.168607e+003
7.213561e+002, 1.168452e+003
7.218382e+002, 1.168950e+003
7.223203e+002, 1.172121e+003
7.228024e+002, 1.175647e+003
7.232845e+002, 1.177427e+003
7.237667e+002, 1.175485e+003
7.242488e+002, 1.175006e+003
7.247309e+002, 1.176741e+003
7.252130e+002, 1.179123e+003
7.256951e+002, 1.180186e+003
7.261772e+002, 1.179810e+003
7.266594e+002, 1.179931e+003
7.271415e+002, 1.180892e+003
7.276236e+002, 1.182278e+003
7.281057e+002, 1.183897e+003
7.285878e+002, 1.185493e+003
7.290699e+002, 1.186358e+003
7.295521e+002, 1.185816e+003
7.300342e+002, 1.185201e+003
7.305163e+002, 1.185387e+003
7.309984e+002, 1.186135e+003
7.314805e+002, 1.187021e+003
7.319626e+002, 1.188307e+003
7.324448e+002, 1.189270e+003
7.329269e+002, 1.189529e+003
7.334090e+002, 1.189448e+003
7.338911e+002, 1.190107e+003
7.343732e+002, 1.191727e+003
7.348553e+002, 1.193136e+003
7.353375e+002, 1.193878e+003
7.358196e+002, 1.194238e+003
7.363017e+002, 1.195057e+003
7.367838e+002, 1.196235e+003
7.372659e+002, 1.197147e+003
7.377480e+002, 1.197026e+003
7.382302e+002, 1.196798e+003
7.387123e+002, 1.197502e+003
7.391944e+002, 1.198941e+003
7.396765e+002, 1.200110e+003
7.401586e+002, 1.200038e+003
7.406407e+002, 1.200186e+003
7.411229e+002, 1.201487e+003
7.416050e+002, 1.203867e+003
7.420871e+002, 1.205314e+003
7.425692e+002, 1.205492e+003
7.430513e+002, 1.205560e+003
7.435334e+002, 1.206278e+003
7.440156e+002, 1.207502e+003
7.444977e+002, 1.207638e+003
7.449798e+002, 1.206689e+003
7.454619e+002, 1.206236e+003
7.459440e+002, 1.207990e+003
7.464261e+002, 1.210691e+003
7.469083e+002, 1.212818e+003
7.473904e+002, 1.214225e+003
7.478725e+002, 1.215439e+003
7.483546e+002, 1.216430e+003
7.488367e+002, 1.217475e+003
7.493188e+002, 1.218862e+003
7.498010e+002, 1.220834e+003
7.502831e+002, 1.222129e+003
7.507652e+002, 1.222567e+003
7.512473e+002, 1.222575e+003
7.517294e+002, 1.222358e+003
7.522115e+002, 1.221924e+003
7.526937e+002, 1.221792e+003
7.531758e+002, 1.222001e+003
7.536579e+002, 1.222508e+003
7.541400e+002, 1.223612e+003
7.546221e+002, 1.224891e+003
7.551042e+002, 1.225582e+003
7.555864e+002, 1.225407e+003
7.560685e+002, 1.225229e+003
7.565506e+002, 1.225595e+003
7.570327e+002, 1.226161e+003
7.575148e+002, 1.226558e+003
7.579969e+002, 1.225937e+003
7.584791e+002, 1.226539e+003
7.589612e+002, 1.229111e+003
7.594433e+002, 1.232068e+003
7.599254e+002, 1.233121e+003
7.604075e+002, 1.232146e+003
7.608896e+002, 1.232262e+003
7.613718e+002, 1.234177e+003
7.618539e+002, 1.236514e+003
7.623360e+002, 1.237565e+003
7.628181e+002, 1.237656e+003
7.633002e+002, 1.237382e+003
7.637823e+002, 1.236492e+003
7.642645e+002, 1.236075e+003
7.647466e+002, 1.237127e+003
7.652287e+002, 1.238919e+003
7.657108e+002, 1.240368e+003
7.661929e+002, 1.240599e+003
7.666750e+002, 1.241588e+003
7.671572e+002, 1.244122e+003
7.676393e+002, 1.247044e+003
7.681214e+002, 1.247947e+003
7.686035e+002, 1.246669e+003
7.690856e+002, 1.245649e+003
7.695677e+002, 1.245424e+003
7.700499e+002, 1.245870e+003
7.705320e+002, 1.246963e+003
7.710141e+002, 1.248565e+003
7.714962e+002, 1.250342e+003
7.719783e+002, 1.252535e+003
7.724604e+002, 1.254444e+003
7.729426e+002, 1.255339e+003
7.734247e+002, 1.255684e+003
7.739068e+002, 1.256582e+003
7.743889e+002, 1.258922e+003
7.748710e+002, 1.260710e+003
7.753531e+002, 1.261421e+003
7.758353e+002, 1.261453e+003
7.763174e+002, 1.261908e+003
7.767995e+002, 1.262801e+003
7.772816e+002, 1.263933e+003
7.777637e+002, 1.265239e+003
7.782458e+002, 1.266757e+003
7.787280e+002, 1.268589e+003
7.792101e+002, 1.270705e+003
7.796922e+002, 1.272952e+003
7.801743e+002, 1.275416e+003
7.806564e+002, 1.277866e+003
7.811385e+002, 1.280226e+003
7.816207e+002, 1.282501e+003
7.821028e+002, 1.284633e+003
7.825849e+002, 1.286243e+003
7.830670e+002, 1.288335e+003
7.835491e+002, 1.291353e+003
7.840313e+002, 1.294990e+003
7.845134e+002, 1.298195e+003
7.849955e+002, 1.300983e+003
7.854776e+002, 1.303234e+003
7.859597e+002, 1.304530e+003
7.864418e+002, 1.305538e+003
7.869240e+002, 1.307776e+003
7.874061e+002, 1.310758e+003
7.878882e+002, 1.312672e+003
7.883703e+002, 1.311559e+003
7.888524e+002, 1.310125e+003
7.893345e+002, 1.309904e+003
7.898167e+002, 1.310705e+003
7.902988e+002, 1.310678e+003
7.907809e+002, 1.309610e+003
7.912630e+002, 1.308055e+003
7.917451e+002, 1.305941e+003
7.922272e+002, 1.303556e+003
7.927094e+002, 1.302080e+003
7.931915e+002, 1.301501e+003
7.936736e+002, 1.301098e+003
7.941557e+002, 1.300960e+003
7.946378e+002, 1.300466e+003
7.951199e+002, 1.298156e+003
7.956021e+002, 1.294579e+003
7.960842e+002, 1.292099e+003
7.965663e+002, 1.293070e+003
7.970484e+002, 1.294113e+003
7.975305e+002, 1.293301e+003
7.980126e+002, 1.290942e+003
7.984948e+002, 1.290017e+003
7.989769e+002, 1.291026e+003
7.994590e+002, 1.292285e+003
7.999411e+002, 1.293113e+003
8.004232e+002, 1.293645e+003
8.009053e+002, 1.294520e+003
8.013875e+002, 1.295664e+003
8.018696e+002, 1.296328e+003
8.023517e+002, 1.295412e+003
8.028338e+002, 1.294271e+003
8.033159e+002, 1.294340e+003
8.037980e+002, 1.295459e+003
8.042802e+002, 1.296527e+003
8.047623e+002, 1.297295e+003
8.052444e+002, 1.297801e+003
8.057265e+002, 1.297876e+003
8.062086e+002, 1.297608e+003
8.066907e+002, 1.297875e+003
8.071729e+002, 1.298706e+003
8.076550e+002, 1.299905e+003
8.081371e+002, 1.301718e+003
8.086192e+002, 1.303687e+003
8.091013e+002, 1.304391e+003
8.095834e+002, 1.304027e+003
8.100656e+002, 1.303705e+003
8.105477e+002, 1.304314e+003
8.110298e+002, 1.305021e+003
8.115119e+002, 1.305164e+003
8.119940e+002, 1.304837e+003
8.124761e+002, 1.304808e+003
8.129583e+002, 1.305391e+003
8.134404e+002, 1.306090e+003
8.139225e+002, 1.306789e+003
8.144046e+002, 1.307498e+003
8.148867e+002, 1.308287e+003
8.153688e+002, 1.309158e+003
8.158510e+002, 1.309954e+003
8.163331e+002, 1.310629e+003
8.168152e+002, 1.311136e+003
8.172973e+002, 1.311077e+003
8.177794e+002, 1.310674e+003
8.182615e+002, 1.310862e+003
8.187437e+002, 1.312477e+003
8.192258e+002, 1.314395e+003
8.197079e+002, 1.316216e+003
8.201900e+002, 1.317901e+003
8.206721e+002, 1.319430e+003
8.211542e+002, 1.321070e+003
8.216364e+002, 1.321918e+003
8.221185e+002, 1.321433e+003
8.226006e+002, 1.320063e+003
8.230827e+002, 1.319256e+003
8.235648e+002, 1.318970e+003
8.240469e+002, 1.318753e+003
8.245291e+002, 1.318089e+003
8.250112e+002, 1.317639e+003
8.254933e+002, 1.318293e+003
8.259754e+002, 1.319736e+003
8.264575e+002, 1.320947e+003
8.269396e+002, 1.321781e+003
8.274218e+002, 1.322109e+003
8.279039e+002, 1.321418e+003
8.283860e+002, 1.320281e+003
8.288681e+002, 1.321022e+003
8.293502e+002, 1.324155e+003
8.298323e+002, 1.326010e+003
8.303145e+002, 1.324694e+003
8.307966e+002, 1.322177e+003
8.312787e+002, 1.322468e+003
8.317608e+002, 1.324797e+003
8.322429e+002, 1.326791e+003
8.327250e+002, 1.326758e+003
8.332072e+002, 1.326704e+003
8.336893e+002, 1.327914e+003
8.341714e+002, 1.329913e+003
8.346535e+002, 1.331428e+003
8.351356e+002, 1.332359e+003
8.356177e+002, 1.332818e+003
8.360999e+002, 1.332556e+003
8.365820e+002, 1.332097e+003
8.370641e+002, 1.332839e+003
8.375462e+002, 1.334657e+003
8.380283e+002, 1.336101e+003
8.385104e+002, 1.336564e+003
8.389926e+002, 1.336713e+003
8.394747e+002, 1.336997e+003
8.399568e+002, 1.337537e+003
8.404389e+002, 1.338559e+003
8.409210e+002, 1.340803e+003
8.414031e+002, 1.342702e+003
8.418853e+002, 1.343745e+003
8.423674e+002, 1.344306e+003
8.428495e+002, 1.344818e+003
8.433316e+002, 1.345224e+003
8.438137e+002, 1.345814e+003
8.442958e+002, 1.346645e+003
8.447780e+002, 1.347630e+003
8.452601e+002, 1.348760e+003
8.457422e+002, 1.349930e+003
8.462243e+002, 1.350970e+003
8.467064e+002, 1.351994e+003
8.471885e+002, 1.352475e+003
8.476707e+002, 1.351276e+003
8.481528e+002, 1.349759e+003
8.486349e+002, 1.349606e+003
8.491170e+002, 1.352349e+003
8.495991e+002, 1.353839e+003
8.500812e+002, 1.353450e+003
8.505634e+002, 1.352746e+003
8.510455e+002, 1.353831e+003
8.515276e+002, 1.356406e+003
8.520097e+002, 1.357975e+003
8.524918e+002, 1.358140e+003
8.529739e+002, 1.357943e+003
8.534561e+002, 1.358084e+003
8.539382e+002, 1.358527e+003
8.544203e+002, 1.359255e+003
8.549024e+002, 1.360313e+003
8.553845e+002, 1.361472e+003
8.558666e+002, 1.362867e+003
8.563488e+002, 1.364167e+003
8.568309e+002, 1.365028e+003
8.573130e+002, 1.365324e+003
8.577951e+002, 1.366119e+003
8.582772e+002, 1.367463e+003
8.587593e+002, 1.368752e+003
8.592415e+002, 1.369208e+003
8.597236e+002, 1.369329e+003
8.602057e+002, 1.370020e+003
8.606878e+002, 1.371351e+003
8.611699e+002, 1.372753e+003
8.616520e+002, 1.374397e+003
8.621342e+002, 1.375676e+003
8.626163e+002, 1.376101e+003
8.630984e+002, 1.375672e+003
8.635805e+002, 1.375257e+003
8.640626e+002, 1.374725e+003
8.645447e+002, 1.374703e+003
8.650269e+002, 1.375968e+003
8.655090e+002, 1.378003e+003
8.659911e+002, 1.378928e+003
8.664732e+002, 1.378840e+003
8.669553e+002, 1.378331e+003
8.674374e+002, 1.376843e+003
8.679196e+002, 1.375855e+003
8.684017e+002, 1.376760e+003
8.688838e+002, 1.379296e+003
8.693659e+002, 1.381367e+003
8.698480e+002, 1.382215e+003
8.703301e+002, 1.383508e+003
8.708123e+002, 1.385987e+003
8.712944e+002, 1.389109e+003
8.717765e+002, 1.391095e+003
8.722586e+002, 1.391965e+003
8.727407e+002, 1.392296e+003
8.732228e+002, 1.391759e+003
8.737050e+002, 1.391423e+003
8.741871e+002, 1.392850e+003
8.746692e+002, 1.395282e+003
8.751513e+002, 1.397084e+003
8.756334e+002, 1.397328e+003
8.761155e+002, 1.397385e+003
8.765977e+002, 1.397167e+003
8.770798e+002, 1.397168e+003
8.775619e+002, 1.398525e+003
8.780440e+002, 1.401375e+003
8.785261e+002, 1.403645e+003
8.790082e+002, 1.404762e+003
8.794904e+002, 1.405663e+003
8.799725e+002, 1.407865e+003
8.804546e+002, 1.410668e+003
8.809367e+002, 1.412725e+003
8.814188e+002, 1.413003e+003
8.819009e+002, 1.413954e+003
8.823831e+002, 1.417299e+003
8.828652e+002, 1.421209e+003
8.833473e+002, 1.423650e+003
8.838294e+002, 1.424024e+003
8.843115e+002, 1.425443e+003
8.847936e+002, 1.428167e+003
8.852758e+002, 1.431411e+003
8.857579e+002, 1.434142e+003
8.862400e+002, 1.436847e+003
8.867221e+002, 1.440946e+003
8.872042e+002, 1.446687e+003
8.876863e+002, 1.452054e+003
8.881685e+002, 1.455325e+003
8.886506e+002, 1.458289e+003
8.891327e+002, 1.462298e+003
8.896148e+002, 1.467592e+003
8.900969e+002, 1.472497e+003
8.905790e+002, 1.476843e+003
8.910612e+002, 1.481275e+003
8.915433e+002, 1.486324e+003
8.920254e+002, 1.491734e+003
8.925075e+002, 1.496571e+003
8.929896e+002, 1.500855e+003
8.934717e+002, 1.504720e+003
8.939539e+002, 1.507955e+003
8.944360e+002, 1.511117e+003
8.949181e+002, 1.514808e+003
8.954002e+002, 1.518897e+003
8.958823e+002, 1.522186e+003
8.963644e+002, 1.524174e+003
8.968466e+002, 1.526417e+003
8.973287e+002, 1.529690e+003
8.978108e+002, 1.533276e+003
8.982929e+002, 1.535067e+003
8.987750e+002, 1.535331e+003
8.992571e+002, 1.535674e+003
8.997393e+002, 1.536395e+003
9.002214e+002, 1.537920e+003
9.007035e+002, 1.540698e+003
9.011856e+002, 1.544489e+003
9.016677e+002, 1.548824e+003
9.021498e+002, 1.553638e+003
9.026320e+002, 1.559001e+003
9.031141e+002, 1.564806e+003
9.035962e+002, 1.571262e+003
9.040783e+002, 1.578658e+003
9.045604e+002, 1.586990e+003
9.050425e+002, 1.595435e+003
9.055247e+002, 1.603773e+003
9.060068e+002, 1.612848e+003
9.064889e+002, 1.623393e+003
9.069710e+002, 1.635166e+003
9.074531e+002, 1.647844e+003
9.079352e+002, 1.661461e+003
9.084174e+002, 1.676225e+003
9.088995e+002, 1.691970e+003
9.093816e+002, 1.709163e+003
9.098637e+002, 1.727882e+003
9.103458e+002, 1.748345e+003
9.108279e+002, 1.770453e+003
9.113101e+002, 1.794230e+003
9.117922e+002, 1.818048e+003
9.122743e+002, 1.841523e+003
9.127564e+002, 1.863847e+003
9.132385e+002, 1.885005e+003
9.137206e+002, 1.904564e+003
9.142028e+002, 1.919858e+003
9.146849e+002, 1.929029e+003
9.151670e+002, 1.934739e+003
9.156491e+002, 1.937586e+003
9.161312e+002, 1.937710e+003
9.166133e+002, 1.934927e+003
9.170955e+002, 1.929187e+003
9.175776e+002, 1.923662e+003
9.180597e+002, 1.918786e+003
9.185418e+002, 1.915772e+003
9.190239e+002, 1.917008e+003
9.195060e+002, 1.921086e+003
9.199882e+002, 1.925236e+003
9.204703e+002, 1.927342e+003
9.209524e+002, 1.931146e+003
9.214345e+002, 1.938268e+003
9.219166e+002, 1.946391e+003
9.223987e+002, 1.952605e+003
9.228809e+002, 1.956786e+003
9.233630e+002, 1.961038e+003
9.238451e+002, 1.965747e+003
9.243272e+002, 1.969706e+003
9.248093e+002, 1.971692e+003
9.252914e+002, 1.972085e+003
9.257736e+002, 1.971086e+003
9.262557e+002, 1.968524e+003
9.267378e+002, 1.966077e+003
9.272199e+002, 1.964519e+003
9.277020e+002, 1.962987e+003
9.281841e+002, 1.960775e+003
9.286663e+002, 1.957914e+003
9.291484e+002, 1.956920e+003
9.296305e+002, 1.957843e+003
9.301126e+002, 1.959572e+003
9.305947e+002, 1.960730e+003
9.310768e+002, 1.962735e+003
9.315590e+002, 1.967432e+003
9.320411e+002, 1.974635e+003
9.325232e+002, 1.983126e+003
9.330053e+002, 1.992862e+003
9.334874e+002, 2.003645e+003
9.339695e+002, 2.015802e+003
9.344517e+002, 2.028748e+003
9.349338e+002, 2.041723e+003
9.354159e+002, 2.054660e+003
9.358980e+002, 2.066438e+003
9.363801e+002, 2.076616e+003
9.368622e+002, 2.085302e+003
9.373444e+002, 2.093227e+003
9.378265e+002, 2.099313e+003
9.383086e+002, 2.101979e+003
9.387907e+002, 2.100159e+003
9.392728e+002, 2.095959e+003
9.397549e+002, 2.089280e+003
9.402371e+002, 2.080904e+003
9.407192e+002, 2.070909e+003
9.412013e+002, 2.059265e+003
9.416834e+002, 2.047519e+003
9.421655e+002, 2.035703e+003
9.426476e+002, 2.024641e+003
9.431298e+002, 2.013914e+003
9.436119e+002, 2.005199e+003
9.440940e+002, 2.000112e+003
9.445761e+002, 1.998708e+003
9.450582e+002, 2.000376e+003
9.455403e+002, 2.005317e+003
9.460225e+002, 2.012935e+003
9.465046e+002, 2.022504e+003
9.469867e+002, 2.034735e+003
9.474688e+002, 2.052860e+003
9.479509e+002, 2.076664e+003
9.484330e+002, 2.105845e+003
9.489152e+002, 2.140564e+003
9.493973e+002, 2.180151e+003
9.498794e+002, 2.224372e+003
9.503615e+002, 2.272902e+003
9.508436e+002, 2.325372e+003
9.513257e+002, 2.384663e+003
9.518079e+002, 2.442710e+003
9.522900e+002, 2.497567e+003
9.527721e+002, 2.552998e+003
9.532542e+002, 2.613153e+003
9.537363e+002, 2.677920e+003
9.542184e+002, 2.746027e+003
9.547006e+002, 2.817482e+003
9.551827e+002, 2.893928e+003
9.556648e+002, 2.974837e+003
9.561469e+002, 3.064009e+003
9.566290e+002, 3.163035e+003
9.571111e+002, 3.272638e+003
9.575933e+002, 3.396165e+003
9.580754e+002, 3.535581e+003
9.585575e+002, 3.685065e+003
9.590396e+002, 3.843605e+003
9.595217e+002, 4.007810e+003
9.600038e+002, 4.173718e+003
9.604860e+002, 4.338796e+003
9.609681e+002, 4.490375e+003
9.614502e+002, 4.640416e+003
9.619323e+002, 4.754118e+003
9.624144e+002, 4.818314e+003
9.628965e+002, 4.827450e+003
9.633787e+002, 4.769545e+003
9.638608e+002, 4.632713e+003
9.643429e+002, 4.460697e+003
9.648250e+002, 4.250297e+003
9.653071e+002, 4.023002e+003
9.657892e+002, 3.799097e+003
9.662714e+002, 3.585494e+003
9.667535e+002, 3.396232e+003
9.672356e+002, 3.236189e+003
9.677177e+002, 3.095526e+003
9.681998e+002, 2.971135e+003
9.686819e+002, 2.864933e+003
9.691641e+002, 2.781334e+003
9.696462e+002, 2.719694e+003
9.701283e+002, 2.667343e+003
9.706104e+002, 2.623934e+003
9.710925e+002, 2.587917e+003
9.715746e+002, 2.558471e+003
9.720568e+002, 2.535246e+003
9.725389e+002, 2.518665e+003
9.730210e+002, 2.507610e+003
9.735031e+002, 2.498922e+003
9.739852e+002, 2.492259e+003
9.744673e+002, 2.486643e+003
9.749495e+002, 2.482383e+003
9.754316e+002, 2.478639e+003
9.759137e+002, 2.474438e+003
9.763958e+002, 2.469911e+003
9.768779e+002, 2.463549e+003
9.773600e+002, 2.455245e+003
9.778422e+002, 2.444501e+003
9.783243e+002, 2.431105e+003
9.788064e+002, 2.414669e+003
9.792885e+002, 2.394780e+003
9.797706e+002, 2.371217e+003
9.802527e+002, 2.344769e+003
9.807349e+002, 2.314277e+003
9.812170e+002, 2.282671e+003
9.816991e+002, 2.251687e+003
9.821812e+002, 2.221228e+003
9.826633e+002, 2.191554e+003
9.831454e+002, 2.162665e+003
9.836276e+002, 2.134815e+003
9.841097e+002, 2.106872e+003
9.845918e+002, 2.081063e+003
9.850739e+002, 2.060242e+003
9.855560e+002, 2.042988e+003
9.860381e+002, 2.025979e+003
9.865203e+002, 2.009721e+003
9.870024e+002, 1.991797e+003
9.874845e+002, 1.971674e+003
9.879666e+002, 1.950276e+003
9.884487e+002, 1.929248e+003
9.889308e+002, 1.908133e+003
9.894130e+002, 1.884320e+003
9.898951e+002, 1.856929e+003
9.903772e+002, 1.830660e+003
9.908593e+002, 1.808367e+003
9.913414e+002, 1.788182e+003
9.918235e+002, 1.768561e+003
9.923057e+002, 1.749178e+003
9.927878e+002, 1.732858e+003
9.932699e+002, 1.719738e+003
9.937520e+002, 1.707769e+003
9.942341e+002, 1.695469e+003
9.947162e+002, 1.683861e+003
9.951984e+002, 1.674973e+003
9.956805e+002, 1.668307e+003
9.961626e+002, 1.662771e+003
9.966447e+002, 1.657976e+003
9.971268e+002, 1.654189e+003
9.976089e+002, 1.651440e+003
9.980911e+002, 1.649599e+003
9.985732e+002, 1.648715e+003
9.990553e+002, 1.648772e+003
9.995374e+002, 1.648626e+003
1.000020e+003, 1.648054e+003
1.000502e+003, 1.648030e+003
1.000984e+003, 1.649248e+003
1.001466e+003, 1.651580e+003
1.001948e+003, 1.654885e+003
1.002430e+003, 1.659119e+003
1.002912e+003, 1.664692e+003
1.003394e+003, 1.671862e+003
1.003876e+003, 1.679669e+003
1.004359e+003, 1.687568e+003
1.004841e+003, 1.695932e+003
1.005323e+003, 1.705178e+003
1.005805e+003, 1.715648e+003
1.006287e+003, 1.728404e+003
1.006769e+003, 1.746189e+003
1.007251e+003, 1.763716e+003
1.007733e+003, 1.777605e+003
1.008216e+003, 1.789799e+003
1.008698e+003, 1.802428e+003
1.009180e+003, 1.815035e+003
1.009662e+003, 1.830341e+003
1.010144e+003, 1.848519e+003
1.010626e+003, 1.868985e+003
1.011108e+003, 1.890728e+003
1.011590e+003, 1.914074e+003
1.012072e+003, 1.938677e+003
1.012555e+003, 1.964869e+003
1.013037e+003, 1.995055e+003
1.013519e+003, 2.031597e+003
1.014001e+003, 2.070780e+003
1.014483e+003, 2.112929e+003
1.014965e+003, 2.156608e+003
1.015447e+003, 2.197988e+003
1.015929e+003, 2.236903e+003
1.016411e+003, 2.270699e+003
1.016894e+003, 2.301666e+003
1.017376e+003, 2.319705e+003
1.017858e+003, 2.317650e+003
1.018340e+003, 2.296211e+003
1.018822e+003, 2.254709e+003
1.019304e+003, 2.185502e+003
1.019786e+003, 2.114538e+003
1.020268e+003, 2.039552e+003
1.020751e+003, 1.968885e+003
1.021233e+003, 1.907511e+003
1.021715e+003, 1.855520e+003
1.022197e+003, 1.815224e+003
1.022679e+003, 1.785687e+003
1.023161e+003, 1.762616e+003
1.023643e+003, 1.745714e+003
1.024125e+003, 1.732948e+003
1.024607e+003, 1.724809e+003
1.025090e+003, 1.719668e+003
1.025572e+003, 1.715017e+003
1.026054e+003, 1.710941e+003
1.026536e+003, 1.705180e+003
1.027018e+003, 1.697223e+003
1.027500e+003, 1.687557e+003
1.027982e+003, 1.676277e+003
1.028464e+003, 1.663809e+003
1.028947e+003, 1.650193e+003
1.029429e+003, 1.635011e+003
1.029911e+003, 1.621745e+003
1.030393e+003, 1.611305e+003
1.030875e+003, 1.601237e+003
1.031357e+003, 1.590076e+003
1.031839e+003, 1.578563e+003
1.032321e+003, 1.568875e+003
1.032803e+003, 1.561196e+003
1.033286e+003, 1.555861e+003
1.033768e+003, 1.554999e+003
1.034250e+003, 1.554406e+003
1.034732e+003, 1.551390e+003
1.035214e+003, 1.547948e+003
1.035696e+003, 1.547184e+003
1.036178e+003, 1.549766e+003
1.036660e+003, 1.551017e+003
1.037143e+003, 1.550422e+003
1.037625e+003, 1.549731e+003
1.038107e+003, 1.550716e+003
1.038589e+003, 1.552435e+003
1.039071e+003, 1.554105e+003
1.039553e+003, 1.555572e+003
1.040035e+003, 1.555650e+003
1.040517e+003, 1.553013e+003
1.041000e+003, 1.550658e+003
1.041482e+003, 1.549668e+003
1.041964e+003, 1.549261e+003
1.042446e+003, 1.547837e+003
1.042928e+003, 1.545411e+003
1.043410e+003, 1.541716e+003
1.043892e+003, 1.535896e+003
1.044374e+003, 1.531190e+003
1.044856e+003, 1.531198e+003
1.045339e+003, 1.532193e+003
1.045821e+003, 1.530521e+003
1.046303e+003, 1.525561e+003
1.046785e+003, 1.522607e+003
1.047267e+003, 1.521858e+003
1.047749e+003, 1.521421e+003
1.048231e+003, 1.517848e+003
1.048713e+003, 1.515426e+003
1.049195e+003, 1.523405e+003
1.049677e+003, 1.537299e+003
1.050160e+003, 1.544035e+003
1.050642e+003, 1.532403e+003
1.051124e+003, 1.523604e+003
1.051606e+003, 1.520228e+003
1.052088e+003, 1.519997e+003
1.052570e+003, 1.520684e+003
1.053052e+003, 1.521955e+003
1.053534e+003, 1.522288e+003
1.054017e+003, 1.521464e+003
1.054499e+003, 1.520932e+003
1.054981e+003, 1.521612e+003
1.055463e+003, 1.522868e+003
1.055945e+003, 1.524369e+003
1.056427e+003, 1.526099e+003
1.056909e+003, 1.528130e+003
1.057391e+003, 1.530500e+003
1.057874e+003, 1.532819e+003
1.058356e+003, 1.534687e+003
1.058838e+003, 1.537062e+003
1.059320e+003, 1.542446e+003
1.059802e+003, 1.548550e+003
1.060284e+003, 1.552292e+003
1.060766e+003, 1.552761e+003
1.061248e+003, 1.550963e+003
1.061730e+003, 1.546081e+003
1.062213e+003, 1.540799e+003
1.062695e+003, 1.536711e+003
1.063177e+003, 1.533780e+003
1.063659e+003, 1.532166e+003
1.064141e+003, 1.531625e+003
1.064623e+003, 1.531115e+003
1.065105e+003, 1.529344e+003
1.065587e+003, 1.528339e+003
1.066070e+003, 1.529246e+003
1.066552e+003, 1.531181e+003
1.067034e+003, 1.532921e+003
1.067516e+003, 1.534435e+003
1.067998e+003, 1.536446e+003
1.068480e+003, 1.539112e+003
1.068962e+003, 1.541343e+003
1.069444e+003, 1.542199e+003
1.069927e+003, 1.542129e+003
1.070409e+003, 1.541285e+003
1.070891e+003, 1.539734e+003
1.071373e+003, 1.538728e+003
1.071855e+003, 1.538666e+003
1.072337e+003, 1.538169e+003
1.072819e+003, 1.536708e+003
1.073301e+003, 1.534760e+003
1.073783e+003, 1.532472e+003
1.074266e+003, 1.530464e+003
1.074748e+003, 1.530262e+003
1.075230e+003, 1.533243e+003
1.075712e+003, 1.535276e+003
1.076194e+003, 1.534288e+003
1.076676e+003, 1.533169e+003
1.077158e+003, 1.533831e+003
1.077640e+003, 1.536027e+003
1.078122e+003, 1.537198e+003
1.078604e+003, 1.537441e+003
1.079087e+003, 1.537606e+003
1.079569e+003, 1.537760e+003
1.080051e+003, 1.538406e+003
1.080533e+003, 1.540125e+003
1.081015e+003, 1.542439e+003
1.081497e+003, 1.544212e+003
1.081979e+003, 1.544814e+003
1.082461e+003, 1.547999e+003
1.082944e+003, 1.554308e+003
1.083426e+003, 1.561273e+003
1.083908e+003, 1.566307e+003
1.084390e+003, 1.570734e+003
1.084872e+003, 1.576441e+003
1.085354e+003, 1.583379e+003
1.085836e+003, 1.589420e+003
1.086318e+003, 1.596338e+003
1.086801e+003, 1.598627e+003
1.087283e+003, 1.594295e+003
1.087765e+003, 1.585788e+003
1.088247e+003, 1.575990e+003
1.088729e+003, 1.565803e+003
1.089211e+003, 1.557833e+003
1.089693e+003, 1.552783e+003
1.090175e+003, 1.548785e+003
1.090657e+003, 1.544924e+003
1.091140e+003, 1.542116e+003
1.091622e+003, 1.541135e+003
1.092104e+003, 1.541687e+003
1.092586e+003, 1.541287e+003
1.093068e+003, 1.540037e+003
1.093550e+003, 1.539232e+003
1.094032e+003, 1.539990e+003
1.094514e+003, 1.540579e+003
1.094997e+003, 1.539103e+003
1.095479e+003, 1.537010e+003
1.095961e+003, 1.536379e+003
1.096443e+003, 1.538026e+003
1.096925e+003, 1.538395e+003
1.097407e+003, 1.537321e+003
1.097889e+003, 1.535977e+003
1.098371e+003, 1.534804e+003
1.098854e+003, 1.534227e+003
1.099336e+003, 1.535534e+003
1.099818e+003, 1.538040e+003
1.100300e+003, 1.539074e+003
1.100782e+003, 1.537122e+003
1.101264e+003, 1.535123e+003
1.101746e+003, 1.533166e+003
1.102228e+003, 1.531837e+003
1.102710e+003, 1.532696e+003
1.103193e+003, 1.534669e+003
1.103675e+003, 1.534918e+003
1.104157e+003, 1.533117e+003
1.104639e+003, 1.531325e+003
1.105121e+003, 1.530036e+003
1.105603e+003, 1.529470e+003
1.106085e+003, 1.529934e+003
1.106567e+003, 1.531009e+003
1.107049e+003, 1.531239e+003
1.107531e+003, 1.530767e+003
1.108014e+003, 1.530803e+003
1.108496e+003, 1.531851e+003
1.108978e+003, 1.532789e+003
1.109460e+003, 1.532403e+003
1.109942e+003, 1.531838e+003
1.110424e+003, 1.532254e+003
1.110906e+003, 1.533719e+003
1.111388e+003, 1.534236e+003
1.111871e+003, 1.533751e+003
1.112353e+003, 1.533018e+003
1.112835e+003, 1.532154e+003
1.113317e+003, 1.531571e+003
1.113799e+003, 1.532027e+003
1.114281e+003, 1.532998e+003
1.114763e+003, 1.533641e+003
1.115245e+003, 1.534132e+003
1.115728e+003, 1.533401e+003
1.116210e+003, 1.530946e+003
1.116692e+003, 1.529022e+003
1.117174e+003, 1.530187e+003
1.117656e+003, 1.532849e+003
1.118138e+003, 1.534074e+003
1.118620e+003, 1.534112e+003
1.119102e+003, 1.534326e+003
1.119584e+003, 1.535839e+003
1.120067e+003, 1.536467e+003
1.120549e+003, 1.535416e+003
1.121031e+003, 1.534020e+003
1.121513e+003, 1.534491e+003
1.121995e+003, 1.536109e+003
1.122477e+003, 1.536117e+003
1.122959e+003, 1.534287e+003
1.123441e+003, 1.532984e+003
1.123924e+003, 1.534000e+003
1.124406e+003, 1.535234e+003
1.124888e+003, 1.535927e+003
1.125370e+003, 1.536115e+003
1.125852e+003, 1.535703e+003
1.126334e+003, 1.534781e+003
1.126816e+003, 1.534289e+003
1.127298e+003, 1.534573e+003
1.127781e+003, 1.534818e+003
1.128263e+003, 1.534207e+003
1.128745e+003, 1.533502e+003
1.129227e+003, 1.533483e+003
1.129709e+003, 1.534112e+003
1.130191e+003, 1.533991e+003
1.130673e+003, 1.533064e+003
1.131155e+003, 1.532238e+003
1.131637e+003, 1.531825e+003
1.132120e+003, 1.531737e+003
1.132602e+003, 1.531712e+003
1.133084e+003, 1.532009e+003
1.133566e+003, 1.533102e+003
1.134048e+003, 1.535420e+003
1.134530e+003, 1.537180e+003
1.135012e+003, 1.538370e+003
1.135494e+003, 1.538999e+003
1.135976e+003, 1.538778e+003
1.136458e+003, 1.538204e+003
1.136941e+003, 1.538019e+003
1.137423e+003, 1.538142e+003
1.137905e+003, 1.538366e+003
1.138387e+003, 1.538107e+003
1.138869e+003, 1.538985e+003
1.139351e+003, 1.541635e+003
1.139833e+003, 1.544194e+003
1.140315e+003, 1.544644e+003
1.140798e+003, 1.543636e+003
1.141280e+003, 1.542170e+003
1.141762e+003, 1.540531e+003
1.142244e+003, 1.540108e+003
1.142726e+003, 1.542978e+003
1.143208e+003, 1.545078e+003
1.143690e+003, 1.545202e+003
1.144172e+003, 1.544539e+003
1.144655e+003, 1.545184e+003
1.145137e+003, 1.546665e+003
1.145619e+003, 1.546963e+003
1.146101e+003, 1.545829e+003
1.146583e+003, 1.544512e+003
1.147065e+003, 1.543249e+003
1.147547e+003, 1.542530e+003
1.148029e+003, 1.542771e+003
1.148511e+003, 1.543594e+003
1.148994e+003, 1.543567e+003
1.149476e+003, 1.542906e+003
1.149958e+003, 1.543851e+003
1.150440e+003, 1.547325e+003
1.150922e+003, 1.550381e+003
1.151404e+003, 1.550398e+003
1.151886e+003, 1.549545e+003
1.152368e+003, 1.549360e+003
1.152851e+003, 1.549803e+003
1.153333e+003, 1.550464e+003
1.153815e+003, 1.551323e+003
1.154297e+003, 1.552006e+003
1.154779e+003, 1.552245e+003
1.155261e+003, 1.552486e+003
1.155743e+003, 1.553443e+003
1.156225e+003, 1.554428e+003
1.156708e+003, 1.554632e+003
1.157190e+003, 1.554037e+003
1.157672e+003, 1.552549e+003
1.158154e+003, 1.549979e+003
1.158636e+003, 1.548268e+003
1.159118e+003, 1.549139e+003
1.159600e+003, 1.550771e+003
1.160082e+003, 1.551132e+003
1.160564e+003, 1.550859e+003
1.161047e+003, 1.551066e+003
1.161529e+003, 1.552223e+003
1.162011e+003, 1.553245e+003
1.162493e+003, 1.554203e+003
1.162975e+003, 1.554820e+003
1.163457e+003, 1.554557e+003
1.163939e+003, 1.554049e+003
1.164421e+003, 1.554361e+003
1.164903e+003, 1.555178e+003
1.165385e+003, 1.555533e+003
1.165868e+003, 1.554927e+003
1.166350e+003, 1.554255e+003
1.166832e+003, 1.553491e+003
1.167314e+003, 1.552857e+003
1.167796e+003, 1.552435e+003
1.168278e+003, 1.552375e+003
1.168760e+003, 1.553138e+003
1.169242e+003, 1.554624e+003
1.169725e+003, 1.556035e+003
1.170207e+003, 1.557052e+003
1.170689e+003, 1.558176e+003
1.171171e+003, 1.559555e+003
1.171653e+003, 1.560960e+003
1.172135e+003, 1.562325e+003
1.172617e+003, 1.563386e+003
1.173099e+003, 1.563364e+003
1.173582e+003, 1.562197e+003
1.174064e+003, 1.561117e+003
1.174546e+003, 1.560248e+003
1.175028e+003, 1.560017e+003
1.175510e+003, 1.560747e+003
1.175992e+003, 1.561897e+003
1.176474e+003, 1.562457e+003
1.176956e+003, 1.562515e+003
1.177438e+003, 1.562208e+003
1.177921e+003, 1.561496e+003
1.178403e+003, 1.561029e+003
1.178885e+003, 1.561096e+003
1.179367e+003, 1.561492e+003
1.179849e+003, 1.562216e+003
1.180331e+003, 1.563164e+003
1.180813e+003, 1.564409e+003
1.181295e+003, 1.565619e+003
1.181778e+003, 1.565220e+003
1.182260e+003, 1.562130e+003
1.182742e+003, 1.559828e+003
1.183224e+003, 1.560181e+003
1.183706e+003, 1.561549e+003
1.184188e+003, 1.563190e+003
1.184670e+003, 1.565031e+003
1.185152e+003, 1.566842e+003
1.185635e+003, 1.568478e+003
1.186117e+003, 1.569202e+003
1.186599e+003, 1.568167e+003
1.187081e+003, 1.567334e+003
1.187563e+003, 1.568068e+003
1.188045e+003, 1.569035e+003
1.188527e+003, 1.569174e+003
1.189009e+003, 1.568576e+003
1.189491e+003, 1.568454e+003
1.189974e+003, 1.568735e+003
1.190456e+003, 1.568845e+003
1.190938e+003, 1.568225e+003
1.191420e+003, 1.567749e+003
1.191902e+003, 1.567839e+003
1.192384e+003, 1.568311e+003
1.192866e+003, 1.569143e+003
1.193348e+003, 1.570359e+003
1.193830e+003, 1.570473e+003
1.194313e+003, 1.569606e+003
1.194795e+003, 1.569281e+003
1.195277e+003, 1.571342e+003
1.195759e+003, 1.573140e+003
1.196241e+003, 1.573109e+003
1.196723e+003, 1.572018e+003
1.197205e+003, 1.570638e+003
1.197687e+003, 1.568953e+003
1.198169e+003, 1.568010e+003
1.198652e+003, 1.567862e+003
1.199134e+003, 1.568216e+003
1.199616e+003, 1.569577e+003
1.200098e+003, 1.570657e+003
1.200580e+003, 1.570342e+003
1.201062e+003, 1.569399e+003
1.201544e+003, 1.569163e+003
1.202026e+003, 1.569665e+003
1.202509e+003, 1.569638e+003
1.202991e+003, 1.568961e+003
1.203473e+003, 1.568567e+003
1.203955e+003, 1.569096e+003
1.204437e+003, 1.570133e+003
1.204919e+003, 1.571896e+003
1.205401e+003, 1.573801e+003
1.205883e+003, 1.574421e+003
1.206365e+003, 1.573709e+003
1.206848e+003, 1.573450e+003
1.207330e+003, 1.573883e+003
1.207812e+003, 1.574478e+003
1.208294e+003, 1.574779e+003
1.208776e+003, 1.575140e+003
1.209258e+003, 1.576271e+003
1.209740e+003, 1.577589e+003
1.210222e+003, 1.577135e+003
1.210705e+003, 1.574893e+003
1.211187e+003, 1.573363e+003
1.211669e+003, 1.573074e+003
1.212151e+003, 1.572875e+003
1.212633e+003, 1.571185e+003
1.213115e+003, 1.569873e+003
1.213597e+003, 1.570984e+003
1.214079e+003, 1.573646e+003
1.214562e+003, 1.574636e+003
1.215044e+003, 1.573996e+003
1.215526e+003, 1.573297e+003
1.216008e+003, 1.572798e+003
1.216490e+003, 1.572820e+003
1.216972e+003, 1.574194e+003
1.217454e+003, 1.575651e+003
1.217936e+003, 1.576128e+003
1.218418e+003, 1.575792e+003
1.218901e+003, 1.575547e+003
1.219383e+003, 1.575357e+003
1.219865e+003, 1.574857e+003
1.220347e+003, 1.573774e+003
1.220829e+003, 1.572969e+003
1.221311e+003, 1.573478e+003
1.221793e+003, 1.574157e+003
1.222275e+003, 1.573931e+003
1.222757e+003, 1.573043e+003
1.223240e+003, 1.573783e+003
1.223722e+003, 1.575959e+003
1.224204e+003, 1.576765e+003
1.224686e+003, 1.574879e+003
1.225168e+003, 1.572639e+003
1.225650e+003, 1.571006e+003
1.226132e+003, 1.570264e+003
1.226614e+003, 1.570758e+003
1.227096e+003, 1.572313e+003
1.227579e+003, 1.573252e+003
1.228061e+003, 1.573645e+003
1.228543e+003, 1.574125e+003
1.229025e+003, 1.575153e+003
1.229507e+003, 1.575758e+003
1.229989e+003, 1.575017e+003
1.230471e+003, 1.573868e+003
1.230953e+003, 1.572942e+003
1.231436e+003, 1.572244e+003
1.231918e+003, 1.571910e+003
1.232400e+003, 1.571971e+003
1.232882e+003, 1.572785e+003
1.233364e+003, 1.575291e+003
1.233846e+003, 1.577077e+003
1.234328e+003, 1.576102e+003
1.234810e+003, 1.574770e+003
1.235292e+003, 1.574930e+003
1.235775e+003, 1.576359e+003
1.236257e+003, 1.577420e+003
1.236739e+003, 1.578059e+003
1.237221e+003, 1.577926e+003
1.237703e+003, 1.575990e+003
1.238185e+003, 1.574701e+003
1.238667e+003, 1.575535e+003
1.239149e+003, 1.576832e+003
1.239632e+003, 1.577411e+003
1.240114e+003, 1.577427e+003
1.240596e+003, 1.578045e+003
1.241078e+003, 1.579048e+003
1.241560e+003, 1.579560e+003
1.242042e+003, 1.578546e+003
1.242524e+003, 1.577919e+003
1.243006e+003, 1.578382e+003
1.243489e+003, 1.579020e+003
1.243971e+003, 1.579051e+003
1.244453e+003, 1.578656e+003
1.244935e+003, 1.578215e+003
1.245417e+003, 1.577977e+003
1.245899e+003, 1.578875e+003
1.246381e+003, 1.583422e+003
1.246863e+003, 1.585910e+003
1.247345e+003, 1.585071e+003
1.247828e+003, 1.583125e+003
1.248310e+003, 1.581457e+003
1.248792e+003, 1.580307e+003
1.249274e+003, 1.580571e+003
1.249756e+003, 1.581952e+003
1.250238e+003, 1.583392e+003
1.250720e+003, 1.585509e+003
1.251202e+003, 1.585853e+003
1.251684e+003, 1.583600e+003
1.252167e+003, 1.581180e+003
1.252649e+003, 1.580832e+003
1.253131e+003, 1.581699e+003
1.253613e+003, 1.582219e+003
1.254095e+003, 1.582469e+003
1.254577e+003, 1.582854e+003
1.255059e+003, 1.583633e+003
1.255541e+003, 1.584221e+003
1.256023e+003, 1.584607e+003
1.256506e+003, 1.584687e+003
1.256988e+003, 1.584168e+003
1.257470e+003, 1.583441e+003
1.257952e+003, 1.583154e+003
1.258434e+003, 1.583146e+003
1.258916e+003, 1.582833e+003
1.259398e+003, 1.581867e+003
1.259880e+003, 1.581521e+003
1.260363e+003, 1.581927e+003
1.260845e+003, 1.582689e+003
1.261327e+003, 1.583860e+003
1.261809e+003, 1.584894e+003
1.262291e+003, 1.585380e+003
1.262773e+003, 1.585225e+003
1.263255e+003, 1.584213e+003
1.263737e+003, 1.582125e+003
1.264219e+003, 1.580095e+003
1.264702e+003, 1.578135e+003
1.265184e+003, 1.577073e+003
1.265666e+003, 1.578506e+003
1.266148e+003, 1.580140e+003
1.266630e+003, 1.579935e+003
1.267112e+003, 1.578728e+003
1.267594e+003, 1.578337e+003
1.268076e+003, 1.578805e+003
1.268559e+003, 1.579761e+003
1.269041e+003, 1.581171e+003
1.269523e+003, 1.581975e+003
1.270005e+003, 1.580777e+003
1.270487e+003, 1.579489e+003
1.270969e+003, 1.579411e+003
1.271451e+003, 1.579802e+003
1.271933e+003, 1.579484e+003
1.272416e+003, 1.578568e+003
1.272898e+003, 1.578656e+003
1.273380e+003, 1.579786e+003
1.273862e+003, 1.581285e+003
1.274344e+003, 1.583527e+003
1.274826e+003, 1.585063e+003
1.275308e+003, 1.585337e+003
1.275790e+003, 1.584831e+003
1.276272e+003, 1.583524e+003
1.276755e+003, 1.581975e+003
1.277237e+003, 1.583024e+003
1.277719e+003, 1.586313e+003
1.278201e+003, 1.588323e+003
1.278683e+003, 1.586627e+003
1.279165e+003, 1.584536e+003
1.279647e+003, 1.582318e+003
1.280129e+003, 1.580601e+003
1.280611e+003, 1.580088e+003
1.281094e+003, 1.580537e+003
1.281576e+003, 1.581959e+003
1.282058e+003, 1.583985e+003
1.282540e+003, 1.584864e+003
1.283022e+003, 1.583243e+003
1.283504e+003, 1.581645e+003
1.283986e+003, 1.579545e+003
1.284468e+003, 1.580172e+003
1.284950e+003, 1.590370e+003
1.285433e+003, 1.602708e+003
1.285915e+003, 1.607158e+003
1.286397e+003, 1.604822e+003
1.286879e+003, 1.601411e+003
1.287361e+003, 1.597419e+003
1.287843e+003, 1.592762e+003
1.288325e+003, 1.587241e+003
1.288807e+003, 1.582935e+003
1.289290e+003, 1.582353e+003
1.289772e+003, 1.583114e+003
1.290254e+003, 1.583302e+003
1.290736e+003, 1.583226e+003
1.291218e+003, 1.583869e+003
1.291700e+003, 1.585325e+003
1.292182e+003, 1.586091e+003
1.292664e+003, 1.586057e+003
1.293146e+003, 1.585938e+003
1.293629e+003, 1.586332e+003
1.294111e+003, 1.586667e+003
1.294593e+003, 1.586775e+003
1.295075e+003, 1.586494e+003
1.295557e+003, 1.585009e+003
1.296039e+003, 1.582695e+003
1.296521e+003, 1.583281e+003
1.297003e+003, 1.586533e+003
1.297486e+003, 1.589005e+003
1.297968e+003, 1.588943e+003
1.298450e+003, 1.587847e+003
1.298932e+003, 1.585773e+003
1.299414e+003, 1.583692e+003
1.299896e+003, 1.582809e+003
1.300378e+003, 1.582784e+003
1.300860e+003, 1.582645e+003
1.301343e+003, 1.582517e+003
1.301825e+003, 1.582982e+003
##END=



