##NAMES=Swedenborgite
##RRUFFID=R060486
##IDEAL CHEMISTRY=NaBe_4_Sb^5+^O_7_
##LOCALITY=Langban, Filipstad, Varmland, Sweden
##OWNER=RRUFF
##SOURCE=Michael Scott
##DESCRIPTION=Colorless glassy fragment in center of the photo
##STATUS=The identification of this mineral is confirmed by single-crystal X-ray diffraction and chemical analysis.
##URL=rruff.info/R060486
##MEASURED CHEMISTRY=(Na_0.94_Ca_0.03_[box]_0.03_)_Î£=1_Be_4.00_Sb^5+^_1.00_O_7_; trace amounts of As; Be estimated by difference
8.930109e+001, 0.000000e+000
8.978320e+001, 3.172858e+002
9.026532e+001, 3.157412e+002
9.074744e+001, 3.158145e+002
9.122955e+001, 3.180908e+002
9.171167e+001, 3.215424e+002
9.219379e+001, 3.251148e+002
9.267590e+001, 3.288748e+002
9.315802e+001, 3.318089e+002
9.364014e+001, 3.333726e+002
9.412225e+001, 3.336409e+002
9.460437e+001, 3.323961e+002
9.508649e+001, 3.288762e+002
9.556860e+001, 3.241918e+002
9.605072e+001, 3.214387e+002
9.653284e+001, 3.210433e+002
9.701495e+001, 3.210497e+002
9.749707e+001, 3.191451e+002
9.797919e+001, 3.153775e+002
9.846130e+001, 3.121524e+002
9.894342e+001, 3.102259e+002
9.942554e+001, 3.094917e+002
9.990765e+001, 3.089604e+002
1.003898e+002, 3.086512e+002
1.008719e+002, 3.084759e+002
1.013540e+002, 3.084490e+002
1.018361e+002, 3.087628e+002
1.023182e+002, 3.085683e+002
1.028004e+002, 3.073973e+002
1.032825e+002, 3.049294e+002
1.037646e+002, 3.030240e+002
1.042467e+002, 3.016864e+002
1.047288e+002, 3.008954e+002
1.052109e+002, 3.005999e+002
1.056931e+002, 3.006953e+002
1.061752e+002, 3.013948e+002
1.066573e+002, 3.027675e+002
1.071394e+002, 3.045428e+002
1.076215e+002, 3.074021e+002
1.081036e+002, 3.121761e+002
1.085858e+002, 3.183362e+002
1.090679e+002, 3.229388e+002
1.095500e+002, 3.259980e+002
1.100321e+002, 3.276523e+002
1.105142e+002, 3.279774e+002
1.109963e+002, 3.250187e+002
1.114785e+002, 3.229684e+002
1.119606e+002, 3.223936e+002
1.124427e+002, 3.232480e+002
1.129248e+002, 3.246060e+002
1.134069e+002, 3.252500e+002
1.138890e+002, 3.268251e+002
1.143712e+002, 3.306742e+002
1.148533e+002, 3.373882e+002
1.153354e+002, 3.460302e+002
1.158175e+002, 3.571254e+002
1.162996e+002, 3.710976e+002
1.167817e+002, 3.839600e+002
1.172639e+002, 3.985191e+002
1.177460e+002, 4.103605e+002
1.182281e+002, 4.138506e+002
1.187102e+002, 3.999989e+002
1.191923e+002, 3.821051e+002
1.196744e+002, 3.677459e+002
1.201566e+002, 3.578922e+002
1.206387e+002, 3.506001e+002
1.211208e+002, 3.452242e+002
1.216029e+002, 3.415682e+002
1.220850e+002, 3.393267e+002
1.225671e+002, 3.388091e+002
1.230493e+002, 3.394027e+002
1.235314e+002, 3.405215e+002
1.240135e+002, 3.420888e+002
1.244956e+002, 3.441008e+002
1.249777e+002, 3.473705e+002
1.254598e+002, 3.513719e+002
1.259420e+002, 3.540638e+002
1.264241e+002, 3.530216e+002
1.269062e+002, 3.498783e+002
1.273883e+002, 3.475668e+002
1.278704e+002, 3.466471e+002
1.283525e+002, 3.468762e+002
1.288347e+002, 3.482047e+002
1.293168e+002, 3.505963e+002
1.297989e+002, 3.532470e+002
1.302810e+002, 3.557115e+002
1.307631e+002, 3.579521e+002
1.312452e+002, 3.598883e+002
1.317274e+002, 3.613982e+002
1.322095e+002, 3.626407e+002
1.326916e+002, 3.641970e+002
1.331737e+002, 3.661679e+002
1.336558e+002, 3.678321e+002
1.341379e+002, 3.681591e+002
1.346201e+002, 3.671797e+002
1.351022e+002, 3.667386e+002
1.355843e+002, 3.673986e+002
1.360664e+002, 3.690758e+002
1.365485e+002, 3.712236e+002
1.370306e+002, 3.739594e+002
1.375128e+002, 3.769196e+002
1.379949e+002, 3.796363e+002
1.384770e+002, 3.819882e+002
1.389591e+002, 3.847408e+002
1.394412e+002, 3.881522e+002
1.399233e+002, 3.921957e+002
1.404055e+002, 3.969511e+002
1.408876e+002, 4.029097e+002
1.413697e+002, 4.090810e+002
1.418518e+002, 4.136593e+002
1.423339e+002, 4.158030e+002
1.428160e+002, 4.181912e+002
1.432982e+002, 4.217609e+002
1.437803e+002, 4.266178e+002
1.442624e+002, 4.321520e+002
1.447445e+002, 4.379105e+002
1.452266e+002, 4.445243e+002
1.457087e+002, 4.531368e+002
1.461909e+002, 4.644072e+002
1.466730e+002, 4.770062e+002
1.471551e+002, 4.908795e+002
1.476372e+002, 5.087369e+002
1.481193e+002, 5.231236e+002
1.486014e+002, 5.343127e+002
1.490836e+002, 5.420938e+002
1.495657e+002, 5.459635e+002
1.500478e+002, 5.414763e+002
1.505299e+002, 5.365815e+002
1.510120e+002, 5.347198e+002
1.514941e+002, 5.352988e+002
1.519763e+002, 5.395610e+002
1.524584e+002, 5.496819e+002
1.529405e+002, 5.643608e+002
1.534226e+002, 5.772084e+002
1.539047e+002, 5.901507e+002
1.543868e+002, 5.995794e+002
1.548690e+002, 6.035289e+002
1.553511e+002, 5.997543e+002
1.558332e+002, 5.926556e+002
1.563153e+002, 5.823658e+002
1.567974e+002, 5.690457e+002
1.572795e+002, 5.539010e+002
1.577617e+002, 5.346520e+002
1.582438e+002, 5.150211e+002
1.587259e+002, 4.976969e+002
1.592080e+002, 4.844072e+002
1.596901e+002, 4.724401e+002
1.601722e+002, 4.608593e+002
1.606544e+002, 4.497057e+002
1.611365e+002, 4.400470e+002
1.616186e+002, 4.329206e+002
1.621007e+002, 4.272396e+002
1.625828e+002, 4.218263e+002
1.630649e+002, 4.155513e+002
1.635471e+002, 4.101668e+002
1.640292e+002, 4.069320e+002
1.645113e+002, 4.058853e+002
1.649934e+002, 4.047945e+002
1.654755e+002, 4.023390e+002
1.659576e+002, 3.992404e+002
1.664398e+002, 3.964272e+002
1.669219e+002, 3.940106e+002
1.674040e+002, 3.921234e+002
1.678861e+002, 3.910882e+002
1.683682e+002, 3.909562e+002
1.688503e+002, 3.908242e+002
1.693325e+002, 3.898017e+002
1.698146e+002, 3.884291e+002
1.702967e+002, 3.875914e+002
1.707788e+002, 3.879556e+002
1.712609e+002, 3.888655e+002
1.717430e+002, 3.897640e+002
1.722252e+002, 3.906173e+002
1.727073e+002, 3.914973e+002
1.731894e+002, 3.927884e+002
1.736715e+002, 3.941804e+002
1.741536e+002, 3.949474e+002
1.746357e+002, 3.939647e+002
1.751179e+002, 3.925056e+002
1.756000e+002, 3.922787e+002
1.760821e+002, 3.935879e+002
1.765642e+002, 3.952036e+002
1.770463e+002, 3.959514e+002
1.775284e+002, 3.960250e+002
1.780106e+002, 3.960103e+002
1.784927e+002, 3.963358e+002
1.789748e+002, 3.967542e+002
1.794569e+002, 3.967528e+002
1.799390e+002, 3.961901e+002
1.804211e+002, 3.955779e+002
1.809033e+002, 3.955012e+002
1.813854e+002, 3.959042e+002
1.818675e+002, 3.965074e+002
1.823496e+002, 3.972359e+002
1.828317e+002, 3.980433e+002
1.833138e+002, 3.988704e+002
1.837960e+002, 3.997176e+002
1.842781e+002, 4.005399e+002
1.847602e+002, 4.015192e+002
1.852423e+002, 4.025733e+002
1.857244e+002, 4.029563e+002
1.862065e+002, 4.018132e+002
1.866887e+002, 3.995392e+002
1.871708e+002, 3.976605e+002
1.876529e+002, 3.964383e+002
1.881350e+002, 3.954584e+002
1.886171e+002, 3.938751e+002
1.890992e+002, 3.916974e+002
1.895814e+002, 3.898228e+002
1.900635e+002, 3.889855e+002
1.905456e+002, 3.890359e+002
1.910277e+002, 3.890234e+002
1.915098e+002, 3.888378e+002
1.919919e+002, 3.885478e+002
1.924741e+002, 3.881831e+002
1.929562e+002, 3.877283e+002
1.934383e+002, 3.875436e+002
1.939204e+002, 3.880833e+002
1.944025e+002, 3.892877e+002
1.948846e+002, 3.900540e+002
1.953668e+002, 3.900711e+002
1.958489e+002, 3.897822e+002
1.963310e+002, 3.903345e+002
1.968131e+002, 3.918151e+002
1.972952e+002, 3.934615e+002
1.977773e+002, 3.948491e+002
1.982595e+002, 3.959693e+002
1.987416e+002, 3.968351e+002
1.992237e+002, 3.973928e+002
1.997058e+002, 3.977347e+002
2.001879e+002, 3.980389e+002
2.006700e+002, 3.982686e+002
2.011522e+002, 3.986557e+002
2.016343e+002, 3.993937e+002
2.021164e+002, 4.005121e+002
2.025985e+002, 4.016962e+002
2.030806e+002, 4.028594e+002
2.035627e+002, 4.040796e+002
2.040449e+002, 4.056654e+002
2.045270e+002, 4.077223e+002
2.050091e+002, 4.097897e+002
2.054912e+002, 4.115872e+002
2.059733e+002, 4.131132e+002
2.064554e+002, 4.142762e+002
2.069376e+002, 4.147806e+002
2.074197e+002, 4.149914e+002
2.079018e+002, 4.163047e+002
2.083839e+002, 4.188012e+002
2.088660e+002, 4.222183e+002
2.093481e+002, 4.262863e+002
2.098303e+002, 4.309302e+002
2.103124e+002, 4.366308e+002
2.107945e+002, 4.433857e+002
2.112766e+002, 4.512319e+002
2.117587e+002, 4.607366e+002
2.122408e+002, 4.723334e+002
2.127230e+002, 4.847486e+002
2.132051e+002, 4.989503e+002
2.136872e+002, 5.180677e+002
2.141693e+002, 5.277952e+002
2.146514e+002, 5.249144e+002
2.151335e+002, 5.114074e+002
2.156157e+002, 4.959258e+002
2.160978e+002, 4.766929e+002
2.165799e+002, 4.584945e+002
2.170620e+002, 4.442704e+002
2.175441e+002, 4.345832e+002
2.180262e+002, 4.272899e+002
2.185084e+002, 4.225847e+002
2.189905e+002, 4.200807e+002
2.194726e+002, 4.180565e+002
2.199547e+002, 4.164935e+002
2.204368e+002, 4.153911e+002
2.209189e+002, 4.148836e+002
2.214011e+002, 4.153481e+002
2.218832e+002, 4.153943e+002
2.223653e+002, 4.147250e+002
2.228474e+002, 4.135571e+002
2.233295e+002, 4.128480e+002
2.238116e+002, 4.128061e+002
2.242938e+002, 4.129225e+002
2.247759e+002, 4.128052e+002
2.252580e+002, 4.120587e+002
2.257401e+002, 4.121244e+002
2.262222e+002, 4.136501e+002
2.267043e+002, 4.160650e+002
2.271865e+002, 4.168407e+002
2.276686e+002, 4.148856e+002
2.281507e+002, 4.128867e+002
2.286328e+002, 4.125146e+002
2.291149e+002, 4.146796e+002
2.295970e+002, 4.163162e+002
2.300792e+002, 4.170793e+002
2.305613e+002, 4.171845e+002
2.310434e+002, 4.173990e+002
2.315255e+002, 4.176064e+002
2.320076e+002, 4.181007e+002
2.324897e+002, 4.191837e+002
2.329719e+002, 4.215475e+002
2.334540e+002, 4.228873e+002
2.339361e+002, 4.225937e+002
2.344182e+002, 4.212609e+002
2.349003e+002, 4.210482e+002
2.353824e+002, 4.226917e+002
2.358646e+002, 4.244023e+002
2.363467e+002, 4.252152e+002
2.368288e+002, 4.244691e+002
2.373109e+002, 4.243449e+002
2.377930e+002, 4.253517e+002
2.382751e+002, 4.269366e+002
2.387573e+002, 4.272559e+002
2.392394e+002, 4.252544e+002
2.397215e+002, 4.234911e+002
2.402036e+002, 4.231855e+002
2.406857e+002, 4.250990e+002
2.411678e+002, 4.267633e+002
2.416500e+002, 4.282559e+002
2.421321e+002, 4.294647e+002
2.426142e+002, 4.300313e+002
2.430963e+002, 4.294140e+002
2.435784e+002, 4.289503e+002
2.440605e+002, 4.292716e+002
2.445427e+002, 4.308084e+002
2.450248e+002, 4.320268e+002
2.455069e+002, 4.328298e+002
2.459890e+002, 4.333622e+002
2.464711e+002, 4.339453e+002
2.469532e+002, 4.347248e+002
2.474354e+002, 4.353340e+002
2.479175e+002, 4.355637e+002
2.483996e+002, 4.352010e+002
2.488817e+002, 4.351694e+002
2.493638e+002, 4.354877e+002
2.498459e+002, 4.361362e+002
2.503281e+002, 4.371264e+002
2.508102e+002, 4.386936e+002
2.512923e+002, 4.402101e+002
2.517744e+002, 4.414537e+002
2.522565e+002, 4.423266e+002
2.527386e+002, 4.433085e+002
2.532208e+002, 4.444358e+002
2.537029e+002, 4.456457e+002
2.541850e+002, 4.468369e+002
2.546671e+002, 4.479094e+002
2.551492e+002, 4.491637e+002
2.556313e+002, 4.507958e+002
2.561135e+002, 4.529267e+002
2.565956e+002, 4.544578e+002
2.570777e+002, 4.549894e+002
2.575598e+002, 4.552710e+002
2.580419e+002, 4.563768e+002
2.585240e+002, 4.586617e+002
2.590062e+002, 4.609245e+002
2.594883e+002, 4.628719e+002
2.599704e+002, 4.644586e+002
2.604525e+002, 4.658640e+002
2.609346e+002, 4.669894e+002
2.614167e+002, 4.680378e+002
2.618989e+002, 4.692800e+002
2.623810e+002, 4.708391e+002
2.628631e+002, 4.722461e+002
2.633452e+002, 4.733278e+002
2.638273e+002, 4.741069e+002
2.643094e+002, 4.750308e+002
2.647916e+002, 4.760769e+002
2.652737e+002, 4.773450e+002
2.657558e+002, 4.790090e+002
2.662379e+002, 4.811907e+002
2.667200e+002, 4.833720e+002
2.672021e+002, 4.855626e+002
2.676843e+002, 4.877122e+002
2.681664e+002, 4.892365e+002
2.686485e+002, 4.897107e+002
2.691306e+002, 4.904246e+002
2.696127e+002, 4.927173e+002
2.700948e+002, 4.970500e+002
2.705770e+002, 5.007802e+002
2.710591e+002, 5.032705e+002
2.715412e+002, 5.047965e+002
2.720233e+002, 5.067331e+002
2.725054e+002, 5.090578e+002
2.729875e+002, 5.117529e+002
2.734697e+002, 5.150598e+002
2.739518e+002, 5.192323e+002
2.744339e+002, 5.223257e+002
2.749160e+002, 5.235574e+002
2.753981e+002, 5.238831e+002
2.758802e+002, 5.265217e+002
2.763624e+002, 5.319066e+002
2.768445e+002, 5.377737e+002
2.773266e+002, 5.428468e+002
2.778087e+002, 5.471135e+002
2.782908e+002, 5.506697e+002
2.787729e+002, 5.532173e+002
2.792551e+002, 5.554219e+002
2.797372e+002, 5.589275e+002
2.802193e+002, 5.639582e+002
2.807014e+002, 5.689335e+002
2.811835e+002, 5.730994e+002
2.816656e+002, 5.764619e+002
2.821478e+002, 5.794098e+002
2.826299e+002, 5.819692e+002
2.831120e+002, 5.840975e+002
2.835941e+002, 5.856660e+002
2.840762e+002, 5.866657e+002
2.845583e+002, 5.873597e+002
2.850405e+002, 5.880830e+002
2.855226e+002, 5.887348e+002
2.860047e+002, 5.883441e+002
2.864868e+002, 5.868416e+002
2.869689e+002, 5.845023e+002
2.874510e+002, 5.814443e+002
2.879332e+002, 5.777003e+002
2.884153e+002, 5.739464e+002
2.888974e+002, 5.704608e+002
2.893795e+002, 5.672077e+002
2.898616e+002, 5.640811e+002
2.903438e+002, 5.610319e+002
2.908259e+002, 5.584414e+002
2.913080e+002, 5.567614e+002
2.917901e+002, 5.559439e+002
2.922722e+002, 5.556404e+002
2.927543e+002, 5.559382e+002
2.932365e+002, 5.565900e+002
2.937186e+002, 5.568358e+002
2.942007e+002, 5.566605e+002
2.946828e+002, 5.568608e+002
2.951649e+002, 5.582802e+002
2.956470e+002, 5.606747e+002
2.961292e+002, 5.633623e+002
2.966113e+002, 5.663777e+002
2.970934e+002, 5.693249e+002
2.975755e+002, 5.712386e+002
2.980576e+002, 5.722567e+002
2.985397e+002, 5.737148e+002
2.990219e+002, 5.760220e+002
2.995040e+002, 5.795570e+002
2.999861e+002, 5.852161e+002
3.004682e+002, 5.934799e+002
3.009503e+002, 6.032653e+002
3.014324e+002, 6.137247e+002
3.019146e+002, 6.247245e+002
3.023967e+002, 6.361472e+002
3.028788e+002, 6.486965e+002
3.033609e+002, 6.613123e+002
3.038430e+002, 6.720749e+002
3.043251e+002, 6.804661e+002
3.048073e+002, 6.879706e+002
3.052894e+002, 6.953690e+002
3.057715e+002, 7.029069e+002
3.062536e+002, 7.114059e+002
3.067357e+002, 7.213610e+002
3.072178e+002, 7.323698e+002
3.077000e+002, 7.437108e+002
3.081821e+002, 7.552351e+002
3.086642e+002, 7.679501e+002
3.091463e+002, 7.817861e+002
3.096284e+002, 7.973419e+002
3.101105e+002, 8.158017e+002
3.105927e+002, 8.373314e+002
3.110748e+002, 8.619044e+002
3.115569e+002, 8.887409e+002
3.120390e+002, 9.179531e+002
3.125211e+002, 9.530587e+002
3.130032e+002, 9.940208e+002
3.134854e+002, 1.043021e+003
3.139675e+002, 1.101879e+003
3.144496e+002, 1.169907e+003
3.149317e+002, 1.248810e+003
3.154138e+002, 1.339676e+003
3.158959e+002, 1.442383e+003
3.163781e+002, 1.558432e+003
3.168602e+002, 1.690259e+003
3.173423e+002, 1.833433e+003
3.178244e+002, 1.988543e+003
3.183065e+002, 2.195388e+003
3.187886e+002, 2.357326e+003
3.192708e+002, 2.458675e+003
3.197529e+002, 2.492115e+003
3.202350e+002, 2.436703e+003
3.207171e+002, 2.221350e+003
3.211992e+002, 1.964857e+003
3.216813e+002, 1.719372e+003
3.221635e+002, 1.480667e+003
3.226456e+002, 1.278298e+003
3.231277e+002, 1.125258e+003
3.236098e+002, 1.010928e+003
3.240919e+002, 9.171478e+002
3.245740e+002, 8.498406e+002
3.250562e+002, 7.959506e+002
3.255383e+002, 7.530925e+002
3.260204e+002, 7.226196e+002
3.265025e+002, 6.970170e+002
3.269846e+002, 6.771516e+002
3.274667e+002, 6.614669e+002
3.279489e+002, 6.480633e+002
3.284310e+002, 6.376559e+002
3.289131e+002, 6.286679e+002
3.293952e+002, 6.209524e+002
3.298773e+002, 6.145245e+002
3.303594e+002, 6.088486e+002
3.308416e+002, 6.032840e+002
3.313237e+002, 5.990713e+002
3.318058e+002, 5.973000e+002
3.322879e+002, 5.999711e+002
3.327700e+002, 6.016083e+002
3.332521e+002, 6.010653e+002
3.337343e+002, 5.990256e+002
3.342164e+002, 5.988655e+002
3.346985e+002, 6.011497e+002
3.351806e+002, 6.044138e+002
3.356627e+002, 6.081182e+002
3.361448e+002, 6.126556e+002
3.366270e+002, 6.164230e+002
3.371091e+002, 6.197001e+002
3.375912e+002, 6.219029e+002
3.380733e+002, 6.216264e+002
3.385554e+002, 6.184005e+002
3.390375e+002, 6.142151e+002
3.395197e+002, 6.092818e+002
3.400018e+002, 6.034941e+002
3.404839e+002, 5.997106e+002
3.409660e+002, 5.980607e+002
3.414481e+002, 5.982795e+002
3.419302e+002, 6.003064e+002
3.424124e+002, 6.042281e+002
3.428945e+002, 6.089282e+002
3.433766e+002, 6.138432e+002
3.438587e+002, 6.192735e+002
3.443408e+002, 6.270826e+002
3.448229e+002, 6.374022e+002
3.453051e+002, 6.489777e+002
3.457872e+002, 6.594938e+002
3.462693e+002, 6.695955e+002
3.467514e+002, 6.844488e+002
3.472335e+002, 7.058204e+002
3.477156e+002, 7.313763e+002
3.481978e+002, 7.626363e+002
3.486799e+002, 7.981375e+002
3.491620e+002, 8.193025e+002
3.496441e+002, 8.075809e+002
3.501262e+002, 7.726826e+002
3.506083e+002, 7.355388e+002
3.510905e+002, 6.968077e+002
3.515726e+002, 6.617330e+002
3.520547e+002, 6.367864e+002
3.525368e+002, 6.204841e+002
3.530189e+002, 6.083401e+002
3.535010e+002, 5.990943e+002
3.539832e+002, 5.922914e+002
3.544653e+002, 5.878643e+002
3.549474e+002, 5.858201e+002
3.554295e+002, 5.845896e+002
3.559116e+002, 5.829506e+002
3.563937e+002, 5.813109e+002
3.568759e+002, 5.803092e+002
3.573580e+002, 5.811116e+002
3.578401e+002, 5.818367e+002
3.583222e+002, 5.807659e+002
3.588043e+002, 5.782241e+002
3.592864e+002, 5.762086e+002
3.597686e+002, 5.761437e+002
3.602507e+002, 5.768699e+002
3.607328e+002, 5.774252e+002
3.612149e+002, 5.776205e+002
3.616970e+002, 5.775755e+002
3.621791e+002, 5.770101e+002
3.626613e+002, 5.762206e+002
3.631434e+002, 5.758953e+002
3.636255e+002, 5.766452e+002
3.641076e+002, 5.775837e+002
3.645897e+002, 5.783733e+002
3.650718e+002, 5.790222e+002
3.655540e+002, 5.792923e+002
3.660361e+002, 5.788284e+002
3.665182e+002, 5.780682e+002
3.670003e+002, 5.775386e+002
3.674824e+002, 5.774123e+002
3.679645e+002, 5.774158e+002
3.684467e+002, 5.775510e+002
3.689288e+002, 5.778295e+002
3.694109e+002, 5.780534e+002
3.698930e+002, 5.781920e+002
3.703751e+002, 5.783185e+002
3.708572e+002, 5.784475e+002
3.713394e+002, 5.782343e+002
3.718215e+002, 5.786575e+002
3.723036e+002, 5.801925e+002
3.727857e+002, 5.824049e+002
3.732678e+002, 5.836962e+002
3.737499e+002, 5.836198e+002
3.742321e+002, 5.834188e+002
3.747142e+002, 5.837393e+002
3.751963e+002, 5.848112e+002
3.756784e+002, 5.852968e+002
3.761605e+002, 5.848543e+002
3.766426e+002, 5.842477e+002
3.771248e+002, 5.847249e+002
3.776069e+002, 5.864221e+002
3.780890e+002, 5.883832e+002
3.785711e+002, 5.903522e+002
3.790532e+002, 5.923357e+002
3.795353e+002, 5.942136e+002
3.800175e+002, 5.959797e+002
3.804996e+002, 5.977722e+002
3.809817e+002, 5.998605e+002
3.814638e+002, 6.021711e+002
3.819459e+002, 6.040460e+002
3.824280e+002, 6.050375e+002
3.829102e+002, 6.059147e+002
3.833923e+002, 6.084911e+002
3.838744e+002, 6.126080e+002
3.843565e+002, 6.164630e+002
3.848386e+002, 6.186182e+002
3.853207e+002, 6.197195e+002
3.858029e+002, 6.210020e+002
3.862850e+002, 6.226245e+002
3.867671e+002, 6.242894e+002
3.872492e+002, 6.253698e+002
3.877313e+002, 6.262558e+002
3.882134e+002, 6.278216e+002
3.886956e+002, 6.310938e+002
3.891777e+002, 6.347899e+002
3.896598e+002, 6.375623e+002
3.901419e+002, 6.394615e+002
3.906240e+002, 6.417492e+002
3.911061e+002, 6.447725e+002
3.915883e+002, 6.488023e+002
3.920704e+002, 6.541237e+002
3.925525e+002, 6.608480e+002
3.930346e+002, 6.688301e+002
3.935167e+002, 6.783483e+002
3.939988e+002, 6.891957e+002
3.944810e+002, 7.008742e+002
3.949631e+002, 7.124227e+002
3.954452e+002, 7.253765e+002
3.959273e+002, 7.401879e+002
3.964094e+002, 7.563677e+002
3.968915e+002, 7.761620e+002
3.973737e+002, 8.030969e+002
3.978558e+002, 8.328407e+002
3.983379e+002, 8.600538e+002
3.988200e+002, 8.978159e+002
3.993021e+002, 9.183672e+002
3.997842e+002, 9.129156e+002
4.002664e+002, 8.815680e+002
4.007485e+002, 8.466990e+002
4.012306e+002, 8.033038e+002
4.017127e+002, 7.616775e+002
4.021948e+002, 7.283592e+002
4.026769e+002, 7.048115e+002
4.031591e+002, 6.866789e+002
4.036412e+002, 6.748483e+002
4.041233e+002, 6.678325e+002
4.046054e+002, 6.617626e+002
4.050875e+002, 6.566051e+002
4.055696e+002, 6.526845e+002
4.060518e+002, 6.504433e+002
4.065339e+002, 6.499401e+002
4.070160e+002, 6.490954e+002
4.074981e+002, 6.477142e+002
4.079802e+002, 6.465978e+002
4.084623e+002, 6.467503e+002
4.089445e+002, 6.481679e+002
4.094266e+002, 6.500345e+002
4.099087e+002, 6.521381e+002
4.103908e+002, 6.545632e+002
4.108729e+002, 6.572189e+002
4.113550e+002, 6.601559e+002
4.118372e+002, 6.641891e+002
4.123193e+002, 6.710486e+002
4.128014e+002, 6.793917e+002
4.132835e+002, 6.858936e+002
4.137656e+002, 6.898604e+002
4.142477e+002, 6.931672e+002
4.147299e+002, 6.975301e+002
4.152120e+002, 7.027639e+002
4.156941e+002, 7.083077e+002
4.161762e+002, 7.143351e+002
4.166583e+002, 7.203173e+002
4.171404e+002, 7.257125e+002
4.176226e+002, 7.305601e+002
4.181047e+002, 7.352568e+002
4.185868e+002, 7.391326e+002
4.190689e+002, 7.434136e+002
4.195510e+002, 7.493353e+002
4.200331e+002, 7.572878e+002
4.205153e+002, 7.668044e+002
4.209974e+002, 7.767532e+002
4.214795e+002, 7.880168e+002
4.219616e+002, 8.024811e+002
4.224437e+002, 8.209303e+002
4.229258e+002, 8.426185e+002
4.234080e+002, 8.669935e+002
4.238901e+002, 8.938773e+002
4.243722e+002, 9.248422e+002
4.248543e+002, 9.567767e+002
4.253364e+002, 9.945050e+002
4.258185e+002, 1.042273e+003
4.263007e+002, 1.098589e+003
4.267828e+002, 1.168906e+003
4.272649e+002, 1.262823e+003
4.277470e+002, 1.373971e+003
4.282291e+002, 1.468759e+003
4.287112e+002, 1.563977e+003
4.291934e+002, 1.611979e+003
4.296755e+002, 1.577136e+003
4.301576e+002, 1.442255e+003
4.306397e+002, 1.308356e+003
4.311218e+002, 1.172767e+003
4.316039e+002, 1.047964e+003
4.320861e+002, 9.536863e+002
4.325682e+002, 8.912391e+002
4.330503e+002, 8.442496e+002
4.335324e+002, 8.093338e+002
4.340145e+002, 7.845928e+002
4.344966e+002, 7.641823e+002
4.349788e+002, 7.481457e+002
4.354609e+002, 7.353079e+002
4.359430e+002, 7.255202e+002
4.364251e+002, 7.180826e+002
4.369072e+002, 7.110599e+002
4.373893e+002, 7.039843e+002
4.378715e+002, 6.973840e+002
4.383536e+002, 6.918157e+002
4.388357e+002, 6.872051e+002
4.393178e+002, 6.833445e+002
4.397999e+002, 6.796841e+002
4.402820e+002, 6.769846e+002
4.407642e+002, 6.766014e+002
4.412463e+002, 6.785952e+002
4.417284e+002, 6.800350e+002
4.422105e+002, 6.785626e+002
4.426926e+002, 6.760978e+002
4.431747e+002, 6.745075e+002
4.436569e+002, 6.752382e+002
4.441390e+002, 6.757520e+002
4.446211e+002, 6.747296e+002
4.451032e+002, 6.728207e+002
4.455853e+002, 6.719445e+002
4.460674e+002, 6.737396e+002
4.465496e+002, 6.754991e+002
4.470317e+002, 6.761170e+002
4.475138e+002, 6.751043e+002
4.479959e+002, 6.744867e+002
4.484780e+002, 6.743116e+002
4.489601e+002, 6.745226e+002
4.494423e+002, 6.751813e+002
4.499244e+002, 6.768588e+002
4.504065e+002, 6.777283e+002
4.508886e+002, 6.770338e+002
4.513707e+002, 6.753626e+002
4.518528e+002, 6.753450e+002
4.523350e+002, 6.774070e+002
4.528171e+002, 6.798284e+002
4.532992e+002, 6.817702e+002
4.537813e+002, 6.832244e+002
4.542634e+002, 6.844821e+002
4.547455e+002, 6.855175e+002
4.552277e+002, 6.864393e+002
4.557098e+002, 6.875375e+002
4.561919e+002, 6.887215e+002
4.566740e+002, 6.894394e+002
4.571561e+002, 6.892081e+002
4.576382e+002, 6.886459e+002
4.581204e+002, 6.887498e+002
4.586025e+002, 6.894959e+002
4.590846e+002, 6.906795e+002
4.595667e+002, 6.927913e+002
4.600488e+002, 6.950323e+002
4.605309e+002, 6.962308e+002
4.610131e+002, 6.960405e+002
4.614952e+002, 6.956879e+002
4.619773e+002, 6.957502e+002
4.624594e+002, 6.962582e+002
4.629415e+002, 6.972631e+002
4.634236e+002, 6.989107e+002
4.639058e+002, 7.009264e+002
4.643879e+002, 7.036964e+002
4.648700e+002, 7.070006e+002
4.653521e+002, 7.092697e+002
4.658342e+002, 7.088470e+002
4.663163e+002, 7.082285e+002
4.667985e+002, 7.089070e+002
4.672806e+002, 7.123445e+002
4.677627e+002, 7.145672e+002
4.682448e+002, 7.147295e+002
4.687269e+002, 7.139573e+002
4.692090e+002, 7.138884e+002
4.696912e+002, 7.151136e+002
4.701733e+002, 7.159334e+002
4.706554e+002, 7.157603e+002
4.711375e+002, 7.147493e+002
4.716196e+002, 7.144795e+002
4.721017e+002, 7.151406e+002
4.725839e+002, 7.160041e+002
4.730660e+002, 7.166384e+002
4.735481e+002, 7.170404e+002
4.740302e+002, 7.172371e+002
4.745123e+002, 7.171627e+002
4.749944e+002, 7.170906e+002
4.754766e+002, 7.174325e+002
4.759587e+002, 7.181591e+002
4.764408e+002, 7.190651e+002
4.769229e+002, 7.202955e+002
4.774050e+002, 7.215273e+002
4.778871e+002, 7.222247e+002
4.783693e+002, 7.224140e+002
4.788514e+002, 7.222756e+002
4.793335e+002, 7.212545e+002
4.798156e+002, 7.202695e+002
4.802977e+002, 7.205575e+002
4.807798e+002, 7.226116e+002
4.812620e+002, 7.249542e+002
4.817441e+002, 7.267473e+002
4.822262e+002, 7.282649e+002
4.827083e+002, 7.299138e+002
4.831904e+002, 7.326523e+002
4.836725e+002, 7.347283e+002
4.841547e+002, 7.349908e+002
4.846368e+002, 7.335952e+002
4.851189e+002, 7.329171e+002
4.856010e+002, 7.335779e+002
4.860831e+002, 7.348099e+002
4.865652e+002, 7.362929e+002
4.870474e+002, 7.385021e+002
4.875295e+002, 7.398643e+002
4.880116e+002, 7.396214e+002
4.884937e+002, 7.390746e+002
4.889758e+002, 7.403590e+002
4.894579e+002, 7.444139e+002
4.899401e+002, 7.473979e+002
4.904222e+002, 7.481418e+002
4.909043e+002, 7.471450e+002
4.913864e+002, 7.467668e+002
4.918685e+002, 7.470848e+002
4.923506e+002, 7.474872e+002
4.928328e+002, 7.472343e+002
4.933149e+002, 7.466276e+002
4.937970e+002, 7.473506e+002
4.942791e+002, 7.497751e+002
4.947612e+002, 7.523067e+002
4.952433e+002, 7.529694e+002
4.957255e+002, 7.523221e+002
4.962076e+002, 7.518020e+002
4.966897e+002, 7.521005e+002
4.971718e+002, 7.525975e+002
4.976539e+002, 7.522501e+002
4.981360e+002, 7.514520e+002
4.986182e+002, 7.517305e+002
4.991003e+002, 7.552460e+002
4.995824e+002, 7.592016e+002
5.000645e+002, 7.614630e+002
5.005466e+002, 7.614742e+002
5.010287e+002, 7.613827e+002
5.015109e+002, 7.616780e+002
5.019930e+002, 7.622243e+002
5.024751e+002, 7.628837e+002
5.029572e+002, 7.634666e+002
5.034393e+002, 7.643815e+002
5.039214e+002, 7.662602e+002
5.044036e+002, 7.685306e+002
5.048857e+002, 7.689894e+002
5.053678e+002, 7.660665e+002
5.058499e+002, 7.640855e+002
5.063320e+002, 7.652615e+002
5.068141e+002, 7.699142e+002
5.072963e+002, 7.728745e+002
5.077784e+002, 7.738297e+002
5.082605e+002, 7.740170e+002
5.087426e+002, 7.746652e+002
5.092247e+002, 7.757400e+002
5.097068e+002, 7.767162e+002
5.101890e+002, 7.774750e+002
5.106711e+002, 7.781229e+002
5.111532e+002, 7.787606e+002
5.116353e+002, 7.794086e+002
5.121174e+002, 7.801604e+002
5.125995e+002, 7.808583e+002
5.130817e+002, 7.817960e+002
5.135638e+002, 7.837499e+002
5.140459e+002, 7.866454e+002
5.145280e+002, 7.888314e+002
5.150101e+002, 7.882270e+002
5.154922e+002, 7.869635e+002
5.159744e+002, 7.872151e+002
5.164565e+002, 7.905801e+002
5.169386e+002, 7.932341e+002
5.174207e+002, 7.931537e+002
5.179028e+002, 7.917338e+002
5.183849e+002, 7.912573e+002
5.188671e+002, 7.930254e+002
5.193492e+002, 7.947704e+002
5.198313e+002, 7.959575e+002
5.203134e+002, 7.966204e+002
5.207955e+002, 7.974579e+002
5.212776e+002, 7.985497e+002
5.217598e+002, 7.996871e+002
5.222419e+002, 8.006646e+002
5.227240e+002, 8.013638e+002
5.232061e+002, 8.026063e+002
5.236882e+002, 8.045828e+002
5.241703e+002, 8.067268e+002
5.246525e+002, 8.083864e+002
5.251346e+002, 8.095765e+002
5.256167e+002, 8.102762e+002
5.260988e+002, 8.102341e+002
5.265809e+002, 8.099943e+002
5.270630e+002, 8.106374e+002
5.275452e+002, 8.120461e+002
5.280273e+002, 8.135179e+002
5.285094e+002, 8.146074e+002
5.289915e+002, 8.155607e+002
5.294736e+002, 8.166975e+002
5.299557e+002, 8.180504e+002
5.304379e+002, 8.193625e+002
5.309200e+002, 8.200521e+002
5.314021e+002, 8.208332e+002
5.318842e+002, 8.224890e+002
5.323663e+002, 8.264317e+002
5.328484e+002, 8.294730e+002
5.333306e+002, 8.304523e+002
5.338127e+002, 8.299988e+002
5.342948e+002, 8.294014e+002
5.347769e+002, 8.281089e+002
5.352590e+002, 8.274460e+002
5.357411e+002, 8.278963e+002
5.362233e+002, 8.294230e+002
5.367054e+002, 8.307037e+002
5.371875e+002, 8.316107e+002
5.376696e+002, 8.325306e+002
5.381517e+002, 8.336469e+002
5.386339e+002, 8.349354e+002
5.391160e+002, 8.369240e+002
5.395981e+002, 8.399014e+002
5.400802e+002, 8.428438e+002
5.405623e+002, 8.442932e+002
5.410444e+002, 8.444637e+002
5.415266e+002, 8.445641e+002
5.420087e+002, 8.447399e+002
5.424908e+002, 8.452908e+002
5.429729e+002, 8.469396e+002
5.434550e+002, 8.494202e+002
5.439371e+002, 8.517349e+002
5.444193e+002, 8.531608e+002
5.449014e+002, 8.542977e+002
5.453835e+002, 8.557083e+002
5.458656e+002, 8.574589e+002
5.463477e+002, 8.589805e+002
5.468298e+002, 8.598507e+002
5.473120e+002, 8.605114e+002
5.477941e+002, 8.613129e+002
5.482762e+002, 8.622078e+002
5.487583e+002, 8.633935e+002
5.492404e+002, 8.652110e+002
5.497225e+002, 8.672233e+002
5.502047e+002, 8.686721e+002
5.506868e+002, 8.693289e+002
5.511689e+002, 8.698715e+002
5.516510e+002, 8.705209e+002
5.521331e+002, 8.712115e+002
5.526152e+002, 8.711373e+002
5.530974e+002, 8.699867e+002
5.535795e+002, 8.696716e+002
5.540616e+002, 8.719220e+002
5.545437e+002, 8.762930e+002
5.550258e+002, 8.802052e+002
5.555079e+002, 8.835382e+002
5.559901e+002, 8.865045e+002
5.564722e+002, 8.890794e+002
5.569543e+002, 8.915222e+002
5.574364e+002, 8.943837e+002
5.579185e+002, 8.979696e+002
5.584006e+002, 9.017880e+002
5.588828e+002, 9.051343e+002
5.593649e+002, 9.084105e+002
5.598470e+002, 9.126307e+002
5.603291e+002, 9.189387e+002
5.608112e+002, 9.255663e+002
5.612933e+002, 9.316574e+002
5.617755e+002, 9.371529e+002
5.622576e+002, 9.431360e+002
5.627397e+002, 9.504828e+002
5.632218e+002, 9.576544e+002
5.637039e+002, 9.638351e+002
5.641860e+002, 9.683940e+002
5.646682e+002, 9.735677e+002
5.651503e+002, 9.791909e+002
5.656324e+002, 9.857297e+002
5.661145e+002, 9.937154e+002
5.665966e+002, 1.003276e+003
5.670787e+002, 1.013847e+003
5.675609e+002, 1.025125e+003
5.680430e+002, 1.037618e+003
5.685251e+002, 1.052445e+003
5.690072e+002, 1.069551e+003
5.694893e+002, 1.087304e+003
5.699714e+002, 1.103921e+003
5.704536e+002, 1.121286e+003
5.709357e+002, 1.142062e+003
5.714178e+002, 1.166170e+003
5.718999e+002, 1.193141e+003
5.723820e+002, 1.222998e+003
5.728641e+002, 1.255156e+003
5.733463e+002, 1.288784e+003
5.738284e+002, 1.324385e+003
5.743105e+002, 1.360634e+003
5.747926e+002, 1.401913e+003
5.752747e+002, 1.441915e+003
5.757568e+002, 1.472640e+003
5.762390e+002, 1.501039e+003
5.767211e+002, 1.510360e+003
5.772032e+002, 1.495448e+003
5.776853e+002, 1.460344e+003
5.781674e+002, 1.417354e+003
5.786495e+002, 1.363015e+003
5.791317e+002, 1.310865e+003
5.796138e+002, 1.265572e+003
5.800959e+002, 1.227132e+003
5.805780e+002, 1.196054e+003
5.810601e+002, 1.172261e+003
5.815422e+002, 1.153883e+003
5.820244e+002, 1.139748e+003
5.825065e+002, 1.129671e+003
5.829886e+002, 1.123604e+003
5.834707e+002, 1.121601e+003
5.839528e+002, 1.122598e+003
5.844349e+002, 1.126419e+003
5.849171e+002, 1.132406e+003
5.853992e+002, 1.139595e+003
5.858813e+002, 1.148101e+003
5.863634e+002, 1.157275e+003
5.868455e+002, 1.165755e+003
5.873276e+002, 1.174587e+003
5.878098e+002, 1.186372e+003
5.882919e+002, 1.202311e+003
5.887740e+002, 1.220612e+003
5.892561e+002, 1.240420e+003
5.897382e+002, 1.261700e+003
5.902203e+002, 1.286385e+003
5.907025e+002, 1.314542e+003
5.911846e+002, 1.345480e+003
5.916667e+002, 1.378689e+003
5.921488e+002, 1.414293e+003
5.926309e+002, 1.452568e+003
5.931130e+002, 1.493862e+003
5.935952e+002, 1.537300e+003
5.940773e+002, 1.582967e+003
5.945594e+002, 1.630319e+003
5.950415e+002, 1.677277e+003
5.955236e+002, 1.726778e+003
5.960057e+002, 1.769987e+003
5.964879e+002, 1.800204e+003
5.969700e+002, 1.816323e+003
5.974521e+002, 1.815188e+003
5.979342e+002, 1.791863e+003
5.984163e+002, 1.753753e+003
5.988984e+002, 1.699908e+003
5.993806e+002, 1.632139e+003
5.998627e+002, 1.566511e+003
6.003448e+002, 1.503921e+003
6.008269e+002, 1.446771e+003
6.013090e+002, 1.395383e+003
6.017911e+002, 1.349621e+003
6.022733e+002, 1.309511e+003
6.027554e+002, 1.275416e+003
6.032375e+002, 1.246493e+003
6.037196e+002, 1.222940e+003
6.042017e+002, 1.204828e+003
6.046838e+002, 1.189619e+003
6.051660e+002, 1.177175e+003
6.056481e+002, 1.166843e+003
6.061302e+002, 1.158062e+003
6.066123e+002, 1.150697e+003
6.070944e+002, 1.144112e+003
6.075765e+002, 1.137741e+003
6.080587e+002, 1.132280e+003
6.085408e+002, 1.128923e+003
6.090229e+002, 1.127223e+003
6.095050e+002, 1.125465e+003
6.099871e+002, 1.122423e+003
6.104692e+002, 1.119338e+003
6.109514e+002, 1.116667e+003
6.114335e+002, 1.114376e+003
6.119156e+002, 1.113444e+003
6.123977e+002, 1.115658e+003
6.128798e+002, 1.118065e+003
6.133619e+002, 1.118747e+003
6.138441e+002, 1.116187e+003
6.143262e+002, 1.115782e+003
6.148083e+002, 1.118464e+003
6.152904e+002, 1.122044e+003
6.157725e+002, 1.123603e+003
6.162546e+002, 1.123021e+003
6.167368e+002, 1.122555e+003
6.172189e+002, 1.122430e+003
6.177010e+002, 1.123016e+003
6.181831e+002, 1.125304e+003
6.186652e+002, 1.128966e+003
6.191473e+002, 1.132723e+003
6.196295e+002, 1.136306e+003
6.201116e+002, 1.139403e+003
6.205937e+002, 1.141034e+003
6.210758e+002, 1.141615e+003
6.215579e+002, 1.143313e+003
6.220400e+002, 1.147049e+003
6.225222e+002, 1.152279e+003
6.230043e+002, 1.158905e+003
6.234864e+002, 1.167108e+003
6.239685e+002, 1.175551e+003
6.244506e+002, 1.182618e+003
6.249327e+002, 1.191114e+003
6.254149e+002, 1.202711e+003
6.258970e+002, 1.216911e+003
6.263791e+002, 1.235237e+003
6.268612e+002, 1.257560e+003
6.273433e+002, 1.284311e+003
6.278254e+002, 1.317126e+003
6.283076e+002, 1.355783e+003
6.287897e+002, 1.396064e+003
6.292718e+002, 1.438261e+003
6.297539e+002, 1.479529e+003
6.302360e+002, 1.513348e+003
6.307181e+002, 1.541785e+003
6.312003e+002, 1.570924e+003
6.316824e+002, 1.602323e+003
6.321645e+002, 1.636951e+003
6.326466e+002, 1.674169e+003
6.331287e+002, 1.714757e+003
6.336108e+002, 1.761290e+003
6.340930e+002, 1.808874e+003
6.345751e+002, 1.868131e+003
6.350572e+002, 1.942678e+003
6.355393e+002, 2.031954e+003
6.360214e+002, 2.142476e+003
6.365035e+002, 2.278009e+003
6.369857e+002, 2.430851e+003
6.374678e+002, 2.592598e+003
6.379499e+002, 2.760520e+003
6.384320e+002, 2.948165e+003
6.389141e+002, 3.149522e+003
6.393962e+002, 3.384494e+003
6.398784e+002, 3.656722e+003
6.403605e+002, 3.977578e+003
6.408426e+002, 4.415296e+003
6.413247e+002, 5.008152e+003
6.418068e+002, 5.681411e+003
6.422889e+002, 6.592624e+003
6.427711e+002, 7.520564e+003
6.432532e+002, 7.985298e+003
6.437353e+002, 7.601035e+003
6.442174e+002, 6.862972e+003
6.446995e+002, 5.813640e+003
6.451816e+002, 4.535554e+003
6.456638e+002, 3.494224e+003
6.461459e+002, 2.832012e+003
6.466280e+002, 2.351310e+003
6.471101e+002, 2.008797e+003
6.475922e+002, 1.812763e+003
6.480743e+002, 1.658403e+003
6.485565e+002, 1.552241e+003
6.490386e+002, 1.473949e+003
6.495207e+002, 1.414504e+003
6.500028e+002, 1.372650e+003
6.504849e+002, 1.339266e+003
6.509670e+002, 1.314477e+003
6.514492e+002, 1.295096e+003
6.519313e+002, 1.279139e+003
6.524134e+002, 1.266206e+003
6.528955e+002, 1.256106e+003
6.533776e+002, 1.249574e+003
6.538597e+002, 1.243595e+003
6.543419e+002, 1.235373e+003
6.548240e+002, 1.226667e+003
6.553061e+002, 1.220309e+003
6.557882e+002, 1.217859e+003
6.562703e+002, 1.216970e+003
6.567524e+002, 1.218217e+003
6.572346e+002, 1.220674e+003
6.577167e+002, 1.221400e+003
6.581988e+002, 1.219358e+003
6.586809e+002, 1.218023e+003
6.591630e+002, 1.218913e+003
6.596451e+002, 1.221512e+003
6.601273e+002, 1.222435e+003
6.606094e+002, 1.221574e+003
6.610915e+002, 1.221177e+003
6.615736e+002, 1.222872e+003
6.620557e+002, 1.226027e+003
6.625378e+002, 1.229698e+003
6.630200e+002, 1.233814e+003
6.635021e+002, 1.237654e+003
6.639842e+002, 1.239978e+003
6.644663e+002, 1.242199e+003
6.649484e+002, 1.245695e+003
6.654305e+002, 1.251081e+003
6.659127e+002, 1.256678e+003
6.663948e+002, 1.262709e+003
6.668769e+002, 1.268432e+003
6.673590e+002, 1.273086e+003
6.678411e+002, 1.275875e+003
6.683232e+002, 1.279342e+003
6.688054e+002, 1.284212e+003
6.692875e+002, 1.289212e+003
6.697696e+002, 1.291939e+003
6.702517e+002, 1.292357e+003
6.707338e+002, 1.292219e+003
6.712159e+002, 1.292140e+003
6.716981e+002, 1.291630e+003
6.721802e+002, 1.289306e+003
6.726623e+002, 1.285687e+003
6.731444e+002, 1.282553e+003
6.736265e+002, 1.280828e+003
6.741086e+002, 1.279983e+003
6.745908e+002, 1.280192e+003
6.750729e+002, 1.281196e+003
6.755550e+002, 1.281404e+003
6.760371e+002, 1.279085e+003
6.765192e+002, 1.277009e+003
6.770013e+002, 1.276377e+003
6.774835e+002, 1.277271e+003
6.779656e+002, 1.278868e+003
6.784477e+002, 1.281562e+003
6.789298e+002, 1.284278e+003
6.794119e+002, 1.286144e+003
6.798940e+002, 1.287169e+003
6.803762e+002, 1.288274e+003
6.808583e+002, 1.289402e+003
6.813404e+002, 1.291176e+003
6.818225e+002, 1.294565e+003
6.823046e+002, 1.299026e+003
6.827867e+002, 1.303588e+003
6.832689e+002, 1.308068e+003
6.837510e+002, 1.312428e+003
6.842331e+002, 1.316718e+003
6.847152e+002, 1.320772e+003
6.851973e+002, 1.324283e+003
6.856794e+002, 1.325125e+003
6.861616e+002, 1.327947e+003
6.866437e+002, 1.334744e+003
6.871258e+002, 1.343769e+003
6.876079e+002, 1.351858e+003
6.880900e+002, 1.358376e+003
6.885721e+002, 1.365314e+003
6.890543e+002, 1.372955e+003
6.895364e+002, 1.381335e+003
6.900185e+002, 1.390853e+003
6.905006e+002, 1.401448e+003
6.909827e+002, 1.412588e+003
6.914648e+002, 1.424691e+003
6.919470e+002, 1.436899e+003
6.924291e+002, 1.447456e+003
6.929112e+002, 1.456831e+003
6.933933e+002, 1.467600e+003
6.938754e+002, 1.482160e+003
6.943575e+002, 1.497980e+003
6.948397e+002, 1.513015e+003
6.953218e+002, 1.526962e+003
6.958039e+002, 1.543377e+003
6.962860e+002, 1.563577e+003
6.967681e+002, 1.585669e+003
6.972502e+002, 1.608946e+003
6.977324e+002, 1.633139e+003
6.982145e+002, 1.659414e+003
6.986966e+002, 1.687797e+003
6.991787e+002, 1.718238e+003
6.996608e+002, 1.749763e+003
7.001429e+002, 1.782886e+003
7.006251e+002, 1.821725e+003
7.011072e+002, 1.867008e+003
7.015893e+002, 1.916820e+003
7.020714e+002, 1.970200e+003
7.025535e+002, 2.026578e+003
7.030356e+002, 2.085415e+003
7.035178e+002, 2.146286e+003
7.039999e+002, 2.208823e+003
7.044820e+002, 2.276446e+003
7.049641e+002, 2.344355e+003
7.054462e+002, 2.406488e+003
7.059283e+002, 2.469867e+003
7.064105e+002, 2.516610e+003
7.068926e+002, 2.545399e+003
7.073747e+002, 2.555637e+003
7.078568e+002, 2.544621e+003
7.083389e+002, 2.511658e+003
7.088210e+002, 2.466586e+003
7.093032e+002, 2.410078e+003
7.097853e+002, 2.345819e+003
7.102674e+002, 2.279159e+003
7.107495e+002, 2.210890e+003
7.112316e+002, 2.146861e+003
7.117137e+002, 2.089581e+003
7.121959e+002, 2.038254e+003
7.126780e+002, 1.993577e+003
7.131601e+002, 1.954868e+003
7.136422e+002, 1.918974e+003
7.141243e+002, 1.883692e+003
7.146064e+002, 1.851955e+003
7.150886e+002, 1.825222e+003
7.155707e+002, 1.803395e+003
7.160528e+002, 1.782814e+003
7.165349e+002, 1.763421e+003
7.170170e+002, 1.745014e+003
7.174991e+002, 1.726792e+003
7.179813e+002, 1.709158e+003
7.184634e+002, 1.694253e+003
7.189455e+002, 1.682259e+003
7.194276e+002, 1.671756e+003
7.199097e+002, 1.661605e+003
7.203918e+002, 1.652145e+003
7.208740e+002, 1.643687e+003
7.213561e+002, 1.635948e+003
7.218382e+002, 1.630769e+003
7.223203e+002, 1.631049e+003
7.228024e+002, 1.633012e+003
7.232845e+002, 1.633304e+003
7.237667e+002, 1.630558e+003
7.242488e+002, 1.627767e+003
7.247309e+002, 1.624202e+003
7.252130e+002, 1.621318e+003
7.256951e+002, 1.620619e+003
7.261772e+002, 1.622090e+003
7.266594e+002, 1.626177e+003
7.271415e+002, 1.633356e+003
7.276236e+002, 1.641821e+003
7.281057e+002, 1.648502e+003
7.285878e+002, 1.654520e+003
7.290699e+002, 1.662832e+003
7.295521e+002, 1.674555e+003
7.300342e+002, 1.688635e+003
7.305163e+002, 1.704606e+003
7.309984e+002, 1.722410e+003
7.314805e+002, 1.741937e+003
7.319626e+002, 1.763993e+003
7.324448e+002, 1.786787e+003
7.329269e+002, 1.808897e+003
7.334090e+002, 1.831761e+003
7.338911e+002, 1.859333e+003
7.343732e+002, 1.892471e+003
7.348553e+002, 1.925971e+003
7.353375e+002, 1.958922e+003
7.358196e+002, 1.990545e+003
7.363017e+002, 2.020011e+003
7.367838e+002, 2.046824e+003
7.372659e+002, 2.067956e+003
7.377480e+002, 2.082511e+003
7.382302e+002, 2.090023e+003
7.387123e+002, 2.090814e+003
7.391944e+002, 2.084532e+003
7.396765e+002, 2.069566e+003
7.401586e+002, 2.039657e+003
7.406407e+002, 2.006115e+003
7.411229e+002, 1.973299e+003
7.416050e+002, 1.941065e+003
7.420871e+002, 1.909232e+003
7.425692e+002, 1.876354e+003
7.430513e+002, 1.846850e+003
7.435334e+002, 1.823732e+003
7.440156e+002, 1.806296e+003
7.444977e+002, 1.788920e+003
7.449798e+002, 1.771529e+003
7.454619e+002, 1.756994e+003
7.459440e+002, 1.748091e+003
7.464261e+002, 1.743216e+003
7.469083e+002, 1.740509e+003
7.473904e+002, 1.739800e+003
7.478725e+002, 1.741066e+003
7.483546e+002, 1.743680e+003
7.488367e+002, 1.748673e+003
7.493188e+002, 1.756738e+003
7.498010e+002, 1.767546e+003
7.502831e+002, 1.782267e+003
7.507652e+002, 1.801899e+003
7.512473e+002, 1.823911e+003
7.517294e+002, 1.846016e+003
7.522115e+002, 1.868084e+003
7.526937e+002, 1.894940e+003
7.531758e+002, 1.927281e+003
7.536579e+002, 1.962457e+003
7.541400e+002, 1.996931e+003
7.546221e+002, 2.032634e+003
7.551042e+002, 2.073669e+003
7.555864e+002, 2.121141e+003
7.560685e+002, 2.171184e+003
7.565506e+002, 2.220198e+003
7.570327e+002, 2.271439e+003
7.575148e+002, 2.326715e+003
7.579969e+002, 2.386438e+003
7.584791e+002, 2.451724e+003
7.589612e+002, 2.521803e+003
7.594433e+002, 2.598239e+003
7.599254e+002, 2.680514e+003
7.604075e+002, 2.769068e+003
7.608896e+002, 2.869060e+003
7.613718e+002, 2.981413e+003
7.618539e+002, 3.105044e+003
7.623360e+002, 3.238632e+003
7.628181e+002, 3.382397e+003
7.633002e+002, 3.536302e+003
7.637823e+002, 3.702363e+003
7.642645e+002, 3.878081e+003
7.647466e+002, 4.066866e+003
7.652287e+002, 4.262072e+003
7.657108e+002, 4.459567e+003
7.661929e+002, 4.677490e+003
7.666750e+002, 4.870962e+003
7.671572e+002, 5.046821e+003
7.676393e+002, 5.188108e+003
7.681214e+002, 5.266834e+003
7.686035e+002, 5.282174e+003
7.690856e+002, 5.233492e+003
7.695677e+002, 5.113911e+003
7.700499e+002, 4.943147e+003
7.705320e+002, 4.735712e+003
7.710141e+002, 4.501385e+003
7.714962e+002, 4.265170e+003
7.719783e+002, 4.028665e+003
7.724604e+002, 3.801708e+003
7.729426e+002, 3.588866e+003
7.734247e+002, 3.390713e+003
7.739068e+002, 3.211328e+003
7.743889e+002, 3.050240e+003
7.748710e+002, 2.908585e+003
7.753531e+002, 2.787155e+003
7.758353e+002, 2.685120e+003
7.763174e+002, 2.600551e+003
7.767995e+002, 2.534251e+003
7.772816e+002, 2.483004e+003
7.777637e+002, 2.446646e+003
7.782458e+002, 2.423790e+003
7.787280e+002, 2.413237e+003
7.792101e+002, 2.414394e+003
7.796922e+002, 2.425314e+003
7.801743e+002, 2.444915e+003
7.806564e+002, 2.474175e+003
7.811385e+002, 2.513383e+003
7.816207e+002, 2.562914e+003
7.821028e+002, 2.623603e+003
7.825849e+002, 2.695330e+003
7.830670e+002, 2.777502e+003
7.835491e+002, 2.869996e+003
7.840313e+002, 2.972974e+003
7.845134e+002, 3.089208e+003
7.849955e+002, 3.219721e+003
7.854776e+002, 3.356673e+003
7.859597e+002, 3.494602e+003
7.864418e+002, 3.640102e+003
7.869240e+002, 3.799525e+003
7.874061e+002, 3.973717e+003
7.878882e+002, 4.165421e+003
7.883703e+002, 4.368656e+003
7.888524e+002, 4.592274e+003
7.893345e+002, 4.836618e+003
7.898167e+002, 5.104740e+003
7.902988e+002, 5.395143e+003
7.907809e+002, 5.705398e+003
7.912630e+002, 6.045414e+003
7.917451e+002, 6.424680e+003
7.922272e+002, 6.835248e+003
7.927094e+002, 7.276619e+003
7.931915e+002, 7.744933e+003
7.936736e+002, 8.235101e+003
7.941557e+002, 8.753812e+003
7.946378e+002, 9.282162e+003
7.951199e+002, 9.819635e+003
7.956021e+002, 1.034337e+004
7.960842e+002, 1.078595e+004
7.965663e+002, 1.117508e+004
7.970484e+002, 1.141478e+004
7.975305e+002, 1.145155e+004
7.980126e+002, 1.129410e+004
7.984948e+002, 1.096834e+004
7.989769e+002, 1.044120e+004
7.994590e+002, 9.823372e+003
7.999411e+002, 9.141796e+003
8.004232e+002, 8.412854e+003
8.009053e+002, 7.721669e+003
8.013875e+002, 7.069792e+003
8.018696e+002, 6.474944e+003
8.023517e+002, 5.941017e+003
8.028338e+002, 5.464899e+003
8.033159e+002, 5.052149e+003
8.037980e+002, 4.697821e+003
8.042802e+002, 4.386164e+003
8.047623e+002, 4.125205e+003
8.052444e+002, 3.894409e+003
8.057265e+002, 3.688421e+003
8.062086e+002, 3.506652e+003
8.066907e+002, 3.344914e+003
8.071729e+002, 3.203719e+003
8.076550e+002, 3.078816e+003
8.081371e+002, 2.969583e+003
8.086192e+002, 2.873209e+003
8.091013e+002, 2.783223e+003
8.095834e+002, 2.699556e+003
8.100656e+002, 2.621710e+003
8.105477e+002, 2.548993e+003
8.110298e+002, 2.482461e+003
8.115119e+002, 2.422656e+003
8.119940e+002, 2.369329e+003
8.124761e+002, 2.320554e+003
8.129583e+002, 2.276395e+003
8.134404e+002, 2.236305e+003
8.139225e+002, 2.200707e+003
8.144046e+002, 2.169317e+003
8.148867e+002, 2.138054e+003
8.153688e+002, 2.107042e+003
8.158510e+002, 2.078749e+003
8.163331e+002, 2.055060e+003
8.168152e+002, 2.034491e+003
8.172973e+002, 2.014906e+003
8.177794e+002, 1.996425e+003
8.182615e+002, 1.979888e+003
8.187437e+002, 1.966763e+003
8.192258e+002, 1.954848e+003
8.197079e+002, 1.943064e+003
8.201900e+002, 1.931436e+003
8.206721e+002, 1.920790e+003
8.211542e+002, 1.911383e+003
8.216364e+002, 1.902181e+003
8.221185e+002, 1.892574e+003
8.226006e+002, 1.883108e+003
8.230827e+002, 1.874844e+003
8.235648e+002, 1.867864e+003
8.240469e+002, 1.862175e+003
8.245291e+002, 1.858669e+003
8.250112e+002, 1.855832e+003
8.254933e+002, 1.852975e+003
8.259754e+002, 1.849656e+003
8.264575e+002, 1.844431e+003
8.269396e+002, 1.833494e+003
8.274218e+002, 1.824538e+003
8.279039e+002, 1.820159e+003
8.283860e+002, 1.819135e+003
8.288681e+002, 1.817621e+003
8.293502e+002, 1.815523e+003
8.298323e+002, 1.813389e+003
8.303145e+002, 1.811396e+003
8.307966e+002, 1.809457e+003
8.312787e+002, 1.807402e+003
8.317608e+002, 1.805241e+003
8.322429e+002, 1.803099e+003
8.327250e+002, 1.800383e+003
8.332072e+002, 1.798313e+003
8.336893e+002, 1.798616e+003
8.341714e+002, 1.800043e+003
8.346535e+002, 1.799083e+003
8.351356e+002, 1.793623e+003
8.356177e+002, 1.789428e+003
8.360999e+002, 1.787861e+003
8.365820e+002, 1.787760e+003
8.370641e+002, 1.786204e+003
8.375462e+002, 1.783389e+003
8.380283e+002, 1.781618e+003
8.385104e+002, 1.781965e+003
8.389926e+002, 1.783021e+003
8.394747e+002, 1.783503e+003
8.399568e+002, 1.783518e+003
8.404389e+002, 1.783259e+003
8.409210e+002, 1.782327e+003
8.414031e+002, 1.781658e+003
8.418853e+002, 1.781365e+003
8.423674e+002, 1.781466e+003
8.428495e+002, 1.782298e+003
8.433316e+002, 1.784258e+003
8.438137e+002, 1.784650e+003
8.442958e+002, 1.782613e+003
8.447780e+002, 1.779952e+003
8.452601e+002, 1.779540e+003
8.457422e+002, 1.780584e+003
8.462243e+002, 1.781106e+003
8.467064e+002, 1.780339e+003
8.471885e+002, 1.779567e+003
8.476707e+002, 1.779958e+003
8.481528e+002, 1.780565e+003
8.486349e+002, 1.780224e+003
8.491170e+002, 1.778034e+003
8.495991e+002, 1.776354e+003
8.500812e+002, 1.774989e+003
8.505634e+002, 1.774580e+003
8.510455e+002, 1.776718e+003
8.515276e+002, 1.780891e+003
8.520097e+002, 1.782848e+003
8.524918e+002, 1.781894e+003
8.529739e+002, 1.779893e+003
8.534561e+002, 1.776989e+003
8.539382e+002, 1.774809e+003
8.544203e+002, 1.775647e+003
8.549024e+002, 1.781119e+003
8.553845e+002, 1.785419e+003
8.558666e+002, 1.787186e+003
8.563488e+002, 1.787614e+003
8.568309e+002, 1.787176e+003
8.573130e+002, 1.785670e+003
8.577951e+002, 1.784511e+003
8.582772e+002, 1.783662e+003
8.587593e+002, 1.783299e+003
8.592415e+002, 1.784341e+003
8.597236e+002, 1.785667e+003
8.602057e+002, 1.784713e+003
8.606878e+002, 1.781301e+003
8.611699e+002, 1.779358e+003
8.616520e+002, 1.781859e+003
8.621342e+002, 1.785529e+003
8.626163e+002, 1.788834e+003
8.630984e+002, 1.791781e+003
8.635805e+002, 1.792952e+003
8.640626e+002, 1.791727e+003
8.645447e+002, 1.790645e+003
8.650269e+002, 1.791416e+003
8.655090e+002, 1.793467e+003
8.659911e+002, 1.794771e+003
8.664732e+002, 1.795414e+003
8.669553e+002, 1.795896e+003
8.674374e+002, 1.796190e+003
8.679196e+002, 1.796713e+003
8.684017e+002, 1.797661e+003
8.688838e+002, 1.799041e+003
8.693659e+002, 1.801009e+003
8.698480e+002, 1.804111e+003
8.703301e+002, 1.806736e+003
8.708123e+002, 1.808224e+003
8.712944e+002, 1.808964e+003
8.717765e+002, 1.810694e+003
8.722586e+002, 1.813219e+003
8.727407e+002, 1.814796e+003
8.732228e+002, 1.813795e+003
8.737050e+002, 1.812429e+003
8.741871e+002, 1.812878e+003
8.746692e+002, 1.814721e+003
8.751513e+002, 1.817062e+003
8.756334e+002, 1.820765e+003
8.761155e+002, 1.823515e+003
8.765977e+002, 1.824814e+003
8.770798e+002, 1.825134e+003
8.775619e+002, 1.825097e+003
8.780440e+002, 1.824660e+003
8.785261e+002, 1.824726e+003
8.790082e+002, 1.825527e+003
8.794904e+002, 1.826782e+003
8.799725e+002, 1.828542e+003
8.804546e+002, 1.830390e+003
8.809367e+002, 1.831495e+003
8.814188e+002, 1.831095e+003
8.819009e+002, 1.831091e+003
8.823831e+002, 1.831834e+003
8.828652e+002, 1.833524e+003
8.833473e+002, 1.836533e+003
8.838294e+002, 1.841666e+003
8.843115e+002, 1.844978e+003
8.847936e+002, 1.846052e+003
8.852758e+002, 1.846451e+003
8.857579e+002, 1.847416e+003
8.862400e+002, 1.849007e+003
8.867221e+002, 1.851633e+003
8.872042e+002, 1.855408e+003
8.876863e+002, 1.858881e+003
8.881685e+002, 1.860416e+003
8.886506e+002, 1.861990e+003
8.891327e+002, 1.865144e+003
8.896148e+002, 1.870161e+003
8.900969e+002, 1.874982e+003
8.905790e+002, 1.879572e+003
8.910612e+002, 1.884057e+003
8.915433e+002, 1.888424e+003
8.920254e+002, 1.892710e+003
8.925075e+002, 1.896815e+003
8.929896e+002, 1.900840e+003
8.934717e+002, 1.905578e+003
8.939539e+002, 1.912227e+003
8.944360e+002, 1.919186e+003
8.949181e+002, 1.924939e+003
8.954002e+002, 1.929891e+003
8.958823e+002, 1.936449e+003
8.963644e+002, 1.945019e+003
8.968466e+002, 1.954834e+003
8.973287e+002, 1.966182e+003
8.978108e+002, 1.978389e+003
8.982929e+002, 1.989332e+003
8.987750e+002, 1.999439e+003
8.992571e+002, 2.011633e+003
8.997393e+002, 2.027711e+003
9.002214e+002, 2.045252e+003
9.007035e+002, 2.062083e+003
9.011856e+002, 2.078894e+003
9.016677e+002, 2.096490e+003
9.021498e+002, 2.114008e+003
9.026320e+002, 2.134165e+003
9.031141e+002, 2.157042e+003
9.035962e+002, 2.182734e+003
9.040783e+002, 2.212260e+003
9.045604e+002, 2.245372e+003
9.050425e+002, 2.275832e+003
9.055247e+002, 2.302719e+003
9.060068e+002, 2.327039e+003
9.064889e+002, 2.351080e+003
9.069710e+002, 2.372384e+003
9.074531e+002, 2.388723e+003
9.079352e+002, 2.400746e+003
9.084174e+002, 2.404242e+003
9.088995e+002, 2.398125e+003
9.093816e+002, 2.384494e+003
9.098637e+002, 2.363438e+003
9.103458e+002, 2.334736e+003
9.108279e+002, 2.305683e+003
9.113101e+002, 2.276243e+003
9.117922e+002, 2.247541e+003
9.122743e+002, 2.219285e+003
9.127564e+002, 2.192910e+003
9.132385e+002, 2.170429e+003
9.137206e+002, 2.151559e+003
9.142028e+002, 2.133864e+003
9.146849e+002, 2.115962e+003
9.151670e+002, 2.100031e+003
9.156491e+002, 2.086964e+003
9.161312e+002, 2.076299e+003
9.166133e+002, 2.066392e+003
9.170955e+002, 2.057229e+003
9.175776e+002, 2.048522e+003
9.180597e+002, 2.039541e+003
9.185418e+002, 2.031807e+003
9.190239e+002, 2.027843e+003
9.195060e+002, 2.026413e+003
9.199882e+002, 2.025163e+003
9.204703e+002, 2.023483e+003
9.209524e+002, 2.021615e+003
9.214345e+002, 2.019255e+003
9.219166e+002, 2.016965e+003
9.223987e+002, 2.015718e+003
9.228809e+002, 2.015604e+003
9.233630e+002, 2.014292e+003
9.238451e+002, 2.011323e+003
9.243272e+002, 2.008120e+003
9.248093e+002, 2.005444e+003
9.252914e+002, 2.003843e+003
9.257736e+002, 2.004708e+003
9.262557e+002, 2.008832e+003
9.267378e+002, 2.011540e+003
9.272199e+002, 2.010728e+003
9.277020e+002, 2.008823e+003
9.281841e+002, 2.006701e+003
9.286663e+002, 2.004391e+003
9.291484e+002, 2.002799e+003
9.296305e+002, 2.001875e+003
9.301126e+002, 2.002687e+003
9.305947e+002, 2.007979e+003
9.310768e+002, 2.014061e+003
9.315590e+002, 2.015512e+003
9.320411e+002, 2.013324e+003
9.325232e+002, 2.011832e+003
9.330053e+002, 2.012775e+003
9.334874e+002, 2.014329e+003
9.339695e+002, 2.016760e+003
9.344517e+002, 2.019101e+003
9.349338e+002, 2.018246e+003
9.354159e+002, 2.014111e+003
9.358980e+002, 2.012107e+003
9.363801e+002, 2.014375e+003
9.368622e+002, 2.017637e+003
9.373444e+002, 2.017232e+003
9.378265e+002, 2.015526e+003
9.383086e+002, 2.016216e+003
9.387907e+002, 2.022264e+003
9.392728e+002, 2.026728e+003
9.397549e+002, 2.027503e+003
9.402371e+002, 2.027250e+003
9.407192e+002, 2.028029e+003
9.412013e+002, 2.029852e+003
9.416834e+002, 2.032006e+003
9.421655e+002, 2.034478e+003
9.426476e+002, 2.036660e+003
9.431298e+002, 2.037830e+003
9.436119e+002, 2.038525e+003
9.440940e+002, 2.039297e+003
9.445761e+002, 2.040186e+003
9.450582e+002, 2.041012e+003
9.455403e+002, 2.041904e+003
9.460225e+002, 2.042458e+003
9.465046e+002, 2.042113e+003
9.469867e+002, 2.041441e+003
9.474688e+002, 2.043314e+003
9.479509e+002, 2.047529e+003
9.484330e+002, 2.051264e+003
9.489152e+002, 2.053499e+003
9.493973e+002, 2.054512e+003
9.498794e+002, 2.053448e+003
9.503615e+002, 2.051608e+003
9.508436e+002, 2.051305e+003
9.513257e+002, 2.055202e+003
9.518079e+002, 2.057534e+003
9.522900e+002, 2.056997e+003
9.527721e+002, 2.056155e+003
9.532542e+002, 2.058884e+003
9.537363e+002, 2.064515e+003
9.542184e+002, 2.067750e+003
9.547006e+002, 2.067878e+003
9.551827e+002, 2.067197e+003
9.556648e+002, 2.067434e+003
9.561469e+002, 2.067830e+003
9.566290e+002, 2.067407e+003
9.571111e+002, 2.065867e+003
9.575933e+002, 2.065976e+003
9.580754e+002, 2.068454e+003
9.585575e+002, 2.071353e+003
9.590396e+002, 2.073986e+003
9.595217e+002, 2.076227e+003
9.600038e+002, 2.077026e+003
9.604860e+002, 2.076818e+003
9.609681e+002, 2.077876e+003
9.614502e+002, 2.082585e+003
9.619323e+002, 2.087696e+003
9.624144e+002, 2.091097e+003
9.628965e+002, 2.093521e+003
9.633787e+002, 2.096656e+003
9.638608e+002, 2.101321e+003
9.643429e+002, 2.104565e+003
9.648250e+002, 2.105624e+003
9.653071e+002, 2.106184e+003
9.657892e+002, 2.108471e+003
9.662714e+002, 2.112067e+003
9.667535e+002, 2.116328e+003
9.672356e+002, 2.121309e+003
9.677177e+002, 2.125362e+003
9.681998e+002, 2.126911e+003
9.686819e+002, 2.127669e+003
9.691641e+002, 2.128905e+003
9.696462e+002, 2.130747e+003
9.701283e+002, 2.131497e+003
9.706104e+002, 2.130850e+003
9.710925e+002, 2.130845e+003
9.715746e+002, 2.132694e+003
9.720568e+002, 2.135944e+003
9.725389e+002, 2.141055e+003
9.730210e+002, 2.147051e+003
9.735031e+002, 2.150562e+003
9.739852e+002, 2.147357e+003
9.744673e+002, 2.144850e+003
9.749495e+002, 2.145503e+003
9.754316e+002, 2.147940e+003
9.759137e+002, 2.150020e+003
9.763958e+002, 2.151749e+003
9.768779e+002, 2.153025e+003
9.773600e+002, 2.153630e+003
9.778422e+002, 2.154788e+003
9.783243e+002, 2.158769e+003
9.788064e+002, 2.163651e+003
9.792885e+002, 2.166801e+003
9.797706e+002, 2.167407e+003
9.802527e+002, 2.168221e+003
9.807349e+002, 2.169245e+003
9.812170e+002, 2.171183e+003
9.816991e+002, 2.174886e+003
9.821812e+002, 2.179933e+003
9.826633e+002, 2.182658e+003
9.831454e+002, 2.183250e+003
9.836276e+002, 2.184111e+003
9.841097e+002, 2.186771e+003
9.845918e+002, 2.190089e+003
9.850739e+002, 2.193153e+003
9.855560e+002, 2.196153e+003
9.860381e+002, 2.199758e+003
9.865203e+002, 2.205020e+003
9.870024e+002, 2.208543e+003
9.874845e+002, 2.209296e+003
9.879666e+002, 2.209383e+003
9.884487e+002, 2.211661e+003
9.889308e+002, 2.215800e+003
9.894130e+002, 2.221490e+003
9.898951e+002, 2.229084e+003
9.903772e+002, 2.235091e+003
9.908593e+002, 2.237213e+003
9.913414e+002, 2.237176e+003
9.918235e+002, 2.235344e+003
9.923057e+002, 2.231575e+003
9.927878e+002, 2.231704e+003
9.932699e+002, 2.236416e+003
9.937520e+002, 2.240722e+003
9.942341e+002, 2.241318e+003
9.947162e+002, 2.240286e+003
9.951984e+002, 2.240927e+003
9.956805e+002, 2.242901e+003
9.961626e+002, 2.245283e+003
9.966447e+002, 2.248466e+003
9.971268e+002, 2.251046e+003
9.976089e+002, 2.252318e+003
9.980911e+002, 2.253230e+003
9.985732e+002, 2.255009e+003
9.990553e+002, 2.257654e+003
9.995374e+002, 2.261310e+003
1.000020e+003, 2.266151e+003
1.000502e+003, 2.269988e+003
1.000984e+003, 2.269186e+003
1.001466e+003, 2.267375e+003
1.001948e+003, 2.268724e+003
1.002430e+003, 2.274093e+003
1.002912e+003, 2.276863e+003
1.003394e+003, 2.275555e+003
1.003876e+003, 2.273621e+003
1.004359e+003, 2.271847e+003
1.004841e+003, 2.270882e+003
1.005323e+003, 2.273591e+003
1.005805e+003, 2.279148e+003
1.006287e+003, 2.284093e+003
1.006769e+003, 2.287667e+003
1.007251e+003, 2.289372e+003
1.007733e+003, 2.286382e+003
1.008216e+003, 2.282606e+003
1.008698e+003, 2.283896e+003
1.009180e+003, 2.292554e+003
1.009662e+003, 2.297178e+003
1.010144e+003, 2.296555e+003
1.010626e+003, 2.294955e+003
1.011108e+003, 2.296468e+003
1.011590e+003, 2.299758e+003
1.012072e+003, 2.303012e+003
1.012555e+003, 2.306094e+003
1.013037e+003, 2.309082e+003
1.013519e+003, 2.312220e+003
1.014001e+003, 2.314958e+003
1.014483e+003, 2.317092e+003
1.014965e+003, 2.318730e+003
1.015447e+003, 2.320385e+003
1.015929e+003, 2.321999e+003
1.016411e+003, 2.322757e+003
1.016894e+003, 2.322077e+003
1.017376e+003, 2.321215e+003
1.017858e+003, 2.320213e+003
1.018340e+003, 2.320184e+003
1.018822e+003, 2.322869e+003
1.019304e+003, 2.330590e+003
1.019786e+003, 2.335463e+003
1.020268e+003, 2.336841e+003
1.020751e+003, 2.337160e+003
1.021233e+003, 2.338031e+003
1.021715e+003, 2.339360e+003
1.022197e+003, 2.340757e+003
1.022679e+003, 2.342290e+003
1.023161e+003, 2.344366e+003
1.023643e+003, 2.347882e+003
1.024125e+003, 2.351177e+003
1.024607e+003, 2.353125e+003
1.025090e+003, 2.354547e+003
1.025572e+003, 2.357378e+003
1.026054e+003, 2.361755e+003
1.026536e+003, 2.365694e+003
1.027018e+003, 2.369013e+003
1.027500e+003, 2.371066e+003
1.027982e+003, 2.370148e+003
1.028464e+003, 2.368122e+003
1.028947e+003, 2.366962e+003
1.029429e+003, 2.366925e+003
1.029911e+003, 2.368566e+003
1.030393e+003, 2.372976e+003
1.030875e+003, 2.376980e+003
1.031357e+003, 2.378738e+003
1.031839e+003, 2.378999e+003
1.032321e+003, 2.379948e+003
1.032803e+003, 2.381595e+003
1.033286e+003, 2.383930e+003
1.033768e+003, 2.387178e+003
1.034250e+003, 2.390845e+003
1.034732e+003, 2.395098e+003
1.035214e+003, 2.399495e+003
1.035696e+003, 2.403315e+003
1.036178e+003, 2.406450e+003
1.036660e+003, 2.409706e+003
1.037143e+003, 2.413243e+003
1.037625e+003, 2.416147e+003
1.038107e+003, 2.416865e+003
1.038589e+003, 2.416930e+003
1.039071e+003, 2.418415e+003
1.039553e+003, 2.421357e+003
1.040035e+003, 2.423852e+003
1.040517e+003, 2.424803e+003
1.041000e+003, 2.426369e+003
1.041482e+003, 2.429326e+003
1.041964e+003, 2.433062e+003
1.042446e+003, 2.435649e+003
1.042928e+003, 2.437591e+003
1.043410e+003, 2.441156e+003
1.043892e+003, 2.447974e+003
1.044374e+003, 2.453713e+003
1.044856e+003, 2.455642e+003
1.045339e+003, 2.455203e+003
1.045821e+003, 2.453262e+003
1.046303e+003, 2.449394e+003
1.046785e+003, 2.447832e+003
1.047267e+003, 2.448653e+003
1.047749e+003, 2.451099e+003
1.048231e+003, 2.455779e+003
1.048713e+003, 2.460976e+003
1.049195e+003, 2.464335e+003
1.049677e+003, 2.466340e+003
1.050160e+003, 2.468354e+003
1.050642e+003, 2.470799e+003
1.051124e+003, 2.473134e+003
1.051606e+003, 2.475078e+003
1.052088e+003, 2.477190e+003
1.052570e+003, 2.480606e+003
1.053052e+003, 2.484853e+003
1.053534e+003, 2.487954e+003
1.054017e+003, 2.489660e+003
1.054499e+003, 2.490586e+003
1.054981e+003, 2.489742e+003
1.055463e+003, 2.489510e+003
1.055945e+003, 2.491946e+003
1.056427e+003, 2.496465e+003
1.056909e+003, 2.499604e+003
1.057391e+003, 2.501250e+003
1.057874e+003, 2.503291e+003
1.058356e+003, 2.506973e+003
1.058838e+003, 2.510117e+003
1.059320e+003, 2.508591e+003
1.059802e+003, 2.505416e+003
1.060284e+003, 2.505009e+003
1.060766e+003, 2.509795e+003
1.061248e+003, 2.513944e+003
1.061730e+003, 2.516733e+003
1.062213e+003, 2.519844e+003
1.062695e+003, 2.525822e+003
1.063177e+003, 2.532964e+003
1.063659e+003, 2.533707e+003
1.064141e+003, 2.529490e+003
1.064623e+003, 2.527230e+003
1.065105e+003, 2.531446e+003
1.065587e+003, 2.537069e+003
1.066070e+003, 2.543824e+003
1.066552e+003, 2.549906e+003
1.067034e+003, 2.551790e+003
1.067516e+003, 2.549271e+003
1.067998e+003, 2.548516e+003
1.068480e+003, 2.550274e+003
1.068962e+003, 2.553414e+003
1.069444e+003, 2.558137e+003
1.069927e+003, 2.562893e+003
1.070409e+003, 2.566238e+003
1.070891e+003, 2.568005e+003
1.071373e+003, 2.569678e+003
1.071855e+003, 2.571088e+003
1.072337e+003, 2.573091e+003
1.072819e+003, 2.575929e+003
1.073301e+003, 2.579626e+003
1.073783e+003, 2.585369e+003
1.074266e+003, 2.591839e+003
1.074748e+003, 2.595887e+003
1.075230e+003, 2.595047e+003
1.075712e+003, 2.596362e+003
1.076194e+003, 2.602970e+003
1.076676e+003, 2.610831e+003
1.077158e+003, 2.617929e+003
1.077640e+003, 2.624251e+003
1.078122e+003, 2.629313e+003
1.078604e+003, 2.633421e+003
1.079087e+003, 2.639216e+003
1.079569e+003, 2.650140e+003
1.080051e+003, 2.661113e+003
1.080533e+003, 2.667980e+003
1.081015e+003, 2.673161e+003
1.081497e+003, 2.681153e+003
1.081979e+003, 2.692187e+003
1.082461e+003, 2.704498e+003
1.082944e+003, 2.717914e+003
1.083426e+003, 2.732549e+003
1.083908e+003, 2.748124e+003
1.084390e+003, 2.765039e+003
1.084872e+003, 2.783394e+003
1.085354e+003, 2.803427e+003
1.085836e+003, 2.826539e+003
1.086318e+003, 2.855067e+003
1.086801e+003, 2.883393e+003
1.087283e+003, 2.910846e+003
1.087765e+003, 2.936493e+003
1.088247e+003, 2.961292e+003
1.088729e+003, 2.982666e+003
1.089211e+003, 2.993844e+003
1.089693e+003, 2.993556e+003
1.090175e+003, 2.982931e+003
1.090657e+003, 2.957072e+003
1.091140e+003, 2.925572e+003
1.091622e+003, 2.892076e+003
1.092104e+003, 2.857333e+003
1.092586e+003, 2.826871e+003
1.093068e+003, 2.800672e+003
1.093550e+003, 2.780025e+003
1.094032e+003, 2.766958e+003
1.094514e+003, 2.757053e+003
1.094997e+003, 2.746685e+003
1.095479e+003, 2.737869e+003
1.095961e+003, 2.733354e+003
1.096443e+003, 2.734348e+003
1.096925e+003, 2.735288e+003
1.097407e+003, 2.736060e+003
1.097889e+003, 2.737376e+003
1.098371e+003, 2.739297e+003
1.098854e+003, 2.742391e+003
1.099336e+003, 2.748842e+003
1.099818e+003, 2.757347e+003
1.100300e+003, 2.762783e+003
1.100782e+003, 2.762326e+003
1.101264e+003, 2.761729e+003
1.101746e+003, 2.762047e+003
1.102228e+003, 2.761716e+003
1.102710e+003, 2.757294e+003
1.103193e+003, 2.750868e+003
1.103675e+003, 2.747814e+003
1.104157e+003, 2.748795e+003
1.104639e+003, 2.750056e+003
1.105121e+003, 2.749243e+003
1.105603e+003, 2.749391e+003
1.106085e+003, 2.752452e+003
1.106567e+003, 2.756873e+003
1.107049e+003, 2.756577e+003
1.107531e+003, 2.752474e+003
1.108014e+003, 2.752089e+003
1.108496e+003, 2.758325e+003
1.108978e+003, 2.765479e+003
1.109460e+003, 2.769947e+003
1.109942e+003, 2.773169e+003
1.110424e+003, 2.776336e+003
1.110906e+003, 2.779530e+003
1.111388e+003, 2.781918e+003
1.111871e+003, 2.783470e+003
1.112353e+003, 2.784527e+003
1.112835e+003, 2.785227e+003
1.113317e+003, 2.785583e+003
1.113799e+003, 2.784736e+003
1.114281e+003, 2.783850e+003
1.114763e+003, 2.784967e+003
1.115245e+003, 2.789811e+003
1.115728e+003, 2.793858e+003
1.116210e+003, 2.797098e+003
1.116692e+003, 2.799689e+003
1.117174e+003, 2.801142e+003
1.117656e+003, 2.802313e+003
1.118138e+003, 2.804683e+003
1.118620e+003, 2.808164e+003
1.119102e+003, 2.812241e+003
1.119584e+003, 2.818074e+003
1.120067e+003, 2.822315e+003
1.120549e+003, 2.823623e+003
1.121031e+003, 2.824332e+003
1.121513e+003, 2.828434e+003
1.121995e+003, 2.834548e+003
1.122477e+003, 2.837390e+003
1.122959e+003, 2.836554e+003
1.123441e+003, 2.836118e+003
1.123924e+003, 2.838932e+003
1.124406e+003, 2.841833e+003
1.124888e+003, 2.843294e+003
1.125370e+003, 2.843962e+003
1.125852e+003, 2.845794e+003
1.126334e+003, 2.848694e+003
1.126816e+003, 2.850955e+003
1.127298e+003, 2.852014e+003
1.127781e+003, 2.853451e+003
1.128263e+003, 2.857860e+003
1.128745e+003, 2.862058e+003
1.129227e+003, 2.862279e+003
1.129709e+003, 2.858850e+003
1.130191e+003, 2.860865e+003
1.130673e+003, 2.868739e+003
1.131155e+003, 2.875718e+003
1.131637e+003, 2.878870e+003
1.132120e+003, 2.880364e+003
1.132602e+003, 2.881312e+003
1.133084e+003, 2.882552e+003
1.133566e+003, 2.885437e+003
1.134048e+003, 2.890859e+003
1.134530e+003, 2.895274e+003
1.135012e+003, 2.898599e+003
1.135494e+003, 2.901161e+003
1.135976e+003, 2.902721e+003
1.136458e+003, 2.903992e+003
1.136941e+003, 2.906037e+003
1.137423e+003, 2.908724e+003
1.137905e+003, 2.911707e+003
1.138387e+003, 2.914211e+003
1.138869e+003, 2.918402e+003
1.139351e+003, 2.925052e+003
1.139833e+003, 2.931859e+003
1.140315e+003, 2.936023e+003
1.140798e+003, 2.938700e+003
1.141280e+003, 2.943463e+003
1.141762e+003, 2.949811e+003
1.142244e+003, 2.953625e+003
1.142726e+003, 2.950095e+003
1.143208e+003, 2.947988e+003
1.143690e+003, 2.949446e+003
1.144172e+003, 2.952952e+003
1.144655e+003, 2.956884e+003
1.145137e+003, 2.960910e+003
1.145619e+003, 2.963606e+003
1.146101e+003, 2.964789e+003
1.146583e+003, 2.966443e+003
1.147065e+003, 2.969925e+003
1.147547e+003, 2.974039e+003
1.148029e+003, 2.978766e+003
1.148511e+003, 2.983477e+003
1.148994e+003, 2.985750e+003
1.149476e+003, 2.985959e+003
1.149958e+003, 2.987417e+003
1.150440e+003, 2.990972e+003
1.150922e+003, 2.995492e+003
1.151404e+003, 3.001349e+003
1.151886e+003, 3.006772e+003
1.152368e+003, 3.009886e+003
1.152851e+003, 3.011053e+003
1.153333e+003, 3.014349e+003
1.153815e+003, 3.019748e+003
1.154297e+003, 3.024438e+003
1.154779e+003, 3.027310e+003
1.155261e+003, 3.029116e+003
1.155743e+003, 3.030009e+003
1.156225e+003, 3.030421e+003
1.156708e+003, 3.030571e+003
1.157190e+003, 3.030191e+003
1.157672e+003, 3.031980e+003
1.158154e+003, 3.036225e+003
1.158636e+003, 3.040319e+003
1.159118e+003, 3.042376e+003
1.159600e+003, 3.044063e+003
1.160082e+003, 3.048524e+003
1.160564e+003, 3.053574e+003
1.161047e+003, 3.055060e+003
1.161529e+003, 3.049989e+003
1.162011e+003, 3.047300e+003
1.162493e+003, 3.047004e+003
1.162975e+003, 3.049279e+003
1.163457e+003, 3.055986e+003
1.163939e+003, 3.064139e+003
1.164421e+003, 3.069900e+003
1.164903e+003, 3.073489e+003
1.165385e+003, 3.075722e+003
1.165868e+003, 3.075307e+003
1.166350e+003, 3.076118e+003
1.166832e+003, 3.078445e+003
1.167314e+003, 3.081839e+003
1.167796e+003, 3.086703e+003
1.168278e+003, 3.091839e+003
1.168760e+003, 3.094466e+003
1.169242e+003, 3.094996e+003
1.169725e+003, 3.096836e+003
1.170207e+003, 3.102642e+003
1.170689e+003, 3.107499e+003
1.171171e+003, 3.110376e+003
1.171653e+003, 3.112641e+003
1.172135e+003, 3.116285e+003
1.172617e+003, 3.120767e+003
1.173099e+003, 3.124875e+003
1.173582e+003, 3.128471e+003
1.174064e+003, 3.132385e+003
1.174546e+003, 3.137777e+003
1.175028e+003, 3.142396e+003
1.175510e+003, 3.145735e+003
1.175992e+003, 3.147786e+003
1.176474e+003, 3.147750e+003
1.176956e+003, 3.146407e+003
1.177438e+003, 3.145783e+003
1.177921e+003, 3.146140e+003
1.178403e+003, 3.148243e+003
1.178885e+003, 3.153121e+003
1.179367e+003, 3.159332e+003
1.179849e+003, 3.167165e+003
1.180331e+003, 3.175365e+003
1.180813e+003, 3.179640e+003
1.181295e+003, 3.180643e+003
1.181778e+003, 3.180174e+003
1.182260e+003, 3.177611e+003
1.182742e+003, 3.177836e+003
1.183224e+003, 3.186485e+003
1.183706e+003, 3.195129e+003
1.184188e+003, 3.198823e+003
1.184670e+003, 3.198583e+003
1.185152e+003, 3.199196e+003
1.185635e+003, 3.200739e+003
1.186117e+003, 3.203892e+003
1.186599e+003, 3.209875e+003
1.187081e+003, 3.215410e+003
1.187563e+003, 3.219216e+003
1.188045e+003, 3.221466e+003
1.188527e+003, 3.221552e+003
1.189009e+003, 3.219860e+003
1.189491e+003, 3.221968e+003
1.189974e+003, 3.227422e+003
1.190456e+003, 3.232864e+003
1.190938e+003, 3.236219e+003
1.191420e+003, 3.239705e+003
1.191902e+003, 3.245518e+003
1.192384e+003, 3.251206e+003
1.192866e+003, 3.254086e+003
1.193348e+003, 3.254087e+003
1.193830e+003, 3.255156e+003
1.194313e+003, 3.257309e+003
1.194795e+003, 3.260578e+003
1.195277e+003, 3.266239e+003
1.195759e+003, 3.271604e+003
1.196241e+003, 3.275397e+003
1.196723e+003, 3.277841e+003
1.197205e+003, 3.278743e+003
1.197687e+003, 3.278035e+003
1.198169e+003, 3.279467e+003
1.198652e+003, 3.283123e+003
1.199134e+003, 3.286505e+003
1.199616e+003, 3.288268e+003
1.200098e+003, 3.288884e+003
1.200580e+003, 3.286286e+003
1.201062e+003, 3.283873e+003
1.201544e+003, 3.288250e+003
1.202026e+003, 3.299698e+003
1.202509e+003, 3.307123e+003
1.202991e+003, 3.309507e+003
1.203473e+003, 3.311330e+003
1.203955e+003, 3.316499e+003
1.204437e+003, 3.321521e+003
1.204919e+003, 3.323864e+003
1.205401e+003, 3.324419e+003
1.205883e+003, 3.324559e+003
1.206365e+003, 3.324191e+003
1.206848e+003, 3.326972e+003
1.207330e+003, 3.333524e+003
1.207812e+003, 3.340375e+003
1.208294e+003, 3.345156e+003
1.208776e+003, 3.349073e+003
1.209258e+003, 3.352535e+003
1.209740e+003, 3.355857e+003
1.210222e+003, 3.360233e+003
1.210705e+003, 3.365767e+003
1.211187e+003, 3.368188e+003
1.211669e+003, 3.366384e+003
1.212151e+003, 3.365232e+003
1.212633e+003, 3.369577e+003
1.213115e+003, 3.375275e+003
1.213597e+003, 3.379641e+003
1.214079e+003, 3.382785e+003
1.214562e+003, 3.384552e+003
1.215044e+003, 3.385021e+003
1.215526e+003, 3.387924e+003
1.216008e+003, 3.394839e+003
1.216490e+003, 3.400344e+003
1.216972e+003, 3.397479e+003
1.217454e+003, 3.393839e+003
1.217936e+003, 3.395321e+003
1.218418e+003, 3.401059e+003
1.218901e+003, 3.407676e+003
1.219383e+003, 3.415052e+003
1.219865e+003, 3.419932e+003
1.220347e+003, 3.420663e+003
1.220829e+003, 3.421553e+003
1.221311e+003, 3.426587e+003
1.221793e+003, 3.432358e+003
1.222275e+003, 3.436572e+003
1.222757e+003, 3.439289e+003
1.223240e+003, 3.440606e+003
1.223722e+003, 3.440733e+003
1.224204e+003, 3.442254e+003
1.224686e+003, 3.446884e+003
1.225168e+003, 3.450766e+003
1.225650e+003, 3.450491e+003
1.226132e+003, 3.449238e+003
1.226614e+003, 3.449228e+003
1.227096e+003, 3.450499e+003
1.227579e+003, 3.453531e+003
1.228061e+003, 3.458125e+003
1.228543e+003, 3.462438e+003
1.229025e+003, 3.465363e+003
1.229507e+003, 3.468643e+003
1.229989e+003, 3.474351e+003
1.230471e+003, 3.479748e+003
1.230953e+003, 3.482094e+003
1.231436e+003, 3.481959e+003
1.231918e+003, 3.485632e+003
1.232400e+003, 3.492470e+003
1.232882e+003, 3.498079e+003
1.233364e+003, 3.500082e+003
1.233846e+003, 3.501632e+003
1.234328e+003, 3.503493e+003
1.234810e+003, 3.506322e+003
1.235292e+003, 3.511232e+003
1.235775e+003, 3.517705e+003
1.236257e+003, 3.521166e+003
1.236739e+003, 3.522187e+003
1.237221e+003, 3.523843e+003
1.237703e+003, 3.528567e+003
1.238185e+003, 3.532429e+003
1.238667e+003, 3.531749e+003
1.239149e+003, 3.531874e+003
1.239632e+003, 3.537704e+003
1.240114e+003, 3.547801e+003
1.240596e+003, 3.554507e+003
1.241078e+003, 3.558081e+003
1.241560e+003, 3.559856e+003
1.242042e+003, 3.557144e+003
1.242524e+003, 3.557620e+003
1.243006e+003, 3.564766e+003
1.243489e+003, 3.573273e+003
1.243971e+003, 3.579403e+003
1.244453e+003, 3.583434e+003
1.244935e+003, 3.585363e+003
1.245417e+003, 3.585926e+003
1.245899e+003, 3.587777e+003
1.246381e+003, 3.594937e+003
1.246863e+003, 3.598906e+003
1.247345e+003, 3.597006e+003
1.247828e+003, 3.594715e+003
1.248310e+003, 3.597400e+003
1.248792e+003, 3.603078e+003
1.249274e+003, 3.605906e+003
1.249756e+003, 3.606940e+003
1.250238e+003, 3.609979e+003
1.250720e+003, 3.619826e+003
1.251202e+003, 3.626151e+003
1.251684e+003, 3.627057e+003
1.252167e+003, 3.627095e+003
1.252649e+003, 3.630485e+003
1.253131e+003, 3.635622e+003
1.253613e+003, 3.639381e+003
1.254095e+003, 3.642135e+003
1.254577e+003, 3.645295e+003
1.255059e+003, 3.649421e+003
1.255541e+003, 3.653558e+003
1.256023e+003, 3.657708e+003
1.256506e+003, 3.661531e+003
1.256988e+003, 3.664745e+003
1.257470e+003, 3.667484e+003
1.257952e+003, 3.669230e+003
1.258434e+003, 3.670698e+003
1.258916e+003, 3.674233e+003
1.259398e+003, 3.681746e+003
1.259880e+003, 3.686189e+003
1.260363e+003, 3.686736e+003
1.260845e+003, 3.687018e+003
1.261327e+003, 3.690761e+003
1.261809e+003, 3.695238e+003
1.262291e+003, 3.697153e+003
1.262773e+003, 3.697610e+003
1.263255e+003, 3.699983e+003
1.263737e+003, 3.705170e+003
1.264219e+003, 3.708011e+003
1.264702e+003, 3.707993e+003
1.265184e+003, 3.707762e+003
1.265666e+003, 3.708643e+003
1.266148e+003, 3.710840e+003
1.266630e+003, 3.715316e+003
1.267112e+003, 3.721042e+003
1.267594e+003, 3.725930e+003
1.268076e+003, 3.730035e+003
1.268559e+003, 3.732513e+003
1.269041e+003, 3.733344e+003
1.269523e+003, 3.735579e+003
1.270005e+003, 3.742531e+003
1.270487e+003, 3.750226e+003
1.270969e+003, 3.757750e+003
1.271451e+003, 3.763646e+003
1.271933e+003, 3.764719e+003
1.272416e+003, 3.761469e+003
1.272898e+003, 3.760303e+003
1.273380e+003, 3.761640e+003
1.273862e+003, 3.765529e+003
1.274344e+003, 3.775832e+003
1.274826e+003, 3.783678e+003
1.275308e+003, 3.784627e+003
1.275790e+003, 3.783516e+003
1.276272e+003, 3.787390e+003
1.276755e+003, 3.794372e+003
1.277237e+003, 3.796254e+003
1.277719e+003, 3.793514e+003
1.278201e+003, 3.792891e+003
1.278683e+003, 3.799802e+003
1.279165e+003, 3.805598e+003
1.279647e+003, 3.808083e+003
1.280129e+003, 3.810240e+003
1.280611e+003, 3.816550e+003
1.281094e+003, 3.824640e+003
1.281576e+003, 3.829163e+003
1.282058e+003, 3.830573e+003
1.282540e+003, 3.832263e+003
1.283022e+003, 3.834729e+003
1.283504e+003, 3.838469e+003
1.283986e+003, 3.843957e+003
1.284468e+003, 3.849173e+003
1.284950e+003, 3.851425e+003
1.285433e+003, 3.852671e+003
1.285915e+003, 3.855653e+003
1.286397e+003, 3.859928e+003
1.286879e+003, 3.863183e+003
1.287361e+003, 3.864410e+003
1.287843e+003, 3.868405e+003
1.288325e+003, 3.876041e+003
1.288807e+003, 3.882656e+003
1.289290e+003, 3.882002e+003
1.289772e+003, 3.880665e+003
1.290254e+003, 3.885312e+003
1.290736e+003, 3.893471e+003
1.291218e+003, 3.898874e+003
1.291700e+003, 3.901335e+003
1.292182e+003, 3.902981e+003
1.292664e+003, 3.903932e+003
1.293146e+003, 3.905284e+003
1.293629e+003, 3.907116e+003
1.294111e+003, 3.910323e+003
1.294593e+003, 3.917976e+003
1.295075e+003, 3.925480e+003
1.295557e+003, 3.925254e+003
1.296039e+003, 3.918805e+003
1.296521e+003, 3.919379e+003
1.297003e+003, 3.926842e+003
1.297486e+003, 3.934289e+003
1.297968e+003, 3.938740e+003
1.298450e+003, 3.942318e+003
1.298932e+003, 3.945683e+003
1.299414e+003, 3.948682e+003
1.299896e+003, 3.950847e+003
1.300378e+003, 3.952672e+003
1.300860e+003, 3.955344e+003
1.301343e+003, 3.959056e+003
1.301825e+003, 3.964183e+003
##END=



