##NAMES=Symplesite
##RRUFFID=R130513
##IDEAL CHEMISTRY=Fe^2+^_3_(As^5+^O_4_)_2_&#183;8H_2_O
##LOCALITY=Mapimi, Durango, Mexico
##OWNER=RRUFF
##SOURCE=Rock Currier
##DESCRIPTION=Dark green thick blades, 2-fold twin around [1 -1 0]
##STATUS=The identification of this mineral has been confirmed only by single crystal X-ray diffraction.
##URL=rruff.info/R130513
8.975323e+001, 0.000000e+000
9.023535e+001, 1.997704e+002
9.071747e+001, 1.992498e+002
9.119958e+001, 1.983013e+002
9.168170e+001, 1.999439e+002
9.216382e+001, 2.007666e+002
9.264594e+001, 2.007493e+002
9.312805e+001, 2.005510e+002
9.361017e+001, 2.002948e+002
9.409229e+001, 1.989630e+002
9.457440e+001, 1.954478e+002
9.505651e+001, 1.927622e+002
9.553863e+001, 1.914895e+002
9.602074e+001, 1.908100e+002
9.650286e+001, 1.900406e+002
9.698498e+001, 1.887734e+002
9.746709e+001, 1.867543e+002
9.794921e+001, 1.846944e+002
9.843133e+001, 1.821429e+002
9.891344e+001, 1.800838e+002
9.939556e+001, 1.787457e+002
9.987768e+001, 1.780179e+002
1.003598e+002, 1.777268e+002
1.008419e+002, 1.778713e+002
1.013240e+002, 1.783652e+002
1.018061e+002, 1.787379e+002
1.022883e+002, 1.786543e+002
1.027704e+002, 1.786388e+002
1.032525e+002, 1.793883e+002
1.037346e+002, 1.810961e+002
1.042167e+002, 1.825333e+002
1.046988e+002, 1.823429e+002
1.051810e+002, 1.813338e+002
1.056631e+002, 1.807297e+002
1.061452e+002, 1.814267e+002
1.066273e+002, 1.830023e+002
1.071094e+002, 1.836651e+002
1.075915e+002, 1.826806e+002
1.080737e+002, 1.816023e+002
1.085558e+002, 1.809533e+002
1.090379e+002, 1.807243e+002
1.095200e+002, 1.808323e+002
1.100021e+002, 1.813314e+002
1.104842e+002, 1.823926e+002
1.109664e+002, 1.829172e+002
1.114485e+002, 1.823433e+002
1.119306e+002, 1.817367e+002
1.124127e+002, 1.815828e+002
1.128948e+002, 1.819526e+002
1.133769e+002, 1.826274e+002
1.138591e+002, 1.833195e+002
1.143412e+002, 1.842701e+002
1.148233e+002, 1.847406e+002
1.153054e+002, 1.843775e+002
1.157875e+002, 1.837198e+002
1.162696e+002, 1.833167e+002
1.167517e+002, 1.833721e+002
1.172339e+002, 1.836575e+002
1.177160e+002, 1.835781e+002
1.181981e+002, 1.828053e+002
1.186802e+002, 1.823893e+002
1.191623e+002, 1.827366e+002
1.196444e+002, 1.836874e+002
1.201266e+002, 1.848701e+002
1.206087e+002, 1.862958e+002
1.210908e+002, 1.876958e+002
1.215729e+002, 1.886236e+002
1.220550e+002, 1.889787e+002
1.225371e+002, 1.890354e+002
1.230193e+002, 1.890121e+002
1.235014e+002, 1.889180e+002
1.239835e+002, 1.886652e+002
1.244656e+002, 1.880063e+002
1.249477e+002, 1.872375e+002
1.254298e+002, 1.866212e+002
1.259120e+002, 1.862675e+002
1.263941e+002, 1.861008e+002
1.268762e+002, 1.859288e+002
1.273583e+002, 1.855922e+002
1.278404e+002, 1.855575e+002
1.283225e+002, 1.861888e+002
1.288047e+002, 1.871087e+002
1.292868e+002, 1.878118e+002
1.297689e+002, 1.879607e+002
1.302510e+002, 1.875945e+002
1.307331e+002, 1.872758e+002
1.312152e+002, 1.867687e+002
1.316974e+002, 1.865444e+002
1.321795e+002, 1.869053e+002
1.326616e+002, 1.876837e+002
1.331437e+002, 1.885042e+002
1.336258e+002, 1.890726e+002
1.341079e+002, 1.894010e+002
1.345901e+002, 1.892691e+002
1.350722e+002, 1.878568e+002
1.355543e+002, 1.867130e+002
1.360364e+002, 1.869563e+002
1.365185e+002, 1.885962e+002
1.370006e+002, 1.906324e+002
1.374828e+002, 1.919692e+002
1.379649e+002, 1.924840e+002
1.384470e+002, 1.927243e+002
1.389291e+002, 1.926974e+002
1.394112e+002, 1.924209e+002
1.398933e+002, 1.918298e+002
1.403755e+002, 1.908506e+002
1.408576e+002, 1.897976e+002
1.413397e+002, 1.891926e+002
1.418218e+002, 1.890007e+002
1.423039e+002, 1.886069e+002
1.427860e+002, 1.875729e+002
1.432681e+002, 1.860899e+002
1.437503e+002, 1.848745e+002
1.442324e+002, 1.842637e+002
1.447145e+002, 1.837644e+002
1.451966e+002, 1.828390e+002
1.456787e+002, 1.814890e+002
1.461608e+002, 1.802226e+002
1.466430e+002, 1.796853e+002
1.471251e+002, 1.800065e+002
1.476072e+002, 1.797709e+002
1.480893e+002, 1.780815e+002
1.485714e+002, 1.761219e+002
1.490535e+002, 1.745471e+002
1.495357e+002, 1.734918e+002
1.500178e+002, 1.725781e+002
1.504999e+002, 1.711796e+002
1.509820e+002, 1.688252e+002
1.514641e+002, 1.670128e+002
1.519462e+002, 1.660707e+002
1.524284e+002, 1.654958e+002
1.529105e+002, 1.649964e+002
1.533926e+002, 1.644487e+002
1.538747e+002, 1.637619e+002
1.543568e+002, 1.626885e+002
1.548389e+002, 1.603408e+002
1.553211e+002, 1.586994e+002
1.558032e+002, 1.583380e+002
1.562853e+002, 1.585798e+002
1.567674e+002, 1.585698e+002
1.572495e+002, 1.578595e+002
1.577316e+002, 1.566997e+002
1.582138e+002, 1.561843e+002
1.586959e+002, 1.572881e+002
1.591780e+002, 1.578590e+002
1.596601e+002, 1.569179e+002
1.601422e+002, 1.550129e+002
1.606243e+002, 1.534077e+002
1.611065e+002, 1.528443e+002
1.615886e+002, 1.531608e+002
1.620707e+002, 1.534427e+002
1.625528e+002, 1.537370e+002
1.630349e+002, 1.539592e+002
1.635170e+002, 1.541941e+002
1.639991e+002, 1.544060e+002
1.644813e+002, 1.541918e+002
1.649634e+002, 1.530440e+002
1.654455e+002, 1.513294e+002
1.659276e+002, 1.499255e+002
1.664097e+002, 1.489763e+002
1.668918e+002, 1.483246e+002
1.673740e+002, 1.478708e+002
1.678561e+002, 1.476636e+002
1.683382e+002, 1.474265e+002
1.688203e+002, 1.470265e+002
1.693024e+002, 1.464978e+002
1.697845e+002, 1.458580e+002
1.702667e+002, 1.451317e+002
1.707488e+002, 1.442903e+002
1.712309e+002, 1.432471e+002
1.717130e+002, 1.419112e+002
1.721951e+002, 1.405276e+002
1.726772e+002, 1.389368e+002
1.731594e+002, 1.373996e+002
1.736415e+002, 1.363253e+002
1.741236e+002, 1.360643e+002
1.746057e+002, 1.364535e+002
1.750878e+002, 1.365093e+002
1.755699e+002, 1.361041e+002
1.760521e+002, 1.354538e+002
1.765342e+002, 1.344007e+002
1.770163e+002, 1.331634e+002
1.774984e+002, 1.321220e+002
1.779805e+002, 1.315824e+002
1.784626e+002, 1.315491e+002
1.789448e+002, 1.313076e+002
1.794269e+002, 1.308869e+002
1.799090e+002, 1.302349e+002
1.803911e+002, 1.290421e+002
1.808732e+002, 1.275512e+002
1.813553e+002, 1.263584e+002
1.818375e+002, 1.260245e+002
1.823196e+002, 1.266816e+002
1.828017e+002, 1.268984e+002
1.832838e+002, 1.263234e+002
1.837659e+002, 1.257232e+002
1.842480e+002, 1.255488e+002
1.847301e+002, 1.257569e+002
1.852123e+002, 1.259781e+002
1.856944e+002, 1.259271e+002
1.861765e+002, 1.255771e+002
1.866586e+002, 1.247082e+002
1.871407e+002, 1.226122e+002
1.876228e+002, 1.205221e+002
1.881050e+002, 1.194206e+002
1.885871e+002, 1.193989e+002
1.890692e+002, 1.197699e+002
1.895513e+002, 1.199353e+002
1.900334e+002, 1.198991e+002
1.905155e+002, 1.199061e+002
1.909977e+002, 1.200367e+002
1.914798e+002, 1.201979e+002
1.919619e+002, 1.202910e+002
1.924440e+002, 1.203036e+002
1.929261e+002, 1.202568e+002
1.934082e+002, 1.201569e+002
1.938904e+002, 1.200127e+002
1.943725e+002, 1.198299e+002
1.948546e+002, 1.195254e+002
1.953367e+002, 1.191963e+002
1.958188e+002, 1.190588e+002
1.963009e+002, 1.191997e+002
1.967831e+002, 1.193827e+002
1.972652e+002, 1.194843e+002
1.977473e+002, 1.195000e+002
1.982294e+002, 1.193934e+002
1.987115e+002, 1.189625e+002
1.991936e+002, 1.183456e+002
1.996758e+002, 1.181927e+002
2.001579e+002, 1.188574e+002
2.006400e+002, 1.195277e+002
2.011221e+002, 1.197429e+002
2.016042e+002, 1.196163e+002
2.020863e+002, 1.194275e+002
2.025685e+002, 1.192503e+002
2.030506e+002, 1.191069e+002
2.035327e+002, 1.194335e+002
2.040148e+002, 1.208101e+002
2.044969e+002, 1.220731e+002
2.049790e+002, 1.228306e+002
2.054612e+002, 1.231196e+002
2.059433e+002, 1.230889e+002
2.064254e+002, 1.227542e+002
2.069075e+002, 1.220802e+002
2.073896e+002, 1.217889e+002
2.078717e+002, 1.224797e+002
2.083539e+002, 1.230240e+002
2.088360e+002, 1.229130e+002
2.093181e+002, 1.223128e+002
2.098002e+002, 1.217277e+002
2.102823e+002, 1.216038e+002
2.107644e+002, 1.219833e+002
2.112466e+002, 1.224677e+002
2.117287e+002, 1.234344e+002
2.122108e+002, 1.241525e+002
2.126929e+002, 1.241957e+002
2.131750e+002, 1.236846e+002
2.136571e+002, 1.230513e+002
2.141393e+002, 1.226702e+002
2.146214e+002, 1.225532e+002
2.151035e+002, 1.226590e+002
2.155856e+002, 1.233566e+002
2.160677e+002, 1.239054e+002
2.165498e+002, 1.239210e+002
2.170320e+002, 1.234236e+002
2.175141e+002, 1.226325e+002
2.179962e+002, 1.216678e+002
2.184783e+002, 1.204722e+002
2.189604e+002, 1.198834e+002
2.194425e+002, 1.204541e+002
2.199247e+002, 1.211036e+002
2.204068e+002, 1.210808e+002
2.208889e+002, 1.204122e+002
2.213710e+002, 1.197254e+002
2.218531e+002, 1.195881e+002
2.223352e+002, 1.200459e+002
2.228174e+002, 1.202738e+002
2.232995e+002, 1.202456e+002
2.237816e+002, 1.200137e+002
2.242637e+002, 1.194105e+002
2.247458e+002, 1.184718e+002
2.252279e+002, 1.178232e+002
2.257100e+002, 1.181499e+002
2.261922e+002, 1.193145e+002
2.266743e+002, 1.200592e+002
2.271564e+002, 1.203494e+002
2.276385e+002, 1.201617e+002
2.281206e+002, 1.191508e+002
2.286027e+002, 1.172685e+002
2.290849e+002, 1.156868e+002
2.295670e+002, 1.155396e+002
2.300491e+002, 1.163762e+002
2.305312e+002, 1.169262e+002
2.310133e+002, 1.169507e+002
2.314954e+002, 1.166177e+002
2.319776e+002, 1.159482e+002
2.324597e+002, 1.148606e+002
2.329418e+002, 1.140125e+002
2.334239e+002, 1.140868e+002
2.339060e+002, 1.146321e+002
2.343881e+002, 1.149945e+002
2.348703e+002, 1.150678e+002
2.353524e+002, 1.148395e+002
2.358345e+002, 1.141885e+002
2.363166e+002, 1.129943e+002
2.367987e+002, 1.118607e+002
2.372808e+002, 1.109191e+002
2.377630e+002, 1.102633e+002
2.382451e+002, 1.101385e+002
2.387272e+002, 1.108468e+002
2.392093e+002, 1.117883e+002
2.396914e+002, 1.119863e+002
2.401735e+002, 1.112875e+002
2.406557e+002, 1.103204e+002
2.411378e+002, 1.089016e+002
2.416199e+002, 1.075220e+002
2.421020e+002, 1.067380e+002
2.425841e+002, 1.068188e+002
2.430662e+002, 1.073272e+002
2.435484e+002, 1.075511e+002
2.440305e+002, 1.074579e+002
2.445126e+002, 1.071516e+002
2.449947e+002, 1.064037e+002
2.454768e+002, 1.056049e+002
2.459589e+002, 1.051282e+002
2.464410e+002, 1.051105e+002
2.469232e+002, 1.053118e+002
2.474053e+002, 1.053616e+002
2.478874e+002, 1.053200e+002
2.483695e+002, 1.049485e+002
2.488516e+002, 1.038509e+002
2.493337e+002, 1.026599e+002
2.498159e+002, 1.019125e+002
2.502980e+002, 1.017622e+002
2.507801e+002, 1.018850e+002
2.512622e+002, 1.017129e+002
2.517443e+002, 1.010349e+002
2.522264e+002, 1.005431e+002
2.527086e+002, 1.003436e+002
2.531907e+002, 1.002893e+002
2.536728e+002, 1.003486e+002
2.541549e+002, 1.004869e+002
2.546370e+002, 1.005786e+002
2.551191e+002, 1.003927e+002
2.556013e+002, 9.969808e+001
2.560834e+002, 9.923167e+001
2.565655e+002, 9.905897e+001
2.570476e+002, 9.903286e+001
2.575297e+002, 9.912194e+001
2.580118e+002, 9.928903e+001
2.584940e+002, 9.943671e+001
2.589761e+002, 9.944344e+001
2.594582e+002, 9.932256e+001
2.599403e+002, 9.899844e+001
2.604224e+002, 9.807156e+001
2.609045e+002, 9.728291e+001
2.613867e+002, 9.726396e+001
2.618688e+002, 9.797523e+001
2.623509e+002, 9.877945e+001
2.628330e+002, 9.893600e+001
2.633151e+002, 9.825185e+001
2.637972e+002, 9.757773e+001
2.642794e+002, 9.642142e+001
2.647615e+002, 9.567049e+001
2.652436e+002, 9.625759e+001
2.657257e+002, 9.792149e+001
2.662078e+002, 9.937782e+001
2.666899e+002, 9.927358e+001
2.671721e+002, 9.724301e+001
2.676542e+002, 9.598649e+001
2.681363e+002, 9.588412e+001
2.686184e+002, 9.603365e+001
2.691005e+002, 9.619917e+001
2.695826e+002, 9.626440e+001
2.700648e+002, 9.601518e+001
2.705469e+002, 9.520850e+001
2.710290e+002, 9.381509e+001
2.715111e+002, 9.290892e+001
2.719932e+002, 9.284203e+001
2.724753e+002, 9.280518e+001
2.729575e+002, 9.235995e+001
2.734396e+002, 9.164430e+001
2.739217e+002, 9.110339e+001
2.744038e+002, 9.106420e+001
2.748859e+002, 9.147514e+001
2.753680e+002, 9.169962e+001
2.758501e+002, 9.148309e+001
2.763322e+002, 9.139944e+001
2.768144e+002, 9.187892e+001
2.772965e+002, 9.264411e+001
2.777786e+002, 9.307493e+001
2.782607e+002, 9.282354e+001
2.787428e+002, 9.200341e+001
2.792249e+002, 9.105537e+001
2.797071e+002, 8.946004e+001
2.801892e+002, 8.835232e+001
2.806713e+002, 8.832850e+001
2.811534e+002, 8.894640e+001
2.816355e+002, 8.942805e+001
2.821176e+002, 8.943398e+001
2.825998e+002, 8.913697e+001
2.830819e+002, 8.897512e+001
2.835640e+002, 8.903824e+001
2.840461e+002, 8.904454e+001
2.845282e+002, 8.884302e+001
2.850103e+002, 8.857522e+001
2.854925e+002, 8.848778e+001
2.859746e+002, 8.868021e+001
2.864567e+002, 8.895913e+001
2.869388e+002, 8.899038e+001
2.874209e+002, 8.872916e+001
2.879030e+002, 8.840745e+001
2.883852e+002, 8.789635e+001
2.888673e+002, 8.740931e+001
2.893494e+002, 8.728773e+001
2.898315e+002, 8.762176e+001
2.903136e+002, 8.804874e+001
2.907957e+002, 8.813317e+001
2.912779e+002, 8.783930e+001
2.917600e+002, 8.743752e+001
2.922421e+002, 8.677113e+001
2.927242e+002, 8.610999e+001
2.932063e+002, 8.574952e+001
2.936884e+002, 8.572262e+001
2.941706e+002, 8.580820e+001
2.946527e+002, 8.582305e+001
2.951348e+002, 8.576305e+001
2.956169e+002, 8.569115e+001
2.960990e+002, 8.569211e+001
2.965811e+002, 8.562215e+001
2.970633e+002, 8.522985e+001
2.975454e+002, 8.455870e+001
2.980275e+002, 8.411150e+001
2.985096e+002, 8.434184e+001
2.989917e+002, 8.512483e+001
2.994738e+002, 8.554821e+001
2.999560e+002, 8.547606e+001
3.004381e+002, 8.517725e+001
3.009202e+002, 8.472187e+001
3.014023e+002, 8.414319e+001
3.018844e+002, 8.358125e+001
3.023665e+002, 8.311620e+001
3.028487e+002, 8.270885e+001
3.033308e+002, 8.222095e+001
3.038129e+002, 8.150448e+001
3.042950e+002, 8.094189e+001
3.047771e+002, 8.079260e+001
3.052592e+002, 8.093316e+001
3.057414e+002, 8.110209e+001
3.062235e+002, 8.127891e+001
3.067056e+002, 8.129210e+001
3.071877e+002, 8.068694e+001
3.076698e+002, 7.928848e+001
3.081519e+002, 7.809962e+001
3.086341e+002, 7.743801e+001
3.091162e+002, 7.719657e+001
3.095983e+002, 7.731221e+001
3.100804e+002, 7.784200e+001
3.105625e+002, 7.840677e+001
3.110446e+002, 7.840015e+001
3.115268e+002, 7.780212e+001
3.120089e+002, 7.739625e+001
3.124910e+002, 7.739291e+001
3.129731e+002, 7.763451e+001
3.134552e+002, 7.806004e+001
3.139373e+002, 7.867587e+001
3.144195e+002, 7.910008e+001
3.149016e+002, 7.890435e+001
3.153837e+002, 7.811556e+001
3.158658e+002, 7.737448e+001
3.163479e+002, 7.652293e+001
3.168300e+002, 7.588502e+001
3.173121e+002, 7.586507e+001
3.177943e+002, 7.642680e+001
3.182764e+002, 7.699389e+001
3.187585e+002, 7.716335e+001
3.192406e+002, 7.702338e+001
3.197227e+002, 7.705840e+001
3.202048e+002, 7.734702e+001
3.206870e+002, 7.772553e+001
3.211691e+002, 7.824230e+001
3.216512e+002, 7.880932e+001
3.221333e+002, 7.910426e+001
3.226154e+002, 7.894025e+001
3.230975e+002, 7.844816e+001
3.235797e+002, 7.793978e+001
3.240618e+002, 7.731562e+001
3.245439e+002, 7.687245e+001
3.250260e+002, 7.682162e+001
3.255081e+002, 7.700715e+001
3.259902e+002, 7.712007e+001
3.264724e+002, 7.704910e+001
3.269545e+002, 7.693443e+001
3.274366e+002, 7.699139e+001
3.279187e+002, 7.721902e+001
3.284008e+002, 7.755080e+001
3.288829e+002, 7.822043e+001
3.293651e+002, 7.887399e+001
3.298472e+002, 7.902220e+001
3.303293e+002, 7.858031e+001
3.308114e+002, 7.798086e+001
3.312935e+002, 7.764292e+001
3.317756e+002, 7.759305e+001
3.322578e+002, 7.750195e+001
3.327399e+002, 7.716064e+001
3.332220e+002, 7.692588e+001
3.337041e+002, 7.721574e+001
3.341862e+002, 7.795477e+001
3.346683e+002, 7.855184e+001
3.351505e+002, 7.857520e+001
3.356326e+002, 7.808957e+001
3.361147e+002, 7.767492e+001
3.365968e+002, 7.717541e+001
3.370789e+002, 7.689101e+001
3.375610e+002, 7.707917e+001
3.380432e+002, 7.758286e+001
3.385253e+002, 7.803370e+001
3.390074e+002, 7.826196e+001
3.394895e+002, 7.833397e+001
3.399716e+002, 7.841896e+001
3.404537e+002, 7.853757e+001
3.409359e+002, 7.863126e+001
3.414180e+002, 7.859806e+001
3.419001e+002, 7.856654e+001
3.423822e+002, 7.876477e+001
3.428643e+002, 7.925769e+001
3.433464e+002, 7.979152e+001
3.438286e+002, 7.998485e+001
3.443107e+002, 7.962747e+001
3.447928e+002, 7.954996e+001
3.452749e+002, 8.000652e+001
3.457570e+002, 8.057126e+001
3.462391e+002, 8.092885e+001
3.467213e+002, 8.105207e+001
3.472034e+002, 8.108974e+001
3.476855e+002, 8.118272e+001
3.481676e+002, 8.133939e+001
3.486497e+002, 8.130196e+001
3.491318e+002, 8.068209e+001
3.496140e+002, 8.028817e+001
3.500961e+002, 8.074885e+001
3.505782e+002, 8.171827e+001
3.510603e+002, 8.233142e+001
3.515424e+002, 8.203625e+001
3.520245e+002, 8.110182e+001
3.525067e+002, 8.068782e+001
3.529888e+002, 8.126694e+001
3.534709e+002, 8.177783e+001
3.539530e+002, 8.220429e+001
3.544351e+002, 8.245333e+001
3.549172e+002, 8.229893e+001
3.553994e+002, 8.168127e+001
3.558815e+002, 8.097215e+001
3.563636e+002, 8.081618e+001
3.568457e+002, 8.157403e+001
3.573278e+002, 8.218479e+001
3.578099e+002, 8.264512e+001
3.582920e+002, 8.297738e+001
3.587741e+002, 8.318892e+001
3.592563e+002, 8.328481e+001
3.597384e+002, 8.325168e+001
3.602205e+002, 8.303767e+001
3.607026e+002, 8.259142e+001
3.611847e+002, 8.247466e+001
3.616668e+002, 8.290787e+001
3.621490e+002, 8.341688e+001
3.626311e+002, 8.396114e+001
3.631132e+002, 8.445821e+001
3.635953e+002, 8.477629e+001
3.640774e+002, 8.483070e+001
3.645595e+002, 8.466487e+001
3.650417e+002, 8.446204e+001
3.655238e+002, 8.422486e+001
3.660059e+002, 8.394009e+001
3.664880e+002, 8.337836e+001
3.669701e+002, 8.288448e+001
3.674522e+002, 8.286886e+001
3.679344e+002, 8.343954e+001
3.684165e+002, 8.425854e+001
3.688986e+002, 8.482951e+001
3.693807e+002, 8.512899e+001
3.698628e+002, 8.522332e+001
3.703449e+002, 8.491698e+001
3.708271e+002, 8.458743e+001
3.713092e+002, 8.448690e+001
3.717913e+002, 8.457625e+001
3.722734e+002, 8.459515e+001
3.727555e+002, 8.423819e+001
3.732376e+002, 8.352757e+001
3.737198e+002, 8.320750e+001
3.742019e+002, 8.364777e+001
3.746840e+002, 8.404088e+001
3.751661e+002, 8.406969e+001
3.756482e+002, 8.389151e+001
3.761303e+002, 8.377657e+001
3.766125e+002, 8.388270e+001
3.770946e+002, 8.406058e+001
3.775767e+002, 8.394019e+001
3.780588e+002, 8.339007e+001
3.785409e+002, 8.291288e+001
3.790230e+002, 8.286164e+001
3.795052e+002, 8.280611e+001
3.799873e+002, 8.228082e+001
3.804694e+002, 8.120329e+001
3.809515e+002, 8.018056e+001
3.814336e+002, 7.987425e+001
3.819157e+002, 8.027011e+001
3.823979e+002, 8.075027e+001
3.828800e+002, 8.145346e+001
3.833621e+002, 8.194886e+001
3.838442e+002, 8.196940e+001
3.843263e+002, 8.157035e+001
3.848084e+002, 8.095824e+001
3.852906e+002, 7.985238e+001
3.857727e+002, 7.868031e+001
3.862548e+002, 7.862254e+001
3.867369e+002, 8.002125e+001
3.872190e+002, 8.130148e+001
3.877011e+002, 8.148972e+001
3.881833e+002, 8.101009e+001
3.886654e+002, 8.037109e+001
3.891475e+002, 7.956853e+001
3.896296e+002, 7.880593e+001
3.901117e+002, 7.835297e+001
3.905938e+002, 7.815464e+001
3.910760e+002, 7.773988e+001
3.915581e+002, 7.677318e+001
3.920402e+002, 7.575838e+001
3.925223e+002, 7.547787e+001
3.930044e+002, 7.598411e+001
3.934865e+002, 7.637338e+001
3.939687e+002, 7.605797e+001
3.944508e+002, 7.548267e+001
3.949329e+002, 7.547705e+001
3.954150e+002, 7.621398e+001
3.958971e+002, 7.691839e+001
3.963792e+002, 7.683389e+001
3.968614e+002, 7.602434e+001
3.973435e+002, 7.545901e+001
3.978256e+002, 7.540899e+001
3.983077e+002, 7.540703e+001
3.987898e+002, 7.504243e+001
3.992719e+002, 7.443673e+001
3.997540e+002, 7.408240e+001
4.002361e+002, 7.427662e+001
4.007183e+002, 7.479803e+001
4.012004e+002, 7.497804e+001
4.016825e+002, 7.447968e+001
4.021646e+002, 7.428123e+001
4.026467e+002, 7.491225e+001
4.031288e+002, 7.576669e+001
4.036110e+002, 7.606371e+001
4.040931e+002, 7.565015e+001
4.045752e+002, 7.505347e+001
4.050573e+002, 7.488575e+001
4.055394e+002, 7.523648e+001
4.060215e+002, 7.562122e+001
4.065037e+002, 7.634052e+001
4.069858e+002, 7.680806e+001
4.074679e+002, 7.659418e+001
4.079500e+002, 7.588289e+001
4.084321e+002, 7.511134e+001
4.089142e+002, 7.451809e+001
4.093964e+002, 7.414540e+001
4.098785e+002, 7.418053e+001
4.103606e+002, 7.503307e+001
4.108427e+002, 7.578508e+001
4.113248e+002, 7.645908e+001
4.118069e+002, 7.694863e+001
4.122891e+002, 7.703938e+001
4.127712e+002, 7.672644e+001
4.132533e+002, 7.637151e+001
4.137354e+002, 7.647820e+001
4.142175e+002, 7.716638e+001
4.146996e+002, 7.784031e+001
4.151818e+002, 7.866270e+001
4.156639e+002, 7.931210e+001
4.161460e+002, 7.965461e+001
4.166281e+002, 7.971775e+001
4.171102e+002, 7.951791e+001
4.175923e+002, 7.891546e+001
4.180745e+002, 7.819690e+001
4.185566e+002, 7.850937e+001
4.190387e+002, 8.054220e+001
4.195208e+002, 8.206239e+001
4.200029e+002, 8.204699e+001
4.204850e+002, 8.142126e+001
4.209672e+002, 8.095033e+001
4.214493e+002, 8.081377e+001
4.219314e+002, 8.086934e+001
4.224135e+002, 8.101759e+001
4.228956e+002, 8.125397e+001
4.233777e+002, 8.146204e+001
4.238599e+002, 8.149284e+001
4.243420e+002, 8.168685e+001
4.248241e+002, 8.251350e+001
4.253062e+002, 8.375826e+001
4.257883e+002, 8.463326e+001
4.262704e+002, 8.466441e+001
4.267526e+002, 8.420302e+001
4.272347e+002, 8.365426e+001
4.277168e+002, 8.300130e+001
4.281989e+002, 8.254614e+001
4.286810e+002, 8.242309e+001
4.291631e+002, 8.264381e+001
4.296453e+002, 8.319654e+001
4.301274e+002, 8.431517e+001
4.306095e+002, 8.523493e+001
4.310916e+002, 8.528840e+001
4.315737e+002, 8.491575e+001
4.320558e+002, 8.513393e+001
4.325380e+002, 8.626568e+001
4.330201e+002, 8.748759e+001
4.335022e+002, 8.777767e+001
4.339843e+002, 8.697517e+001
4.344664e+002, 8.644005e+001
4.349485e+002, 8.613882e+001
4.354307e+002, 8.618218e+001
4.359128e+002, 8.695332e+001
4.363949e+002, 8.819442e+001
4.368770e+002, 8.905595e+001
4.373591e+002, 8.899770e+001
4.378412e+002, 8.828354e+001
4.383234e+002, 8.791904e+001
4.388055e+002, 8.816508e+001
4.392876e+002, 8.843593e+001
4.397697e+002, 8.856068e+001
4.402518e+002, 8.876924e+001
4.407339e+002, 8.945837e+001
4.412160e+002, 9.061142e+001
4.416982e+002, 9.165304e+001
4.421803e+002, 9.188750e+001
4.426624e+002, 9.120251e+001
4.431445e+002, 9.053708e+001
4.436266e+002, 8.950021e+001
4.441087e+002, 8.889774e+001
4.445909e+002, 8.936787e+001
4.450730e+002, 9.037191e+001
4.455551e+002, 9.102095e+001
4.460372e+002, 9.083704e+001
4.465193e+002, 9.015186e+001
4.470014e+002, 8.965843e+001
4.474836e+002, 8.935341e+001
4.479657e+002, 8.925416e+001
4.484478e+002, 8.925428e+001
4.489299e+002, 8.954785e+001
4.494120e+002, 9.054785e+001
4.498941e+002, 9.214068e+001
4.503763e+002, 9.345049e+001
4.508584e+002, 9.357584e+001
4.513405e+002, 9.281703e+001
4.518226e+002, 9.247331e+001
4.523047e+002, 9.269746e+001
4.527868e+002, 9.301487e+001
4.532690e+002, 9.304850e+001
4.537511e+002, 9.302291e+001
4.542332e+002, 9.331079e+001
4.547153e+002, 9.413091e+001
4.551974e+002, 9.500111e+001
4.556795e+002, 9.546316e+001
4.561617e+002, 9.561526e+001
4.566438e+002, 9.592871e+001
4.571259e+002, 9.660159e+001
4.576080e+002, 9.734115e+001
4.580901e+002, 9.767714e+001
4.585722e+002, 9.760685e+001
4.590544e+002, 9.777773e+001
4.595365e+002, 9.855421e+001
4.600186e+002, 9.943864e+001
4.605007e+002, 9.985555e+001
4.609828e+002, 9.990056e+001
4.614649e+002, 1.002642e+002
4.619471e+002, 1.014529e+002
4.624292e+002, 1.032049e+002
4.629113e+002, 1.044517e+002
4.633934e+002, 1.047832e+002
4.638755e+002, 1.051850e+002
4.643576e+002, 1.056735e+002
4.648398e+002, 1.063396e+002
4.653219e+002, 1.074000e+002
4.658040e+002, 1.088360e+002
4.662861e+002, 1.102472e+002
4.667682e+002, 1.111711e+002
4.672503e+002, 1.115521e+002
4.677325e+002, 1.120422e+002
4.682146e+002, 1.124456e+002
4.686967e+002, 1.131770e+002
4.691788e+002, 1.147123e+002
4.696609e+002, 1.165502e+002
4.701430e+002, 1.179043e+002
4.706252e+002, 1.184165e+002
4.711073e+002, 1.185281e+002
4.715894e+002, 1.190852e+002
4.720715e+002, 1.202715e+002
4.725536e+002, 1.210892e+002
4.730357e+002, 1.209973e+002
4.735179e+002, 1.208297e+002
4.740000e+002, 1.210160e+002
4.744821e+002, 1.215450e+002
4.749642e+002, 1.222551e+002
4.754463e+002, 1.233182e+002
4.759284e+002, 1.244015e+002
4.764106e+002, 1.247079e+002
4.768927e+002, 1.241415e+002
4.773748e+002, 1.233683e+002
4.778569e+002, 1.224213e+002
4.783390e+002, 1.216103e+002
4.788211e+002, 1.214642e+002
4.793033e+002, 1.221845e+002
4.797854e+002, 1.229032e+002
4.802675e+002, 1.232746e+002
4.807496e+002, 1.233283e+002
4.812317e+002, 1.230704e+002
4.817138e+002, 1.224933e+002
4.821959e+002, 1.217828e+002
4.826780e+002, 1.211135e+002
4.831602e+002, 1.204742e+002
4.836423e+002, 1.196211e+002
4.841244e+002, 1.181064e+002
4.846065e+002, 1.168758e+002
4.850886e+002, 1.164924e+002
4.855707e+002, 1.166127e+002
4.860529e+002, 1.166794e+002
4.865350e+002, 1.164817e+002
4.870171e+002, 1.160666e+002
4.874992e+002, 1.155520e+002
4.879813e+002, 1.151419e+002
4.884634e+002, 1.140132e+002
4.889456e+002, 1.111936e+002
4.894277e+002, 1.087070e+002
4.899098e+002, 1.078393e+002
4.903919e+002, 1.081000e+002
4.908740e+002, 1.082764e+002
4.913561e+002, 1.076548e+002
4.918383e+002, 1.064300e+002
4.923204e+002, 1.050196e+002
4.928025e+002, 1.031725e+002
4.932846e+002, 1.018461e+002
4.937667e+002, 1.018302e+002
4.942488e+002, 1.019886e+002
4.947310e+002, 1.015319e+002
4.952131e+002, 1.004479e+002
4.956952e+002, 9.929507e+001
4.961773e+002, 9.846290e+001
4.966594e+002, 9.786028e+001
4.971415e+002, 9.733134e+001
4.976237e+002, 9.694910e+001
4.981058e+002, 9.624967e+001
4.985879e+002, 9.466155e+001
4.990700e+002, 9.269868e+001
4.995521e+002, 9.133792e+001
5.000342e+002, 9.071487e+001
5.005164e+002, 9.046922e+001
5.009985e+002, 9.066042e+001
5.014806e+002, 9.104237e+001
5.019627e+002, 9.132201e+001
5.024448e+002, 9.144584e+001
5.029269e+002, 9.096516e+001
5.034091e+002, 8.921258e+001
5.038912e+002, 8.611500e+001
5.043733e+002, 8.432548e+001
5.048554e+002, 8.476961e+001
5.053375e+002, 8.532699e+001
5.058196e+002, 8.532076e+001
5.063018e+002, 8.492062e+001
5.067839e+002, 8.437363e+001
5.072660e+002, 8.378173e+001
5.077481e+002, 8.323090e+001
5.082302e+002, 8.289791e+001
5.087123e+002, 8.292339e+001
5.091945e+002, 8.265532e+001
5.096766e+002, 8.159986e+001
5.101587e+002, 8.074572e+001
5.106408e+002, 8.078490e+001
5.111229e+002, 8.125792e+001
5.116050e+002, 8.122243e+001
5.120872e+002, 8.013213e+001
5.125693e+002, 7.856419e+001
5.130514e+002, 7.753863e+001
5.135335e+002, 7.710215e+001
5.140156e+002, 7.683509e+001
5.144977e+002, 7.678165e+001
5.149799e+002, 7.673667e+001
5.154620e+002, 7.656908e+001
5.159441e+002, 7.627373e+001
5.164262e+002, 7.583518e+001
5.169083e+002, 7.500988e+001
5.173904e+002, 7.417125e+001
5.178726e+002, 7.399541e+001
5.183547e+002, 7.441624e+001
5.188368e+002, 7.443049e+001
5.193189e+002, 7.343819e+001
5.198010e+002, 7.190542e+001
5.202831e+002, 7.091226e+001
5.207653e+002, 7.057183e+001
5.212474e+002, 7.028810e+001
5.217295e+002, 7.010798e+001
5.222116e+002, 6.984562e+001
5.226937e+002, 6.916882e+001
5.231758e+002, 6.818833e+001
5.236580e+002, 6.748038e+001
5.241401e+002, 6.751022e+001
5.246222e+002, 6.809354e+001
5.251043e+002, 6.827477e+001
5.255864e+002, 6.784054e+001
5.260685e+002, 6.727435e+001
5.265507e+002, 6.638349e+001
5.270328e+002, 6.554581e+001
5.275149e+002, 6.513876e+001
5.279970e+002, 6.515549e+001
5.284791e+002, 6.523472e+001
5.289612e+002, 6.501795e+001
5.294434e+002, 6.458132e+001
5.299255e+002, 6.442111e+001
5.304076e+002, 6.466723e+001
5.308897e+002, 6.488980e+001
5.313718e+002, 6.490932e+001
5.318539e+002, 6.480806e+001
5.323361e+002, 6.470608e+001
5.328182e+002, 6.465295e+001
5.333003e+002, 6.436777e+001
5.337824e+002, 6.334420e+001
5.342645e+002, 6.201916e+001
5.347466e+002, 6.141658e+001
5.352288e+002, 6.170771e+001
5.357109e+002, 6.218490e+001
5.361930e+002, 6.241356e+001
5.366751e+002, 6.237209e+001
5.371572e+002, 6.201592e+001
5.376393e+002, 6.077981e+001
5.381215e+002, 5.994456e+001
5.386036e+002, 6.033803e+001
5.390857e+002, 6.111504e+001
5.395678e+002, 6.113865e+001
5.400499e+002, 6.022028e+001
5.405320e+002, 5.905517e+001
5.410142e+002, 5.835863e+001
5.414963e+002, 5.814151e+001
5.419784e+002, 5.801734e+001
5.424604e+002, 5.808861e+001
5.429426e+002, 5.813432e+001
5.434247e+002, 5.814313e+001
5.439068e+002, 5.808778e+001
5.443889e+002, 5.793261e+001
5.448710e+002, 5.767063e+001
5.453531e+002, 5.734306e+001
5.458353e+002, 5.687611e+001
5.463174e+002, 5.631116e+001
5.467995e+002, 5.622783e+001
5.472816e+002, 5.687141e+001
5.477637e+002, 5.753924e+001
5.482458e+002, 5.790360e+001
5.487280e+002, 5.797770e+001
5.492101e+002, 5.764893e+001
5.496922e+002, 5.657493e+001
5.501743e+002, 5.579168e+001
5.506564e+002, 5.633028e+001
5.511385e+002, 5.755890e+001
5.516207e+002, 5.807469e+001
5.521028e+002, 5.757316e+001
5.525849e+002, 5.686633e+001
5.530670e+002, 5.676044e+001
5.535491e+002, 5.725806e+001
5.540313e+002, 5.723413e+001
5.545134e+002, 5.610244e+001
5.549955e+002, 5.523245e+001
5.554776e+002, 5.517152e+001
5.559597e+002, 5.549844e+001
5.564418e+002, 5.572799e+001
5.569240e+002, 5.571885e+001
5.574061e+002, 5.558367e+001
5.578882e+002, 5.551587e+001
5.583703e+002, 5.553817e+001
5.588524e+002, 5.494428e+001
5.593345e+002, 5.285885e+001
5.598167e+002, 5.144743e+001
5.602988e+002, 5.188786e+001
5.607809e+002, 5.311485e+001
5.612630e+002, 5.380623e+001
5.617451e+002, 5.359322e+001
5.622272e+002, 5.323352e+001
5.627094e+002, 5.340473e+001
5.631915e+002, 5.396325e+001
5.636736e+002, 5.451603e+001
5.641557e+002, 5.508534e+001
5.646378e+002, 5.528751e+001
5.651199e+002, 5.466692e+001
5.656021e+002, 5.344035e+001
5.660842e+002, 5.261936e+001
5.665663e+002, 5.229998e+001
5.670484e+002, 5.224245e+001
5.675305e+002, 5.246267e+001
5.680126e+002, 5.285417e+001
5.684948e+002, 5.350134e+001
5.689769e+002, 5.430785e+001
5.694590e+002, 5.462693e+001
5.699411e+002, 5.373078e+001
5.704232e+002, 5.171585e+001
5.709053e+002, 5.049633e+001
5.713875e+002, 5.055947e+001
5.718696e+002, 5.080722e+001
5.723517e+002, 5.125704e+001
5.728338e+002, 5.169027e+001
5.733159e+002, 5.188293e+001
5.737980e+002, 5.181745e+001
5.742802e+002, 5.168706e+001
5.747623e+002, 5.161561e+001
5.752444e+002, 5.161335e+001
5.757265e+002, 5.177612e+001
5.762086e+002, 5.217384e+001
5.766907e+002, 5.244385e+001
5.771729e+002, 5.240988e+001
5.776550e+002, 5.213653e+001
5.781371e+002, 5.170068e+001
5.786192e+002, 5.103518e+001
5.791013e+002, 5.051794e+001
5.795834e+002, 5.037756e+001
5.800656e+002, 5.040920e+001
5.805477e+002, 5.036513e+001
5.810298e+002, 5.024394e+001
5.815119e+002, 5.023289e+001
5.819940e+002, 5.049233e+001
5.824761e+002, 5.086700e+001
5.829583e+002, 5.081105e+001
5.834404e+002, 4.967922e+001
5.839225e+002, 4.910626e+001
5.844046e+002, 4.951366e+001
5.848867e+002, 5.012000e+001
5.853688e+002, 5.044386e+001
5.858510e+002, 5.049601e+001
5.863331e+002, 5.051738e+001
5.868152e+002, 5.067289e+001
5.872973e+002, 5.086460e+001
5.877794e+002, 5.080755e+001
5.882615e+002, 5.043860e+001
5.887437e+002, 5.026115e+001
5.892258e+002, 5.047529e+001
5.897079e+002, 5.083876e+001
5.901900e+002, 5.124681e+001
5.906721e+002, 5.165240e+001
5.911542e+002, 5.171614e+001
5.916364e+002, 5.097911e+001
5.921185e+002, 5.016082e+001
5.926006e+002, 5.000896e+001
5.930827e+002, 5.029629e+001
5.935648e+002, 5.025346e+001
5.940469e+002, 4.957695e+001
5.945291e+002, 4.877257e+001
5.950112e+002, 4.861166e+001
5.954933e+002, 4.937852e+001
5.959754e+002, 4.947822e+001
5.964575e+002, 4.803388e+001
5.969396e+002, 4.699786e+001
5.974218e+002, 4.731334e+001
5.979039e+002, 4.837109e+001
5.983860e+002, 4.935122e+001
5.988681e+002, 4.996128e+001
5.993502e+002, 5.025334e+001
5.998323e+002, 5.015563e+001
6.003145e+002, 4.969108e+001
6.007966e+002, 4.958278e+001
6.012787e+002, 5.009238e+001
6.017608e+002, 5.046368e+001
6.022429e+002, 4.997434e+001
6.027250e+002, 4.915753e+001
6.032072e+002, 4.889809e+001
6.036893e+002, 4.951676e+001
6.041714e+002, 5.004150e+001
6.046535e+002, 4.982624e+001
6.051356e+002, 4.928414e+001
6.056177e+002, 4.900777e+001
6.060999e+002, 4.906208e+001
6.065820e+002, 4.925887e+001
6.070641e+002, 4.950736e+001
6.075462e+002, 4.974324e+001
6.080283e+002, 4.966490e+001
6.085104e+002, 4.884711e+001
6.089926e+002, 4.832343e+001
6.094747e+002, 4.823520e+001
6.099568e+002, 4.835928e+001
6.104389e+002, 4.861430e+001
6.109210e+002, 4.894349e+001
6.114031e+002, 4.926279e+001
6.118853e+002, 4.954022e+001
6.123674e+002, 4.974086e+001
6.128495e+002, 4.983541e+001
6.133316e+002, 4.983974e+001
6.138137e+002, 4.949229e+001
6.142958e+002, 4.845502e+001
6.147780e+002, 4.740499e+001
6.152601e+002, 4.703748e+001
6.157422e+002, 4.726225e+001
6.162243e+002, 4.763835e+001
6.167064e+002, 4.834227e+001
6.171885e+002, 4.890789e+001
6.176707e+002, 4.888820e+001
6.181528e+002, 4.853935e+001
6.186349e+002, 4.840956e+001
6.191170e+002, 4.865662e+001
6.195991e+002, 4.899970e+001
6.200812e+002, 4.911031e+001
6.205634e+002, 4.897494e+001
6.210455e+002, 4.881003e+001
6.215276e+002, 4.839003e+001
6.220097e+002, 4.823047e+001
6.224918e+002, 4.872325e+001
6.229739e+002, 4.936229e+001
6.234561e+002, 4.959356e+001
6.239382e+002, 4.932688e+001
6.244203e+002, 4.894674e+001
6.249023e+002, 4.879433e+001
6.253845e+002, 4.876240e+001
6.258666e+002, 4.848899e+001
6.263487e+002, 4.793159e+001
6.268308e+002, 4.760121e+001
6.273129e+002, 4.788696e+001
6.277950e+002, 4.838410e+001
6.282772e+002, 4.818544e+001
6.287593e+002, 4.705602e+001
6.292414e+002, 4.646173e+001
6.297235e+002, 4.713699e+001
6.302056e+002, 4.794831e+001
6.306877e+002, 4.811017e+001
6.311699e+002, 4.776353e+001
6.316520e+002, 4.731491e+001
6.321341e+002, 4.695134e+001
6.326162e+002, 4.676080e+001
6.330983e+002, 4.698346e+001
6.335804e+002, 4.776571e+001
6.340626e+002, 4.819782e+001
6.345447e+002, 4.799554e+001
6.350268e+002, 4.779101e+001
6.355089e+002, 4.787702e+001
6.359910e+002, 4.813132e+001
6.364731e+002, 4.840224e+001
6.369553e+002, 4.868705e+001
6.374374e+002, 4.883027e+001
6.379195e+002, 4.861605e+001
6.384016e+002, 4.821540e+001
6.388837e+002, 4.788935e+001
6.393658e+002, 4.767882e+001
6.398480e+002, 4.773127e+001
6.403301e+002, 4.821849e+001
6.408122e+002, 4.895374e+001
6.412943e+002, 4.931467e+001
6.417764e+002, 4.911498e+001
6.422585e+002, 4.878227e+001
6.427407e+002, 4.803622e+001
6.432228e+002, 4.740654e+001
6.437049e+002, 4.738256e+001
6.441870e+002, 4.775312e+001
6.446691e+002, 4.792236e+001
6.451512e+002, 4.755490e+001
6.456334e+002, 4.695600e+001
6.461155e+002, 4.653733e+001
6.465976e+002, 4.630017e+001
6.470797e+002, 4.648020e+001
6.475618e+002, 4.737789e+001
6.480439e+002, 4.812788e+001
6.485261e+002, 4.777879e+001
6.490082e+002, 4.674659e+001
6.494903e+002, 4.636501e+001
6.499724e+002, 4.718636e+001
6.504545e+002, 4.796782e+001
6.509366e+002, 4.821918e+001
6.514188e+002, 4.816944e+001
6.519009e+002, 4.804393e+001
6.523830e+002, 4.789307e+001
6.528651e+002, 4.772211e+001
6.533472e+002, 4.753646e+001
6.538293e+002, 4.733051e+001
6.543115e+002, 4.703067e+001
6.547936e+002, 4.642688e+001
6.552757e+002, 4.624271e+001
6.557578e+002, 4.726365e+001
6.562399e+002, 4.813734e+001
6.567220e+002, 4.788934e+001
6.572042e+002, 4.684999e+001
6.576863e+002, 4.612374e+001
6.581684e+002, 4.628211e+001
6.586505e+002, 4.665030e+001
6.591326e+002, 4.669394e+001
6.596147e+002, 4.643583e+001
6.600969e+002, 4.573936e+001
6.605790e+002, 4.455221e+001
6.610611e+002, 4.376440e+001
6.615432e+002, 4.431816e+001
6.620253e+002, 4.602386e+001
6.625074e+002, 4.681999e+001
6.629896e+002, 4.572755e+001
6.634717e+002, 4.501130e+001
6.639538e+002, 4.502677e+001
6.644359e+002, 4.536142e+001
6.649180e+002, 4.592898e+001
6.654001e+002, 4.653548e+001
6.658823e+002, 4.667686e+001
6.663644e+002, 4.588546e+001
6.668465e+002, 4.471708e+001
6.673286e+002, 4.416671e+001
6.678107e+002, 4.422126e+001
6.682928e+002, 4.447260e+001
6.687750e+002, 4.492461e+001
6.692571e+002, 4.532579e+001
6.697392e+002, 4.542601e+001
6.702213e+002, 4.524005e+001
6.707034e+002, 4.501371e+001
6.711855e+002, 4.463823e+001
6.716677e+002, 4.436088e+001
6.721498e+002, 4.431875e+001
6.726319e+002, 4.438139e+001
6.731140e+002, 4.439737e+001
6.735961e+002, 4.435865e+001
6.740782e+002, 4.435629e+001
6.745604e+002, 4.445195e+001
6.750425e+002, 4.464907e+001
6.755246e+002, 4.503683e+001
6.760067e+002, 4.573766e+001
6.764888e+002, 4.604943e+001
6.769709e+002, 4.543750e+001
6.774531e+002, 4.485027e+001
6.779352e+002, 4.529583e+001
6.784173e+002, 4.642670e+001
6.788994e+002, 4.697333e+001
6.793815e+002, 4.626842e+001
6.798636e+002, 4.539988e+001
6.803458e+002, 4.493487e+001
6.808279e+002, 4.474738e+001
6.813100e+002, 4.461416e+001
6.817921e+002, 4.451044e+001
6.822742e+002, 4.463482e+001
6.827563e+002, 4.521384e+001
6.832385e+002, 4.607906e+001
6.837206e+002, 4.635492e+001
6.842027e+002, 4.566640e+001
6.846848e+002, 4.520790e+001
6.851669e+002, 4.549997e+001
6.856490e+002, 4.574479e+001
6.861312e+002, 4.534599e+001
6.866133e+002, 4.450727e+001
6.870954e+002, 4.388585e+001
6.875775e+002, 4.378184e+001
6.880596e+002, 4.387885e+001
6.885417e+002, 4.393058e+001
6.890239e+002, 4.396431e+001
6.895060e+002, 4.406350e+001
6.899881e+002, 4.424111e+001
6.904702e+002, 4.440120e+001
6.909523e+002, 4.448307e+001
6.914344e+002, 4.447575e+001
6.919166e+002, 4.430377e+001
6.923987e+002, 4.355268e+001
6.928808e+002, 4.331709e+001
6.933629e+002, 4.436941e+001
6.938450e+002, 4.525930e+001
6.943271e+002, 4.488070e+001
6.948093e+002, 4.362066e+001
6.952914e+002, 4.257646e+001
6.957735e+002, 4.222126e+001
6.962556e+002, 4.226588e+001
6.967377e+002, 4.256322e+001
6.972198e+002, 4.300283e+001
6.977020e+002, 4.317653e+001
6.981841e+002, 4.301239e+001
6.986662e+002, 4.268806e+001
6.991483e+002, 4.221559e+001
6.996304e+002, 4.174749e+001
7.001125e+002, 4.188614e+001
7.005947e+002, 4.353518e+001
7.010768e+002, 4.439655e+001
7.015589e+002, 4.381834e+001
7.020410e+002, 4.302499e+001
7.025231e+002, 4.260686e+001
7.030052e+002, 4.259138e+001
7.034874e+002, 4.297588e+001
7.039695e+002, 4.381009e+001
7.044516e+002, 4.456128e+001
7.049337e+002, 4.434259e+001
7.054158e+002, 4.340937e+001
7.058979e+002, 4.314625e+001
7.063801e+002, 4.380140e+001
7.068622e+002, 4.425181e+001
7.073442e+002, 4.371058e+001
7.078264e+002, 4.262474e+001
7.083085e+002, 4.213508e+001
7.087906e+002, 4.240431e+001
7.092727e+002, 4.281335e+001
7.097548e+002, 4.371720e+001
7.102369e+002, 4.436665e+001
7.107191e+002, 4.402787e+001
7.112012e+002, 4.319568e+001
7.116833e+002, 4.281127e+001
7.121654e+002, 4.320786e+001
7.126475e+002, 4.384205e+001
7.131296e+002, 4.410817e+001
7.136118e+002, 4.406255e+001
7.140939e+002, 4.398741e+001
7.145760e+002, 4.386875e+001
7.150581e+002, 4.388829e+001
7.155402e+002, 4.425140e+001
7.160223e+002, 4.467345e+001
7.165045e+002, 4.461626e+001
7.169866e+002, 4.399143e+001
7.174687e+002, 4.348439e+001
7.179508e+002, 4.314400e+001
7.184329e+002, 4.294310e+001
7.189150e+002, 4.300248e+001
7.193972e+002, 4.313691e+001
7.198793e+002, 4.299611e+001
7.203614e+002, 4.253942e+001
7.208435e+002, 4.220914e+001
7.213256e+002, 4.253985e+001
7.218077e+002, 4.332526e+001
7.222899e+002, 4.372344e+001
7.227720e+002, 4.369336e+001
7.232541e+002, 4.361249e+001
7.237362e+002, 4.352010e+001
7.242183e+002, 4.354939e+001
7.247004e+002, 4.408226e+001
7.251826e+002, 4.509694e+001
7.256647e+002, 4.525853e+001
7.261468e+002, 4.352855e+001
7.266289e+002, 4.209612e+001
7.271110e+002, 4.180524e+001
7.275931e+002, 4.219215e+001
7.280753e+002, 4.301867e+001
7.285574e+002, 4.403771e+001
7.290395e+002, 4.456988e+001
7.295216e+002, 4.393394e+001
7.300037e+002, 4.282509e+001
7.304858e+002, 4.308644e+001
7.309680e+002, 4.478698e+001
7.314501e+002, 4.579412e+001
7.319322e+002, 4.555562e+001
7.324143e+002, 4.487177e+001
7.328964e+002, 4.428475e+001
7.333785e+002, 4.378956e+001
7.338607e+002, 4.332011e+001
7.343428e+002, 4.245518e+001
7.348249e+002, 4.226535e+001
7.353070e+002, 4.371294e+001
7.357891e+002, 4.531981e+001
7.362712e+002, 4.594765e+001
7.367534e+002, 4.564267e+001
7.372355e+002, 4.475840e+001
7.377176e+002, 4.339149e+001
7.381997e+002, 4.222602e+001
7.386818e+002, 4.254055e+001
7.391639e+002, 4.414336e+001
7.396461e+002, 4.520851e+001
7.401282e+002, 4.557443e+001
7.406103e+002, 4.542303e+001
7.410924e+002, 4.457078e+001
7.415745e+002, 4.346254e+001
7.420566e+002, 4.312366e+001
7.425388e+002, 4.371760e+001
7.430209e+002, 4.442315e+001
7.435030e+002, 4.562255e+001
7.439851e+002, 4.645405e+001
7.444672e+002, 4.620239e+001
7.449493e+002, 4.538258e+001
7.454315e+002, 4.473952e+001
7.459136e+002, 4.450486e+001
7.463957e+002, 4.453701e+001
7.468778e+002, 4.478149e+001
7.473599e+002, 4.517387e+001
7.478420e+002, 4.558758e+001
7.483242e+002, 4.602978e+001
7.488063e+002, 4.616499e+001
7.492884e+002, 4.582454e+001
7.497705e+002, 4.526025e+001
7.502526e+002, 4.464485e+001
7.507347e+002, 4.395240e+001
7.512169e+002, 4.390467e+001
7.516990e+002, 4.531496e+001
7.521811e+002, 4.625819e+001
7.526632e+002, 4.603123e+001
7.531453e+002, 4.536608e+001
7.536274e+002, 4.471600e+001
7.541096e+002, 4.426133e+001
7.545917e+002, 4.427392e+001
7.550738e+002, 4.505505e+001
7.555559e+002, 4.606479e+001
7.560380e+002, 4.647931e+001
7.565201e+002, 4.644862e+001
7.570023e+002, 4.665137e+001
7.574844e+002, 4.721157e+001
7.579665e+002, 4.781222e+001
7.584486e+002, 4.828491e+001
7.589307e+002, 4.857542e+001
7.594128e+002, 4.848006e+001
7.598950e+002, 4.750787e+001
7.603771e+002, 4.704872e+001
7.608592e+002, 4.741406e+001
7.613413e+002, 4.792773e+001
7.618234e+002, 4.839928e+001
7.623055e+002, 4.876073e+001
7.627877e+002, 4.894131e+001
7.632698e+002, 4.891853e+001
7.637519e+002, 4.876138e+001
7.642340e+002, 4.834499e+001
7.647161e+002, 4.791819e+001
7.651982e+002, 4.797275e+001
7.656804e+002, 4.842989e+001
7.661625e+002, 4.873833e+001
7.666446e+002, 4.867426e+001
7.671267e+002, 4.855918e+001
7.676088e+002, 4.885550e+001
7.680909e+002, 4.959447e+001
7.685731e+002, 4.996115e+001
7.690552e+002, 4.959642e+001
7.695373e+002, 4.944986e+001
7.700194e+002, 4.986987e+001
7.705015e+002, 5.046307e+001
7.709836e+002, 5.103831e+001
7.714658e+002, 5.153277e+001
7.719479e+002, 5.174914e+001
7.724300e+002, 5.134279e+001
7.729121e+002, 5.100980e+001
7.733942e+002, 5.145806e+001
7.738763e+002, 5.219560e+001
7.743585e+002, 5.237722e+001
7.748406e+002, 5.197138e+001
7.753227e+002, 5.159920e+001
7.758048e+002, 5.168632e+001
7.762869e+002, 5.198383e+001
7.767690e+002, 5.177918e+001
7.772512e+002, 5.089946e+001
7.777333e+002, 5.073265e+001
7.782154e+002, 5.172928e+001
7.786975e+002, 5.277802e+001
7.791796e+002, 5.328757e+001
7.796617e+002, 5.346621e+001
7.801439e+002, 5.364420e+001
7.806260e+002, 5.383532e+001
7.811081e+002, 5.401121e+001
7.815902e+002, 5.435988e+001
7.820723e+002, 5.449622e+001
7.825544e+002, 5.389899e+001
7.830366e+002, 5.301514e+001
7.835187e+002, 5.262206e+001
7.840008e+002, 5.289429e+001
7.844829e+002, 5.337127e+001
7.849650e+002, 5.363437e+001
7.854471e+002, 5.377531e+001
7.859293e+002, 5.411695e+001
7.864114e+002, 5.466325e+001
7.868935e+002, 5.504632e+001
7.873756e+002, 5.516685e+001
7.878577e+002, 5.511164e+001
7.883398e+002, 5.487318e+001
7.888220e+002, 5.450492e+001
7.893040e+002, 5.447020e+001
7.897861e+002, 5.522701e+001
7.902682e+002, 5.564326e+001
7.907504e+002, 5.549942e+001
7.912325e+002, 5.511737e+001
7.917146e+002, 5.442072e+001
7.921967e+002, 5.370782e+001
7.926788e+002, 5.355871e+001
7.931609e+002, 5.421741e+001
7.936431e+002, 5.515912e+001
7.941252e+002, 5.611563e+001
7.946073e+002, 5.696380e+001
7.950894e+002, 5.738111e+001
7.955715e+002, 5.741506e+001
7.960536e+002, 5.747203e+001
7.965358e+002, 5.772430e+001
7.970179e+002, 5.802949e+001
7.975000e+002, 5.818865e+001
7.979821e+002, 5.819560e+001
7.984642e+002, 5.821949e+001
7.989464e+002, 5.829137e+001
7.994285e+002, 5.832376e+001
7.999106e+002, 5.811193e+001
8.003927e+002, 5.799979e+001
8.008748e+002, 5.835858e+001
8.013569e+002, 5.908397e+001
8.018391e+002, 5.964359e+001
8.023212e+002, 5.990627e+001
8.028033e+002, 5.996618e+001
8.032854e+002, 5.967209e+001
8.037675e+002, 5.932482e+001
8.042496e+002, 5.928692e+001
8.047318e+002, 5.954946e+001
8.052139e+002, 5.997185e+001
8.056960e+002, 6.049302e+001
8.061781e+002, 6.091163e+001
8.066602e+002, 6.073318e+001
8.071423e+002, 6.003400e+001
8.076245e+002, 5.999392e+001
8.081066e+002, 6.081426e+001
8.085887e+002, 6.148471e+001
8.090708e+002, 6.147888e+001
8.095529e+002, 6.120411e+001
8.100350e+002, 6.131877e+001
8.105172e+002, 6.194072e+001
8.109993e+002, 6.214888e+001
8.114814e+002, 6.160441e+001
8.119635e+002, 6.108429e+001
8.124456e+002, 6.076989e+001
8.129277e+002, 6.059520e+001
8.134099e+002, 6.036648e+001
8.138920e+002, 6.018752e+001
8.143741e+002, 6.056956e+001
8.148562e+002, 6.209710e+001
8.153383e+002, 6.357601e+001
8.158204e+002, 6.344772e+001
8.163026e+002, 6.239872e+001
8.167847e+002, 6.194506e+001
8.172668e+002, 6.223539e+001
8.177489e+002, 6.270676e+001
8.182310e+002, 6.304225e+001
8.187131e+002, 6.335260e+001
8.191953e+002, 6.391087e+001
8.196774e+002, 6.481898e+001
8.201595e+002, 6.530674e+001
8.206416e+002, 6.517992e+001
8.211237e+002, 6.500414e+001
8.216058e+002, 6.499795e+001
8.220880e+002, 6.503862e+001
8.225701e+002, 6.503001e+001
8.230522e+002, 6.496631e+001
8.235343e+002, 6.474373e+001
8.240164e+002, 6.379496e+001
8.244985e+002, 6.333977e+001
8.249807e+002, 6.424590e+001
8.254628e+002, 6.570415e+001
8.259449e+002, 6.695775e+001
8.264270e+002, 6.786301e+001
8.269091e+002, 6.848833e+001
8.273912e+002, 6.887670e+001
8.278734e+002, 6.899436e+001
8.283555e+002, 6.850324e+001
8.288376e+002, 6.767139e+001
8.293197e+002, 6.775090e+001
8.298018e+002, 6.885359e+001
8.302839e+002, 7.007080e+001
8.307661e+002, 7.101443e+001
8.312482e+002, 7.163747e+001
8.317303e+002, 7.180437e+001
8.322124e+002, 7.140747e+001
8.326945e+002, 7.133736e+001
8.331766e+002, 7.182397e+001
8.336588e+002, 7.231110e+001
8.341409e+002, 7.280412e+001
8.346230e+002, 7.314448e+001
8.351051e+002, 7.315786e+001
8.355872e+002, 7.288710e+001
8.360693e+002, 7.255310e+001
8.365515e+002, 7.199667e+001
8.370336e+002, 7.174915e+001
8.375157e+002, 7.240086e+001
8.379978e+002, 7.331699e+001
8.384799e+002, 7.378907e+001
8.389620e+002, 7.381837e+001
8.394442e+002, 7.364399e+001
8.399263e+002, 7.337622e+001
8.404084e+002, 7.320354e+001
8.408905e+002, 7.340442e+001
8.413726e+002, 7.393562e+001
8.418547e+002, 7.466227e+001
8.423369e+002, 7.561244e+001
8.428190e+002, 7.619645e+001
8.433011e+002, 7.618245e+001
8.437832e+002, 7.574049e+001
8.442653e+002, 7.492467e+001
8.447474e+002, 7.375686e+001
8.452296e+002, 7.328660e+001
8.457117e+002, 7.422005e+001
8.461938e+002, 7.482228e+001
8.466759e+002, 7.485867e+001
8.471580e+002, 7.461043e+001
8.476401e+002, 7.409889e+001
8.481223e+002, 7.346790e+001
8.486044e+002, 7.298952e+001
8.490865e+002, 7.273768e+001
8.495686e+002, 7.261919e+001
8.500507e+002, 7.254256e+001
8.505328e+002, 7.260754e+001
8.510150e+002, 7.323923e+001
8.514971e+002, 7.403832e+001
8.519792e+002, 7.391181e+001
8.524613e+002, 7.262863e+001
8.529434e+002, 7.131513e+001
8.534255e+002, 7.121182e+001
8.539077e+002, 7.182052e+001
8.543898e+002, 7.145462e+001
8.548719e+002, 7.011464e+001
8.553540e+002, 6.907803e+001
8.558361e+002, 6.860493e+001
8.563182e+002, 6.848604e+001
8.568004e+002, 6.870353e+001
8.572825e+002, 6.905970e+001
8.577646e+002, 6.889027e+001
8.582467e+002, 6.781892e+001
8.587288e+002, 6.703855e+001
8.592109e+002, 6.662569e+001
8.596931e+002, 6.640479e+001
8.601752e+002, 6.638200e+001
8.606573e+002, 6.647897e+001
8.611394e+002, 6.677309e+001
8.616215e+002, 6.722144e+001
8.621036e+002, 6.713734e+001
8.625858e+002, 6.555284e+001
8.630679e+002, 6.408958e+001
8.635500e+002, 6.413865e+001
8.640321e+002, 6.484935e+001
8.645142e+002, 6.510780e+001
8.649963e+002, 6.477579e+001
8.654785e+002, 6.411378e+001
8.659606e+002, 6.323595e+001
8.664427e+002, 6.240104e+001
8.669248e+002, 6.216186e+001
8.674069e+002, 6.235781e+001
8.678890e+002, 6.198354e+001
8.683712e+002, 6.095582e+001
8.688533e+002, 6.033447e+001
8.693354e+002, 6.064299e+001
8.698175e+002, 6.124626e+001
8.702996e+002, 6.128700e+001
8.707817e+002, 6.075962e+001
8.712639e+002, 6.038277e+001
8.717459e+002, 6.042768e+001
8.722280e+002, 6.014478e+001
8.727101e+002, 5.886535e+001
8.731923e+002, 5.773690e+001
8.736744e+002, 5.763500e+001
8.741565e+002, 5.819426e+001
8.746386e+002, 5.848386e+001
8.751207e+002, 5.828044e+001
8.756028e+002, 5.803394e+001
8.760850e+002, 5.798583e+001
8.765671e+002, 5.786934e+001
8.770492e+002, 5.742707e+001
8.775313e+002, 5.679871e+001
8.780134e+002, 5.614104e+001
8.784955e+002, 5.554402e+001
8.789777e+002, 5.526438e+001
8.794598e+002, 5.580300e+001
8.799419e+002, 5.641711e+001
8.804240e+002, 5.554507e+001
8.809061e+002, 5.367402e+001
8.813882e+002, 5.272906e+001
8.818704e+002, 5.296815e+001
8.823525e+002, 5.320116e+001
8.828346e+002, 5.266093e+001
8.833167e+002, 5.173234e+001
8.837988e+002, 5.127103e+001
8.842809e+002, 5.138605e+001
8.847631e+002, 5.106399e+001
8.852452e+002, 4.996610e+001
8.857273e+002, 4.928843e+001
8.862094e+002, 4.967682e+001
8.866915e+002, 5.042379e+001
8.871736e+002, 5.083493e+001
8.876558e+002, 5.090988e+001
8.881379e+002, 5.069073e+001
8.886200e+002, 4.992910e+001
8.891021e+002, 4.922581e+001
8.895842e+002, 4.866659e+001
8.900663e+002, 4.821057e+001
8.905485e+002, 4.796763e+001
8.910306e+002, 4.776812e+001
8.915127e+002, 4.717277e+001
8.919948e+002, 4.602635e+001
8.924769e+002, 4.524102e+001
8.929590e+002, 4.594401e+001
8.934412e+002, 4.683959e+001
8.939233e+002, 4.638287e+001
8.944054e+002, 4.508533e+001
8.948875e+002, 4.390424e+001
8.953696e+002, 4.314598e+001
8.958517e+002, 4.308843e+001
8.963339e+002, 4.408024e+001
8.968160e+002, 4.541227e+001
8.972981e+002, 4.553175e+001
8.977802e+002, 4.456892e+001
8.982623e+002, 4.381164e+001
8.987444e+002, 4.337933e+001
8.992266e+002, 4.312882e+001
8.997087e+002, 4.301884e+001
9.001908e+002, 4.297220e+001
9.006729e+002, 4.283878e+001
9.011550e+002, 4.259893e+001
9.016371e+002, 4.275209e+001
9.021193e+002, 4.370702e+001
9.026014e+002, 4.429487e+001
9.030835e+002, 4.411223e+001
9.035656e+002, 4.367590e+001
9.040477e+002, 4.325433e+001
9.045298e+002, 4.286247e+001
9.050120e+002, 4.254833e+001
9.054941e+002, 4.236066e+001
9.059762e+002, 4.212947e+001
9.064583e+002, 4.173450e+001
9.069404e+002, 4.137033e+001
9.074225e+002, 4.116055e+001
9.079047e+002, 4.105402e+001
9.083868e+002, 4.094795e+001
9.088689e+002, 4.084441e+001
9.093510e+002, 4.090811e+001
9.098331e+002, 4.153196e+001
9.103152e+002, 4.189095e+001
9.107974e+002, 4.070710e+001
9.112795e+002, 3.883610e+001
9.117616e+002, 3.779438e+001
9.122437e+002, 3.769364e+001
9.127258e+002, 3.818464e+001
9.132079e+002, 3.910477e+001
9.136901e+002, 3.993602e+001
9.141722e+002, 3.983329e+001
9.146543e+002, 3.901532e+001
9.151364e+002, 3.886312e+001
9.156185e+002, 3.940922e+001
9.161006e+002, 3.960857e+001
9.165828e+002, 3.912666e+001
9.170649e+002, 3.859541e+001
9.175470e+002, 3.858588e+001
9.180291e+002, 3.889582e+001
9.185112e+002, 3.873591e+001
9.189933e+002, 3.770506e+001
9.194755e+002, 3.724588e+001
9.199576e+002, 3.778662e+001
9.204397e+002, 3.828919e+001
9.209218e+002, 3.841940e+001
9.214039e+002, 3.825964e+001
9.218860e+002, 3.777314e+001
9.223682e+002, 3.698699e+001
9.228503e+002, 3.642685e+001
9.233324e+002, 3.619561e+001
9.238145e+002, 3.615665e+001
9.242966e+002, 3.645021e+001
9.247787e+002, 3.676492e+001
9.252609e+002, 3.688993e+001
9.257430e+002, 3.683377e+001
9.262251e+002, 3.659307e+001
9.267072e+002, 3.615727e+001
9.271893e+002, 3.588248e+001
9.276714e+002, 3.616743e+001
9.281536e+002, 3.658147e+001
9.286357e+002, 3.677153e+001
9.291178e+002, 3.673244e+001
9.295999e+002, 3.629496e+001
9.300820e+002, 3.557755e+001
9.305641e+002, 3.527840e+001
9.310463e+002, 3.589689e+001
9.315284e+002, 3.683413e+001
9.320105e+002, 3.713041e+001
9.324926e+002, 3.692714e+001
9.329747e+002, 3.684054e+001
9.334568e+002, 3.688781e+001
9.339390e+002, 3.669735e+001
9.344211e+002, 3.610840e+001
9.349032e+002, 3.548692e+001
9.353853e+002, 3.521172e+001
9.358674e+002, 3.526632e+001
9.363495e+002, 3.567134e+001
9.368317e+002, 3.665632e+001
9.373138e+002, 3.691222e+001
9.377959e+002, 3.595208e+001
9.382780e+002, 3.499847e+001
9.387601e+002, 3.468375e+001
9.392422e+002, 3.481346e+001
9.397244e+002, 3.510413e+001
9.402065e+002, 3.562792e+001
9.406886e+002, 3.588171e+001
9.411707e+002, 3.547707e+001
9.416528e+002, 3.534324e+001
9.421349e+002, 3.606448e+001
9.426171e+002, 3.674578e+001
9.430992e+002, 3.664717e+001
9.435813e+002, 3.598968e+001
9.440634e+002, 3.535808e+001
9.445455e+002, 3.477396e+001
9.450276e+002, 3.456963e+001
9.455098e+002, 3.537117e+001
9.459919e+002, 3.605085e+001
9.464740e+002, 3.571793e+001
9.469561e+002, 3.487951e+001
9.474382e+002, 3.415926e+001
9.479203e+002, 3.369635e+001
9.484025e+002, 3.344679e+001
9.488846e+002, 3.343594e+001
9.493667e+002, 3.350515e+001
9.498488e+002, 3.339055e+001
9.503309e+002, 3.332167e+001
9.508130e+002, 3.386283e+001
9.512952e+002, 3.478291e+001
9.517773e+002, 3.520978e+001
9.522594e+002, 3.487720e+001
9.527415e+002, 3.435696e+001
9.532236e+002, 3.413902e+001
9.537057e+002, 3.419422e+001
9.541878e+002, 3.466361e+001
9.546699e+002, 3.541106e+001
9.551520e+002, 3.534718e+001
9.556342e+002, 3.432355e+001
9.561163e+002, 3.362310e+001
9.565984e+002, 3.398682e+001
9.570805e+002, 3.473821e+001
9.575626e+002, 3.476901e+001
9.580447e+002, 3.409557e+001
9.585269e+002, 3.357864e+001
9.590090e+002, 3.313780e+001
9.594911e+002, 3.329266e+001
9.599732e+002, 3.449308e+001
9.604553e+002, 3.550759e+001
9.609374e+002, 3.521089e+001
9.614196e+002, 3.416621e+001
9.619017e+002, 3.403054e+001
9.623838e+002, 3.535130e+001
9.628659e+002, 3.588281e+001
9.633480e+002, 3.497164e+001
9.638301e+002, 3.414906e+001
9.643123e+002, 3.376001e+001
9.647944e+002, 3.367201e+001
9.652765e+002, 3.389463e+001
9.657586e+002, 3.434042e+001
9.662407e+002, 3.463567e+001
9.667228e+002, 3.465438e+001
9.672050e+002, 3.468582e+001
9.676871e+002, 3.486924e+001
9.681692e+002, 3.499762e+001
9.686513e+002, 3.496730e+001
9.691334e+002, 3.480189e+001
9.696155e+002, 3.451474e+001
9.700977e+002, 3.412477e+001
9.705798e+002, 3.369804e+001
9.710619e+002, 3.305973e+001
9.715440e+002, 3.272653e+001
9.720261e+002, 3.332003e+001
9.725082e+002, 3.415150e+001
9.729904e+002, 3.457423e+001
9.734725e+002, 3.458930e+001
9.739546e+002, 3.425718e+001
9.744367e+002, 3.364888e+001
9.749188e+002, 3.319257e+001
9.754009e+002, 3.342751e+001
9.758831e+002, 3.377958e+001
9.763652e+002, 3.326827e+001
9.768473e+002, 3.235659e+001
9.773294e+002, 3.215936e+001
9.778115e+002, 3.264890e+001
9.782936e+002, 3.290797e+001
9.787758e+002, 3.250273e+001
9.792579e+002, 3.198087e+001
9.797400e+002, 3.197571e+001
9.802221e+002, 3.241821e+001
9.807042e+002, 3.338086e+001
9.811863e+002, 3.470658e+001
9.816685e+002, 3.487948e+001
9.821506e+002, 3.360481e+001
9.826327e+002, 3.248161e+001
9.831148e+002, 3.255880e+001
9.835969e+002, 3.337831e+001
9.840790e+002, 3.421693e+001
9.845612e+002, 3.507894e+001
9.850433e+002, 3.517560e+001
9.855254e+002, 3.435253e+001
9.860075e+002, 3.369802e+001
9.864896e+002, 3.355560e+001
9.869717e+002, 3.340883e+001
9.874539e+002, 3.269433e+001
9.879360e+002, 3.179103e+001
9.884181e+002, 3.202404e+001
9.889002e+002, 3.401711e+001
9.893823e+002, 3.488764e+001
9.898644e+002, 3.411803e+001
9.903466e+002, 3.320948e+001
9.908287e+002, 3.252064e+001
9.913108e+002, 3.198893e+001
9.917929e+002, 3.151759e+001
9.922750e+002, 3.113943e+001
9.927571e+002, 3.106853e+001
9.932393e+002, 3.159765e+001
9.937214e+002, 3.190599e+001
9.942035e+002, 3.182176e+001
9.946856e+002, 3.170913e+001
9.951677e+002, 3.164833e+001
9.956498e+002, 3.166990e+001
9.961320e+002, 3.186186e+001
9.966141e+002, 3.218852e+001
9.970962e+002, 3.239075e+001
9.975783e+002, 3.238012e+001
9.980604e+002, 3.230707e+001
9.985425e+002, 3.223896e+001
9.990247e+002, 3.208775e+001
9.995068e+002, 3.169049e+001
9.999889e+002, 3.123238e+001
1.000471e+003, 3.099164e+001
1.000953e+003, 3.098833e+001
1.001435e+003, 3.100774e+001
1.001917e+003, 3.095108e+001
1.002399e+003, 3.091335e+001
1.002882e+003, 3.104323e+001
1.003364e+003, 3.113159e+001
1.003846e+003, 3.086531e+001
1.004328e+003, 3.044310e+001
1.004810e+003, 3.030304e+001
1.005292e+003, 3.052705e+001
1.005774e+003, 3.075560e+001
1.006256e+003, 3.076332e+001
1.006739e+003, 3.068122e+001
1.007221e+003, 3.057707e+001
1.007703e+003, 3.049511e+001
1.008185e+003, 3.048550e+001
1.008667e+003, 3.055813e+001
1.009149e+003, 3.086518e+001
1.009631e+003, 3.140279e+001
1.010113e+003, 3.150213e+001
1.010595e+003, 3.015122e+001
1.011078e+003, 2.849055e+001
1.011560e+003, 2.848387e+001
1.012042e+003, 2.944733e+001
1.012524e+003, 2.976750e+001
1.013006e+003, 2.937171e+001
1.013488e+003, 2.898133e+001
1.013970e+003, 2.891536e+001
1.014452e+003, 2.904726e+001
1.014935e+003, 2.929467e+001
1.015417e+003, 2.958677e+001
1.015899e+003, 2.968890e+001
1.016381e+003, 2.966557e+001
1.016863e+003, 2.988449e+001
1.017345e+003, 3.036633e+001
1.017827e+003, 3.072376e+001
1.018309e+003, 3.075831e+001
1.018791e+003, 3.056599e+001
1.019274e+003, 3.026420e+001
1.019756e+003, 2.985455e+001
1.020238e+003, 2.925728e+001
1.020720e+003, 2.849064e+001
1.021202e+003, 2.795516e+001
1.021684e+003, 2.771346e+001
1.022166e+003, 2.789535e+001
1.022648e+003, 2.862863e+001
1.023130e+003, 2.957688e+001
1.023613e+003, 3.026209e+001
1.024095e+003, 3.067120e+001
1.024577e+003, 3.042284e+001
1.025059e+003, 2.937638e+001
1.025541e+003, 2.896773e+001
1.026023e+003, 2.962641e+001
1.026505e+003, 3.019653e+001
1.026987e+003, 2.994286e+001
1.027469e+003, 2.917861e+001
1.027952e+003, 2.838927e+001
1.028434e+003, 2.753961e+001
1.028916e+003, 2.755344e+001
1.029398e+003, 2.881067e+001
1.029880e+003, 2.956535e+001
1.030362e+003, 2.934576e+001
1.030844e+003, 2.890873e+001
1.031326e+003, 2.871729e+001
1.031809e+003, 2.865900e+001
1.032291e+003, 2.848049e+001
1.032773e+003, 2.813674e+001
1.033255e+003, 2.806793e+001
1.033737e+003, 2.840233e+001
1.034219e+003, 2.874341e+001
1.034701e+003, 2.910312e+001
1.035183e+003, 2.932763e+001
1.035666e+003, 2.934349e+001
1.036148e+003, 2.913169e+001
1.036630e+003, 2.854439e+001
1.037112e+003, 2.738698e+001
1.037594e+003, 2.696621e+001
1.038076e+003, 2.797059e+001
1.038558e+003, 2.860961e+001
1.039040e+003, 2.845401e+001
1.039522e+003, 2.797824e+001
1.040005e+003, 2.713594e+001
1.040487e+003, 2.629260e+001
1.040969e+003, 2.636498e+001
1.041451e+003, 2.764184e+001
1.041933e+003, 2.830099e+001
1.042415e+003, 2.772058e+001
1.042897e+003, 2.734902e+001
1.043379e+003, 2.781727e+001
1.043861e+003, 2.821050e+001
1.044344e+003, 2.759180e+001
1.044826e+003, 2.659435e+001
1.045308e+003, 2.663712e+001
1.045790e+003, 2.804908e+001
1.046272e+003, 2.876041e+001
1.046754e+003, 2.792779e+001
1.047236e+003, 2.723528e+001
1.047718e+003, 2.719868e+001
1.048201e+003, 2.733108e+001
1.048683e+003, 2.742776e+001
1.049165e+003, 2.739878e+001
1.049647e+003, 2.696993e+001
1.050129e+003, 2.603349e+001
1.050611e+003, 2.568176e+001
1.051093e+003, 2.669617e+001
1.051575e+003, 2.754440e+001
1.052057e+003, 2.774421e+001
1.052540e+003, 2.764747e+001
1.053022e+003, 2.749012e+001
1.053504e+003, 2.723650e+001
1.053986e+003, 2.663973e+001
1.054468e+003, 2.564451e+001
1.054950e+003, 2.520235e+001
1.055432e+003, 2.607018e+001
1.055914e+003, 2.684360e+001
1.056396e+003, 2.685452e+001
1.056879e+003, 2.677998e+001
1.057361e+003, 2.745246e+001
1.057843e+003, 2.826659e+001
1.058325e+003, 2.787488e+001
1.058807e+003, 2.611959e+001
1.059289e+003, 2.505602e+001
1.059771e+003, 2.586515e+001
1.060253e+003, 2.678664e+001
1.060736e+003, 2.735607e+001
1.061218e+003, 2.759179e+001
1.061700e+003, 2.728858e+001
1.062182e+003, 2.677143e+001
1.062664e+003, 2.657865e+001
1.063146e+003, 2.677298e+001
1.063628e+003, 2.693469e+001
1.064110e+003, 2.690576e+001
1.064593e+003, 2.682576e+001
1.065075e+003, 2.669602e+001
1.065557e+003, 2.659241e+001
1.066039e+003, 2.669980e+001
1.066521e+003, 2.680872e+001
1.067003e+003, 2.643474e+001
1.067485e+003, 2.561958e+001
1.067967e+003, 2.526908e+001
1.068449e+003, 2.622019e+001
1.068932e+003, 2.681963e+001
1.069414e+003, 2.567673e+001
1.069896e+003, 2.456522e+001
1.070378e+003, 2.521284e+001
1.070860e+003, 2.652411e+001
1.071342e+003, 2.676391e+001
1.071824e+003, 2.586128e+001
1.072306e+003, 2.508653e+001
1.072788e+003, 2.490026e+001
1.073271e+003, 2.491667e+001
1.073753e+003, 2.524714e+001
1.074235e+003, 2.541187e+001
1.074717e+003, 2.464097e+001
1.075199e+003, 2.375549e+001
1.075681e+003, 2.398333e+001
1.076163e+003, 2.523016e+001
1.076645e+003, 2.640171e+001
1.077127e+003, 2.726326e+001
1.077610e+003, 2.757583e+001
1.078092e+003, 2.670444e+001
1.078574e+003, 2.582345e+001
1.079056e+003, 2.581905e+001
1.079538e+003, 2.619202e+001
1.080020e+003, 2.641762e+001
1.080502e+003, 2.640544e+001
1.080984e+003, 2.609320e+001
1.081467e+003, 2.534556e+001
1.081949e+003, 2.489298e+001
1.082431e+003, 2.556265e+001
1.082913e+003, 2.604445e+001
1.083395e+003, 2.516588e+001
1.083877e+003, 2.396997e+001
1.084359e+003, 2.352436e+001
1.084841e+003, 2.377996e+001
1.085323e+003, 2.434914e+001
1.085806e+003, 2.518283e+001
1.086288e+003, 2.579396e+001
1.086770e+003, 2.581561e+001
1.087252e+003, 2.576273e+001
1.087734e+003, 2.600689e+001
1.088216e+003, 2.621135e+001
1.088698e+003, 2.583465e+001
1.089180e+003, 2.523193e+001
1.089662e+003, 2.538695e+001
1.090145e+003, 2.650627e+001
1.090627e+003, 2.693773e+001
1.091109e+003, 2.518023e+001
1.091591e+003, 2.378564e+001
1.092073e+003, 2.432289e+001
1.092555e+003, 2.518313e+001
1.093037e+003, 2.509135e+001
1.093519e+003, 2.442052e+001
1.094002e+003, 2.376946e+001
1.094484e+003, 2.328563e+001
1.094966e+003, 2.339829e+001
1.095448e+003, 2.501567e+001
1.095930e+003, 2.610517e+001
1.096412e+003, 2.540261e+001
1.096894e+003, 2.461126e+001
1.097376e+003, 2.512844e+001
1.097859e+003, 2.602540e+001
1.098341e+003, 2.576097e+001
1.098823e+003, 2.445471e+001
1.099305e+003, 2.389228e+001
1.099787e+003, 2.496835e+001
1.100269e+003, 2.579073e+001
1.100751e+003, 2.577530e+001
1.101233e+003, 2.551166e+001
1.101715e+003, 2.499495e+001
1.102198e+003, 2.460113e+001
1.102680e+003, 2.492286e+001
1.103162e+003, 2.571524e+001
1.103644e+003, 2.599228e+001
1.104126e+003, 2.549012e+001
1.104608e+003, 2.486478e+001
1.105090e+003, 2.366711e+001
1.105572e+003, 2.310102e+001
1.106054e+003, 2.445586e+001
1.106537e+003, 2.580419e+001
1.107019e+003, 2.513814e+001
1.107501e+003, 2.335476e+001
1.107983e+003, 2.286407e+001
1.108465e+003, 2.414462e+001
1.108947e+003, 2.494890e+001
1.109429e+003, 2.496762e+001
1.109911e+003, 2.465634e+001
1.110394e+003, 2.354384e+001
1.110876e+003, 2.271737e+001
1.111358e+003, 2.311675e+001
1.111840e+003, 2.408271e+001
1.112322e+003, 2.452970e+001
1.112804e+003, 2.441932e+001
1.113286e+003, 2.431594e+001
1.113768e+003, 2.391760e+001
1.114250e+003, 2.404629e+001
1.114733e+003, 2.542400e+001
1.115215e+003, 2.642305e+001
1.115697e+003, 2.619187e+001
1.116179e+003, 2.538710e+001
1.116661e+003, 2.467849e+001
1.117143e+003, 2.406514e+001
1.117625e+003, 2.353613e+001
1.118107e+003, 2.306743e+001
1.118589e+003, 2.275132e+001
1.119072e+003, 2.263898e+001
1.119554e+003, 2.256597e+001
1.120036e+003, 2.238039e+001
1.120518e+003, 2.240506e+001
1.121000e+003, 2.306677e+001
1.121482e+003, 2.404548e+001
1.121964e+003, 2.436348e+001
1.122446e+003, 2.389631e+001
1.122929e+003, 2.349561e+001
1.123411e+003, 2.311344e+001
1.123893e+003, 2.300225e+001
1.124375e+003, 2.333974e+001
1.124857e+003, 2.356224e+001
1.125339e+003, 2.326087e+001
1.125821e+003, 2.273142e+001
1.126303e+003, 2.243018e+001
1.126786e+003, 2.237049e+001
1.127268e+003, 2.298935e+001
1.127750e+003, 2.445513e+001
1.128232e+003, 2.487754e+001
1.128714e+003, 2.383354e+001
1.129196e+003, 2.316433e+001
1.129678e+003, 2.377981e+001
1.130160e+003, 2.466428e+001
1.130642e+003, 2.466812e+001
1.131125e+003, 2.399627e+001
1.131607e+003, 2.318607e+001
1.132089e+003, 2.228338e+001
1.132571e+003, 2.228561e+001
1.133053e+003, 2.321662e+001
1.133535e+003, 2.380100e+001
1.134017e+003, 2.364992e+001
1.134499e+003, 2.341133e+001
1.134981e+003, 2.359152e+001
1.135464e+003, 2.396352e+001
1.135946e+003, 2.419571e+001
1.136428e+003, 2.425813e+001
1.136910e+003, 2.393306e+001
1.137392e+003, 2.331495e+001
1.137874e+003, 2.279838e+001
1.138356e+003, 2.248420e+001
1.138838e+003, 2.253080e+001
1.139321e+003, 2.302103e+001
1.139803e+003, 2.352982e+001
1.140285e+003, 2.357003e+001
1.140767e+003, 2.332600e+001
1.141249e+003, 2.300144e+001
1.141731e+003, 2.271272e+001
1.142213e+003, 2.290418e+001
1.142695e+003, 2.338004e+001
1.143177e+003, 2.326437e+001
1.143660e+003, 2.237426e+001
1.144142e+003, 2.165315e+001
1.144624e+003, 2.182868e+001
1.145106e+003, 2.229683e+001
1.145588e+003, 2.254996e+001
1.146070e+003, 2.262882e+001
1.146552e+003, 2.246357e+001
1.147034e+003, 2.221923e+001
1.147516e+003, 2.221412e+001
1.147999e+003, 2.244099e+001
1.148481e+003, 2.261260e+001
1.148963e+003, 2.259543e+001
1.149445e+003, 2.259017e+001
1.149927e+003, 2.278541e+001
1.150409e+003, 2.296704e+001
1.150891e+003, 2.290174e+001
1.151373e+003, 2.280416e+001
1.151856e+003, 2.298464e+001
1.152338e+003, 2.330911e+001
1.152820e+003, 2.343454e+001
1.153302e+003, 2.328895e+001
1.153784e+003, 2.303999e+001
1.154266e+003, 2.263119e+001
1.154748e+003, 2.228699e+001
1.155230e+003, 2.196515e+001
1.155713e+003, 2.185760e+001
1.156195e+003, 2.232650e+001
1.156677e+003, 2.292137e+001
1.157159e+003, 2.310853e+001
1.157641e+003, 2.287169e+001
1.158123e+003, 2.235779e+001
1.158605e+003, 2.128517e+001
1.159087e+003, 2.056602e+001
1.159569e+003, 2.032578e+001
1.160052e+003, 2.035044e+001
1.160534e+003, 2.062013e+001
1.161016e+003, 2.110237e+001
1.161498e+003, 2.199020e+001
1.161980e+003, 2.294913e+001
1.162462e+003, 2.318989e+001
1.162944e+003, 2.262488e+001
1.163426e+003, 2.229292e+001
1.163908e+003, 2.225240e+001
1.164391e+003, 2.226830e+001
1.164873e+003, 2.227596e+001
1.165355e+003, 2.249108e+001
1.165837e+003, 2.315722e+001
1.166319e+003, 2.366403e+001
1.166801e+003, 2.313947e+001
1.167283e+003, 2.200817e+001
1.167765e+003, 2.227773e+001
1.168247e+003, 2.403147e+001
1.168730e+003, 2.439454e+001
1.169212e+003, 2.319969e+001
1.169694e+003, 2.237022e+001
1.170176e+003, 2.243578e+001
1.170658e+003, 2.275426e+001
1.171140e+003, 2.291671e+001
1.171622e+003, 2.284741e+001
1.172104e+003, 2.222308e+001
1.172587e+003, 2.134365e+001
1.173069e+003, 2.126256e+001
1.173551e+003, 2.182077e+001
1.174033e+003, 2.264348e+001
1.174515e+003, 2.351331e+001
1.174997e+003, 2.365679e+001
1.175479e+003, 2.283666e+001
1.175961e+003, 2.190634e+001
1.176443e+003, 2.149210e+001
1.176926e+003, 2.148680e+001
1.177408e+003, 2.203034e+001
1.177890e+003, 2.269667e+001
1.178372e+003, 2.276449e+001
1.178854e+003, 2.250560e+001
1.179336e+003, 2.249862e+001
1.179818e+003, 2.281700e+001
1.180300e+003, 2.330526e+001
1.180782e+003, 2.395086e+001
1.181265e+003, 2.433215e+001
1.181747e+003, 2.408525e+001
1.182229e+003, 2.361724e+001
1.182711e+003, 2.300976e+001
1.183193e+003, 2.247303e+001
1.183675e+003, 2.227618e+001
1.184157e+003, 2.226247e+001
1.184639e+003, 2.205241e+001
1.185122e+003, 2.161952e+001
1.185604e+003, 2.148911e+001
1.186086e+003, 2.194847e+001
1.186568e+003, 2.244332e+001
1.187050e+003, 2.313151e+001
1.187532e+003, 2.352705e+001
1.188014e+003, 2.324673e+001
1.188496e+003, 2.273013e+001
1.188979e+003, 2.220407e+001
1.189461e+003, 2.181329e+001
1.189943e+003, 2.208017e+001
1.190425e+003, 2.322131e+001
1.190907e+003, 2.372619e+001
1.191389e+003, 2.343558e+001
1.191871e+003, 2.290129e+001
1.192353e+003, 2.206269e+001
1.192835e+003, 2.143065e+001
1.193318e+003, 2.128506e+001
1.193800e+003, 2.139825e+001
1.194282e+003, 2.150545e+001
1.194764e+003, 2.162648e+001
1.195246e+003, 2.180003e+001
1.195728e+003, 2.203315e+001
1.196210e+003, 2.273845e+001
1.196692e+003, 2.387417e+001
1.197174e+003, 2.415630e+001
1.197657e+003, 2.331249e+001
1.198139e+003, 2.253623e+001
1.198621e+003, 2.257830e+001
1.199103e+003, 2.288010e+001
1.199585e+003, 2.265665e+001
1.200067e+003, 2.220704e+001
1.200549e+003, 2.214627e+001
1.201031e+003, 2.232193e+001
1.201514e+003, 2.253891e+001
1.201996e+003, 2.265092e+001
1.202478e+003, 2.209486e+001
1.202960e+003, 2.091217e+001
1.203442e+003, 2.051963e+001
1.203924e+003, 2.211739e+001
1.204406e+003, 2.359143e+001
1.204888e+003, 2.311112e+001
1.205370e+003, 2.209121e+001
1.205853e+003, 2.139781e+001
1.206335e+003, 2.108383e+001
1.206817e+003, 2.145964e+001
1.207299e+003, 2.212531e+001
1.207781e+003, 2.188392e+001
1.208263e+003, 2.040209e+001
1.208745e+003, 1.983944e+001
1.209227e+003, 2.175180e+001
1.209709e+003, 2.307183e+001
1.210192e+003, 2.266524e+001
1.210674e+003, 2.211956e+001
1.211156e+003, 2.220632e+001
1.211638e+003, 2.256441e+001
1.212120e+003, 2.309385e+001
1.212602e+003, 2.353512e+001
1.213084e+003, 2.271699e+001
1.213566e+003, 2.007461e+001
1.214049e+003, 1.915323e+001
1.214531e+003, 2.044418e+001
1.215013e+003, 2.153691e+001
1.215495e+003, 2.199969e+001
1.215977e+003, 2.209996e+001
1.216459e+003, 2.192614e+001
1.216941e+003, 2.173424e+001
1.217423e+003, 2.186422e+001
1.217906e+003, 2.218042e+001
1.218388e+003, 2.223446e+001
1.218870e+003, 2.208901e+001
1.219352e+003, 2.210742e+001
1.219834e+003, 2.224944e+001
1.220316e+003, 2.215543e+001
1.220798e+003, 2.178922e+001
1.221280e+003, 2.149653e+001
1.221762e+003, 2.146474e+001
1.222245e+003, 2.151538e+001
1.222727e+003, 2.140315e+001
1.223209e+003, 2.134410e+001
1.223691e+003, 2.179391e+001
1.224173e+003, 2.228748e+001
1.224655e+003, 2.209973e+001
1.225137e+003, 2.151261e+001
1.225619e+003, 2.116504e+001
1.226101e+003, 2.113829e+001
1.226584e+003, 2.108479e+001
1.227066e+003, 2.084578e+001
1.227548e+003, 2.069328e+001
1.228030e+003, 2.063349e+001
1.228512e+003, 2.079360e+001
1.228994e+003, 2.155007e+001
1.229476e+003, 2.223067e+001
1.229958e+003, 2.225716e+001
1.230441e+003, 2.187385e+001
1.230923e+003, 2.151344e+001
1.231405e+003, 2.117478e+001
1.231887e+003, 2.083152e+001
1.232369e+003, 2.032821e+001
1.232851e+003, 2.035237e+001
1.233333e+003, 2.111442e+001
1.233815e+003, 2.179794e+001
1.234297e+003, 2.220963e+001
1.234780e+003, 2.221656e+001
1.235262e+003, 2.166807e+001
1.235744e+003, 2.087670e+001
1.236226e+003, 2.028646e+001
1.236708e+003, 1.996021e+001
1.237190e+003, 2.030710e+001
1.237672e+003, 2.115391e+001
1.238154e+003, 2.179832e+001
1.238636e+003, 2.216216e+001
1.239119e+003, 2.225060e+001
1.239601e+003, 2.211128e+001
1.240083e+003, 2.206231e+001
1.240565e+003, 2.236187e+001
1.241047e+003, 2.251409e+001
1.241529e+003, 2.180016e+001
1.242011e+003, 2.096335e+001
1.242493e+003, 2.075307e+001
1.242975e+003, 2.083260e+001
1.243458e+003, 2.082226e+001
1.243940e+003, 2.071653e+001
1.244422e+003, 2.048480e+001
1.244904e+003, 2.017665e+001
1.245386e+003, 2.041555e+001
1.245868e+003, 2.196017e+001
1.246350e+003, 2.295328e+001
1.246832e+003, 2.295656e+001
1.247315e+003, 2.252094e+001
1.247797e+003, 2.139529e+001
1.248279e+003, 2.043958e+001
1.248761e+003, 2.042008e+001
1.249243e+003, 2.078691e+001
1.249725e+003, 2.045020e+001
1.250207e+003, 1.949172e+001
1.250689e+003, 1.943136e+001
1.251172e+003, 2.037493e+001
1.251654e+003, 2.118479e+001
1.252136e+003, 2.179712e+001
1.252618e+003, 2.140700e+001
1.253100e+003, 1.978207e+001
1.253582e+003, 1.871029e+001
1.254064e+003, 1.946671e+001
1.254546e+003, 2.092529e+001
1.255028e+003, 2.169136e+001
1.255510e+003, 2.195184e+001
1.255993e+003, 2.185759e+001
1.256475e+003, 2.162334e+001
1.256957e+003, 2.166816e+001
1.257439e+003, 2.192538e+001
1.257921e+003, 2.222891e+001
1.258403e+003, 2.247131e+001
1.258885e+003, 2.233023e+001
1.259367e+003, 2.150537e+001
1.259850e+003, 2.091536e+001
1.260332e+003, 2.112393e+001
1.260814e+003, 2.148671e+001
1.261296e+003, 2.182594e+001
1.261778e+003, 2.207327e+001
1.262260e+003, 2.223021e+001
1.262742e+003, 2.223811e+001
1.263224e+003, 2.199923e+001
1.263707e+003, 2.152887e+001
1.264189e+003, 2.091581e+001
1.264671e+003, 1.996386e+001
1.265153e+003, 1.956773e+001
1.265635e+003, 1.984278e+001
1.266117e+003, 2.018815e+001
1.266599e+003, 2.047244e+001
1.267081e+003, 2.079133e+001
1.267563e+003, 2.118991e+001
1.268046e+003, 2.176625e+001
1.268528e+003, 2.280364e+001
1.269010e+003, 2.379769e+001
1.269492e+003, 2.323985e+001
1.269974e+003, 2.186085e+001
1.270456e+003, 2.166551e+001
1.270938e+003, 2.224557e+001
1.271420e+003, 2.205140e+001
1.271902e+003, 2.111526e+001
1.272385e+003, 2.079135e+001
1.272867e+003, 2.159949e+001
1.273349e+003, 2.235702e+001
1.273831e+003, 2.222410e+001
1.274313e+003, 2.205229e+001
1.274795e+003, 2.241600e+001
1.275277e+003, 2.271746e+001
1.275759e+003, 2.245005e+001
1.276242e+003, 2.198982e+001
1.276724e+003, 2.165442e+001
1.277206e+003, 2.152748e+001
1.277688e+003, 2.188784e+001
1.278170e+003, 2.286073e+001
1.278652e+003, 2.309661e+001
1.279134e+003, 2.231769e+001
1.279616e+003, 2.178678e+001
1.280099e+003, 2.162110e+001
1.280581e+003, 2.190328e+001
1.281063e+003, 2.274755e+001
1.281545e+003, 2.320071e+001
1.282027e+003, 2.242412e+001
1.282509e+003, 2.130706e+001
1.282991e+003, 2.154161e+001
1.283473e+003, 2.247380e+001
1.283955e+003, 2.270891e+001
##END=



