##NAMES=Symplesite
##RRUFFID=R130513
##IDEAL CHEMISTRY=Fe^2+^_3_(As^5+^O_4_)_2_&#183;8H_2_O
##LOCALITY=Mapimi, Durango, Mexico
##OWNER=RRUFF
##SOURCE=Rock Currier
##DESCRIPTION=Dark green thick blades, 2-fold twin around [1 -1 0]
##STATUS=The identification of this mineral has been confirmed only by single crystal X-ray diffraction.
##URL=rruff.info/R130513
8.936163e+001, 0.000000e+000
8.984375e+001, 1.380406e+002
9.032587e+001, 1.384267e+002
9.080798e+001, 1.385293e+002
9.129010e+001, 1.383189e+002
9.177222e+001, 1.378565e+002
9.225433e+001, 1.372644e+002
9.273645e+001, 1.365276e+002
9.321857e+001, 1.354860e+002
9.370068e+001, 1.339802e+002
9.418280e+001, 1.320602e+002
9.466492e+001, 1.298675e+002
9.514703e+001, 1.271022e+002
9.562915e+001, 1.241630e+002
9.611127e+001, 1.222304e+002
9.659338e+001, 1.214362e+002
9.707550e+001, 1.210533e+002
9.755762e+001, 1.202397e+002
9.803973e+001, 1.189840e+002
9.852185e+001, 1.176535e+002
9.900397e+001, 1.162510e+002
9.948608e+001, 1.147610e+002
9.996820e+001, 1.138575e+002
1.004503e+002, 1.137789e+002
1.009324e+002, 1.140022e+002
1.014146e+002, 1.133494e+002
1.018967e+002, 1.115440e+002
1.023788e+002, 1.096358e+002
1.028609e+002, 1.081718e+002
1.033430e+002, 1.073107e+002
1.038251e+002, 1.064379e+002
1.043073e+002, 1.055691e+002
1.047894e+002, 1.046694e+002
1.052715e+002, 1.035173e+002
1.057536e+002, 1.018176e+002
1.062357e+002, 1.001788e+002
1.067178e+002, 9.903760e+001
1.072000e+002, 9.891436e+001
1.076821e+002, 9.854444e+001
1.081642e+002, 9.766909e+001
1.086463e+002, 9.623811e+001
1.091284e+002, 9.500119e+001
1.096105e+002, 9.420037e+001
1.100927e+002, 9.348660e+001
1.105748e+002, 9.254418e+001
1.110569e+002, 9.078629e+001
1.115390e+002, 8.934630e+001
1.120211e+002, 8.865514e+001
1.125032e+002, 8.904216e+001
1.129854e+002, 8.900120e+001
1.134675e+002, 8.803899e+001
1.139496e+002, 8.658773e+001
1.144317e+002, 8.525736e+001
1.149138e+002, 8.395043e+001
1.153959e+002, 8.298264e+001
1.158781e+002, 8.262486e+001
1.163602e+002, 8.336945e+001
1.168423e+002, 8.376315e+001
1.173244e+002, 8.308009e+001
1.178065e+002, 8.163467e+001
1.182886e+002, 8.022716e+001
1.187708e+002, 7.919102e+001
1.192529e+002, 7.832636e+001
1.197350e+002, 7.750237e+001
1.202171e+002, 7.676395e+001
1.206992e+002, 7.595806e+001
1.211813e+002, 7.482580e+001
1.216635e+002, 7.345503e+001
1.221456e+002, 7.236399e+001
1.226277e+002, 7.218723e+001
1.231098e+002, 7.241199e+001
1.235919e+002, 7.235983e+001
1.240740e+002, 7.164356e+001
1.245562e+002, 7.062911e+001
1.250383e+002, 6.960537e+001
1.255204e+002, 6.856819e+001
1.260025e+002, 6.770517e+001
1.264846e+002, 6.735069e+001
1.269667e+002, 6.731882e+001
1.274489e+002, 6.714477e+001
1.279310e+002, 6.653502e+001
1.284131e+002, 6.566244e+001
1.288952e+002, 6.481456e+001
1.293773e+002, 6.397549e+001
1.298594e+002, 6.326479e+001
1.303416e+002, 6.296612e+001
1.308237e+002, 6.301260e+001
1.313058e+002, 6.289675e+001
1.317879e+002, 6.216643e+001
1.322700e+002, 6.098165e+001
1.327521e+002, 6.016906e+001
1.332343e+002, 5.987450e+001
1.337164e+002, 5.982314e+001
1.341985e+002, 5.946221e+001
1.346806e+002, 5.876795e+001
1.351627e+002, 5.807557e+001
1.356448e+002, 5.758950e+001
1.361270e+002, 5.730800e+001
1.366091e+002, 5.718280e+001
1.370912e+002, 5.730256e+001
1.375733e+002, 5.753054e+001
1.380554e+002, 5.739048e+001
1.385375e+002, 5.682057e+001
1.390197e+002, 5.605761e+001
1.395018e+002, 5.520673e+001
1.399839e+002, 5.421198e+001
1.404660e+002, 5.342222e+001
1.409481e+002, 5.296329e+001
1.414302e+002, 5.280310e+001
1.419124e+002, 5.247396e+001
1.423945e+002, 5.190225e+001
1.428766e+002, 5.126612e+001
1.433587e+002, 5.075235e+001
1.438408e+002, 5.044730e+001
1.443229e+002, 5.008687e+001
1.448051e+002, 4.952982e+001
1.452872e+002, 4.868461e+001
1.457693e+002, 4.834599e+001
1.462514e+002, 4.894570e+001
1.467335e+002, 4.977745e+001
1.472156e+002, 4.990571e+001
1.476978e+002, 4.861153e+001
1.481799e+002, 4.750166e+001
1.486620e+002, 4.704887e+001
1.491441e+002, 4.762260e+001
1.496262e+002, 4.785653e+001
1.501083e+002, 4.747866e+001
1.505905e+002, 4.680271e+001
1.510726e+002, 4.637621e+001
1.515547e+002, 4.663060e+001
1.520368e+002, 4.676648e+001
1.525189e+002, 4.652338e+001
1.530010e+002, 4.565641e+001
1.534832e+002, 4.482688e+001
1.539653e+002, 4.400046e+001
1.544474e+002, 4.323493e+001
1.549295e+002, 4.266904e+001
1.554116e+002, 4.258531e+001
1.558937e+002, 4.251237e+001
1.563759e+002, 4.221647e+001
1.568580e+002, 4.127475e+001
1.573401e+002, 4.063569e+001
1.578222e+002, 4.072319e+001
1.583043e+002, 4.132624e+001
1.587864e+002, 4.166681e+001
1.592686e+002, 4.136003e+001
1.597507e+002, 4.082621e+001
1.602328e+002, 4.033143e+001
1.607149e+002, 3.984302e+001
1.611970e+002, 3.949784e+001
1.616791e+002, 3.938807e+001
1.621613e+002, 3.948834e+001
1.626434e+002, 3.962135e+001
1.631255e+002, 3.985975e+001
1.636076e+002, 4.003785e+001
1.640897e+002, 4.000801e+001
1.645718e+002, 3.963109e+001
1.650540e+002, 3.911090e+001
1.655361e+002, 3.845107e+001
1.660182e+002, 3.766219e+001
1.665003e+002, 3.702203e+001
1.669824e+002, 3.672224e+001
1.674645e+002, 3.663836e+001
1.679467e+002, 3.661913e+001
1.684288e+002, 3.658954e+001
1.689109e+002, 3.661421e+001
1.693930e+002, 3.680470e+001
1.698751e+002, 3.717523e+001
1.703572e+002, 3.745193e+001
1.708394e+002, 3.727391e+001
1.713215e+002, 3.689161e+001
1.718036e+002, 3.672955e+001
1.722857e+002, 3.714470e+001
1.727678e+002, 3.777764e+001
1.732499e+002, 3.825030e+001
1.737321e+002, 3.851920e+001
1.742142e+002, 3.881088e+001
1.746963e+002, 3.940505e+001
1.751784e+002, 4.018483e+001
1.756605e+002, 4.087606e+001
1.761426e+002, 4.104129e+001
1.766248e+002, 4.112904e+001
1.771069e+002, 4.180643e+001
1.775890e+002, 4.320895e+001
1.780711e+002, 4.489452e+001
1.785532e+002, 4.645745e+001
1.790353e+002, 4.793166e+001
1.795175e+002, 4.937735e+001
1.799996e+002, 5.069050e+001
1.804817e+002, 5.202449e+001
1.809638e+002, 5.376049e+001
1.814459e+002, 5.603257e+001
1.819280e+002, 5.848512e+001
1.824102e+002, 6.074896e+001
1.828923e+002, 6.279850e+001
1.833744e+002, 6.474367e+001
1.838565e+002, 6.651789e+001
1.843386e+002, 6.821736e+001
1.848207e+002, 7.013608e+001
1.853029e+002, 7.246889e+001
1.857850e+002, 7.478287e+001
1.862671e+002, 7.625638e+001
1.867492e+002, 7.691968e+001
1.872313e+002, 7.756626e+001
1.877134e+002, 7.883279e+001
1.881956e+002, 8.059406e+001
1.886777e+002, 8.216454e+001
1.891598e+002, 8.337877e+001
1.896419e+002, 8.443769e+001
1.901240e+002, 8.582260e+001
1.906061e+002, 8.756658e+001
1.910883e+002, 8.932006e+001
1.915704e+002, 9.088172e+001
1.920525e+002, 9.226417e+001
1.925346e+002, 9.339404e+001
1.930167e+002, 9.409181e+001
1.934988e+002, 9.458082e+001
1.939810e+002, 9.536010e+001
1.944631e+002, 9.636738e+001
1.949452e+002, 9.774268e+001
1.954273e+002, 9.926780e+001
1.959094e+002, 1.009376e+002
1.963915e+002, 1.027338e+002
1.968737e+002, 1.047668e+002
1.973558e+002, 1.068751e+002
1.978379e+002, 1.084534e+002
1.983200e+002, 1.094281e+002
1.988021e+002, 1.102262e+002
1.992842e+002, 1.111589e+002
1.997664e+002, 1.122268e+002
2.002485e+002, 1.134658e+002
2.007306e+002, 1.149834e+002
2.012127e+002, 1.166912e+002
2.016948e+002, 1.180672e+002
2.021769e+002, 1.190371e+002
2.026591e+002, 1.199369e+002
2.031412e+002, 1.211484e+002
2.036233e+002, 1.227529e+002
2.041054e+002, 1.241058e+002
2.045875e+002, 1.250088e+002
2.050696e+002, 1.255169e+002
2.055518e+002, 1.260761e+002
2.060339e+002, 1.266553e+002
2.065160e+002, 1.273451e+002
2.069981e+002, 1.283487e+002
2.074802e+002, 1.297892e+002
2.079623e+002, 1.309055e+002
2.084445e+002, 1.313926e+002
2.089266e+002, 1.312909e+002
2.094087e+002, 1.316087e+002
2.098908e+002, 1.325028e+002
2.103729e+002, 1.335243e+002
2.108550e+002, 1.341692e+002
2.113372e+002, 1.343398e+002
2.118193e+002, 1.344573e+002
2.123014e+002, 1.345660e+002
2.127835e+002, 1.346624e+002
2.132656e+002, 1.350614e+002
2.137477e+002, 1.359165e+002
2.142299e+002, 1.368573e+002
2.147120e+002, 1.373713e+002
2.151941e+002, 1.372404e+002
2.156762e+002, 1.373172e+002
2.161583e+002, 1.379358e+002
2.166404e+002, 1.391410e+002
2.171226e+002, 1.398535e+002
2.176047e+002, 1.398547e+002
2.180868e+002, 1.396251e+002
2.185689e+002, 1.397661e+002
2.190510e+002, 1.404342e+002
2.195331e+002, 1.411058e+002
2.200153e+002, 1.416440e+002
2.204974e+002, 1.420326e+002
2.209795e+002, 1.425267e+002
2.214616e+002, 1.432128e+002
2.219437e+002, 1.439238e+002
2.224258e+002, 1.444824e+002
2.229080e+002, 1.449179e+002
2.233901e+002, 1.451253e+002
2.238722e+002, 1.449574e+002
2.243543e+002, 1.443147e+002
2.248364e+002, 1.441804e+002
2.253185e+002, 1.448101e+002
2.258007e+002, 1.457037e+002
2.262828e+002, 1.462120e+002
2.267649e+002, 1.461032e+002
2.272470e+002, 1.460526e+002
2.277291e+002, 1.462721e+002
2.282112e+002, 1.468183e+002
2.286934e+002, 1.472037e+002
2.291755e+002, 1.474176e+002
2.296576e+002, 1.474803e+002
2.301397e+002, 1.474006e+002
2.306218e+002, 1.471102e+002
2.311039e+002, 1.468003e+002
2.315861e+002, 1.464938e+002
2.320682e+002, 1.461636e+002
2.325503e+002, 1.460375e+002
2.330324e+002, 1.462746e+002
2.335145e+002, 1.465887e+002
2.339966e+002, 1.465903e+002
2.344788e+002, 1.460600e+002
2.349609e+002, 1.456208e+002
2.354430e+002, 1.454947e+002
2.359251e+002, 1.457656e+002
2.364072e+002, 1.457373e+002
2.368893e+002, 1.452097e+002
2.373715e+002, 1.445458e+002
2.378536e+002, 1.442357e+002
2.383357e+002, 1.445727e+002
2.388178e+002, 1.447386e+002
2.392999e+002, 1.445198e+002
2.397820e+002, 1.438875e+002
2.402642e+002, 1.430577e+002
2.407463e+002, 1.418107e+002
2.412284e+002, 1.405445e+002
2.417105e+002, 1.397637e+002
2.421926e+002, 1.396657e+002
2.426747e+002, 1.396923e+002
2.431569e+002, 1.397633e+002
2.436390e+002, 1.399052e+002
2.441211e+002, 1.398587e+002
2.446032e+002, 1.395968e+002
2.450853e+002, 1.391724e+002
2.455674e+002, 1.386217e+002
2.460496e+002, 1.378314e+002
2.465317e+002, 1.371299e+002
2.470138e+002, 1.366252e+002
2.474959e+002, 1.363448e+002
2.479780e+002, 1.359345e+002
2.484601e+002, 1.353087e+002
2.489423e+002, 1.346402e+002
2.494244e+002, 1.341217e+002
2.499065e+002, 1.338098e+002
2.503886e+002, 1.335445e+002
2.508707e+002, 1.333074e+002
2.513528e+002, 1.331044e+002
2.518350e+002, 1.328621e+002
2.523171e+002, 1.325631e+002
2.527992e+002, 1.322468e+002
2.532813e+002, 1.319283e+002
2.537634e+002, 1.315251e+002
2.542455e+002, 1.313078e+002
2.547277e+002, 1.313985e+002
2.552098e+002, 1.318038e+002
2.556919e+002, 1.319954e+002
2.561740e+002, 1.318310e+002
2.566561e+002, 1.316253e+002
2.571382e+002, 1.317282e+002
2.576204e+002, 1.323585e+002
2.581025e+002, 1.327512e+002
2.585846e+002, 1.326659e+002
2.590667e+002, 1.321353e+002
2.595488e+002, 1.319019e+002
2.600309e+002, 1.321171e+002
2.605131e+002, 1.324165e+002
2.609952e+002, 1.324660e+002
2.614773e+002, 1.321737e+002
2.619594e+002, 1.318922e+002
2.624415e+002, 1.316651e+002
2.629236e+002, 1.314946e+002
2.634058e+002, 1.314340e+002
2.638879e+002, 1.315491e+002
2.643700e+002, 1.316647e+002
2.648521e+002, 1.316865e+002
2.653342e+002, 1.316770e+002
2.658163e+002, 1.313306e+002
2.662985e+002, 1.304452e+002
2.667806e+002, 1.291720e+002
2.672627e+002, 1.284473e+002
2.677448e+002, 1.285336e+002
2.682269e+002, 1.286242e+002
2.687090e+002, 1.280654e+002
2.691912e+002, 1.266708e+002
2.696733e+002, 1.253966e+002
2.701554e+002, 1.243786e+002
2.706375e+002, 1.235539e+002
2.711196e+002, 1.226709e+002
2.716017e+002, 1.216492e+002
2.720839e+002, 1.207900e+002
2.725660e+002, 1.204497e+002
2.730481e+002, 1.207671e+002
2.735302e+002, 1.206579e+002
2.740123e+002, 1.199296e+002
2.744944e+002, 1.187666e+002
2.749766e+002, 1.176544e+002
2.754587e+002, 1.165827e+002
2.759408e+002, 1.156129e+002
2.764229e+002, 1.148297e+002
2.769050e+002, 1.142438e+002
2.773871e+002, 1.136930e+002
2.778693e+002, 1.132223e+002
2.783514e+002, 1.127188e+002
2.788335e+002, 1.118014e+002
2.793156e+002, 1.103541e+002
2.797977e+002, 1.091315e+002
2.802798e+002, 1.087537e+002
2.807620e+002, 1.092307e+002
2.812441e+002, 1.091176e+002
2.817262e+002, 1.081975e+002
2.822083e+002, 1.069278e+002
2.826904e+002, 1.061417e+002
2.831725e+002, 1.058687e+002
2.836547e+002, 1.056393e+002
2.841368e+002, 1.052110e+002
2.846189e+002, 1.046063e+002
2.851010e+002, 1.040527e+002
2.855831e+002, 1.035610e+002
2.860652e+002, 1.031036e+002
2.865474e+002, 1.027415e+002
2.870295e+002, 1.024677e+002
2.875116e+002, 1.019263e+002
2.879937e+002, 1.006848e+002
2.884758e+002, 9.893428e+001
2.889579e+002, 9.793961e+001
2.894401e+002, 9.777483e+001
2.899222e+002, 9.790881e+001
2.904043e+002, 9.774014e+001
2.908864e+002, 9.729716e+001
2.913685e+002, 9.680504e+001
2.918506e+002, 9.639719e+001
2.923328e+002, 9.599890e+001
2.928149e+002, 9.536997e+001
2.932970e+002, 9.449482e+001
2.937791e+002, 9.354700e+001
2.942612e+002, 9.263870e+001
2.947433e+002, 9.179278e+001
2.952255e+002, 9.112524e+001
2.957076e+002, 9.074886e+001
2.961897e+002, 9.053745e+001
2.966718e+002, 9.025403e+001
2.971539e+002, 8.990183e+001
2.976360e+002, 8.955607e+001
2.981182e+002, 8.935361e+001
2.986003e+002, 8.921210e+001
2.990824e+002, 8.890880e+001
2.995645e+002, 8.832085e+001
3.000466e+002, 8.760954e+001
3.005287e+002, 8.698495e+001
3.010109e+002, 8.644250e+001
3.014930e+002, 8.592735e+001
3.019751e+002, 8.543032e+001
3.024572e+002, 8.493283e+001
3.029393e+002, 8.442794e+001
3.034214e+002, 8.394304e+001
3.039036e+002, 8.338632e+001
3.043857e+002, 8.252656e+001
3.048678e+002, 8.147038e+001
3.053499e+002, 8.058979e+001
3.058320e+002, 8.033243e+001
3.063141e+002, 8.030188e+001
3.067963e+002, 8.001387e+001
3.072784e+002, 7.933711e+001
3.077605e+002, 7.853954e+001
3.082426e+002, 7.770200e+001
3.087247e+002, 7.690087e+001
3.092068e+002, 7.632021e+001
3.096890e+002, 7.626073e+001
3.101711e+002, 7.634074e+001
3.106532e+002, 7.622256e+001
3.111353e+002, 7.584058e+001
3.116174e+002, 7.540550e+001
3.120995e+002, 7.494074e+001
3.125817e+002, 7.453032e+001
3.130638e+002, 7.430225e+001
3.135459e+002, 7.460078e+001
3.140280e+002, 7.487739e+001
3.145101e+002, 7.472643e+001
3.149922e+002, 7.409644e+001
3.154744e+002, 7.350362e+001
3.159565e+002, 7.317419e+001
3.164386e+002, 7.302609e+001
3.169207e+002, 7.296870e+001
3.174028e+002, 7.307875e+001
3.178849e+002, 7.317768e+001
3.183671e+002, 7.320794e+001
3.188492e+002, 7.316851e+001
3.193313e+002, 7.305949e+001
3.198134e+002, 7.274024e+001
3.202955e+002, 7.242350e+001
3.207776e+002, 7.228140e+001
3.212598e+002, 7.255666e+001
3.217419e+002, 7.278730e+001
3.222240e+002, 7.288602e+001
3.227061e+002, 7.285622e+001
3.231882e+002, 7.272332e+001
3.236703e+002, 7.227502e+001
3.241525e+002, 7.187204e+001
3.246346e+002, 7.172042e+001
3.251167e+002, 7.203310e+001
3.255988e+002, 7.233169e+001
3.260809e+002, 7.259734e+001
3.265630e+002, 7.282217e+001
3.270452e+002, 7.298449e+001
3.275273e+002, 7.286341e+001
3.280094e+002, 7.286926e+001
3.284915e+002, 7.322129e+001
3.289736e+002, 7.432539e+001
3.294557e+002, 7.485622e+001
3.299379e+002, 7.440884e+001
3.304200e+002, 7.351488e+001
3.309021e+002, 7.303924e+001
3.313842e+002, 7.328709e+001
3.318663e+002, 7.353864e+001
3.323484e+002, 7.355655e+001
3.328306e+002, 7.326494e+001
3.333127e+002, 7.325146e+001
3.337948e+002, 7.370894e+001
3.342769e+002, 7.427190e+001
3.347590e+002, 7.450186e+001
3.352411e+002, 7.420454e+001
3.357233e+002, 7.401750e+001
3.362054e+002, 7.409801e+001
3.366875e+002, 7.442941e+001
3.371696e+002, 7.473154e+001
3.376517e+002, 7.502950e+001
3.381339e+002, 7.525278e+001
3.386160e+002, 7.526540e+001
3.390981e+002, 7.497018e+001
3.395802e+002, 7.498743e+001
3.400623e+002, 7.552857e+001
3.405444e+002, 7.638740e+001
3.410266e+002, 7.678400e+001
3.415087e+002, 7.663439e+001
3.419908e+002, 7.645006e+001
3.424729e+002, 7.661248e+001
3.429550e+002, 7.711642e+001
3.434371e+002, 7.741029e+001
3.439193e+002, 7.739290e+001
3.444014e+002, 7.724946e+001
3.448835e+002, 7.730901e+001
3.453656e+002, 7.757051e+001
3.458477e+002, 7.789314e+001
3.463298e+002, 7.822082e+001
3.468120e+002, 7.855696e+001
3.472941e+002, 7.892912e+001
3.477762e+002, 7.936055e+001
3.482583e+002, 7.973033e+001
3.487404e+002, 7.979379e+001
3.492225e+002, 7.963830e+001
3.497047e+002, 7.964133e+001
3.501868e+002, 8.013378e+001
3.506689e+002, 8.079044e+001
3.511510e+002, 8.094267e+001
3.516331e+002, 8.059940e+001
3.521152e+002, 8.027782e+001
3.525974e+002, 8.040816e+001
3.530795e+002, 8.086368e+001
3.535616e+002, 8.144698e+001
3.540437e+002, 8.228328e+001
3.545258e+002, 8.299223e+001
3.550079e+002, 8.299236e+001
3.554901e+002, 8.244716e+001
3.559722e+002, 8.209013e+001
3.564543e+002, 8.251768e+001
3.569364e+002, 8.329463e+001
3.574185e+002, 8.398454e+001
3.579006e+002, 8.448740e+001
3.583828e+002, 8.495276e+001
3.588649e+002, 8.552541e+001
3.593470e+002, 8.613074e+001
3.598291e+002, 8.662296e+001
3.603112e+002, 8.680434e+001
3.607933e+002, 8.695338e+001
3.612755e+002, 8.723023e+001
3.617576e+002, 8.765626e+001
3.622397e+002, 8.815840e+001
3.627218e+002, 8.879081e+001
3.632039e+002, 8.945460e+001
3.636860e+002, 9.003954e+001
3.641682e+002, 9.045405e+001
3.646503e+002, 9.084984e+001
3.651324e+002, 9.128905e+001
3.656145e+002, 9.177148e+001
3.660966e+002, 9.216664e+001
3.665787e+002, 9.228442e+001
3.670609e+002, 9.241417e+001
3.675430e+002, 9.274149e+001
3.680251e+002, 9.353401e+001
3.685072e+002, 9.423165e+001
3.689893e+002, 9.478506e+001
3.694714e+002, 9.521273e+001
3.699536e+002, 9.554337e+001
3.704357e+002, 9.559776e+001
3.709178e+002, 9.574707e+001
3.713999e+002, 9.616258e+001
3.718820e+002, 9.700317e+001
3.723641e+002, 9.770953e+001
3.728463e+002, 9.825789e+001
3.733284e+002, 9.867996e+001
3.738105e+002, 9.903068e+001
3.742926e+002, 9.932162e+001
3.747747e+002, 9.950311e+001
3.752568e+002, 9.947894e+001
3.757390e+002, 9.924374e+001
3.762211e+002, 9.943504e+001
3.767032e+002, 1.002413e+002
3.771853e+002, 1.010824e+002
3.776674e+002, 1.013492e+002
3.781495e+002, 1.009701e+002
3.786317e+002, 1.006499e+002
3.791138e+002, 1.005217e+002
3.795959e+002, 1.005406e+002
3.800780e+002, 1.005861e+002
3.805601e+002, 1.006625e+002
3.810422e+002, 1.007224e+002
3.815244e+002, 1.007240e+002
3.820065e+002, 1.006786e+002
3.824886e+002, 1.006676e+002
3.829707e+002, 1.007282e+002
3.834528e+002, 1.007445e+002
3.839349e+002, 1.005194e+002
3.844171e+002, 1.000848e+002
3.848992e+002, 9.962154e+001
3.853813e+002, 9.912309e+001
3.858634e+002, 9.867657e+001
3.863455e+002, 9.847330e+001
3.868276e+002, 9.852876e+001
3.873098e+002, 9.860374e+001
3.877919e+002, 9.860720e+001
3.882740e+002, 9.846885e+001
3.887561e+002, 9.805508e+001
3.892382e+002, 9.708753e+001
3.897203e+002, 9.605254e+001
3.902025e+002, 9.539739e+001
3.906846e+002, 9.505769e+001
3.911667e+002, 9.471640e+001
3.916488e+002, 9.419758e+001
3.921309e+002, 9.360418e+001
3.926130e+002, 9.303172e+001
3.930952e+002, 9.255272e+001
3.935773e+002, 9.199376e+001
3.940594e+002, 9.116338e+001
3.945415e+002, 9.021883e+001
3.950236e+002, 8.945149e+001
3.955057e+002, 8.899391e+001
3.959879e+002, 8.869320e+001
3.964700e+002, 8.854420e+001
3.969521e+002, 8.858448e+001
3.974342e+002, 8.852341e+001
3.979163e+002, 8.827482e+001
3.983984e+002, 8.792612e+001
3.988806e+002, 8.755685e+001
3.993627e+002, 8.726805e+001
3.998448e+002, 8.684457e+001
4.003269e+002, 8.614485e+001
4.008090e+002, 8.523019e+001
4.012911e+002, 8.459176e+001
4.017733e+002, 8.432564e+001
4.022554e+002, 8.421352e+001
4.027375e+002, 8.417857e+001
4.032196e+002, 8.433980e+001
4.037017e+002, 8.426160e+001
4.041838e+002, 8.385359e+001
4.046660e+002, 8.327079e+001
4.051481e+002, 8.278957e+001
4.056302e+002, 8.239352e+001
4.061123e+002, 8.215493e+001
4.065944e+002, 8.217709e+001
4.070765e+002, 8.243831e+001
4.075587e+002, 8.243764e+001
4.080408e+002, 8.212896e+001
4.085229e+002, 8.173452e+001
4.090050e+002, 8.144308e+001
4.094871e+002, 8.125695e+001
4.099692e+002, 8.119997e+001
4.104514e+002, 8.130190e+001
4.109335e+002, 8.150457e+001
4.114156e+002, 8.171183e+001
4.118977e+002, 8.191968e+001
4.123798e+002, 8.210752e+001
4.128619e+002, 8.224429e+001
4.133441e+002, 8.235243e+001
4.138262e+002, 8.245670e+001
4.143083e+002, 8.254607e+001
4.147904e+002, 8.270638e+001
4.152725e+002, 8.310217e+001
4.157546e+002, 8.362984e+001
4.162368e+002, 8.408401e+001
4.167189e+002, 8.440311e+001
4.172010e+002, 8.458533e+001
4.176831e+002, 8.451420e+001
4.181652e+002, 8.421706e+001
4.186473e+002, 8.409982e+001
4.191295e+002, 8.459709e+001
4.196116e+002, 8.526731e+001
4.200937e+002, 8.569743e+001
4.205758e+002, 8.557221e+001
4.210579e+002, 8.551615e+001
4.215400e+002, 8.576069e+001
4.220222e+002, 8.622476e+001
4.225043e+002, 8.671526e+001
4.229864e+002, 8.717645e+001
4.234685e+002, 8.766276e+001
4.239506e+002, 8.820959e+001
4.244327e+002, 8.884072e+001
4.249149e+002, 8.945278e+001
4.253970e+002, 9.015357e+001
4.258791e+002, 9.077322e+001
4.263612e+002, 9.112214e+001
4.268433e+002, 9.088186e+001
4.273254e+002, 9.088583e+001
4.278076e+002, 9.137249e+001
4.282897e+002, 9.224747e+001
4.287718e+002, 9.277507e+001
4.292539e+002, 9.278300e+001
4.297360e+002, 9.277695e+001
4.302181e+002, 9.309342e+001
4.307003e+002, 9.379675e+001
4.311824e+002, 9.436674e+001
4.316645e+002, 9.472740e+001
4.321466e+002, 9.503886e+001
4.326287e+002, 9.562879e+001
4.331108e+002, 9.650051e+001
4.335930e+002, 9.725728e+001
4.340751e+002, 9.768862e+001
4.345572e+002, 9.789832e+001
4.350393e+002, 9.822998e+001
4.355214e+002, 9.868536e+001
4.360035e+002, 9.917442e+001
4.364857e+002, 9.961163e+001
4.369678e+002, 1.000159e+002
4.374499e+002, 1.004634e+002
4.379320e+002, 1.010221e+002
4.384141e+002, 1.015239e+002
4.388962e+002, 1.016398e+002
4.393784e+002, 1.015199e+002
4.398605e+002, 1.016066e+002
4.403426e+002, 1.023031e+002
4.408247e+002, 1.032006e+002
4.413068e+002, 1.040105e+002
4.417889e+002, 1.047046e+002
4.422711e+002, 1.052505e+002
4.427532e+002, 1.055487e+002
4.432353e+002, 1.057216e+002
4.437174e+002, 1.058963e+002
4.441995e+002, 1.061275e+002
4.446816e+002, 1.063440e+002
4.451638e+002, 1.065051e+002
4.456459e+002, 1.066275e+002
4.461280e+002, 1.067952e+002
4.466101e+002, 1.071095e+002
4.470922e+002, 1.073977e+002
4.475743e+002, 1.075768e+002
4.480565e+002, 1.075901e+002
4.485386e+002, 1.076180e+002
4.490207e+002, 1.075023e+002
4.495028e+002, 1.075012e+002
4.499849e+002, 1.080446e+002
4.504670e+002, 1.095868e+002
4.509492e+002, 1.106320e+002
4.514313e+002, 1.106518e+002
4.519134e+002, 1.098442e+002
4.523955e+002, 1.097102e+002
4.528776e+002, 1.104112e+002
4.533597e+002, 1.112361e+002
4.538419e+002, 1.116167e+002
4.543240e+002, 1.115676e+002
4.548061e+002, 1.118367e+002
4.552882e+002, 1.125249e+002
4.557703e+002, 1.134393e+002
4.562524e+002, 1.143311e+002
4.567346e+002, 1.152057e+002
4.572167e+002, 1.160149e+002
4.576988e+002, 1.167505e+002
4.581809e+002, 1.174159e+002
4.586630e+002, 1.179881e+002
4.591451e+002, 1.184702e+002
4.596273e+002, 1.190095e+002
4.601094e+002, 1.196781e+002
4.605915e+002, 1.204776e+002
4.610736e+002, 1.214420e+002
4.615557e+002, 1.226901e+002
4.620378e+002, 1.238791e+002
4.625200e+002, 1.246196e+002
4.630021e+002, 1.251592e+002
4.634842e+002, 1.259645e+002
4.639663e+002, 1.274772e+002
4.644484e+002, 1.290798e+002
4.649305e+002, 1.304394e+002
4.654127e+002, 1.315244e+002
4.658948e+002, 1.326628e+002
4.663769e+002, 1.339595e+002
4.668590e+002, 1.353015e+002
4.673411e+002, 1.366007e+002
4.678232e+002, 1.377276e+002
4.683054e+002, 1.390052e+002
4.687875e+002, 1.404628e+002
4.692696e+002, 1.420592e+002
4.697517e+002, 1.437375e+002
4.702338e+002, 1.456046e+002
4.707159e+002, 1.473311e+002
4.711981e+002, 1.487853e+002
4.716802e+002, 1.499589e+002
4.721623e+002, 1.510986e+002
4.726444e+002, 1.522375e+002
4.731265e+002, 1.532163e+002
4.736086e+002, 1.538102e+002
4.740908e+002, 1.540241e+002
4.745729e+002, 1.542049e+002
4.750550e+002, 1.544694e+002
4.755371e+002, 1.546431e+002
4.760192e+002, 1.544577e+002
4.765013e+002, 1.539035e+002
4.769835e+002, 1.529433e+002
4.774656e+002, 1.514531e+002
4.779477e+002, 1.495733e+002
4.784298e+002, 1.474004e+002
4.789119e+002, 1.449286e+002
4.793940e+002, 1.425916e+002
4.798762e+002, 1.409607e+002
4.803583e+002, 1.395961e+002
4.808404e+002, 1.379010e+002
4.813225e+002, 1.354831e+002
4.818046e+002, 1.329840e+002
4.822867e+002, 1.306939e+002
4.827689e+002, 1.285774e+002
4.832510e+002, 1.265406e+002
4.837331e+002, 1.243917e+002
4.842152e+002, 1.224520e+002
4.846973e+002, 1.209599e+002
4.851794e+002, 1.200495e+002
4.856616e+002, 1.189270e+002
4.861437e+002, 1.170878e+002
4.866258e+002, 1.152795e+002
4.871079e+002, 1.141016e+002
4.875900e+002, 1.140983e+002
4.880721e+002, 1.137415e+002
4.885543e+002, 1.127524e+002
4.890364e+002, 1.113671e+002
4.895185e+002, 1.102523e+002
4.900006e+002, 1.094356e+002
4.904827e+002, 1.088284e+002
4.909648e+002, 1.084900e+002
4.914470e+002, 1.083960e+002
4.919291e+002, 1.080495e+002
4.924112e+002, 1.074151e+002
4.928933e+002, 1.067066e+002
4.933754e+002, 1.061331e+002
4.938575e+002, 1.056723e+002
4.943397e+002, 1.052154e+002
4.948218e+002, 1.047051e+002
4.953039e+002, 1.042660e+002
4.957860e+002, 1.041296e+002
4.962681e+002, 1.042303e+002
4.967502e+002, 1.043418e+002
4.972324e+002, 1.043612e+002
4.977145e+002, 1.043246e+002
4.981966e+002, 1.042597e+002
4.986787e+002, 1.041673e+002
4.991608e+002, 1.040549e+002
4.996429e+002, 1.038071e+002
5.001251e+002, 1.036010e+002
5.006072e+002, 1.035944e+002
5.010893e+002, 1.039796e+002
5.015714e+002, 1.043467e+002
5.020535e+002, 1.045466e+002
5.025356e+002, 1.046691e+002
5.030178e+002, 1.049240e+002
5.034999e+002, 1.057236e+002
5.039820e+002, 1.062240e+002
5.044641e+002, 1.060954e+002
5.049462e+002, 1.053045e+002
5.054283e+002, 1.048110e+002
5.059105e+002, 1.046462e+002
5.063926e+002, 1.047416e+002
5.068747e+002, 1.051393e+002
5.073568e+002, 1.059181e+002
5.078389e+002, 1.064579e+002
5.083210e+002, 1.066790e+002
5.088032e+002, 1.066659e+002
5.092853e+002, 1.064644e+002
5.097674e+002, 1.060918e+002
5.102495e+002, 1.058432e+002
5.107316e+002, 1.058351e+002
5.112137e+002, 1.060302e+002
5.116959e+002, 1.064923e+002
5.121780e+002, 1.071824e+002
5.126601e+002, 1.076607e+002
5.131422e+002, 1.074352e+002
5.136243e+002, 1.068729e+002
5.141064e+002, 1.064386e+002
5.145886e+002, 1.062322e+002
5.150707e+002, 1.060892e+002
5.155528e+002, 1.059130e+002
5.160349e+002, 1.057370e+002
5.165170e+002, 1.056063e+002
5.169991e+002, 1.057570e+002
5.174813e+002, 1.057346e+002
5.179634e+002, 1.052654e+002
5.184455e+002, 1.044184e+002
5.189276e+002, 1.037623e+002
5.194097e+002, 1.036451e+002
5.198918e+002, 1.034884e+002
5.203740e+002, 1.030412e+002
5.208561e+002, 1.021749e+002
5.213382e+002, 1.014221e+002
5.218203e+002, 1.007731e+002
5.223024e+002, 1.002453e+002
5.227845e+002, 9.990247e+001
5.232667e+002, 9.979921e+001
5.237488e+002, 9.954913e+001
5.242309e+002, 9.903153e+001
5.247130e+002, 9.836464e+001
5.251951e+002, 9.787972e+001
5.256772e+002, 9.756917e+001
5.261594e+002, 9.717512e+001
5.266415e+002, 9.649890e+001
5.271236e+002, 9.563919e+001
5.276057e+002, 9.472898e+001
5.280878e+002, 9.377274e+001
5.285699e+002, 9.306484e+001
5.290521e+002, 9.315102e+001
5.295342e+002, 9.354084e+001
5.300163e+002, 9.356786e+001
5.304984e+002, 9.291549e+001
5.309805e+002, 9.213374e+001
5.314626e+002, 9.144199e+001
5.319448e+002, 9.084579e+001
5.324269e+002, 9.035789e+001
5.329090e+002, 9.011598e+001
5.333911e+002, 8.984520e+001
5.338732e+002, 8.940195e+001
5.343553e+002, 8.877635e+001
5.348375e+002, 8.828513e+001
5.353196e+002, 8.803422e+001
5.358017e+002, 8.782124e+001
5.362838e+002, 8.752800e+001
5.367659e+002, 8.709469e+001
5.372480e+002, 8.674085e+001
5.377302e+002, 8.648790e+001
5.382123e+002, 8.628664e+001
5.386944e+002, 8.606403e+001
5.391765e+002, 8.581416e+001
5.396586e+002, 8.562461e+001
5.401407e+002, 8.558910e+001
5.406229e+002, 8.557269e+001
5.411050e+002, 8.520557e+001
5.415871e+002, 8.451782e+001
5.420692e+002, 8.380058e+001
5.425513e+002, 8.323948e+001
5.430334e+002, 8.275691e+001
5.435156e+002, 8.220622e+001
5.439977e+002, 8.157152e+001
5.444798e+002, 8.102890e+001
5.449619e+002, 8.080436e+001
5.454440e+002, 8.070189e+001
5.459261e+002, 8.049616e+001
5.464083e+002, 7.996711e+001
5.468904e+002, 7.955490e+001
5.473725e+002, 7.951988e+001
5.478546e+002, 7.969919e+001
5.483367e+002, 7.974500e+001
5.488188e+002, 7.952498e+001
5.493010e+002, 7.924787e+001
5.497831e+002, 7.897869e+001
5.502652e+002, 7.871528e+001
5.507473e+002, 7.828703e+001
5.512294e+002, 7.750349e+001
5.517115e+002, 7.687729e+001
5.521937e+002, 7.685901e+001
5.526758e+002, 7.756065e+001
5.531579e+002, 7.776550e+001
5.536400e+002, 7.733918e+001
5.541221e+002, 7.665067e+001
5.546042e+002, 7.618823e+001
5.550864e+002, 7.591231e+001
5.555685e+002, 7.556672e+001
5.560506e+002, 7.505152e+001
5.565327e+002, 7.446530e+001
5.570148e+002, 7.387338e+001
5.574969e+002, 7.331138e+001
5.579791e+002, 7.291426e+001
5.584612e+002, 7.301450e+001
5.589433e+002, 7.313799e+001
5.594254e+002, 7.286662e+001
5.599075e+002, 7.216639e+001
5.603896e+002, 7.140125e+001
5.608718e+002, 7.054420e+001
5.613539e+002, 6.979429e+001
5.618360e+002, 6.931704e+001
5.623181e+002, 6.946611e+001
5.628002e+002, 6.938110e+001
5.632823e+002, 6.881906e+001
5.637645e+002, 6.808765e+001
5.642466e+002, 6.769802e+001
5.647287e+002, 6.790710e+001
5.652108e+002, 6.787981e+001
5.656929e+002, 6.735751e+001
5.661750e+002, 6.646337e+001
5.666572e+002, 6.569421e+001
5.671393e+002, 6.505004e+001
5.676214e+002, 6.456021e+001
5.681035e+002, 6.433540e+001
5.685856e+002, 6.428838e+001
5.690677e+002, 6.403688e+001
5.695499e+002, 6.355724e+001
5.700320e+002, 6.307236e+001
5.705141e+002, 6.291650e+001
5.709962e+002, 6.286839e+001
5.714783e+002, 6.252242e+001
5.719604e+002, 6.159059e+001
5.724426e+002, 6.072947e+001
5.729247e+002, 6.045314e+001
5.734068e+002, 6.052249e+001
5.738889e+002, 6.050294e+001
5.743710e+002, 6.013520e+001
5.748531e+002, 5.977748e+001
5.753353e+002, 5.960337e+001
5.758174e+002, 5.959417e+001
5.762995e+002, 5.942068e+001
5.767816e+002, 5.898214e+001
5.772637e+002, 5.849342e+001
5.777458e+002, 5.803654e+001
5.782280e+002, 5.761665e+001
5.787101e+002, 5.720719e+001
5.791922e+002, 5.679535e+001
5.796743e+002, 5.642154e+001
5.801564e+002, 5.613719e+001
5.806385e+002, 5.593956e+001
5.811207e+002, 5.576928e+001
5.816028e+002, 5.562706e+001
5.820849e+002, 5.548570e+001
5.825670e+002, 5.529828e+001
5.830491e+002, 5.507745e+001
5.835313e+002, 5.485455e+001
5.840134e+002, 5.466059e+001
5.844955e+002, 5.446220e+001
5.849776e+002, 5.418808e+001
5.854597e+002, 5.386351e+001
5.859418e+002, 5.362973e+001
5.864240e+002, 5.369026e+001
5.869061e+002, 5.375625e+001
5.873882e+002, 5.364601e+001
5.878703e+002, 5.329633e+001
5.883524e+002, 5.294098e+001
5.888345e+002, 5.257780e+001
5.893167e+002, 5.223850e+001
5.897988e+002, 5.193788e+001
5.902809e+002, 5.162741e+001
5.907630e+002, 5.148616e+001
5.912451e+002, 5.159926e+001
5.917272e+002, 5.181246e+001
5.922094e+002, 5.184487e+001
5.926915e+002, 5.169218e+001
5.931736e+002, 5.141634e+001
5.936557e+002, 5.096259e+001
5.941378e+002, 5.045038e+001
5.946199e+002, 5.014391e+001
5.951021e+002, 5.004096e+001
5.955842e+002, 5.010125e+001
5.960663e+002, 5.052732e+001
5.965484e+002, 5.098314e+001
5.970305e+002, 5.104305e+001
5.975126e+002, 5.066325e+001
5.979948e+002, 5.019706e+001
5.984769e+002, 4.969976e+001
5.989590e+002, 4.928782e+001
5.994411e+002, 4.906516e+001
5.999232e+002, 4.915123e+001
6.004053e+002, 4.926366e+001
6.008875e+002, 4.939799e+001
6.013696e+002, 4.952326e+001
6.018517e+002, 4.959534e+001
6.023338e+002, 4.960770e+001
6.028159e+002, 4.958076e+001
6.032980e+002, 4.952566e+001
6.037802e+002, 4.943200e+001
6.042623e+002, 4.920724e+001
6.047444e+002, 4.882431e+001
6.052265e+002, 4.855569e+001
6.057086e+002, 4.865788e+001
6.061907e+002, 4.898793e+001
6.066729e+002, 4.900441e+001
6.071550e+002, 4.871322e+001
6.076371e+002, 4.841138e+001
6.081192e+002, 4.835443e+001
6.086013e+002, 4.842312e+001
6.090834e+002, 4.849417e+001
6.095656e+002, 4.857706e+001
6.100477e+002, 4.853299e+001
6.105298e+002, 4.812558e+001
6.110119e+002, 4.761831e+001
6.114940e+002, 4.730267e+001
6.119761e+002, 4.744960e+001
6.124583e+002, 4.755525e+001
6.129404e+002, 4.746199e+001
6.134225e+002, 4.729198e+001
6.139046e+002, 4.734903e+001
6.143867e+002, 4.781771e+001
6.148688e+002, 4.811652e+001
6.153510e+002, 4.801445e+001
6.158331e+002, 4.759373e+001
6.163152e+002, 4.740217e+001
6.167973e+002, 4.746215e+001
6.172794e+002, 4.752554e+001
6.177615e+002, 4.738509e+001
6.182437e+002, 4.712014e+001
6.187258e+002, 4.697807e+001
6.192079e+002, 4.697489e+001
6.196900e+002, 4.694684e+001
6.201721e+002, 4.664841e+001
6.206542e+002, 4.628477e+001
6.211364e+002, 4.613654e+001
6.216185e+002, 4.636687e+001
6.221006e+002, 4.659039e+001
6.225827e+002, 4.660637e+001
6.230648e+002, 4.652497e+001
6.235469e+002, 4.650001e+001
6.240291e+002, 4.662482e+001
6.245112e+002, 4.673015e+001
6.249933e+002, 4.679829e+001
6.254754e+002, 4.683189e+001
6.259575e+002, 4.684670e+001
6.264396e+002, 4.686610e+001
6.269218e+002, 4.679702e+001
6.274039e+002, 4.655275e+001
6.278860e+002, 4.618189e+001
6.283681e+002, 4.596810e+001
6.288502e+002, 4.591172e+001
6.293323e+002, 4.599348e+001
6.298145e+002, 4.639867e+001
6.302966e+002, 4.688091e+001
6.307787e+002, 4.685416e+001
6.312608e+002, 4.621854e+001
6.317429e+002, 4.568053e+001
6.322250e+002, 4.596685e+001
6.327072e+002, 4.653724e+001
6.331893e+002, 4.679711e+001
6.336714e+002, 4.639322e+001
6.341535e+002, 4.601770e+001
6.346356e+002, 4.579861e+001
6.351177e+002, 4.573254e+001
6.355999e+002, 4.581448e+001
6.360820e+002, 4.616348e+001
6.365641e+002, 4.646198e+001
6.370462e+002, 4.665496e+001
6.375283e+002, 4.676353e+001
6.380104e+002, 4.688253e+001
6.384926e+002, 4.703337e+001
6.389747e+002, 4.706166e+001
6.394568e+002, 4.681879e+001
6.399389e+002, 4.641308e+001
6.404210e+002, 4.624631e+001
6.409031e+002, 4.630439e+001
6.413853e+002, 4.636142e+001
6.418674e+002, 4.616713e+001
6.423495e+002, 4.592197e+001
6.428316e+002, 4.590471e+001
6.433137e+002, 4.616894e+001
6.437958e+002, 4.640723e+001
6.442780e+002, 4.646495e+001
6.447601e+002, 4.642901e+001
6.452422e+002, 4.637400e+001
6.457243e+002, 4.631774e+001
6.462064e+002, 4.622960e+001
6.466885e+002, 4.605234e+001
6.471707e+002, 4.587577e+001
6.476528e+002, 4.582380e+001
6.481349e+002, 4.591783e+001
6.486170e+002, 4.607275e+001
6.490991e+002, 4.629962e+001
6.495812e+002, 4.655298e+001
6.500634e+002, 4.674709e+001
6.505455e+002, 4.688247e+001
6.510276e+002, 4.694018e+001
6.515097e+002, 4.681788e+001
6.519918e+002, 4.667040e+001
6.524739e+002, 4.686821e+001
6.529561e+002, 4.731672e+001
6.534382e+002, 4.753017e+001
6.539203e+002, 4.691282e+001
6.544024e+002, 4.619389e+001
6.548845e+002, 4.588936e+001
6.553666e+002, 4.608185e+001
6.558488e+002, 4.630814e+001
6.563309e+002, 4.658171e+001
6.568130e+002, 4.676654e+001
6.572951e+002, 4.676133e+001
6.577772e+002, 4.644121e+001
6.582593e+002, 4.627608e+001
6.587415e+002, 4.630967e+001
6.592236e+002, 4.642790e+001
6.597057e+002, 4.651214e+001
6.601878e+002, 4.656248e+001
6.606699e+002, 4.659024e+001
6.611520e+002, 4.659338e+001
6.616342e+002, 4.658355e+001
6.621163e+002, 4.663309e+001
6.625984e+002, 4.668584e+001
6.630805e+002, 4.658309e+001
6.635626e+002, 4.597211e+001
6.640447e+002, 4.548119e+001
6.645269e+002, 4.574807e+001
6.650090e+002, 4.651137e+001
6.654911e+002, 4.701239e+001
6.659732e+002, 4.679660e+001
6.664553e+002, 4.649659e+001
6.669374e+002, 4.631303e+001
6.674196e+002, 4.624330e+001
6.679017e+002, 4.623667e+001
6.683838e+002, 4.633901e+001
6.688659e+002, 4.641917e+001
6.693480e+002, 4.638061e+001
6.698301e+002, 4.622680e+001
6.703123e+002, 4.622115e+001
6.707944e+002, 4.637995e+001
6.712765e+002, 4.656508e+001
6.717586e+002, 4.667896e+001
6.722407e+002, 4.672586e+001
6.727228e+002, 4.670485e+001
6.732050e+002, 4.660862e+001
6.736871e+002, 4.648808e+001
6.741692e+002, 4.632196e+001
6.746513e+002, 4.617543e+001
6.751334e+002, 4.612716e+001
6.756155e+002, 4.622786e+001
6.760977e+002, 4.637904e+001
6.765798e+002, 4.663084e+001
6.770619e+002, 4.689417e+001
6.775440e+002, 4.703567e+001
6.780261e+002, 4.702966e+001
6.785082e+002, 4.694233e+001
6.789904e+002, 4.673469e+001
6.794725e+002, 4.648929e+001
6.799546e+002, 4.642361e+001
6.804367e+002, 4.653996e+001
6.809188e+002, 4.672871e+001
6.814009e+002, 4.699550e+001
6.818831e+002, 4.727127e+001
6.823652e+002, 4.744433e+001
6.828473e+002, 4.751437e+001
6.833294e+002, 4.747001e+001
6.838115e+002, 4.714241e+001
6.842936e+002, 4.682359e+001
6.847758e+002, 4.672929e+001
6.852579e+002, 4.687376e+001
6.857400e+002, 4.708280e+001
6.862221e+002, 4.752933e+001
6.867042e+002, 4.783709e+001
6.871863e+002, 4.775863e+001
6.876685e+002, 4.713393e+001
6.881506e+002, 4.684430e+001
6.886327e+002, 4.699225e+001
6.891148e+002, 4.725593e+001
6.895969e+002, 4.735575e+001
6.900790e+002, 4.730074e+001
6.905612e+002, 4.720338e+001
6.910433e+002, 4.705786e+001
6.915254e+002, 4.695455e+001
6.920075e+002, 4.704694e+001
6.924896e+002, 4.724874e+001
6.929717e+002, 4.740278e+001
6.934539e+002, 4.746165e+001
6.939360e+002, 4.747089e+001
6.944181e+002, 4.744978e+001
6.949002e+002, 4.739707e+001
6.953823e+002, 4.731059e+001
6.958644e+002, 4.697493e+001
6.963466e+002, 4.688814e+001
6.968287e+002, 4.728087e+001
6.973108e+002, 4.792470e+001
6.977929e+002, 4.818655e+001
6.982750e+002, 4.796956e+001
6.987571e+002, 4.773300e+001
6.992393e+002, 4.760017e+001
6.997214e+002, 4.756630e+001
7.002035e+002, 4.767286e+001
7.006856e+002, 4.789899e+001
7.011677e+002, 4.805674e+001
7.016498e+002, 4.797226e+001
7.021320e+002, 4.779938e+001
7.026141e+002, 4.763884e+001
7.030962e+002, 4.751634e+001
7.035783e+002, 4.760317e+001
7.040604e+002, 4.829755e+001
7.045425e+002, 4.896313e+001
7.050247e+002, 4.917705e+001
7.055068e+002, 4.879685e+001
7.059889e+002, 4.859318e+001
7.064710e+002, 4.865723e+001
7.069531e+002, 4.878413e+001
7.074352e+002, 4.882511e+001
7.079174e+002, 4.876203e+001
7.083995e+002, 4.883444e+001
7.088816e+002, 4.906608e+001
7.093637e+002, 4.933974e+001
7.098458e+002, 4.963963e+001
7.103279e+002, 4.987865e+001
7.108101e+002, 4.975679e+001
7.112922e+002, 4.911831e+001
7.117743e+002, 4.858552e+001
7.122564e+002, 4.870908e+001
7.127385e+002, 4.917493e+001
7.132206e+002, 4.961552e+001
7.137028e+002, 5.001741e+001
7.141849e+002, 5.026750e+001
7.146670e+002, 5.018482e+001
7.151491e+002, 4.999995e+001
7.156312e+002, 5.004981e+001
7.161133e+002, 5.046664e+001
7.165955e+002, 5.072967e+001
7.170776e+002, 5.069011e+001
7.175597e+002, 5.051860e+001
7.180418e+002, 5.061697e+001
7.185239e+002, 5.095522e+001
7.190060e+002, 5.123152e+001
7.194882e+002, 5.129097e+001
7.199703e+002, 5.126770e+001
7.204524e+002, 5.132435e+001
7.209345e+002, 5.143628e+001
7.214166e+002, 5.153371e+001
7.218987e+002, 5.148046e+001
7.223809e+002, 5.150273e+001
7.228630e+002, 5.181179e+001
7.233451e+002, 5.235186e+001
7.238272e+002, 5.261664e+001
7.243093e+002, 5.233644e+001
7.247914e+002, 5.215600e+001
7.252736e+002, 5.235342e+001
7.257557e+002, 5.289014e+001
7.262378e+002, 5.327808e+001
7.267199e+002, 5.351183e+001
7.272020e+002, 5.368519e+001
7.276841e+002, 5.381166e+001
7.281663e+002, 5.393930e+001
7.286484e+002, 5.421892e+001
7.291305e+002, 5.464660e+001
7.296126e+002, 5.500524e+001
7.300947e+002, 5.508033e+001
7.305768e+002, 5.507041e+001
7.310590e+002, 5.511898e+001
7.315411e+002, 5.523930e+001
7.320232e+002, 5.544384e+001
7.325053e+002, 5.579237e+001
7.329874e+002, 5.617773e+001
7.334695e+002, 5.654222e+001
7.339517e+002, 5.687910e+001
7.344338e+002, 5.722532e+001
7.349159e+002, 5.760367e+001
7.353980e+002, 5.793084e+001
7.358801e+002, 5.806517e+001
7.363622e+002, 5.806117e+001
7.368444e+002, 5.815523e+001
7.373265e+002, 5.839582e+001
7.378086e+002, 5.868079e+001
7.382907e+002, 5.882908e+001
7.387728e+002, 5.899425e+001
7.392549e+002, 5.940007e+001
7.397371e+002, 6.032983e+001
7.402192e+002, 6.112024e+001
7.407013e+002, 6.157003e+001
7.411834e+002, 6.178021e+001
7.416655e+002, 6.186448e+001
7.421476e+002, 6.163393e+001
7.426298e+002, 6.175624e+001
7.431119e+002, 6.241613e+001
7.435940e+002, 6.332104e+001
7.440761e+002, 6.393600e+001
7.445582e+002, 6.428219e+001
7.450403e+002, 6.463396e+001
7.455225e+002, 6.506150e+001
7.460046e+002, 6.554960e+001
7.464867e+002, 6.603534e+001
7.469688e+002, 6.656982e+001
7.474509e+002, 6.726127e+001
7.479330e+002, 6.857060e+001
7.484152e+002, 6.960544e+001
7.488973e+002, 6.981470e+001
7.493794e+002, 6.946255e+001
7.498615e+002, 6.942441e+001
7.503436e+002, 6.983151e+001
7.508257e+002, 7.036401e+001
7.513079e+002, 7.096613e+001
7.517900e+002, 7.162877e+001
7.522721e+002, 7.232492e+001
7.527542e+002, 7.305840e+001
7.532363e+002, 7.371532e+001
7.537184e+002, 7.419467e+001
7.542006e+002, 7.458889e+001
7.546827e+002, 7.498012e+001
7.551648e+002, 7.539980e+001
7.556469e+002, 7.596162e+001
7.561290e+002, 7.697057e+001
7.566111e+002, 7.791938e+001
7.570933e+002, 7.847791e+001
7.575754e+002, 7.865092e+001
7.580575e+002, 7.896864e+001
7.585396e+002, 7.958918e+001
7.590217e+002, 8.014585e+001
7.595038e+002, 8.041872e+001
7.599860e+002, 8.045887e+001
7.604681e+002, 8.095520e+001
7.609502e+002, 8.193739e+001
7.614323e+002, 8.300092e+001
7.619144e+002, 8.402979e+001
7.623965e+002, 8.490232e+001
7.628787e+002, 8.524271e+001
7.633608e+002, 8.509641e+001
7.638429e+002, 8.509763e+001
7.643250e+002, 8.580870e+001
7.648071e+002, 8.665906e+001
7.652892e+002, 8.728033e+001
7.657714e+002, 8.763757e+001
7.662535e+002, 8.782050e+001
7.667356e+002, 8.764352e+001
7.672177e+002, 8.755288e+001
7.676998e+002, 8.781914e+001
7.681819e+002, 8.846681e+001
7.686641e+002, 8.912157e+001
7.691462e+002, 8.978474e+001
7.696283e+002, 9.040542e+001
7.701104e+002, 9.093105e+001
7.705925e+002, 9.138433e+001
7.710746e+002, 9.173811e+001
7.715568e+002, 9.198033e+001
7.720389e+002, 9.242016e+001
7.725210e+002, 9.351497e+001
7.730031e+002, 9.470500e+001
7.734852e+002, 9.553429e+001
7.739673e+002, 9.579660e+001
7.744495e+002, 9.616487e+001
7.749316e+002, 9.674490e+001
7.754137e+002, 9.733604e+001
7.758958e+002, 9.775131e+001
7.763779e+002, 9.796646e+001
7.768600e+002, 9.831205e+001
7.773422e+002, 9.878381e+001
7.778243e+002, 9.949134e+001
7.783064e+002, 1.009672e+002
7.787885e+002, 1.026522e+002
7.792706e+002, 1.032949e+002
7.797527e+002, 1.025046e+002
7.802349e+002, 1.018851e+002
7.807170e+002, 1.025172e+002
7.811991e+002, 1.036744e+002
7.816812e+002, 1.047409e+002
7.821633e+002, 1.056503e+002
7.826454e+002, 1.063864e+002
7.831276e+002, 1.068816e+002
7.836097e+002, 1.072871e+002
7.840918e+002, 1.077336e+002
7.845739e+002, 1.082191e+002
7.850560e+002, 1.087414e+002
7.855381e+002, 1.092968e+002
7.860203e+002, 1.098797e+002
7.865024e+002, 1.105383e+002
7.869845e+002, 1.112014e+002
7.874666e+002, 1.117562e+002
7.879487e+002, 1.121717e+002
7.884308e+002, 1.125013e+002
7.889130e+002, 1.126773e+002
7.893951e+002, 1.128364e+002
7.898772e+002, 1.131360e+002
7.903593e+002, 1.138069e+002
7.908414e+002, 1.141993e+002
7.913235e+002, 1.142261e+002
7.918057e+002, 1.140802e+002
7.922878e+002, 1.139680e+002
7.927699e+002, 1.138864e+002
7.932520e+002, 1.138080e+002
7.937341e+002, 1.137176e+002
7.942162e+002, 1.136758e+002
7.946984e+002, 1.138275e+002
7.951805e+002, 1.140468e+002
7.956626e+002, 1.141437e+002
7.961447e+002, 1.140866e+002
7.966268e+002, 1.138762e+002
7.971089e+002, 1.133235e+002
7.975911e+002, 1.127167e+002
7.980732e+002, 1.123704e+002
7.985553e+002, 1.123428e+002
7.990374e+002, 1.124831e+002
7.995195e+002, 1.128920e+002
8.000016e+002, 1.132699e+002
8.004838e+002, 1.131635e+002
8.009659e+002, 1.126568e+002
8.014480e+002, 1.122555e+002
8.019301e+002, 1.120942e+002
8.024122e+002, 1.118881e+002
8.028943e+002, 1.111862e+002
8.033765e+002, 1.103455e+002
8.038586e+002, 1.098478e+002
8.043407e+002, 1.100632e+002
8.048228e+002, 1.101713e+002
8.053049e+002, 1.099318e+002
8.057870e+002, 1.095433e+002
8.062692e+002, 1.091793e+002
8.067513e+002, 1.088271e+002
8.072334e+002, 1.085733e+002
8.077155e+002, 1.084729e+002
8.081976e+002, 1.083403e+002
8.086797e+002, 1.078446e+002
8.091619e+002, 1.071191e+002
8.096440e+002, 1.065934e+002
8.101261e+002, 1.064235e+002
8.106082e+002, 1.062056e+002
8.110903e+002, 1.055011e+002
8.115724e+002, 1.046583e+002
8.120546e+002, 1.040621e+002
8.125367e+002, 1.039003e+002
8.130188e+002, 1.038326e+002
8.135009e+002, 1.039732e+002
8.139830e+002, 1.040698e+002
8.144651e+002, 1.037747e+002
8.149473e+002, 1.030508e+002
8.154294e+002, 1.025845e+002
8.159115e+002, 1.024825e+002
8.163936e+002, 1.024637e+002
8.168757e+002, 1.022042e+002
8.173578e+002, 1.018017e+002
8.178400e+002, 1.013987e+002
8.183221e+002, 1.009914e+002
8.188042e+002, 1.007006e+002
8.192863e+002, 1.005602e+002
8.197684e+002, 1.005732e+002
8.202505e+002, 1.007772e+002
8.207327e+002, 1.013767e+002
8.212148e+002, 1.016356e+002
8.216969e+002, 1.013669e+002
8.221790e+002, 1.010932e+002
8.226611e+002, 1.015461e+002
8.231432e+002, 1.025654e+002
8.236254e+002, 1.029718e+002
8.241075e+002, 1.025652e+002
8.245896e+002, 1.022274e+002
8.250717e+002, 1.030275e+002
8.255538e+002, 1.042144e+002
8.260359e+002, 1.048699e+002
8.265181e+002, 1.046362e+002
8.270002e+002, 1.045737e+002
8.274823e+002, 1.051304e+002
8.279644e+002, 1.057791e+002
8.284465e+002, 1.061634e+002
8.289286e+002, 1.061955e+002
8.294108e+002, 1.063574e+002
8.298929e+002, 1.066273e+002
8.303750e+002, 1.071399e+002
8.308571e+002, 1.082200e+002
8.313392e+002, 1.095873e+002
8.318214e+002, 1.106299e+002
8.323035e+002, 1.112691e+002
8.327856e+002, 1.118396e+002
8.332677e+002, 1.124876e+002
8.337498e+002, 1.131823e+002
8.342319e+002, 1.139037e+002
8.347141e+002, 1.146522e+002
8.351962e+002, 1.154017e+002
8.356783e+002, 1.161092e+002
8.361604e+002, 1.168809e+002
8.366425e+002, 1.178791e+002
8.371246e+002, 1.190653e+002
8.376068e+002, 1.198032e+002
8.380889e+002, 1.200867e+002
8.385710e+002, 1.202861e+002
8.390531e+002, 1.205969e+002
8.395352e+002, 1.210303e+002
8.400173e+002, 1.217629e+002
8.404995e+002, 1.227912e+002
8.409816e+002, 1.233641e+002
8.414637e+002, 1.227557e+002
8.419458e+002, 1.220946e+002
8.424279e+002, 1.218813e+002
8.429100e+002, 1.221079e+002
8.433922e+002, 1.223422e+002
8.438743e+002, 1.225727e+002
8.443564e+002, 1.228675e+002
8.448385e+002, 1.234909e+002
8.453206e+002, 1.241444e+002
8.458027e+002, 1.239865e+002
8.462849e+002, 1.231423e+002
8.467670e+002, 1.223140e+002
8.472491e+002, 1.218972e+002
8.477312e+002, 1.216084e+002
8.482133e+002, 1.213411e+002
8.486954e+002, 1.210763e+002
8.491776e+002, 1.207319e+002
8.496597e+002, 1.203232e+002
8.501418e+002, 1.197986e+002
8.506239e+002, 1.191089e+002
8.511060e+002, 1.183154e+002
8.515881e+002, 1.176295e+002
8.520703e+002, 1.170429e+002
8.525524e+002, 1.164758e+002
8.530345e+002, 1.158560e+002
8.535166e+002, 1.152760e+002
8.539987e+002, 1.148813e+002
8.544808e+002, 1.145882e+002
8.549630e+002, 1.141839e+002
8.554451e+002, 1.134503e+002
8.559272e+002, 1.127938e+002
8.564093e+002, 1.123329e+002
8.568914e+002, 1.119800e+002
8.573735e+002, 1.115577e+002
8.578557e+002, 1.110749e+002
8.583378e+002, 1.103247e+002
8.588199e+002, 1.091315e+002
8.593020e+002, 1.078808e+002
8.597841e+002, 1.072161e+002
8.602662e+002, 1.069250e+002
8.607484e+002, 1.065988e+002
8.612305e+002, 1.062516e+002
8.617126e+002, 1.056153e+002
8.621947e+002, 1.042044e+002
8.626768e+002, 1.026154e+002
8.631589e+002, 1.017509e+002
8.636411e+002, 1.019958e+002
8.641232e+002, 1.018158e+002
8.646053e+002, 1.009819e+002
8.650874e+002, 9.991360e+001
8.655695e+002, 9.910082e+001
8.660516e+002, 9.850339e+001
8.665338e+002, 9.800829e+001
8.670159e+002, 9.761003e+001
8.674980e+002, 9.720581e+001
8.679801e+002, 9.677774e+001
8.684622e+002, 9.627018e+001
8.689443e+002, 9.558449e+001
8.694265e+002, 9.446683e+001
8.699086e+002, 9.380384e+001
8.703907e+002, 9.390370e+001
8.708728e+002, 9.397945e+001
8.713549e+002, 9.317916e+001
8.718370e+002, 9.162327e+001
8.723192e+002, 9.092764e+001
8.728013e+002, 9.116013e+001
8.732834e+002, 9.141053e+001
8.737655e+002, 9.085927e+001
8.742476e+002, 8.999850e+001
8.747297e+002, 8.928391e+001
8.752119e+002, 8.875506e+001
8.756940e+002, 8.832364e+001
8.761761e+002, 8.807400e+001
8.766582e+002, 8.780844e+001
8.771403e+002, 8.741908e+001
8.776224e+002, 8.692477e+001
8.781046e+002, 8.666490e+001
8.785867e+002, 8.666002e+001
8.790688e+002, 8.648095e+001
8.795509e+002, 8.568999e+001
8.800330e+002, 8.468511e+001
8.805151e+002, 8.408949e+001
8.809973e+002, 8.379845e+001
8.814794e+002, 8.340024e+001
8.819615e+002, 8.257060e+001
8.824436e+002, 8.177099e+001
8.829257e+002, 8.128269e+001
8.834078e+002, 8.094710e+001
8.838900e+002, 8.019221e+001
8.843721e+002, 7.888763e+001
8.848542e+002, 7.787867e+001
8.853363e+002, 7.750314e+001
8.858184e+002, 7.739210e+001
8.863005e+002, 7.697573e+001
8.867827e+002, 7.629652e+001
8.872648e+002, 7.545893e+001
8.877469e+002, 7.435776e+001
8.882290e+002, 7.332652e+001
8.887111e+002, 7.263791e+001
8.891932e+002, 7.205769e+001
8.896754e+002, 7.119946e+001
8.901575e+002, 6.980444e+001
8.906396e+002, 6.888257e+001
8.911217e+002, 6.866224e+001
8.916038e+002, 6.859025e+001
8.920859e+002, 6.789191e+001
8.925681e+002, 6.677229e+001
8.930502e+002, 6.583976e+001
8.935323e+002, 6.520109e+001
8.940144e+002, 6.474569e+001
8.944965e+002, 6.454700e+001
8.949786e+002, 6.440923e+001
8.954608e+002, 6.418032e+001
8.959429e+002, 6.386015e+001
8.964250e+002, 6.333921e+001
8.969071e+002, 6.249807e+001
8.973892e+002, 6.170309e+001
8.978713e+002, 6.131324e+001
8.983535e+002, 6.122020e+001
8.988356e+002, 6.071211e+001
8.993177e+002, 5.981940e+001
8.997998e+002, 5.905744e+001
9.002819e+002, 5.897206e+001
9.007640e+002, 5.898118e+001
9.012462e+002, 5.857109e+001
9.017283e+002, 5.778016e+001
9.022104e+002, 5.718348e+001
9.026925e+002, 5.692940e+001
9.031746e+002, 5.674031e+001
9.036567e+002, 5.655869e+001
9.041389e+002, 5.637154e+001
9.046210e+002, 5.613124e+001
9.051031e+002, 5.583998e+001
9.055852e+002, 5.551379e+001
9.060673e+002, 5.518495e+001
9.065494e+002, 5.478759e+001
9.070316e+002, 5.408799e+001
9.075137e+002, 5.331678e+001
9.079958e+002, 5.287337e+001
9.084779e+002, 5.314381e+001
9.089600e+002, 5.338261e+001
9.094421e+002, 5.354837e+001
9.099243e+002, 5.362722e+001
9.104064e+002, 5.361558e+001
9.108885e+002, 5.351007e+001
9.113706e+002, 5.322986e+001
9.118527e+002, 5.274201e+001
9.123348e+002, 5.221697e+001
9.128170e+002, 5.182503e+001
9.132991e+002, 5.148438e+001
9.137812e+002, 5.108872e+001
9.142633e+002, 5.058955e+001
9.147454e+002, 5.017064e+001
9.152275e+002, 4.984459e+001
9.157097e+002, 4.962040e+001
9.161918e+002, 4.952905e+001
9.166739e+002, 4.956813e+001
9.171560e+002, 4.961987e+001
9.176381e+002, 4.968523e+001
9.181202e+002, 4.959671e+001
9.186024e+002, 4.905824e+001
9.190845e+002, 4.843007e+001
9.195666e+002, 4.808649e+001
9.200487e+002, 4.801429e+001
9.205308e+002, 4.804070e+001
9.210129e+002, 4.840960e+001
9.214951e+002, 4.849238e+001
9.219772e+002, 4.796607e+001
9.224593e+002, 4.711709e+001
9.229414e+002, 4.690614e+001
9.234235e+002, 4.731963e+001
9.239056e+002, 4.755420e+001
9.243878e+002, 4.727785e+001
9.248699e+002, 4.685262e+001
9.253520e+002, 4.669541e+001
9.258341e+002, 4.666864e+001
9.263162e+002, 4.654856e+001
9.267983e+002, 4.615755e+001
9.272805e+002, 4.584389e+001
9.277626e+002, 4.563829e+001
9.282447e+002, 4.552623e+001
9.287268e+002, 4.557481e+001
9.292089e+002, 4.578830e+001
9.296910e+002, 4.562568e+001
9.301732e+002, 4.501957e+001
9.306553e+002, 4.440496e+001
9.311374e+002, 4.415725e+001
9.316195e+002, 4.413250e+001
9.321016e+002, 4.421397e+001
9.325837e+002, 4.439324e+001
9.330659e+002, 4.450172e+001
9.335480e+002, 4.451515e+001
9.340301e+002, 4.442193e+001
9.345122e+002, 4.415798e+001
9.349943e+002, 4.377014e+001
9.354764e+002, 4.363605e+001
9.359586e+002, 4.374665e+001
9.364407e+002, 4.384570e+001
9.369228e+002, 4.382040e+001
9.374049e+002, 4.370466e+001
9.378870e+002, 4.344135e+001
9.383691e+002, 4.312105e+001
9.388513e+002, 4.295982e+001
9.393334e+002, 4.322353e+001
9.398155e+002, 4.337514e+001
9.402976e+002, 4.333972e+001
9.407797e+002, 4.316882e+001
9.412618e+002, 4.289390e+001
9.417440e+002, 4.252932e+001
9.422261e+002, 4.225191e+001
9.427082e+002, 4.208313e+001
9.431903e+002, 4.204163e+001
9.436724e+002, 4.226987e+001
9.441545e+002, 4.256077e+001
9.446367e+002, 4.270277e+001
9.451188e+002, 4.264292e+001
9.456009e+002, 4.247699e+001
9.460830e+002, 4.210719e+001
9.465651e+002, 4.180465e+001
9.470472e+002, 4.175501e+001
9.475294e+002, 4.192445e+001
9.480115e+002, 4.208106e+001
9.484936e+002, 4.221652e+001
9.489757e+002, 4.222577e+001
9.494578e+002, 4.197215e+001
9.499399e+002, 4.162947e+001
9.504221e+002, 4.119173e+001
9.509042e+002, 4.075694e+001
9.513863e+002, 4.073497e+001
9.518684e+002, 4.157137e+001
9.523505e+002, 4.200067e+001
9.528326e+002, 4.165931e+001
9.533148e+002, 4.098857e+001
9.537969e+002, 4.086202e+001
9.542790e+002, 4.115172e+001
9.547611e+002, 4.129877e+001
9.552432e+002, 4.114136e+001
9.557253e+002, 4.090182e+001
9.562075e+002, 4.067665e+001
9.566896e+002, 4.048412e+001
9.571717e+002, 4.033815e+001
9.576538e+002, 4.023021e+001
9.581359e+002, 4.018631e+001
9.586180e+002, 4.018925e+001
9.591002e+002, 4.029848e+001
9.595823e+002, 4.075768e+001
9.600644e+002, 4.133278e+001
9.605465e+002, 4.108191e+001
9.610286e+002, 4.012109e+001
9.615107e+002, 3.945993e+001
9.619929e+002, 4.005172e+001
9.624750e+002, 4.071008e+001
9.629571e+002, 4.074255e+001
9.634392e+002, 4.031445e+001
9.639213e+002, 4.009116e+001
9.644034e+002, 4.011456e+001
9.648856e+002, 4.020155e+001
9.653677e+002, 4.034700e+001
9.658498e+002, 4.045456e+001
9.663319e+002, 4.031516e+001
9.668140e+002, 4.003253e+001
9.672961e+002, 3.980937e+001
9.677783e+002, 3.966114e+001
9.682604e+002, 3.967798e+001
9.687425e+002, 4.009115e+001
9.692246e+002, 4.053257e+001
9.697067e+002, 4.069975e+001
9.701888e+002, 4.054159e+001
9.706710e+002, 4.045147e+001
9.711531e+002, 4.043095e+001
9.716352e+002, 4.046781e+001
9.721173e+002, 4.064134e+001
9.725994e+002, 4.081201e+001
9.730815e+002, 4.076831e+001
9.735637e+002, 4.053630e+001
9.740458e+002, 4.030687e+001
9.745279e+002, 4.010271e+001
9.750100e+002, 3.996084e+001
9.754921e+002, 3.988515e+001
9.759742e+002, 3.987698e+001
9.764564e+002, 3.994414e+001
9.769385e+002, 4.008598e+001
9.774206e+002, 4.028856e+001
9.779027e+002, 4.057616e+001
9.783848e+002, 4.083152e+001
9.788669e+002, 4.102747e+001
9.793491e+002, 4.108679e+001
9.798312e+002, 4.086989e+001
9.803133e+002, 4.011176e+001
9.807954e+002, 3.973836e+001
9.812775e+002, 3.992552e+001
9.817596e+002, 4.023252e+001
9.822418e+002, 4.036914e+001
9.827239e+002, 4.035784e+001
9.832060e+002, 4.026390e+001
9.836881e+002, 4.010709e+001
9.841702e+002, 4.005675e+001
9.846523e+002, 4.042994e+001
9.851345e+002, 4.073309e+001
9.856166e+002, 4.055514e+001
9.860987e+002, 4.005183e+001
9.865808e+002, 3.984429e+001
9.870629e+002, 4.005584e+001
9.875450e+002, 4.016311e+001
9.880272e+002, 4.003158e+001
9.885093e+002, 3.983605e+001
9.889914e+002, 3.985564e+001
9.894735e+002, 4.000800e+001
9.899556e+002, 4.014470e+001
9.904377e+002, 4.025576e+001
9.909199e+002, 4.025448e+001
9.914020e+002, 3.992334e+001
9.918841e+002, 3.962591e+001
9.923662e+002, 3.961778e+001
9.928483e+002, 3.990773e+001
9.933304e+002, 4.019685e+001
9.938126e+002, 4.049022e+001
9.942947e+002, 4.069496e+001
9.947768e+002, 4.071777e+001
9.952589e+002, 4.064466e+001
9.957410e+002, 4.058788e+001
9.962231e+002, 4.052224e+001
9.967053e+002, 4.037204e+001
9.971874e+002, 3.988153e+001
9.976695e+002, 3.965137e+001
9.981516e+002, 3.989664e+001
9.986337e+002, 4.027742e+001
9.991158e+002, 4.023038e+001
9.995980e+002, 3.981970e+001
1.000080e+003, 3.950953e+001
1.000562e+003, 3.937011e+001
1.001044e+003, 3.928703e+001
1.001526e+003, 3.914420e+001
1.002009e+003, 3.903832e+001
1.002491e+003, 3.909377e+001
1.002973e+003, 3.934584e+001
1.003455e+003, 3.941800e+001
1.003937e+003, 3.925197e+001
1.004419e+003, 3.909152e+001
1.004901e+003, 3.905079e+001
1.005383e+003, 3.908466e+001
1.005865e+003, 3.907375e+001
1.006348e+003, 3.905217e+001
1.006830e+003, 3.911779e+001
1.007312e+003, 3.951954e+001
1.007794e+003, 3.975813e+001
1.008276e+003, 3.953386e+001
1.008758e+003, 3.916198e+001
1.009240e+003, 3.898594e+001
1.009722e+003, 3.903495e+001
1.010205e+003, 3.897239e+001
1.010687e+003, 3.876735e+001
1.011169e+003, 3.853395e+001
1.011651e+003, 3.829137e+001
1.012133e+003, 3.812752e+001
1.012615e+003, 3.818471e+001
1.013097e+003, 3.845702e+001
1.013579e+003, 3.866320e+001
1.014061e+003, 3.873883e+001
1.014544e+003, 3.878255e+001
1.015026e+003, 3.884201e+001
1.015508e+003, 3.886714e+001
1.015990e+003, 3.864444e+001
1.016472e+003, 3.826051e+001
1.016954e+003, 3.809676e+001
1.017436e+003, 3.836451e+001
1.017918e+003, 3.863197e+001
1.018401e+003, 3.859855e+001
1.018883e+003, 3.845064e+001
1.019365e+003, 3.840142e+001
1.019847e+003, 3.852641e+001
1.020329e+003, 3.834039e+001
1.020811e+003, 3.776239e+001
1.021293e+003, 3.731720e+001
1.021775e+003, 3.759504e+001
1.022257e+003, 3.812448e+001
1.022740e+003, 3.807841e+001
1.023222e+003, 3.760315e+001
1.023704e+003, 3.729960e+001
1.024186e+003, 3.748396e+001
1.024668e+003, 3.775381e+001
1.025150e+003, 3.812160e+001
1.025632e+003, 3.843200e+001
1.026114e+003, 3.832226e+001
1.026596e+003, 3.785802e+001
1.027079e+003, 3.766020e+001
1.027561e+003, 3.785604e+001
1.028043e+003, 3.808153e+001
1.028525e+003, 3.809226e+001
1.029007e+003, 3.796580e+001
1.029489e+003, 3.771511e+001
1.029971e+003, 3.733355e+001
1.030453e+003, 3.711145e+001
1.030936e+003, 3.706533e+001
1.031418e+003, 3.713198e+001
1.031900e+003, 3.732172e+001
1.032382e+003, 3.756650e+001
1.032864e+003, 3.777126e+001
1.033346e+003, 3.791852e+001
1.033828e+003, 3.795924e+001
1.034310e+003, 3.781303e+001
1.034792e+003, 3.765499e+001
1.035275e+003, 3.750030e+001
1.035757e+003, 3.737471e+001
1.036239e+003, 3.730394e+001
1.036721e+003, 3.728864e+001
1.037203e+003, 3.731195e+001
1.037685e+003, 3.737282e+001
1.038167e+003, 3.739240e+001
1.038649e+003, 3.723615e+001
1.039132e+003, 3.708055e+001
1.039614e+003, 3.706911e+001
1.040096e+003, 3.718972e+001
1.040578e+003, 3.734873e+001
1.041060e+003, 3.759340e+001
1.041542e+003, 3.773526e+001
1.042024e+003, 3.773047e+001
1.042506e+003, 3.763026e+001
1.042989e+003, 3.742869e+001
1.043471e+003, 3.720881e+001
1.043953e+003, 3.717745e+001
1.044435e+003, 3.741372e+001
1.044917e+003, 3.758829e+001
1.045399e+003, 3.757837e+001
1.045881e+003, 3.745867e+001
1.046363e+003, 3.720019e+001
1.046845e+003, 3.684997e+001
1.047328e+003, 3.687428e+001
1.047810e+003, 3.724495e+001
1.048292e+003, 3.746498e+001
1.048774e+003, 3.719576e+001
1.049256e+003, 3.684347e+001
1.049738e+003, 3.675169e+001
1.050220e+003, 3.678585e+001
1.050702e+003, 3.671267e+001
1.051184e+003, 3.636015e+001
1.051667e+003, 3.631022e+001
1.052149e+003, 3.666877e+001
1.052631e+003, 3.701989e+001
1.053113e+003, 3.690730e+001
1.053595e+003, 3.656865e+001
1.054077e+003, 3.651110e+001
1.054559e+003, 3.670531e+001
1.055041e+003, 3.680517e+001
1.055523e+003, 3.643054e+001
1.056006e+003, 3.625720e+001
1.056488e+003, 3.658417e+001
1.056970e+003, 3.711573e+001
1.057452e+003, 3.725269e+001
1.057934e+003, 3.702512e+001
1.058416e+003, 3.665374e+001
1.058898e+003, 3.614302e+001
1.059380e+003, 3.574195e+001
1.059863e+003, 3.577028e+001
1.060345e+003, 3.591492e+001
1.060827e+003, 3.587609e+001
1.061309e+003, 3.562891e+001
1.061791e+003, 3.562000e+001
1.062273e+003, 3.589925e+001
1.062755e+003, 3.619204e+001
1.063237e+003, 3.643699e+001
1.063719e+003, 3.654637e+001
1.064202e+003, 3.627046e+001
1.064684e+003, 3.578297e+001
1.065166e+003, 3.540881e+001
1.065648e+003, 3.520276e+001
1.066130e+003, 3.522776e+001
1.066612e+003, 3.561451e+001
1.067094e+003, 3.602541e+001
1.067576e+003, 3.614390e+001
1.068059e+003, 3.603512e+001
1.068541e+003, 3.613619e+001
1.069023e+003, 3.641042e+001
1.069505e+003, 3.650902e+001
1.069987e+003, 3.595951e+001
1.070469e+003, 3.545965e+001
1.070951e+003, 3.542265e+001
1.071433e+003, 3.567682e+001
1.071916e+003, 3.595450e+001
1.072398e+003, 3.627653e+001
1.072880e+003, 3.638188e+001
1.073362e+003, 3.620683e+001
1.073844e+003, 3.599654e+001
1.074326e+003, 3.607202e+001
1.074808e+003, 3.619593e+001
1.075290e+003, 3.602175e+001
1.075772e+003, 3.552431e+001
1.076255e+003, 3.543520e+001
1.076737e+003, 3.607102e+001
1.077219e+003, 3.645148e+001
1.077701e+003, 3.619373e+001
1.078183e+003, 3.559688e+001
1.078665e+003, 3.507087e+001
1.079147e+003, 3.469585e+001
1.079629e+003, 3.472862e+001
1.080111e+003, 3.544648e+001
1.080594e+003, 3.593810e+001
1.081076e+003, 3.563848e+001
1.081558e+003, 3.525301e+001
1.082040e+003, 3.521104e+001
1.082522e+003, 3.546419e+001
1.083004e+003, 3.554375e+001
1.083486e+003, 3.545219e+001
1.083968e+003, 3.520737e+001
1.084450e+003, 3.451453e+001
1.084933e+003, 3.400463e+001
1.085415e+003, 3.432617e+001
1.085897e+003, 3.499004e+001
1.086379e+003, 3.517366e+001
1.086861e+003, 3.467072e+001
1.087343e+003, 3.447693e+001
1.087825e+003, 3.466333e+001
1.088307e+003, 3.497821e+001
1.088790e+003, 3.534171e+001
1.089272e+003, 3.561427e+001
1.089754e+003, 3.555814e+001
1.090236e+003, 3.523082e+001
1.090718e+003, 3.498389e+001
1.091200e+003, 3.487911e+001
1.091682e+003, 3.487611e+001
1.092164e+003, 3.501082e+001
1.092646e+003, 3.516595e+001
1.093129e+003, 3.511987e+001
1.093611e+003, 3.495902e+001
1.094093e+003, 3.494696e+001
1.094575e+003, 3.514272e+001
1.095057e+003, 3.516837e+001
1.095539e+003, 3.457069e+001
1.096021e+003, 3.408266e+001
1.096503e+003, 3.406787e+001
1.096986e+003, 3.438798e+001
1.097468e+003, 3.449921e+001
1.097950e+003, 3.443156e+001
1.098432e+003, 3.445166e+001
1.098914e+003, 3.469549e+001
1.099396e+003, 3.491154e+001
1.099878e+003, 3.491951e+001
1.100360e+003, 3.480643e+001
1.100843e+003, 3.462798e+001
1.101325e+003, 3.436636e+001
1.101807e+003, 3.430962e+001
1.102289e+003, 3.448616e+001
1.102771e+003, 3.455761e+001
1.103253e+003, 3.420112e+001
1.103735e+003, 3.376865e+001
1.104217e+003, 3.367827e+001
1.104699e+003, 3.382031e+001
1.105182e+003, 3.399331e+001
1.105664e+003, 3.423227e+001
1.106146e+003, 3.435178e+001
1.106628e+003, 3.432469e+001
1.107110e+003, 3.423861e+001
1.107592e+003, 3.413628e+001
1.108074e+003, 3.404558e+001
1.108556e+003, 3.403667e+001
1.109038e+003, 3.409718e+001
1.109521e+003, 3.414924e+001
1.110003e+003, 3.414146e+001
1.110485e+003, 3.414687e+001
1.110967e+003, 3.415612e+001
1.111449e+003, 3.421372e+001
1.111931e+003, 3.449704e+001
1.112413e+003, 3.490501e+001
1.112895e+003, 3.490479e+001
1.113377e+003, 3.442754e+001
1.113860e+003, 3.397913e+001
1.114342e+003, 3.373537e+001
1.114824e+003, 3.375611e+001
1.115306e+003, 3.428765e+001
1.115788e+003, 3.505867e+001
1.116270e+003, 3.506617e+001
1.116752e+003, 3.432708e+001
1.117234e+003, 3.376703e+001
1.117717e+003, 3.362831e+001
1.118199e+003, 3.368926e+001
1.118681e+003, 3.395373e+001
1.119163e+003, 3.418443e+001
1.119645e+003, 3.406936e+001
1.120127e+003, 3.357765e+001
1.120609e+003, 3.342365e+001
1.121091e+003, 3.365805e+001
1.121573e+003, 3.391811e+001
1.122056e+003, 3.408678e+001
1.122538e+003, 3.414564e+001
1.123020e+003, 3.400456e+001
1.123502e+003, 3.376510e+001
1.123984e+003, 3.358176e+001
1.124466e+003, 3.348980e+001
1.124948e+003, 3.347552e+001
1.125430e+003, 3.358089e+001
1.125913e+003, 3.365290e+001
1.126395e+003, 3.350725e+001
1.126877e+003, 3.329679e+001
1.127359e+003, 3.344148e+001
1.127841e+003, 3.381443e+001
1.128323e+003, 3.406095e+001
1.128805e+003, 3.392103e+001
1.129287e+003, 3.384010e+001
1.129770e+003, 3.397759e+001
1.130252e+003, 3.404454e+001
1.130734e+003, 3.364801e+001
1.131216e+003, 3.293781e+001
1.131698e+003, 3.247815e+001
1.132180e+003, 3.228500e+001
1.132662e+003, 3.229763e+001
1.133144e+003, 3.268007e+001
1.133626e+003, 3.303035e+001
1.134109e+003, 3.321283e+001
1.134591e+003, 3.327972e+001
1.135073e+003, 3.327438e+001
1.135555e+003, 3.320724e+001
1.136037e+003, 3.322708e+001
1.136519e+003, 3.335357e+001
1.137001e+003, 3.345430e+001
1.137483e+003, 3.345140e+001
1.137965e+003, 3.337692e+001
1.138448e+003, 3.318845e+001
1.138930e+003, 3.294994e+001
1.139412e+003, 3.285365e+001
1.139894e+003, 3.290291e+001
1.140376e+003, 3.306008e+001
1.140858e+003, 3.335230e+001
1.141340e+003, 3.356339e+001
1.141822e+003, 3.335993e+001
1.142304e+003, 3.307930e+001
1.142787e+003, 3.311088e+001
1.143269e+003, 3.346694e+001
1.143751e+003, 3.343422e+001
1.144233e+003, 3.292329e+001
1.144715e+003, 3.251836e+001
1.145197e+003, 3.244009e+001
1.145679e+003, 3.251386e+001
1.146161e+003, 3.257131e+001
1.146644e+003, 3.261909e+001
1.147126e+003, 3.265637e+001
1.147608e+003, 3.266253e+001
1.148090e+003, 3.277227e+001
1.148572e+003, 3.304116e+001
1.149054e+003, 3.324622e+001
1.149536e+003, 3.329180e+001
1.150018e+003, 3.319387e+001
1.150500e+003, 3.285710e+001
1.150983e+003, 3.242477e+001
1.151465e+003, 3.218431e+001
1.151947e+003, 3.230460e+001
1.152429e+003, 3.244382e+001
1.152911e+003, 3.256990e+001
1.153393e+003, 3.272210e+001
1.153875e+003, 3.302069e+001
1.154357e+003, 3.333126e+001
1.154840e+003, 3.317170e+001
1.155322e+003, 3.269415e+001
1.155804e+003, 3.239074e+001
1.156286e+003, 3.270070e+001
1.156768e+003, 3.283953e+001
1.157250e+003, 3.262801e+001
1.157732e+003, 3.232447e+001
1.158214e+003, 3.216525e+001
1.158697e+003, 3.211821e+001
1.159179e+003, 3.203463e+001
1.159661e+003, 3.192529e+001
1.160143e+003, 3.187915e+001
1.160625e+003, 3.195600e+001
1.161107e+003, 3.208926e+001
1.161589e+003, 3.230212e+001
1.162071e+003, 3.251473e+001
1.162553e+003, 3.262597e+001
1.163036e+003, 3.264308e+001
1.163518e+003, 3.262305e+001
1.164000e+003, 3.256976e+001
1.164482e+003, 3.247135e+001
1.164964e+003, 3.213273e+001
1.165446e+003, 3.196444e+001
1.165928e+003, 3.232983e+001
1.166410e+003, 3.289516e+001
1.166892e+003, 3.303348e+001
1.167375e+003, 3.277048e+001
1.167857e+003, 3.240079e+001
1.168339e+003, 3.195073e+001
1.168821e+003, 3.166788e+001
1.169303e+003, 3.182267e+001
1.169785e+003, 3.211772e+001
1.170267e+003, 3.244340e+001
1.170749e+003, 3.274168e+001
1.171231e+003, 3.286829e+001
1.171714e+003, 3.282413e+001
1.172196e+003, 3.255285e+001
1.172678e+003, 3.198984e+001
1.173160e+003, 3.155927e+001
1.173642e+003, 3.175641e+001
1.174124e+003, 3.212876e+001
1.174606e+003, 3.228080e+001
1.175088e+003, 3.225942e+001
1.175571e+003, 3.246331e+001
1.176053e+003, 3.291645e+001
1.176535e+003, 3.311907e+001
1.177017e+003, 3.287344e+001
1.177499e+003, 3.254001e+001
1.177981e+003, 3.250562e+001
1.178463e+003, 3.252739e+001
1.178945e+003, 3.225728e+001
1.179427e+003, 3.168652e+001
1.179910e+003, 3.176786e+001
1.180392e+003, 3.259955e+001
1.180874e+003, 3.305223e+001
1.181356e+003, 3.252871e+001
1.181838e+003, 3.186916e+001
1.182320e+003, 3.208331e+001
1.182802e+003, 3.260353e+001
1.183284e+003, 3.271345e+001
1.183767e+003, 3.227106e+001
1.184249e+003, 3.209767e+001
1.184731e+003, 3.222944e+001
1.185213e+003, 3.237942e+001
1.185695e+003, 3.242551e+001
1.186177e+003, 3.240279e+001
1.186659e+003, 3.228632e+001
1.187141e+003, 3.215593e+001
1.187624e+003, 3.213370e+001
1.188106e+003, 3.225320e+001
1.188588e+003, 3.244724e+001
1.189070e+003, 3.275536e+001
1.189552e+003, 3.289791e+001
1.190034e+003, 3.256818e+001
1.190516e+003, 3.214320e+001
1.190998e+003, 3.209234e+001
1.191480e+003, 3.228292e+001
1.191963e+003, 3.251182e+001
1.192445e+003, 3.286943e+001
1.192927e+003, 3.286781e+001
1.193409e+003, 3.241067e+001
1.193891e+003, 3.203377e+001
1.194373e+003, 3.226119e+001
1.194855e+003, 3.266009e+001
1.195337e+003, 3.260429e+001
1.195819e+003, 3.228626e+001
1.196302e+003, 3.214206e+001
1.196784e+003, 3.236923e+001
1.197266e+003, 3.246201e+001
1.197748e+003, 3.239329e+001
1.198230e+003, 3.226599e+001
1.198712e+003, 3.210242e+001
1.199194e+003, 3.197244e+001
1.199676e+003, 3.197057e+001
1.200158e+003, 3.208258e+001
1.200641e+003, 3.228486e+001
1.201123e+003, 3.269762e+001
1.201605e+003, 3.286851e+001
1.202087e+003, 3.272009e+001
1.202569e+003, 3.254894e+001
1.203051e+003, 3.270272e+001
1.203533e+003, 3.293982e+001
1.204015e+003, 3.287719e+001
1.204498e+003, 3.261004e+001
1.204980e+003, 3.252031e+001
1.205462e+003, 3.277618e+001
1.205944e+003, 3.293879e+001
1.206426e+003, 3.298176e+001
1.206908e+003, 3.288882e+001
1.207390e+003, 3.245952e+001
1.207872e+003, 3.201169e+001
1.208354e+003, 3.205621e+001
1.208837e+003, 3.248439e+001
1.209319e+003, 3.269490e+001
1.209801e+003, 3.249622e+001
1.210283e+003, 3.240919e+001
1.210765e+003, 3.250211e+001
1.211247e+003, 3.269052e+001
1.211729e+003, 3.298609e+001
1.212211e+003, 3.325882e+001
1.212694e+003, 3.328419e+001
1.213176e+003, 3.310575e+001
1.213658e+003, 3.305818e+001
1.214140e+003, 3.328218e+001
1.214622e+003, 3.326701e+001
1.215104e+003, 3.288257e+001
1.215586e+003, 3.249067e+001
1.216068e+003, 3.254261e+001
1.216551e+003, 3.276873e+001
1.217033e+003, 3.287720e+001
1.217515e+003, 3.284874e+001
1.217997e+003, 3.269868e+001
1.218479e+003, 3.233590e+001
1.218961e+003, 3.222411e+001
1.219443e+003, 3.249294e+001
1.219925e+003, 3.280750e+001
1.220407e+003, 3.272056e+001
1.220890e+003, 3.252015e+001
1.221372e+003, 3.256297e+001
1.221854e+003, 3.284149e+001
1.222336e+003, 3.303159e+001
1.222818e+003, 3.315726e+001
1.223300e+003, 3.297980e+001
1.223782e+003, 3.236805e+001
1.224264e+003, 3.183037e+001
1.224746e+003, 3.207313e+001
1.225229e+003, 3.257911e+001
1.225711e+003, 3.282194e+001
1.226193e+003, 3.277370e+001
1.226675e+003, 3.273052e+001
1.227157e+003, 3.268883e+001
1.227639e+003, 3.270927e+001
1.228121e+003, 3.283117e+001
1.228603e+003, 3.288890e+001
1.229085e+003, 3.250669e+001
1.229568e+003, 3.212766e+001
1.230050e+003, 3.231335e+001
1.230532e+003, 3.299670e+001
1.231014e+003, 3.323225e+001
1.231496e+003, 3.296688e+001
1.231978e+003, 3.271151e+001
1.232460e+003, 3.256256e+001
1.232942e+003, 3.255372e+001
1.233425e+003, 3.290931e+001
1.233907e+003, 3.326384e+001
1.234389e+003, 3.320582e+001
1.234871e+003, 3.281861e+001
1.235353e+003, 3.270872e+001
1.235835e+003, 3.289208e+001
1.236317e+003, 3.299453e+001
1.236799e+003, 3.291185e+001
1.237281e+003, 3.281343e+001
1.237764e+003, 3.285741e+001
1.238246e+003, 3.293171e+001
1.238728e+003, 3.293588e+001
1.239210e+003, 3.289100e+001
1.239692e+003, 3.291348e+001
1.240174e+003, 3.299761e+001
1.240656e+003, 3.298873e+001
1.241138e+003, 3.283634e+001
1.241621e+003, 3.266937e+001
1.242103e+003, 3.254435e+001
1.242585e+003, 3.247982e+001
1.243067e+003, 3.250211e+001
1.243549e+003, 3.258744e+001
1.244031e+003, 3.265902e+001
1.244513e+003, 3.271908e+001
1.244995e+003, 3.277121e+001
1.245478e+003, 3.280648e+001
1.245960e+003, 3.289898e+001
1.246442e+003, 3.324332e+001
1.246924e+003, 3.349662e+001
1.247406e+003, 3.350656e+001
1.247888e+003, 3.328664e+001
1.248370e+003, 3.267750e+001
1.248852e+003, 3.184762e+001
1.249334e+003, 3.156676e+001
1.249817e+003, 3.208085e+001
1.250299e+003, 3.266368e+001
1.250781e+003, 3.317112e+001
1.251263e+003, 3.340358e+001
1.251745e+003, 3.319524e+001
1.252227e+003, 3.275634e+001
1.252709e+003, 3.257991e+001
1.253191e+003, 3.260688e+001
1.253673e+003, 3.266688e+001
1.254156e+003, 3.272454e+001
1.254638e+003, 3.282738e+001
1.255120e+003, 3.303753e+001
1.255602e+003, 3.323029e+001
1.256084e+003, 3.338122e+001
1.256566e+003, 3.346422e+001
1.257048e+003, 3.336782e+001
1.257530e+003, 3.318116e+001
1.258012e+003, 3.309563e+001
1.258495e+003, 3.315324e+001
1.258977e+003, 3.320448e+001
1.259459e+003, 3.322400e+001
1.259941e+003, 3.323539e+001
1.260423e+003, 3.323945e+001
1.260905e+003, 3.325272e+001
1.261387e+003, 3.331525e+001
1.261869e+003, 3.339755e+001
1.262352e+003, 3.346916e+001
1.262834e+003, 3.352637e+001
1.263316e+003, 3.350296e+001
1.263798e+003, 3.337207e+001
1.264280e+003, 3.325561e+001
1.264762e+003, 3.318933e+001
1.265244e+003, 3.315384e+001
1.265726e+003, 3.317621e+001
1.266208e+003, 3.318188e+001
1.266691e+003, 3.301042e+001
1.267173e+003, 3.266968e+001
1.267655e+003, 3.273213e+001
1.268137e+003, 3.327715e+001
1.268619e+003, 3.354634e+001
1.269101e+003, 3.329629e+001
1.269583e+003, 3.291040e+001
1.270065e+003, 3.258727e+001
1.270548e+003, 3.242188e+001
1.271030e+003, 3.256036e+001
1.271512e+003, 3.293880e+001
1.271994e+003, 3.341042e+001
1.272476e+003, 3.396514e+001
1.272958e+003, 3.420427e+001
1.273440e+003, 3.401125e+001
1.273922e+003, 3.371389e+001
1.274405e+003, 3.338599e+001
1.274887e+003, 3.320467e+001
1.275369e+003, 3.332732e+001
1.275851e+003, 3.362926e+001
1.276333e+003, 3.376375e+001
1.276815e+003, 3.376188e+001
1.277297e+003, 3.379423e+001
1.277779e+003, 3.389655e+001
1.278261e+003, 3.395560e+001
1.278744e+003, 3.375900e+001
1.279226e+003, 3.372655e+001
1.279708e+003, 3.413047e+001
1.280190e+003, 3.462378e+001
1.280672e+003, 3.444235e+001
1.281154e+003, 3.383610e+001
1.281636e+003, 3.343240e+001
1.282118e+003, 3.331516e+001
1.282600e+003, 3.330325e+001
1.283083e+003, 3.339669e+001
1.283565e+003, 3.350202e+001
1.284047e+003, 3.360677e+001
1.284529e+003, 3.369647e+001
1.285011e+003, 3.373285e+001
1.285493e+003, 3.375035e+001
1.285975e+003, 3.383152e+001
1.286457e+003, 3.397073e+001
1.286939e+003, 3.396479e+001
1.287422e+003, 3.372814e+001
1.287904e+003, 3.362010e+001
1.288386e+003, 3.372886e+001
1.288868e+003, 3.388961e+001
1.289350e+003, 3.389819e+001
1.289832e+003, 3.388921e+001
1.290314e+003, 3.404367e+001
1.290796e+003, 3.431196e+001
1.291279e+003, 3.442749e+001
1.291761e+003, 3.437959e+001
1.292243e+003, 3.425521e+001
1.292725e+003, 3.405788e+001
1.293207e+003, 3.391042e+001
1.293689e+003, 3.400409e+001
1.294171e+003, 3.408649e+001
1.294653e+003, 3.388219e+001
1.295135e+003, 3.360278e+001
1.295618e+003, 3.370908e+001
1.296100e+003, 3.413315e+001
1.296582e+003, 3.412126e+001
1.297064e+003, 3.363586e+001
1.297546e+003, 3.328368e+001
1.298028e+003, 3.352127e+001
1.298510e+003, 3.381309e+001
1.298992e+003, 3.401409e+001
1.299475e+003, 3.414616e+001
1.299957e+003, 3.418732e+001
1.300439e+003, 3.419287e+001
1.300921e+003, 3.438383e+001
1.301403e+003, 3.471910e+001
1.301885e+003, 3.490347e+001
##END=



