##NAMES=Symplesite
##RRUFFID=R120074
##IDEAL CHEMISTRY=Fe^2+^_3_(As^5+^O_4_)_2_&#183;8H_2_O
##LOCALITY=Saubachbruch, Muldenberg, Vogtland, Sachsen, Germany
##OWNER=RRUFF
##SOURCE=Bob Jenkins
##DESCRIPTION=Aggregate of black bladed crystals,  2-fold twin around [1 -1 0]
##STATUS=The identification of this mineral has been confirmed only by single crystal X-ray diffraction.
##URL=rruff.info/R120074
8.975323e+001, 0.000000e+000
9.023535e+001, 2.775731e+001
9.071747e+001, 2.739462e+001
9.119958e+001, 2.715921e+001
9.168170e+001, 2.778221e+001
9.216382e+001, 2.825457e+001
9.264594e+001, 2.829258e+001
9.312805e+001, 2.796784e+001
9.361017e+001, 2.748690e+001
9.409229e+001, 2.699706e+001
9.457440e+001, 2.644826e+001
9.505651e+001, 2.597200e+001
9.553863e+001, 2.560912e+001
9.602074e+001, 2.530804e+001
9.650286e+001, 2.500730e+001
9.698498e+001, 2.466136e+001
9.746709e+001, 2.426473e+001
9.794921e+001, 2.403135e+001
9.843133e+001, 2.411904e+001
9.891344e+001, 2.415020e+001
9.939556e+001, 2.398843e+001
9.987768e+001, 2.368375e+001
1.003598e+002, 2.337061e+001
1.008419e+002, 2.309546e+001
1.013240e+002, 2.288895e+001
1.018061e+002, 2.280324e+001
1.022883e+002, 2.294019e+001
1.027704e+002, 2.312603e+001
1.032525e+002, 2.317579e+001
1.037346e+002, 2.305826e+001
1.042167e+002, 2.296332e+001
1.046988e+002, 2.309898e+001
1.051810e+002, 2.333008e+001
1.056631e+002, 2.344344e+001
1.061452e+002, 2.326666e+001
1.066273e+002, 2.288531e+001
1.071094e+002, 2.266036e+001
1.075915e+002, 2.269477e+001
1.080737e+002, 2.277245e+001
1.085558e+002, 2.285598e+001
1.090379e+002, 2.291405e+001
1.095200e+002, 2.288233e+001
1.100021e+002, 2.265781e+001
1.104842e+002, 2.216640e+001
1.109664e+002, 2.188104e+001
1.114485e+002, 2.195702e+001
1.119306e+002, 2.209220e+001
1.124127e+002, 2.216771e+001
1.128948e+002, 2.215699e+001
1.133769e+002, 2.208980e+001
1.138591e+002, 2.200586e+001
1.143412e+002, 2.187939e+001
1.148233e+002, 2.178279e+001
1.153054e+002, 2.168430e+001
1.157875e+002, 2.162617e+001
1.162696e+002, 2.168275e+001
1.167517e+002, 2.188805e+001
1.172339e+002, 2.214728e+001
1.177160e+002, 2.221453e+001
1.181981e+002, 2.200990e+001
1.186802e+002, 2.182835e+001
1.191623e+002, 2.178996e+001
1.196444e+002, 2.184559e+001
1.201266e+002, 2.184576e+001
1.206087e+002, 2.167595e+001
1.210908e+002, 2.145313e+001
1.215729e+002, 2.141236e+001
1.220550e+002, 2.163464e+001
1.225371e+002, 2.189925e+001
1.230193e+002, 2.201487e+001
1.235014e+002, 2.196932e+001
1.239835e+002, 2.188199e+001
1.244656e+002, 2.174902e+001
1.249477e+002, 2.162429e+001
1.254298e+002, 2.157148e+001
1.259120e+002, 2.163553e+001
1.263941e+002, 2.175609e+001
1.268762e+002, 2.179936e+001
1.273583e+002, 2.174785e+001
1.278404e+002, 2.163673e+001
1.283225e+002, 2.141988e+001
1.288047e+002, 2.117195e+001
1.292868e+002, 2.099800e+001
1.297689e+002, 2.097499e+001
1.302510e+002, 2.108984e+001
1.307331e+002, 2.115075e+001
1.312152e+002, 2.105088e+001
1.316974e+002, 2.099799e+001
1.321795e+002, 2.109114e+001
1.326616e+002, 2.128283e+001
1.331437e+002, 2.145580e+001
1.336258e+002, 2.150918e+001
1.341079e+002, 2.142776e+001
1.345901e+002, 2.130134e+001
1.350722e+002, 2.101732e+001
1.355543e+002, 2.078379e+001
1.360364e+002, 2.078622e+001
1.365185e+002, 2.101590e+001
1.370006e+002, 2.124756e+001
1.374828e+002, 2.119217e+001
1.379649e+002, 2.076098e+001
1.384470e+002, 2.050871e+001
1.389291e+002, 2.060968e+001
1.394112e+002, 2.084776e+001
1.398933e+002, 2.097380e+001
1.403755e+002, 2.092696e+001
1.408576e+002, 2.079093e+001
1.413397e+002, 2.066263e+001
1.418218e+002, 2.054247e+001
1.423039e+002, 2.040270e+001
1.427860e+002, 2.018240e+001
1.432681e+002, 1.992150e+001
1.437503e+002, 1.977701e+001
1.442324e+002, 1.985938e+001
1.447145e+002, 1.998529e+001
1.451966e+002, 1.998760e+001
1.456787e+002, 1.986441e+001
1.461608e+002, 1.970537e+001
1.466430e+002, 1.957874e+001
1.471251e+002, 1.948611e+001
1.476072e+002, 1.940881e+001
1.480893e+002, 1.934195e+001
1.485714e+002, 1.929103e+001
1.490535e+002, 1.927658e+001
1.495357e+002, 1.929932e+001
1.500178e+002, 1.931746e+001
1.504999e+002, 1.925852e+001
1.509820e+002, 1.906420e+001
1.514641e+002, 1.891922e+001
1.519462e+002, 1.884237e+001
1.524284e+002, 1.880922e+001
1.529105e+002, 1.880696e+001
1.533926e+002, 1.882977e+001
1.538747e+002, 1.887045e+001
1.543568e+002, 1.891245e+001
1.548389e+002, 1.900382e+001
1.553211e+002, 1.903243e+001
1.558032e+002, 1.895308e+001
1.562853e+002, 1.882092e+001
1.567674e+002, 1.868807e+001
1.572495e+002, 1.857694e+001
1.577316e+002, 1.849966e+001
1.582138e+002, 1.851678e+001
1.586959e+002, 1.868085e+001
1.591780e+002, 1.886393e+001
1.596601e+002, 1.909025e+001
1.601422e+002, 1.931778e+001
1.606243e+002, 1.944137e+001
1.611065e+002, 1.937917e+001
1.615886e+002, 1.917477e+001
1.620707e+002, 1.904387e+001
1.625528e+002, 1.903499e+001
1.630349e+002, 1.904626e+001
1.635170e+002, 1.901295e+001
1.639991e+002, 1.894059e+001
1.644813e+002, 1.888386e+001
1.649634e+002, 1.887564e+001
1.654455e+002, 1.891006e+001
1.659276e+002, 1.896844e+001
1.664097e+002, 1.907256e+001
1.668918e+002, 1.918162e+001
1.673740e+002, 1.925733e+001
1.678561e+002, 1.930244e+001
1.683382e+002, 1.930005e+001
1.688203e+002, 1.917611e+001
1.693024e+002, 1.901288e+001
1.697845e+002, 1.891533e+001
1.702667e+002, 1.893999e+001
1.707488e+002, 1.904459e+001
1.712309e+002, 1.913881e+001
1.717130e+002, 1.923324e+001
1.721951e+002, 1.929363e+001
1.726772e+002, 1.930677e+001
1.731594e+002, 1.928519e+001
1.736415e+002, 1.924379e+001
1.741236e+002, 1.918680e+001
1.746057e+002, 1.911789e+001
1.750878e+002, 1.905931e+001
1.755699e+002, 1.900753e+001
1.760521e+002, 1.897297e+001
1.765342e+002, 1.897966e+001
1.770163e+002, 1.900414e+001
1.774984e+002, 1.899925e+001
1.779805e+002, 1.891889e+001
1.784626e+002, 1.876163e+001
1.789448e+002, 1.871588e+001
1.794269e+002, 1.895780e+001
1.799090e+002, 1.913811e+001
1.803911e+002, 1.909750e+001
1.808732e+002, 1.889576e+001
1.813553e+002, 1.869953e+001
1.818375e+002, 1.865112e+001
1.823196e+002, 1.876576e+001
1.828017e+002, 1.889286e+001
1.832838e+002, 1.904131e+001
1.837659e+002, 1.919100e+001
1.842480e+002, 1.937276e+001
1.847301e+002, 1.956421e+001
1.852123e+002, 1.966933e+001
1.856944e+002, 1.957758e+001
1.861765e+002, 1.925109e+001
1.866586e+002, 1.904014e+001
1.871407e+002, 1.900202e+001
1.876228e+002, 1.903385e+001
1.881050e+002, 1.906035e+001
1.885871e+002, 1.907374e+001
1.890692e+002, 1.911816e+001
1.895513e+002, 1.927206e+001
1.900334e+002, 1.952733e+001
1.905155e+002, 1.966809e+001
1.909977e+002, 1.957402e+001
1.914798e+002, 1.939827e+001
1.919619e+002, 1.932365e+001
1.924440e+002, 1.938529e+001
1.929261e+002, 1.947071e+001
1.934082e+002, 1.945755e+001
1.938904e+002, 1.937589e+001
1.943725e+002, 1.931422e+001
1.948546e+002, 1.930007e+001
1.953367e+002, 1.932371e+001
1.958188e+002, 1.936559e+001
1.963009e+002, 1.942240e+001
1.967831e+002, 1.950368e+001
1.972652e+002, 1.964504e+001
1.977473e+002, 1.981991e+001
1.982294e+002, 1.995336e+001
1.987115e+002, 1.997274e+001
1.991936e+002, 1.991071e+001
1.996758e+002, 1.991187e+001
2.001579e+002, 2.001779e+001
2.006400e+002, 2.013712e+001
2.011221e+002, 2.022347e+001
2.016042e+002, 2.028289e+001
2.020863e+002, 2.033055e+001
2.025685e+002, 2.037042e+001
2.030506e+002, 2.040382e+001
2.035327e+002, 2.045766e+001
2.040148e+002, 2.061100e+001
2.044969e+002, 2.069641e+001
2.049790e+002, 2.057905e+001
2.054612e+002, 2.033486e+001
2.059433e+002, 2.014902e+001
2.064254e+002, 2.020772e+001
2.069075e+002, 2.053148e+001
2.073896e+002, 2.069723e+001
2.078717e+002, 2.051099e+001
2.083539e+002, 2.033489e+001
2.088360e+002, 2.029290e+001
2.093181e+002, 2.036296e+001
2.098002e+002, 2.045876e+001
2.102823e+002, 2.051210e+001
2.107644e+002, 2.052634e+001
2.112466e+002, 2.046235e+001
2.117287e+002, 2.027798e+001
2.122108e+002, 2.006423e+001
2.126929e+002, 1.980166e+001
2.131750e+002, 1.952875e+001
2.136571e+002, 1.934015e+001
2.141393e+002, 1.933950e+001
2.146214e+002, 1.957121e+001
2.151035e+002, 1.967525e+001
2.155856e+002, 1.957547e+001
2.160677e+002, 1.944728e+001
2.165498e+002, 1.935036e+001
2.170320e+002, 1.929944e+001
2.175141e+002, 1.931220e+001
2.179962e+002, 1.942659e+001
2.184783e+002, 1.966623e+001
2.189604e+002, 1.973547e+001
2.194425e+002, 1.951459e+001
2.199247e+002, 1.924319e+001
2.204068e+002, 1.905038e+001
2.208889e+002, 1.894566e+001
2.213710e+002, 1.888653e+001
2.218531e+002, 1.883746e+001
2.223352e+002, 1.880141e+001
2.228174e+002, 1.880527e+001
2.232995e+002, 1.894688e+001
2.237816e+002, 1.905750e+001
2.242637e+002, 1.895766e+001
2.247458e+002, 1.865080e+001
2.252279e+002, 1.836902e+001
2.257100e+002, 1.832364e+001
2.261922e+002, 1.848837e+001
2.266743e+002, 1.859048e+001
2.271564e+002, 1.853601e+001
2.276385e+002, 1.846082e+001
2.281206e+002, 1.852092e+001
2.286027e+002, 1.872837e+001
2.290849e+002, 1.890521e+001
2.295670e+002, 1.888199e+001
2.300491e+002, 1.872595e+001
2.305312e+002, 1.862620e+001
2.310133e+002, 1.865171e+001
2.314954e+002, 1.872584e+001
2.319776e+002, 1.875762e+001
2.324597e+002, 1.873949e+001
2.329418e+002, 1.873306e+001
2.334239e+002, 1.883187e+001
2.339060e+002, 1.895758e+001
2.343881e+002, 1.897525e+001
2.348703e+002, 1.877520e+001
2.353524e+002, 1.851669e+001
2.358345e+002, 1.843625e+001
2.363166e+002, 1.857657e+001
2.367987e+002, 1.871653e+001
2.372808e+002, 1.872968e+001
2.377630e+002, 1.868276e+001
2.382451e+002, 1.864074e+001
2.387272e+002, 1.861770e+001
2.392093e+002, 1.861646e+001
2.396914e+002, 1.865536e+001
2.401735e+002, 1.875797e+001
2.406557e+002, 1.882425e+001
2.411378e+002, 1.879420e+001
2.416199e+002, 1.871991e+001
2.421020e+002, 1.863928e+001
2.425841e+002, 1.855909e+001
2.430662e+002, 1.849732e+001
2.435484e+002, 1.848899e+001
2.440305e+002, 1.854869e+001
2.445126e+002, 1.862406e+001
2.449947e+002, 1.870136e+001
2.454768e+002, 1.878589e+001
2.459589e+002, 1.888212e+001
2.464410e+002, 1.899169e+001
2.469232e+002, 1.911392e+001
2.474053e+002, 1.926425e+001
2.478874e+002, 1.948790e+001
2.483695e+002, 1.962409e+001
2.488516e+002, 1.964144e+001
2.493337e+002, 1.957613e+001
2.498159e+002, 1.941409e+001
2.502980e+002, 1.915703e+001
2.507801e+002, 1.889712e+001
2.512622e+002, 1.880715e+001
2.517443e+002, 1.900029e+001
2.522264e+002, 1.910843e+001
2.527086e+002, 1.909395e+001
2.531907e+002, 1.900160e+001
2.536728e+002, 1.882314e+001
2.541549e+002, 1.857125e+001
2.546370e+002, 1.832427e+001
2.551191e+002, 1.821766e+001
2.556013e+002, 1.836192e+001
2.560834e+002, 1.840797e+001
2.565655e+002, 1.834312e+001
2.570476e+002, 1.820447e+001
2.575297e+002, 1.798941e+001
2.580118e+002, 1.771065e+001
2.584940e+002, 1.741419e+001
2.589761e+002, 1.715600e+001
2.594582e+002, 1.692270e+001
2.599403e+002, 1.677194e+001
2.604224e+002, 1.672815e+001
2.609045e+002, 1.672751e+001
2.613867e+002, 1.674238e+001
2.618688e+002, 1.676362e+001
2.623509e+002, 1.678650e+001
2.628330e+002, 1.680482e+001
2.633151e+002, 1.681432e+001
2.637972e+002, 1.683596e+001
2.642794e+002, 1.684207e+001
2.647615e+002, 1.687966e+001
2.652436e+002, 1.700226e+001
2.657257e+002, 1.719318e+001
2.662078e+002, 1.737961e+001
2.666899e+002, 1.749358e+001
2.671721e+002, 1.753122e+001
2.676542e+002, 1.750297e+001
2.681363e+002, 1.732481e+001
2.686184e+002, 1.717035e+001
2.691005e+002, 1.716739e+001
2.695826e+002, 1.727963e+001
2.700648e+002, 1.734797e+001
2.705469e+002, 1.721956e+001
2.710290e+002, 1.688128e+001
2.715111e+002, 1.677988e+001
2.719932e+002, 1.708430e+001
2.724753e+002, 1.740486e+001
2.729575e+002, 1.761191e+001
2.734396e+002, 1.770213e+001
2.739217e+002, 1.768370e+001
2.744038e+002, 1.753882e+001
2.748859e+002, 1.728896e+001
2.753680e+002, 1.721230e+001
2.758501e+002, 1.750273e+001
2.763322e+002, 1.771446e+001
2.768144e+002, 1.763282e+001
2.772965e+002, 1.735775e+001
2.777786e+002, 1.712530e+001
2.782607e+002, 1.707131e+001
2.787428e+002, 1.714557e+001
2.792249e+002, 1.713020e+001
2.797071e+002, 1.696957e+001
2.801892e+002, 1.680507e+001
2.806713e+002, 1.664137e+001
2.811534e+002, 1.650078e+001
2.816355e+002, 1.642817e+001
2.821176e+002, 1.644674e+001
2.825998e+002, 1.653171e+001
2.830819e+002, 1.663429e+001
2.835640e+002, 1.683861e+001
2.840461e+002, 1.690931e+001
2.845282e+002, 1.669258e+001
2.850103e+002, 1.634077e+001
2.854925e+002, 1.607219e+001
2.859746e+002, 1.595838e+001
2.864567e+002, 1.594571e+001
2.869388e+002, 1.596587e+001
2.874209e+002, 1.605247e+001
2.879030e+002, 1.605869e+001
2.883852e+002, 1.588957e+001
2.888673e+002, 1.565638e+001
2.893494e+002, 1.550657e+001
2.898315e+002, 1.547599e+001
2.903136e+002, 1.547268e+001
2.907957e+002, 1.537521e+001
2.912779e+002, 1.516737e+001
2.917600e+002, 1.499484e+001
2.922421e+002, 1.486801e+001
2.927242e+002, 1.478481e+001
2.932063e+002, 1.476374e+001
2.936884e+002, 1.480507e+001
2.941706e+002, 1.484164e+001
2.946527e+002, 1.479612e+001
2.951348e+002, 1.466939e+001
2.956169e+002, 1.461496e+001
2.960990e+002, 1.469908e+001
2.965811e+002, 1.481323e+001
2.970633e+002, 1.489063e+001
2.975454e+002, 1.492494e+001
2.980275e+002, 1.490535e+001
2.985096e+002, 1.480593e+001
2.989917e+002, 1.464152e+001
2.994738e+002, 1.451957e+001
2.999560e+002, 1.447070e+001
3.004381e+002, 1.443622e+001
3.009202e+002, 1.439139e+001
3.014023e+002, 1.433443e+001
3.018844e+002, 1.425057e+001
3.023665e+002, 1.411099e+001
3.028487e+002, 1.395568e+001
3.033308e+002, 1.390657e+001
3.038129e+002, 1.405517e+001
3.042950e+002, 1.415237e+001
3.047771e+002, 1.402137e+001
3.052592e+002, 1.374949e+001
3.057414e+002, 1.357187e+001
3.062235e+002, 1.359329e+001
3.067056e+002, 1.371980e+001
3.071877e+002, 1.375504e+001
3.076698e+002, 1.365790e+001
3.081519e+002, 1.363888e+001
3.086341e+002, 1.387122e+001
3.091162e+002, 1.420446e+001
3.095983e+002, 1.437217e+001
3.100804e+002, 1.429704e+001
3.105625e+002, 1.408658e+001
3.110446e+002, 1.384225e+001
3.115268e+002, 1.355748e+001
3.120089e+002, 1.333740e+001
3.124910e+002, 1.321961e+001
3.129731e+002, 1.316970e+001
3.134552e+002, 1.316622e+001
3.139373e+002, 1.320872e+001
3.144195e+002, 1.323945e+001
3.149016e+002, 1.318685e+001
3.153837e+002, 1.305941e+001
3.158658e+002, 1.299072e+001
3.163479e+002, 1.305482e+001
3.168300e+002, 1.313671e+001
3.173121e+002, 1.313890e+001
3.177943e+002, 1.306154e+001
3.182764e+002, 1.295966e+001
3.187585e+002, 1.285480e+001
3.192406e+002, 1.275796e+001
3.197227e+002, 1.270487e+001
3.202048e+002, 1.275836e+001
3.206870e+002, 1.279198e+001
3.211691e+002, 1.270451e+001
3.216512e+002, 1.253137e+001
3.221333e+002, 1.239978e+001
3.226154e+002, 1.237719e+001
3.230975e+002, 1.242385e+001
3.235797e+002, 1.244134e+001
3.240618e+002, 1.243150e+001
3.245439e+002, 1.239745e+001
3.250260e+002, 1.230070e+001
3.255081e+002, 1.218578e+001
3.259902e+002, 1.215770e+001
3.264724e+002, 1.226741e+001
3.269545e+002, 1.240525e+001
3.274366e+002, 1.237487e+001
3.279187e+002, 1.214229e+001
3.284008e+002, 1.197401e+001
3.288829e+002, 1.196140e+001
3.293651e+002, 1.201900e+001
3.298472e+002, 1.206216e+001
3.303293e+002, 1.207629e+001
3.308114e+002, 1.205183e+001
3.312935e+002, 1.196343e+001
3.317756e+002, 1.180503e+001
3.322578e+002, 1.169392e+001
3.327399e+002, 1.168264e+001
3.332220e+002, 1.168326e+001
3.337041e+002, 1.163557e+001
3.341862e+002, 1.153849e+001
3.346683e+002, 1.140239e+001
3.351505e+002, 1.120395e+001
3.356326e+002, 1.097577e+001
3.361147e+002, 1.092920e+001
3.365968e+002, 1.124031e+001
3.370789e+002, 1.152529e+001
3.375610e+002, 1.162597e+001
3.380432e+002, 1.157820e+001
3.385253e+002, 1.144573e+001
3.390074e+002, 1.123683e+001
3.394895e+002, 1.101091e+001
3.399716e+002, 1.094295e+001
3.404537e+002, 1.109663e+001
3.409359e+002, 1.126327e+001
3.414180e+002, 1.143661e+001
3.419001e+002, 1.158998e+001
3.423822e+002, 1.169624e+001
3.428643e+002, 1.174750e+001
3.433464e+002, 1.172629e+001
3.438286e+002, 1.158547e+001
3.443107e+002, 1.123026e+001
3.447928e+002, 1.105347e+001
3.452749e+002, 1.114022e+001
3.457570e+002, 1.135000e+001
3.462391e+002, 1.166711e+001
3.467213e+002, 1.204333e+001
3.472034e+002, 1.228001e+001
3.476855e+002, 1.215550e+001
3.481676e+002, 1.164154e+001
3.486497e+002, 1.140443e+001
3.491318e+002, 1.169620e+001
3.496140e+002, 1.196200e+001
3.500961e+002, 1.190675e+001
3.505782e+002, 1.163640e+001
3.510603e+002, 1.142783e+001
3.515424e+002, 1.144935e+001
3.520245e+002, 1.164129e+001
3.525067e+002, 1.174812e+001
3.529888e+002, 1.167289e+001
3.534709e+002, 1.163289e+001
3.539530e+002, 1.173056e+001
3.544351e+002, 1.184696e+001
3.549172e+002, 1.179355e+001
3.553994e+002, 1.151264e+001
3.558815e+002, 1.118856e+001
3.563636e+002, 1.114729e+001
3.568457e+002, 1.162228e+001
3.573278e+002, 1.190950e+001
3.578099e+002, 1.188791e+001
3.582920e+002, 1.178819e+001
3.587741e+002, 1.173553e+001
3.592563e+002, 1.175793e+001
3.597384e+002, 1.185337e+001
3.602205e+002, 1.203528e+001
3.607026e+002, 1.232306e+001
3.611847e+002, 1.250605e+001
3.616668e+002, 1.251118e+001
3.621490e+002, 1.249493e+001
3.626311e+002, 1.248915e+001
3.631132e+002, 1.250177e+001
3.635953e+002, 1.253259e+001
3.640774e+002, 1.257939e+001
3.645595e+002, 1.265018e+001
3.650417e+002, 1.278790e+001
3.655238e+002, 1.314857e+001
3.660059e+002, 1.335252e+001
3.664880e+002, 1.318319e+001
3.669701e+002, 1.293143e+001
3.674522e+002, 1.291686e+001
3.679344e+002, 1.323025e+001
3.684165e+002, 1.366305e+001
3.688986e+002, 1.388298e+001
3.693807e+002, 1.379716e+001
3.698628e+002, 1.374673e+001
3.703449e+002, 1.378872e+001
3.708271e+002, 1.382855e+001
3.713092e+002, 1.381287e+001
3.717913e+002, 1.374469e+001
3.722734e+002, 1.366161e+001
3.727555e+002, 1.359490e+001
3.732376e+002, 1.354423e+001
3.737198e+002, 1.349428e+001
3.742019e+002, 1.345108e+001
3.746840e+002, 1.340049e+001
3.751661e+002, 1.334410e+001
3.756482e+002, 1.327662e+001
3.761303e+002, 1.318247e+001
3.766125e+002, 1.304353e+001
3.770946e+002, 1.289748e+001
3.775767e+002, 1.284938e+001
3.780588e+002, 1.296065e+001
3.785409e+002, 1.299406e+001
3.790230e+002, 1.280355e+001
3.795052e+002, 1.255962e+001
3.799873e+002, 1.238587e+001
3.804694e+002, 1.230719e+001
3.809515e+002, 1.228205e+001
3.814336e+002, 1.229496e+001
3.819157e+002, 1.234421e+001
3.823979e+002, 1.233432e+001
3.828800e+002, 1.219991e+001
3.833621e+002, 1.206644e+001
3.838442e+002, 1.203018e+001
3.843263e+002, 1.206876e+001
3.848084e+002, 1.209800e+001
3.852906e+002, 1.208161e+001
3.857727e+002, 1.202318e+001
3.862548e+002, 1.190819e+001
3.867369e+002, 1.170840e+001
3.872190e+002, 1.155654e+001
3.877011e+002, 1.161576e+001
3.881833e+002, 1.174679e+001
3.886654e+002, 1.173026e+001
3.891475e+002, 1.144421e+001
3.896296e+002, 1.115096e+001
3.901117e+002, 1.113142e+001
3.905938e+002, 1.134542e+001
3.910760e+002, 1.147188e+001
3.915581e+002, 1.137803e+001
3.920402e+002, 1.118497e+001
3.925223e+002, 1.105324e+001
3.930044e+002, 1.098227e+001
3.934865e+002, 1.094529e+001
3.939687e+002, 1.093831e+001
3.944508e+002, 1.095705e+001
3.949329e+002, 1.099671e+001
3.954150e+002, 1.105751e+001
3.958971e+002, 1.113498e+001
3.963792e+002, 1.124038e+001
3.968614e+002, 1.136634e+001
3.973435e+002, 1.144361e+001
3.978256e+002, 1.147382e+001
3.983077e+002, 1.145107e+001
3.987898e+002, 1.132158e+001
3.992719e+002, 1.112403e+001
3.997540e+002, 1.100605e+001
4.002361e+002, 1.106003e+001
4.007183e+002, 1.121113e+001
4.012004e+002, 1.123322e+001
4.016825e+002, 1.102662e+001
4.021646e+002, 1.088672e+001
4.026467e+002, 1.090378e+001
4.031288e+002, 1.099596e+001
4.036110e+002, 1.107663e+001
4.040931e+002, 1.112425e+001
4.045752e+002, 1.115856e+001
4.050573e+002, 1.120528e+001
4.055394e+002, 1.127370e+001
4.060215e+002, 1.130171e+001
4.065037e+002, 1.124893e+001
4.069858e+002, 1.119954e+001
4.074679e+002, 1.120414e+001
4.079500e+002, 1.124708e+001
4.084321e+002, 1.128649e+001
4.089142e+002, 1.129859e+001
4.093964e+002, 1.128141e+001
4.098785e+002, 1.122516e+001
4.103606e+002, 1.106291e+001
4.108427e+002, 1.094904e+001
4.113248e+002, 1.094070e+001
4.118069e+002, 1.096102e+001
4.122891e+002, 1.092049e+001
4.127712e+002, 1.080290e+001
4.132533e+002, 1.068301e+001
4.137354e+002, 1.067240e+001
4.142175e+002, 1.081050e+001
4.146996e+002, 1.089935e+001
4.151818e+002, 1.090313e+001
4.156639e+002, 1.088900e+001
4.161460e+002, 1.084323e+001
4.166281e+002, 1.079905e+001
4.171102e+002, 1.083557e+001
4.175923e+002, 1.103316e+001
4.180745e+002, 1.132065e+001
4.185566e+002, 1.144245e+001
4.190387e+002, 1.132310e+001
4.195208e+002, 1.120239e+001
4.200029e+002, 1.113230e+001
4.204850e+002, 1.110593e+001
4.209672e+002, 1.112827e+001
4.214493e+002, 1.120143e+001
4.219314e+002, 1.129371e+001
4.224135e+002, 1.141330e+001
4.228956e+002, 1.155252e+001
4.233777e+002, 1.153436e+001
4.238599e+002, 1.120188e+001
4.243420e+002, 1.088856e+001
4.248241e+002, 1.087989e+001
4.253062e+002, 1.110634e+001
4.257883e+002, 1.131873e+001
4.262704e+002, 1.141056e+001
4.267526e+002, 1.142989e+001
4.272347e+002, 1.143538e+001
4.277168e+002, 1.142615e+001
4.281989e+002, 1.142619e+001
4.286810e+002, 1.144315e+001
4.291631e+002, 1.148203e+001
4.296453e+002, 1.154764e+001
4.301274e+002, 1.164834e+001
4.306095e+002, 1.175692e+001
4.310916e+002, 1.187968e+001
4.315737e+002, 1.199743e+001
4.320558e+002, 1.206061e+001
4.325380e+002, 1.205068e+001
4.330201e+002, 1.202697e+001
4.335022e+002, 1.205898e+001
4.339843e+002, 1.215512e+001
4.344664e+002, 1.224977e+001
4.349485e+002, 1.237683e+001
4.354307e+002, 1.247110e+001
4.359128e+002, 1.243083e+001
4.363949e+002, 1.230797e+001
4.368770e+002, 1.229545e+001
4.373591e+002, 1.252639e+001
4.378412e+002, 1.290962e+001
4.383234e+002, 1.309213e+001
4.388055e+002, 1.290589e+001
4.392876e+002, 1.272997e+001
4.397697e+002, 1.252122e+001
4.402518e+002, 1.237220e+001
4.407339e+002, 1.242214e+001
4.412160e+002, 1.267176e+001
4.416982e+002, 1.294588e+001
4.421803e+002, 1.303736e+001
4.426624e+002, 1.291810e+001
4.431445e+002, 1.282358e+001
4.436266e+002, 1.277104e+001
4.441087e+002, 1.272615e+001
4.445909e+002, 1.267562e+001
4.450730e+002, 1.262682e+001
4.455551e+002, 1.259201e+001
4.460372e+002, 1.257788e+001
4.465193e+002, 1.258123e+001
4.470014e+002, 1.261063e+001
4.474836e+002, 1.270282e+001
4.479657e+002, 1.271038e+001
4.484478e+002, 1.251210e+001
4.489299e+002, 1.228873e+001
4.494120e+002, 1.214070e+001
4.498941e+002, 1.207844e+001
4.503763e+002, 1.207175e+001
4.508584e+002, 1.213563e+001
4.513405e+002, 1.224353e+001
4.518226e+002, 1.227111e+001
4.523047e+002, 1.218909e+001
4.527868e+002, 1.209419e+001
4.532690e+002, 1.204540e+001
4.537511e+002, 1.201912e+001
4.542332e+002, 1.197854e+001
4.547153e+002, 1.189951e+001
4.551974e+002, 1.183719e+001
4.556795e+002, 1.184565e+001
4.561617e+002, 1.191237e+001
4.566438e+002, 1.199643e+001
4.571259e+002, 1.210900e+001
4.576080e+002, 1.218593e+001
4.580901e+002, 1.208774e+001
4.585722e+002, 1.181179e+001
4.590544e+002, 1.166774e+001
4.595365e+002, 1.181916e+001
4.600186e+002, 1.204721e+001
4.605007e+002, 1.217624e+001
4.609828e+002, 1.220287e+001
4.614649e+002, 1.218781e+001
4.619471e+002, 1.216768e+001
4.624292e+002, 1.213467e+001
4.629113e+002, 1.205341e+001
4.633934e+002, 1.176758e+001
4.638755e+002, 1.163995e+001
4.643576e+002, 1.187366e+001
4.648398e+002, 1.219646e+001
4.653219e+002, 1.229922e+001
4.658040e+002, 1.213934e+001
4.662861e+002, 1.192950e+001
4.667682e+002, 1.191167e+001
4.672503e+002, 1.211440e+001
4.677325e+002, 1.223175e+001
4.682146e+002, 1.212787e+001
4.686967e+002, 1.208353e+001
4.691788e+002, 1.221782e+001
4.696609e+002, 1.244776e+001
4.701430e+002, 1.266399e+001
4.706252e+002, 1.282164e+001
4.711073e+002, 1.290207e+001
4.715894e+002, 1.283918e+001
4.720715e+002, 1.258111e+001
4.725536e+002, 1.240860e+001
4.730357e+002, 1.240324e+001
4.735179e+002, 1.246449e+001
4.740000e+002, 1.256810e+001
4.744821e+002, 1.269569e+001
4.749642e+002, 1.279646e+001
4.754463e+002, 1.281726e+001
4.759284e+002, 1.279846e+001
4.764106e+002, 1.282832e+001
4.768927e+002, 1.291079e+001
4.773748e+002, 1.302260e+001
4.778569e+002, 1.321976e+001
4.783390e+002, 1.339954e+001
4.788211e+002, 1.337719e+001
4.793033e+002, 1.307635e+001
4.797854e+002, 1.282790e+001
4.802675e+002, 1.283544e+001
4.807496e+002, 1.299774e+001
4.812317e+002, 1.314130e+001
4.817138e+002, 1.323634e+001
4.821959e+002, 1.330567e+001
4.826780e+002, 1.336816e+001
4.831602e+002, 1.342272e+001
4.836423e+002, 1.346305e+001
4.841244e+002, 1.351036e+001
4.846065e+002, 1.352184e+001
4.850886e+002, 1.342181e+001
4.855707e+002, 1.328639e+001
4.860529e+002, 1.326983e+001
4.865350e+002, 1.342817e+001
4.870171e+002, 1.364375e+001
4.874992e+002, 1.371371e+001
4.879813e+002, 1.355057e+001
4.884634e+002, 1.348330e+001
4.889456e+002, 1.364455e+001
4.894277e+002, 1.375924e+001
4.899098e+002, 1.361688e+001
4.903919e+002, 1.332177e+001
4.908740e+002, 1.312458e+001
4.913561e+002, 1.318286e+001
4.918383e+002, 1.342014e+001
4.923204e+002, 1.366099e+001
4.928025e+002, 1.397475e+001
4.932846e+002, 1.409830e+001
4.937667e+002, 1.377261e+001
4.942488e+002, 1.338336e+001
4.947310e+002, 1.317652e+001
4.952131e+002, 1.316608e+001
4.956952e+002, 1.322752e+001
4.961773e+002, 1.332547e+001
4.966594e+002, 1.342644e+001
4.971415e+002, 1.342632e+001
4.976237e+002, 1.330675e+001
4.981058e+002, 1.315861e+001
4.985879e+002, 1.297989e+001
4.990700e+002, 1.282539e+001
4.995521e+002, 1.280900e+001
5.000342e+002, 1.300128e+001
5.005164e+002, 1.317198e+001
5.009985e+002, 1.318098e+001
5.014806e+002, 1.309906e+001
5.019627e+002, 1.306992e+001
5.024448e+002, 1.312399e+001
5.029269e+002, 1.314356e+001
5.034091e+002, 1.299407e+001
5.038912e+002, 1.266646e+001
5.043733e+002, 1.247778e+001
5.048554e+002, 1.251414e+001
5.053375e+002, 1.257594e+001
5.058196e+002, 1.262106e+001
5.063018e+002, 1.263743e+001
5.067839e+002, 1.259844e+001
5.072660e+002, 1.249764e+001
5.077481e+002, 1.238333e+001
5.082302e+002, 1.233724e+001
5.087123e+002, 1.239127e+001
5.091945e+002, 1.239783e+001
5.096766e+002, 1.231315e+001
5.101587e+002, 1.222458e+001
5.106408e+002, 1.216398e+001
5.111229e+002, 1.212373e+001
5.116050e+002, 1.207335e+001
5.120872e+002, 1.198578e+001
5.125693e+002, 1.192041e+001
5.130514e+002, 1.203566e+001
5.135335e+002, 1.237577e+001
5.140156e+002, 1.255145e+001
5.144977e+002, 1.238044e+001
5.149799e+002, 1.211120e+001
5.154620e+002, 1.193476e+001
5.159441e+002, 1.184689e+001
5.164262e+002, 1.180036e+001
5.169083e+002, 1.183014e+001
5.173904e+002, 1.185880e+001
5.178726e+002, 1.176769e+001
5.183547e+002, 1.156414e+001
5.188368e+002, 1.135602e+001
5.193189e+002, 1.117379e+001
5.198010e+002, 1.104123e+001
5.202831e+002, 1.103653e+001
5.207653e+002, 1.120512e+001
5.212474e+002, 1.133902e+001
5.217295e+002, 1.144235e+001
5.222116e+002, 1.147003e+001
5.226937e+002, 1.131014e+001
5.231758e+002, 1.100922e+001
5.236580e+002, 1.078784e+001
5.241401e+002, 1.081858e+001
5.246222e+002, 1.104294e+001
5.251043e+002, 1.115882e+001
5.255864e+002, 1.109520e+001
5.260685e+002, 1.101586e+001
5.265507e+002, 1.092114e+001
5.270328e+002, 1.082710e+001
5.275149e+002, 1.074862e+001
5.279970e+002, 1.068590e+001
5.284791e+002, 1.062605e+001
5.289612e+002, 1.055309e+001
5.294434e+002, 1.047249e+001
5.299255e+002, 1.041901e+001
5.304076e+002, 1.040118e+001
5.308897e+002, 1.039128e+001
5.313718e+002, 1.038519e+001
5.318539e+002, 1.037741e+001
5.323361e+002, 1.036315e+001
5.328182e+002, 1.034236e+001
5.333003e+002, 1.031051e+001
5.337824e+002, 1.024789e+001
5.342645e+002, 1.017527e+001
5.347466e+002, 1.015036e+001
5.352288e+002, 1.018525e+001
5.357109e+002, 1.020246e+001
5.361930e+002, 1.013541e+001
5.366751e+002, 9.999002e+000
5.371572e+002, 9.894368e+000
5.376393e+002, 9.851098e+000
5.381215e+002, 9.799975e+000
5.386036e+002, 9.707086e+000
5.390857e+002, 9.601826e+000
5.395678e+002, 9.517424e+000
5.400499e+002, 9.462093e+000
5.405320e+002, 9.433002e+000
5.410142e+002, 9.436845e+000
5.414963e+002, 9.476611e+000
5.419784e+002, 9.444273e+000
5.424604e+002, 9.265979e+000
5.429426e+002, 9.100754e+000
5.434247e+002, 8.957192e+000
5.439068e+002, 8.854426e+000
5.443889e+002, 8.822660e+000
5.448710e+002, 8.866987e+000
5.453531e+002, 8.942219e+000
5.458353e+002, 9.027995e+000
5.463174e+002, 9.116454e+000
5.467995e+002, 9.088548e+000
5.472816e+002, 8.870016e+000
5.477637e+002, 8.679833e+000
5.482458e+002, 8.733109e+000
5.487280e+002, 8.888652e+000
5.492101e+002, 8.908573e+000
5.496922e+002, 8.703373e+000
5.501743e+002, 8.466299e+000
5.506564e+002, 8.270535e+000
5.511385e+002, 8.138037e+000
5.516207e+002, 8.159266e+000
5.521028e+002, 8.357736e+000
5.525849e+002, 8.529879e+000
5.530670e+002, 8.459382e+000
5.535491e+002, 8.144735e+000
5.540313e+002, 7.996497e+000
5.545134e+002, 8.117303e+000
5.549955e+002, 8.254542e+000
5.554776e+002, 8.355957e+000
5.559597e+002, 8.428253e+000
5.564418e+002, 8.492662e+000
5.569240e+002, 8.550360e+000
5.574061e+002, 8.564014e+000
5.578882e+002, 8.472495e+000
5.583703e+002, 8.270069e+000
5.588524e+002, 8.138586e+000
5.593345e+002, 8.109857e+000
5.598167e+002, 8.112096e+000
5.602988e+002, 8.130039e+000
5.607809e+002, 8.156827e+000
5.612630e+002, 8.191900e+000
5.617451e+002, 8.237667e+000
5.622272e+002, 8.261702e+000
5.627094e+002, 8.241570e+000
5.631915e+002, 8.177249e+000
5.636736e+002, 8.045266e+000
5.641557e+002, 7.821639e+000
5.646378e+002, 7.639900e+000
5.651199e+002, 7.618165e+000
5.656021e+002, 7.719577e+000
5.660842e+002, 7.763037e+000
5.665663e+002, 7.703549e+000
5.670484e+002, 7.650940e+000
5.675305e+002, 7.644671e+000
5.680126e+002, 7.664968e+000
5.684948e+002, 7.700686e+000
5.689769e+002, 7.743024e+000
5.694590e+002, 7.759323e+000
5.699411e+002, 7.713500e+000
5.704232e+002, 7.610026e+000
5.709053e+002, 7.538781e+000
5.713875e+002, 7.546148e+000
5.718696e+002, 7.522737e+000
5.723517e+002, 7.403901e+000
5.728338e+002, 7.277816e+000
5.733159e+002, 7.235940e+000
5.737980e+002, 7.286599e+000
5.742802e+002, 7.356116e+000
5.747623e+002, 7.393600e+000
5.752444e+002, 7.398333e+000
5.757265e+002, 7.347269e+000
5.762086e+002, 7.214452e+000
5.766907e+002, 7.138434e+000
5.771729e+002, 7.230729e+000
5.776550e+002, 7.393658e+000
5.781371e+002, 7.468298e+000
5.786192e+002, 7.438309e+000
5.791013e+002, 7.382220e+000
5.795834e+002, 7.297019e+000
5.800656e+002, 7.220420e+000
5.805477e+002, 7.215654e+000
5.810298e+002, 7.273178e+000
5.815119e+002, 7.307807e+000
5.819940e+002, 7.262486e+000
5.824761e+002, 7.160539e+000
5.829583e+002, 7.080056e+000
5.834404e+002, 7.004023e+000
5.839225e+002, 6.979158e+000
5.844046e+002, 7.045842e+000
5.848867e+002, 7.127244e+000
5.853688e+002, 7.191346e+000
5.858510e+002, 7.225453e+000
5.863331e+002, 7.205622e+000
5.868152e+002, 7.098580e+000
5.872973e+002, 6.962817e+000
5.877794e+002, 6.951116e+000
5.882615e+002, 7.086447e+000
5.887437e+002, 7.189795e+000
5.892258e+002, 7.220773e+000
5.897079e+002, 7.201307e+000
5.901900e+002, 7.135100e+000
5.906721e+002, 7.031908e+000
5.911542e+002, 6.956730e+000
5.916364e+002, 6.951711e+000
5.921185e+002, 6.963737e+000
5.926006e+002, 6.949539e+000
5.930827e+002, 6.915425e+000
5.935648e+002, 6.882280e+000
5.940469e+002, 6.857949e+000
5.945291e+002, 6.832997e+000
5.950112e+002, 6.785595e+000
5.954933e+002, 6.690710e+000
5.959754e+002, 6.692111e+000
5.964575e+002, 6.877724e+000
5.969396e+002, 7.047006e+000
5.974218e+002, 7.154953e+000
5.979039e+002, 7.193723e+000
5.983860e+002, 7.135363e+000
5.988681e+002, 6.974818e+000
5.993502e+002, 6.805173e+000
5.998323e+002, 6.740964e+000
6.003145e+002, 6.778918e+000
6.007966e+002, 6.850873e+000
6.012787e+002, 7.001719e+000
6.017608e+002, 7.083658e+000
6.022429e+002, 6.885725e+000
6.027250e+002, 6.602896e+000
6.032072e+002, 6.576467e+000
6.036893e+002, 6.958320e+000
6.041714e+002, 7.262227e+000
6.046535e+002, 7.164834e+000
6.051356e+002, 6.873487e+000
6.056177e+002, 6.685311e+000
6.060999e+002, 6.633196e+000
6.065820e+002, 6.597867e+000
6.070641e+002, 6.481088e+000
6.075462e+002, 6.326673e+000
6.080283e+002, 6.338043e+000
6.085104e+002, 6.740842e+000
6.089926e+002, 6.987023e+000
6.094747e+002, 6.958885e+000
6.099568e+002, 6.852308e+000
6.104389e+002, 6.781710e+000
6.109210e+002, 6.759606e+000
6.114031e+002, 6.764341e+000
6.118853e+002, 6.790584e+000
6.123674e+002, 6.821535e+000
6.128495e+002, 6.812102e+000
6.133316e+002, 6.756483e+000
6.138137e+002, 6.733513e+000
6.142958e+002, 6.786638e+000
6.147780e+002, 6.846449e+000
6.152601e+002, 6.836328e+000
6.157422e+002, 6.767672e+000
6.162243e+002, 6.704622e+000
6.167064e+002, 6.661261e+000
6.171885e+002, 6.626258e+000
6.176707e+002, 6.595125e+000
6.181528e+002, 6.566640e+000
6.186349e+002, 6.534101e+000
6.191170e+002, 6.496299e+000
6.195991e+002, 6.471509e+000
6.200812e+002, 6.487687e+000
6.205634e+002, 6.550678e+000
6.210455e+002, 6.565851e+000
6.215276e+002, 6.498647e+000
6.220097e+002, 6.423446e+000
6.224918e+002, 6.350585e+000
6.229739e+002, 6.280334e+000
6.234561e+002, 6.204878e+000
6.239382e+002, 6.125931e+000
6.244203e+002, 6.070855e+000
6.249023e+002, 6.085474e+000
6.253845e+002, 6.137920e+000
6.258666e+002, 6.122772e+000
6.263487e+002, 6.028451e+000
6.268308e+002, 5.984643e+000
6.273129e+002, 6.060043e+000
6.277950e+002, 6.210742e+000
6.282772e+002, 6.378837e+000
6.287593e+002, 6.591598e+000
6.292414e+002, 6.701083e+000
6.297235e+002, 6.632494e+000
6.302056e+002, 6.501925e+000
6.306877e+002, 6.340353e+000
6.311699e+002, 6.186634e+000
6.316520e+002, 6.124888e+000
6.321341e+002, 6.194189e+000
6.326162e+002, 6.310057e+000
6.330983e+002, 6.308969e+000
6.335804e+002, 6.146529e+000
6.340626e+002, 6.104061e+000
6.345447e+002, 6.309355e+000
6.350268e+002, 6.472054e+000
6.355089e+002, 6.385951e+000
6.359910e+002, 6.207029e+000
6.364731e+002, 6.199622e+000
6.369553e+002, 6.466090e+000
6.374374e+002, 6.722400e+000
6.379195e+002, 6.751456e+000
6.384016e+002, 6.635031e+000
6.388837e+002, 6.506574e+000
6.393658e+002, 6.384664e+000
6.398480e+002, 6.287888e+000
6.403301e+002, 6.226060e+000
6.408122e+002, 6.200856e+000
6.412943e+002, 6.219187e+000
6.417764e+002, 6.357106e+000
6.422585e+002, 6.424662e+000
6.427407e+002, 6.354868e+000
6.432228e+002, 6.274499e+000
6.437049e+002, 6.281833e+000
6.441870e+002, 6.346142e+000
6.446691e+002, 6.370665e+000
6.451512e+002, 6.300643e+000
6.456334e+002, 6.187423e+000
6.461155e+002, 6.112321e+000
6.465976e+002, 6.075052e+000
6.470797e+002, 6.035460e+000
6.475618e+002, 5.979976e+000
6.480439e+002, 5.938466e+000
6.485261e+002, 5.948392e+000
6.490082e+002, 5.991104e+000
6.494903e+002, 6.007518e+000
6.499724e+002, 5.980536e+000
6.504545e+002, 5.946477e+000
6.509366e+002, 5.900419e+000
6.514188e+002, 5.865412e+000
6.519009e+002, 5.865412e+000
6.523830e+002, 5.905109e+000
6.528651e+002, 5.996603e+000
6.533472e+002, 6.162871e+000
6.538293e+002, 6.357318e+000
6.543115e+002, 6.391674e+000
6.547936e+002, 6.183416e+000
6.552757e+002, 6.014970e+000
6.557578e+002, 5.938150e+000
6.562399e+002, 5.900415e+000
6.567220e+002, 5.869953e+000
6.572042e+002, 5.855486e+000
6.576863e+002, 5.896697e+000
6.581684e+002, 6.062931e+000
6.586505e+002, 6.203017e+000
6.591326e+002, 6.149606e+000
6.596147e+002, 5.956645e+000
6.600969e+002, 5.743921e+000
6.605790e+002, 5.534270e+000
6.610611e+002, 5.413278e+000
6.615432e+002, 5.470385e+000
6.620253e+002, 5.688285e+000
6.625074e+002, 5.877446e+000
6.629896e+002, 6.076343e+000
6.634717e+002, 6.192890e+000
6.639538e+002, 6.178785e+000
6.644359e+002, 6.110787e+000
6.649180e+002, 6.015853e+000
6.654001e+002, 5.920307e+000
6.658823e+002, 5.881497e+000
6.663644e+002, 5.948005e+000
6.668465e+002, 6.068902e+000
6.673286e+002, 6.162917e+000
6.678107e+002, 6.229895e+000
6.682928e+002, 6.258016e+000
6.687750e+002, 6.231769e+000
6.692571e+002, 6.197532e+000
6.697392e+002, 6.212930e+000
6.702213e+002, 6.266970e+000
6.707034e+002, 6.256912e+000
6.711855e+002, 6.104810e+000
6.716677e+002, 5.982488e+000
6.721498e+002, 5.954783e+000
6.726319e+002, 5.978624e+000
6.731140e+002, 6.027166e+000
6.735961e+002, 6.082905e+000
6.740782e+002, 6.108931e+000
6.745604e+002, 6.073264e+000
6.750425e+002, 5.993616e+000
6.755246e+002, 5.916902e+000
6.760067e+002, 5.830283e+000
6.764888e+002, 5.807868e+000
6.769709e+002, 5.910238e+000
6.774531e+002, 6.029929e+000
6.779352e+002, 6.098508e+000
6.784173e+002, 6.116315e+000
6.788994e+002, 6.077821e+000
6.793815e+002, 5.919995e+000
6.798636e+002, 5.784953e+000
6.803458e+002, 5.760773e+000
6.808279e+002, 5.811657e+000
6.813100e+002, 5.909232e+000
6.817921e+002, 6.034506e+000
6.822742e+002, 6.114592e+000
6.827563e+002, 6.081681e+000
6.832385e+002, 5.963483e+000
6.837206e+002, 5.894053e+000
6.842027e+002, 5.875817e+000
6.846848e+002, 5.901284e+000
6.851669e+002, 6.036774e+000
6.856490e+002, 6.156314e+000
6.861312e+002, 6.175773e+000
6.866133e+002, 6.117425e+000
6.870954e+002, 6.053819e+000
6.875775e+002, 5.998919e+000
6.880596e+002, 5.970839e+000
6.885417e+002, 6.008174e+000
6.890239e+002, 6.081154e+000
6.895060e+002, 6.119786e+000
6.899881e+002, 6.111732e+000
6.904702e+002, 6.083556e+000
6.909523e+002, 6.055712e+000
6.914344e+002, 6.025447e+000
6.919166e+002, 5.975811e+000
6.923987e+002, 5.857746e+000
6.928808e+002, 5.800785e+000
6.933629e+002, 5.865015e+000
6.938450e+002, 5.938550e+000
6.943271e+002, 5.941355e+000
6.948093e+002, 5.897719e+000
6.952914e+002, 5.882117e+000
6.957735e+002, 5.931139e+000
6.962556e+002, 6.006512e+000
6.967377e+002, 6.093314e+000
6.972198e+002, 6.172892e+000
6.977020e+002, 6.161651e+000
6.981841e+002, 6.040887e+000
6.986662e+002, 5.919278e+000
6.991483e+002, 5.871047e+000
6.996304e+002, 5.881856e+000
7.001125e+002, 5.898225e+000
7.005947e+002, 5.916854e+000
7.010768e+002, 5.946678e+000
7.015589e+002, 6.036749e+000
7.020410e+002, 6.092805e+000
7.025231e+002, 6.005666e+000
7.030052e+002, 5.847245e+000
7.034874e+002, 5.784297e+000
7.039695e+002, 5.896163e+000
7.044516e+002, 6.052372e+000
7.049337e+002, 6.079278e+000
7.054158e+002, 6.006639e+000
7.058979e+002, 5.987310e+000
7.063801e+002, 6.043149e+000
7.068622e+002, 6.098834e+000
7.073442e+002, 6.114698e+000
7.078264e+002, 6.097951e+000
7.083085e+002, 6.058579e+000
7.087906e+002, 5.959986e+000
7.092727e+002, 5.932689e+000
7.097548e+002, 6.084887e+000
7.102369e+002, 6.213435e+000
7.107191e+002, 6.140365e+000
7.112012e+002, 5.973136e+000
7.116833e+002, 5.922409e+000
7.121654e+002, 6.062743e+000
7.126475e+002, 6.265344e+000
7.131296e+002, 6.388913e+000
7.136118e+002, 6.445226e+000
7.140939e+002, 6.516564e+000
7.145760e+002, 6.618845e+000
7.150581e+002, 6.640318e+000
7.155402e+002, 6.492013e+000
7.160223e+002, 6.273526e+000
7.165045e+002, 6.147882e+000
7.169866e+002, 6.120465e+000
7.174687e+002, 6.138426e+000
7.179508e+002, 6.203929e+000
7.184329e+002, 6.307416e+000
7.189150e+002, 6.508798e+000
7.193972e+002, 6.718055e+000
7.198793e+002, 6.794211e+000
7.203614e+002, 6.710242e+000
7.208435e+002, 6.580453e+000
7.213256e+002, 6.512712e+000
7.218077e+002, 6.490229e+000
7.222899e+002, 6.439559e+000
7.227720e+002, 6.352852e+000
7.232541e+002, 6.303340e+000
7.237362e+002, 6.327476e+000
7.242183e+002, 6.378633e+000
7.247004e+002, 6.408927e+000
7.251826e+002, 6.418562e+000
7.256647e+002, 6.408111e+000
7.261468e+002, 6.346732e+000
7.266289e+002, 6.302296e+000
7.271110e+002, 6.316319e+000
7.275931e+002, 6.350065e+000
7.280753e+002, 6.336105e+000
7.285574e+002, 6.285413e+000
7.290395e+002, 6.296311e+000
7.295216e+002, 6.456171e+000
7.300037e+002, 6.695882e+000
7.304858e+002, 6.879344e+000
7.309680e+002, 7.007672e+000
7.314501e+002, 7.010709e+000
7.319322e+002, 6.825054e+000
7.324143e+002, 6.625142e+000
7.328964e+002, 6.534861e+000
7.333785e+002, 6.552302e+000
7.338607e+002, 6.643453e+000
7.343428e+002, 6.906249e+000
7.348249e+002, 7.089972e+000
7.353070e+002, 7.100286e+000
7.357891e+002, 7.047839e+000
7.362712e+002, 6.982795e+000
7.367534e+002, 6.938401e+000
7.372355e+002, 6.984400e+000
7.377176e+002, 7.164580e+000
7.381997e+002, 7.363108e+000
7.386818e+002, 7.399084e+000
7.391639e+002, 7.287888e+000
7.396461e+002, 7.165553e+000
7.401282e+002, 7.031819e+000
7.406103e+002, 6.938007e+000
7.410924e+002, 6.914173e+000
7.415745e+002, 6.947885e+000
7.420566e+002, 7.011152e+000
7.425388e+002, 7.093044e+000
7.430209e+002, 7.236377e+000
7.435030e+002, 7.525064e+000
7.439851e+002, 7.792516e+000
7.444672e+002, 7.949301e+000
7.449493e+002, 8.027486e+000
7.454315e+002, 8.075439e+000
7.459136e+002, 8.109939e+000
7.463957e+002, 8.138594e+000
7.468778e+002, 8.162188e+000
7.473599e+002, 8.186526e+000
7.478420e+002, 8.244653e+000
7.483242e+002, 8.338531e+000
7.488063e+002, 8.367435e+000
7.492884e+002, 8.263923e+000
7.497705e+002, 8.168031e+000
7.502526e+002, 8.267649e+000
7.507347e+002, 8.578513e+000
7.512169e+002, 8.777120e+000
7.516990e+002, 8.784296e+000
7.521811e+002, 8.791747e+000
7.526632e+002, 8.806613e+000
7.531453e+002, 8.864888e+000
7.536274e+002, 9.045106e+000
7.541096e+002, 9.307569e+000
7.545917e+002, 9.495559e+000
7.550738e+002, 9.504132e+000
7.555559e+002, 9.432678e+000
7.560380e+002, 9.390607e+000
7.565201e+002, 9.384930e+000
7.570023e+002, 9.463178e+000
7.574844e+002, 9.638043e+000
7.579665e+002, 9.818281e+000
7.584486e+002, 9.937014e+000
7.589307e+002, 1.001523e+001
7.594128e+002, 1.012630e+001
7.598950e+002, 1.032290e+001
7.603771e+002, 1.045587e+001
7.608592e+002, 1.048160e+001
7.613413e+002, 1.049369e+001
7.618234e+002, 1.057372e+001
7.623055e+002, 1.065605e+001
7.627877e+002, 1.059938e+001
7.632698e+002, 1.035723e+001
7.637519e+002, 1.016676e+001
7.642340e+002, 1.028008e+001
7.647161e+002, 1.051614e+001
7.651982e+002, 1.056258e+001
7.656804e+002, 1.044697e+001
7.661625e+002, 1.039097e+001
7.666446e+002, 1.048165e+001
7.671267e+002, 1.064095e+001
7.676088e+002, 1.077922e+001
7.680909e+002, 1.090036e+001
7.685731e+002, 1.091199e+001
7.690552e+002, 1.070694e+001
7.695373e+002, 1.056790e+001
7.700194e+002, 1.060120e+001
7.705015e+002, 1.068482e+001
7.709836e+002, 1.078106e+001
7.714658e+002, 1.085566e+001
7.719479e+002, 1.077453e+001
7.724300e+002, 1.033297e+001
7.729121e+002, 9.935034e+000
7.733942e+002, 9.930253e+000
7.738763e+002, 1.012223e+001
7.743585e+002, 1.021536e+001
7.748406e+002, 1.017320e+001
7.753227e+002, 1.010029e+001
7.758048e+002, 1.006540e+001
7.762869e+002, 1.004295e+001
7.767690e+002, 9.958508e+000
7.772512e+002, 9.792645e+000
7.777333e+002, 9.707210e+000
7.782154e+002, 9.784999e+000
7.786975e+002, 9.807452e+000
7.791796e+002, 9.565118e+000
7.796617e+002, 9.232501e+000
7.801439e+002, 9.119950e+000
7.806260e+002, 9.283316e+000
7.811081e+002, 9.425381e+000
7.815902e+002, 9.471411e+000
7.820723e+002, 9.477117e+000
7.825544e+002, 9.492393e+000
7.830366e+002, 9.487117e+000
7.835187e+002, 9.369272e+000
7.840008e+002, 9.136846e+000
7.844829e+002, 8.956476e+000
7.849650e+002, 9.020679e+000
7.854471e+002, 9.229818e+000
7.859293e+002, 9.277941e+000
7.864114e+002, 9.162839e+000
7.868935e+002, 9.014103e+000
7.873756e+002, 8.842248e+000
7.878577e+002, 8.711917e+000
7.883398e+002, 8.699847e+000
7.888220e+002, 8.788696e+000
7.893040e+002, 8.831165e+000
7.897861e+002, 8.779948e+000
7.902682e+002, 8.752990e+000
7.907504e+002, 8.795065e+000
7.912325e+002, 8.830540e+000
7.917146e+002, 8.788428e+000
7.921967e+002, 8.705629e+000
7.926788e+002, 8.682484e+000
7.931609e+002, 8.766129e+000
7.936431e+002, 8.814539e+000
7.941252e+002, 8.626300e+000
7.946073e+002, 8.349524e+000
7.950894e+002, 8.294784e+000
7.955715e+002, 8.444834e+000
7.960536e+002, 8.567633e+000
7.965358e+002, 8.567237e+000
7.970179e+002, 8.501748e+000
7.975000e+002, 8.443495e+000
7.979821e+002, 8.390954e+000
7.984642e+002, 8.381371e+000
7.989464e+002, 8.448609e+000
7.994285e+002, 8.497339e+000
7.999106e+002, 8.473563e+000
8.003927e+002, 8.447035e+000
8.008748e+002, 8.467285e+000
8.013569e+002, 8.531266e+000
8.018391e+002, 8.618951e+000
8.023212e+002, 8.803061e+000
8.028033e+002, 8.896216e+000
8.032854e+002, 8.686285e+000
8.037675e+002, 8.403592e+000
8.042496e+002, 8.347028e+000
8.047318e+002, 8.491334e+000
8.052139e+002, 8.626856e+000
8.056960e+002, 8.640848e+000
8.061781e+002, 8.581341e+000
8.066602e+002, 8.504802e+000
8.071423e+002, 8.415183e+000
8.076245e+002, 8.379556e+000
8.081066e+002, 8.412643e+000
8.085887e+002, 8.433009e+000
8.090708e+002, 8.388492e+000
8.095529e+002, 8.335495e+000
8.100350e+002, 8.372652e+000
8.105172e+002, 8.525414e+000
8.109993e+002, 8.596617e+000
8.114814e+002, 8.526869e+000
8.119635e+002, 8.452446e+000
8.124456e+002, 8.372354e+000
8.129277e+002, 8.331244e+000
8.134099e+002, 8.397134e+000
8.138920e+002, 8.547734e+000
8.143741e+002, 8.675618e+000
8.148562e+002, 8.714988e+000
8.153383e+002, 8.737287e+000
8.158204e+002, 8.831425e+000
8.163026e+002, 8.960130e+000
8.167847e+002, 9.038709e+000
8.172668e+002, 9.059997e+000
8.177489e+002, 9.058705e+000
8.182310e+002, 9.051694e+000
8.187131e+002, 9.050745e+000
8.191953e+002, 9.082007e+000
8.196774e+002, 9.152143e+000
8.201595e+002, 9.211230e+000
8.206416e+002, 9.248494e+000
8.211237e+002, 9.296578e+000
8.216058e+002, 9.394672e+000
8.220880e+002, 9.489957e+000
8.225701e+002, 9.517549e+000
8.230522e+002, 9.479150e+000
8.235343e+002, 9.441317e+000
8.240164e+002, 9.394794e+000
8.244985e+002, 9.378219e+000
8.249807e+002, 9.403241e+000
8.254628e+002, 9.470386e+000
8.259449e+002, 9.605463e+000
8.264270e+002, 9.786271e+000
8.269091e+002, 9.934931e+000
8.273912e+002, 1.000331e+001
8.278734e+002, 1.004558e+001
8.283555e+002, 1.014899e+001
8.288376e+002, 1.029393e+001
8.293197e+002, 1.039749e+001
8.298018e+002, 1.045183e+001
8.302839e+002, 1.048300e+001
8.307661e+002, 1.049900e+001
8.312482e+002, 1.051049e+001
8.317303e+002, 1.052821e+001
8.322124e+002, 1.054224e+001
8.326945e+002, 1.063787e+001
8.331766e+002, 1.094814e+001
8.336588e+002, 1.114475e+001
8.341409e+002, 1.105986e+001
8.346230e+002, 1.091472e+001
8.351051e+002, 1.088968e+001
8.355872e+002, 1.097320e+001
8.360693e+002, 1.105118e+001
8.365515e+002, 1.108310e+001
8.370336e+002, 1.111275e+001
8.375157e+002, 1.116362e+001
8.379978e+002, 1.122558e+001
8.384799e+002, 1.129742e+001
8.389620e+002, 1.136958e+001
8.394442e+002, 1.141498e+001
8.399263e+002, 1.142069e+001
8.404084e+002, 1.141352e+001
8.408905e+002, 1.143830e+001
8.413726e+002, 1.148479e+001
8.418547e+002, 1.147702e+001
8.423369e+002, 1.140778e+001
8.428190e+002, 1.139770e+001
8.433011e+002, 1.151366e+001
8.437832e+002, 1.163787e+001
8.442653e+002, 1.163029e+001
8.447474e+002, 1.149401e+001
8.452296e+002, 1.135999e+001
8.457117e+002, 1.119264e+001
8.461938e+002, 1.108218e+001
8.466759e+002, 1.111386e+001
8.471580e+002, 1.112935e+001
8.476401e+002, 1.100456e+001
8.481223e+002, 1.079117e+001
8.486044e+002, 1.060493e+001
8.490865e+002, 1.046590e+001
8.495686e+002, 1.039719e+001
8.500507e+002, 1.047515e+001
8.505328e+002, 1.057812e+001
8.510150e+002, 1.060306e+001
8.514971e+002, 1.054665e+001
8.519792e+002, 1.039162e+001
8.524613e+002, 1.014801e+001
8.529434e+002, 9.924373e+000
8.534255e+002, 9.834579e+000
8.539077e+002, 9.843447e+000
8.543898e+002, 9.855931e+000
8.548719e+002, 9.872065e+000
8.553540e+002, 9.853629e+000
8.558361e+002, 9.789737e+000
8.563182e+002, 9.697453e+000
8.568004e+002, 9.563701e+000
8.572825e+002, 9.430814e+000
8.577646e+002, 9.447851e+000
8.582467e+002, 9.766931e+000
8.587288e+002, 9.903757e+000
8.592109e+002, 9.768934e+000
8.596931e+002, 9.562122e+000
8.601752e+002, 9.280833e+000
8.606573e+002, 9.005980e+000
8.611394e+002, 8.829772e+000
8.616215e+002, 8.761271e+000
8.621036e+002, 8.747366e+000
8.625858e+002, 8.833446e+000
8.630679e+002, 8.894830e+000
8.635500e+002, 8.803502e+000
8.640321e+002, 8.657334e+000
8.645142e+002, 8.616362e+000
8.649963e+002, 8.671588e+000
8.654785e+002, 8.679530e+000
8.659606e+002, 8.551585e+000
8.664427e+002, 8.377793e+000
8.669248e+002, 8.306649e+000
8.674069e+002, 8.315785e+000
8.678890e+002, 8.276665e+000
8.683712e+002, 8.180034e+000
8.688533e+002, 8.105291e+000
8.693354e+002, 8.088073e+000
8.698175e+002, 8.095233e+000
8.702996e+002, 8.077853e+000
8.707817e+002, 8.035179e+000
8.712639e+002, 8.053842e+000
8.717459e+002, 8.201819e+000
8.722280e+002, 8.291318e+000
8.727101e+002, 8.253423e+000
8.731923e+002, 8.182982e+000
8.736744e+002, 8.124053e+000
8.741565e+002, 8.077527e+000
8.746386e+002, 8.038054e+000
8.751207e+002, 7.998568e+000
8.756028e+002, 7.986647e+000
8.760850e+002, 8.047807e+000
8.765671e+002, 8.105569e+000
8.770492e+002, 8.078046e+000
8.775313e+002, 8.016584e+000
8.780134e+002, 8.016405e+000
8.784955e+002, 8.095257e+000
8.789777e+002, 8.194576e+000
8.794598e+002, 8.287746e+000
8.799419e+002, 8.352692e+000
8.804240e+002, 8.312528e+000
8.809061e+002, 8.211013e+000
8.813882e+002, 8.242658e+000
8.818704e+002, 8.427962e+000
8.823525e+002, 8.558515e+000
8.828346e+002, 8.494932e+000
8.833167e+002, 8.327643e+000
8.837988e+002, 8.230743e+000
8.842809e+002, 8.199077e+000
8.847631e+002, 8.285198e+000
8.852452e+002, 8.534978e+000
8.857273e+002, 8.796121e+000
8.862094e+002, 9.069933e+000
8.866915e+002, 9.276818e+000
8.871736e+002, 9.265659e+000
8.876558e+002, 9.059628e+000
8.881379e+002, 9.022783e+000
8.886200e+002, 9.393943e+000
8.891021e+002, 9.611689e+000
8.895842e+002, 9.497929e+000
8.900663e+002, 9.278607e+000
8.905485e+002, 9.006209e+000
8.910306e+002, 8.775980e+000
8.915127e+002, 8.772969e+000
8.919948e+002, 9.056774e+000
8.924769e+002, 9.339331e+000
8.929590e+002, 9.463155e+000
8.934412e+002, 9.472441e+000
8.939233e+002, 9.333756e+000
8.944054e+002, 9.139091e+000
8.948875e+002, 9.112199e+000
8.953696e+002, 9.270492e+000
8.958517e+002, 9.390591e+000
8.963339e+002, 9.298202e+000
8.968160e+002, 9.094959e+000
8.972981e+002, 8.962259e+000
8.977802e+002, 8.901210e+000
8.982623e+002, 8.965732e+000
8.987444e+002, 9.180990e+000
8.992266e+002, 9.241240e+000
8.997087e+002, 8.957347e+000
9.001908e+002, 8.574553e+000
9.006729e+002, 8.473927e+000
9.011550e+002, 8.673821e+000
9.016371e+002, 8.739192e+000
9.021193e+002, 8.617211e+000
9.026014e+002, 8.457452e+000
9.030835e+002, 8.230742e+000
9.035656e+002, 8.029969e+000
9.040477e+002, 7.952280e+000
9.045298e+002, 7.945032e+000
9.050120e+002, 7.865361e+000
9.054941e+002, 7.656868e+000
9.059762e+002, 7.496049e+000
9.064583e+002, 7.481715e+000
9.069404e+002, 7.468246e+000
9.074225e+002, 7.383122e+000
9.079047e+002, 7.238175e+000
9.083868e+002, 7.017276e+000
9.088689e+002, 6.745715e+000
9.093510e+002, 6.555928e+000
9.098331e+002, 6.573105e+000
9.103152e+002, 6.631104e+000
9.107974e+002, 6.540377e+000
9.112795e+002, 6.377434e+000
9.117616e+002, 6.303984e+000
9.122437e+002, 6.310230e+000
9.127258e+002, 6.246882e+000
9.132079e+002, 6.043047e+000
9.136901e+002, 5.823273e+000
9.141722e+002, 5.763701e+000
9.146543e+002, 5.836812e+000
9.151364e+002, 5.887688e+000
9.156185e+002, 5.916313e+000
9.161006e+002, 5.921518e+000
9.165828e+002, 5.901766e+000
9.170649e+002, 5.861549e+000
9.175470e+002, 5.796597e+000
9.180291e+002, 5.720732e+000
9.185112e+002, 5.687822e+000
9.189933e+002, 5.727125e+000
9.194755e+002, 5.735586e+000
9.199576e+002, 5.725510e+000
9.204397e+002, 5.666237e+000
9.209218e+002, 5.488870e+000
9.214039e+002, 5.292864e+000
9.218860e+002, 5.196119e+000
9.223682e+002, 5.196006e+000
9.228503e+002, 5.186038e+000
9.233324e+002, 5.135938e+000
9.238145e+002, 5.095562e+000
9.242966e+002, 5.068286e+000
9.247787e+002, 5.065435e+000
9.252609e+002, 5.124380e+000
9.257430e+002, 5.207174e+000
9.262251e+002, 5.229453e+000
9.267072e+002, 5.164804e+000
9.271893e+002, 5.102221e+000
9.276714e+002, 5.104959e+000
9.281536e+002, 5.133986e+000
9.286357e+002, 5.179682e+000
9.291178e+002, 5.211154e+000
9.295999e+002, 5.151583e+000
9.300820e+002, 5.006973e+000
9.305641e+002, 4.872088e+000
9.310463e+002, 4.803859e+000
9.315284e+002, 4.795417e+000
9.320105e+002, 4.857794e+000
9.324926e+002, 4.972122e+000
9.329747e+002, 5.085936e+000
9.334568e+002, 5.189969e+000
9.339390e+002, 5.158966e+000
9.344211e+002, 4.933298e+000
9.349032e+002, 4.696768e+000
9.353853e+002, 4.652376e+000
9.358674e+002, 4.771049e+000
9.363495e+002, 4.902250e+000
9.368317e+002, 5.077127e+000
9.373138e+002, 5.112640e+000
9.377959e+002, 4.920281e+000
9.382780e+002, 4.736908e+000
9.387601e+002, 4.689137e+000
9.392422e+002, 4.732310e+000
9.397244e+002, 4.805471e+000
9.402065e+002, 4.931229e+000
9.406886e+002, 4.952353e+000
9.411707e+002, 4.783497e+000
9.416528e+002, 4.630741e+000
9.421349e+002, 4.515490e+000
9.426171e+002, 4.444613e+000
9.430992e+002, 4.429570e+000
9.435813e+002, 4.461372e+000
9.440634e+002, 4.522521e+000
9.445455e+002, 4.618343e+000
9.450276e+002, 4.710203e+000
9.455098e+002, 4.813336e+000
9.459919e+002, 4.878220e+000
9.464740e+002, 4.854606e+000
9.469561e+002, 4.781535e+000
9.474382e+002, 4.684172e+000
9.479203e+002, 4.587861e+000
9.484025e+002, 4.571627e+000
9.488846e+002, 4.722171e+000
9.493667e+002, 4.851353e+000
9.498488e+002, 4.701129e+000
9.503309e+002, 4.458786e+000
9.508130e+002, 4.453292e+000
9.512952e+002, 4.627596e+000
9.517773e+002, 4.707057e+000
9.522594e+002, 4.604833e+000
9.527415e+002, 4.478032e+000
9.532236e+002, 4.481682e+000
9.537057e+002, 4.561758e+000
9.541878e+002, 4.597700e+000
9.546699e+002, 4.590975e+000
9.551520e+002, 4.543814e+000
9.556342e+002, 4.456461e+000
9.561163e+002, 4.351984e+000
9.565984e+002, 4.233019e+000
9.570805e+002, 4.157040e+000
9.575626e+002, 4.233145e+000
9.580447e+002, 4.457959e+000
9.585269e+002, 4.614287e+000
9.590090e+002, 4.707651e+000
9.594911e+002, 4.699546e+000
9.599732e+002, 4.543137e+000
9.604553e+002, 4.367701e+000
9.609374e+002, 4.246381e+000
9.614196e+002, 4.193903e+000
9.619017e+002, 4.272274e+000
9.623838e+002, 4.588899e+000
9.628659e+002, 4.700808e+000
9.633480e+002, 4.361868e+000
9.638301e+002, 4.151818e+000
9.643123e+002, 4.368782e+000
9.647944e+002, 4.656239e+000
9.652765e+002, 4.698148e+000
9.657586e+002, 4.536535e+000
9.662407e+002, 4.395875e+000
9.667228e+002, 4.275388e+000
9.672050e+002, 4.234160e+000
9.676871e+002, 4.374220e+000
9.681692e+002, 4.500261e+000
9.686513e+002, 4.466578e+000
9.691334e+002, 4.370237e+000
9.696155e+002, 4.368543e+000
9.700977e+002, 4.461495e+000
9.705798e+002, 4.479693e+000
9.710619e+002, 4.274125e+000
9.715440e+002, 4.096904e+000
9.720261e+002, 4.124039e+000
9.725082e+002, 4.246257e+000
9.729904e+002, 4.405075e+000
9.734725e+002, 4.546710e+000
9.739546e+002, 4.570962e+000
9.744367e+002, 4.456235e+000
9.749188e+002, 4.307631e+000
9.754009e+002, 4.180739e+000
9.758831e+002, 4.096231e+000
9.763652e+002, 4.083883e+000
9.768473e+002, 4.134452e+000
9.773294e+002, 4.260628e+000
9.778115e+002, 4.438057e+000
9.782936e+002, 4.558043e+000
9.787758e+002, 4.569725e+000
9.792579e+002, 4.525843e+000
9.797400e+002, 4.491065e+000
9.802221e+002, 4.454083e+000
9.807042e+002, 4.348109e+000
9.811863e+002, 4.191310e+000
9.816685e+002, 4.159503e+000
9.821506e+002, 4.286952e+000
9.826327e+002, 4.373878e+000
9.831148e+002, 4.280528e+000
9.835969e+002, 4.116081e+000
9.840790e+002, 4.102968e+000
9.845612e+002, 4.242701e+000
9.850433e+002, 4.300495e+000
9.855254e+002, 4.267765e+000
9.860075e+002, 4.192564e+000
9.864896e+002, 4.068881e+000
9.869717e+002, 3.963866e+000
9.874539e+002, 3.933691e+000
9.879360e+002, 3.962385e+000
9.884181e+002, 4.001329e+000
9.889002e+002, 4.051396e+000
9.893823e+002, 4.109947e+000
9.898644e+002, 4.192022e+000
9.903466e+002, 4.254731e+000
9.908287e+002, 4.298654e+000
9.913108e+002, 4.301758e+000
9.917929e+002, 4.212537e+000
9.922750e+002, 4.056153e+000
9.927571e+002, 3.986602e+000
9.932393e+002, 4.100260e+000
9.937214e+002, 4.127182e+000
9.942035e+002, 3.980802e+000
9.946856e+002, 3.846294e+000
9.951677e+002, 3.762742e+000
9.956498e+002, 3.748814e+000
9.961320e+002, 3.873379e+000
9.966141e+002, 4.106150e+000
9.970962e+002, 4.228550e+000
9.975783e+002, 4.120438e+000
9.980604e+002, 4.030904e+000
9.985425e+002, 4.015610e+000
9.990247e+002, 4.044633e+000
9.995068e+002, 4.161635e+000
9.999889e+002, 4.278427e+000
1.000471e+003, 4.245887e+000
1.000953e+003, 4.064471e+000
1.001435e+003, 3.923194e+000
1.001917e+003, 3.896831e+000
1.002399e+003, 3.933569e+000
1.002882e+003, 4.085897e+000
1.003364e+003, 4.218393e+000
1.003846e+003, 4.174822e+000
1.004328e+003, 4.022020e+000
1.004810e+003, 3.892185e+000
1.005292e+003, 3.823506e+000
1.005774e+003, 3.810467e+000
1.006256e+003, 3.883153e+000
1.006739e+003, 3.964752e+000
1.007221e+003, 3.962895e+000
1.007703e+003, 3.937306e+000
1.008185e+003, 3.995270e+000
1.008667e+003, 4.106453e+000
1.009149e+003, 4.147299e+000
1.009631e+003, 4.080545e+000
1.010113e+003, 4.015403e+000
1.010595e+003, 4.065489e+000
1.011078e+003, 4.153167e+000
1.011560e+003, 4.168143e+000
1.012042e+003, 4.126862e+000
1.012524e+003, 4.030423e+000
1.013006e+003, 3.909278e+000
1.013488e+003, 3.898542e+000
1.013970e+003, 4.054382e+000
1.014452e+003, 4.238704e+000
1.014935e+003, 4.301776e+000
1.015417e+003, 4.274696e+000
1.015899e+003, 4.216223e+000
1.016381e+003, 4.135776e+000
1.016863e+003, 4.076766e+000
1.017345e+003, 4.045911e+000
1.017827e+003, 4.043300e+000
1.018309e+003, 4.071115e+000
1.018791e+003, 4.089556e+000
1.019274e+003, 4.031989e+000
1.019756e+003, 3.921104e+000
1.020238e+003, 3.865484e+000
1.020720e+003, 3.864274e+000
1.021202e+003, 3.896241e+000
1.021684e+003, 3.959527e+000
1.022166e+003, 4.023492e+000
1.022648e+003, 4.070484e+000
1.023130e+003, 4.109582e+000
1.023613e+003, 4.161157e+000
1.024095e+003, 4.221783e+000
1.024577e+003, 4.220557e+000
1.025059e+003, 4.144996e+000
1.025541e+003, 4.124627e+000
1.026023e+003, 4.201984e+000
1.026505e+003, 4.245763e+000
1.026987e+003, 4.158823e+000
1.027469e+003, 4.022816e+000
1.027952e+003, 3.998635e+000
1.028434e+003, 4.093565e+000
1.028916e+003, 4.108072e+000
1.029398e+003, 4.015736e+000
1.029880e+003, 3.937763e+000
1.030362e+003, 3.905510e+000
1.030844e+003, 3.867603e+000
1.031326e+003, 3.775412e+000
1.031809e+003, 3.673152e+000
1.032291e+003, 3.659401e+000
1.032773e+003, 3.751616e+000
1.033255e+003, 3.779514e+000
1.033737e+003, 3.690393e+000
1.034219e+003, 3.655199e+000
1.034701e+003, 3.736351e+000
1.035183e+003, 3.832281e+000
1.035666e+003, 3.875335e+000
1.036148e+003, 3.888209e+000
1.036630e+003, 3.924500e+000
1.037112e+003, 3.999210e+000
1.037594e+003, 4.010285e+000
1.038076e+003, 3.872173e+000
1.038558e+003, 3.809116e+000
1.039040e+003, 3.936504e+000
1.039522e+003, 4.065465e+000
1.040005e+003, 4.047791e+000
1.040487e+003, 3.954852e+000
1.040969e+003, 3.953858e+000
1.041451e+003, 4.082036e+000
1.041933e+003, 4.104600e+000
1.042415e+003, 3.897131e+000
1.042897e+003, 3.752488e+000
1.043379e+003, 3.747303e+000
1.043861e+003, 3.798036e+000
1.044344e+003, 3.879103e+000
1.044826e+003, 3.968608e+000
1.045308e+003, 4.038902e+000
1.045790e+003, 4.097267e+000
1.046272e+003, 4.069396e+000
1.046754e+003, 3.788473e+000
1.047236e+003, 3.640329e+000
1.047718e+003, 3.809954e+000
1.048201e+003, 4.054332e+000
1.048683e+003, 4.276470e+000
1.049165e+003, 4.427114e+000
1.049647e+003, 4.412866e+000
1.050129e+003, 4.208134e+000
1.050611e+003, 4.021895e+000
1.051093e+003, 3.856104e+000
1.051575e+003, 3.766805e+000
1.052057e+003, 3.825384e+000
1.052540e+003, 3.913538e+000
1.053022e+003, 3.965265e+000
1.053504e+003, 3.977087e+000
1.053986e+003, 3.942348e+000
1.054468e+003, 3.858623e+000
1.054950e+003, 3.796756e+000
1.055432e+003, 3.802550e+000
1.055914e+003, 3.796330e+000
1.056396e+003, 3.716430e+000
1.056879e+003, 3.648049e+000
1.057361e+003, 3.674975e+000
1.057843e+003, 3.750916e+000
1.058325e+003, 3.782127e+000
1.058807e+003, 3.755767e+000
1.059289e+003, 3.761458e+000
1.059771e+003, 3.887328e+000
1.060253e+003, 3.970561e+000
1.060736e+003, 3.909632e+000
1.061218e+003, 3.822239e+000
1.061700e+003, 3.784781e+000
1.062182e+003, 3.789976e+000
1.062664e+003, 3.822531e+000
1.063146e+003, 3.876666e+000
1.063628e+003, 3.923537e+000
1.064110e+003, 3.923821e+000
1.064593e+003, 3.956339e+000
1.065075e+003, 4.110489e+000
1.065557e+003, 4.252793e+000
1.066039e+003, 4.272905e+000
1.066521e+003, 4.216226e+000
1.067003e+003, 4.174016e+000
1.067485e+003, 4.150476e+000
1.067967e+003, 4.046759e+000
1.068449e+003, 3.725644e+000
1.068932e+003, 3.493937e+000
1.069414e+003, 3.557892e+000
1.069896e+003, 3.692794e+000
1.070378e+003, 3.749920e+000
1.070860e+003, 3.757502e+000
1.071342e+003, 3.772300e+000
1.071824e+003, 3.799776e+000
1.072306e+003, 3.813608e+000
1.072788e+003, 3.805580e+000
1.073271e+003, 3.779329e+000
1.073753e+003, 3.718975e+000
1.074235e+003, 3.659252e+000
1.074717e+003, 3.583724e+000
1.075199e+003, 3.550080e+000
1.075681e+003, 3.674288e+000
1.076163e+003, 3.921530e+000
1.076645e+003, 4.098048e+000
1.077127e+003, 4.139244e+000
1.077610e+003, 4.101029e+000
1.078092e+003, 3.936862e+000
1.078574e+003, 3.781635e+000
1.079056e+003, 3.739232e+000
1.079538e+003, 3.748291e+000
1.080020e+003, 3.714743e+000
1.080502e+003, 3.657317e+000
1.080984e+003, 3.685671e+000
1.081467e+003, 3.857851e+000
1.081949e+003, 3.992502e+000
1.082431e+003, 3.996551e+000
1.082913e+003, 3.952617e+000
1.083395e+003, 3.893311e+000
1.083877e+003, 3.825869e+000
1.084359e+003, 3.723173e+000
1.084841e+003, 3.622141e+000
1.085323e+003, 3.625267e+000
1.085806e+003, 3.770161e+000
1.086288e+003, 3.908595e+000
1.086770e+003, 4.005642e+000
1.087252e+003, 4.046035e+000
1.087734e+003, 4.013173e+000
1.088216e+003, 3.928186e+000
1.088698e+003, 3.765893e+000
1.089180e+003, 3.581594e+000
1.089662e+003, 3.478500e+000
1.090145e+003, 3.477192e+000
1.090627e+003, 3.534868e+000
1.091109e+003, 3.724811e+000
1.091591e+003, 3.851725e+000
1.092073e+003, 3.765093e+000
1.092555e+003, 3.648082e+000
1.093037e+003, 3.659138e+000
1.093519e+003, 3.736127e+000
1.094002e+003, 3.744481e+000
1.094484e+003, 3.673158e+000
1.094966e+003, 3.657455e+000
1.095448e+003, 3.761503e+000
1.095930e+003, 3.895482e+000
1.096412e+003, 4.128567e+000
1.096894e+003, 4.276470e+000
1.097376e+003, 4.155433e+000
1.097859e+003, 3.919932e+000
1.098341e+003, 3.764962e+000
1.098823e+003, 3.706411e+000
1.099305e+003, 3.679632e+000
1.099787e+003, 3.679940e+000
1.100269e+003, 3.690042e+000
1.100751e+003, 3.705347e+000
1.101233e+003, 3.729640e+000
1.101715e+003, 3.793197e+000
1.102198e+003, 3.845114e+000
1.102680e+003, 3.821079e+000
1.103162e+003, 3.737057e+000
1.103644e+003, 3.660936e+000
1.104126e+003, 3.593916e+000
1.104608e+003, 3.562159e+000
1.105090e+003, 3.608021e+000
1.105572e+003, 3.640944e+000
1.106054e+003, 3.628994e+000
1.106537e+003, 3.592496e+000
1.107019e+003, 3.500691e+000
1.107501e+003, 3.408279e+000
1.107983e+003, 3.475595e+000
1.108465e+003, 3.769161e+000
1.108947e+003, 3.902392e+000
1.109429e+003, 3.696069e+000
1.109911e+003, 3.534082e+000
1.110394e+003, 3.533897e+000
1.110876e+003, 3.555966e+000
1.111358e+003, 3.507347e+000
1.111840e+003, 3.430666e+000
1.112322e+003, 3.398235e+000
1.112804e+003, 3.412844e+000
1.113286e+003, 3.430404e+000
1.113768e+003, 3.416821e+000
1.114250e+003, 3.464289e+000
1.114733e+003, 3.638386e+000
1.115215e+003, 3.793965e+000
1.115697e+003, 3.879685e+000
1.116179e+003, 3.906039e+000
1.116661e+003, 3.858814e+000
1.117143e+003, 3.756104e+000
1.117625e+003, 3.736669e+000
1.118107e+003, 3.857733e+000
1.118589e+003, 3.925915e+000
1.119072e+003, 3.929014e+000
1.119554e+003, 3.897124e+000
1.120036e+003, 3.817838e+000
1.120518e+003, 3.744120e+000
1.121000e+003, 3.734478e+000
1.121482e+003, 3.754611e+000
1.121964e+003, 3.689533e+000
1.122446e+003, 3.503746e+000
1.122929e+003, 3.465245e+000
1.123411e+003, 3.635859e+000
1.123893e+003, 3.736854e+000
1.124375e+003, 3.689117e+000
1.124857e+003, 3.623775e+000
1.125339e+003, 3.627994e+000
1.125821e+003, 3.653774e+000
1.126303e+003, 3.609639e+000
1.126786e+003, 3.503024e+000
1.127268e+003, 3.489623e+000
1.127750e+003, 3.588803e+000
1.128232e+003, 3.585083e+000
1.128714e+003, 3.429244e+000
1.129196e+003, 3.341690e+000
1.129678e+003, 3.430188e+000
1.130160e+003, 3.583184e+000
1.130642e+003, 3.679431e+000
1.131125e+003, 3.728979e+000
1.131607e+003, 3.767622e+000
1.132089e+003, 3.794266e+000
1.132571e+003, 3.784745e+000
1.133053e+003, 3.738420e+000
1.133535e+003, 3.688374e+000
1.134017e+003, 3.644669e+000
1.134499e+003, 3.568664e+000
1.134981e+003, 3.418237e+000
1.135464e+003, 3.281522e+000
1.135946e+003, 3.357308e+000
1.136428e+003, 3.579282e+000
1.136910e+003, 3.699036e+000
1.137392e+003, 3.724333e+000
1.137874e+003, 3.684335e+000
1.138356e+003, 3.602580e+000
1.138838e+003, 3.606450e+000
1.139321e+003, 3.761890e+000
1.139803e+003, 3.902682e+000
1.140285e+003, 3.798972e+000
1.140767e+003, 3.598668e+000
1.141249e+003, 3.596955e+000
1.141731e+003, 3.700644e+000
1.142213e+003, 3.697975e+000
1.142695e+003, 3.599782e+000
1.143177e+003, 3.530707e+000
1.143660e+003, 3.526489e+000
1.144142e+003, 3.517840e+000
1.144624e+003, 3.440820e+000
1.145106e+003, 3.375058e+000
1.145588e+003, 3.425428e+000
1.146070e+003, 3.517697e+000
1.146552e+003, 3.554378e+000
1.147034e+003, 3.562760e+000
1.147516e+003, 3.600733e+000
1.147999e+003, 3.675751e+000
1.148481e+003, 3.773457e+000
1.148963e+003, 3.897385e+000
1.149445e+003, 3.984765e+000
1.149927e+003, 4.017245e+000
1.150409e+003, 3.974603e+000
1.150891e+003, 3.738638e+000
1.151373e+003, 3.503829e+000
1.151856e+003, 3.521724e+000
1.152338e+003, 3.703831e+000
1.152820e+003, 3.810246e+000
1.153302e+003, 3.790591e+000
1.153784e+003, 3.754080e+000
1.154266e+003, 3.730053e+000
1.154748e+003, 3.705272e+000
1.155230e+003, 3.666617e+000
1.155713e+003, 3.635536e+000
1.156195e+003, 3.614455e+000
1.156677e+003, 3.615816e+000
1.157159e+003, 3.685342e+000
1.157641e+003, 3.802774e+000
1.158123e+003, 3.819187e+000
1.158605e+003, 3.622599e+000
1.159087e+003, 3.536173e+000
1.159569e+003, 3.682805e+000
1.160052e+003, 3.799767e+000
1.160534e+003, 3.787091e+000
1.161016e+003, 3.758083e+000
1.161498e+003, 3.825436e+000
1.161980e+003, 3.917573e+000
1.162462e+003, 3.861773e+000
1.162944e+003, 3.635244e+000
1.163426e+003, 3.509557e+000
1.163908e+003, 3.520653e+000
1.164391e+003, 3.530915e+000
1.164873e+003, 3.526808e+000
1.165355e+003, 3.499981e+000
1.165837e+003, 3.424917e+000
1.166319e+003, 3.387959e+000
1.166801e+003, 3.513767e+000
1.167283e+003, 3.739686e+000
1.167765e+003, 3.788801e+000
1.168247e+003, 3.653235e+000
1.168730e+003, 3.589527e+000
1.169212e+003, 3.610522e+000
1.169694e+003, 3.621603e+000
1.170176e+003, 3.595828e+000
1.170658e+003, 3.623167e+000
1.171140e+003, 3.775078e+000
1.171622e+003, 3.946906e+000
1.172104e+003, 3.955720e+000
1.172587e+003, 3.853076e+000
1.173069e+003, 3.817247e+000
1.173551e+003, 3.823869e+000
1.174033e+003, 3.764889e+000
1.174515e+003, 3.645278e+000
1.174997e+003, 3.566758e+000
1.175479e+003, 3.565308e+000
1.175961e+003, 3.582493e+000
1.176443e+003, 3.567353e+000
1.176926e+003, 3.552562e+000
1.177408e+003, 3.589831e+000
1.177890e+003, 3.645156e+000
1.178372e+003, 3.661302e+000
1.178854e+003, 3.659523e+000
1.179336e+003, 3.686760e+000
1.179818e+003, 3.747537e+000
1.180300e+003, 3.830988e+000
1.180782e+003, 3.942341e+000
1.181265e+003, 3.995917e+000
1.181747e+003, 3.891529e+000
1.182229e+003, 3.769962e+000
1.182711e+003, 3.729047e+000
1.183193e+003, 3.709741e+000
1.183675e+003, 3.622302e+000
1.184157e+003, 3.525373e+000
1.184639e+003, 3.565046e+000
1.185122e+003, 3.749753e+000
1.185604e+003, 3.847403e+000
1.186086e+003, 3.737935e+000
1.186568e+003, 3.647995e+000
1.187050e+003, 3.626206e+000
1.187532e+003, 3.617240e+000
1.188014e+003, 3.574829e+000
1.188496e+003, 3.556472e+000
1.188979e+003, 3.643881e+000
1.189461e+003, 3.789254e+000
1.189943e+003, 3.853326e+000
1.190425e+003, 3.827806e+000
1.190907e+003, 3.764717e+000
1.191389e+003, 3.640037e+000
1.191871e+003, 3.540949e+000
1.192353e+003, 3.467526e+000
1.192835e+003, 3.472007e+000
1.193318e+003, 3.603595e+000
1.193800e+003, 3.758232e+000
1.194282e+003, 3.807029e+000
1.194764e+003, 3.774034e+000
1.195246e+003, 3.759763e+000
1.195728e+003, 3.761610e+000
1.196210e+003, 3.672143e+000
1.196692e+003, 3.496867e+000
1.197174e+003, 3.463797e+000
1.197657e+003, 3.620981e+000
1.198139e+003, 3.754070e+000
1.198621e+003, 3.728744e+000
1.199103e+003, 3.635752e+000
1.199585e+003, 3.570453e+000
1.200067e+003, 3.541466e+000
1.200549e+003, 3.600116e+000
1.201031e+003, 3.694131e+000
1.201514e+003, 3.677076e+000
1.201996e+003, 3.589486e+000
1.202478e+003, 3.623224e+000
1.202960e+003, 3.803643e+000
1.203442e+003, 3.902289e+000
1.203924e+003, 3.751693e+000
1.204406e+003, 3.586811e+000
1.204888e+003, 3.583544e+000
1.205370e+003, 3.641811e+000
1.205853e+003, 3.701302e+000
1.206335e+003, 3.757117e+000
1.206817e+003, 3.833870e+000
1.207299e+003, 3.901852e+000
1.207781e+003, 3.866004e+000
1.208263e+003, 3.698368e+000
1.208745e+003, 3.598969e+000
1.209227e+003, 3.658048e+000
1.209709e+003, 3.726491e+000
1.210192e+003, 3.807040e+000
1.210674e+003, 3.849988e+000
1.211156e+003, 3.778472e+000
1.211638e+003, 3.703382e+000
1.212120e+003, 3.756204e+000
1.212602e+003, 3.893857e+000
1.213084e+003, 3.944455e+000
1.213566e+003, 3.877012e+000
1.214049e+003, 3.886203e+000
1.214531e+003, 3.999885e+000
1.215013e+003, 4.084721e+000
1.215495e+003, 4.122093e+000
1.215977e+003, 4.086686e+000
1.216459e+003, 3.952059e+000
1.216941e+003, 3.807387e+000
1.217423e+003, 3.762657e+000
1.217906e+003, 3.793537e+000
1.218388e+003, 3.830168e+000
1.218870e+003, 3.873973e+000
1.219352e+003, 3.955057e+000
1.219834e+003, 4.055083e+000
1.220316e+003, 4.070859e+000
1.220798e+003, 3.986609e+000
1.221280e+003, 3.831869e+000
1.221762e+003, 3.614221e+000
1.222245e+003, 3.537866e+000
1.222727e+003, 4.013996e+000
1.223209e+003, 4.531286e+000
1.223691e+003, 4.420269e+000
1.224173e+003, 4.058719e+000
1.224655e+003, 3.908814e+000
1.225137e+003, 3.922729e+000
1.225619e+003, 3.931890e+000
1.226101e+003, 3.899131e+000
1.226584e+003, 3.833559e+000
1.227066e+003, 3.711988e+000
1.227548e+003, 3.637318e+000
1.228030e+003, 3.686166e+000
1.228512e+003, 3.734878e+000
1.228994e+003, 3.713503e+000
1.229476e+003, 3.689932e+000
1.229958e+003, 3.744247e+000
1.230441e+003, 3.819712e+000
1.230923e+003, 3.798520e+000
1.231405e+003, 3.685431e+000
1.231887e+003, 3.656654e+000
1.232369e+003, 3.767331e+000
1.232851e+003, 3.783988e+000
1.233333e+003, 3.662670e+000
1.233815e+003, 3.566752e+000
1.234297e+003, 3.544105e+000
1.234780e+003, 3.566936e+000
1.235262e+003, 3.620508e+000
1.235744e+003, 3.685737e+000
1.236226e+003, 3.735531e+000
1.236708e+003, 3.766009e+000
1.237190e+003, 3.742882e+000
1.237672e+003, 3.685877e+000
1.238154e+003, 3.691319e+000
1.238636e+003, 3.755185e+000
1.239119e+003, 3.826035e+000
1.239601e+003, 3.877945e+000
1.240083e+003, 3.835373e+000
1.240565e+003, 3.616408e+000
1.241047e+003, 3.468530e+000
1.241529e+003, 3.738669e+000
1.242011e+003, 4.080150e+000
1.242493e+003, 4.165182e+000
1.242975e+003, 4.111266e+000
1.243458e+003, 4.054935e+000
1.243940e+003, 3.997241e+000
1.244422e+003, 3.882633e+000
1.244904e+003, 3.710573e+000
1.245386e+003, 3.596529e+000
1.245868e+003, 3.562512e+000
1.246350e+003, 3.603542e+000
1.246832e+003, 3.839267e+000
1.247315e+003, 3.985644e+000
1.247797e+003, 3.901979e+000
1.248279e+003, 3.750463e+000
1.248761e+003, 3.615417e+000
1.249243e+003, 3.513658e+000
1.249725e+003, 3.479330e+000
1.250207e+003, 3.509422e+000
1.250689e+003, 3.555524e+000
1.251172e+003, 3.621306e+000
1.251654e+003, 3.665040e+000
1.252136e+003, 3.683989e+000
1.252618e+003, 3.651364e+000
1.253100e+003, 3.559761e+000
1.253582e+003, 3.539207e+000
1.254064e+003, 3.688442e+000
1.254546e+003, 3.852818e+000
1.255028e+003, 3.780300e+000
1.255510e+003, 3.602122e+000
1.255993e+003, 3.550851e+000
1.256475e+003, 3.585602e+000
1.256957e+003, 3.658065e+000
1.257439e+003, 3.741344e+000
1.257921e+003, 3.809516e+000
1.258403e+003, 3.847086e+000
1.258885e+003, 3.803470e+000
1.259367e+003, 3.616396e+000
1.259850e+003, 3.503796e+000
1.260332e+003, 3.656404e+000
1.260814e+003, 3.789300e+000
1.261296e+003, 3.720973e+000
1.261778e+003, 3.628823e+000
1.262260e+003, 3.662424e+000
1.262742e+003, 3.756487e+000
1.263224e+003, 3.792415e+000
1.263707e+003, 3.780400e+000
1.264189e+003, 3.815653e+000
1.264671e+003, 3.926913e+000
1.265153e+003, 4.001638e+000
1.265635e+003, 4.063808e+000
1.266117e+003, 3.939138e+000
1.266599e+003, 3.548607e+000
1.267081e+003, 3.247699e+000
1.267563e+003, 3.237054e+000
1.268046e+003, 3.388317e+000
1.268528e+003, 3.578540e+000
1.269010e+003, 3.763959e+000
1.269492e+003, 3.828891e+000
1.269974e+003, 3.816011e+000
1.270456e+003, 3.837996e+000
1.270938e+003, 3.877056e+000
1.271420e+003, 3.857487e+000
1.271902e+003, 3.783511e+000
1.272385e+003, 3.726224e+000
1.272867e+003, 3.712885e+000
1.273349e+003, 3.698960e+000
1.273831e+003, 3.628596e+000
1.274313e+003, 3.591463e+000
1.274795e+003, 3.674198e+000
1.275277e+003, 3.757509e+000
1.275759e+003, 3.757943e+000
1.276242e+003, 3.719181e+000
1.276724e+003, 3.668939e+000
1.277206e+003, 3.629475e+000
1.277688e+003, 3.670778e+000
1.278170e+003, 3.808339e+000
1.278652e+003, 3.885311e+000
1.279134e+003, 3.901748e+000
1.279616e+003, 3.846894e+000
1.280099e+003, 3.703038e+000
1.280581e+003, 3.571426e+000
1.281063e+003, 3.485978e+000
1.281545e+003, 3.438184e+000
1.282027e+003, 3.415013e+000
1.282509e+003, 3.458242e+000
1.282991e+003, 3.727797e+000
1.283473e+003, 4.068573e+000
1.283955e+003, 4.148322e+000
##END=



