##NAMES=Taramellite
##RRUFFID=R160011
##IDEAL CHEMISTRY=Ba_4_(Fe^3+^,Ti^4+^)_4_O_2_[B_2_Si_8_O_27_]Cl_0-1_
##LOCALITY=Gun claim, Yukon Territory, Canada
##OWNER=RRUFF
##SOURCE=Gunnar FÃ¤rber
##DESCRIPTION=Red-brownish crystals in cavity, associated with  itsiite, cerchiaraite-(Fe), diopside, pyrite, quartz, sphalerite, and witherite
##STATUS=The identification of this mineral has been confirmed only by single crystal X-ray diffraction.
##URL=rruff.info/R160011
8.813672e+001, 4.074671e+002
8.861884e+001, 4.136263e+002
8.910095e+001, 4.191418e+002
8.958307e+001, 4.241340e+002
9.006519e+001, 4.302041e+002
9.054730e+001, 4.389427e+002
9.102942e+001, 4.524998e+002
9.151154e+001, 4.654170e+002
9.199365e+001, 4.712611e+002
9.247577e+001, 4.709762e+002
9.295789e+001, 4.688438e+002
9.344000e+001, 4.668805e+002
9.392212e+001, 4.649213e+002
9.440424e+001, 4.636212e+002
9.488635e+001, 4.640477e+002
9.536847e+001, 4.656291e+002
9.585059e+001, 4.669741e+002
9.633270e+001, 4.680230e+002
9.681482e+001, 4.690876e+002
9.729694e+001, 4.696535e+002
9.777905e+001, 4.697531e+002
9.826117e+001, 4.724821e+002
9.874329e+001, 4.796688e+002
9.922540e+001, 4.904288e+002
9.970752e+001, 4.985486e+002
1.001896e+002, 5.035063e+002
1.006718e+002, 5.067730e+002
1.011539e+002, 5.098093e+002
1.016360e+002, 5.123651e+002
1.021181e+002, 5.156762e+002
1.026002e+002, 5.202377e+002
1.030823e+002, 5.262410e+002
1.035645e+002, 5.320897e+002
1.040466e+002, 5.371647e+002
1.045287e+002, 5.425281e+002
1.050108e+002, 5.503611e+002
1.054929e+002, 5.612640e+002
1.059750e+002, 5.736752e+002
1.064572e+002, 5.874482e+002
1.069393e+002, 6.062821e+002
1.074214e+002, 6.198331e+002
1.079035e+002, 6.262179e+002
1.083856e+002, 6.272477e+002
1.088677e+002, 6.289190e+002
1.093499e+002, 6.311158e+002
1.098320e+002, 6.341044e+002
1.103141e+002, 6.379932e+002
1.107962e+002, 6.427633e+002
1.112783e+002, 6.485395e+002
1.117604e+002, 6.557273e+002
1.122426e+002, 6.642082e+002
1.127247e+002, 6.726669e+002
1.132068e+002, 6.797813e+002
1.136889e+002, 6.874345e+002
1.141710e+002, 6.968578e+002
1.146531e+002, 7.118588e+002
1.151353e+002, 7.252765e+002
1.156174e+002, 7.343769e+002
1.160995e+002, 7.390878e+002
1.165816e+002, 7.441418e+002
1.170637e+002, 7.528615e+002
1.175458e+002, 7.623008e+002
1.180280e+002, 7.693637e+002
1.185101e+002, 7.707731e+002
1.189922e+002, 7.708252e+002
1.194743e+002, 7.717985e+002
1.199564e+002, 7.738637e+002
1.204385e+002, 7.765902e+002
1.209207e+002, 7.788402e+002
1.214028e+002, 7.816004e+002
1.218849e+002, 7.865897e+002
1.223670e+002, 7.978571e+002
1.228491e+002, 8.104260e+002
1.233312e+002, 8.190414e+002
1.238134e+002, 8.228414e+002
1.242955e+002, 8.238156e+002
1.247776e+002, 8.225856e+002
1.252597e+002, 8.196961e+002
1.257418e+002, 8.169916e+002
1.262239e+002, 8.152291e+002
1.267061e+002, 8.144668e+002
1.271882e+002, 8.147404e+002
1.276703e+002, 8.159208e+002
1.281524e+002, 8.184232e+002
1.286345e+002, 8.236609e+002
1.291166e+002, 8.313850e+002
1.295988e+002, 8.389695e+002
1.300809e+002, 8.442869e+002
1.305630e+002, 8.477418e+002
1.310451e+002, 8.512000e+002
1.315272e+002, 8.552253e+002
1.320093e+002, 8.592038e+002
1.324915e+002, 8.614383e+002
1.329736e+002, 8.617471e+002
1.334557e+002, 8.617820e+002
1.339378e+002, 8.627707e+002
1.344199e+002, 8.647050e+002
1.349020e+002, 8.676053e+002
1.353842e+002, 8.717075e+002
1.358663e+002, 8.767338e+002
1.363484e+002, 8.816824e+002
1.368305e+002, 8.864457e+002
1.373126e+002, 8.913441e+002
1.377947e+002, 8.967518e+002
1.382769e+002, 9.028010e+002
1.387590e+002, 9.088414e+002
1.392411e+002, 9.152836e+002
1.397232e+002, 9.222302e+002
1.402053e+002, 9.252975e+002
1.406874e+002, 9.234031e+002
1.411696e+002, 9.191373e+002
1.416517e+002, 9.158524e+002
1.421338e+002, 9.137198e+002
1.426159e+002, 9.122536e+002
1.430980e+002, 9.113746e+002
1.435801e+002, 9.111738e+002
1.440623e+002, 9.113747e+002
1.445444e+002, 9.120834e+002
1.450265e+002, 9.132047e+002
1.455086e+002, 9.145842e+002
1.459907e+002, 9.165996e+002
1.464728e+002, 9.184609e+002
1.469550e+002, 9.200566e+002
1.474371e+002, 9.218145e+002
1.479192e+002, 9.222835e+002
1.484013e+002, 9.203262e+002
1.488834e+002, 9.172067e+002
1.493655e+002, 9.156874e+002
1.498477e+002, 9.172479e+002
1.503298e+002, 9.191466e+002
1.508119e+002, 9.203986e+002
1.512940e+002, 9.206869e+002
1.517761e+002, 9.207881e+002
1.522583e+002, 9.205719e+002
1.527404e+002, 9.201503e+002
1.532225e+002, 9.198441e+002
1.537046e+002, 9.191426e+002
1.541867e+002, 9.189468e+002
1.546688e+002, 9.197407e+002
1.551510e+002, 9.239807e+002
1.556331e+002, 9.262766e+002
1.561152e+002, 9.247170e+002
1.565973e+002, 9.202250e+002
1.570794e+002, 9.164431e+002
1.575615e+002, 9.144407e+002
1.580437e+002, 9.131857e+002
1.585258e+002, 9.120352e+002
1.590079e+002, 9.109337e+002
1.594900e+002, 9.098408e+002
1.599721e+002, 9.084815e+002
1.604542e+002, 9.069919e+002
1.609364e+002, 9.061570e+002
1.614185e+002, 9.068694e+002
1.619006e+002, 9.080604e+002
1.623827e+002, 9.088693e+002
1.628648e+002, 9.092127e+002
1.633469e+002, 9.089697e+002
1.638291e+002, 9.076066e+002
1.643112e+002, 9.052856e+002
1.647933e+002, 9.035344e+002
1.652754e+002, 9.039269e+002
1.657575e+002, 9.049893e+002
1.662396e+002, 9.051725e+002
1.667218e+002, 9.027451e+002
1.672039e+002, 9.001509e+002
1.676860e+002, 8.990045e+002
1.681681e+002, 8.993078e+002
1.686502e+002, 9.000064e+002
1.691323e+002, 9.002518e+002
1.696145e+002, 9.005225e+002
1.700966e+002, 9.014722e+002
1.705787e+002, 9.047103e+002
1.710608e+002, 9.079332e+002
1.715429e+002, 9.087071e+002
1.720250e+002, 9.068909e+002
1.725072e+002, 9.049510e+002
1.729893e+002, 9.047621e+002
1.734714e+002, 9.057694e+002
1.739535e+002, 9.069445e+002
1.744356e+002, 9.079519e+002
1.749177e+002, 9.088318e+002
1.753999e+002, 9.095814e+002
1.758820e+002, 9.101843e+002
1.763641e+002, 9.108500e+002
1.768462e+002, 9.120378e+002
1.773283e+002, 9.134781e+002
1.778104e+002, 9.144906e+002
1.782926e+002, 9.142396e+002
1.787747e+002, 9.134631e+002
1.792568e+002, 9.135313e+002
1.797389e+002, 9.146091e+002
1.802210e+002, 9.157794e+002
1.807031e+002, 9.156401e+002
1.811853e+002, 9.145795e+002
1.816674e+002, 9.140369e+002
1.821495e+002, 9.151959e+002
1.826316e+002, 9.173827e+002
1.831137e+002, 9.191902e+002
1.835958e+002, 9.206861e+002
1.840780e+002, 9.213324e+002
1.845601e+002, 9.195375e+002
1.850422e+002, 9.157886e+002
1.855243e+002, 9.130297e+002
1.860064e+002, 9.139249e+002
1.864885e+002, 9.172997e+002
1.869707e+002, 9.187223e+002
1.874528e+002, 9.176520e+002
1.879349e+002, 9.154548e+002
1.884170e+002, 9.137717e+002
1.888991e+002, 9.126250e+002
1.893812e+002, 9.124137e+002
1.898634e+002, 9.139000e+002
1.903455e+002, 9.167407e+002
1.908276e+002, 9.188488e+002
1.913097e+002, 9.200651e+002
1.917918e+002, 9.205792e+002
1.922739e+002, 9.204158e+002
1.927561e+002, 9.195217e+002
1.932382e+002, 9.189837e+002
1.937203e+002, 9.196351e+002
1.942024e+002, 9.213611e+002
1.946845e+002, 9.228035e+002
1.951666e+002, 9.239368e+002
1.956488e+002, 9.246125e+002
1.961309e+002, 9.242803e+002
1.966130e+002, 9.227995e+002
1.970951e+002, 9.214554e+002
1.975772e+002, 9.211736e+002
1.980593e+002, 9.219759e+002
1.985415e+002, 9.222774e+002
1.990236e+002, 9.219317e+002
1.995057e+002, 9.210892e+002
1.999878e+002, 9.200125e+002
2.004699e+002, 9.186584e+002
2.009520e+002, 9.172866e+002
2.014342e+002, 9.157176e+002
2.019163e+002, 9.138033e+002
2.023984e+002, 9.136859e+002
2.028805e+002, 9.163206e+002
2.033626e+002, 9.201089e+002
2.038447e+002, 9.205922e+002
2.043269e+002, 9.168969e+002
2.048090e+002, 9.130219e+002
2.052911e+002, 9.114285e+002
2.057732e+002, 9.124789e+002
2.062553e+002, 9.133641e+002
2.067374e+002, 9.140992e+002
2.072196e+002, 9.144525e+002
2.077017e+002, 9.135966e+002
2.081838e+002, 9.111526e+002
2.086659e+002, 9.085460e+002
2.091480e+002, 9.065739e+002
2.096301e+002, 9.053038e+002
2.101123e+002, 9.042823e+002
2.105944e+002, 9.034307e+002
2.110765e+002, 9.028339e+002
2.115586e+002, 9.028972e+002
2.120407e+002, 9.040148e+002
2.125228e+002, 9.049049e+002
2.130050e+002, 9.047488e+002
2.134871e+002, 9.032352e+002
2.139692e+002, 9.018221e+002
2.144513e+002, 9.005314e+002
2.149334e+002, 8.994032e+002
2.154155e+002, 8.986269e+002
2.158977e+002, 8.984820e+002
2.163798e+002, 8.981082e+002
2.168619e+002, 8.969116e+002
2.173440e+002, 8.944737e+002
2.178261e+002, 8.925125e+002
2.183082e+002, 8.912354e+002
2.187904e+002, 8.904427e+002
2.192725e+002, 8.895507e+002
2.197546e+002, 8.884810e+002
2.202367e+002, 8.874625e+002
2.207188e+002, 8.866782e+002
2.212009e+002, 8.863200e+002
2.216831e+002, 8.856611e+002
2.221652e+002, 8.845569e+002
2.226473e+002, 8.831923e+002
2.231294e+002, 8.822012e+002
2.236115e+002, 8.819683e+002
2.240936e+002, 8.815043e+002
2.245758e+002, 8.801722e+002
2.250579e+002, 8.772540e+002
2.255400e+002, 8.753751e+002
2.260221e+002, 8.750312e+002
2.265042e+002, 8.756430e+002
2.269863e+002, 8.755815e+002
2.274685e+002, 8.744649e+002
2.279506e+002, 8.732669e+002
2.284327e+002, 8.724811e+002
2.289148e+002, 8.724705e+002
2.293969e+002, 8.719091e+002
2.298790e+002, 8.702682e+002
2.303612e+002, 8.682091e+002
2.308433e+002, 8.674874e+002
2.313254e+002, 8.686813e+002
2.318075e+002, 8.703047e+002
2.322896e+002, 8.717695e+002
2.327717e+002, 8.730818e+002
2.332539e+002, 8.741613e+002
2.337360e+002, 8.748480e+002
2.342181e+002, 8.753231e+002
2.347002e+002, 8.760421e+002
2.351823e+002, 8.771908e+002
2.356644e+002, 8.782668e+002
2.361466e+002, 8.789918e+002
2.366287e+002, 8.790363e+002
2.371108e+002, 8.796343e+002
2.375929e+002, 8.810490e+002
2.380750e+002, 8.828964e+002
2.385571e+002, 8.843486e+002
2.390393e+002, 8.851219e+002
2.395214e+002, 8.859638e+002
2.400035e+002, 8.872011e+002
2.404856e+002, 8.890939e+002
2.409677e+002, 8.906383e+002
2.414498e+002, 8.915788e+002
2.419320e+002, 8.923291e+002
2.424141e+002, 8.936794e+002
2.428962e+002, 8.960094e+002
2.433783e+002, 8.983668e+002
2.438604e+002, 9.004700e+002
2.443425e+002, 9.023203e+002
2.448247e+002, 9.039281e+002
2.453068e+002, 9.050559e+002
2.457889e+002, 9.060992e+002
2.462710e+002, 9.077970e+002
2.467531e+002, 9.107414e+002
2.472352e+002, 9.132965e+002
2.477174e+002, 9.147538e+002
2.481995e+002, 9.146921e+002
2.486816e+002, 9.156325e+002
2.491637e+002, 9.182552e+002
2.496458e+002, 9.213529e+002
2.501279e+002, 9.231047e+002
2.506101e+002, 9.227784e+002
2.510922e+002, 9.224969e+002
2.515743e+002, 9.229718e+002
2.520564e+002, 9.243989e+002
2.525385e+002, 9.250291e+002
2.530206e+002, 9.245703e+002
2.535028e+002, 9.235761e+002
2.539849e+002, 9.227361e+002
2.544670e+002, 9.221449e+002
2.549491e+002, 9.214863e+002
2.554312e+002, 9.206248e+002
2.559133e+002, 9.195452e+002
2.563955e+002, 9.187636e+002
2.568776e+002, 9.184594e+002
2.573597e+002, 9.182494e+002
2.578418e+002, 9.176881e+002
2.583239e+002, 9.165589e+002
2.588061e+002, 9.155571e+002
2.592882e+002, 9.147906e+002
2.597703e+002, 9.142552e+002
2.602524e+002, 9.139499e+002
2.607345e+002, 9.139176e+002
2.612166e+002, 9.140494e+002
2.616988e+002, 9.142415e+002
2.621809e+002, 9.144537e+002
2.626630e+002, 9.148567e+002
2.631451e+002, 9.155721e+002
2.636272e+002, 9.165499e+002
2.641093e+002, 9.171727e+002
2.645915e+002, 9.172135e+002
2.650736e+002, 9.173285e+002
2.655557e+002, 9.182484e+002
2.660378e+002, 9.204191e+002
2.665199e+002, 9.217451e+002
2.670020e+002, 9.217192e+002
2.674842e+002, 9.206224e+002
2.679663e+002, 9.197933e+002
2.684484e+002, 9.191661e+002
2.689305e+002, 9.189437e+002
2.694126e+002, 9.194212e+002
2.698947e+002, 9.208434e+002
2.703769e+002, 9.218336e+002
2.708590e+002, 9.220697e+002
2.713411e+002, 9.218767e+002
2.718232e+002, 9.224148e+002
2.723053e+002, 9.239455e+002
2.727874e+002, 9.253945e+002
2.732696e+002, 9.260127e+002
2.737517e+002, 9.256197e+002
2.742338e+002, 9.256024e+002
2.747159e+002, 9.261926e+002
2.751980e+002, 9.270641e+002
2.756801e+002, 9.274332e+002
2.761623e+002, 9.272415e+002
2.766444e+002, 9.268434e+002
2.771265e+002, 9.263813e+002
2.776086e+002, 9.258482e+002
2.780907e+002, 9.253602e+002
2.785728e+002, 9.249295e+002
2.790550e+002, 9.245372e+002
2.795371e+002, 9.241429e+002
2.800192e+002, 9.237429e+002
2.805013e+002, 9.233674e+002
2.809834e+002, 9.231771e+002
2.814655e+002, 9.231496e+002
2.819477e+002, 9.224700e+002
2.824298e+002, 9.210408e+002
2.829119e+002, 9.192022e+002
2.833940e+002, 9.171956e+002
2.838761e+002, 9.149933e+002
2.843582e+002, 9.133348e+002
2.848404e+002, 9.127446e+002
2.853225e+002, 9.129932e+002
2.858046e+002, 9.127758e+002
2.862867e+002, 9.120764e+002
2.867688e+002, 9.109681e+002
2.872509e+002, 9.093297e+002
2.877331e+002, 9.072134e+002
2.882152e+002, 9.053615e+002
2.886973e+002, 9.042014e+002
2.891794e+002, 9.034340e+002
2.896615e+002, 9.018955e+002
2.901436e+002, 8.995055e+002
2.906258e+002, 8.973143e+002
2.911079e+002, 8.966103e+002
2.915900e+002, 8.970996e+002
2.920721e+002, 8.970626e+002
2.925542e+002, 8.957863e+002
2.930363e+002, 8.940189e+002
2.935185e+002, 8.934324e+002
2.940006e+002, 8.940134e+002
2.944827e+002, 8.947393e+002
2.949648e+002, 8.948161e+002
2.954469e+002, 8.944060e+002
2.959290e+002, 8.939271e+002
2.964112e+002, 8.932635e+002
2.968933e+002, 8.928668e+002
2.973754e+002, 8.936382e+002
2.978575e+002, 8.954203e+002
2.983396e+002, 8.973201e+002
2.988217e+002, 8.988981e+002
2.993039e+002, 9.001445e+002
2.997860e+002, 9.009142e+002
3.002681e+002, 9.010743e+002
3.007502e+002, 9.011212e+002
3.012323e+002, 9.017639e+002
3.017144e+002, 9.028223e+002
3.021966e+002, 9.036483e+002
3.026787e+002, 9.037458e+002
3.031608e+002, 9.034760e+002
3.036429e+002, 9.033907e+002
3.041250e+002, 9.035765e+002
3.046071e+002, 9.036290e+002
3.050893e+002, 9.027433e+002
3.055714e+002, 9.014467e+002
3.060535e+002, 9.008715e+002
3.065356e+002, 9.022218e+002
3.070177e+002, 9.041033e+002
3.074998e+002, 9.052135e+002
3.079820e+002, 9.055251e+002
3.084641e+002, 9.054203e+002
3.089462e+002, 9.046995e+002
3.094283e+002, 9.038551e+002
3.099104e+002, 9.035694e+002
3.103925e+002, 9.045486e+002
3.108747e+002, 9.058319e+002
3.113568e+002, 9.068645e+002
3.118389e+002, 9.076599e+002
3.123210e+002, 9.082688e+002
3.128031e+002, 9.085101e+002
3.132852e+002, 9.086852e+002
3.137674e+002, 9.090829e+002
3.142495e+002, 9.097985e+002
3.147316e+002, 9.107197e+002
3.152137e+002, 9.121832e+002
3.156958e+002, 9.138947e+002
3.161779e+002, 9.148732e+002
3.166601e+002, 9.138111e+002
3.171422e+002, 9.124406e+002
3.176243e+002, 9.119048e+002
3.181064e+002, 9.126370e+002
3.185885e+002, 9.137164e+002
3.190706e+002, 9.150654e+002
3.195528e+002, 9.165283e+002
3.200349e+002, 9.178090e+002
3.205170e+002, 9.191129e+002
3.209991e+002, 9.199715e+002
3.214812e+002, 9.199448e+002
3.219633e+002, 9.185897e+002
3.224455e+002, 9.178884e+002
3.229276e+002, 9.185231e+002
3.234097e+002, 9.199252e+002
3.238918e+002, 9.213973e+002
3.243739e+002, 9.232853e+002
3.248560e+002, 9.248030e+002
3.253382e+002, 9.256163e+002
3.258203e+002, 9.256385e+002
3.263024e+002, 9.258424e+002
3.267845e+002, 9.263829e+002
3.272666e+002, 9.271003e+002
3.277487e+002, 9.278714e+002
3.282309e+002, 9.286953e+002
3.287130e+002, 9.295729e+002
3.291951e+002, 9.306683e+002
3.296772e+002, 9.319172e+002
3.301593e+002, 9.326533e+002
3.306414e+002, 9.324009e+002
3.311236e+002, 9.320690e+002
3.316057e+002, 9.321366e+002
3.320878e+002, 9.327158e+002
3.325699e+002, 9.334958e+002
3.330520e+002, 9.346699e+002
3.335341e+002, 9.359802e+002
3.340163e+002, 9.365991e+002
3.344984e+002, 9.358977e+002
3.349805e+002, 9.355445e+002
3.354626e+002, 9.365344e+002
3.359447e+002, 9.396510e+002
3.364268e+002, 9.409930e+002
3.369090e+002, 9.400759e+002
3.373911e+002, 9.379131e+002
3.378732e+002, 9.359941e+002
3.383553e+002, 9.342762e+002
3.388374e+002, 9.329958e+002
3.393195e+002, 9.322809e+002
3.398017e+002, 9.321292e+002
3.402838e+002, 9.322064e+002
3.407659e+002, 9.326408e+002
3.412480e+002, 9.330045e+002
3.417301e+002, 9.327238e+002
3.422122e+002, 9.317427e+002
3.426944e+002, 9.309951e+002
3.431765e+002, 9.307719e+002
3.436586e+002, 9.308817e+002
3.441407e+002, 9.306011e+002
3.446228e+002, 9.298813e+002
3.451049e+002, 9.292919e+002
3.455871e+002, 9.293881e+002
3.460692e+002, 9.300641e+002
3.465513e+002, 9.306074e+002
3.470334e+002, 9.309193e+002
3.475155e+002, 9.310635e+002
3.479977e+002, 9.309698e+002
3.484798e+002, 9.306940e+002
3.489619e+002, 9.307189e+002
3.494440e+002, 9.316903e+002
3.499261e+002, 9.331230e+002
3.504082e+002, 9.338773e+002
3.508904e+002, 9.338395e+002
3.513725e+002, 9.334374e+002
3.518546e+002, 9.328917e+002
3.523367e+002, 9.323125e+002
3.528188e+002, 9.319798e+002
3.533009e+002, 9.323024e+002
3.537831e+002, 9.327833e+002
3.542652e+002, 9.327762e+002
3.547473e+002, 9.322989e+002
3.552294e+002, 9.317828e+002
3.557115e+002, 9.317463e+002
3.561936e+002, 9.317992e+002
3.566758e+002, 9.313770e+002
3.571579e+002, 9.298274e+002
3.576400e+002, 9.283763e+002
3.581221e+002, 9.280879e+002
3.586042e+002, 9.286943e+002
3.590863e+002, 9.292073e+002
3.595685e+002, 9.291586e+002
3.600506e+002, 9.288236e+002
3.605327e+002, 9.284988e+002
3.610148e+002, 9.284744e+002
3.614969e+002, 9.278245e+002
3.619790e+002, 9.254942e+002
3.624612e+002, 9.223873e+002
3.629433e+002, 9.199889e+002
3.634254e+002, 9.192991e+002
3.639075e+002, 9.189117e+002
3.643896e+002, 9.183528e+002
3.648717e+002, 9.175927e+002
3.653539e+002, 9.165404e+002
3.658360e+002, 9.150079e+002
3.663181e+002, 9.132473e+002
3.668002e+002, 9.114551e+002
3.672823e+002, 9.099008e+002
3.677644e+002, 9.080295e+002
3.682466e+002, 9.053280e+002
3.687287e+002, 9.019383e+002
3.692108e+002, 8.996181e+002
3.696929e+002, 8.993295e+002
3.701750e+002, 8.992512e+002
3.706571e+002, 8.984813e+002
3.711393e+002, 8.967250e+002
3.716214e+002, 8.947564e+002
3.721035e+002, 8.922764e+002
3.725856e+002, 8.896790e+002
3.730677e+002, 8.879172e+002
3.735498e+002, 8.872419e+002
3.740320e+002, 8.869147e+002
3.745141e+002, 8.867497e+002
3.749962e+002, 8.867809e+002
3.754783e+002, 8.867115e+002
3.759604e+002, 8.865754e+002
3.764425e+002, 8.862887e+002
3.769247e+002, 8.855967e+002
3.774068e+002, 8.843682e+002
3.778889e+002, 8.836262e+002
3.783710e+002, 8.838562e+002
3.788531e+002, 8.847242e+002
3.793352e+002, 8.846760e+002
3.798174e+002, 8.835833e+002
3.802995e+002, 8.824482e+002
3.807816e+002, 8.823340e+002
3.812637e+002, 8.830570e+002
3.817458e+002, 8.829130e+002
3.822279e+002, 8.813477e+002
3.827101e+002, 8.794968e+002
3.831922e+002, 8.794599e+002
3.836743e+002, 8.809887e+002
3.841564e+002, 8.823550e+002
3.846385e+002, 8.826291e+002
3.851206e+002, 8.820988e+002
3.856028e+002, 8.811561e+002
3.860849e+002, 8.797706e+002
3.865670e+002, 8.785644e+002
3.870491e+002, 8.781229e+002
3.875312e+002, 8.782725e+002
3.880133e+002, 8.786846e+002
3.884955e+002, 8.797015e+002
3.889776e+002, 8.805333e+002
3.894597e+002, 8.804124e+002
3.899418e+002, 8.794109e+002
3.904239e+002, 8.779766e+002
3.909060e+002, 8.759460e+002
3.913882e+002, 8.738261e+002
3.918703e+002, 8.721130e+002
3.923524e+002, 8.710360e+002
3.928345e+002, 8.700646e+002
3.933166e+002, 8.689367e+002
3.937987e+002, 8.677259e+002
3.942809e+002, 8.665983e+002
3.947630e+002, 8.655019e+002
3.952451e+002, 8.645789e+002
3.957272e+002, 8.639792e+002
3.962093e+002, 8.637982e+002
3.966914e+002, 8.633843e+002
3.971736e+002, 8.623090e+002
3.976557e+002, 8.610767e+002
3.981378e+002, 8.601454e+002
3.986199e+002, 8.602430e+002
3.991020e+002, 8.598652e+002
3.995841e+002, 8.584582e+002
4.000663e+002, 8.562449e+002
4.005484e+002, 8.547279e+002
4.010305e+002, 8.539698e+002
4.015126e+002, 8.538435e+002
4.019947e+002, 8.544153e+002
4.024768e+002, 8.562501e+002
4.029590e+002, 8.574541e+002
4.034411e+002, 8.579266e+002
4.039232e+002, 8.578694e+002
4.044053e+002, 8.576583e+002
4.048874e+002, 8.573937e+002
4.053695e+002, 8.566880e+002
4.058517e+002, 8.552102e+002
4.063338e+002, 8.530654e+002
4.068159e+002, 8.515037e+002
4.072980e+002, 8.505168e+002
4.077801e+002, 8.501572e+002
4.082622e+002, 8.507338e+002
4.087444e+002, 8.521957e+002
4.092265e+002, 8.533954e+002
4.097086e+002, 8.540694e+002
4.101907e+002, 8.544096e+002
4.106728e+002, 8.549782e+002
4.111549e+002, 8.557089e+002
4.116371e+002, 8.559152e+002
4.121192e+002, 8.545013e+002
4.126013e+002, 8.523411e+002
4.130834e+002, 8.513224e+002
4.135655e+002, 8.516131e+002
4.140476e+002, 8.528465e+002
4.145298e+002, 8.559618e+002
4.150119e+002, 8.596860e+002
4.154940e+002, 8.615111e+002
4.159761e+002, 8.586498e+002
4.164582e+002, 8.547934e+002
4.169403e+002, 8.531921e+002
4.174225e+002, 8.535557e+002
4.179046e+002, 8.541579e+002
4.183867e+002, 8.540460e+002
4.188688e+002, 8.537380e+002
4.193509e+002, 8.536288e+002
4.198330e+002, 8.537308e+002
4.203152e+002, 8.542007e+002
4.207973e+002, 8.554830e+002
4.212794e+002, 8.571412e+002
4.217615e+002, 8.583876e+002
4.222436e+002, 8.586396e+002
4.227257e+002, 8.588185e+002
4.232079e+002, 8.592813e+002
4.236900e+002, 8.600983e+002
4.241721e+002, 8.607739e+002
4.246542e+002, 8.609066e+002
4.251363e+002, 8.611100e+002
4.256184e+002, 8.618620e+002
4.261006e+002, 8.636730e+002
4.265827e+002, 8.652010e+002
4.270648e+002, 8.662539e+002
4.275469e+002, 8.669427e+002
4.280290e+002, 8.676246e+002
4.285111e+002, 8.682662e+002
4.289933e+002, 8.689230e+002
4.294754e+002, 8.695880e+002
4.299575e+002, 8.702374e+002
4.304396e+002, 8.710283e+002
4.309217e+002, 8.720107e+002
4.314038e+002, 8.730074e+002
4.318860e+002, 8.736859e+002
4.323681e+002, 8.740265e+002
4.328502e+002, 8.747071e+002
4.333323e+002, 8.761995e+002
4.338144e+002, 8.779744e+002
4.342965e+002, 8.782352e+002
4.347787e+002, 8.770232e+002
4.352608e+002, 8.760861e+002
4.357429e+002, 8.771964e+002
4.362250e+002, 8.795148e+002
4.367071e+002, 8.807708e+002
4.371892e+002, 8.805042e+002
4.376714e+002, 8.800527e+002
4.381535e+002, 8.808269e+002
4.386356e+002, 8.825069e+002
4.391177e+002, 8.843834e+002
4.395998e+002, 8.865200e+002
4.400819e+002, 8.884422e+002
4.405641e+002, 8.897005e+002
4.410462e+002, 8.903141e+002
4.415283e+002, 8.906298e+002
4.420104e+002, 8.902852e+002
4.424925e+002, 8.900007e+002
4.429746e+002, 8.904342e+002
4.434568e+002, 8.921259e+002
4.439389e+002, 8.937804e+002
4.444210e+002, 8.949837e+002
4.449031e+002, 8.958740e+002
4.453852e+002, 8.967254e+002
4.458673e+002, 8.974408e+002
4.463495e+002, 8.982653e+002
4.468316e+002, 8.994194e+002
4.473137e+002, 9.010283e+002
4.477958e+002, 9.021115e+002
4.482779e+002, 9.021285e+002
4.487600e+002, 9.020844e+002
4.492422e+002, 9.027917e+002
4.497243e+002, 9.048645e+002
4.502064e+002, 9.064172e+002
4.506885e+002, 9.072188e+002
4.511706e+002, 9.074755e+002
4.516527e+002, 9.075507e+002
4.521349e+002, 9.071942e+002
4.526170e+002, 9.075339e+002
4.530991e+002, 9.093390e+002
4.535812e+002, 9.125539e+002
4.540633e+002, 9.151527e+002
4.545454e+002, 9.171157e+002
4.550276e+002, 9.186699e+002
4.555097e+002, 9.197807e+002
4.559918e+002, 9.205770e+002
4.564739e+002, 9.218224e+002
4.569560e+002, 9.238568e+002
4.574381e+002, 9.262047e+002
4.579203e+002, 9.282443e+002
4.584024e+002, 9.299727e+002
4.588845e+002, 9.314190e+002
4.593666e+002, 9.322845e+002
4.598488e+002, 9.330132e+002
4.603309e+002, 9.342091e+002
4.608130e+002, 9.359564e+002
4.612951e+002, 9.377111e+002
4.617772e+002, 9.391015e+002
4.622593e+002, 9.402617e+002
4.627415e+002, 9.413193e+002
4.632236e+002, 9.421187e+002
4.637057e+002, 9.430369e+002
4.641878e+002, 9.444138e+002
4.646699e+002, 9.460690e+002
4.651520e+002, 9.473903e+002
4.656342e+002, 9.481612e+002
4.661163e+002, 9.485904e+002
4.665984e+002, 9.486591e+002
4.670805e+002, 9.480655e+002
4.675626e+002, 9.480187e+002
4.680447e+002, 9.491221e+002
4.685269e+002, 9.504259e+002
4.690090e+002, 9.509572e+002
4.694911e+002, 9.503518e+002
4.699732e+002, 9.496420e+002
4.704553e+002, 9.489780e+002
4.709374e+002, 9.483177e+002
4.714196e+002, 9.473421e+002
4.719017e+002, 9.458176e+002
4.723838e+002, 9.446808e+002
4.728659e+002, 9.446364e+002
4.733480e+002, 9.456779e+002
4.738301e+002, 9.463968e+002
4.743123e+002, 9.467971e+002
4.747944e+002, 9.467486e+002
4.752765e+002, 9.458838e+002
4.757586e+002, 9.443451e+002
4.762407e+002, 9.428708e+002
4.767228e+002, 9.416094e+002
4.772050e+002, 9.406126e+002
4.776871e+002, 9.402267e+002
4.781692e+002, 9.403040e+002
4.786513e+002, 9.401072e+002
4.791334e+002, 9.389111e+002
4.796155e+002, 9.373587e+002
4.800977e+002, 9.362370e+002
4.805798e+002, 9.357277e+002
4.810619e+002, 9.350121e+002
4.815440e+002, 9.328834e+002
4.820261e+002, 9.305580e+002
4.825082e+002, 9.294288e+002
4.829904e+002, 9.314207e+002
4.834725e+002, 9.330935e+002
4.839546e+002, 9.330588e+002
4.844367e+002, 9.317205e+002
4.849188e+002, 9.308964e+002
4.854009e+002, 9.310344e+002
4.858831e+002, 9.315558e+002
4.863652e+002, 9.323233e+002
4.868473e+002, 9.335033e+002
4.873294e+002, 9.341817e+002
4.878115e+002, 9.339045e+002
4.882936e+002, 9.335165e+002
4.887758e+002, 9.340564e+002
4.892579e+002, 9.360251e+002
4.897400e+002, 9.372181e+002
4.902221e+002, 9.370568e+002
4.907042e+002, 9.360159e+002
4.911863e+002, 9.355486e+002
4.916685e+002, 9.357010e+002
4.921506e+002, 9.359527e+002
4.926327e+002, 9.360214e+002
4.931148e+002, 9.359615e+002
4.935969e+002, 9.361193e+002
4.940790e+002, 9.365625e+002
4.945612e+002, 9.367408e+002
4.950433e+002, 9.355160e+002
4.955254e+002, 9.336791e+002
4.960075e+002, 9.330436e+002
4.964896e+002, 9.347504e+002
4.969717e+002, 9.368583e+002
4.974539e+002, 9.373757e+002
4.979360e+002, 9.368088e+002
4.984181e+002, 9.364377e+002
4.989002e+002, 9.373109e+002
4.993823e+002, 9.382175e+002
4.998644e+002, 9.381270e+002
5.003466e+002, 9.368467e+002
5.008287e+002, 9.362448e+002
5.013108e+002, 9.376607e+002
5.017929e+002, 9.394986e+002
5.022750e+002, 9.405392e+002
5.027571e+002, 9.398241e+002
5.032393e+002, 9.393227e+002
5.037214e+002, 9.394089e+002
5.042035e+002, 9.396821e+002
5.046856e+002, 9.392336e+002
5.051677e+002, 9.375654e+002
5.056498e+002, 9.360899e+002
5.061320e+002, 9.352352e+002
5.066141e+002, 9.349850e+002
5.070962e+002, 9.350243e+002
5.075783e+002, 9.355287e+002
5.080604e+002, 9.357958e+002
5.085425e+002, 9.348396e+002
5.090247e+002, 9.328399e+002
5.095068e+002, 9.321906e+002
5.099889e+002, 9.334897e+002
5.104710e+002, 9.352598e+002
5.109531e+002, 9.351622e+002
5.114352e+002, 9.336896e+002
5.119174e+002, 9.326388e+002
5.123995e+002, 9.331318e+002
5.128816e+002, 9.342065e+002
5.133637e+002, 9.348026e+002
5.138458e+002, 9.349720e+002
5.143279e+002, 9.350679e+002
5.148101e+002, 9.353325e+002
5.152922e+002, 9.355619e+002
5.157743e+002, 9.354827e+002
5.162564e+002, 9.348456e+002
5.167385e+002, 9.345916e+002
5.172206e+002, 9.356027e+002
5.177028e+002, 9.369421e+002
5.181849e+002, 9.375416e+002
5.186670e+002, 9.364159e+002
5.191491e+002, 9.354944e+002
5.196312e+002, 9.351250e+002
5.201133e+002, 9.352069e+002
5.205955e+002, 9.353184e+002
5.210776e+002, 9.356627e+002
5.215597e+002, 9.357455e+002
5.220418e+002, 9.353549e+002
5.225239e+002, 9.344769e+002
5.230060e+002, 9.333372e+002
5.234882e+002, 9.318091e+002
5.239703e+002, 9.304014e+002
5.244524e+002, 9.297934e+002
5.249345e+002, 9.299243e+002
5.254166e+002, 9.298273e+002
5.258987e+002, 9.292568e+002
5.263809e+002, 9.284877e+002
5.268630e+002, 9.278894e+002
5.273451e+002, 9.274362e+002
5.278272e+002, 9.270650e+002
5.283093e+002, 9.267462e+002
5.287914e+002, 9.264559e+002
5.292736e+002, 9.260673e+002
5.297557e+002, 9.255901e+002
5.302378e+002, 9.253754e+002
5.307199e+002, 9.258222e+002
5.312020e+002, 9.264811e+002
5.316841e+002, 9.270521e+002
5.321663e+002, 9.277203e+002
5.326484e+002, 9.277610e+002
5.331305e+002, 9.263985e+002
5.336126e+002, 9.244896e+002
5.340947e+002, 9.232480e+002
5.345768e+002, 9.235453e+002
5.350590e+002, 9.236047e+002
5.355411e+002, 9.231262e+002
5.360232e+002, 9.221943e+002
5.365053e+002, 9.212365e+002
5.369874e+002, 9.201732e+002
5.374695e+002, 9.193300e+002
5.379517e+002, 9.188916e+002
5.384338e+002, 9.188684e+002
5.389159e+002, 9.191508e+002
5.393980e+002, 9.198005e+002
5.398801e+002, 9.205024e+002
5.403622e+002, 9.209277e+002
5.408444e+002, 9.210909e+002
5.413265e+002, 9.210492e+002
5.418086e+002, 9.207133e+002
5.422907e+002, 9.203597e+002
5.427728e+002, 9.204445e+002
5.432549e+002, 9.208123e+002
5.437371e+002, 9.210307e+002
5.442192e+002, 9.207214e+002
5.447013e+002, 9.202899e+002
5.451834e+002, 9.199114e+002
5.456655e+002, 9.196176e+002
5.461476e+002, 9.197276e+002
5.466298e+002, 9.209599e+002
5.471119e+002, 9.222582e+002
5.475940e+002, 9.229485e+002
5.480761e+002, 9.228961e+002
5.485582e+002, 9.223367e+002
5.490403e+002, 9.207137e+002
5.495225e+002, 9.188909e+002
5.500046e+002, 9.179448e+002
5.504867e+002, 9.182614e+002
5.509688e+002, 9.187064e+002
5.514509e+002, 9.192476e+002
5.519330e+002, 9.197279e+002
5.524152e+002, 9.193804e+002
5.528973e+002, 9.180067e+002
5.533794e+002, 9.169199e+002
5.538615e+002, 9.170868e+002
5.543436e+002, 9.181921e+002
5.548257e+002, 9.184548e+002
5.553079e+002, 9.178269e+002
5.557900e+002, 9.170604e+002
5.562721e+002, 9.170372e+002
5.567542e+002, 9.173239e+002
5.572363e+002, 9.170926e+002
5.577184e+002, 9.160740e+002
5.582006e+002, 9.148131e+002
5.586827e+002, 9.134385e+002
5.591648e+002, 9.121757e+002
5.596469e+002, 9.113719e+002
5.601290e+002, 9.117714e+002
5.606111e+002, 9.120734e+002
5.610933e+002, 9.119020e+002
5.615754e+002, 9.112419e+002
5.620575e+002, 9.100443e+002
5.625396e+002, 9.075406e+002
5.630217e+002, 9.051957e+002
5.635038e+002, 9.035378e+002
5.639860e+002, 9.026331e+002
5.644681e+002, 9.021573e+002
5.649502e+002, 9.023804e+002
5.654323e+002, 9.026087e+002
5.659144e+002, 9.021187e+002
5.663965e+002, 9.008531e+002
5.668787e+002, 8.995760e+002
5.673608e+002, 8.984545e+002
5.678429e+002, 8.972678e+002
5.683250e+002, 8.954238e+002
5.688071e+002, 8.930884e+002
5.692892e+002, 8.912423e+002
5.697714e+002, 8.905478e+002
5.702535e+002, 8.904512e+002
5.707356e+002, 8.904149e+002
5.712177e+002, 8.903861e+002
5.716998e+002, 8.900750e+002
5.721819e+002, 8.889657e+002
5.726641e+002, 8.877224e+002
5.731462e+002, 8.867697e+002
5.736283e+002, 8.860987e+002
5.741104e+002, 8.859656e+002
5.745925e+002, 8.872889e+002
5.750746e+002, 8.887214e+002
5.755568e+002, 8.890361e+002
5.760389e+002, 8.869781e+002
5.765210e+002, 8.854019e+002
5.770031e+002, 8.846182e+002
5.774852e+002, 8.842903e+002
5.779673e+002, 8.836910e+002
5.784495e+002, 8.826954e+002
5.789316e+002, 8.818092e+002
5.794137e+002, 8.810326e+002
5.798958e+002, 8.805275e+002
5.803779e+002, 8.813519e+002
5.808600e+002, 8.835804e+002
5.813422e+002, 8.853768e+002
5.818243e+002, 8.846906e+002
5.823064e+002, 8.827747e+002
5.827885e+002, 8.827776e+002
5.832706e+002, 8.850322e+002
5.837527e+002, 8.874994e+002
5.842349e+002, 8.885893e+002
5.847170e+002, 8.888956e+002
5.851991e+002, 8.891299e+002
5.856812e+002, 8.893934e+002
5.861633e+002, 8.897387e+002
5.866454e+002, 8.901149e+002
5.871276e+002, 8.905868e+002
5.876097e+002, 8.912734e+002
5.880918e+002, 8.924658e+002
5.885739e+002, 8.935598e+002
5.890560e+002, 8.942355e+002
5.895381e+002, 8.946218e+002
5.900203e+002, 8.957709e+002
5.905024e+002, 8.981754e+002
5.909845e+002, 9.003860e+002
5.914666e+002, 9.015852e+002
5.919487e+002, 9.017756e+002
5.924308e+002, 9.021920e+002
5.929130e+002, 9.028553e+002
5.933951e+002, 9.037111e+002
5.938772e+002, 9.047485e+002
5.943593e+002, 9.059412e+002
5.948414e+002, 9.071169e+002
5.953235e+002, 9.081555e+002
5.958057e+002, 9.094545e+002
5.962878e+002, 9.118564e+002
5.967699e+002, 9.147584e+002
5.972520e+002, 9.169989e+002
5.977341e+002, 9.176090e+002
5.982162e+002, 9.179504e+002
5.986984e+002, 9.184650e+002
5.991805e+002, 9.191967e+002
5.996626e+002, 9.203396e+002
6.001447e+002, 9.224223e+002
6.006268e+002, 9.244437e+002
6.011089e+002, 9.260444e+002
6.015911e+002, 9.272144e+002
6.020732e+002, 9.280759e+002
6.025553e+002, 9.283263e+002
6.030374e+002, 9.287436e+002
6.035195e+002, 9.300447e+002
6.040016e+002, 9.323333e+002
6.044838e+002, 9.340671e+002
6.049659e+002, 9.350436e+002
6.054480e+002, 9.358260e+002
6.059301e+002, 9.373907e+002
6.064122e+002, 9.394423e+002
6.068943e+002, 9.407482e+002
6.073765e+002, 9.407406e+002
6.078586e+002, 9.402549e+002
6.083407e+002, 9.398381e+002
6.088228e+002, 9.396474e+002
6.093049e+002, 9.400808e+002
6.097870e+002, 9.421165e+002
6.102692e+002, 9.441117e+002
6.107513e+002, 9.449669e+002
6.112334e+002, 9.447771e+002
6.117155e+002, 9.449696e+002
6.121976e+002, 9.463552e+002
6.126797e+002, 9.477260e+002
6.131619e+002, 9.485616e+002
6.136440e+002, 9.488115e+002
6.141261e+002, 9.487401e+002
6.146082e+002, 9.480972e+002
6.150903e+002, 9.475381e+002
6.155724e+002, 9.479271e+002
6.160546e+002, 9.493317e+002
6.165367e+002, 9.498290e+002
6.170188e+002, 9.491182e+002
6.175009e+002, 9.476140e+002
6.179830e+002, 9.455464e+002
6.184651e+002, 9.431266e+002
6.189473e+002, 9.410746e+002
6.194294e+002, 9.396127e+002
6.199115e+002, 9.386641e+002
6.203936e+002, 9.384846e+002
6.208757e+002, 9.387947e+002
6.213578e+002, 9.387650e+002
6.218400e+002, 9.377631e+002
6.223221e+002, 9.365585e+002
6.228042e+002, 9.357970e+002
6.232863e+002, 9.355172e+002
6.237684e+002, 9.341812e+002
6.242505e+002, 9.300112e+002
6.247327e+002, 9.263468e+002
6.252148e+002, 9.250868e+002
6.256969e+002, 9.270676e+002
6.261790e+002, 9.280381e+002
6.266611e+002, 9.277946e+002
6.271432e+002, 9.269659e+002
6.276254e+002, 9.260303e+002
6.281075e+002, 9.250130e+002
6.285896e+002, 9.242894e+002
6.290717e+002, 9.238973e+002
6.295538e+002, 9.238914e+002
6.300359e+002, 9.244933e+002
6.305181e+002, 9.255410e+002
6.310002e+002, 9.266544e+002
6.314823e+002, 9.278625e+002
6.319644e+002, 9.288894e+002
6.324465e+002, 9.293773e+002
6.329286e+002, 9.294948e+002
6.334108e+002, 9.297694e+002
6.338929e+002, 9.305404e+002
6.343750e+002, 9.313496e+002
6.348571e+002, 9.319119e+002
6.353392e+002, 9.322018e+002
6.358214e+002, 9.329736e+002
6.363035e+002, 9.344154e+002
6.367856e+002, 9.360982e+002
6.372677e+002, 9.378879e+002
6.377498e+002, 9.398485e+002
6.382319e+002, 9.413965e+002
6.387141e+002, 9.424916e+002
6.391962e+002, 9.434254e+002
6.396783e+002, 9.446188e+002
6.401604e+002, 9.459494e+002
6.406425e+002, 9.468507e+002
6.411246e+002, 9.471364e+002
6.416068e+002, 9.472900e+002
6.420889e+002, 9.477452e+002
6.425710e+002, 9.484261e+002
6.430531e+002, 9.491916e+002
6.435352e+002, 9.507292e+002
6.440173e+002, 9.515676e+002
6.444995e+002, 9.505320e+002
6.449816e+002, 9.482798e+002
6.454637e+002, 9.466907e+002
6.459458e+002, 9.467454e+002
6.464279e+002, 9.467405e+002
6.469100e+002, 9.461428e+002
6.473922e+002, 9.450297e+002
6.478743e+002, 9.446111e+002
6.483564e+002, 9.451140e+002
6.488385e+002, 9.456087e+002
6.493206e+002, 9.454288e+002
6.498027e+002, 9.446779e+002
6.502849e+002, 9.445226e+002
6.507670e+002, 9.450175e+002
6.512491e+002, 9.452281e+002
6.517312e+002, 9.436902e+002
6.522133e+002, 9.415007e+002
6.526954e+002, 9.406221e+002
6.531776e+002, 9.417453e+002
6.536597e+002, 9.427645e+002
6.541418e+002, 9.421223e+002
6.546239e+002, 9.407777e+002
6.551060e+002, 9.398464e+002
6.555881e+002, 9.402731e+002
6.560703e+002, 9.403054e+002
6.565524e+002, 9.391329e+002
6.570345e+002, 9.375719e+002
6.575166e+002, 9.371891e+002
6.579987e+002, 9.386085e+002
6.584808e+002, 9.395988e+002
6.589630e+002, 9.395237e+002
6.594451e+002, 9.387119e+002
6.599272e+002, 9.383234e+002
6.604093e+002, 9.383609e+002
6.608914e+002, 9.383438e+002
6.613735e+002, 9.382227e+002
6.618557e+002, 9.378067e+002
6.623378e+002, 9.361608e+002
6.628199e+002, 9.335223e+002
6.633020e+002, 9.319471e+002
6.637841e+002, 9.342110e+002
6.642662e+002, 9.370922e+002
6.647484e+002, 9.376693e+002
6.652305e+002, 9.351420e+002
6.657126e+002, 9.334784e+002
6.661947e+002, 9.341346e+002
6.666768e+002, 9.356854e+002
6.671589e+002, 9.371992e+002
6.676411e+002, 9.393047e+002
6.681232e+002, 9.397573e+002
6.686053e+002, 9.376517e+002
6.690874e+002, 9.351061e+002
6.695695e+002, 9.351724e+002
6.700516e+002, 9.378105e+002
6.705338e+002, 9.397279e+002
6.710159e+002, 9.401259e+002
6.714980e+002, 9.398875e+002
6.719801e+002, 9.403887e+002
6.724622e+002, 9.413359e+002
6.729443e+002, 9.419079e+002
6.734265e+002, 9.414286e+002
6.739086e+002, 9.407937e+002
6.743907e+002, 9.405228e+002
6.748728e+002, 9.405876e+002
6.753549e+002, 9.408875e+002
6.758370e+002, 9.418538e+002
6.763192e+002, 9.426049e+002
6.768013e+002, 9.426544e+002
6.772834e+002, 9.420940e+002
6.777655e+002, 9.419750e+002
6.782476e+002, 9.423993e+002
6.787297e+002, 9.430695e+002
6.792119e+002, 9.439637e+002
6.796940e+002, 9.450524e+002
6.801761e+002, 9.456398e+002
6.806582e+002, 9.456857e+002
6.811403e+002, 9.455668e+002
6.816224e+002, 9.454340e+002
6.821046e+002, 9.453944e+002
6.825867e+002, 9.457789e+002
6.830688e+002, 9.466953e+002
6.835509e+002, 9.474227e+002
6.840330e+002, 9.471833e+002
6.845151e+002, 9.466458e+002
6.849973e+002, 9.464835e+002
6.854794e+002, 9.468779e+002
6.859615e+002, 9.475773e+002
6.864436e+002, 9.491139e+002
6.869257e+002, 9.506732e+002
6.874078e+002, 9.512010e+002
6.878900e+002, 9.501874e+002
6.883721e+002, 9.495280e+002
6.888542e+002, 9.494879e+002
6.893363e+002, 9.499668e+002
6.898184e+002, 9.510807e+002
6.903005e+002, 9.527372e+002
6.907827e+002, 9.537120e+002
6.912648e+002, 9.528700e+002
6.917469e+002, 9.517728e+002
6.922290e+002, 9.533448e+002
6.927111e+002, 9.567070e+002
6.931932e+002, 9.589653e+002
6.936754e+002, 9.574384e+002
6.941575e+002, 9.554610e+002
6.946396e+002, 9.549183e+002
6.951217e+002, 9.557673e+002
6.956038e+002, 9.565784e+002
6.960859e+002, 9.570753e+002
6.965681e+002, 9.575425e+002
6.970502e+002, 9.581383e+002
6.975323e+002, 9.588815e+002
6.980144e+002, 9.592511e+002
6.984965e+002, 9.591943e+002
6.989786e+002, 9.589769e+002
6.994608e+002, 9.585054e+002
6.999429e+002, 9.579948e+002
7.004250e+002, 9.587385e+002
7.009071e+002, 9.609003e+002
7.013892e+002, 9.627836e+002
7.018713e+002, 9.625091e+002
7.023535e+002, 9.612654e+002
7.028356e+002, 9.604728e+002
7.033177e+002, 9.604132e+002
7.037998e+002, 9.608329e+002
7.042819e+002, 9.618572e+002
7.047640e+002, 9.631962e+002
7.052462e+002, 9.645734e+002
7.057283e+002, 9.663429e+002
7.062104e+002, 9.674446e+002
7.066925e+002, 9.676064e+002
7.071746e+002, 9.672885e+002
7.076567e+002, 9.669210e+002
7.081389e+002, 9.664309e+002
7.086210e+002, 9.673640e+002
7.091031e+002, 9.706543e+002
7.095852e+002, 9.744803e+002
7.100673e+002, 9.757372e+002
7.105494e+002, 9.749802e+002
7.110316e+002, 9.739252e+002
7.115137e+002, 9.727113e+002
7.119958e+002, 9.720616e+002
7.124779e+002, 9.726403e+002
7.129600e+002, 9.741945e+002
7.134421e+002, 9.759299e+002
7.139243e+002, 9.784874e+002
7.144064e+002, 9.802763e+002
7.148885e+002, 9.805199e+002
7.153706e+002, 9.794601e+002
7.158527e+002, 9.789244e+002
7.163348e+002, 9.788935e+002
7.168170e+002, 9.794426e+002
7.172991e+002, 9.807804e+002
7.177812e+002, 9.827472e+002
7.182633e+002, 9.845775e+002
7.187454e+002, 9.862825e+002
7.192275e+002, 9.876213e+002
7.197097e+002, 9.885233e+002
7.201918e+002, 9.889486e+002
7.206739e+002, 9.885963e+002
7.211560e+002, 9.874481e+002
7.216381e+002, 9.867007e+002
7.221202e+002, 9.870125e+002
7.226024e+002, 9.878696e+002
7.230845e+002, 9.890411e+002
7.235666e+002, 9.907689e+002
7.240487e+002, 9.919531e+002
7.245308e+002, 9.923805e+002
7.250129e+002, 9.925741e+002
7.254951e+002, 9.927944e+002
7.259772e+002, 9.930037e+002
7.264593e+002, 9.942271e+002
7.269414e+002, 9.967474e+002
7.274235e+002, 9.993024e+002
7.279056e+002, 1.000390e+003
7.283878e+002, 1.000420e+003
7.288699e+002, 1.000164e+003
7.293520e+002, 9.995768e+002
7.298341e+002, 9.993688e+002
7.303162e+002, 9.996843e+002
7.307983e+002, 1.000787e+003
7.312805e+002, 1.003009e+003
7.317626e+002, 1.008679e+003
7.322447e+002, 1.012509e+003
7.327268e+002, 1.013219e+003
7.332089e+002, 1.012314e+003
7.336910e+002, 1.012089e+003
7.341732e+002, 1.012514e+003
7.346553e+002, 1.013881e+003
7.351374e+002, 1.016465e+003
7.356195e+002, 1.019679e+003
7.361016e+002, 1.022496e+003
7.365837e+002, 1.024950e+003
7.370659e+002, 1.027182e+003
7.375480e+002, 1.029092e+003
7.380301e+002, 1.030966e+003
7.385122e+002, 1.033010e+003
7.389943e+002, 1.035197e+003
7.394764e+002, 1.037457e+003
7.399586e+002, 1.039940e+003
7.404407e+002, 1.042296e+003
7.409228e+002, 1.044321e+003
7.414049e+002, 1.046102e+003
7.418870e+002, 1.048034e+003
7.423691e+002, 1.050095e+003
7.428513e+002, 1.052297e+003
7.433334e+002, 1.054789e+003
7.438155e+002, 1.057406e+003
7.442976e+002, 1.059125e+003
7.447797e+002, 1.060038e+003
7.452618e+002, 1.061496e+003
7.457440e+002, 1.065272e+003
7.462261e+002, 1.069503e+003
7.467082e+002, 1.071612e+003
7.471903e+002, 1.071796e+003
7.476724e+002, 1.072677e+003
7.481545e+002, 1.076181e+003
7.486367e+002, 1.080027e+003
7.491188e+002, 1.083095e+003
7.496009e+002, 1.085302e+003
7.500830e+002, 1.087016e+003
7.505651e+002, 1.088014e+003
7.510472e+002, 1.088946e+003
7.515294e+002, 1.089925e+003
7.520115e+002, 1.090990e+003
7.524936e+002, 1.093738e+003
7.529757e+002, 1.098313e+003
7.534578e+002, 1.102395e+003
7.539399e+002, 1.103296e+003
7.544221e+002, 1.102672e+003
7.549042e+002, 1.102971e+003
7.553863e+002, 1.104542e+003
7.558684e+002, 1.106127e+003
7.563505e+002, 1.106621e+003
7.568326e+002, 1.107205e+003
7.573148e+002, 1.109031e+003
7.577969e+002, 1.113364e+003
7.582790e+002, 1.115707e+003
7.587611e+002, 1.115009e+003
7.592432e+002, 1.113766e+003
7.597253e+002, 1.114202e+003
7.602075e+002, 1.116354e+003
7.606896e+002, 1.118803e+003
7.611717e+002, 1.121716e+003
7.616538e+002, 1.123523e+003
7.621359e+002, 1.121661e+003
7.626180e+002, 1.117741e+003
7.631002e+002, 1.114708e+003
7.635823e+002, 1.113344e+003
7.640644e+002, 1.112329e+003
7.645465e+002, 1.110865e+003
7.650286e+002, 1.109412e+003
7.655107e+002, 1.108493e+003
7.659929e+002, 1.109785e+003
7.664750e+002, 1.109060e+003
7.669571e+002, 1.105240e+003
7.674392e+002, 1.100501e+003
7.679213e+002, 1.097743e+003
7.684034e+002, 1.097053e+003
7.688856e+002, 1.096041e+003
7.693677e+002, 1.094285e+003
7.698498e+002, 1.092271e+003
7.703319e+002, 1.091001e+003
7.708140e+002, 1.089868e+003
7.712961e+002, 1.087439e+003
7.717783e+002, 1.082300e+003
7.722604e+002, 1.077553e+003
7.727425e+002, 1.075089e+003
7.732246e+002, 1.073967e+003
7.737067e+002, 1.072740e+003
7.741888e+002, 1.071544e+003
7.746710e+002, 1.069745e+003
7.751531e+002, 1.067185e+003
7.756352e+002, 1.064098e+003
7.761173e+002, 1.060728e+003
7.765994e+002, 1.057081e+003
7.770815e+002, 1.053781e+003
7.775637e+002, 1.050962e+003
7.780458e+002, 1.048557e+003
7.785279e+002, 1.046712e+003
7.790100e+002, 1.045195e+003
7.794921e+002, 1.043469e+003
7.799742e+002, 1.041125e+003
7.804564e+002, 1.038769e+003
7.809385e+002, 1.036666e+003
7.814206e+002, 1.034718e+003
7.819027e+002, 1.032672e+003
7.823848e+002, 1.029863e+003
7.828669e+002, 1.028196e+003
7.833491e+002, 1.028652e+003
7.838312e+002, 1.029944e+003
7.843133e+002, 1.028504e+003
7.847954e+002, 1.024421e+003
7.852775e+002, 1.021087e+003
7.857596e+002, 1.020094e+003
7.862418e+002, 1.019842e+003
7.867239e+002, 1.017731e+003
7.872060e+002, 1.014609e+003
7.876881e+002, 1.012481e+003
7.881702e+002, 1.013235e+003
7.886523e+002, 1.014128e+003
7.891345e+002, 1.014128e+003
7.896166e+002, 1.013419e+003
7.900987e+002, 1.012618e+003
7.905808e+002, 1.011630e+003
7.910629e+002, 1.010787e+003
7.915450e+002, 1.010264e+003
7.920272e+002, 1.009859e+003
7.925093e+002, 1.008854e+003
7.929914e+002, 1.007315e+003
7.934735e+002, 1.006200e+003
7.939556e+002, 1.006148e+003
7.944377e+002, 1.006443e+003
7.949199e+002, 1.006377e+003
7.954020e+002, 1.005968e+003
7.958841e+002, 1.005271e+003
7.963662e+002, 1.004057e+003
7.968483e+002, 1.002827e+003
7.973304e+002, 1.001722e+003
7.978126e+002, 1.000737e+003
7.982947e+002, 9.998759e+002
7.987768e+002, 9.990972e+002
7.992589e+002, 9.985955e+002
7.997410e+002, 9.985119e+002
8.002231e+002, 9.986749e+002
8.007053e+002, 9.988580e+002
8.011874e+002, 9.989699e+002
8.016695e+002, 9.984482e+002
8.021516e+002, 9.960825e+002
8.026337e+002, 9.938065e+002
8.031158e+002, 9.937750e+002
8.035980e+002, 9.952432e+002
8.040801e+002, 9.961591e+002
8.045622e+002, 9.954323e+002
8.050443e+002, 9.945854e+002
8.055264e+002, 9.940539e+002
8.060085e+002, 9.936863e+002
8.064907e+002, 9.928729e+002
8.069728e+002, 9.914337e+002
8.074549e+002, 9.904915e+002
8.079370e+002, 9.906439e+002
8.084191e+002, 9.912510e+002
8.089012e+002, 9.907894e+002
8.093834e+002, 9.895829e+002
8.098655e+002, 9.887930e+002
8.103476e+002, 9.890134e+002
8.108297e+002, 9.898164e+002
8.113118e+002, 9.916369e+002
8.117939e+002, 9.938852e+002
8.122761e+002, 9.947483e+002
8.127582e+002, 9.924661e+002
8.132403e+002, 9.909318e+002
8.137224e+002, 9.911779e+002
8.142045e+002, 9.925561e+002
8.146866e+002, 9.931210e+002
8.151688e+002, 9.928541e+002
8.156509e+002, 9.926360e+002
8.161330e+002, 9.927600e+002
8.166151e+002, 9.931290e+002
8.170972e+002, 9.937324e+002
8.175793e+002, 9.944612e+002
8.180615e+002, 9.950582e+002
8.185436e+002, 9.949415e+002
8.190257e+002, 9.951550e+002
8.195078e+002, 9.963488e+002
8.199899e+002, 9.981638e+002
8.204720e+002, 9.996332e+002
8.209542e+002, 1.000818e+003
8.214363e+002, 1.001384e+003
8.219184e+002, 1.000990e+003
8.224005e+002, 1.000226e+003
8.228826e+002, 1.000578e+003
8.233647e+002, 1.001860e+003
8.238469e+002, 1.002980e+003
8.243290e+002, 1.003599e+003
8.248111e+002, 1.003835e+003
8.252932e+002, 1.003468e+003
8.257753e+002, 1.002859e+003
8.262574e+002, 1.002720e+003
8.267396e+002, 1.003931e+003
8.272217e+002, 1.004773e+003
8.277038e+002, 1.004604e+003
8.281859e+002, 1.004093e+003
8.286681e+002, 1.004705e+003
8.291502e+002, 1.006687e+003
8.296323e+002, 1.007875e+003
8.301144e+002, 1.007483e+003
8.305966e+002, 1.006700e+003
8.310787e+002, 1.007715e+003
8.315608e+002, 1.009757e+003
8.320429e+002, 1.010960e+003
8.325250e+002, 1.010068e+003
8.330071e+002, 1.009170e+003
8.334893e+002, 1.009296e+003
8.339714e+002, 1.010090e+003
8.344535e+002, 1.011011e+003
8.349356e+002, 1.012031e+003
8.354177e+002, 1.013144e+003
8.358998e+002, 1.014435e+003
8.363820e+002, 1.015681e+003
8.368641e+002, 1.016605e+003
8.373462e+002, 1.017199e+003
8.378283e+002, 1.017380e+003
8.383104e+002, 1.017016e+003
8.387925e+002, 1.016637e+003
8.392747e+002, 1.017106e+003
8.397568e+002, 1.017754e+003
8.402389e+002, 1.017593e+003
8.407210e+002, 1.015592e+003
8.412031e+002, 1.014187e+003
8.416852e+002, 1.013874e+003
8.421674e+002, 1.014372e+003
8.426495e+002, 1.015687e+003
8.431316e+002, 1.018102e+003
8.436137e+002, 1.019787e+003
8.440958e+002, 1.020622e+003
8.445779e+002, 1.020780e+003
8.450601e+002, 1.020163e+003
8.455422e+002, 1.019089e+003
8.460243e+002, 1.018166e+003
8.465064e+002, 1.017483e+003
8.469885e+002, 1.017047e+003
8.474706e+002, 1.016829e+003
8.479528e+002, 1.016859e+003
8.484349e+002, 1.017263e+003
8.489170e+002, 1.018393e+003
8.493991e+002, 1.018695e+003
8.498812e+002, 1.017812e+003
8.503633e+002, 1.016768e+003
8.508455e+002, 1.016368e+003
8.513276e+002, 1.016555e+003
8.518097e+002, 1.017191e+003
8.522918e+002, 1.018292e+003
8.527739e+002, 1.019042e+003
8.532560e+002, 1.018337e+003
8.537382e+002, 1.017296e+003
8.542203e+002, 1.017229e+003
8.547024e+002, 1.018436e+003
8.551845e+002, 1.018763e+003
8.556666e+002, 1.016760e+003
8.561487e+002, 1.014899e+003
8.566309e+002, 1.014391e+003
8.571130e+002, 1.015227e+003
8.575951e+002, 1.015976e+003
8.580772e+002, 1.016640e+003
8.585593e+002, 1.017209e+003
8.590414e+002, 1.017708e+003
8.595236e+002, 1.018089e+003
8.600057e+002, 1.018181e+003
8.604878e+002, 1.018025e+003
8.609699e+002, 1.017965e+003
8.614520e+002, 1.018143e+003
8.619341e+002, 1.018454e+003
8.624163e+002, 1.018965e+003
8.628984e+002, 1.019614e+003
8.633805e+002, 1.019992e+003
8.638626e+002, 1.020134e+003
8.643447e+002, 1.019845e+003
8.648268e+002, 1.018744e+003
8.653090e+002, 1.017390e+003
8.657911e+002, 1.017319e+003
8.662732e+002, 1.018291e+003
8.667553e+002, 1.019337e+003
8.672374e+002, 1.019818e+003
8.677195e+002, 1.020355e+003
8.682017e+002, 1.021894e+003
8.686838e+002, 1.023790e+003
8.691659e+002, 1.024007e+003
8.696480e+002, 1.021192e+003
8.701301e+002, 1.019002e+003
8.706122e+002, 1.018251e+003
8.710944e+002, 1.018345e+003
8.715765e+002, 1.018082e+003
8.720586e+002, 1.017513e+003
8.725407e+002, 1.016965e+003
8.730228e+002, 1.016514e+003
8.735049e+002, 1.016225e+003
8.739871e+002, 1.016639e+003
8.744692e+002, 1.017133e+003
8.749513e+002, 1.016754e+003
8.754334e+002, 1.013981e+003
8.759155e+002, 1.012093e+003
8.763976e+002, 1.011429e+003
8.768798e+002, 1.011642e+003
8.773619e+002, 1.012611e+003
8.778440e+002, 1.014405e+003
8.783261e+002, 1.015392e+003
8.788082e+002, 1.015282e+003
8.792903e+002, 1.014826e+003
8.797725e+002, 1.014867e+003
8.802546e+002, 1.015047e+003
8.807367e+002, 1.014713e+003
8.812188e+002, 1.013539e+003
8.817009e+002, 1.012812e+003
8.821830e+002, 1.013410e+003
8.826652e+002, 1.014262e+003
8.831473e+002, 1.014580e+003
8.836294e+002, 1.014233e+003
8.841115e+002, 1.014391e+003
8.845936e+002, 1.015232e+003
8.850757e+002, 1.015755e+003
8.855579e+002, 1.014719e+003
8.860400e+002, 1.012988e+003
8.865221e+002, 1.012554e+003
8.870042e+002, 1.013389e+003
8.874863e+002, 1.013843e+003
8.879684e+002, 1.012418e+003
8.884506e+002, 1.010937e+003
8.889327e+002, 1.010396e+003
8.894148e+002, 1.010789e+003
8.898969e+002, 1.011682e+003
8.903790e+002, 1.013436e+003
8.908611e+002, 1.014520e+003
8.913433e+002, 1.013977e+003
8.918254e+002, 1.012525e+003
8.923075e+002, 1.012250e+003
8.927896e+002, 1.012827e+003
8.932717e+002, 1.012906e+003
8.937538e+002, 1.010795e+003
8.942360e+002, 1.008947e+003
8.947181e+002, 1.009268e+003
8.952002e+002, 1.010932e+003
8.956823e+002, 1.011761e+003
8.961644e+002, 1.011293e+003
8.966465e+002, 1.010610e+003
8.971287e+002, 1.009635e+003
8.976108e+002, 1.008898e+003
8.980929e+002, 1.010055e+003
8.985750e+002, 1.012517e+003
8.990571e+002, 1.013288e+003
8.995392e+002, 1.011106e+003
9.000214e+002, 1.008557e+003
9.005035e+002, 1.007536e+003
9.009856e+002, 1.007395e+003
9.014677e+002, 1.007418e+003
9.019498e+002, 1.008253e+003
9.024319e+002, 1.007676e+003
9.029141e+002, 1.004898e+003
9.033962e+002, 1.001856e+003
9.038783e+002, 1.000140e+003
9.043604e+002, 9.997238e+002
9.048425e+002, 1.000710e+003
9.053246e+002, 1.003201e+003
9.058068e+002, 1.005054e+003
9.062889e+002, 1.003703e+003
9.067710e+002, 1.001460e+003
9.072531e+002, 1.000622e+003
9.077352e+002, 1.001539e+003
9.082173e+002, 1.001825e+003
9.086995e+002, 1.000741e+003
9.091816e+002, 9.995296e+002
9.096637e+002, 9.986403e+002
9.101458e+002, 9.980805e+002
9.106279e+002, 9.981556e+002
9.111100e+002, 9.988236e+002
9.115922e+002, 9.991807e+002
9.120743e+002, 9.981192e+002
9.125564e+002, 9.969738e+002
9.130385e+002, 9.974244e+002
9.135206e+002, 9.989582e+002
9.140027e+002, 9.999932e+002
9.144849e+002, 9.996866e+002
9.149670e+002, 9.993477e+002
9.154491e+002, 9.992408e+002
9.159312e+002, 9.992264e+002
9.164133e+002, 9.990394e+002
9.168954e+002, 9.986754e+002
9.173776e+002, 9.980272e+002
9.178597e+002, 9.968853e+002
9.183418e+002, 9.959828e+002
9.188239e+002, 9.965140e+002
9.193060e+002, 9.976493e+002
9.197881e+002, 9.981584e+002
9.202703e+002, 9.971496e+002
9.207524e+002, 9.967555e+002
9.212345e+002, 9.977727e+002
9.217166e+002, 9.989696e+002
9.221987e+002, 9.991426e+002
9.226808e+002, 9.982209e+002
9.231630e+002, 9.984106e+002
9.236451e+002, 9.998818e+002
9.241272e+002, 1.001292e+003
9.246093e+002, 1.001076e+003
9.250914e+002, 1.000420e+003
9.255735e+002, 1.000566e+003
9.260557e+002, 1.001620e+003
9.265378e+002, 1.003307e+003
9.270199e+002, 1.007466e+003
9.275020e+002, 1.010051e+003
9.279841e+002, 1.009088e+003
9.284662e+002, 1.005309e+003
9.289484e+002, 1.002973e+003
9.294305e+002, 1.002063e+003
9.299126e+002, 1.002075e+003
9.303947e+002, 1.003296e+003
9.308768e+002, 1.004779e+003
9.313589e+002, 1.005523e+003
9.318411e+002, 1.005662e+003
9.323232e+002, 1.005467e+003
9.328053e+002, 1.004511e+003
9.332874e+002, 1.003940e+003
9.337695e+002, 1.004069e+003
9.342516e+002, 1.004546e+003
9.347338e+002, 1.004863e+003
9.352159e+002, 1.005026e+003
9.356980e+002, 1.005033e+003
9.361801e+002, 1.004772e+003
9.366622e+002, 1.004959e+003
9.371443e+002, 1.007085e+003
9.376265e+002, 1.009690e+003
9.381086e+002, 1.010830e+003
9.385907e+002, 1.009757e+003
9.390728e+002, 1.008949e+003
9.395549e+002, 1.008738e+003
9.400370e+002, 1.008959e+003
9.405192e+002, 1.009497e+003
9.410013e+002, 1.010359e+003
9.414834e+002, 1.012046e+003
9.419655e+002, 1.014545e+003
9.424476e+002, 1.016718e+003
9.429297e+002, 1.017819e+003
9.434119e+002, 1.018230e+003
9.438940e+002, 1.018081e+003
9.443761e+002, 1.017512e+003
9.448582e+002, 1.017084e+003
9.453403e+002, 1.017023e+003
9.458224e+002, 1.016978e+003
9.463046e+002, 1.016798e+003
9.467867e+002, 1.016677e+003
9.472688e+002, 1.017238e+003
9.477509e+002, 1.018377e+003
9.482330e+002, 1.019152e+003
9.487151e+002, 1.019156e+003
9.491973e+002, 1.019130e+003
9.496794e+002, 1.019840e+003
9.501615e+002, 1.020878e+003
9.506436e+002, 1.021700e+003
9.511257e+002, 1.021649e+003
9.516078e+002, 1.022643e+003
9.520900e+002, 1.025234e+003
9.525721e+002, 1.027992e+003
9.530542e+002, 1.029733e+003
9.535363e+002, 1.030569e+003
9.540184e+002, 1.031313e+003
9.545005e+002, 1.031962e+003
9.549827e+002, 1.031921e+003
9.554648e+002, 1.029583e+003
9.559469e+002, 1.027364e+003
9.564290e+002, 1.027294e+003
9.569111e+002, 1.029303e+003
9.573932e+002, 1.030789e+003
9.578754e+002, 1.031519e+003
9.583575e+002, 1.031940e+003
9.588396e+002, 1.032002e+003
9.593217e+002, 1.032012e+003
9.598038e+002, 1.033063e+003
9.602859e+002, 1.034760e+003
9.607681e+002, 1.035642e+003
9.612502e+002, 1.034525e+003
9.617323e+002, 1.033544e+003
9.622144e+002, 1.034353e+003
9.626965e+002, 1.035799e+003
9.631786e+002, 1.036361e+003
9.636608e+002, 1.035668e+003
9.641429e+002, 1.035019e+003
9.646250e+002, 1.034427e+003
9.651071e+002, 1.034066e+003
9.655892e+002, 1.033960e+003
9.660714e+002, 1.034273e+003
9.665535e+002, 1.035767e+003
9.670356e+002, 1.038440e+003
9.675177e+002, 1.040326e+003
9.679998e+002, 1.040078e+003
9.684819e+002, 1.039078e+003
9.689641e+002, 1.037659e+003
9.694462e+002, 1.036028e+003
9.699283e+002, 1.035842e+003
9.704104e+002, 1.037358e+003
9.708925e+002, 1.038176e+003
9.713746e+002, 1.036709e+003
9.718568e+002, 1.034898e+003
9.723389e+002, 1.035957e+003
9.728210e+002, 1.038902e+003
9.733031e+002, 1.041656e+003
9.737852e+002, 1.043832e+003
9.742673e+002, 1.045229e+003
9.747495e+002, 1.045652e+003
9.752316e+002, 1.045442e+003
9.757137e+002, 1.044621e+003
9.761958e+002, 1.043118e+003
9.766779e+002, 1.043205e+003
9.771600e+002, 1.045209e+003
9.776422e+002, 1.047142e+003
9.781243e+002, 1.046850e+003
9.786064e+002, 1.045877e+003
9.790885e+002, 1.045970e+003
9.795706e+002, 1.047302e+003
9.800527e+002, 1.048320e+003
9.805349e+002, 1.048480e+003
9.810170e+002, 1.048742e+003
9.814991e+002, 1.049472e+003
9.819812e+002, 1.050534e+003
9.824633e+002, 1.051374e+003
9.829454e+002, 1.052064e+003
9.834276e+002, 1.053139e+003
9.839097e+002, 1.055534e+003
9.843918e+002, 1.057353e+003
9.848739e+002, 1.056726e+003
9.853560e+002, 1.054847e+003
9.858381e+002, 1.053568e+003
9.863203e+002, 1.053284e+003
9.868024e+002, 1.053150e+003
9.872845e+002, 1.053331e+003
9.877666e+002, 1.053194e+003
9.882487e+002, 1.051792e+003
9.887308e+002, 1.049621e+003
9.892130e+002, 1.047920e+003
9.896951e+002, 1.046799e+003
9.901772e+002, 1.045760e+003
9.906593e+002, 1.044214e+003
9.911414e+002, 1.042979e+003
9.916235e+002, 1.042692e+003
9.921057e+002, 1.043137e+003
9.925878e+002, 1.043203e+003
9.930699e+002, 1.042873e+003
9.935520e+002, 1.042112e+003
9.940341e+002, 1.040698e+003
9.945162e+002, 1.039167e+003
9.949984e+002, 1.038313e+003
9.954805e+002, 1.037909e+003
9.959626e+002, 1.037522e+003
9.964447e+002, 1.037019e+003
9.969268e+002, 1.036555e+003
9.974089e+002, 1.036173e+003
9.978911e+002, 1.035865e+003
9.983732e+002, 1.035556e+003
9.988553e+002, 1.035276e+003
9.993374e+002, 1.035591e+003
9.998195e+002, 1.036541e+003
1.000302e+003, 1.037396e+003
1.000784e+003, 1.037619e+003
1.001266e+003, 1.037506e+003
1.001748e+003, 1.037222e+003
1.002230e+003, 1.036788e+003
1.002712e+003, 1.036290e+003
1.003194e+003, 1.035372e+003
1.003676e+003, 1.035177e+003
1.004159e+003, 1.036223e+003
1.004641e+003, 1.037818e+003
1.005123e+003, 1.038372e+003
1.005605e+003, 1.038300e+003
1.006087e+003, 1.039012e+003
1.006569e+003, 1.041402e+003
1.007051e+003, 1.043373e+003
1.007533e+003, 1.043979e+003
1.008016e+003, 1.043653e+003
1.008498e+003, 1.042632e+003
1.008980e+003, 1.040576e+003
1.009462e+003, 1.040202e+003
1.009944e+003, 1.041748e+003
1.010426e+003, 1.043266e+003
1.010908e+003, 1.043091e+003
1.011390e+003, 1.042156e+003
1.011872e+003, 1.041479e+003
1.012355e+003, 1.041113e+003
1.012837e+003, 1.041142e+003
1.013319e+003, 1.041747e+003
1.013801e+003, 1.042593e+003
1.014283e+003, 1.043951e+003
1.014765e+003, 1.045157e+003
1.015247e+003, 1.044536e+003
1.015729e+003, 1.042412e+003
1.016211e+003, 1.041450e+003
1.016694e+003, 1.042353e+003
1.017176e+003, 1.043565e+003
1.017658e+003, 1.044081e+003
1.018140e+003, 1.044172e+003
1.018622e+003, 1.044130e+003
1.019104e+003, 1.044054e+003
1.019586e+003, 1.043237e+003
1.020068e+003, 1.041286e+003
1.020551e+003, 1.039976e+003
1.021033e+003, 1.040696e+003
1.021515e+003, 1.042435e+003
1.021997e+003, 1.042875e+003
1.022479e+003, 1.042400e+003
1.022961e+003, 1.042133e+003
1.023443e+003, 1.042594e+003
1.023925e+003, 1.043274e+003
1.024407e+003, 1.044340e+003
1.024890e+003, 1.045319e+003
1.025372e+003, 1.045380e+003
1.025854e+003, 1.044466e+003
1.026336e+003, 1.044552e+003
1.026818e+003, 1.045897e+003
1.027300e+003, 1.047396e+003
1.027782e+003, 1.048130e+003
1.028264e+003, 1.048515e+003
1.028746e+003, 1.048875e+003
1.029229e+003, 1.049241e+003
1.029711e+003, 1.049760e+003
1.030193e+003, 1.050549e+003
1.030675e+003, 1.051210e+003
1.031157e+003, 1.051472e+003
1.031639e+003, 1.051688e+003
1.032121e+003, 1.053054e+003
1.032603e+003, 1.055099e+003
1.033086e+003, 1.056266e+003
1.033568e+003, 1.055781e+003
1.034050e+003, 1.055034e+003
1.034532e+003, 1.054725e+003
1.035014e+003, 1.054386e+003
1.035496e+003, 1.053548e+003
1.035978e+003, 1.052106e+003
1.036460e+003, 1.050835e+003
1.036943e+003, 1.049716e+003
1.037425e+003, 1.049421e+003
1.037907e+003, 1.051491e+003
1.038389e+003, 1.053875e+003
1.038871e+003, 1.054063e+003
1.039353e+003, 1.052518e+003
1.039835e+003, 1.051321e+003
1.040317e+003, 1.051040e+003
1.040799e+003, 1.050836e+003
1.041281e+003, 1.050565e+003
1.041764e+003, 1.050318e+003
1.042246e+003, 1.050268e+003
1.042728e+003, 1.050357e+003
1.043210e+003, 1.050508e+003
1.043692e+003, 1.050763e+003
1.044174e+003, 1.050594e+003
1.044656e+003, 1.049143e+003
1.045138e+003, 1.047671e+003
1.045621e+003, 1.046992e+003
1.046103e+003, 1.047065e+003
1.046585e+003, 1.047540e+003
1.047067e+003, 1.048485e+003
1.047549e+003, 1.048771e+003
1.048031e+003, 1.047336e+003
1.048513e+003, 1.045755e+003
1.048995e+003, 1.046416e+003
1.049478e+003, 1.048123e+003
1.049960e+003, 1.048840e+003
1.050442e+003, 1.047207e+003
1.050924e+003, 1.045799e+003
1.051406e+003, 1.044595e+003
1.051888e+003, 1.043723e+003
1.052370e+003, 1.043361e+003
1.052852e+003, 1.043415e+003
1.053334e+003, 1.043714e+003
1.053817e+003, 1.044195e+003
1.054299e+003, 1.044349e+003
1.054781e+003, 1.043828e+003
1.055263e+003, 1.042984e+003
1.055745e+003, 1.041776e+003
1.056227e+003, 1.040420e+003
1.056709e+003, 1.039231e+003
1.057191e+003, 1.038163e+003
1.057673e+003, 1.038294e+003
1.058156e+003, 1.040129e+003
1.058638e+003, 1.041973e+003
1.059120e+003, 1.041917e+003
1.059602e+003, 1.041019e+003
1.060084e+003, 1.040358e+003
1.060566e+003, 1.040093e+003
1.061048e+003, 1.040135e+003
1.061530e+003, 1.040719e+003
1.062013e+003, 1.041000e+003
1.062495e+003, 1.040433e+003
1.062977e+003, 1.039409e+003
1.063459e+003, 1.038638e+003
1.063941e+003, 1.038222e+003
1.064423e+003, 1.038453e+003
1.064905e+003, 1.040372e+003
1.065387e+003, 1.041652e+003
1.065870e+003, 1.040814e+003
1.066352e+003, 1.039610e+003
1.066834e+003, 1.039878e+003
1.067316e+003, 1.041638e+003
1.067798e+003, 1.041698e+003
1.068280e+003, 1.039950e+003
1.068762e+003, 1.038422e+003
1.069244e+003, 1.039053e+003
1.069726e+003, 1.040101e+003
1.070208e+003, 1.039896e+003
1.070691e+003, 1.038841e+003
1.071173e+003, 1.038965e+003
1.071655e+003, 1.040793e+003
1.072137e+003, 1.042304e+003
1.072619e+003, 1.043188e+003
1.073101e+003, 1.043492e+003
1.073583e+003, 1.042557e+003
1.074065e+003, 1.041375e+003
1.074548e+003, 1.042126e+003
1.075030e+003, 1.045583e+003
1.075512e+003, 1.046960e+003
1.075994e+003, 1.042724e+003
1.076476e+003, 1.039158e+003
1.076958e+003, 1.039146e+003
1.077440e+003, 1.041596e+003
1.077922e+003, 1.042486e+003
1.078405e+003, 1.042107e+003
1.078887e+003, 1.041875e+003
1.079369e+003, 1.042580e+003
1.079851e+003, 1.043160e+003
1.080333e+003, 1.042881e+003
1.080815e+003, 1.042259e+003
1.081297e+003, 1.041824e+003
1.081779e+003, 1.041538e+003
1.082261e+003, 1.041961e+003
1.082744e+003, 1.043209e+003
1.083226e+003, 1.043710e+003
1.083708e+003, 1.041293e+003
1.084190e+003, 1.038354e+003
1.084672e+003, 1.037530e+003
1.085154e+003, 1.038343e+003
1.085636e+003, 1.039017e+003
1.086118e+003, 1.039095e+003
1.086601e+003, 1.039509e+003
1.087083e+003, 1.040562e+003
1.087565e+003, 1.041517e+003
1.088047e+003, 1.041136e+003
1.088529e+003, 1.040045e+003
1.089011e+003, 1.039632e+003
1.089493e+003, 1.040049e+003
1.089975e+003, 1.040343e+003
1.090458e+003, 1.039931e+003
1.090940e+003, 1.039546e+003
1.091422e+003, 1.039545e+003
1.091904e+003, 1.039712e+003
1.092386e+003, 1.039324e+003
1.092868e+003, 1.038459e+003
1.093350e+003, 1.037510e+003
1.093832e+003, 1.036350e+003
1.094314e+003, 1.035918e+003
1.094797e+003, 1.038072e+003
1.095279e+003, 1.040401e+003
1.095761e+003, 1.040384e+003
1.096243e+003, 1.037815e+003
1.096725e+003, 1.036426e+003
1.097207e+003, 1.036308e+003
1.097689e+003, 1.036437e+003
1.098171e+003, 1.036130e+003
1.098653e+003, 1.035907e+003
1.099136e+003, 1.036788e+003
1.099618e+003, 1.038103e+003
1.100100e+003, 1.038534e+003
1.100582e+003, 1.037550e+003
1.101064e+003, 1.035946e+003
1.101546e+003, 1.033294e+003
1.102028e+003, 1.031125e+003
1.102510e+003, 1.031477e+003
1.102993e+003, 1.033092e+003
1.103475e+003, 1.033008e+003
1.103957e+003, 1.031426e+003
1.104439e+003, 1.030360e+003
1.104921e+003, 1.031406e+003
1.105403e+003, 1.032084e+003
1.105885e+003, 1.031561e+003
1.106367e+003, 1.030601e+003
1.106849e+003, 1.030835e+003
1.107332e+003, 1.031928e+003
1.107814e+003, 1.031683e+003
1.108296e+003, 1.029628e+003
1.108778e+003, 1.028352e+003
1.109260e+003, 1.030840e+003
1.109742e+003, 1.033406e+003
1.110224e+003, 1.033516e+003
1.110706e+003, 1.031622e+003
1.111188e+003, 1.029969e+003
1.111671e+003, 1.028527e+003
1.112153e+003, 1.027673e+003
1.112635e+003, 1.027650e+003
1.113117e+003, 1.027879e+003
1.113599e+003, 1.028146e+003
1.114081e+003, 1.028132e+003
1.114563e+003, 1.027240e+003
1.115045e+003, 1.025033e+003
1.115528e+003, 1.024131e+003
1.116010e+003, 1.024844e+003
1.116492e+003, 1.025537e+003
1.116974e+003, 1.025206e+003
1.117456e+003, 1.024392e+003
1.117938e+003, 1.024083e+003
1.118420e+003, 1.023960e+003
1.118902e+003, 1.023331e+003
1.119385e+003, 1.020865e+003
1.119867e+003, 1.019776e+003
1.120349e+003, 1.020784e+003
1.120831e+003, 1.022060e+003
1.121313e+003, 1.021729e+003
1.121795e+003, 1.020380e+003
1.122277e+003, 1.019664e+003
1.122759e+003, 1.019576e+003
1.123241e+003, 1.019754e+003
1.123724e+003, 1.020573e+003
1.124206e+003, 1.020877e+003
1.124688e+003, 1.019963e+003
1.125170e+003, 1.018738e+003
1.125652e+003, 1.018878e+003
1.126134e+003, 1.020110e+003
1.126616e+003, 1.020524e+003
1.127098e+003, 1.019879e+003
1.127580e+003, 1.018856e+003
1.128063e+003, 1.017442e+003
1.128545e+003, 1.016255e+003
1.129027e+003, 1.015916e+003
1.129509e+003, 1.016129e+003
1.129991e+003, 1.015683e+003
1.130473e+003, 1.014554e+003
1.130955e+003, 1.014519e+003
1.131437e+003, 1.016308e+003
1.131920e+003, 1.018237e+003
1.132402e+003, 1.018807e+003
1.132884e+003, 1.018684e+003
1.133366e+003, 1.018375e+003
1.133848e+003, 1.017906e+003
1.134330e+003, 1.017832e+003
1.134812e+003, 1.018122e+003
1.135294e+003, 1.019065e+003
1.135776e+003, 1.021317e+003
1.136259e+003, 1.023405e+003
1.136741e+003, 1.022800e+003
1.137223e+003, 1.020891e+003
1.137705e+003, 1.019882e+003
1.138187e+003, 1.020883e+003
1.138669e+003, 1.021337e+003
1.139151e+003, 1.021050e+003
1.139633e+003, 1.020638e+003
1.140115e+003, 1.020487e+003
1.140598e+003, 1.020513e+003
1.141080e+003, 1.020606e+003
1.141562e+003, 1.020728e+003
1.142044e+003, 1.020778e+003
1.142526e+003, 1.020607e+003
1.143008e+003, 1.020576e+003
1.143490e+003, 1.020904e+003
1.143972e+003, 1.021124e+003
1.144455e+003, 1.020609e+003
1.144937e+003, 1.019631e+003
1.145419e+003, 1.019119e+003
1.145901e+003, 1.019057e+003
1.146383e+003, 1.018950e+003
1.146865e+003, 1.018320e+003
1.147347e+003, 1.017927e+003
1.147829e+003, 1.018103e+003
1.148312e+003, 1.018514e+003
1.148794e+003, 1.018426e+003
1.149276e+003, 1.018018e+003
1.149758e+003, 1.018820e+003
1.150240e+003, 1.021028e+003
1.150722e+003, 1.022735e+003
1.151204e+003, 1.022315e+003
1.151686e+003, 1.021424e+003
1.152168e+003, 1.020689e+003
1.152651e+003, 1.020270e+003
1.153133e+003, 1.021107e+003
1.153615e+003, 1.023088e+003
1.154097e+003, 1.023130e+003
1.154579e+003, 1.020031e+003
1.155061e+003, 1.017577e+003
1.155543e+003, 1.020159e+003
1.156025e+003, 1.023663e+003
1.156507e+003, 1.024141e+003
1.156990e+003, 1.021960e+003
1.157472e+003, 1.021523e+003
1.157954e+003, 1.022966e+003
1.158436e+003, 1.024094e+003
1.158918e+003, 1.024082e+003
1.159400e+003, 1.023660e+003
1.159882e+003, 1.023157e+003
1.160364e+003, 1.022892e+003
1.160847e+003, 1.023515e+003
1.161329e+003, 1.025408e+003
1.161811e+003, 1.025490e+003
1.162293e+003, 1.023392e+003
1.162775e+003, 1.021777e+003
1.163257e+003, 1.022220e+003
1.163739e+003, 1.023598e+003
1.164221e+003, 1.024971e+003
1.164703e+003, 1.026120e+003
1.165186e+003, 1.026626e+003
1.165668e+003, 1.026017e+003
1.166150e+003, 1.025672e+003
1.166632e+003, 1.025653e+003
1.167114e+003, 1.025658e+003
1.167596e+003, 1.025270e+003
1.168078e+003, 1.024893e+003
1.168560e+003, 1.025204e+003
1.169042e+003, 1.026079e+003
1.169525e+003, 1.027194e+003
1.170007e+003, 1.029572e+003
1.170489e+003, 1.030110e+003
1.170971e+003, 1.028033e+003
1.171453e+003, 1.025709e+003
1.171935e+003, 1.025672e+003
1.172417e+003, 1.026881e+003
1.172899e+003, 1.027259e+003
1.173382e+003, 1.026926e+003
1.173864e+003, 1.026874e+003
1.174346e+003, 1.027909e+003
1.174828e+003, 1.028532e+003
1.175310e+003, 1.028388e+003
1.175792e+003, 1.028049e+003
1.176274e+003, 1.028354e+003
1.176756e+003, 1.029003e+003
1.177239e+003, 1.029262e+003
1.177721e+003, 1.029087e+003
1.178203e+003, 1.028922e+003
1.178685e+003, 1.028897e+003
1.179167e+003, 1.028973e+003
1.179649e+003, 1.029251e+003
1.180131e+003, 1.029462e+003
1.180613e+003, 1.028573e+003
1.181095e+003, 1.027272e+003
1.181578e+003, 1.028053e+003
1.182060e+003, 1.031420e+003
1.182542e+003, 1.033849e+003
1.183024e+003, 1.032743e+003
1.183506e+003, 1.031662e+003
1.183988e+003, 1.031945e+003
1.184470e+003, 1.033048e+003
1.184952e+003, 1.033585e+003
1.185434e+003, 1.033734e+003
1.185917e+003, 1.034240e+003
1.186399e+003, 1.035433e+003
1.186881e+003, 1.036130e+003
1.187363e+003, 1.034980e+003
1.187845e+003, 1.034058e+003
1.188327e+003, 1.034482e+003
1.188809e+003, 1.035847e+003
1.189291e+003, 1.036863e+003
1.189774e+003, 1.037475e+003
1.190256e+003, 1.037302e+003
1.190738e+003, 1.035675e+003
1.191220e+003, 1.034820e+003
1.191702e+003, 1.036810e+003
1.192184e+003, 1.038964e+003
1.192666e+003, 1.039426e+003
1.193148e+003, 1.038545e+003
1.193630e+003, 1.038953e+003
1.194113e+003, 1.040335e+003
1.194595e+003, 1.040744e+003
1.195077e+003, 1.038570e+003
1.195559e+003, 1.036780e+003
1.196041e+003, 1.037276e+003
1.196523e+003, 1.038451e+003
1.197005e+003, 1.039131e+003
1.197487e+003, 1.039340e+003
1.197969e+003, 1.039266e+003
1.198452e+003, 1.038984e+003
1.198934e+003, 1.039062e+003
1.199416e+003, 1.040523e+003
1.199898e+003, 1.041482e+003
1.200380e+003, 1.040495e+003
1.200862e+003, 1.038951e+003
1.201344e+003, 1.038051e+003
1.201826e+003, 1.037789e+003
1.202309e+003, 1.038779e+003
1.202791e+003, 1.040887e+003
1.203273e+003, 1.042543e+003
1.203755e+003, 1.043017e+003
1.204237e+003, 1.042603e+003
1.204719e+003, 1.040251e+003
1.205201e+003, 1.037854e+003
1.205683e+003, 1.038048e+003
1.206166e+003, 1.040766e+003
1.206648e+003, 1.042257e+003
1.207130e+003, 1.042402e+003
1.207612e+003, 1.042044e+003
1.208094e+003, 1.040949e+003
1.208576e+003, 1.040328e+003
1.209058e+003, 1.041552e+003
1.209540e+003, 1.043262e+003
1.210022e+003, 1.043313e+003
1.210505e+003, 1.041794e+003
1.210987e+003, 1.041361e+003
1.211469e+003, 1.042188e+003
1.211951e+003, 1.043236e+003
1.212433e+003, 1.044633e+003
1.212915e+003, 1.045194e+003
1.213397e+003, 1.043205e+003
1.213879e+003, 1.040510e+003
1.214361e+003, 1.040605e+003
1.214844e+003, 1.043257e+003
1.215326e+003, 1.044817e+003
1.215808e+003, 1.044869e+003
1.216290e+003, 1.044196e+003
1.216772e+003, 1.041904e+003
1.217254e+003, 1.040592e+003
1.217736e+003, 1.042574e+003
1.218218e+003, 1.046010e+003
1.218701e+003, 1.046999e+003
1.219183e+003, 1.045743e+003
1.219665e+003, 1.044612e+003
1.220147e+003, 1.043937e+003
1.220629e+003, 1.043877e+003
1.221111e+003, 1.045086e+003
1.221593e+003, 1.046339e+003
1.222075e+003, 1.046767e+003
1.222557e+003, 1.046864e+003
1.223040e+003, 1.048375e+003
1.223522e+003, 1.050970e+003
1.224004e+003, 1.051696e+003
1.224486e+003, 1.049846e+003
1.224968e+003, 1.048242e+003
1.225450e+003, 1.049278e+003
1.225932e+003, 1.050310e+003
1.226414e+003, 1.049799e+003
1.226896e+003, 1.048389e+003
1.227379e+003, 1.048261e+003
1.227861e+003, 1.049093e+003
1.228343e+003, 1.048865e+003
1.228825e+003, 1.046882e+003
1.229307e+003, 1.045530e+003
1.229789e+003, 1.046487e+003
1.230271e+003, 1.048108e+003
1.230753e+003, 1.049818e+003
1.231236e+003, 1.051358e+003
1.231718e+003, 1.051656e+003
1.232200e+003, 1.050975e+003
1.232682e+003, 1.050396e+003
1.233164e+003, 1.050266e+003
1.233646e+003, 1.049870e+003
1.234128e+003, 1.048036e+003
1.234610e+003, 1.046860e+003
1.235093e+003, 1.047604e+003
1.235575e+003, 1.049543e+003
1.236057e+003, 1.050508e+003
1.236539e+003, 1.050656e+003
1.237021e+003, 1.050325e+003
1.237503e+003, 1.049359e+003
1.237985e+003, 1.048916e+003
1.238467e+003, 1.049899e+003
1.238949e+003, 1.050955e+003
1.239432e+003, 1.051584e+003
1.239914e+003, 1.051797e+003
1.240396e+003, 1.051117e+003
1.240878e+003, 1.050083e+003
1.241360e+003, 1.050428e+003
1.241842e+003, 1.053396e+003
1.242324e+003, 1.055304e+003
1.242806e+003, 1.055040e+003
1.243288e+003, 1.054079e+003
1.243771e+003, 1.052776e+003
1.244253e+003, 1.051580e+003
1.244735e+003, 1.051777e+003
1.245217e+003, 1.052960e+003
1.245699e+003, 1.054200e+003
1.246181e+003, 1.055346e+003
1.246663e+003, 1.056246e+003
1.247145e+003, 1.056988e+003
1.247628e+003, 1.057308e+003
1.248110e+003, 1.056798e+003
1.248592e+003, 1.056038e+003
1.249074e+003, 1.056503e+003
1.249556e+003, 1.057585e+003
1.250038e+003, 1.058089e+003
1.250520e+003, 1.057406e+003
1.251002e+003, 1.056829e+003
1.251484e+003, 1.056358e+003
1.251967e+003, 1.056159e+003
1.252449e+003, 1.056308e+003
1.252931e+003, 1.056804e+003
1.253413e+003, 1.057872e+003
1.253895e+003, 1.059212e+003
1.254377e+003, 1.060370e+003
1.254859e+003, 1.061644e+003
1.255341e+003, 1.061104e+003
1.255823e+003, 1.058164e+003
1.256306e+003, 1.056197e+003
1.256788e+003, 1.057972e+003
1.257270e+003, 1.060839e+003
1.257752e+003, 1.061925e+003
1.258234e+003, 1.061777e+003
1.258716e+003, 1.061160e+003
1.259198e+003, 1.060075e+003
1.259680e+003, 1.058935e+003
1.260163e+003, 1.057687e+003
1.260645e+003, 1.057046e+003
1.261127e+003, 1.058040e+003
1.261609e+003, 1.059046e+003
1.262091e+003, 1.057904e+003
1.262573e+003, 1.056249e+003
1.263055e+003, 1.056564e+003
1.263537e+003, 1.059343e+003
1.264020e+003, 1.060216e+003
1.264502e+003, 1.059210e+003
1.264984e+003, 1.058596e+003
1.265466e+003, 1.059979e+003
1.265948e+003, 1.061781e+003
1.266430e+003, 1.063558e+003
1.266912e+003, 1.064740e+003
1.267394e+003, 1.064594e+003
1.267876e+003, 1.063096e+003
1.268359e+003, 1.061985e+003
1.268841e+003, 1.061259e+003
1.269323e+003, 1.060911e+003
1.269805e+003, 1.061029e+003
1.270287e+003, 1.061419e+003
1.270769e+003, 1.062563e+003
1.271251e+003, 1.063458e+003
1.271733e+003, 1.063001e+003
1.272215e+003, 1.061470e+003
1.272698e+003, 1.061513e+003
1.273180e+003, 1.062725e+003
1.273662e+003, 1.063197e+003
1.274144e+003, 1.060996e+003
1.274626e+003, 1.059501e+003
1.275108e+003, 1.059477e+003
1.275590e+003, 1.060188e+003
1.276072e+003, 1.061654e+003
1.276555e+003, 1.063281e+003
1.277037e+003, 1.062291e+003
1.277519e+003, 1.059677e+003
1.278001e+003, 1.058368e+003
1.278483e+003, 1.061036e+003
1.278965e+003, 1.062529e+003
1.279447e+003, 1.062167e+003
1.279929e+003, 1.061475e+003
1.280411e+003, 1.061539e+003
1.280894e+003, 1.062098e+003
1.281376e+003, 1.062877e+003
1.281858e+003, 1.063736e+003
1.282340e+003, 1.064367e+003
1.282822e+003, 1.064494e+003
1.283304e+003, 1.064843e+003
1.283786e+003, 1.065409e+003
1.284268e+003, 1.066263e+003
1.284750e+003, 1.068065e+003
1.285233e+003, 1.069663e+003
1.285715e+003, 1.069493e+003
1.286197e+003, 1.068242e+003
1.286679e+003, 1.066933e+003
1.287161e+003, 1.065268e+003
1.287643e+003, 1.065511e+003
1.288125e+003, 1.067738e+003
1.288607e+003, 1.069657e+003
1.289090e+003, 1.070025e+003
1.289572e+003, 1.069307e+003
1.290054e+003, 1.066154e+003
1.290536e+003, 1.063198e+003
1.291018e+003, 1.064020e+003
1.291500e+003, 1.068831e+003
1.291982e+003, 1.071047e+003
1.292464e+003, 1.070852e+003
1.292947e+003, 1.070047e+003
1.293429e+003, 1.069520e+003
1.293911e+003, 1.068668e+003
1.294393e+003, 1.066661e+003
1.294875e+003, 1.064815e+003
1.295357e+003, 1.064035e+003
1.295839e+003, 1.064260e+003
1.296321e+003, 1.065743e+003
1.296803e+003, 1.068085e+003
1.297286e+003, 1.069740e+003
1.297768e+003, 1.070116e+003
1.298250e+003, 1.069535e+003
1.298732e+003, 1.067407e+003
1.299214e+003, 1.065812e+003
1.299696e+003, 1.066449e+003
1.300178e+003, 1.068351e+003
1.300660e+003, 1.070113e+003
##END=



