##NAMES=Teineite
##RRUFFID=R100206
##IDEAL CHEMISTRY=Cu^2+^Te^4+^O_3_&#183;2H_2_O
##LOCALITY=Cole shaft, Bisbee, Cochise County, Arizona, USA
##OWNER=RRUFF
##SOURCE=Rob Lavinsky/Evan Jones
##DESCRIPTION=Blue prismatic, associated with graemite, R100207, and cuprite
##STATUS=The identification of this mineral has been confirmed by single-crystal X-ray diffraction.
##URL=rruff.info/R100206
176.9043, 19.21317
177.3864, 21.10206
177.8685, 24.06709
178.3506, 25.68116
178.8328, 25.68139
179.3149, 25.23215
179.7970, 24.30991
180.2791, 23.33265
180.7612, 22.64422
181.2433, 22.35631
181.7255, 22.44577
182.2076, 22.99973
182.6897, 24.67588
183.1718, 25.54708
183.6539, 24.89973
184.1360, 23.53421
184.6181, 22.18283
185.1003, 21.18294
185.5824, 20.52133
186.0645, 20.18608
186.5466, 20.82033
187.0287, 20.97794
187.5108, 20.09644
187.9930, 18.74260
188.4751, 17.55083
188.9572, 16.86326
189.4393, 16.68993
189.9214, 17.14443
190.4035, 19.15285
190.8857, 20.75843
191.3678, 21.45581
191.8499, 21.50892
192.3320, 21.31283
192.8141, 21.03599
193.2962, 20.76178
193.7784, 21.19995
194.2605, 24.04772
194.7426, 25.68046
195.2247, 23.72092
195.7068, 19.32744
196.1889, 15.89678
196.6711, 15.69531
197.1532, 18.10245
197.6353, 19.46890
198.1174, 19.05859
198.5995, 18.40774
199.0816, 18.52695
199.5638, 19.27048
200.0459, 19.55588
200.5280, 18.27778
201.0101, 16.24378
201.4922, 15.77423
201.9743, 18.08354
202.4565, 20.83205
202.9386, 22.06040
203.4207, 21.74407
203.9028, 20.95191
204.3849, 20.02615
204.8670, 19.03389
205.3492, 18.00802
205.8313, 16.71264
206.3134, 15.70148
206.7955, 15.96869
207.2776, 17.87630
207.7597, 19.37275
208.2419, 18.94289
208.7240, 17.83515
209.2061, 17.18448
209.6882, 17.35408
210.1703, 18.12763
210.6524, 19.24277
211.1346, 20.88648
211.6167, 22.36682
212.0988, 23.57990
212.5809, 24.49517
213.0630, 25.03736
213.5451, 25.15155
214.0273, 24.96264
214.5094, 24.64572
214.9915, 23.73211
215.4736, 23.61883
215.9557, 25.10162
216.4378, 27.13440
216.9200, 28.70381
217.4021, 29.34897
217.8842, 29.33831
218.3663, 29.42131
218.8484, 29.90298
219.3305, 30.00512
219.8127, 29.36318
220.2948, 28.44243
220.7769, 27.75388
221.2590, 27.53045
221.7411, 27.59118
222.2232, 27.39280
222.7054, 26.29971
223.1875, 25.72952
223.6696, 26.25135
224.1517, 27.16384
224.6338, 27.67592
225.1159, 27.43752
225.5980, 26.62673
226.0802, 25.74654
226.5623, 24.07497
227.0444, 23.22116
227.5265, 24.13125
228.0086, 25.69300
228.4907, 26.48019
228.9729, 25.88671
229.4550, 24.29374
229.9371, 22.58225
230.4192, 19.72545
230.9013, 18.30554
231.3834, 20.04487
231.8656, 23.17944
232.3477, 25.05019
232.8298, 24.57735
233.3119, 22.66921
233.7940, 21.13597
234.2761, 19.87681
234.7583, 19.08352
235.2404, 19.20279
235.7225, 19.76341
236.2046, 19.83483
236.6867, 18.97824
237.1688, 17.86308
237.6510, 17.79947
238.1331, 18.92820
238.6152, 19.89175
239.0973, 20.21426
239.5794, 20.05384
240.0615, 19.64843
240.5437, 18.91152
241.0258, 18.26205
241.5079, 18.53186
241.9900, 19.74188
242.4721, 20.36945
242.9542, 19.05518
243.4364, 16.66229
243.9185, 15.48584
244.4006, 16.24574
244.8827, 17.83941
245.3648, 19.55616
245.8469, 21.32190
246.3290, 22.21130
246.8112, 21.00354
247.2933, 18.49924
247.7754, 17.34592
248.2575, 18.70136
248.7396, 20.03870
249.2217, 18.59289
249.7039, 15.27589
250.1860, 13.28663
250.6681, 15.77069
251.1502, 21.20474
251.6323, 23.68928
252.1144, 21.47148
252.5966, 18.64470
253.0787, 17.66335
253.5608, 17.98113
254.0429, 18.36562
254.5250, 17.92139
255.0071, 16.99178
255.4893, 17.06018
255.9714, 18.96637
256.4535, 20.51659
256.9356, 20.79077
257.4177, 20.11880
257.8998, 18.91568
258.3820, 17.06064
258.8641, 14.99919
259.3462, 14.56984
259.8283, 17.42776
260.3104, 19.14740
260.7925, 17.15051
261.2747, 13.66543
261.7568, 11.72252
262.2389, 13.00077
262.7210, 16.40228
263.2031, 18.80720
263.6852, 20.00817
264.1674, 20.43057
264.6495, 19.59786
265.1316, 18.41580
265.6137, 17.99848
266.0958, 18.87256
266.5779, 20.31872
267.0601, 20.47505
267.5422, 18.06401
268.0243, 16.68722
268.5064, 17.33420
268.9885, 18.81365
269.4706, 20.27592
269.9528, 21.39181
270.4349, 22.02777
270.9170, 21.83200
271.3991, 20.22293
271.8812, 18.90832
272.3633, 17.84779
272.8455, 17.16816
273.3276, 17.16858
273.8097, 17.83786
274.2918, 18.66668
274.7739, 18.72528
275.2560, 16.99059
275.7382, 16.75166
276.2202, 19.51231
276.7024, 22.32853
277.1845, 23.43999
277.6666, 22.57392
278.1487, 20.41962
278.6308, 17.50771
279.1129, 12.95537
279.5951, 10.87618
280.0772, 12.81027
280.5593, 15.40084
281.0414, 17.24199
281.5235, 18.10849
282.0056, 18.21649
282.4878, 17.64382
282.9699, 16.17659
283.4520, 15.60692
283.9341, 16.83742
284.4162, 17.95281
284.8983, 18.20113
285.3805, 17.67005
285.8626, 16.67135
286.3447, 15.29837
286.8268, 13.58472
287.3089, 13.46347
287.7910, 16.97757
288.2732, 19.76339
288.7553, 20.10884
289.2374, 18.83073
289.7195, 17.55059
290.2016, 17.23851
290.6837, 17.73091
291.1659, 18.13366
291.6480, 18.75407
292.1301, 18.92502
292.6122, 17.90045
293.0943, 16.51725
293.5764, 16.16045
294.0586, 17.50464
294.5407, 19.70786
295.0228, 20.48966
295.5049, 18.07135
295.9870, 16.34814
296.4691, 15.82648
296.9513, 15.90517
297.4334, 16.07832
297.9155, 16.16156
298.3976, 16.00395
298.8797, 15.22329
299.3618, 12.28234
299.8440, 11.89357
300.3261, 17.13895
300.8082, 22.95866
301.2903, 24.81001
301.7724, 22.04461
302.2545, 17.73927
302.7367, 15.36295
303.2188, 15.30495
303.7009, 16.21546
304.1830, 20.21064
304.6651, 23.39582
305.1472, 21.98612
305.6294, 16.75464
306.1115, 12.55130
306.5936, 13.95025
307.0757, 21.42231
307.5578, 25.22705
308.0399, 23.52617
308.5221, 20.72826
309.0042, 17.87597
309.4863, 15.41095
309.9684, 14.22213
310.4505, 15.06879
310.9326, 17.53093
311.4148, 18.61659
311.8969, 16.65678
312.3790, 15.47052
312.8611, 16.49470
313.3432, 18.79189
313.8253, 21.02607
314.3075, 22.63812
314.7896, 23.49190
315.2717, 23.16810
315.7538, 20.60583
316.2359, 18.38714
316.7180, 16.39894
317.2001, 14.98756
317.6823, 14.72957
318.1644, 15.76053
318.6465, 17.43336
319.1286, 18.91469
319.6107, 20.69356
320.0928, 20.75948
320.5750, 16.79178
321.0571, 12.75319
321.5392, 12.03701
322.0213, 14.81054
322.5034, 18.62581
322.9855, 21.10763
323.4677, 22.09619
323.9498, 22.75331
324.4319, 23.66439
324.9140, 23.77889
325.3961, 22.00876
325.8782, 18.88305
326.3604, 15.87052
326.8425, 13.90788
327.3246, 13.00532
327.8067, 13.33014
328.2888, 16.67513
328.7709, 19.04368
329.2531, 18.48845
329.7352, 16.44358
330.2173, 15.26709
330.6994, 16.08914
331.1815, 18.31732
331.6636, 20.37551
332.1458, 22.89080
332.6279, 24.39103
333.1100, 24.44091
333.5921, 23.64425
334.0742, 22.25238
334.5563, 20.44021
335.0385, 18.88086
335.5206, 18.72600
336.0027, 21.23488
336.4848, 21.78530
336.9669, 18.52204
337.4490, 14.97807
337.9312, 13.20548
338.4133, 13.41180
338.8954, 15.02271
339.3775, 17.74365
339.8596, 21.80602
340.3417, 24.08335
340.8239, 24.09276
341.3060, 23.10746
341.7881, 20.84334
342.2702, 17.94636
342.7523, 15.52816
343.2344, 14.27910
343.7166, 14.05738
344.1987, 14.19521
344.6808, 15.31526
345.1629, 16.09216
345.6450, 15.95056
346.1271, 15.58785
346.6093, 15.96443
347.0914, 17.39095
347.5735, 19.14449
348.0556, 19.84214
348.5377, 19.10442
349.0198, 17.88459
349.5020, 15.14977
349.9841, 12.75774
350.4662, 12.27249
350.9483, 13.67244
351.4304, 15.64699
351.9125, 16.86714
352.3947, 17.30888
352.8768, 17.12852
353.3589, 15.83888
353.8410, 14.42062
354.3231, 12.95206
354.8052, 11.62686
355.2874, 10.66908
355.7695, 10.18326
356.2516, 10.24889
356.7337, 11.48200
357.2158, 16.32529
357.6979, 18.88523
358.1800, 16.49391
358.6621, 12.12956
359.1443, 9.069658
359.6264, 8.557125
360.1085, 9.428973
360.5906, 9.445859
361.0727, 7.812411
361.5548, 7.448776
362.0370, 9.706319
362.5191, 12.42810
363.0012, 14.56514
363.4833, 15.90165
363.9654, 16.47339
364.4475, 16.19838
364.9297, 15.03517
365.4118, 13.69450
365.8939, 11.77889
366.3760, 10.13751
366.8581, 8.948247
367.3402, 8.284533
367.8224, 8.317816
368.3045, 9.343325
368.7866, 10.97336
369.2687, 12.05342
369.7508, 12.40639
370.2329, 12.57379
370.7151, 12.60724
371.1972, 12.62532
371.6793, 12.74221
372.1614, 12.99023
372.6435, 13.33902
373.1256, 13.90107
373.6078, 14.72553
374.0899, 15.03010
374.5720, 14.24728
375.0541, 13.22713
375.5362, 12.62998
376.0183, 12.43257
376.5005, 12.20607
376.9826, 11.34846
377.4647, 10.18816
377.9468, 10.13082
378.4289, 11.80768
378.9110, 13.36974
379.3932, 13.59324
379.8753, 12.83498
380.3574, 11.56778
380.8395, 9.177270
381.3216, 7.042863
381.8037, 7.311265
382.2859, 10.03775
382.7680, 12.40159
383.2501, 12.87249
383.7322, 12.46190
384.2143, 13.07036
384.6964, 15.21932
385.1786, 16.64468
385.6607, 15.30634
386.1428, 12.23052
386.6249, 10.21547
387.1070, 10.07585
387.5891, 10.66249
388.0713, 10.64769
388.5534, 10.09674
389.0355, 9.825365
389.5176, 10.10680
389.9997, 10.67490
390.4818, 11.35431
390.9640, 12.11684
391.4461, 12.83295
391.9282, 13.54147
392.4103, 14.09335
392.8924, 13.86523
393.3745, 12.00188
393.8567, 10.36328
394.3388, 9.668856
394.8209, 9.713717
395.3030, 10.16510
395.7851, 10.92539
396.2672, 11.91660
396.7494, 13.09710
397.2315, 14.89682
397.7136, 15.77101
398.1957, 15.01360
398.6778, 13.74040
399.1599, 12.48261
399.6420, 11.49757
400.1241, 11.54134
400.6063, 13.62525
401.0884, 17.89723
401.5705, 19.22376
402.0526, 14.54424
402.5347, 10.74367
403.0168, 10.32760
403.4990, 12.10048
403.9811, 14.27761
404.4632, 16.02148
404.9453, 17.06698
405.4274, 16.61169
405.9095, 13.01368
406.3917, 10.70200
406.8738, 10.55915
407.3559, 11.06450
407.8380, 11.11804
408.3201, 10.61364
408.8022, 10.17853
409.2844, 10.56042
409.7665, 11.85003
410.2486, 12.44345
410.7307, 11.33125
411.2128, 10.60758
411.6949, 11.16663
412.1771, 12.46173
412.6592, 13.71297
413.1413, 14.63021
413.6234, 14.97638
414.1055, 13.94638
414.5876, 10.82020
415.0698, 8.505597
415.5519, 8.331338
416.0340, 8.790140
416.5161, 8.985079
416.9982, 8.786599
417.4803, 8.431723
417.9625, 7.676963
418.4446, 6.747164
418.9267, 7.575362
419.4088, 11.71083
419.8909, 15.00249
420.3730, 13.65256
420.8552, 9.646551
421.3373, 7.031640
421.8194, 7.777211
422.3015, 9.851857
422.7836, 10.88995
423.2657, 10.90185
423.7479, 10.92658
424.2300, 11.46377
424.7121, 12.14229
425.1942, 12.32563
425.6763, 11.89384
426.1584, 11.59569
426.6406, 11.79257
427.1227, 12.31979
427.6048, 13.12544
428.0869, 14.26495
428.5690, 14.87041
429.0511, 13.87526
429.5333, 11.28405
430.0154, 9.638347
430.4975, 9.499341
430.9796, 9.785755
431.4617, 10.25203
431.9438, 10.67614
432.4260, 10.45954
432.9081, 9.248422
433.3902, 7.518341
433.8723, 6.361998
434.3544, 5.493648
434.8365, 5.783027
435.3187, 8.801114
435.8008, 11.96584
436.2829, 12.75292
436.7650, 11.15325
437.2471, 9.298900
437.7292, 9.326181
438.2114, 11.32254
438.6935, 11.69032
439.1756, 8.622400
439.6577, 5.910950
440.1398, 3.884018
440.6219, 2.894464
441.1040, 3.818727
441.5862, 7.005652
442.0683, 10.85465
442.5504, 12.21849
443.0325, 10.11541
443.5146, 8.550277
443.9967, 7.934182
444.4789, 7.883172
444.9610, 8.609639
445.4431, 9.834438
445.9252, 10.72421
446.4073, 10.48699
446.8894, 9.463014
447.3716, 9.026542
447.8537, 9.443606
448.3358, 9.784641
448.8179, 9.220317
449.3000, 8.546026
449.7821, 8.898841
450.2643, 10.79307
450.7464, 12.37460
451.2285, 11.51468
451.7106, 8.768447
452.1927, 7.006943
452.6748, 7.015132
453.1570, 7.688726
453.6391, 8.044843
454.1212, 8.144061
454.6033, 8.214105
455.0854, 8.400141
455.5675, 8.509562
456.0497, 8.223561
456.5318, 7.632498
457.0139, 7.282029
457.4960, 7.474179
457.9781, 8.055754
458.4602, 8.614215
458.9424, 9.008069
459.4245, 9.663317
459.9066, 10.77174
460.3887, 12.11000
460.8708, 13.81472
461.3529, 15.73120
461.8351, 16.82969
462.3172, 15.92049
462.7993, 12.89947
463.2814, 11.33082
463.7635, 12.52328
464.2456, 13.55723
464.7278, 13.57836
465.2099, 13.04607
465.6920, 12.77008
466.1741, 13.04425
466.6562, 13.27550
467.1383, 12.21449
467.6205, 9.006277
468.1026, 7.156003
468.5847, 7.804717
469.0668, 8.926560
469.5489, 9.689209
470.0310, 10.17571
470.5132, 10.85468
470.9953, 12.13187
471.4774, 13.68172
471.9595, 14.75602
472.4416, 15.42087
472.9237, 15.34782
473.4059, 13.48847
473.8880, 11.38986
474.3701, 10.67301
474.8522, 11.56793
475.3343, 12.37593
475.8164, 11.40535
476.2986, 9.589801
476.7807, 9.658864
477.2628, 12.31241
477.7449, 14.64123
478.2270, 13.86374
478.7091, 10.87470
479.1913, 9.571836
479.6734, 11.46116
480.1555, 13.61193
480.6376, 14.71915
481.1197, 14.97466
481.6018, 14.59326
482.0839, 13.59611
482.5660, 12.57208
483.0482, 12.39290
483.5303, 13.40259
484.0124, 14.04276
484.4945, 13.86854
484.9766, 13.76397
485.4587, 14.56456
485.9409, 15.82153
486.4230, 16.34596
486.9051, 15.43019
487.3872, 13.61335
487.8693, 12.44389
488.3514, 12.07152
488.8336, 12.09927
489.3157, 12.33512
489.7978, 13.01434
490.2799, 14.86739
490.7620, 17.51021
491.2441, 19.31680
491.7263, 18.44168
492.2084, 15.67720
492.6905, 15.03198
493.1726, 17.29257
493.6547, 19.78340
494.1368, 22.38813
494.6190, 24.17947
495.1011, 23.46090
495.5832, 19.54562
496.0653, 16.27367
496.5474, 17.67850
497.0295, 22.08192
497.5117, 24.04816
497.9938, 22.30220
498.4759, 20.17183
498.9580, 20.82723
499.4401, 23.56392
499.9222, 24.53041
500.4044, 21.84542
500.8865, 19.04882
501.3686, 18.05052
501.8507, 18.24276
502.3328, 18.31558
502.8149, 17.81807
503.2971, 17.25199
503.7792, 17.35904
504.2613, 18.40148
504.7434, 19.20384
505.2255, 20.21954
505.7076, 20.58443
506.1898, 19.18820
506.6719, 16.90017
507.1540, 15.57003
507.6361, 16.20669
508.1182, 17.90229
508.6003, 18.54457
509.0825, 17.79117
509.5646, 16.89972
510.0467, 15.36665
510.5288, 14.26048
511.0109, 14.46484
511.4930, 15.69747
511.9752, 16.85146
512.4573, 17.21834
512.9394, 17.05843
513.4215, 17.03149
513.9036, 17.21421
514.3857, 16.99550
514.8679, 15.64738
515.3500, 14.14988
515.8321, 13.92849
516.3142, 15.18151
516.7963, 16.12736
517.2784, 15.72839
517.7606, 14.70052
518.2427, 13.96339
518.7248, 13.60838
519.2069, 13.54694
519.6890, 13.84706
520.1711, 14.34839
520.6533, 14.21719
521.1354, 12.45271
521.6175, 11.48101
522.0996, 12.38758
522.5817, 13.87768
523.0638, 14.78835
523.5460, 14.86339
524.0281, 14.25914
524.5102, 12.97110
524.9923, 11.04461
525.4744, 10.03400
525.9565, 10.44577
526.4387, 11.19298
526.9208, 12.46695
527.4029, 13.73491
527.8850, 14.50627
528.3671, 14.64685
528.8492, 14.22457
529.3314, 13.21110
529.8135, 11.64758
530.2956, 9.614297
530.7777, 6.273013
531.2598, 4.235970
531.7419, 6.468710
532.2241, 10.79629
532.7062, 13.79362
533.1883, 14.54717
533.6704, 14.47324
534.1525, 14.44080
534.6346, 14.31762
535.1168, 13.52794
535.5989, 11.84953
536.0810, 10.55394
536.5631, 11.23450
537.0452, 14.01510
537.5273, 15.08165
538.0095, 13.03206
538.4916, 11.00232
538.9737, 9.862921
539.4558, 9.563319
539.9379, 10.24839
540.4200, 11.86954
540.9022, 13.53599
541.3843, 13.92346
541.8664, 12.76351
542.3485, 11.83911
542.8306, 11.20063
543.3127, 10.77104
543.7948, 10.42193
544.2769, 10.30013
544.7590, 10.77301
545.2411, 12.05994
545.7233, 13.36564
546.2054, 13.39581
546.6875, 12.28026
547.1696, 12.09108
547.6517, 13.62001
548.1339, 15.21381
548.6160, 15.20020
549.0981, 14.10792
549.5802, 13.39320
550.0623, 13.89722
550.5444, 14.24128
551.0266, 13.23348
551.5087, 11.41965
551.9908, 9.947323
552.4729, 9.149280
552.9550, 9.051948
553.4371, 9.836481
553.9193, 11.78811
554.4014, 12.87094
554.8835, 12.66498
555.3656, 12.19247
555.8477, 11.40581
556.3298, 10.72482
556.8120, 11.02769
557.2941, 12.56849
557.7762, 14.09370
558.2583, 13.39644
558.7404, 10.02860
559.2225, 8.329900
559.7047, 9.898035
560.1868, 11.22489
560.6689, 9.889364
561.1510, 7.426299
561.6331, 6.642890
562.1152, 8.899517
562.5974, 11.55485
563.0795, 12.05211
563.5616, 10.89788
564.0437, 9.721736
564.5258, 8.682012
565.0079, 8.477701
565.4901, 10.33848
565.9722, 14.03801
566.4543, 15.53107
566.9364, 12.67666
567.4185, 10.08440
567.9006, 10.30313
568.3828, 11.54794
568.8649, 10.80050
569.3470, 7.482558
569.8291, 4.004347
570.3112, 3.195988
570.7933, 5.182460
571.2755, 7.600102
571.7576, 11.64059
572.2397, 14.57582
572.7218, 15.54259
573.2039, 15.22814
573.6860, 14.32133
574.1682, 13.00415
574.6503, 11.31819
575.1324, 8.342362
575.6145, 4.839499
576.0966, 4.875920
576.5787, 9.676861
577.0609, 14.16711
577.5430, 15.20284
578.0251, 13.71697
578.5072, 12.10661
578.9893, 10.16536
579.4714, 8.670108
579.9536, 7.673588
580.4357, 7.412704
580.9178, 8.654660
581.3999, 11.21791
581.8820, 13.47538
582.3641, 14.13052
582.8463, 13.47238
583.3284, 13.23350
583.8105, 14.61812
584.2926, 14.61523
584.7747, 11.58450
585.2568, 8.228606
585.7390, 6.704031
586.2211, 6.969075
586.7032, 7.522517
587.1853, 7.163608
587.6674, 6.422374
588.1495, 6.874585
588.6317, 8.714458
589.1138, 10.62782
589.5959, 12.71274
590.0780, 14.16788
590.5601, 13.75415
591.0422, 11.51033
591.5244, 9.800258
592.0065, 10.03264
592.4886, 10.56659
592.9707, 9.752574
593.4528, 7.915605
593.9349, 6.176789
594.4171, 4.975273
594.8992, 4.578025
595.3813, 5.602590
595.8634, 8.897944
596.3455, 11.09723
596.8276, 12.02626
597.3098, 12.21388
597.7919, 11.45320
598.2740, 10.21524
598.7561, 9.145909
599.2382, 8.498082
599.7203, 8.258927
600.2025, 8.618564
600.6846, 9.550426
601.1667, 9.904394
601.6488, 9.200711
602.1309, 8.643586
602.6130, 9.215181
603.0952, 10.50609
603.5773, 11.76609
604.0594, 13.06535
604.5415, 14.01827
605.0236, 14.55940
605.5057, 14.58462
605.9879, 13.61246
606.4700, 11.69670
606.9521, 10.01195
607.4342, 9.622786
607.9163, 10.30013
608.3984, 10.29081
608.8806, 9.072902
609.3627, 7.848812
609.8448, 6.241709
610.3269, 5.020607
610.8090, 5.010526
611.2911, 6.054374
611.7733, 7.235276
612.2554, 8.163238
612.7375, 8.578812
613.2196, 7.581840
613.7017, 4.994766
614.1838, 2.713458
614.6660, 0.8480948
615.1481, 7.2566368E-02
615.6302, 2.063005
616.1123, 6.572774
616.5944, 9.193974
617.0765, 7.511833
617.5587, 5.104919
618.0408, 4.132646
618.5229, 4.316751
619.0050, 4.931324
619.4871, 5.712151
619.9692, 6.608853
620.4514, 7.540436
620.9335, 8.488446
621.4156, 9.648794
621.8977, 11.46049
622.3798, 12.95800
622.8619, 13.75127
623.3441, 14.17229
623.8262, 14.71321
624.3083, 15.47046
624.7904, 15.80956
625.2725, 14.89538
625.7546, 13.18020
626.2367, 11.90482
626.7188, 11.14799
627.2009, 10.61892
627.6830, 10.25753
628.1652, 9.953434
628.6473, 9.248570
629.1294, 7.586134
629.6115, 7.295666
630.0936, 10.25647
630.5757, 13.38428
631.0579, 14.24491
631.5400, 13.35718
632.0221, 12.61419
632.5042, 12.99044
632.9863, 13.69520
633.4684, 12.91529
633.9506, 10.00420
634.4327, 8.899120
634.9148, 11.23945
635.3969, 13.60478
635.8790, 14.07826
636.3611, 13.49333
636.8433, 13.37522
637.3254, 14.31245
637.8075, 15.07976
638.2896, 14.62301
638.7717, 13.42467
639.2538, 12.40039
639.7360, 11.67726
640.2181, 10.84670
640.7002, 9.462388
641.1823, 7.881453
641.6644, 7.564473
642.1465, 10.03989
642.6287, 11.70046
643.1108, 11.69837
643.5929, 11.56317
644.0750, 12.73060
644.5571, 14.68022
645.0392, 15.70975
645.5214, 14.76042
646.0035, 12.80090
646.4856, 11.17109
646.9677, 9.873519
647.4498, 9.664342
647.9319, 11.03294
648.4141, 12.78762
648.8962, 14.11288
649.3783, 15.03408
649.8604, 15.59334
650.3425, 15.69595
650.8246, 15.56939
651.3068, 15.41838
651.7889, 15.02488
652.2710, 13.76185
652.7531, 11.78902
653.2352, 10.33247
653.7173, 10.40153
654.1995, 11.66515
654.6816, 12.83463
655.1637, 14.13279
655.6458, 14.79125
656.1279, 13.73083
656.6100, 12.79761
657.0922, 13.32328
657.5743, 14.93306
658.0564, 16.20193
658.5385, 16.45557
659.0206, 16.34079
659.5027, 16.52360
659.9849, 16.83303
660.4670, 16.82407
660.9491, 16.39806
661.4312, 15.41716
661.9133, 13.41594
662.3954, 10.61012
662.8776, 10.10075
663.3597, 15.45489
663.8418, 18.42007
664.3239, 16.00085
664.8060, 12.56166
665.2881, 12.04106
665.7703, 14.10382
666.2524, 15.50814
666.7345, 13.88559
667.2166, 10.91802
667.6987, 9.723702
668.1808, 10.25974
668.6630, 10.90872
669.1451, 11.22765
669.6272, 11.74755
670.1093, 13.39479
670.5914, 15.94715
671.0735, 16.87044
671.5557, 14.58554
672.0378, 12.55512
672.5199, 11.62258
673.0020, 11.67573
673.4841, 13.06215
673.9662, 15.46594
674.4484, 17.57051
674.9305, 18.38003
675.4126, 18.10884
675.8947, 17.33439
676.3768, 15.87823
676.8589, 14.69952
677.3411, 13.92675
677.8232, 13.56928
678.3053, 13.77991
678.7874, 14.40721
679.2695, 14.90799
679.7516, 15.29720
680.2338, 15.35558
680.7159, 14.75438
681.1980, 13.81530
681.6801, 12.76658
682.1622, 11.78588
682.6443, 11.68961
683.1265, 13.34299
683.6086, 16.19346
684.0907, 17.47300
684.5728, 16.34455
685.0549, 15.47195
685.5370, 14.96465
686.0192, 15.03118
686.5013, 16.38682
686.9834, 18.44711
687.4655, 19.54811
687.9476, 18.69923
688.4297, 17.36581
688.9119, 17.02679
689.3940, 17.16469
689.8761, 16.30151
690.3582, 14.21161
690.8403, 12.49757
691.3224, 12.47708
691.8046, 13.77116
692.2867, 14.57292
692.7688, 14.39694
693.2509, 14.50535
693.7330, 15.33339
694.2151, 16.08598
694.6973, 16.15087
695.1794, 15.76420
695.6615, 15.52015
696.1436, 15.62626
696.6257, 16.12254
697.1078, 17.64297
697.5900, 19.62714
698.0721, 19.97515
698.5542, 18.32717
699.0363, 15.86399
699.5184, 12.98150
700.0005, 10.16805
700.4827, 9.217183
700.9648, 11.75103
701.4469, 13.53799
701.9290, 14.19016
702.4111, 14.39883
702.8932, 14.12576
703.3754, 13.81362
703.8575, 14.47652
704.3396, 16.61335
704.8217, 18.65153
705.3038, 18.25831
705.7859, 16.01053
706.2681, 14.86161
706.7502, 15.23164
707.2323, 15.28520
707.7144, 13.60899
708.1965, 11.29135
708.6786, 10.95498
709.1607, 13.27697
709.6428, 15.46605
710.1249, 18.33051
710.6071, 20.03977
711.0892, 18.44044
711.5713, 15.30754
712.0534, 13.70697
712.5355, 14.63924
713.0176, 16.50076
713.4998, 17.60767
713.9819, 18.09097
714.4640, 18.69623
714.9461, 19.45877
715.4282, 20.13273
715.9103, 20.53353
716.3925, 20.87437
716.8746, 21.59058
717.3567, 22.77223
717.8388, 23.50313
718.3209, 22.76748
718.8030, 22.58956
719.2852, 24.49744
719.7673, 27.28212
720.2494, 29.46548
720.7315, 30.61302
721.2136, 30.85465
721.6957, 30.07944
722.1779, 28.59663
722.6600, 27.33417
723.1421, 26.19889
723.6242, 26.09987
724.1063, 27.59186
724.5884, 29.75951
725.0706, 32.00332
725.5527, 34.24916
726.0348, 35.27612
726.5169, 33.63458
726.9990, 32.47816
727.4811, 33.53249
727.9633, 35.17895
728.4454, 35.58471
728.9275, 34.71316
729.4096, 33.69871
729.8917, 33.25893
730.3738, 33.29771
730.8560, 33.80643
731.3381, 34.81132
731.8202, 35.22503
732.3023, 34.65532
732.7844, 34.03554
733.2665, 34.46929
733.7487, 35.36121
734.2308, 34.42495
734.7129, 29.91959
735.1950, 26.90106
735.6771, 27.32310
736.1592, 28.80820
736.6414, 29.87335
737.1235, 30.36843
737.6056, 30.54805
738.0877, 30.53518
738.5698, 30.03460
739.0519, 28.29675
739.5341, 25.52596
740.0162, 23.57234
740.4983, 22.60979
740.9804, 22.11913
741.4625, 21.96621
741.9446, 22.04489
742.4268, 22.32821
742.9089, 23.04618
743.3910, 22.82187
743.8731, 20.53075
744.3552, 18.36942
744.8373, 17.04340
745.3195, 16.66454
745.8016, 17.78592
746.2837, 20.25616
746.7658, 22.34292
747.2479, 22.19290
747.7300, 20.67383
748.2122, 20.25630
748.6943, 20.96011
749.1764, 21.43913
749.6585, 21.35292
750.1406, 20.81472
750.6227, 19.80972
751.1049, 18.36137
751.5870, 17.19004
752.0691, 16.14862
752.5512, 15.55615
753.0333, 15.87710
753.5154, 16.34682
753.9976, 16.08521
754.4797, 15.37083
754.9618, 15.37840
755.4439, 16.92274
755.9260, 18.66472
756.4081, 18.81554
756.8903, 17.64085
757.3724, 15.93181
757.8545, 13.71100
758.3366, 12.30341
758.8187, 12.72274
759.3008, 14.24512
759.7830, 15.11102
760.2651, 15.36006
760.7472, 14.81233
761.2293, 12.58766
761.7114, 10.60790
762.1935, 8.925149
762.6757, 8.289275
763.1578, 10.40038
763.6399, 15.46136
764.1220, 19.63883
764.6041, 19.11050
765.0862, 16.65811
765.5684, 16.80116
766.0505, 19.01378
766.5326, 20.32664
767.0147, 19.77188
767.4968, 18.46858
767.9789, 17.69944
768.4611, 17.40149
768.9432, 16.09718
769.4253, 11.88632
769.9074, 9.954815
770.3895, 12.91972
770.8716, 16.70506
771.3538, 18.91932
771.8359, 19.65519
772.3180, 19.70490
772.8001, 19.03891
773.2822, 18.32141
773.7643, 18.02471
774.2465, 17.94857
774.7286, 18.03101
775.2107, 18.10315
775.6928, 17.40357
776.1749, 15.43781
776.6570, 13.07610
777.1392, 12.09624
777.6213, 12.71330
778.1034, 13.12193
778.5855, 13.16421
779.0676, 13.27465
779.5497, 13.58512
780.0319, 14.10606
780.5140, 14.90372
780.9961, 16.00618
781.4782, 17.02676
781.9603, 18.18905
782.4424, 18.90712
782.9246, 18.84255
783.4067, 18.11915
783.8888, 16.60312
784.3709, 14.49430
784.8530, 12.79797
785.3351, 12.41394
785.8173, 12.83904
786.2994, 12.69106
786.7815, 11.96795
787.2636, 12.06003
787.7457, 13.39394
788.2278, 15.02083
788.7100, 16.33628
789.1921, 17.34450
789.6742, 18.03449
790.1563, 18.44078
790.6384, 18.48826
791.1205, 18.30227
791.6026, 17.62565
792.0847, 15.72250
792.5668, 13.43549
793.0490, 12.21744
793.5311, 12.48315
794.0132, 13.05754
794.4953, 12.81375
794.9774, 12.32212
795.4595, 12.82578
795.9417, 14.12804
796.4238, 14.87494
796.9059, 14.60032
797.3880, 14.01934
797.8701, 13.85944
798.3522, 14.12227
798.8344, 14.96647
799.3165, 17.62008
799.7986, 18.49294
800.2807, 14.74075
800.7628, 11.08781
801.2449, 11.02992
801.7271, 13.29069
802.2092, 14.08700
802.6913, 11.75387
803.1734, 9.857638
803.6555, 10.84191
804.1376, 12.74933
804.6198, 13.69108
805.1019, 13.61990
805.5840, 12.83294
806.0661, 11.48231
806.5482, 10.25677
807.0303, 10.25124
807.5125, 11.30022
807.9946, 11.82812
808.4767, 11.78200
808.9588, 11.44998
809.4409, 10.66003
809.9230, 10.07633
810.4052, 10.78937
810.8873, 12.78377
811.3694, 13.33489
811.8515, 10.67947
812.3336, 8.996494
812.8157, 9.630147
813.2979, 11.10915
813.7800, 12.61758
814.2621, 13.91251
814.7442, 14.78058
815.2263, 15.11613
815.7084, 15.08408
816.1906, 14.81487
816.6727, 14.29764
817.1548, 13.28466
817.6369, 11.89203
818.1190, 11.05118
818.6011, 11.21302
819.0833, 11.72293
819.5654, 11.60502
820.0475, 10.82571
820.5296, 10.35370
821.0117, 10.15338
821.4938, 10.32498
821.9760, 10.83185
822.4581, 11.79215
822.9402, 13.69152
823.4223, 16.21545
823.9044, 17.91409
824.3865, 18.55101
824.8687, 18.26208
825.3508, 16.06081
825.8329, 13.74630
826.3150, 13.42031
826.7971, 14.54826
827.2792, 15.18537
827.7614, 14.46787
828.2435, 13.33269
828.7256, 12.99965
829.2077, 13.21103
829.6898, 12.88472
830.1719, 11.99684
830.6541, 11.19920
831.1362, 10.60625
831.6183, 10.72798
832.1004, 12.43868
832.5825, 15.69101
833.0646, 17.59815
833.5468, 18.29409
834.0289, 17.34266
834.5110, 12.50709
834.9931, 8.168192
835.4752, 7.477368
835.9573, 9.426436
836.4395, 11.26916
836.9216, 12.44344
837.4037, 13.01362
837.8858, 12.34213
838.3679, 11.60373
838.8500, 12.71978
839.3322, 14.74033
839.8143, 14.64642
840.2964, 11.59114
840.7785, 8.607370
841.2606, 9.465214
841.7427, 12.95660
842.2249, 14.07892
842.7070, 12.71571
843.1891, 11.60527
843.6712, 11.30085
844.1533, 11.85368
844.6354, 13.82466
845.1176, 16.60488
845.5997, 17.14829
846.0818, 13.27801
846.5639, 10.60390
847.0460, 9.478568
847.5281, 9.114335
848.0103, 9.410155
848.4924, 10.10871
848.9745, 10.90261
849.4566, 11.73125
849.9387, 12.62558
850.4208, 13.68900
850.9030, 14.75112
851.3851, 16.09509
851.8672, 17.18995
852.3493, 16.69645
852.8314, 14.61378
853.3135, 12.59181
853.7957, 11.92019
854.2778, 10.81267
854.7599, 10.37054
855.2420, 10.51628
855.7241, 10.41221
856.2062, 11.68110
856.6884, 12.44096
857.1705, 11.33669
857.6526, 9.575665
858.1347, 9.567694
858.6168, 12.02273
859.0989, 13.00654
859.5811, 11.02792
860.0632, 9.546578
860.5453, 9.448905
861.0274, 10.09497
861.5095, 11.35657
861.9916, 12.88895
862.4738, 13.47862
862.9559, 12.05216
863.4380, 10.86067
863.9201, 11.75768
864.4022, 13.42692
864.8843, 14.37126
865.3665, 14.58151
865.8486, 14.61317
866.3307, 14.69816
866.8128, 14.49853
867.2949, 13.29106
867.7770, 11.45292
868.2592, 10.83483
868.7413, 11.45961
869.2234, 11.68995
869.7055, 10.91913
870.1876, 10.33100
870.6697, 11.17899
871.1519, 13.11668
871.6340, 14.20461
872.1161, 14.37214
872.5981, 13.82185
873.0803, 12.10013
873.5624, 10.14756
874.0445, 7.312152
874.5266, 4.961382
875.0087, 5.541583
875.4908, 9.549430
875.9730, 12.72314
876.4551, 13.23479
876.9372, 12.87283
877.4193, 12.17877
877.9014, 11.58660
878.3835, 11.88857
878.8657, 12.90281
879.3478, 13.44886
879.8299, 12.74465
880.3120, 11.58013
880.7941, 10.94977
881.2762, 10.76666
881.7584, 10.82938
882.2405, 11.09797
882.7226, 11.43376
883.2047, 11.82252
883.6868, 11.81848
884.1689, 10.56038
884.6511, 8.138460
885.1332, 7.830008
885.6153, 10.67027
886.0974, 12.77145
886.5795, 13.23142
887.0616, 12.93193
887.5438, 12.18042
888.0259, 11.20903
888.5080, 10.70514
888.9901, 10.73719
889.4722, 11.11079
889.9543, 12.42973
890.4365, 13.39955
890.9186, 13.04861
891.4007, 12.08299
891.8828, 11.48040
892.3649, 11.37093
892.8470, 11.21844
893.3292, 10.27671
893.8113, 9.724125
894.2934, 11.37366
894.7755, 13.90722
895.2576, 15.17062
895.7397, 14.91749
896.2219, 13.30035
896.7040, 10.34261
897.1861, 7.711233
897.6682, 8.659116
898.1503, 12.51826
898.6324, 13.64737
899.1146, 11.84548
899.5967, 9.980436
900.0788, 8.826272
900.5609, 8.254990
901.0430, 8.330893
901.5251, 8.843722
902.0073, 8.367740
902.4894, 5.633071
902.9715, 4.534986
903.4536, 6.727614
903.9357, 8.884735
904.4178, 8.970583
904.9000, 8.430590
905.3821, 9.699863
905.8642, 13.11501
906.3463, 14.94642
906.8284, 13.34787
907.3105, 11.11703
907.7927, 8.448134
908.2748, 6.575548
908.7569, 7.485795
909.2390, 10.36248
909.7211, 12.43745
910.2032, 12.51347
910.6854, 11.27614
911.1675, 8.349339
911.6496, 5.075318
912.1317, 3.560205
912.6138, 3.721272
913.0959, 5.146369
913.5781, 7.594137
914.0602, 9.958531
914.5423, 11.20061
915.0244, 11.60936
915.5065, 12.11995
915.9886, 12.73694
916.4708, 12.79335
916.9529, 12.09724
917.4350, 11.49112
917.9171, 11.56286
918.3992, 11.73849
918.8813, 10.87683
919.3635, 8.699675
919.8456, 7.584620
920.3277, 7.866271
920.8098, 8.662938
921.2919, 10.76484
921.7740, 12.44414
922.2562, 12.21959
922.7383, 10.59708
923.2204, 9.014212
923.7025, 7.266916
924.1846, 6.525794
924.6667, 7.821479
925.1489, 9.429074
925.6310, 10.89609
926.1131, 11.71067
926.5952, 10.70599
927.0773, 8.132895
927.5594, 6.473654
928.0416, 7.467393
928.5237, 9.300231
929.0058, 10.89914
929.4879, 11.95415
929.9700, 11.61515
930.4521, 10.22858
930.9343, 9.290418
931.4164, 9.412438
931.8985, 9.564948
932.3806, 8.175489
932.8627, 6.006564
933.3448, 5.650405
933.8270, 6.982574
934.3091, 8.993710
934.7912, 11.55416
935.2733, 12.95037
935.7554, 11.69447
936.2375, 9.138980
936.7197, 8.701422
937.2018, 10.89400
937.6839, 12.33524
938.1660, 13.09435
938.6481, 12.81854
939.1302, 10.41750
939.6124, 8.146707
940.0945, 8.687922
940.5766, 11.66803
941.0587, 13.57989
941.5408, 13.84331
942.0229, 13.97990
942.5051, 14.53756
942.9872, 14.45761
943.4693, 12.48351
943.9514, 9.946385
944.4335, 8.807922
944.9156, 9.254990
945.3978, 9.576168
945.8799, 8.822409
946.3620, 8.243355
946.8441, 8.932279
947.3262, 9.765240
947.8083, 9.322781
948.2905, 8.030568
948.7726, 7.240141
949.2547, 7.449494
949.7368, 8.120431
950.2189, 9.250583
950.7010, 10.25225
951.1832, 10.04983
951.6653, 9.137998
952.1474, 8.831243
952.6295, 9.273534
953.1116, 9.610804
953.5938, 9.302838
954.0759, 8.539126
954.5580, 7.207661
955.0400, 5.628232
955.5222, 5.711373
956.0043, 7.490709
956.4864, 9.831944
956.9685, 12.56472
957.4506, 13.74406
957.9327, 11.03815
958.4149, 5.739714
958.8970, 3.381209
959.3791, 4.251379
959.8612, 6.997303
960.3433, 12.84090
960.8254, 17.01312
961.3076, 16.92229
961.7897, 14.47272
962.2718, 11.95713
962.7539, 9.368880
963.2360, 7.237747
963.7181, 5.165471
964.2003, 4.195837
964.6824, 5.526693
965.1645, 6.782327
965.6466, 5.886543
966.1287, 4.404731
966.6108, 5.511964
967.0930, 9.873193
967.5751, 12.64262
968.0572, 12.21747
968.5393, 10.75673
969.0214, 7.508729
969.5035, 4.904634
969.9857, 6.105654
970.4678, 9.711511
970.9499, 11.65705
971.4320, 10.49896
971.9141, 9.003383
972.3962, 8.610193
972.8784, 8.743677
973.3605, 9.101225
973.8426, 9.544484
974.3247, 9.861735
974.8068, 10.06716
975.2889, 10.36920
975.7711, 10.88154
976.2532, 11.52717
976.7353, 12.80541
977.2174, 13.85671
977.6995, 12.60009
978.1816, 9.654694
978.6638, 7.257434
979.1459, 6.069602
979.6280, 5.929225
980.1101, 6.801335
980.5922, 8.300469
981.0743, 10.02545
981.5565, 11.74274
982.0386, 11.54851
982.5207, 9.387899
983.0028, 8.314136
983.4849, 9.636850
983.9670, 11.08848
984.4492, 9.968444
984.9313, 7.072349
985.4134, 6.303706
985.8955, 7.966453
986.3776, 9.691384
986.8597, 11.54583
987.3419, 12.16284
987.8240, 10.32939
988.3061, 7.964224
988.7882, 7.985678
989.2703, 10.37498
989.7524, 11.47511
990.2346, 10.51265
990.7167, 10.00107
991.1988, 10.68480
991.6809, 11.24799
992.1630, 10.85066
992.6451, 9.916015
993.1273, 9.184755
993.6094, 8.695668
994.0915, 8.131336
994.5736, 6.948087
995.0557, 6.437071
995.5378, 7.700558
996.0200, 8.875828
996.5021, 8.423933
996.9842, 7.068343
997.4663, 6.328645
997.9484, 6.468117
998.4305, 6.750874
998.9127, 6.987737
999.3948, 7.341597
999.8769, 8.401662
1000.359, 9.184519
1000.841, 8.334780
1001.323, 6.482852
1001.805, 5.405203
1002.287, 5.663146
1002.770, 6.314261
1003.252, 7.274294
1003.734, 8.027361
1004.216, 7.852826
1004.698, 7.459816
1005.180, 7.831453
1005.662, 8.930681
1006.144, 10.33106
1006.627, 12.01670
1007.109, 12.72279
1007.591, 10.28214
1008.073, 7.228523
1008.555, 6.545668
1009.037, 7.547560
1009.519, 8.991430
1010.001, 10.45026
1010.483, 11.68883
1010.966, 12.64352
1011.448, 12.77379
1011.930, 10.50844
1012.412, 7.421077
1012.894, 7.096220
1013.376, 8.721434
1013.858, 9.283278
1014.340, 8.119028
1014.823, 6.063953
1015.305, 3.454301
1015.787, 1.653627
1016.269, 3.992724
1016.751, 9.006827
1017.233, 10.58318
1017.715, 9.017587
1018.197, 8.703088
1018.679, 10.85388
1019.162, 13.18773
1019.644, 13.89146
1020.126, 13.36959
1020.608, 12.06977
1021.090, 10.15305
1021.572, 10.19640
1022.054, 12.37426
1022.536, 13.65420
1023.018, 13.01151
1023.501, 11.67559
1023.983, 10.64194
1024.465, 9.955276
1024.947, 9.907776
1025.429, 10.59857
1025.911, 10.80738
1026.393, 10.54023
1026.875, 9.273406
1027.358, 6.335495
1027.840, 3.978778
1028.322, 4.646245
1028.804, 7.490192
1029.286, 8.904774
1029.768, 8.378373
1030.250, 8.717579
1030.732, 10.61899
1031.214, 11.62566
1031.697, 10.74903
1032.179, 8.744555
1032.661, 5.657002
1033.143, 2.218162
1033.625, 2.474745
1034.107, 9.128267
1034.589, 12.58944
1035.071, 11.40162
1035.553, 9.482889
1036.036, 7.612930
1036.518, 6.274237
1037.000, 6.436811
1037.482, 7.650567
1037.964, 7.162737
1038.446, 2.718970
1038.928, 1.044375
1039.410, 3.976333
1039.893, 7.197374
1040.375, 9.910160
1040.857, 11.78027
1041.339, 12.20390
1041.821, 11.42203
1042.303, 10.73334
1042.785, 10.34139
1043.267, 9.685486
1043.750, 8.523420
1044.232, 7.367969
1044.714, 5.629052
1045.196, 4.577653
1045.678, 6.210435
1046.160, 9.770114
1046.642, 11.65169
1047.124, 10.85284
1047.606, 9.885642
1048.089, 8.558265
1048.571, 7.747451
1049.053, 9.031139
1049.535, 10.03676
1050.017, 7.336160
1050.499, 2.170834
1050.981, -7.0352659E-02
1051.463, 2.528682
1051.945, 5.186801
1052.428, 7.370988
1052.910, 8.842805
1053.392, 8.953824
1053.874, 8.726993
1054.356, 9.827929
1054.838, 11.50243
1055.320, 10.59332
1055.802, 5.153983
1056.285, 1.718589
1056.767, 3.620532
1057.249, 6.159719
1057.731, 7.476953
1058.213, 7.990260
1058.695, 7.952428
1059.177, 7.609731
1059.659, 7.502817
1060.141, 7.829097
1060.624, 8.042155
1061.106, 8.207861
1061.588, 7.905649
1062.070, 5.800645
1062.552, 4.021779
1063.034, 5.492098
1063.516, 8.986645
1063.998, 10.64013
1064.480, 9.221620
1064.963, 8.470587
1065.445, 11.11352
1065.927, 13.27447
1066.409, 12.21798
1066.891, 10.30123
1067.373, 9.712269
1067.855, 10.25238
1068.337, 11.07210
1068.820, 12.01233
1069.302, 12.31401
1069.784, 11.27095
1070.266, 9.984606
1070.748, 8.553316
1071.230, 7.556271
1071.712, 7.658254
1072.194, 8.553179
1072.677, 9.975208
1073.159, 11.80215
1073.641, 12.03329
1074.123, 7.538390
1074.605, 4.119123
1075.087, 6.263661
1075.569, 9.352120
1076.051, 9.253848
1076.533, 7.084116
1077.016, 5.254750
1077.498, 4.278841
1077.980, 3.870545
1078.462, 3.497869
1078.944, 4.263199
1079.426, 8.403823
1079.908, 12.23895
1080.390, 12.26309
1080.872, 10.19879
1081.354, 8.843507
1081.837, 8.632890
1082.319, 8.633691
1082.801, 8.379937
1083.283, 8.496286
1083.765, 9.828074
1084.247, 11.06006
1084.729, 11.21097
1085.211, 10.67322
1085.694, 9.825747
1086.176, 8.868546
1086.658, 8.345016
1087.140, 8.784168
1087.622, 8.672627
1088.104, 6.189492
1088.586, 4.274683
1089.068, 5.637282
1089.551, 8.008405
1090.033, 8.548189
1090.515, 7.557272
1090.997, 7.176471
1091.479, 8.187376
1091.961, 8.856002
1092.443, 7.915972
1092.925, 7.215337
1093.407, 8.134608
1093.890, 9.408507
1094.372, 9.620117
1094.854, 9.165017
1095.336, 9.570868
1095.818, 11.37395
1096.300, 11.72655
1096.782, 7.635790
1097.264, 4.694051
1097.746, 6.557393
1098.229, 9.028124
1098.711, 8.038799
1099.193, 5.477614
1099.675, 5.536805
1100.157, 8.798690
1100.639, 10.99978
1101.121, 10.44495
1101.603, 9.611208
1102.086, 8.404860
1102.568, 7.932103
1103.050, 10.02522
1103.532, 12.60589
1104.014, 12.25194
1104.496, 9.115429
1104.978, 7.439745
1105.460, 9.553739
1105.943, 10.42560
1106.425, 7.787816
1106.907, 5.546220
1107.389, 5.665053
1107.871, 6.875417
1108.353, 8.464887
1108.835, 9.988876
1109.317, 9.554655
1109.799, 5.464545
1110.281, 3.288362
1110.764, 4.891959
1111.246, 6.507874
1111.728, 7.041539
1112.210, 7.214519
1112.692, 7.859542
1113.174, 7.185301
1113.656, 7.917777
1114.138, 5.584556
1114.621, 3.941565
1115.103, 2.749748
1115.585, 2.698276
1116.067, 4.953586
1116.549, 6.943803
1117.031, 6.603690
1117.513, 5.563754
1117.995, 6.828827
1118.478, 10.44301
1118.960, 11.77975
1119.442, 9.474128
1119.924, 8.206388
1120.406, 9.137607
1120.888, 9.481992
1121.370, 7.585003
1121.852, 5.265098
1122.334, 4.582265
1122.817, 5.317544
1123.299, 6.440953
1123.781, 8.351701
1124.263, 8.875241
1124.745, 7.563553
1125.227, 6.216248
1125.709, 5.210505
1126.191, 4.903472
1126.673, 5.705150
1127.156, 7.221186
1127.638, 8.554133
1128.120, 9.700926
1128.602, 10.66060
1129.084, 11.48603
1129.566, 11.48180
1130.048, 10.48303
1130.530, 8.599857
1131.013, 5.624910
1131.495, 3.345438
1131.977, 4.893914
1132.459, 9.173037
1132.941, 10.39562
1133.423, 8.857592
1133.905, 8.894696
1134.387, 10.87621
1134.870, 11.77679
1135.352, 10.40363
1135.834, 8.206570
1136.316, 6.322130
1136.798, 5.233995
1137.280, 6.753728
1137.762, 9.844968
1138.244, 10.88552
1138.726, 9.901962
1139.208, 7.416598
1139.691, 3.945137
1140.173, 2.076160
1140.655, 3.549227
1141.137, 6.074736
1141.619, 6.691696
1142.101, 6.424068
1142.583, 7.519672
1143.065, 9.028089
1143.548, 8.190722
1144.030, 5.485115
1144.512, 4.137148
1144.994, 5.332398
1145.476, 6.783909
1145.958, 6.432196
1146.440, 5.784098
1146.922, 6.703141
1147.405, 7.959877
1147.887, 7.584386
1148.369, 6.432440
1148.851, 6.698390
1149.333, 8.558229
1149.815, 10.12732
1150.297, 10.74155
1150.779, 10.29476
1151.261, 6.920317
1151.744, 4.440846
1152.226, 7.183608
1152.708, 11.32202
1153.190, 11.96500
1153.672, 9.753603
1154.154, 8.241114
1154.636, 8.347226
1155.118, 8.187407
1155.600, 6.574014
1156.083, 5.474643
1156.565, 6.279468
1157.047, 7.100319
1157.529, 6.027066
1158.011, 4.383172
1158.493, 4.826907
1158.975, 7.413053
1159.457, 8.205159
1159.940, 4.314810
1160.422, 3.002994
1160.904, 6.375814
1161.386, 9.635761
1161.868, 11.56762
1162.350, 12.18237
1162.832, 10.74903
1163.314, 8.356433
1163.796, 8.801524
1164.279, 7.967155
1164.761, 6.821196
1165.243, 8.717349
1165.725, 5.827754
1166.207, 7.158463
1166.689, 8.467509
1167.171, 7.088007
1167.653, 5.109664
1168.135, 5.647772
1168.618, 8.165758
1169.100, 9.805811
1169.582, 10.56274
1170.064, 10.06714
1170.546, 8.325812
1171.028, 7.406326
1171.510, 7.995964
1171.992, 8.646269
1172.474, 8.126889
1172.957, 8.997042
1173.439, 8.021890
1173.921, 9.576287
1174.403, 9.957419
1174.885, 9.399945
1175.367, 8.478505
1175.849, 7.548540
1176.331, 7.811966
1176.814, 9.731749
1177.296, 11.48919
1177.778, 11.19739
1178.260, 12.04076
1178.742, 10.67498
1179.224, 11.29459
1179.706, 10.44392
1180.188, 8.771311
1180.671, 7.875863
1181.153, 7.909188
1181.635, 7.729302
1182.117, 6.697470
1182.599, 5.927365
1183.081, 5.863805
1183.563, 6.434011
1184.045, 8.355650
1184.527, 10.23365
1185.010, 10.50098
1185.492, 9.693328
1185.974, 9.188671
1186.456, 9.180732
1186.938, 9.409335
1187.420, 10.40701
1187.902, 10.76293
1188.384, 9.136368
1188.866, 8.230943
1189.349, 10.33777
1189.831, 12.60615
1190.313, 11.64299
1190.795, 8.447656
1191.277, 7.043367
1191.759, 7.889892
1192.241, 8.573119
1192.723, 9.164859
1193.206, 9.256714
1193.688, 8.618151
1194.170, 8.137628
1194.652, 8.475609
1195.134, 8.639084
1195.616, 6.937523
1196.098, 4.159201
1196.580, 3.965321
1197.063, 6.072867
1197.545, 7.776580
1198.027, 8.825021
1198.509, 8.997079
1198.991, 8.280915
1199.473, 7.203535
1199.955, 6.063485
1200.437, 5.284635
1200.919, 5.457842
1201.401, 6.335970
1201.884, 8.430842
1202.366, 10.43487
1202.848, 8.978832
1203.330, 5.134566
1203.812, 3.127361
1204.294, 4.066322
1204.776, 5.087702
1205.258, 3.999938
1205.741, 3.587424
1206.223, 6.968377
1206.705, 10.27303
1207.187, 9.778809
1207.669, 8.014378
1208.151, 8.594278
1208.633, 10.82129
1209.115, 11.28062
1209.598, 8.990450
1210.080, 7.387769
1210.562, 6.567244
1211.044, 7.093074
1211.526, 11.24272
1212.008, 14.02067
1212.490, 12.01592
1212.972, 8.663748
1213.454, 8.106748
1213.937, 9.678781
1214.419, 10.05732
1214.901, 8.847720
1215.383, 8.597994
1215.865, 9.589468
1216.347, 9.746950
1216.829, 8.501371
1217.311, 7.296657
1217.793, 6.973137
1218.276, 7.129576
1218.758, 7.356917
1219.240, 7.484912
1219.722, 6.656032
1220.204, 5.358335
1220.686, 5.383074
1221.168, 6.654974
1221.650, 8.930247
1222.133, 11.67371
1222.615, 12.22091
1223.097, 8.813701
1223.579, 5.308576
1224.061, 5.443763
1224.543, 6.891742
1225.025, 7.760333
1225.507, 8.341822
1225.990, 9.362530
1226.472, 10.28409
1226.954, 9.573290
1227.436, 7.280086
1227.918, 6.213933
1228.400, 8.231531
1228.882, 9.306474
1229.364, 7.392545
1229.846, 5.831199
1230.328, 7.044699
1230.811, 7.911752
1231.293, 5.118334
1231.775, 1.001578
1232.257, -2.4181390E-02
1232.739, 2.022613
1233.221, 4.575303
1233.703, 8.123248
1234.185, 9.994945
1234.668, 9.872192
1235.150, 8.192785
1235.632, 4.702698
1236.114, 3.518846
1236.596, 8.383780
1237.078, 5.711502
1237.560, 13.25714
1238.042, 7.102940
1238.525, 6.415535
1239.007, 9.393361
1239.489, 10.31917
1239.971, 9.070731
1240.453, 7.996898
1240.935, 7.824826
1241.417, 7.984057
1241.899, 8.282618
1242.381, 8.240800
1242.864, 6.941429
1243.346, 5.730443
1243.828, 6.114929
1244.310, 6.893813
1244.792, 6.182909
1245.274, 4.897548
1245.756, 5.876056
1246.238, 5.354367
1246.720, 4.538853
1247.203, 6.232086
1247.685, 3.730557
1248.167, 4.871697
1248.649, 6.514919
1249.131, 8.276180
1249.613, 9.249291
1250.095, 8.302032
1250.577, 6.788772
1251.059, 7.649618
1251.542, 10.53809
1252.024, 10.93615
1252.506, 8.868022
1252.988, 7.835258
1253.470, 8.118566
1253.952, 8.659747
1254.434, 9.075304
1254.916, 8.815428
1255.399, 7.368515
1255.881, 6.184939
1256.363, 7.842156
1256.845, 10.22474
1257.327, 9.950109
1257.809, 8.518114
1258.291, 8.257402
1258.773, 8.851808
1259.255, 8.899711
1259.738, 8.267125
1260.220, 8.225186
1260.702, 9.543194
1261.184, 10.59341
1261.666, 11.17965
1262.148, 10.97055
1262.630, 8.649192
1263.112, 6.745680
1263.594, 7.487808
1264.077, 9.432755
1264.559, 10.74841
1265.041, 11.35681
1265.523, 10.26535
1266.005, 6.921634
1266.487, 5.203567
1266.969, 5.318388
1267.451, 6.433939
1267.934, 8.405622
1268.416, 9.486522
1268.898, 8.662236
1269.380, 7.171023
1269.862, 6.145156
1270.344, 5.961619
1270.826, 8.337042
1271.308, 11.43490
1271.791, 11.38027
1272.273, 9.370942
1272.755, 8.425765
1273.237, 8.696822
1273.719, 8.261486
1274.201, 6.377059
1274.683, 5.300975
1275.165, 6.349718
1275.647, 7.948462
1276.130, 10.46109
1276.612, 12.24525
1277.094, 11.38248
1277.576, 10.14873
1278.058, 11.46354
1278.540, 14.10700
1279.022, 14.61884
1279.504, 12.84383
1279.986, 11.03782
1280.469, 9.089385
1280.951, 7.976540
1281.433, 7.844553
1281.915, 8.093780
1282.397, 8.510444
1282.879, 9.020801
1283.361, 9.609875
1283.843, 9.969035
1284.326, 9.730810
1284.808, 8.891412
##END=



