##NAMES=Tellurobismuthite
##RRUFFID=R060948
##IDEAL CHEMISTRY=Bi^3+^_2_Te^2-^_3_
##LOCALITY=Little Ben mine, Matheson, Ontario, Canada
##OWNER=RRUFF
##SOURCE=Bob Jenkins
##DESCRIPTION=Metallic steel-gray crystals on quartz
##STATUS=The identification of this mineral is confirmed by single-crystal X-ray diffraction and chemical analysis.
##URL=rruff.info/R060948
##MEASURED CHEMISTRY=Bi_2.00_Te_3.00_
122.0102, 665.7753
122.4923, 683.1981
122.9744, 727.2952
123.4565, 782.0187
123.9386, 845.5277
124.4208, 916.1544
124.9029, 991.1349
125.3850, 1068.235
125.8671, 1148.088
126.3492, 1242.301
126.8313, 1347.956
127.3135, 1472.222
127.7956, 1620.362
128.2777, 1788.743
128.7598, 1970.829
129.2419, 2166.543
129.7240, 2376.186
130.2062, 2565.181
130.6883, 2750.390
131.1704, 2902.405
131.6525, 3012.829
132.1346, 3080.428
132.6167, 3105.198
133.0989, 3084.167
133.5810, 3011.507
134.0631, 2929.925
134.5452, 2840.169
135.0273, 2742.665
135.5094, 2627.214
135.9916, 2498.645
136.4737, 2381.236
136.9558, 2300.526
137.4379, 2267.471
137.9200, 2224.872
138.4021, 2168.731
138.8843, 2106.503
139.3664, 2040.250
139.8485, 1971.147
140.3306, 1904.653
140.8127, 1843.736
141.2948, 1784.327
141.7769, 1758.361
142.2591, 1781.192
142.7412, 1829.766
143.2233, 1887.954
143.7054, 1952.594
144.1875, 2015.696
144.6696, 2066.416
145.1518, 2102.532
145.6339, 2137.791
146.1160, 2171.273
146.5981, 2205.674
147.0802, 2246.461
147.5623, 2295.828
148.0445, 2345.773
148.5266, 2386.302
149.0087, 2419.079
149.4908, 2440.383
149.9729, 2443.234
150.4550, 2435.053
150.9372, 2428.768
151.4193, 2428.641
151.9014, 2428.799
152.3835, 2422.102
152.8656, 2409.856
153.3477, 2389.096
153.8299, 2360.761
154.3120, 2323.133
154.7941, 2269.453
155.2762, 2191.850
155.7583, 2107.626
156.2404, 2036.994
156.7226, 1979.958
157.2047, 1931.788
157.6868, 1889.340
158.1689, 1853.602
158.6510, 1830.035
159.1331, 1826.097
159.6153, 1827.994
160.0974, 1815.495
160.5795, 1785.905
161.0616, 1762.509
161.5437, 1764.869
162.0258, 1788.854
162.5080, 1807.876
162.9901, 1817.718
163.4722, 1815.801
163.9543, 1798.284
164.4364, 1762.786
164.9185, 1728.562
165.4007, 1713.482
165.8828, 1715.913
166.3649, 1711.484
166.8470, 1691.593
167.3291, 1663.475
167.8112, 1634.562
168.2934, 1605.472
168.7755, 1574.367
169.2576, 1537.764
169.7397, 1495.836
170.2218, 1456.879
170.7039, 1422.912
171.1861, 1393.509
171.6682, 1370.571
172.1503, 1355.160
172.6324, 1337.677
173.1145, 1305.808
173.5966, 1258.332
174.0788, 1217.828
174.5609, 1195.596
175.0430, 1179.056
175.5251, 1159.634
176.0072, 1136.201
176.4893, 1110.440
176.9715, 1082.168
177.4536, 1050.364
177.9357, 1024.716
178.4178, 1014.920
178.8999, 1007.403
179.3820, 991.2441
179.8642, 964.4079
180.3463, 937.7933
180.8284, 924.2231
181.3105, 925.6299
181.7926, 926.9644
182.2747, 926.7842
182.7569, 924.2244
183.2390, 917.6457
183.7211, 906.7564
184.2032, 894.7836
184.6853, 885.6088
185.1674, 879.8495
185.6496, 873.4005
186.1317, 865.1817
186.6138, 856.1160
187.0959, 845.8738
187.5780, 834.4970
188.0601, 824.3340
188.5423, 819.1630
189.0244, 820.2501
189.5065, 819.1980
189.9886, 816.7053
190.4707, 810.0250
190.9528, 794.2991
191.4350, 769.3284
191.9171, 744.6322
192.3992, 732.1533
192.8813, 734.2516
193.3634, 735.5023
193.8455, 732.3479
194.3277, 728.6617
194.8098, 726.8683
195.2919, 727.2021
195.7740, 727.6341
196.2561, 725.5137
196.7382, 720.2403
197.2204, 716.0825
197.7025, 716.4503
198.1846, 716.0220
198.6667, 710.3369
199.1488, 699.5707
199.6309, 689.5659
200.1131, 687.6927
200.5952, 695.5770
201.0773, 700.8247
201.5594, 699.0903
202.0415, 696.6774
202.5236, 698.1743
203.0058, 703.1309
203.4879, 705.7164
203.9700, 698.0087
204.4521, 678.2312
204.9342, 663.6792
205.4163, 660.7407
205.8985, 659.3114
206.3806, 654.2917
206.8627, 645.8971
207.3448, 637.9183
207.8269, 634.3651
208.3090, 635.5638
208.7912, 636.1283
209.2733, 638.7548
209.7554, 637.7620
210.2375, 628.9117
210.7196, 613.4553
211.2017, 596.7974
211.6839, 581.8317
212.1660, 568.5488
212.6481, 561.5071
213.1302, 567.2109
213.6123, 572.8405
214.0944, 570.9890
214.5765, 563.7435
215.0587, 558.2659
215.5408, 562.5573
216.0229, 575.4990
216.5050, 579.5098
216.9871, 568.2052
217.4692, 554.9197
217.9514, 545.3799
218.4335, 538.6016
218.9156, 531.5073
219.3977, 520.6021
219.8798, 507.2822
220.3619, 500.7802
220.8441, 506.2424
221.3262, 511.4766
221.8083, 510.9389
222.2904, 506.5573
222.7725, 502.0746
223.2546, 499.9369
223.7368, 499.2038
224.2189, 496.5163
224.7010, 491.0215
225.1831, 484.9341
225.6652, 476.9752
226.1473, 469.4676
226.6295, 466.4928
227.1116, 471.5337
227.5937, 480.9046
228.0758, 486.0091
228.5579, 486.1201
229.0400, 483.4550
229.5222, 477.0178
230.0043, 469.1386
230.4864, 462.6750
230.9685, 459.0563
231.4506, 456.7235
231.9327, 452.7596
232.4149, 446.3845
232.8970, 441.1031
233.3791, 439.6323
233.8612, 439.3781
234.3433, 437.8787
234.8254, 434.3102
235.3076, 429.7715
235.7897, 425.3886
236.2718, 421.0813
236.7539, 417.4439
237.2360, 414.4576
237.7181, 412.4549
238.2003, 412.6774
238.6824, 416.0242
239.1645, 418.1393
239.6466, 413.5125
240.1287, 402.2305
240.6108, 392.9002
241.0930, 388.6180
241.5751, 386.8696
242.0572, 385.0009
242.5393, 382.8141
243.0214, 381.3027
243.5035, 382.2646
243.9857, 385.0294
244.4678, 385.0459
244.9499, 379.2924
245.4320, 373.1363
245.9141, 373.7056
246.3962, 380.8996
246.8784, 384.5523
247.3605, 375.3683
247.8426, 358.4088
248.3247, 348.2050
248.8068, 348.4079
249.2889, 352.7000
249.7710, 356.1271
250.2532, 358.6928
250.7353, 359.2094
251.2174, 354.8573
251.6995, 348.8931
252.1816, 347.6396
252.6637, 352.6771
253.1459, 357.6762
253.6280, 355.8782
254.1101, 348.8605
254.5922, 343.9745
255.0743, 345.7726
255.5564, 348.4603
256.0386, 344.6976
256.5207, 334.1608
257.0028, 324.3144
257.4849, 320.2592
257.9670, 321.7705
258.4492, 324.7082
258.9313, 331.5052
259.4134, 337.6275
259.8955, 339.4791
260.3776, 337.6254
260.8597, 335.0130
261.3419, 332.7995
261.8240, 331.3239
262.3061, 331.6912
262.7882, 336.7230
263.2703, 340.2230
263.7524, 338.2260
264.2346, 332.8922
264.7167, 329.3124
265.1988, 330.0477
265.6809, 333.0378
266.1630, 332.8266
266.6451, 328.1819
267.1272, 322.9600
267.6093, 317.1841
268.0915, 311.4137
268.5736, 305.7233
269.0557, 300.0970
269.5378, 296.2352
270.0199, 297.2157
270.5020, 307.7155
270.9842, 314.2048
271.4663, 314.0336
271.9484, 311.4627
272.4305, 309.5631
272.9126, 309.0375
273.3947, 309.6372
273.8769, 311.5016
274.3590, 315.9184
274.8411, 315.9979
275.3232, 308.0185
275.8053, 299.6535
276.2874, 293.8541
276.7696, 291.2630
277.2517, 292.4011
277.7338, 298.4849
278.2159, 309.7532
278.6980, 315.4313
279.1801, 311.3510
279.6623, 306.0773
280.1444, 300.3864
280.6265, 295.2961
281.1086, 292.7762
281.5907, 294.4192
282.0728, 298.5776
282.5550, 297.5311
283.0371, 285.2597
283.5192, 275.9688
284.0013, 271.9597
284.4834, 271.8673
284.9655, 275.3092
285.4477, 282.2545
285.9298, 289.5999
286.4119, 290.7241
286.8940, 282.0284
287.3761, 276.2707
287.8582, 278.2869
288.3404, 281.6316
288.8225, 281.2935
289.3046, 276.5338
289.7867, 271.3625
290.2688, 271.0063
290.7509, 276.1081
291.2331, 278.3859
291.7152, 273.8545
292.1973, 269.2450
292.6794, 269.1544
293.1615, 272.8474
293.6436, 275.9338
294.1258, 275.0159
294.6079, 270.8940
295.0900, 266.6851
295.5721, 261.0592
296.0542, 258.1944
296.5363, 262.9185
297.0185, 272.0851
297.5006, 279.1008
297.9827, 279.7410
298.4648, 277.8238
298.9469, 279.5993
299.4290, 285.6321
299.9112, 290.5417
300.3933, 291.4818
300.8754, 289.2145
301.3575, 285.0162
301.8396, 276.7462
302.3217, 269.9455
302.8039, 270.2491
303.2860, 276.1243
303.7681, 280.0271
304.2502, 278.4561
304.7323, 274.3895
305.2144, 273.6153
305.6966, 277.0613
306.1787, 280.1122
306.6608, 281.3920
307.1429, 281.3478
307.6250, 280.2538
308.1071, 278.0769
308.5893, 276.0315
309.0714, 275.6306
309.5535, 277.3160
310.0356, 279.1688
310.5177, 282.1264
310.9998, 284.5143
311.4820, 285.8193
311.9641, 285.6317
312.4462, 282.1237
312.9283, 272.5524
313.4104, 256.7290
313.8925, 250.9020
314.3747, 262.6879
314.8568, 274.4595
315.3389, 282.3060
315.8210, 285.9359
316.3031, 285.0234
316.7852, 279.1479
317.2674, 269.9713
317.7495, 262.9366
318.2316, 257.7026
318.7137, 255.4233
319.1958, 259.4059
319.6779, 264.4013
320.1601, 264.9391
320.6422, 259.7883
321.1243, 253.0233
321.6064, 250.7684
322.0885, 254.5939
322.5706, 257.2677
323.0528, 257.8296
323.5349, 257.6855
324.0170, 257.9035
324.4991, 258.1594
324.9812, 256.9396
325.4633, 251.6435
325.9455, 243.2345
326.4276, 239.0721
326.9097, 240.4333
327.3918, 244.2663
327.8739, 251.3651
328.3560, 259.2859
328.8382, 263.3687
329.3203, 259.0203
329.8024, 253.1479
330.2845, 258.6513
330.7666, 277.1635
331.2487, 289.2487
331.7309, 283.1518
332.2130, 268.2358
332.6951, 257.9880
333.1772, 253.6415
333.6593, 252.1563
334.1414, 252.6383
334.6236, 254.5983
335.1057, 257.1220
335.5878, 260.5947
336.0699, 262.9010
336.5520, 260.2193
337.0341, 252.1493
337.5162, 245.8952
337.9984, 242.6987
338.4805, 241.7994
338.9626, 243.5471
339.4447, 247.5427
339.9268, 250.8640
340.4089, 250.9254
340.8911, 247.7931
341.3732, 245.9417
341.8553, 244.7967
342.3374, 245.2747
342.8195, 249.3934
343.3016, 255.1519
343.7838, 258.9050
344.2659, 258.8724
344.7480, 256.2271
345.2301, 253.9550
345.7122, 251.3402
346.1943, 250.3475
346.6765, 252.7509
347.1586, 255.5731
347.6407, 255.9890
348.1228, 253.7535
348.6049, 251.2877
349.0870, 251.9211
349.5692, 256.5055
350.0513, 258.2964
350.5334, 255.2361
351.0155, 251.1687
351.4976, 245.6528
351.9797, 240.2834
352.4619, 238.4638
352.9440, 243.6910
353.4261, 252.7258
353.9082, 257.0580
354.3903, 255.7690
354.8724, 252.5997
355.3546, 246.4658
355.8367, 240.3328
356.3188, 237.8929
356.8009, 240.8284
357.2830, 244.0963
357.7651, 243.3305
358.2473, 239.1507
358.7294, 234.3734
359.2115, 228.8077
359.6936, 224.4447
360.1757, 224.9313
360.6578, 230.1741
361.1400, 233.7728
361.6221, 233.8248
362.1042, 231.5822
362.5863, 227.2454
363.0684, 221.1794
363.5505, 216.3879
364.0327, 215.2192
364.5148, 217.5536
364.9969, 220.6877
365.4790, 226.7232
365.9611, 231.1295
366.4432, 231.2674
366.9254, 228.9836
367.4075, 227.3163
367.8896, 227.5466
368.3717, 228.8412
368.8538, 229.5833
369.3359, 230.0213
369.8181, 229.3438
370.3002, 227.3315
370.7823, 224.5353
371.2644, 220.2407
371.7465, 215.1153
372.2286, 211.6628
372.7108, 212.8274
373.1929, 218.4000
373.6750, 221.5339
374.1571, 219.9801
374.6392, 219.0367
375.1213, 220.5405
375.6035, 223.8080
376.0856, 228.3954
376.5677, 235.2075
377.0498, 240.7986
377.5319, 237.5844
378.0140, 224.7139
378.4962, 218.7278
378.9783, 229.8085
379.4604, 245.3386
379.9425, 250.0208
380.4246, 242.8209
380.9067, 235.6799
381.3889, 235.7134
381.8710, 238.9392
382.3531, 237.6499
382.8352, 230.4941
383.3173, 224.0474
383.7994, 224.4038
384.2816, 231.3792
384.7637, 235.3894
385.2458, 235.3706
385.7279, 233.5197
386.2100, 229.1447
386.6921, 223.8262
387.1743, 221.3018
387.6564, 223.4691
388.1385, 227.9201
388.6206, 229.0601
389.1027, 222.3363
389.5848, 219.3240
390.0670, 224.2806
390.5491, 229.5578
391.0312, 228.3518
391.5133, 221.1008
391.9954, 214.0981
392.4775, 213.2455
392.9597, 218.3953
393.4418, 223.3355
393.9239, 228.9610
394.4060, 233.0310
394.8881, 234.6629
395.3702, 234.5300
395.8524, 233.7375
396.3345, 232.8991
396.8166, 230.8554
397.2987, 224.1558
397.7808, 212.6751
398.2629, 206.8998
398.7451, 212.6752
399.2272, 221.8168
399.7093, 225.1293
400.1914, 222.7383
400.6735, 219.9666
401.1556, 219.4879
401.6378, 219.4245
402.1199, 216.3070
402.6020, 210.0865
403.0841, 205.5502
403.5662, 206.7006
404.0483, 212.6084
404.5305, 215.9222
405.0126, 214.0700
405.4947, 213.0744
405.9768, 217.3645
406.4589, 222.6658
406.9410, 221.1154
407.4231, 210.5150
407.9052, 198.5481
408.3874, 197.3875
408.8695, 211.9957
409.3516, 222.6429
409.8337, 229.2788
410.3158, 232.3856
410.7979, 229.4769
411.2801, 223.0604
411.7622, 219.1506
412.2443, 222.3406
412.7264, 229.6379
413.2085, 231.4294
413.6906, 224.8546
414.1728, 221.2881
414.6549, 229.1146
415.1370, 239.2226
415.6191, 243.5364
416.1012, 240.7549
416.5833, 235.4163
417.0655, 229.3075
417.5476, 223.0481
418.0297, 218.0217
418.5118, 214.2231
418.9939, 212.9012
419.4760, 217.0668
419.9582, 225.8678
420.4403, 228.7086
420.9224, 217.1110
421.4045, 207.5140
421.8866, 212.1279
422.3687, 225.0452
422.8509, 232.7994
423.3330, 229.5251
423.8151, 220.1362
424.2972, 213.9654
424.7793, 211.8014
425.2614, 211.7442
425.7436, 216.3458
426.2257, 220.6645
426.7078, 220.3814
427.1899, 216.7054
427.6720, 214.5908
428.1541, 218.1509
428.6363, 226.0089
429.1184, 232.3268
429.6005, 237.9753
430.0826, 240.0250
430.5647, 234.8812
431.0468, 227.1662
431.5290, 220.4445
432.0111, 215.2071
432.4932, 212.8657
432.9753, 217.2220
433.4574, 225.5547
433.9395, 228.7493
434.4217, 224.7497
434.9038, 218.1731
435.3859, 212.2860
435.8680, 207.1785
436.3501, 203.1234
436.8322, 199.1118
437.3144, 197.1398
437.7965, 199.6387
438.2786, 204.8751
438.7607, 209.1247
439.2428, 210.8116
439.7249, 211.1369
440.2071, 212.4296
440.6892, 215.9423
441.1713, 217.6442
441.6534, 215.2262
442.1355, 213.2910
442.6176, 215.2624
443.0998, 220.1181
443.5819, 224.3995
444.0640, 225.8702
444.5461, 224.9982
445.0282, 222.8699
445.5103, 218.7592
445.9925, 215.5882
446.4746, 215.9281
446.9567, 216.6646
447.4388, 214.2318
447.9209, 207.9785
448.4030, 203.2250
448.8852, 203.9791
449.3673, 208.3293
449.8494, 213.3363
450.3315, 218.9109
450.8136, 222.1800
451.2957, 220.1819
451.7779, 213.6950
452.2600, 209.7736
452.7421, 209.2995
453.2242, 210.0927
453.7063, 212.0949
454.1884, 214.7162
454.6706, 217.3556
455.1527, 219.7818
455.6348, 221.7459
456.1169, 222.8160
456.5990, 222.7795
457.0811, 222.9023
457.5633, 224.2655
458.0454, 224.6654
458.5275, 222.7650
459.0096, 219.4980
459.4917, 216.3856
459.9738, 213.9814
460.4560, 212.3800
460.9381, 212.1251
461.4202, 213.2682
461.9023, 213.5541
462.3844, 212.0434
462.8665, 210.0204
463.3487, 209.0769
463.8308, 209.1012
464.3129, 208.2392
464.7950, 205.0028
465.2771, 201.3835
465.7592, 197.8703
466.2414, 195.2531
466.7235, 197.4736
467.2056, 207.5075
467.6877, 221.2636
468.1698, 228.0197
468.6519, 222.1514
469.1341, 216.9094
469.6162, 211.0094
470.0983, 206.7135
470.5804, 207.1029
471.0625, 211.0677
471.5446, 213.5430
472.0268, 209.6118
472.5089, 201.6091
472.9910, 200.6460
473.4731, 210.2197
473.9552, 218.1398
474.4373, 219.6765
474.9195, 217.8421
475.4016, 213.8687
475.8837, 207.5455
476.3658, 203.6786
476.8479, 207.8627
477.3300, 215.6876
477.8121, 218.7195
478.2943, 216.0212
478.7764, 211.2724
479.2585, 206.4681
479.7406, 201.8452
480.2227, 199.0655
480.7048, 200.2619
481.1870, 200.3514
481.6691, 196.0237
482.1512, 191.1941
482.6333, 190.4010
483.1154, 194.4297
483.5975, 200.6078
484.0797, 206.1716
484.5618, 211.0654
485.0439, 217.9120
485.5260, 232.1918
486.0081, 240.1917
486.4902, 231.7316
486.9724, 217.4664
487.4545, 212.0494
487.9366, 220.6596
488.4187, 230.8764
488.9008, 231.5354
489.3829, 224.7665
489.8651, 217.3419
490.3472, 209.7379
490.8293, 204.4561
491.3114, 204.3573
491.7935, 209.2662
492.2756, 212.9001
492.7578, 215.4626
493.2399, 216.5715
493.7220, 215.3411
494.2041, 212.8075
494.6862, 209.8217
495.1683, 206.8210
495.6505, 205.3790
496.1326, 208.5092
496.6147, 217.6211
497.0968, 221.1463
497.5789, 214.9086
498.0610, 207.5758
498.5432, 198.8490
499.0253, 191.9267
499.5074, 192.3444
499.9895, 203.4118
500.4716, 216.7375
500.9537, 223.9523
501.4359, 225.8204
501.9180, 226.3925
502.4001, 226.7335
502.8822, 224.6489
503.3643, 216.0541
503.8464, 201.5038
504.3286, 193.9177
504.8107, 199.3134
505.2928, 205.7059
505.7749, 207.7143
506.2570, 207.2389
506.7391, 207.6255
507.2213, 209.9460
507.7034, 212.7516
508.1855, 214.4704
508.6676, 215.4529
509.1497, 212.8922
509.6318, 200.1850
510.1140, 191.7029
510.5961, 195.8740
511.0782, 206.4977
511.5603, 213.5636
512.0424, 213.1913
512.5245, 210.9301
513.0067, 213.1409
513.4888, 218.4165
513.9709, 220.5988
514.4530, 218.2318
514.9351, 213.9479
515.4172, 209.6569
515.8994, 205.4285
516.3815, 201.9951
516.8636, 197.9502
517.3457, 196.2579
517.8278, 200.0918
518.3099, 206.1492
518.7921, 209.7076
519.2742, 209.5156
519.7563, 208.1131
520.2384, 208.9700
520.7205, 212.4297
521.2026, 212.4568
521.6848, 205.3335
522.1669, 200.2318
522.6490, 202.3633
523.1311, 207.6957
523.6132, 210.3421
524.0953, 208.2315
524.5775, 206.5520
525.0596, 211.2976
525.5417, 219.1568
526.0238, 221.6456
526.5059, 217.2895
526.9880, 210.9511
527.4702, 205.8083
527.9523, 201.9627
528.4344, 200.6860
528.9165, 205.7118
529.3986, 208.2114
529.8807, 204.3784
530.3629, 198.5021
530.8450, 194.2899
531.3271, 192.6787
531.8092, 193.5227
532.2913, 197.6008
532.7734, 204.1153
533.2556, 207.8769
533.7377, 208.6731
534.2198, 207.1870
534.7019, 202.3184
535.1840, 195.9764
535.6661, 188.8306
536.1483, 179.9162
536.6304, 177.2283
537.1125, 192.1719
537.5946, 210.9498
538.0767, 214.3330
538.5588, 202.9754
539.0410, 191.0035
539.5231, 186.8328
540.0052, 189.0961
540.4873, 193.6406
540.9694, 204.0186
541.4515, 210.8508
541.9337, 213.0438
542.4158, 212.6440
542.8979, 208.6761
543.3800, 202.9948
543.8621, 201.0154
544.3442, 208.1011
544.8264, 218.0548
545.3085, 218.4266
545.7906, 209.1579
546.2727, 200.5970
546.7548, 195.2151
547.2369, 192.4927
547.7191, 192.3642
548.2012, 194.8319
548.6833, 197.7663
549.1654, 201.5447
549.6475, 205.1411
550.1296, 209.3474
550.6118, 212.7032
551.0939, 211.1228
551.5760, 203.1922
552.0581, 194.5703
552.5402, 195.1949
553.0223, 207.6289
553.5045, 213.5030
553.9866, 207.6690
554.4687, 201.9352
554.9508, 201.9353
555.4329, 205.2764
555.9150, 207.9199
556.3972, 208.2523
556.8793, 209.7488
557.3614, 217.9306
557.8435, 228.3298
558.3256, 230.5814
558.8077, 223.2475
559.2899, 214.9906
559.7720, 212.8655
560.2541, 215.8879
560.7362, 216.3211
561.2183, 212.1966
561.7004, 207.8501
562.1826, 200.5052
562.6647, 195.2674
563.1468, 199.1476
563.6289, 210.5281
564.1110, 218.7997
564.5931, 214.3224
565.0753, 202.4230
565.5574, 195.9817
566.0395, 195.2789
566.5216, 195.7522
567.0037, 196.7021
567.4858, 197.0493
567.9680, 194.6918
568.4501, 189.3665
568.9322, 185.0117
569.4143, 178.8167
569.8964, 176.8818
570.3785, 188.3487
570.8607, 205.9896
571.3428, 214.5969
571.8249, 207.9257
572.3070, 195.1549
572.7891, 189.9626
573.2712, 193.1102
573.7534, 198.3253
574.2355, 209.4376
574.7176, 216.7068
575.1997, 210.4409
575.6818, 198.7067
576.1639, 195.5854
576.6461, 207.3500
577.1282, 217.4947
577.6103, 213.9179
578.0924, 203.8694
578.5745, 198.1013
579.0566, 197.9091
579.5388, 199.8902
580.0209, 201.6593
580.5030, 203.4282
580.9851, 206.5035
581.4672, 214.5585
581.9493, 217.4086
582.4314, 209.5439
582.9135, 200.6797
583.3956, 198.1960
583.8777, 200.9008
584.3599, 202.0598
584.8420, 196.1149
585.3241, 189.0567
585.8062, 190.3003
586.2883, 198.2421
586.7704, 203.7628
587.2526, 204.0937
587.7347, 201.6158
588.2168, 198.3927
588.6989, 194.0681
589.1810, 192.8700
589.6631, 196.2302
590.1453, 200.6577
590.6274, 208.4819
591.1095, 215.1096
591.5916, 213.0851
592.0737, 201.7429
592.5558, 191.2738
593.0380, 193.1319
593.5201, 204.0778
594.0022, 210.5691
594.4843, 212.0571
594.9664, 212.7593
595.4485, 215.1175
595.9307, 217.2007
596.4128, 214.5618
596.8949, 205.6505
597.3770, 199.6809
597.8591, 198.8488
598.3412, 200.5732
598.8234, 203.7195
599.3055, 208.0070
599.7876, 214.1922
600.2697, 222.6783
600.7518, 229.7999
601.2339, 228.3056
601.7161, 217.6160
602.1982, 211.4427
602.6803, 212.4126
603.1624, 214.3796
603.6445, 214.4242
604.1266, 212.8450
604.6088, 209.8327
605.0909, 204.4230
605.5730, 199.9358
606.0551, 196.6282
606.5372, 195.5479
607.0193, 199.0921
607.5015, 206.3694
607.9836, 213.6298
608.4657, 218.6961
608.9478, 221.1127
609.4299, 218.6287
609.9120, 208.7039
610.3942, 202.7701
610.8763, 203.5452
611.3584, 207.2086
611.8405, 212.7889
612.3226, 219.2387
612.8047, 223.6855
613.2869, 225.4825
613.7690, 224.9568
614.2511, 220.7000
614.7332, 214.8017
615.2153, 210.9427
615.6974, 209.6725
616.1796, 209.1353
616.6617, 207.8638
617.1438, 205.9174
617.6259, 203.5097
618.1080, 199.8690
618.5901, 197.3542
619.0723, 196.6919
619.5544, 196.9990
620.0365, 197.8532
620.5186, 199.2086
621.0007, 201.0639
621.4828, 203.2735
621.9650, 206.1194
622.4471, 211.3235
622.9292, 217.2587
623.4113, 219.1648
623.8934, 215.8624
624.3755, 211.1008
624.8577, 208.5259
625.3398, 208.1157
625.8219, 208.7008
626.3040, 210.1851
626.7861, 212.8789
627.2682, 219.3529
627.7504, 225.1512
628.2325, 225.7809
628.7146, 221.4633
629.1967, 217.1488
629.6788, 215.0820
630.1609, 214.5673
630.6431, 214.7129
631.1252, 215.6766
631.6073, 218.9401
632.0894, 225.1681
632.5715, 230.3468
633.0536, 229.0235
633.5358, 220.5590
634.0179, 215.5663
634.5000, 217.8839
634.9821, 218.6923
635.4642, 213.6192
635.9464, 207.8882
636.4285, 207.0140
636.9106, 211.4035
637.3927, 216.4471
637.8748, 219.9449
638.3569, 222.2095
638.8391, 223.5275
639.3212, 223.9679
639.8033, 223.8479
640.2854, 223.2893
640.7675, 222.1117
641.2496, 220.1355
641.7318, 217.3977
642.2139, 213.4082
642.6960, 204.7514
643.1781, 199.1817
643.6602, 200.2520
644.1423, 204.0897
644.6245, 206.8236
645.1066, 207.8813
645.5887, 208.7771
646.0708, 210.9183
646.5529, 213.1091
647.0350, 212.4634
647.5172, 210.0880
647.9993, 211.9008
648.4814, 220.4931
648.9635, 230.1186
649.4456, 232.7559
649.9277, 227.6673
650.4099, 221.9366
650.8920, 211.9597
651.3741, 206.2615
651.8562, 209.4660
652.3383, 216.2969
652.8204, 222.2117
653.3026, 226.3929
653.7847, 228.2569
654.2668, 225.0656
654.7489, 221.0462
655.2310, 222.3241
655.7131, 227.4475
656.1953, 230.9485
656.6774, 230.8782
657.1595, 227.9777
657.6416, 222.7168
658.1237, 214.7660
658.6058, 208.6530
659.0880, 201.8073
659.5701, 200.9108
660.0522, 214.1919
660.5343, 229.7205
661.0164, 235.3838
661.4985, 230.2033
661.9807, 223.6230
662.4628, 218.5007
662.9449, 214.9709
663.4270, 214.5739
663.9091, 215.7963
664.3912, 214.3679
664.8734, 209.0259
665.3555, 202.9229
665.8376, 199.6932
666.3197, 199.2896
666.8018, 199.8194
667.2839, 200.7919
667.7661, 203.7705
668.2482, 213.1073
668.7303, 221.8558
669.2124, 221.2091
669.6945, 211.7063
670.1766, 208.2567
670.6588, 223.2264
671.1409, 238.1209
671.6230, 240.0645
672.1051, 233.1149
672.5872, 222.1862
673.0693, 209.6844
673.5515, 201.3617
674.0336, 204.5449
674.5157, 216.2787
674.9978, 218.8727
675.4799, 208.9197
675.9620, 203.8192
676.4442, 212.6534
676.9263, 222.9941
677.4084, 217.9474
677.8905, 200.2052
678.3726, 194.0432
678.8547, 214.4938
679.3369, 232.9920
679.8190, 237.2795
680.3011, 233.5410
680.7832, 227.5283
681.2653, 221.1624
681.7474, 215.8047
682.2296, 212.3420
682.7117, 210.7875
683.1938, 211.4141
683.6759, 214.2376
684.1580, 218.2763
684.6401, 224.2634
685.1223, 228.7020
685.6044, 227.4447
686.0865, 221.3641
686.5686, 219.0819
687.0507, 226.3531
687.5328, 229.2379
688.0150, 221.5352
688.4971, 212.0322
688.9792, 207.0488
689.4613, 206.6310
689.9434, 208.4772
690.4255, 211.9137
690.9077, 215.7446
691.3898, 218.1045
691.8719, 219.5629
692.3540, 222.9309
692.8361, 228.7382
693.3182, 231.9491
693.8004, 227.9974
694.2825, 220.2990
694.7646, 220.7242
695.2467, 238.2751
695.7288, 246.8444
696.2109, 238.5443
696.6931, 229.2489
697.1752, 226.4796
697.6573, 227.8146
698.1394, 228.4039
698.6215, 226.8860
699.1036, 224.7993
699.5858, 222.2765
700.0679, 220.2663
700.5500, 220.8635
701.0321, 223.4467
701.5142, 224.4796
701.9963, 222.1326
702.4785, 219.3863
702.9606, 222.7488
703.4427, 233.9855
703.9248, 234.7090
704.4069, 216.5384
704.8890, 204.6755
705.3712, 218.2906
705.8533, 238.9185
706.3354, 239.5516
706.8175, 216.4301
707.2996, 202.2071
707.7817, 211.7717
708.2639, 225.1282
708.7460, 231.2717
709.2281, 232.3309
709.7102, 232.2455
710.1923, 232.2274
710.6744, 232.0477
711.1566, 232.0250
711.6387, 231.4424
712.1208, 226.3971
712.6029, 216.7173
713.0850, 212.4152
713.5671, 217.4770
714.0493, 226.0550
714.5314, 232.5918
715.0135, 237.0634
715.4956, 240.0835
715.9777, 241.3247
716.4598, 241.5992
716.9420, 240.3837
717.4241, 238.7554
717.9062, 238.0095
718.3883, 237.6909
718.8704, 235.7620
719.3525, 230.2991
719.8347, 224.8335
720.3168, 222.1274
720.7989, 222.0468
721.2810, 225.6751
721.7631, 232.5027
722.2452, 237.4833
722.7274, 237.1704
723.2095, 233.2308
723.6915, 229.8804
724.1736, 227.2729
724.6558, 224.3502
725.1379, 218.4006
725.6200, 216.0669
726.1021, 226.5982
726.5842, 241.1501
727.0663, 244.1353
727.5485, 230.2626
728.0306, 221.5550
728.5127, 229.5537
728.9948, 239.7823
729.4769, 241.3770
729.9590, 237.7069
730.4412, 237.1232
730.9233, 241.9817
731.4054, 245.8502
731.8875, 240.6566
732.3696, 229.3641
732.8517, 220.4676
733.3339, 214.0065
733.8160, 212.8281
734.2981, 218.9192
734.7802, 226.9989
735.2623, 230.6776
735.7444, 229.7682
736.2266, 232.1521
736.7087, 243.3950
737.1908, 250.2048
737.6729, 248.2682
738.1550, 243.4292
738.6371, 238.9586
739.1193, 235.5188
739.6014, 234.1030
740.0835, 236.8655
740.5656, 238.7498
741.0477, 233.4830
741.5298, 226.4082
742.0120, 227.4719
742.4941, 235.6420
742.9762, 240.0963
743.4583, 233.9156
743.9404, 223.1708
744.4225, 220.2499
744.9047, 225.4029
745.3868, 227.8230
745.8689, 226.2366
746.3510, 223.6312
746.8331, 220.4330
747.3152, 218.0061
747.7974, 219.4363
748.2795, 226.2462
748.7616, 231.5620
749.2437, 234.3411
749.7258, 236.5288
750.2079, 240.1896
750.6901, 243.0237
751.1722, 240.9113
751.6543, 233.8553
752.1364, 228.2736
752.6185, 229.2312
753.1006, 233.1191
753.5828, 236.1297
754.0649, 238.4301
754.5470, 241.3180
755.0291, 244.7963
755.5112, 245.0186
755.9933, 237.7942
756.4755, 226.0313
756.9576, 221.6414
757.4397, 226.3107
757.9218, 230.3840
758.4039, 232.7136
758.8860, 233.9489
759.3682, 233.7617
759.8503, 232.8983
760.3324, 233.7727
760.8145, 238.2227
761.2966, 240.3708
761.7787, 237.8179
762.2609, 234.1859
762.7430, 230.0532
763.2251, 226.9907
763.7072, 228.2397
764.1893, 234.5815
764.6714, 240.3204
765.1536, 240.3404
765.6357, 237.0441
766.1178, 232.6152
766.5999, 228.1563
767.0820, 229.3151
767.5641, 237.8180
768.0463, 244.5454
768.5284, 238.5794
769.0105, 222.6545
769.4926, 218.5800
769.9747, 231.0057
770.4568, 239.0041
770.9390, 235.1202
771.4211, 230.6362
771.9032, 238.1583
772.3853, 252.7627
772.8674, 255.3622
773.3495, 233.5378
773.8317, 219.8893
774.3138, 227.4442
774.7959, 238.4332
775.2780, 242.9142
775.7601, 240.9525
776.2422, 232.6671
776.7244, 217.8109
777.2065, 207.1128
777.6886, 213.1682
778.1707, 227.2670
778.6528, 237.2210
779.1349, 242.4133
779.6171, 242.1210
780.0992, 236.1650
780.5813, 228.5612
781.0634, 223.2677
781.5455, 220.4561
782.0276, 222.5512
782.5098, 231.5168
782.9919, 237.0873
783.4740, 236.2096
783.9561, 232.7713
784.4382, 228.4421
784.9203, 224.0279
785.4025, 223.8211
785.8846, 232.9003
786.3667, 238.0908
786.8488, 235.1340
787.3309, 230.6672
787.8130, 227.9470
788.2952, 226.9529
788.7773, 227.2563
789.2594, 228.8043
789.7415, 230.3990
790.2236, 231.4253
790.7057, 231.8894
791.1879, 230.4013
791.6700, 228.4625
792.1521, 231.6753
792.6342, 241.0458
793.1163, 248.6413
793.5984, 246.1037
794.0806, 235.8596
794.5627, 225.2161
795.0448, 213.6146
795.5269, 211.2012
796.0090, 222.9641
796.4911, 234.6102
796.9733, 234.9549
797.4554, 226.4638
797.9375, 218.7365
798.4196, 208.8636
798.9017, 205.1002
799.3839, 211.8944
799.8660, 219.4671
800.3481, 225.2907
800.8302, 228.5162
801.3123, 227.4253
801.7944, 221.5096
802.2766, 216.1075
802.7587, 212.5644
803.2408, 211.2260
803.7229, 213.3839
804.2050, 217.4654
804.6871, 221.6235
805.1693, 225.1532
805.6514, 226.8545
806.1335, 224.6738
806.6156, 222.4633
807.0977, 230.1390
807.5798, 244.3400
808.0620, 246.9764
808.5441, 235.5246
809.0262, 225.9874
809.5083, 228.4936
809.9904, 237.4856
810.4725, 240.2556
810.9547, 234.7290
811.4368, 234.0131
811.9189, 241.2576
812.4010, 247.1371
812.8831, 247.9961
813.3652, 245.9197
813.8474, 243.7102
814.3295, 241.3851
814.8116, 236.5704
815.2937, 222.5190
815.7758, 214.4474
816.2579, 221.4137
816.7401, 232.3642
817.2222, 239.0789
817.7043, 240.9451
818.1864, 239.1077
818.6685, 232.5722
819.1506, 227.4739
819.6328, 230.2266
820.1149, 236.2717
820.5970, 239.0868
821.0791, 239.4539
821.5612, 243.0109
822.0433, 251.5876
822.5255, 257.3202
823.0076, 247.6924
823.4897, 228.4501
823.9718, 224.5430
824.4539, 235.9005
824.9360, 247.5820
825.4182, 256.6027
825.9003, 261.4479
826.3824, 260.5321
826.8645, 254.5385
827.3466, 245.8788
827.8287, 229.9298
828.3109, 222.8563
828.7930, 231.5285
829.2751, 241.4646
829.7572, 246.0369
830.2393, 247.2251
830.7214, 248.1370
831.2036, 249.3037
831.6857, 247.6225
832.1678, 236.5296
832.6499, 229.4723
833.1320, 237.3014
833.6141, 249.2637
834.0963, 253.3077
834.5784, 248.8461
835.0605, 242.3178
835.5426, 235.2498
836.0247, 230.6241
836.5068, 233.3350
836.9890, 239.1389
837.4711, 240.7459
837.9532, 238.6970
838.4353, 238.5261
838.9174, 242.7925
839.3995, 247.9073
839.8817, 248.6637
840.3638, 246.0677
840.8459, 245.4121
841.3280, 246.6739
841.8101, 246.7732
842.2922, 244.8493
842.7744, 241.0362
843.2565, 234.7670
843.7386, 227.0231
844.2207, 223.6503
844.7028, 225.4773
845.1849, 229.6282
845.6671, 238.1590
846.1492, 245.5676
846.6313, 248.5879
847.1134, 248.4417
847.5955, 247.4029
848.0776, 245.2428
848.5598, 243.1939
849.0419, 241.1128
849.5240, 239.4673
850.0061, 237.6337
850.4882, 236.8768
850.9703, 240.2530
851.4525, 246.4442
851.9346, 248.5233
852.4167, 242.1956
852.8988, 233.8430
853.3809, 224.0189
853.8630, 216.8420
854.3452, 218.4409
854.8273, 226.9039
855.3094, 237.5174
855.7915, 248.2823
856.2736, 255.3350
856.7557, 252.3190
857.2379, 243.7589
857.7200, 239.4137
858.2021, 238.5377
858.6842, 236.4063
859.1663, 232.0198
859.6484, 231.2426
860.1306, 239.6624
860.6127, 253.0634
861.0948, 258.2506
861.5769, 254.2152
862.0590, 258.4499
862.5411, 276.4412
863.0233, 284.5462
863.5054, 266.7472
863.9875, 240.1425
864.4696, 232.4012
864.9517, 246.0707
865.4338, 254.9187
865.9159, 258.3325
866.3980, 257.8910
866.8801, 251.2263
867.3622, 243.1796
867.8444, 235.3648
868.3265, 228.8571
868.8086, 227.3537
869.2907, 234.1732
869.7728, 239.6260
870.2549, 241.1488
870.7371, 241.3118
871.2192, 241.1028
871.7013, 240.7466
872.1834, 240.0632
872.6655, 239.1602
873.1476, 239.3315
873.6298, 241.3085
874.1119, 244.5669
874.5940, 251.1867
875.0761, 257.4124
875.5582, 256.6261
876.0403, 250.0202
876.5225, 244.0108
877.0046, 241.6018
877.4867, 241.8253
877.9688, 245.6487
878.4509, 250.4942
878.9330, 249.3068
879.4152, 243.4169
879.8973, 240.0388
880.3794, 241.2418
880.8615, 244.4158
881.3436, 247.5732
881.8257, 250.1454
882.3079, 250.4354
882.7900, 248.4371
883.2721, 244.1936
883.7542, 236.9977
884.2363, 232.6438
884.7184, 234.7937
885.2006, 239.8904
885.6827, 241.7910
886.1648, 240.0909
886.6469, 240.7546
887.1290, 245.9107
887.6111, 248.3887
888.0933, 245.8623
888.5754, 240.8125
889.0575, 231.1685
889.5396, 220.3522
890.0217, 224.6017
890.5038, 262.0150
890.9860, 278.7104
891.4681, 252.5642
891.9502, 228.8743
892.4323, 228.6810
892.9144, 239.4435
893.3965, 246.3358
893.8787, 248.0437
894.3608, 248.9580
894.8429, 252.0060
895.3250, 252.3027
895.8071, 244.7409
896.2892, 236.2332
896.7714, 231.9040
897.2535, 231.9677
897.7356, 237.1184
898.2177, 248.0276
898.6998, 255.1082
899.1819, 247.4443
899.6641, 237.0584
900.1462, 236.8438
900.6283, 242.2237
901.1104, 243.8709
901.5925, 241.1461
902.0746, 240.6181
902.5568, 246.6701
903.0389, 255.2522
903.5210, 261.9613
904.0031, 266.9340
904.4852, 270.9260
904.9673, 273.6457
905.4495, 273.5530
905.9316, 270.1052
906.4137, 263.7007
906.8958, 253.3630
907.3779, 241.8286
907.8600, 238.2436
908.3422, 242.0684
908.8243, 247.3087
909.3064, 253.3845
909.7885, 254.1047
910.2706, 244.4850
910.7527, 233.4534
911.2349, 238.4232
911.7170, 259.9026
912.1991, 271.7326
912.6812, 272.5541
913.1633, 269.2036
913.6454, 262.3766
914.1276, 253.9667
914.6097, 244.4132
915.0918, 235.1852
915.5739, 232.3367
916.0560, 239.9577
916.5381, 243.2966
917.0203, 238.4160
917.5024, 235.5797
917.9845, 240.5939
918.4666, 247.8630
918.9487, 252.1628
919.4308, 253.3999
919.9130, 249.4963
920.3951, 231.4567
920.8772, 221.5228
921.3593, 226.5218
921.8414, 235.3292
922.3235, 243.6858
922.8057, 250.9751
923.2878, 257.2802
923.7699, 262.8687
924.2520, 264.0536
924.7341, 255.9903
925.2162, 248.3571
925.6984, 245.0140
926.1805, 243.8619
926.6626, 242.9406
927.1447, 242.4712
927.6268, 243.8119
928.1089, 247.6411
928.5911, 251.6907
929.0732, 256.3009
929.5553, 259.1322
930.0374, 255.4562
930.5195, 250.4242
931.0016, 253.3652
931.4838, 263.3212
931.9659, 269.0125
932.4480, 263.0830
932.9301, 255.8576
933.4122, 256.6916
933.8943, 261.0293
934.3765, 263.6047
934.8586, 264.4641
935.3407, 265.2127
935.8228, 266.0941
936.3049, 264.9311
936.7870, 258.2949
937.2692, 251.5842
937.7513, 254.7967
938.2334, 263.0299
938.7155, 264.3890
939.1976, 259.2302
939.6797, 255.7499
940.1619, 257.3686
940.6440, 259.5280
941.1261, 255.3597
941.6082, 249.0512
942.0903, 255.5621
942.5724, 270.6539
943.0546, 270.2506
943.5367, 251.8491
944.0188, 239.1274
944.5009, 246.4967
944.9830, 261.7535
945.4651, 264.7909
945.9473, 257.4235
946.4294, 253.7857
946.9115, 253.8385
947.3936, 257.0568
947.8757, 263.6932
948.3578, 267.9457
948.8400, 264.9820
949.3221, 257.4752
949.8042, 251.3268
950.2863, 246.4258
950.7684, 245.0222
951.2505, 247.4546
951.7327, 251.9153
952.2148, 258.5192
952.6969, 264.3505
953.1790, 266.4971
953.6611, 265.4298
954.1432, 263.2953
954.6254, 260.4368
955.1075, 253.8392
955.5896, 239.9167
956.0717, 233.1444
956.5538, 242.8573
957.0359, 256.4065
957.5181, 257.1507
958.0002, 246.3757
958.4823, 243.9342
958.9644, 255.5602
959.4465, 260.3378
959.9286, 252.5393
960.4108, 244.2365
960.8929, 239.7382
961.3750, 239.9535
961.8571, 247.8394
962.3392, 264.3731
962.8214, 274.9402
963.3035, 281.6225
963.7856, 278.0811
964.2677, 250.1520
964.7498, 227.8856
965.2319, 236.2098
965.7141, 259.5443
966.1962, 266.0103
966.6783, 250.9330
967.1604, 241.9343
967.6425, 242.3959
968.1246, 244.3944
968.6068, 247.4256
969.0889, 250.6780
969.5710, 256.4564
970.0531, 261.5402
970.5352, 255.6667
971.0173, 231.0063
971.4995, 222.3410
971.9816, 249.6017
972.4637, 271.1381
972.9458, 270.6124
973.4279, 262.6281
973.9100, 257.6452
974.3922, 255.9189
974.8743, 256.3726
975.3564, 259.7039
975.8385, 262.7631
976.3206, 265.9735
976.8027, 267.6270
977.2849, 266.8102
977.7670, 264.2615
978.2491, 260.3951
978.7312, 255.4547
979.2133, 249.9211
979.6954, 242.3032
980.1776, 237.9304
980.6597, 238.8143
981.1418, 242.5035
981.6239, 251.2792
982.1060, 259.7696
982.5881, 261.1472
983.0703, 256.0470
983.5524, 250.9834
984.0345, 245.6318
984.5166, 244.6396
984.9987, 255.9512
985.4808, 265.1374
985.9630, 259.3755
986.4451, 248.4466
986.9272, 246.7885
987.4093, 254.4970
987.8914, 259.2482
988.3735, 257.3123
988.8557, 251.5451
989.3378, 237.7037
989.8199, 225.8343
990.3020, 224.4286
990.7841, 228.8598
991.2662, 232.6836
991.7484, 234.7588
992.2305, 235.8725
992.7126, 237.2112
993.1947, 236.2147
993.6768, 225.7084
994.1589, 218.3402
994.6411, 227.1315
995.1232, 244.3027
995.6053, 258.0987
996.0874, 266.1953
996.5695, 270.5764
997.0516, 269.9961
997.5338, 268.8428
998.0159, 268.0592
998.4980, 268.5388
998.9801, 273.6031
999.4622, 279.3274
999.9443, 278.3508
1000.426, 269.8367
1000.909, 261.4109
1001.391, 253.2522
1001.873, 250.0098
1002.355, 260.3907
1002.837, 270.6242
1003.319, 264.9329
1003.801, 252.1043
1004.283, 250.4688
1004.766, 262.7071
1005.248, 271.6981
1005.730, 266.0636
1006.212, 260.6598
1006.694, 264.8244
1007.176, 270.2031
1007.658, 267.8097
1008.140, 262.0953
1008.622, 263.9655
1009.104, 274.7890
1009.587, 279.8328
1010.069, 268.3693
1010.551, 255.8119
1011.033, 246.5665
1011.515, 241.9068
1011.997, 243.5722
1012.479, 250.2990
1012.961, 262.4663
1013.444, 279.4101
1013.926, 288.8355
1014.408, 278.3109
1014.890, 269.2939
1015.372, 275.4691
1015.854, 282.7322
1016.336, 277.7699
1016.818, 266.4738
1017.300, 260.6549
1017.783, 262.1178
1018.265, 263.0557
1018.747, 262.1007
1019.229, 258.2412
1019.711, 246.7195
1020.193, 236.4378
1020.675, 236.1096
1021.157, 240.7786
1021.640, 241.4769
1022.122, 237.0501
1022.604, 233.9278
1023.086, 236.8743
1023.568, 237.4203
1024.050, 227.8974
1024.532, 220.1629
1025.014, 224.4600
1025.496, 234.7828
1025.979, 241.3311
1026.461, 243.1348
1026.943, 245.9953
1027.425, 254.2327
1027.907, 259.3651
1028.389, 254.0333
1028.871, 250.7484
1029.353, 260.4625
1029.836, 274.8756
1030.318, 282.3883
1030.800, 282.2666
1031.282, 280.1054
1031.764, 277.6540
1032.246, 271.8886
1032.728, 256.2514
1033.210, 244.0952
1033.693, 243.6020
1034.175, 249.4609
1034.657, 256.3427
1035.139, 263.6407
1035.621, 268.1116
1036.103, 266.5516
1036.585, 266.8048
1037.067, 271.1729
1037.549, 275.3042
1038.031, 278.1533
1038.514, 279.3905
1038.996, 278.7036
1039.478, 276.0989
1039.960, 271.3891
1040.442, 257.1130
1040.924, 254.5779
1041.406, 275.2955
1041.888, 290.6295
1042.371, 288.4420
1042.853, 279.2510
1043.335, 271.2648
1043.817, 265.1272
1044.299, 264.0319
1044.781, 270.4328
1045.263, 275.6841
1045.745, 280.9665
1046.228, 282.3510
1046.710, 276.5555
1047.192, 270.0579
1047.674, 268.6043
1048.156, 270.7157
1048.638, 271.7644
1049.120, 271.7486
1049.602, 270.2757
1050.084, 266.2398
1050.567, 264.1653
1051.049, 264.2921
1051.531, 270.8015
1052.013, 290.4291
1052.495, 312.1305
1052.977, 306.2723
1053.459, 270.7855
1053.941, 260.3639
1054.423, 278.9117
1054.906, 288.1253
1055.388, 278.6356
1055.870, 267.8409
1056.352, 266.5289
1056.834, 270.9000
1057.316, 275.0877
1057.798, 279.0671
1058.280, 282.4806
1058.763, 285.3570
1059.245, 289.1105
1059.727, 293.9047
1060.209, 295.3306
1060.691, 291.0247
1061.173, 283.6851
1061.655, 275.7203
1062.137, 268.3146
1062.620, 266.4953
1063.102, 268.7041
1063.584, 265.7225
1064.066, 258.3484
1064.548, 260.6924
1065.030, 277.7965
1065.512, 293.5872
1065.994, 291.5394
1066.476, 280.3983
1066.958, 273.2978
1067.441, 269.1136
1067.923, 265.7004
1068.405, 262.7207
1068.887, 259.3163
1069.369, 255.6601
1069.851, 254.7428
1070.333, 259.0695
1070.815, 265.8812
1071.298, 274.5476
1071.780, 282.2001
1072.262, 285.3134
1072.744, 284.2633
1073.226, 278.8610
1073.708, 270.2516
1074.190, 262.1971
1074.672, 254.9534
1075.155, 254.4738
1075.637, 273.3590
1076.119, 291.5800
1076.601, 288.5379
1077.083, 263.1003
1077.565, 282.8429
1078.047, 293.7022
1078.529, 296.1556
1079.011, 265.0269
1079.494, 277.2615
1079.976, 272.1188
1080.458, 266.2633
1080.940, 284.6026
1081.422, 258.3582
1081.904, 276.3136
1082.386, 276.6255
1082.868, 285.0123
1083.350, 275.9133
1083.833, 272.2140
1084.315, 286.0074
1084.797, 273.0998
1085.279, 279.1890
1085.761, 283.3284
1086.243, 281.8983
1086.725, 277.9110
1087.207, 275.3048
1087.689, 274.0013
1088.172, 272.2573
1088.654, 268.0302
1089.136, 268.7591
1089.618, 278.0577
1090.100, 284.8553
1090.582, 284.0316
1091.064, 280.9037
1091.546, 280.8258
1092.029, 282.7281
1092.511, 282.0235
1092.993, 277.8803
1093.475, 279.4925
1093.957, 287.9598
1094.439, 294.0868
1094.921, 295.7121
1095.403, 291.3156
1095.885, 278.7993
1096.368, 264.3844
1096.850, 259.4547
1097.332, 262.8100
1097.814, 270.1187
1098.296, 280.1332
1098.778, 283.5249
1099.260, 279.7976
1099.742, 277.9439
1100.224, 282.2513
1100.707, 288.1363
1101.189, 291.0641
1101.671, 292.0049
1102.153, 293.2916
1102.635, 293.4323
1103.117, 287.7389
1103.599, 278.3992
1104.081, 272.5633
1104.564, 271.9099
1105.046, 271.6383
1105.528, 268.5239
1106.010, 265.3452
1106.492, 263.3691
1106.974, 263.2985
1107.456, 267.2594
1107.938, 272.7202
1108.421, 277.1461
1108.903, 279.4456
1109.385, 276.6640
1109.867, 265.4485
1110.349, 258.6190
1110.831, 264.5725
1111.313, 270.9210
1111.795, 272.4242
1112.277, 271.7029
1112.760, 270.8162
1113.242, 269.6270
1113.724, 266.7941
1114.206, 261.4677
1114.688, 260.4410
1115.170, 268.4158
1115.652, 272.3799
1116.134, 265.8045
1116.616, 264.0091
1117.099, 278.7346
1117.581, 295.1394
1118.063, 293.9753
1118.545, 278.6610
1119.027, 269.6343
1119.509, 267.2378
1119.991, 269.4198
1120.473, 276.5452
1120.956, 286.1174
1121.438, 298.1619
1121.920, 305.4532
1122.402, 302.0183
1122.884, 292.1958
1123.366, 281.5182
1123.848, 271.7943
1124.330, 275.2788
1124.813, 287.7668
1125.295, 287.8145
1125.777, 274.1941
1126.259, 261.6448
1126.741, 256.8736
1127.223, 257.7401
1127.705, 264.4309
1128.187, 272.8192
1128.669, 280.0201
1129.151, 283.8155
1129.634, 276.1501
1130.116, 264.1219
1130.598, 265.0119
1131.080, 279.8944
1131.562, 291.6469
1132.044, 292.8269
1132.526, 289.1384
1133.008, 281.3804
1133.491, 272.0484
1133.973, 257.4201
1134.455, 246.1980
1134.937, 251.6613
1135.419, 267.5435
1135.901, 273.7061
1136.383, 265.1320
1136.865, 261.5671
1137.348, 253.0327
1137.830, 273.0234
1138.312, 284.1308
1138.794, 286.8325
1139.276, 255.9517
1139.758, 268.4356
1140.240, 263.5409
1140.722, 257.9336
1141.204, 276.5209
1141.687, 250.5240
1142.169, 268.7276
1142.651, 269.2874
1143.133, 277.9223
1143.615, 269.0714
1144.097, 265.6212
1144.579, 269.0685
1145.061, 272.9442
1145.543, 263.2835
1146.026, 248.2286
1146.508, 257.6943
1146.990, 281.6273
1147.472, 287.9371
1147.954, 276.6434
1148.436, 266.3812
1148.918, 264.3144
1149.400, 267.5089
1149.883, 278.6020
1150.365, 285.9948
1150.847, 274.3250
1151.329, 258.9277
1151.811, 255.0691
1152.293, 258.1188
1152.775, 259.2187
1153.257, 258.4749
1153.740, 262.9970
1154.222, 277.1339
1154.704, 287.5107
1155.186, 289.5434
1155.668, 289.5570
1156.150, 289.2874
1156.632, 287.8204
1157.114, 283.7720
1157.596, 278.6458
1158.078, 274.0425
1158.561, 270.1658
1159.043, 274.2955
1159.525, 290.9391
1160.007, 293.7368
1160.489, 278.1289
1160.971, 263.0929
1161.453, 254.2599
1161.935, 255.5557
1162.418, 272.4451
1162.900, 292.4687
1163.382, 287.9116
1163.864, 267.0662
1164.346, 258.2999
1164.828, 260.1349
1165.310, 270.1610
1165.792, 284.8160
1166.275, 292.3059
1166.757, 288.4608
1167.239, 282.2924
1167.721, 280.2017
1168.203, 279.1145
1168.685, 276.3812
1169.167, 273.4177
1169.649, 273.0359
1170.131, 272.4677
1170.614, 264.7747
1171.096, 252.5639
1171.578, 249.4337
1172.060, 261.1367
1172.542, 271.3122
1173.024, 279.5495
1173.506, 282.5260
1173.988, 275.7059
1174.470, 268.5027
1174.953, 264.9181
1175.435, 265.3369
1175.917, 271.6685
1176.399, 282.3657
1176.881, 285.3909
1177.363, 280.0309
1177.845, 274.1824
1178.327, 268.0967
1178.810, 268.0891
1179.292, 275.8453
1179.774, 282.4316
1180.256, 281.9405
1180.738, 277.3831
1181.220, 269.7177
1181.702, 263.0188
1182.184, 268.6815
1182.667, 279.1007
1183.149, 277.5381
1183.631, 268.0294
1184.113, 266.6993
1184.595, 276.3283
1185.077, 284.1019
1185.559, 283.1474
1186.041, 280.9596
1186.523, 282.1200
1187.005, 281.7984
1187.488, 273.9978
1187.970, 266.3276
1188.452, 265.8983
1188.934, 271.5087
1189.416, 281.5792
1189.898, 297.2662
1190.380, 298.3640
1190.862, 277.0697
1191.345, 265.1550
1191.827, 266.8181
1192.309, 273.6591
1192.791, 283.9809
1193.273, 290.1326
1193.755, 284.5614
1194.237, 273.3140
1194.719, 267.7925
1195.202, 266.9937
1195.684, 267.6023
1196.166, 269.6291
1196.648, 274.9139
1197.130, 281.9549
1197.612, 284.0771
1198.094, 279.3665
1198.576, 274.2352
1199.058, 271.5695
1199.541, 272.2341
1200.023, 279.2547
1200.505, 287.1525
1200.987, 296.0505
1201.469, 300.2100
1201.951, 288.2549
1202.433, 266.6306
1202.915, 257.4043
1203.397, 265.8591
1203.880, 267.3168
1204.362, 257.2615
1204.844, 250.7399
1205.326, 250.7790
1205.808, 250.0371
1206.290, 244.8033
1206.772, 240.1614
1207.254, 240.6156
1207.737, 245.8868
1208.219, 258.3926
1208.701, 274.9296
1209.183, 279.3694
1209.665, 274.8993
1210.147, 274.9444
1210.629, 279.5463
1211.111, 277.9023
1211.594, 266.9975
1212.076, 260.0827
1212.558, 268.9238
1213.040, 278.7025
1213.522, 279.9638
1214.004, 277.1902
1214.486, 268.4276
1214.968, 261.6985
1215.450, 268.2489
1215.932, 283.8347
1216.415, 294.5257
1216.897, 298.9257
1217.379, 303.0024
1217.861, 309.6864
1218.343, 307.0969
1218.825, 290.2642
1219.307, 277.6308
1219.789, 275.7606
1220.271, 281.9601
1220.754, 295.5934
1221.236, 309.1237
1221.718, 304.9193
1222.200, 290.2064
1222.682, 288.9480
1223.164, 295.9216
1223.646, 297.4507
1224.128, 293.1785
1224.611, 286.7440
1225.093, 280.0932
1225.575, 278.3787
1226.057, 285.7095
1226.539, 294.6860
1227.021, 305.9117
1227.503, 312.1469
1227.985, 304.8952
1228.468, 295.2290
1228.950, 294.5870
1229.432, 297.4353
1229.914, 291.5309
1230.396, 277.7552
1230.878, 275.9565
1231.360, 290.4535
1231.842, 290.8197
1232.324, 273.5831
1232.807, 265.3707
1233.289, 273.3290
1233.771, 285.0328
1234.253, 293.1631
1234.735, 294.5133
1235.217, 280.7674
1235.699, 262.6083
1236.181, 257.4102
1236.663, 258.4780
1237.146, 255.4792
1237.628, 251.0054
1238.110, 251.8053
1238.592, 258.0959
1239.074, 266.1041
1239.556, 276.7101
1240.038, 280.8538
1240.520, 269.1176
1241.003, 262.1471
1241.485, 265.8638
1241.967, 271.8724
1242.449, 276.7808
1242.931, 281.7003
1243.413, 288.6376
1243.895, 295.1066
1244.377, 291.7596
1244.859, 280.5759
1245.342, 278.2376
1245.824, 283.9599
1246.306, 296.8528
1246.788, 313.1995
1247.270, 317.9772
1247.752, 306.8376
1248.234, 293.3355
1248.716, 284.3690
1249.198, 280.1237
1249.681, 281.6468
1250.163, 286.8728
##END=



