##NAMES=Terlinguaite
##RRUFFID=R140878
##IDEAL CHEMISTRY=Hg_2_OCl
##LOCALITY=Terlingua, Texas, USA
##OWNER=RRUFF
##SOURCE=Tom Loomis
##DESCRIPTION=Yellow crystals, associated with red montroydite (R140877)
##STATUS=The identification of this mineral has been confirmed by single-crystal X-ray diffraction.
##URL=rruff.info/R140878
8.930109e+001, 0.000000e+000
8.978320e+001, 1.785239e+002
9.026532e+001, 1.747311e+002
9.074744e+001, 1.742581e+002
9.122955e+001, 1.781292e+002
9.171167e+001, 1.840575e+002
9.219379e+001, 1.895907e+002
9.267590e+001, 1.948305e+002
9.315802e+001, 1.996205e+002
9.364014e+001, 2.034719e+002
9.412225e+001, 2.067390e+002
9.460437e+001, 2.102987e+002
9.508649e+001, 2.143972e+002
9.556860e+001, 2.188078e+002
9.605072e+001, 2.231262e+002
9.653284e+001, 2.274201e+002
9.701495e+001, 2.324138e+002
9.749707e+001, 2.386489e+002
9.797919e+001, 2.460937e+002
9.846130e+001, 2.547803e+002
9.894342e+001, 2.645586e+002
9.942554e+001, 2.754702e+002
9.990765e+001, 2.883271e+002
1.003898e+002, 3.034770e+002
1.008719e+002, 3.198895e+002
1.013540e+002, 3.374887e+002
1.018361e+002, 3.582647e+002
1.023182e+002, 3.740253e+002
1.028004e+002, 3.827247e+002
1.032825e+002, 3.852503e+002
1.037646e+002, 3.783587e+002
1.042467e+002, 3.599615e+002
1.047288e+002, 3.338953e+002
1.052109e+002, 3.084618e+002
1.056931e+002, 2.816819e+002
1.061752e+002, 2.578277e+002
1.066573e+002, 2.384216e+002
1.071394e+002, 2.242047e+002
1.076215e+002, 2.129646e+002
1.081036e+002, 2.053867e+002
1.085858e+002, 2.009117e+002
1.090679e+002, 1.967982e+002
1.095500e+002, 1.927198e+002
1.100321e+002, 1.891935e+002
1.105142e+002, 1.865139e+002
1.109963e+002, 1.846340e+002
1.114785e+002, 1.835780e+002
1.119606e+002, 1.837475e+002
1.124427e+002, 1.850762e+002
1.129248e+002, 1.859596e+002
1.134069e+002, 1.870518e+002
1.138890e+002, 1.872276e+002
1.143712e+002, 1.855849e+002
1.148533e+002, 1.820101e+002
1.153354e+002, 1.765962e+002
1.158175e+002, 1.689587e+002
1.162996e+002, 1.588484e+002
1.167817e+002, 1.484824e+002
1.172639e+002, 1.377077e+002
1.177460e+002, 1.272467e+002
1.182281e+002, 1.180231e+002
1.187102e+002, 1.104977e+002
1.191923e+002, 1.041639e+002
1.196744e+002, 9.886372e+001
1.201566e+002, 9.461234e+001
1.206387e+002, 9.113081e+001
1.211208e+002, 8.845321e+001
1.216029e+002, 8.643662e+001
1.220850e+002, 8.483096e+001
1.225671e+002, 8.358733e+001
1.230493e+002, 8.264977e+001
1.235314e+002, 8.197433e+001
1.240135e+002, 8.156985e+001
1.244956e+002, 8.137589e+001
1.249777e+002, 8.141877e+001
1.254598e+002, 8.165178e+001
1.259420e+002, 8.190518e+001
1.264241e+002, 8.189812e+001
1.269062e+002, 8.185318e+001
1.273883e+002, 8.220322e+001
1.278704e+002, 8.312284e+001
1.283525e+002, 8.436126e+001
1.288347e+002, 8.540740e+001
1.293168e+002, 8.629846e+001
1.297989e+002, 8.758527e+001
1.302810e+002, 8.998860e+001
1.307631e+002, 9.324372e+001
1.312452e+002, 9.635559e+001
1.317274e+002, 9.902627e+001
1.322095e+002, 1.014127e+002
1.326916e+002, 1.038012e+002
1.331737e+002, 1.061693e+002
1.336558e+002, 1.088551e+002
1.341379e+002, 1.122363e+002
1.346201e+002, 1.163114e+002
1.351022e+002, 1.209455e+002
1.355843e+002, 1.260940e+002
1.360664e+002, 1.317574e+002
1.365485e+002, 1.378115e+002
1.370306e+002, 1.443436e+002
1.375128e+002, 1.511440e+002
1.379949e+002, 1.581928e+002
1.384770e+002, 1.655532e+002
1.389591e+002, 1.729893e+002
1.394412e+002, 1.806204e+002
1.399233e+002, 1.884264e+002
1.404055e+002, 1.957257e+002
1.408876e+002, 2.024263e+002
1.413697e+002, 2.087335e+002
1.418518e+002, 2.149617e+002
1.423339e+002, 2.209429e+002
1.428160e+002, 2.271525e+002
1.432982e+002, 2.338192e+002
1.437803e+002, 2.410201e+002
1.442624e+002, 2.482357e+002
1.447445e+002, 2.553438e+002
1.452266e+002, 2.625173e+002
1.457087e+002, 2.697645e+002
1.461909e+002, 2.768341e+002
1.466730e+002, 2.844428e+002
1.471551e+002, 2.929266e+002
1.476372e+002, 3.019927e+002
1.481193e+002, 3.123164e+002
1.486014e+002, 3.243405e+002
1.490836e+002, 3.376675e+002
1.495657e+002, 3.514491e+002
1.500478e+002, 3.649100e+002
1.505299e+002, 3.791340e+002
1.510120e+002, 3.947159e+002
1.514941e+002, 4.124052e+002
1.519763e+002, 4.303538e+002
1.524584e+002, 4.490739e+002
1.529405e+002, 4.682524e+002
1.534226e+002, 4.867354e+002
1.539047e+002, 5.055753e+002
1.543868e+002, 5.229518e+002
1.548690e+002, 5.378724e+002
1.553511e+002, 5.514520e+002
1.558332e+002, 5.612626e+002
1.563153e+002, 5.671290e+002
1.567974e+002, 5.689711e+002
1.572795e+002, 5.661805e+002
1.577617e+002, 5.583930e+002
1.582438e+002, 5.460623e+002
1.587259e+002, 5.295169e+002
1.592080e+002, 5.069212e+002
1.596901e+002, 4.819595e+002
1.601722e+002, 4.548684e+002
1.606544e+002, 4.257946e+002
1.611365e+002, 3.969845e+002
1.616186e+002, 3.683344e+002
1.621007e+002, 3.408628e+002
1.625828e+002, 3.148095e+002
1.630649e+002, 2.901025e+002
1.635471e+002, 2.672899e+002
1.640292e+002, 2.467211e+002
1.645113e+002, 2.284062e+002
1.649934e+002, 2.118134e+002
1.654755e+002, 1.967457e+002
1.659576e+002, 1.831750e+002
1.664398e+002, 1.712557e+002
1.669219e+002, 1.613531e+002
1.674040e+002, 1.527181e+002
1.678861e+002, 1.450840e+002
1.683682e+002, 1.384083e+002
1.688503e+002, 1.324387e+002
1.693325e+002, 1.270329e+002
1.698146e+002, 1.222061e+002
1.702967e+002, 1.180554e+002
1.707788e+002, 1.149248e+002
1.712609e+002, 1.122576e+002
1.717430e+002, 1.095173e+002
1.722252e+002, 1.066103e+002
1.727073e+002, 1.040309e+002
1.731894e+002, 1.022771e+002
1.736715e+002, 1.011449e+002
1.741536e+002, 1.002269e+002
1.746357e+002, 9.942837e+001
1.751179e+002, 9.866777e+001
1.756000e+002, 9.779462e+001
1.760821e+002, 9.677013e+001
1.765642e+002, 9.582925e+001
1.770463e+002, 9.514297e+001
1.775284e+002, 9.471593e+001
1.780106e+002, 9.457026e+001
1.784927e+002, 9.473449e+001
1.789748e+002, 9.518214e+001
1.794569e+002, 9.584171e+001
1.799390e+002, 9.669198e+001
1.804211e+002, 9.783223e+001
1.809033e+002, 9.929310e+001
1.813854e+002, 1.011254e+002
1.818675e+002, 1.035059e+002
1.823496e+002, 1.070115e+002
1.828317e+002, 1.111163e+002
1.833138e+002, 1.148998e+002
1.837960e+002, 1.183679e+002
1.842781e+002, 1.211052e+002
1.847602e+002, 1.224196e+002
1.852423e+002, 1.223725e+002
1.857244e+002, 1.213906e+002
1.862065e+002, 1.191108e+002
1.866887e+002, 1.159723e+002
1.871708e+002, 1.135775e+002
1.876529e+002, 1.121230e+002
1.881350e+002, 1.114222e+002
1.886171e+002, 1.112609e+002
1.890992e+002, 1.116349e+002
1.895814e+002, 1.124296e+002
1.900635e+002, 1.135836e+002
1.905456e+002, 1.151131e+002
1.910277e+002, 1.169972e+002
1.915098e+002, 1.192450e+002
1.919919e+002, 1.218422e+002
1.924741e+002, 1.246789e+002
1.929562e+002, 1.277344e+002
1.934383e+002, 1.311824e+002
1.939204e+002, 1.350381e+002
1.944025e+002, 1.393139e+002
1.948846e+002, 1.442473e+002
1.953668e+002, 1.499175e+002
1.958489e+002, 1.562024e+002
1.963310e+002, 1.628718e+002
1.968131e+002, 1.699428e+002
1.972952e+002, 1.772314e+002
1.977773e+002, 1.847344e+002
1.982595e+002, 1.924226e+002
1.987416e+002, 2.003463e+002
1.992237e+002, 2.087138e+002
1.997058e+002, 2.170675e+002
2.001879e+002, 2.241358e+002
2.006700e+002, 2.300054e+002
2.011522e+002, 2.344961e+002
2.016343e+002, 2.379485e+002
2.021164e+002, 2.405749e+002
2.025985e+002, 2.399540e+002
2.030806e+002, 2.356879e+002
2.035627e+002, 2.280662e+002
2.040449e+002, 2.175924e+002
2.045270e+002, 2.037858e+002
2.050091e+002, 1.886990e+002
2.054912e+002, 1.733049e+002
2.059733e+002, 1.573520e+002
2.064554e+002, 1.425569e+002
2.069376e+002, 1.289436e+002
2.074197e+002, 1.167200e+002
2.079018e+002, 1.062449e+002
2.083839e+002, 9.764697e+001
2.088660e+002, 9.044682e+001
2.093481e+002, 8.457149e+001
2.098303e+002, 8.018942e+001
2.103124e+002, 7.621114e+001
2.107945e+002, 7.245983e+001
2.112766e+002, 6.904898e+001
2.117587e+002, 6.636435e+001
2.122408e+002, 6.456870e+001
2.127230e+002, 6.314994e+001
2.132051e+002, 6.174962e+001
2.136872e+002, 6.030362e+001
2.141693e+002, 5.909265e+001
2.146514e+002, 5.816865e+001
2.151335e+002, 5.750334e+001
2.156157e+002, 5.704881e+001
2.160978e+002, 5.690822e+001
2.165799e+002, 5.677764e+001
2.170620e+002, 5.643619e+001
2.175441e+002, 5.578955e+001
2.180262e+002, 5.519648e+001
2.185084e+002, 5.467747e+001
2.189905e+002, 5.423145e+001
2.194726e+002, 5.388501e+001
2.199547e+002, 5.366632e+001
2.204368e+002, 5.349057e+001
2.209189e+002, 5.331599e+001
2.214011e+002, 5.316029e+001
2.218832e+002, 5.295215e+001
2.223653e+002, 5.265165e+001
2.228474e+002, 5.229444e+001
2.233295e+002, 5.204186e+001
2.238116e+002, 5.197501e+001
2.242938e+002, 5.189465e+001
2.247759e+002, 5.165016e+001
2.252580e+002, 5.110187e+001
2.257401e+002, 5.074774e+001
2.262222e+002, 5.072167e+001
2.267043e+002, 5.091607e+001
2.271865e+002, 5.085420e+001
2.276686e+002, 5.039227e+001
2.281507e+002, 4.988932e+001
2.286328e+002, 4.957207e+001
2.291149e+002, 4.956898e+001
2.295970e+002, 4.945248e+001
2.300792e+002, 4.919292e+001
2.305613e+002, 4.880161e+001
2.310434e+002, 4.832296e+001
2.315255e+002, 4.773455e+001
2.320076e+002, 4.710341e+001
2.324897e+002, 4.644910e+001
2.329719e+002, 4.568159e+001
2.334540e+002, 4.510612e+001
2.339361e+002, 4.479808e+001
2.344182e+002, 4.468407e+001
2.349003e+002, 4.449623e+001
2.353824e+002, 4.417672e+001
2.358646e+002, 4.386610e+001
2.363467e+002, 4.365534e+001
2.368288e+002, 4.366845e+001
2.373109e+002, 4.349093e+001
2.377930e+002, 4.301741e+001
2.382751e+002, 4.235900e+001
2.387573e+002, 4.187918e+001
2.392394e+002, 4.168688e+001
2.397215e+002, 4.151375e+001
2.402036e+002, 4.122665e+001
2.406857e+002, 4.073729e+001
2.411678e+002, 4.033268e+001
2.416500e+002, 4.003005e+001
2.421321e+002, 3.980831e+001
2.426142e+002, 3.962647e+001
2.430963e+002, 3.956701e+001
2.435784e+002, 3.942488e+001
2.440605e+002, 3.907851e+001
2.445427e+002, 3.835540e+001
2.450248e+002, 3.787737e+001
2.455069e+002, 3.774132e+001
2.459890e+002, 3.781176e+001
2.464711e+002, 3.779009e+001
2.469532e+002, 3.761768e+001
2.474354e+002, 3.745114e+001
2.479175e+002, 3.736166e+001
2.483996e+002, 3.739119e+001
2.488817e+002, 3.736052e+001
2.493638e+002, 3.725338e+001
2.498459e+002, 3.709635e+001
2.503281e+002, 3.693607e+001
2.508102e+002, 3.677068e+001
2.512923e+002, 3.660495e+001
2.517744e+002, 3.642680e+001
2.522565e+002, 3.621598e+001
2.527386e+002, 3.609233e+001
2.532208e+002, 3.609604e+001
2.537029e+002, 3.615741e+001
2.541850e+002, 3.616218e+001
2.546671e+002, 3.607302e+001
2.551492e+002, 3.600010e+001
2.556313e+002, 3.599086e+001
2.561135e+002, 3.606403e+001
2.565956e+002, 3.605735e+001
2.570777e+002, 3.590441e+001
2.575598e+002, 3.573431e+001
2.580419e+002, 3.574500e+001
2.585240e+002, 3.603831e+001
2.590062e+002, 3.627745e+001
2.594883e+002, 3.634679e+001
2.599704e+002, 3.622924e+001
2.604525e+002, 3.618575e+001
2.609346e+002, 3.622966e+001
2.614167e+002, 3.633148e+001
2.618989e+002, 3.646921e+001
2.623810e+002, 3.666415e+001
2.628631e+002, 3.683232e+001
2.633452e+002, 3.692663e+001
2.638273e+002, 3.695019e+001
2.643094e+002, 3.709754e+001
2.647916e+002, 3.739815e+001
2.652737e+002, 3.777938e+001
2.657558e+002, 3.816510e+001
2.662379e+002, 3.852278e+001
2.667200e+002, 3.898902e+001
2.672021e+002, 3.961361e+001
2.676843e+002, 4.038122e+001
2.681664e+002, 4.114750e+001
2.686485e+002, 4.187221e+001
2.691306e+002, 4.267475e+001
2.696127e+002, 4.367104e+001
2.700948e+002, 4.489937e+001
2.705770e+002, 4.613274e+001
2.710591e+002, 4.733073e+001
2.715412e+002, 4.849289e+001
2.720233e+002, 4.965309e+001
2.725054e+002, 5.078949e+001
2.729875e+002, 5.193095e+001
2.734697e+002, 5.308604e+001
2.739518e+002, 5.426292e+001
2.744339e+002, 5.546648e+001
2.749160e+002, 5.669652e+001
2.753981e+002, 5.794925e+001
2.758802e+002, 5.924375e+001
2.763624e+002, 6.056169e+001
2.768445e+002, 6.191992e+001
2.773266e+002, 6.333888e+001
2.778087e+002, 6.482362e+001
2.782908e+002, 6.627818e+001
2.787729e+002, 6.764792e+001
2.792551e+002, 6.903773e+001
2.797372e+002, 7.068882e+001
2.802193e+002, 7.264363e+001
2.807014e+002, 7.462690e+001
2.811835e+002, 7.643270e+001
2.816656e+002, 7.806786e+001
2.821478e+002, 8.002314e+001
2.826299e+002, 8.237183e+001
2.831120e+002, 8.493894e+001
2.835941e+002, 8.748387e+001
2.840762e+002, 9.002068e+001
2.845583e+002, 9.244824e+001
2.850405e+002, 9.479256e+001
2.855226e+002, 9.703410e+001
2.860047e+002, 9.901244e+001
2.864868e+002, 1.007412e+002
2.869689e+002, 1.021569e+002
2.874510e+002, 1.033018e+002
2.879332e+002, 1.041550e+002
2.884153e+002, 1.042869e+002
2.888974e+002, 1.033875e+002
2.893795e+002, 1.016267e+002
2.898616e+002, 9.968062e+001
2.903438e+002, 9.758057e+001
2.908259e+002, 9.507433e+001
2.913080e+002, 9.171145e+001
2.917901e+002, 8.763000e+001
2.922722e+002, 8.344214e+001
2.927543e+002, 7.930319e+001
2.932365e+002, 7.525139e+001
2.937186e+002, 7.140466e+001
2.942007e+002, 6.779637e+001
2.946828e+002, 6.436555e+001
2.951649e+002, 6.098653e+001
2.956470e+002, 5.775402e+001
2.961292e+002, 5.486913e+001
2.966113e+002, 5.244653e+001
2.970934e+002, 5.037748e+001
2.975755e+002, 4.851885e+001
2.980576e+002, 4.685534e+001
2.985397e+002, 4.531225e+001
2.990219e+002, 4.375671e+001
2.995040e+002, 4.226525e+001
2.999861e+002, 4.104406e+001
3.004682e+002, 4.018537e+001
3.009503e+002, 3.950199e+001
3.014324e+002, 3.877837e+001
3.019146e+002, 3.803578e+001
3.023967e+002, 3.733125e+001
3.028788e+002, 3.672449e+001
3.033609e+002, 3.617579e+001
3.038430e+002, 3.563708e+001
3.043251e+002, 3.509846e+001
3.048073e+002, 3.458257e+001
3.052894e+002, 3.406545e+001
3.057715e+002, 3.358158e+001
3.062536e+002, 3.320067e+001
3.067357e+002, 3.306514e+001
3.072178e+002, 3.299889e+001
3.077000e+002, 3.280562e+001
3.081821e+002, 3.245683e+001
3.086642e+002, 3.210845e+001
3.091463e+002, 3.187193e+001
3.096284e+002, 3.171202e+001
3.101105e+002, 3.157104e+001
3.105927e+002, 3.142193e+001
3.110748e+002, 3.128741e+001
3.115569e+002, 3.120041e+001
3.120390e+002, 3.116039e+001
3.125211e+002, 3.109270e+001
3.130032e+002, 3.090235e+001
3.134854e+002, 3.068151e+001
3.139675e+002, 3.053068e+001
3.144496e+002, 3.052814e+001
3.149317e+002, 3.056347e+001
3.154138e+002, 3.059503e+001
3.158959e+002, 3.062310e+001
3.163781e+002, 3.064911e+001
3.168602e+002, 3.071989e+001
3.173423e+002, 3.076264e+001
3.178244e+002, 3.071711e+001
3.183065e+002, 3.049215e+001
3.187886e+002, 3.028936e+001
3.192708e+002, 3.018444e+001
3.197529e+002, 3.015422e+001
3.202350e+002, 3.013352e+001
3.207171e+002, 3.012284e+001
3.211992e+002, 3.010188e+001
3.216813e+002, 3.006904e+001
3.221635e+002, 3.005233e+001
3.226456e+002, 2.995746e+001
3.231277e+002, 2.966711e+001
3.236098e+002, 2.930207e+001
3.240919e+002, 2.906359e+001
3.245740e+002, 2.903248e+001
3.250562e+002, 2.909001e+001
3.255383e+002, 2.924062e+001
3.260204e+002, 2.953773e+001
3.265025e+002, 2.970569e+001
3.269846e+002, 2.960169e+001
3.274667e+002, 2.941153e+001
3.279489e+002, 2.933243e+001
3.284310e+002, 2.955175e+001
3.289131e+002, 2.967437e+001
3.293952e+002, 2.959152e+001
3.298773e+002, 2.929595e+001
3.303594e+002, 2.911305e+001
3.308416e+002, 2.909745e+001
3.313237e+002, 2.914997e+001
3.318058e+002, 2.920508e+001
3.322879e+002, 2.927717e+001
3.327700e+002, 2.932625e+001
3.332521e+002, 2.934047e+001
3.337343e+002, 2.932792e+001
3.342164e+002, 2.931883e+001
3.346985e+002, 2.927453e+001
3.351806e+002, 2.929302e+001
3.356627e+002, 2.946488e+001
3.361448e+002, 2.990169e+001
3.366270e+002, 3.012280e+001
3.371091e+002, 3.002532e+001
3.375912e+002, 2.977249e+001
3.380733e+002, 2.970188e+001
3.385554e+002, 2.985216e+001
3.390375e+002, 3.006330e+001
3.395197e+002, 3.030124e+001
3.400018e+002, 3.057065e+001
3.404839e+002, 3.072998e+001
3.409660e+002, 3.074673e+001
3.414481e+002, 3.071801e+001
3.419302e+002, 3.077149e+001
3.424124e+002, 3.091357e+001
3.428945e+002, 3.105401e+001
3.433766e+002, 3.116183e+001
3.438587e+002, 3.124668e+001
3.443408e+002, 3.136130e+001
3.448229e+002, 3.150803e+001
3.453051e+002, 3.166452e+001
3.457872e+002, 3.179860e+001
3.462693e+002, 3.191753e+001
3.467514e+002, 3.207632e+001
3.472335e+002, 3.228674e+001
3.477156e+002, 3.254042e+001
3.481978e+002, 3.281994e+001
3.486799e+002, 3.312542e+001
3.491620e+002, 3.345552e+001
3.496441e+002, 3.382568e+001
3.501262e+002, 3.421935e+001
3.506083e+002, 3.459520e+001
3.510905e+002, 3.495061e+001
3.515726e+002, 3.529395e+001
3.520547e+002, 3.565914e+001
3.525368e+002, 3.602625e+001
3.530189e+002, 3.633478e+001
3.535010e+002, 3.642211e+001
3.539832e+002, 3.649612e+001
3.544653e+002, 3.682292e+001
3.549474e+002, 3.742141e+001
3.554295e+002, 3.813510e+001
3.559116e+002, 3.890810e+001
3.563937e+002, 3.970774e+001
3.568759e+002, 4.047401e+001
3.573580e+002, 4.118995e+001
3.578401e+002, 4.186983e+001
3.583222e+002, 4.249652e+001
3.588043e+002, 4.308645e+001
3.592864e+002, 4.370341e+001
3.597686e+002, 4.434571e+001
3.602507e+002, 4.505277e+001
3.607328e+002, 4.584493e+001
3.612149e+002, 4.670759e+001
3.616970e+002, 4.769769e+001
3.621791e+002, 4.897756e+001
3.626613e+002, 5.040551e+001
3.631434e+002, 5.165601e+001
3.636255e+002, 5.242576e+001
3.641076e+002, 5.315333e+001
3.645897e+002, 5.405186e+001
3.650718e+002, 5.516432e+001
3.655540e+002, 5.631585e+001
3.660361e+002, 5.744061e+001
3.665182e+002, 5.859875e+001
3.670003e+002, 5.986253e+001
3.674824e+002, 6.141485e+001
3.679645e+002, 6.289449e+001
3.684467e+002, 6.420765e+001
3.689288e+002, 6.532459e+001
3.694109e+002, 6.647185e+001
3.698930e+002, 6.755238e+001
3.703751e+002, 6.874000e+001
3.708572e+002, 7.018432e+001
3.713394e+002, 7.217712e+001
3.718215e+002, 7.390443e+001
3.723036e+002, 7.522738e+001
3.727857e+002, 7.624526e+001
3.732678e+002, 7.732822e+001
3.737499e+002, 7.851704e+001
3.742321e+002, 7.971424e+001
3.747142e+002, 8.085976e+001
3.751963e+002, 8.194503e+001
3.756784e+002, 8.304786e+001
3.761605e+002, 8.417538e+001
3.766426e+002, 8.530204e+001
3.771248e+002, 8.632360e+001
3.776069e+002, 8.722231e+001
3.780890e+002, 8.820322e+001
3.785711e+002, 8.945708e+001
3.790532e+002, 9.089055e+001
3.795353e+002, 9.164225e+001
3.800175e+002, 9.162239e+001
3.804996e+002, 9.140705e+001
3.809817e+002, 9.153087e+001
3.814638e+002, 9.195908e+001
3.819459e+002, 9.244272e+001
3.824280e+002, 9.299715e+001
3.829102e+002, 9.348543e+001
3.833923e+002, 9.361823e+001
3.838744e+002, 9.341199e+001
3.843565e+002, 9.302904e+001
3.848386e+002, 9.252437e+001
3.853207e+002, 9.192574e+001
3.858029e+002, 9.130371e+001
3.862850e+002, 9.065880e+001
3.867671e+002, 8.999112e+001
3.872492e+002, 8.947877e+001
3.877313e+002, 8.894669e+001
3.882134e+002, 8.800191e+001
3.886956e+002, 8.621191e+001
3.891777e+002, 8.411548e+001
3.896598e+002, 8.210561e+001
3.901419e+002, 8.020340e+001
3.906240e+002, 7.845531e+001
3.911061e+002, 7.697632e+001
3.915883e+002, 7.561328e+001
3.920704e+002, 7.419982e+001
3.925525e+002, 7.267101e+001
3.930346e+002, 7.111597e+001
3.935167e+002, 6.946731e+001
3.939988e+002, 6.779455e+001
3.944810e+002, 6.627213e+001
3.949631e+002, 6.493275e+001
3.954452e+002, 6.377974e+001
3.959273e+002, 6.284819e+001
3.964094e+002, 6.221227e+001
3.968915e+002, 6.157095e+001
3.973737e+002, 6.074212e+001
3.978558e+002, 5.991931e+001
3.983379e+002, 5.934104e+001
3.988200e+002, 5.934325e+001
3.993021e+002, 5.925780e+001
3.997842e+002, 5.884753e+001
4.002664e+002, 5.811437e+001
4.007485e+002, 5.773591e+001
4.012306e+002, 5.798016e+001
4.017127e+002, 5.832061e+001
4.021948e+002, 5.839617e+001
4.026769e+002, 5.796382e+001
4.031591e+002, 5.780473e+001
4.036412e+002, 5.804966e+001
4.041233e+002, 5.855354e+001
4.046054e+002, 5.895512e+001
4.050875e+002, 5.920332e+001
4.055696e+002, 5.948841e+001
4.060518e+002, 5.989136e+001
4.065339e+002, 6.041503e+001
4.070160e+002, 6.098128e+001
4.074981e+002, 6.159587e+001
4.079802e+002, 6.222411e+001
4.084623e+002, 6.281584e+001
4.089445e+002, 6.337534e+001
4.094266e+002, 6.395316e+001
4.099087e+002, 6.455215e+001
4.103908e+002, 6.518658e+001
4.108729e+002, 6.587229e+001
4.113550e+002, 6.661431e+001
4.118372e+002, 6.743635e+001
4.123193e+002, 6.844352e+001
4.128014e+002, 6.954478e+001
4.132835e+002, 7.049833e+001
4.137656e+002, 7.123881e+001
4.142477e+002, 7.199074e+001
4.147299e+002, 7.296999e+001
4.152120e+002, 7.414487e+001
4.156941e+002, 7.541138e+001
4.161762e+002, 7.683038e+001
4.166583e+002, 7.826197e+001
4.171404e+002, 7.952801e+001
4.176226e+002, 8.064485e+001
4.181047e+002, 8.184595e+001
4.185868e+002, 8.326353e+001
4.190689e+002, 8.483942e+001
4.195510e+002, 8.654689e+001
4.200331e+002, 8.841514e+001
4.205153e+002, 9.034773e+001
4.209974e+002, 9.225308e+001
4.214795e+002, 9.418000e+001
4.219616e+002, 9.617685e+001
4.224437e+002, 9.832398e+001
4.229258e+002, 1.005144e+002
4.234080e+002, 1.026999e+002
4.238901e+002, 1.048922e+002
4.243722e+002, 1.071097e+002
4.248543e+002, 1.094507e+002
4.253364e+002, 1.117757e+002
4.258185e+002, 1.139255e+002
4.263007e+002, 1.157185e+002
4.267828e+002, 1.176452e+002
4.272649e+002, 1.198518e+002
4.277470e+002, 1.222670e+002
4.282291e+002, 1.244901e+002
4.287112e+002, 1.264488e+002
4.291934e+002, 1.283105e+002
4.296755e+002, 1.301925e+002
4.301576e+002, 1.320850e+002
4.306397e+002, 1.340142e+002
4.311218e+002, 1.360228e+002
4.316039e+002, 1.379898e+002
4.320861e+002, 1.397685e+002
4.325682e+002, 1.413558e+002
4.330503e+002, 1.427457e+002
4.335324e+002, 1.439161e+002
4.340145e+002, 1.449048e+002
4.344966e+002, 1.458668e+002
4.349788e+002, 1.468075e+002
4.354609e+002, 1.476025e+002
4.359430e+002, 1.482913e+002
4.364251e+002, 1.487642e+002
4.369072e+002, 1.486944e+002
4.373893e+002, 1.479685e+002
4.378715e+002, 1.468362e+002
4.383536e+002, 1.455988e+002
4.388357e+002, 1.441887e+002
4.393178e+002, 1.424177e+002
4.397999e+002, 1.399522e+002
4.402820e+002, 1.372170e+002
4.407642e+002, 1.347182e+002
4.412463e+002, 1.324609e+002
4.417284e+002, 1.299024e+002
4.422105e+002, 1.263845e+002
4.426926e+002, 1.225599e+002
4.431747e+002, 1.190609e+002
4.436569e+002, 1.163037e+002
4.441390e+002, 1.135834e+002
4.446211e+002, 1.106875e+002
4.451032e+002, 1.076636e+002
4.455853e+002, 1.047427e+002
4.460674e+002, 1.019759e+002
4.465496e+002, 9.928747e+001
4.470317e+002, 9.665933e+001
4.475138e+002, 9.409075e+001
4.479959e+002, 9.154868e+001
4.484780e+002, 8.886037e+001
4.489601e+002, 8.630637e+001
4.494423e+002, 8.416911e+001
4.499244e+002, 8.276882e+001
4.504065e+002, 8.114211e+001
4.508886e+002, 7.900078e+001
4.513707e+002, 7.654305e+001
4.518528e+002, 7.455830e+001
4.523350e+002, 7.312757e+001
4.528171e+002, 7.189516e+001
4.532992e+002, 7.071286e+001
4.537813e+002, 6.957670e+001
4.542634e+002, 6.822387e+001
4.547455e+002, 6.657207e+001
4.552277e+002, 6.490881e+001
4.557098e+002, 6.360409e+001
4.561919e+002, 6.262677e+001
4.566740e+002, 6.167982e+001
4.571561e+002, 6.068452e+001
4.576382e+002, 5.967243e+001
4.581204e+002, 5.873725e+001
4.586025e+002, 5.786336e+001
4.590846e+002, 5.699899e+001
4.595667e+002, 5.604286e+001
4.600488e+002, 5.509129e+001
4.605309e+002, 5.429770e+001
4.610131e+002, 5.372508e+001
4.614952e+002, 5.312804e+001
4.619773e+002, 5.231893e+001
4.624594e+002, 5.138948e+001
4.629415e+002, 5.046150e+001
4.634236e+002, 4.949198e+001
4.639058e+002, 4.862983e+001
4.643879e+002, 4.797048e+001
4.648700e+002, 4.750288e+001
4.653521e+002, 4.703378e+001
4.658342e+002, 4.652393e+001
4.663163e+002, 4.598822e+001
4.667985e+002, 4.542681e+001
4.672806e+002, 4.478915e+001
4.677627e+002, 4.422367e+001
4.682448e+002, 4.379518e+001
4.687269e+002, 4.341798e+001
4.692090e+002, 4.296416e+001
4.696912e+002, 4.239211e+001
4.701733e+002, 4.180815e+001
4.706554e+002, 4.122687e+001
4.711375e+002, 4.065069e+001
4.716196e+002, 4.008742e+001
4.721017e+002, 3.950837e+001
4.725839e+002, 3.902089e+001
4.730660e+002, 3.874127e+001
4.735481e+002, 3.867368e+001
4.740302e+002, 3.846470e+001
4.745123e+002, 3.804255e+001
4.749944e+002, 3.759554e+001
4.754766e+002, 3.745604e+001
4.759587e+002, 3.757449e+001
4.764408e+002, 3.763109e+001
4.769229e+002, 3.747365e+001
4.774050e+002, 3.719344e+001
4.778871e+002, 3.692488e+001
4.783693e+002, 3.666743e+001
4.788514e+002, 3.641379e+001
4.793335e+002, 3.611591e+001
4.798156e+002, 3.583632e+001
4.802977e+002, 3.568091e+001
4.807798e+002, 3.571877e+001
4.812620e+002, 3.570636e+001
4.817441e+002, 3.547820e+001
4.822262e+002, 3.511448e+001
4.827083e+002, 3.473367e+001
4.831904e+002, 3.443412e+001
4.836725e+002, 3.406351e+001
4.841547e+002, 3.354689e+001
4.846368e+002, 3.289396e+001
4.851189e+002, 3.222532e+001
4.856010e+002, 3.144921e+001
4.860831e+002, 3.074576e+001
4.865652e+002, 3.022619e+001
4.870474e+002, 3.003599e+001
4.875295e+002, 2.969940e+001
4.880116e+002, 2.911789e+001
4.884937e+002, 2.846681e+001
4.889758e+002, 2.799505e+001
4.894579e+002, 2.775091e+001
4.899401e+002, 2.754167e+001
4.904222e+002, 2.733737e+001
4.909043e+002, 2.712937e+001
4.913864e+002, 2.684404e+001
4.918685e+002, 2.646417e+001
4.923506e+002, 2.611883e+001
4.928328e+002, 2.594020e+001
4.933149e+002, 2.588291e+001
4.937970e+002, 2.572267e+001
4.942791e+002, 2.542980e+001
4.947612e+002, 2.509711e+001
4.952433e+002, 2.478863e+001
4.957255e+002, 2.451928e+001
4.962076e+002, 2.432513e+001
4.966897e+002, 2.425452e+001
4.971718e+002, 2.423041e+001
4.976539e+002, 2.419678e+001
4.981360e+002, 2.415240e+001
4.986182e+002, 2.409083e+001
4.991003e+002, 2.397286e+001
4.995824e+002, 2.386140e+001
5.000645e+002, 2.382089e+001
5.005466e+002, 2.388465e+001
5.010287e+002, 2.389325e+001
5.015109e+002, 2.374432e+001
5.019930e+002, 2.354263e+001
5.024751e+002, 2.339457e+001
5.029572e+002, 2.334296e+001
5.034393e+002, 2.330997e+001
5.039214e+002, 2.326867e+001
5.044036e+002, 2.323849e+001
5.048857e+002, 2.330181e+001
5.053678e+002, 2.354665e+001
5.058499e+002, 2.373159e+001
5.063320e+002, 2.372206e+001
5.068141e+002, 2.349544e+001
5.072963e+002, 2.342705e+001
5.077784e+002, 2.354878e+001
5.082605e+002, 2.374352e+001
5.087426e+002, 2.390542e+001
5.092247e+002, 2.403569e+001
5.097068e+002, 2.414809e+001
5.101890e+002, 2.423557e+001
5.106711e+002, 2.432366e+001
5.111532e+002, 2.441878e+001
5.116353e+002, 2.453839e+001
5.121174e+002, 2.476109e+001
5.125995e+002, 2.524755e+001
5.130817e+002, 2.579661e+001
5.135638e+002, 2.611837e+001
5.140459e+002, 2.621973e+001
5.145280e+002, 2.637403e+001
5.150101e+002, 2.684429e+001
5.154922e+002, 2.740411e+001
5.159744e+002, 2.783403e+001
5.164565e+002, 2.804726e+001
5.169386e+002, 2.821651e+001
5.174207e+002, 2.830342e+001
5.179028e+002, 2.840070e+001
5.183849e+002, 2.866018e+001
5.188671e+002, 2.927750e+001
5.193492e+002, 2.987614e+001
5.198313e+002, 3.036286e+001
5.203134e+002, 3.074363e+001
5.207955e+002, 3.117817e+001
5.212776e+002, 3.170186e+001
5.217598e+002, 3.222845e+001
5.222419e+002, 3.268888e+001
5.227240e+002, 3.305744e+001
5.232061e+002, 3.352526e+001
5.236882e+002, 3.413430e+001
5.241703e+002, 3.476301e+001
5.246525e+002, 3.525475e+001
5.251346e+002, 3.561691e+001
5.256167e+002, 3.593903e+001
5.260988e+002, 3.628327e+001
5.265809e+002, 3.655282e+001
5.270630e+002, 3.650617e+001
5.275452e+002, 3.618880e+001
5.280273e+002, 3.586217e+001
5.285094e+002, 3.576148e+001
5.289915e+002, 3.569249e+001
5.294736e+002, 3.547128e+001
5.299557e+002, 3.508485e+001
5.304379e+002, 3.446832e+001
5.309200e+002, 3.344615e+001
5.314021e+002, 3.223262e+001
5.318842e+002, 3.102819e+001
5.323663e+002, 2.982308e+001
5.328484e+002, 2.871646e+001
5.333306e+002, 2.778947e+001
5.338127e+002, 2.697663e+001
5.342948e+002, 2.616366e+001
5.347769e+002, 2.520289e+001
5.352590e+002, 2.438978e+001
5.357411e+002, 2.382483e+001
5.362233e+002, 2.350239e+001
5.367054e+002, 2.315235e+001
5.371875e+002, 2.274514e+001
5.376696e+002, 2.237424e+001
5.381517e+002, 2.212344e+001
5.386339e+002, 2.200948e+001
5.391160e+002, 2.180499e+001
5.395981e+002, 2.147407e+001
5.400802e+002, 2.112234e+001
5.405623e+002, 2.085742e+001
5.410444e+002, 2.068165e+001
5.415266e+002, 2.061019e+001
5.420087e+002, 2.070095e+001
5.424908e+002, 2.083595e+001
5.429729e+002, 2.083881e+001
5.434550e+002, 2.073404e+001
5.439371e+002, 2.062073e+001
5.444193e+002, 2.054392e+001
5.449014e+002, 2.048828e+001
5.453835e+002, 2.044729e+001
5.458656e+002, 2.042133e+001
5.463477e+002, 2.038642e+001
5.468298e+002, 2.029731e+001
5.473120e+002, 2.021427e+001
5.477941e+002, 2.018674e+001
5.482762e+002, 2.022232e+001
5.487583e+002, 2.031516e+001
5.492404e+002, 2.055926e+001
5.497225e+002, 2.083209e+001
5.502047e+002, 2.088869e+001
5.506868e+002, 2.049776e+001
5.511689e+002, 2.036076e+001
5.516510e+002, 2.079166e+001
5.521331e+002, 2.164925e+001
5.526152e+002, 2.194059e+001
5.530974e+002, 2.158164e+001
5.535795e+002, 2.107596e+001
5.540616e+002, 2.070161e+001
5.545437e+002, 2.045333e+001
5.550258e+002, 2.031804e+001
5.555079e+002, 2.030441e+001
5.559901e+002, 2.033883e+001
5.564722e+002, 2.037238e+001
5.569543e+002, 2.039392e+001
5.574364e+002, 2.037533e+001
5.579185e+002, 2.028515e+001
5.584006e+002, 2.019024e+001
5.588828e+002, 2.012069e+001
5.593649e+002, 2.008616e+001
5.598470e+002, 2.010734e+001
5.603291e+002, 2.028598e+001
5.608112e+002, 2.043657e+001
5.612933e+002, 2.047975e+001
5.617755e+002, 2.041078e+001
5.622576e+002, 2.028333e+001
5.627397e+002, 1.997250e+001
5.632218e+002, 1.971457e+001
5.637039e+002, 1.964349e+001
5.641860e+002, 1.987954e+001
5.646682e+002, 1.998433e+001
5.651503e+002, 1.991828e+001
5.656324e+002, 1.977235e+001
5.661145e+002, 1.964367e+001
5.665966e+002, 1.952565e+001
5.670787e+002, 1.949513e+001
5.675609e+002, 1.960728e+001
5.680430e+002, 1.976827e+001
5.685251e+002, 1.975634e+001
5.690072e+002, 1.958957e+001
5.694893e+002, 1.941190e+001
5.699714e+002, 1.930499e+001
5.704536e+002, 1.923130e+001
5.709357e+002, 1.910785e+001
5.714178e+002, 1.894159e+001
5.718999e+002, 1.885233e+001
5.723820e+002, 1.904695e+001
5.728641e+002, 1.928070e+001
5.733463e+002, 1.932396e+001
5.738284e+002, 1.907801e+001
5.743105e+002, 1.879948e+001
5.747926e+002, 1.850384e+001
5.752747e+002, 1.823957e+001
5.757568e+002, 1.806994e+001
5.762390e+002, 1.804079e+001
5.767211e+002, 1.805223e+001
5.772032e+002, 1.812963e+001
5.776853e+002, 1.823677e+001
5.781674e+002, 1.823835e+001
5.786495e+002, 1.810483e+001
5.791317e+002, 1.794976e+001
5.796138e+002, 1.779193e+001
5.800959e+002, 1.764402e+001
5.805780e+002, 1.765487e+001
5.810601e+002, 1.784176e+001
5.815422e+002, 1.799876e+001
5.820244e+002, 1.789413e+001
5.825065e+002, 1.763090e+001
5.829886e+002, 1.746772e+001
5.834707e+002, 1.744323e+001
5.839528e+002, 1.748352e+001
5.844349e+002, 1.757676e+001
5.849171e+002, 1.767785e+001
5.853992e+002, 1.771979e+001
5.858813e+002, 1.766594e+001
5.863634e+002, 1.756199e+001
5.868455e+002, 1.736559e+001
5.873276e+002, 1.712792e+001
5.878098e+002, 1.699757e+001
5.882919e+002, 1.711738e+001
5.887740e+002, 1.723208e+001
5.892561e+002, 1.726110e+001
5.897382e+002, 1.720263e+001
5.902203e+002, 1.716024e+001
5.907025e+002, 1.713544e+001
5.911846e+002, 1.712460e+001
5.916667e+002, 1.714185e+001
5.921488e+002, 1.719364e+001
5.926309e+002, 1.716049e+001
5.931130e+002, 1.701791e+001
5.935952e+002, 1.686685e+001
5.940773e+002, 1.685439e+001
5.945594e+002, 1.694394e+001
5.950415e+002, 1.698638e+001
5.955236e+002, 1.692000e+001
5.960057e+002, 1.683902e+001
5.964879e+002, 1.686832e+001
5.969700e+002, 1.696545e+001
5.974521e+002, 1.703051e+001
5.979342e+002, 1.695697e+001
5.984163e+002, 1.689204e+001
5.988984e+002, 1.697128e+001
5.993806e+002, 1.716908e+001
5.998627e+002, 1.723384e+001
6.003448e+002, 1.693345e+001
6.008269e+002, 1.663634e+001
6.013090e+002, 1.652632e+001
6.017911e+002, 1.666354e+001
6.022733e+002, 1.675755e+001
6.027554e+002, 1.681507e+001
6.032375e+002, 1.681998e+001
6.037196e+002, 1.671771e+001
6.042017e+002, 1.648449e+001
6.046838e+002, 1.640848e+001
6.051660e+002, 1.656863e+001
6.056481e+002, 1.679263e+001
6.061302e+002, 1.675717e+001
6.066123e+002, 1.652211e+001
6.070944e+002, 1.636751e+001
6.075765e+002, 1.643163e+001
6.080587e+002, 1.659165e+001
6.085408e+002, 1.676987e+001
6.090229e+002, 1.693642e+001
6.095050e+002, 1.699095e+001
6.099871e+002, 1.671403e+001
6.104692e+002, 1.644238e+001
6.109514e+002, 1.640378e+001
6.114335e+002, 1.662497e+001
6.119156e+002, 1.683428e+001
6.123977e+002, 1.702030e+001
6.128798e+002, 1.714386e+001
6.133619e+002, 1.717389e+001
6.138441e+002, 1.705356e+001
6.143262e+002, 1.697962e+001
6.148083e+002, 1.697089e+001
6.152904e+002, 1.698249e+001
6.157725e+002, 1.695688e+001
6.162546e+002, 1.689199e+001
6.167368e+002, 1.682128e+001
6.172189e+002, 1.673567e+001
6.177010e+002, 1.667340e+001
6.181831e+002, 1.672961e+001
6.186652e+002, 1.687719e+001
6.191473e+002, 1.700815e+001
6.196295e+002, 1.705495e+001
6.201116e+002, 1.706882e+001
6.205937e+002, 1.709097e+001
6.210758e+002, 1.712269e+001
6.215579e+002, 1.717099e+001
6.220400e+002, 1.726034e+001
6.225222e+002, 1.734949e+001
6.230043e+002, 1.740424e+001
6.234864e+002, 1.740833e+001
6.239685e+002, 1.745580e+001
6.244506e+002, 1.758846e+001
6.249327e+002, 1.773969e+001
6.254149e+002, 1.786634e+001
6.258970e+002, 1.795709e+001
6.263791e+002, 1.805631e+001
6.268612e+002, 1.817260e+001
6.273433e+002, 1.828552e+001
6.278254e+002, 1.836531e+001
6.283076e+002, 1.841288e+001
6.287897e+002, 1.844348e+001
6.292718e+002, 1.844929e+001
6.297539e+002, 1.845927e+001
6.302360e+002, 1.849400e+001
6.307181e+002, 1.856682e+001
6.312003e+002, 1.872081e+001
6.316824e+002, 1.908015e+001
6.321645e+002, 1.944931e+001
6.326466e+002, 1.963977e+001
6.331287e+002, 1.968240e+001
6.336108e+002, 1.978116e+001
6.340930e+002, 2.009681e+001
6.345751e+002, 2.041251e+001
6.350572e+002, 2.059408e+001
6.355393e+002, 2.059382e+001
6.360214e+002, 2.069662e+001
6.365035e+002, 2.097347e+001
6.369857e+002, 2.126733e+001
6.374678e+002, 2.144122e+001
6.379499e+002, 2.146908e+001
6.384320e+002, 2.158535e+001
6.389141e+002, 2.184006e+001
6.393962e+002, 2.208001e+001
6.398784e+002, 2.212726e+001
6.403605e+002, 2.198718e+001
6.408426e+002, 2.167394e+001
6.413247e+002, 2.116252e+001
6.418068e+002, 2.053735e+001
6.422889e+002, 1.978887e+001
6.427711e+002, 1.899713e+001
6.432532e+002, 1.832432e+001
6.437353e+002, 1.791222e+001
6.442174e+002, 1.757935e+001
6.446995e+002, 1.723001e+001
6.451816e+002, 1.687839e+001
6.456638e+002, 1.662232e+001
6.461459e+002, 1.653053e+001
6.466280e+002, 1.648378e+001
6.471101e+002, 1.645080e+001
6.475922e+002, 1.643286e+001
6.480743e+002, 1.641905e+001
6.485565e+002, 1.642767e+001
6.490386e+002, 1.639213e+001
6.495207e+002, 1.620181e+001
6.500028e+002, 1.588937e+001
6.504849e+002, 1.577608e+001
6.509670e+002, 1.590669e+001
6.514492e+002, 1.608822e+001
6.519313e+002, 1.609180e+001
6.524134e+002, 1.600322e+001
6.528955e+002, 1.600079e+001
6.533776e+002, 1.619251e+001
6.538597e+002, 1.633567e+001
6.543419e+002, 1.620111e+001
6.548240e+002, 1.593813e+001
6.553061e+002, 1.577754e+001
6.557882e+002, 1.587017e+001
6.562703e+002, 1.596977e+001
6.567524e+002, 1.604890e+001
6.572346e+002, 1.609617e+001
6.577167e+002, 1.606329e+001
6.581988e+002, 1.590269e+001
6.586809e+002, 1.577218e+001
6.591630e+002, 1.573883e+001
6.596451e+002, 1.578103e+001
6.601273e+002, 1.576346e+001
6.606094e+002, 1.568232e+001
6.610915e+002, 1.560721e+001
6.615736e+002, 1.561566e+001
6.620557e+002, 1.565325e+001
6.625378e+002, 1.557724e+001
6.630200e+002, 1.538169e+001
6.635021e+002, 1.524559e+001
6.639842e+002, 1.535566e+001
6.644663e+002, 1.555081e+001
6.649484e+002, 1.568501e+001
6.654305e+002, 1.573159e+001
6.659127e+002, 1.572377e+001
6.663948e+002, 1.564240e+001
6.668769e+002, 1.552360e+001
6.673590e+002, 1.539265e+001
6.678411e+002, 1.517080e+001
6.683232e+002, 1.512729e+001
6.688054e+002, 1.537157e+001
6.692875e+002, 1.570447e+001
6.697696e+002, 1.574504e+001
6.702517e+002, 1.548727e+001
6.707338e+002, 1.524592e+001
6.712159e+002, 1.511236e+001
6.716981e+002, 1.504937e+001
6.721802e+002, 1.501039e+001
6.726623e+002, 1.499127e+001
6.731444e+002, 1.497586e+001
6.736265e+002, 1.495822e+001
6.741086e+002, 1.493956e+001
6.745908e+002, 1.490677e+001
6.750729e+002, 1.486756e+001
6.755550e+002, 1.486763e+001
6.760371e+002, 1.494184e+001
6.765192e+002, 1.504074e+001
6.770013e+002, 1.515331e+001
6.774835e+002, 1.528374e+001
6.779656e+002, 1.538572e+001
6.784477e+002, 1.547224e+001
6.789298e+002, 1.550852e+001
6.794119e+002, 1.546312e+001
6.798940e+002, 1.533461e+001
6.803762e+002, 1.515237e+001
6.808583e+002, 1.489645e+001
6.813404e+002, 1.470422e+001
6.818225e+002, 1.479582e+001
6.823046e+002, 1.504159e+001
6.827867e+002, 1.515275e+001
6.832689e+002, 1.502681e+001
6.837510e+002, 1.490550e+001
6.842331e+002, 1.505469e+001
6.847152e+002, 1.528118e+001
6.851973e+002, 1.533556e+001
6.856794e+002, 1.495258e+001
6.861616e+002, 1.463111e+001
6.866437e+002, 1.442325e+001
6.871258e+002, 1.434026e+001
6.876079e+002, 1.444990e+001
6.880900e+002, 1.487155e+001
6.885721e+002, 1.516909e+001
6.890543e+002, 1.522381e+001
6.895364e+002, 1.509200e+001
6.900185e+002, 1.488694e+001
6.905006e+002, 1.461448e+001
6.909827e+002, 1.441804e+001
6.914648e+002, 1.439997e+001
6.919470e+002, 1.448588e+001
6.924291e+002, 1.459749e+001
6.929112e+002, 1.472165e+001
6.933933e+002, 1.478555e+001
6.938754e+002, 1.464751e+001
6.943575e+002, 1.451687e+001
6.948397e+002, 1.456287e+001
6.953218e+002, 1.481645e+001
6.958039e+002, 1.498825e+001
6.962860e+002, 1.497344e+001
6.967681e+002, 1.493211e+001
6.972502e+002, 1.495872e+001
6.977324e+002, 1.509064e+001
6.982145e+002, 1.507451e+001
6.986966e+002, 1.485487e+001
6.991787e+002, 1.464393e+001
6.996608e+002, 1.471930e+001
7.001429e+002, 1.500525e+001
7.006251e+002, 1.510367e+001
7.011072e+002, 1.493727e+001
7.015893e+002, 1.472596e+001
7.020714e+002, 1.469783e+001
7.025535e+002, 1.476196e+001
7.030356e+002, 1.477897e+001
7.035178e+002, 1.465300e+001
7.039999e+002, 1.457277e+001
7.044820e+002, 1.466990e+001
7.049641e+002, 1.484023e+001
7.054462e+002, 1.491850e+001
7.059283e+002, 1.481592e+001
7.064105e+002, 1.475062e+001
7.068926e+002, 1.475852e+001
7.073747e+002, 1.481419e+001
7.078568e+002, 1.487719e+001
7.083389e+002, 1.495405e+001
7.088210e+002, 1.495043e+001
7.093032e+002, 1.479417e+001
7.097853e+002, 1.457599e+001
7.102674e+002, 1.448605e+001
7.107495e+002, 1.450172e+001
7.112316e+002, 1.453131e+001
7.117137e+002, 1.454184e+001
7.121959e+002, 1.453344e+001
7.126780e+002, 1.447992e+001
7.131601e+002, 1.439420e+001
7.136422e+002, 1.436653e+001
7.141243e+002, 1.450031e+001
7.146064e+002, 1.462138e+001
7.150886e+002, 1.465996e+001
7.155707e+002, 1.461443e+001
7.160528e+002, 1.454210e+001
7.165349e+002, 1.442434e+001
7.170170e+002, 1.432602e+001
7.174991e+002, 1.429219e+001
7.179813e+002, 1.431703e+001
7.184634e+002, 1.436725e+001
7.189455e+002, 1.444443e+001
7.194276e+002, 1.449393e+001
7.199097e+002, 1.440502e+001
7.203918e+002, 1.428738e+001
7.208740e+002, 1.432594e+001
7.213561e+002, 1.458456e+001
7.218382e+002, 1.476375e+001
7.223203e+002, 1.462545e+001
7.228024e+002, 1.440156e+001
7.232845e+002, 1.430135e+001
7.237667e+002, 1.448281e+001
7.242488e+002, 1.453360e+001
7.247309e+002, 1.437220e+001
7.252130e+002, 1.416713e+001
7.256951e+002, 1.412997e+001
7.261772e+002, 1.427321e+001
7.266594e+002, 1.440181e+001
7.271415e+002, 1.449695e+001
7.276236e+002, 1.453333e+001
7.281057e+002, 1.441293e+001
7.285878e+002, 1.420483e+001
7.290699e+002, 1.409477e+001
7.295521e+002, 1.420479e+001
7.300342e+002, 1.433233e+001
7.305163e+002, 1.432862e+001
7.309984e+002, 1.425021e+001
7.314805e+002, 1.419779e+001
7.319626e+002, 1.420848e+001
7.324448e+002, 1.423335e+001
7.329269e+002, 1.426382e+001
7.334090e+002, 1.430170e+001
7.338911e+002, 1.435903e+001
7.343732e+002, 1.444791e+001
7.348553e+002, 1.450114e+001
7.353375e+002, 1.448175e+001
7.358196e+002, 1.442544e+001
7.363017e+002, 1.444930e+001
7.367838e+002, 1.453461e+001
7.372659e+002, 1.456721e+001
7.377480e+002, 1.440084e+001
7.382302e+002, 1.421569e+001
7.387123e+002, 1.421640e+001
7.391944e+002, 1.436299e+001
7.396765e+002, 1.444872e+001
7.401586e+002, 1.429781e+001
7.406407e+002, 1.416483e+001
7.411229e+002, 1.419473e+001
7.416050e+002, 1.437749e+001
7.420871e+002, 1.446284e+001
7.425692e+002, 1.442431e+001
7.430513e+002, 1.435187e+001
7.435334e+002, 1.428149e+001
7.440156e+002, 1.421497e+001
7.444977e+002, 1.415964e+001
7.449798e+002, 1.411517e+001
7.454619e+002, 1.411603e+001
7.459440e+002, 1.423355e+001
7.464261e+002, 1.438858e+001
7.469083e+002, 1.449465e+001
7.473904e+002, 1.454392e+001
7.478725e+002, 1.452946e+001
7.483546e+002, 1.436080e+001
7.488367e+002, 1.419097e+001
7.493188e+002, 1.412786e+001
7.498010e+002, 1.420456e+001
7.502831e+002, 1.430053e+001
7.507652e+002, 1.444368e+001
7.512473e+002, 1.456287e+001
7.517294e+002, 1.460099e+001
7.522115e+002, 1.455844e+001
7.526937e+002, 1.447412e+001
7.531758e+002, 1.434480e+001
7.536579e+002, 1.420848e+001
7.541400e+002, 1.408790e+001
7.546221e+002, 1.399183e+001
7.551042e+002, 1.392910e+001
7.555864e+002, 1.389704e+001
7.560685e+002, 1.392063e+001
7.565506e+002, 1.407002e+001
7.570327e+002, 1.425397e+001
7.575148e+002, 1.437776e+001
7.579969e+002, 1.443419e+001
7.584791e+002, 1.441505e+001
7.589612e+002, 1.426229e+001
7.594433e+002, 1.409799e+001
7.599254e+002, 1.410341e+001
7.604075e+002, 1.428939e+001
7.608896e+002, 1.437971e+001
7.613718e+002, 1.431405e+001
7.618539e+002, 1.419919e+001
7.623360e+002, 1.418959e+001
7.628181e+002, 1.423463e+001
7.633002e+002, 1.422088e+001
7.637823e+002, 1.406575e+001
7.642645e+002, 1.393419e+001
7.647466e+002, 1.393016e+001
7.652287e+002, 1.400315e+001
7.657108e+002, 1.407787e+001
7.661929e+002, 1.419673e+001
7.666750e+002, 1.423596e+001
7.671572e+002, 1.415410e+001
7.676393e+002, 1.401119e+001
7.681214e+002, 1.391541e+001
7.686035e+002, 1.386945e+001
7.690856e+002, 1.384003e+001
7.695677e+002, 1.382699e+001
7.700499e+002, 1.380994e+001
7.705320e+002, 1.372946e+001
7.710141e+002, 1.361859e+001
7.714962e+002, 1.356244e+001
7.719783e+002, 1.364143e+001
7.724604e+002, 1.373804e+001
7.729426e+002, 1.380728e+001
7.734247e+002, 1.384793e+001
7.739068e+002, 1.385326e+001
7.743889e+002, 1.375856e+001
7.748710e+002, 1.372772e+001
7.753531e+002, 1.383268e+001
7.758353e+002, 1.399983e+001
7.763174e+002, 1.398340e+001
7.767995e+002, 1.377256e+001
7.772816e+002, 1.361767e+001
7.777637e+002, 1.360778e+001
7.782458e+002, 1.370938e+001
7.787280e+002, 1.396437e+001
7.792101e+002, 1.429905e+001
7.796922e+002, 1.447388e+001
7.801743e+002, 1.421316e+001
7.806564e+002, 1.392280e+001
7.811385e+002, 1.381748e+001
7.816207e+002, 1.386108e+001
7.821028e+002, 1.388130e+001
7.825849e+002, 1.385854e+001
7.830670e+002, 1.382206e+001
7.835491e+002, 1.377979e+001
7.840313e+002, 1.372903e+001
7.845134e+002, 1.363040e+001
7.849955e+002, 1.348098e+001
7.854776e+002, 1.342024e+001
7.859597e+002, 1.357288e+001
7.864418e+002, 1.381010e+001
7.869240e+002, 1.393808e+001
7.874061e+002, 1.397328e+001
7.878882e+002, 1.397340e+001
7.883703e+002, 1.392614e+001
7.888524e+002, 1.388986e+001
7.893345e+002, 1.391098e+001
7.898167e+002, 1.397856e+001
7.902988e+002, 1.399542e+001
7.907809e+002, 1.391345e+001
7.912630e+002, 1.387091e+001
7.917451e+002, 1.394035e+001
7.922272e+002, 1.408138e+001
7.927094e+002, 1.410980e+001
7.931915e+002, 1.402898e+001
7.936736e+002, 1.392815e+001
7.941557e+002, 1.383192e+001
7.946378e+002, 1.376075e+001
7.951199e+002, 1.375957e+001
7.956021e+002, 1.381387e+001
7.960842e+002, 1.385745e+001
7.965663e+002, 1.379501e+001
7.970484e+002, 1.377942e+001
7.975305e+002, 1.392005e+001
7.980126e+002, 1.419134e+001
7.984948e+002, 1.438467e+001
7.989769e+002, 1.450444e+001
7.994590e+002, 1.452709e+001
7.999411e+002, 1.441222e+001
8.004232e+002, 1.419981e+001
8.009053e+002, 1.403834e+001
8.013875e+002, 1.392695e+001
8.018696e+002, 1.385691e+001
8.023517e+002, 1.384215e+001
8.028338e+002, 1.385148e+001
8.033159e+002, 1.384645e+001
8.037980e+002, 1.383357e+001
8.042802e+002, 1.385566e+001
8.047623e+002, 1.399520e+001
8.052444e+002, 1.409781e+001
8.057265e+002, 1.407714e+001
8.062086e+002, 1.395638e+001
8.066907e+002, 1.395567e+001
8.071729e+002, 1.410298e+001
8.076550e+002, 1.425045e+001
8.081371e+002, 1.432275e+001
8.086192e+002, 1.434750e+001
8.091013e+002, 1.440701e+001
8.095834e+002, 1.449189e+001
8.100656e+002, 1.454830e+001
8.105477e+002, 1.453589e+001
8.110298e+002, 1.449142e+001
8.115119e+002, 1.442538e+001
8.119940e+002, 1.434414e+001
8.124761e+002, 1.428609e+001
8.129583e+002, 1.427125e+001
8.134404e+002, 1.426169e+001
8.139225e+002, 1.423888e+001
8.144046e+002, 1.421126e+001
8.148867e+002, 1.423502e+001
8.153688e+002, 1.431207e+001
8.158510e+002, 1.439934e+001
8.163331e+002, 1.450846e+001
8.168152e+002, 1.459407e+001
8.172973e+002, 1.450340e+001
8.177794e+002, 1.429990e+001
8.182615e+002, 1.423995e+001
8.187437e+002, 1.466914e+001
8.192258e+002, 1.505948e+001
8.197079e+002, 1.512320e+001
8.201900e+002, 1.489898e+001
8.206721e+002, 1.475466e+001
8.211542e+002, 1.470697e+001
8.216364e+002, 1.470229e+001
8.221185e+002, 1.473629e+001
8.226006e+002, 1.479397e+001
8.230827e+002, 1.483027e+001
8.235648e+002, 1.484589e+001
8.240469e+002, 1.484832e+001
8.245291e+002, 1.478084e+001
8.250112e+002, 1.474988e+001
8.254933e+002, 1.489742e+001
8.259754e+002, 1.517171e+001
8.264575e+002, 1.540896e+001
8.269396e+002, 1.554288e+001
8.274218e+002, 1.564715e+001
8.279039e+002, 1.572278e+001
8.283860e+002, 1.578694e+001
8.288681e+002, 1.590429e+001
8.293502e+002, 1.608888e+001
8.298323e+002, 1.624631e+001
8.303145e+002, 1.632800e+001
8.307966e+002, 1.638486e+001
8.312787e+002, 1.651804e+001
8.317608e+002, 1.671041e+001
8.322429e+002, 1.690460e+001
8.327250e+002, 1.701253e+001
8.332072e+002, 1.718036e+001
8.336893e+002, 1.762031e+001
8.341714e+002, 1.817743e+001
8.346535e+002, 1.839521e+001
8.351356e+002, 1.778088e+001
8.356177e+002, 1.774362e+001
8.360999e+002, 1.884725e+001
8.365820e+002, 2.037590e+001
8.370641e+002, 2.055439e+001
8.375462e+002, 1.950452e+001
8.380283e+002, 1.861047e+001
8.385104e+002, 1.833016e+001
8.389926e+002, 1.835745e+001
8.394747e+002, 1.854553e+001
8.399568e+002, 1.876149e+001
8.404389e+002, 1.877472e+001
8.409210e+002, 1.823670e+001
8.414031e+002, 1.781551e+001
8.418853e+002, 1.776988e+001
8.423674e+002, 1.786602e+001
8.428495e+002, 1.776352e+001
8.433316e+002, 1.740922e+001
8.438137e+002, 1.712808e+001
8.442958e+002, 1.698676e+001
8.447780e+002, 1.689696e+001
8.452601e+002, 1.673417e+001
8.457422e+002, 1.652069e+001
8.462243e+002, 1.629825e+001
8.467064e+002, 1.605567e+001
8.471885e+002, 1.586386e+001
8.476707e+002, 1.579945e+001
8.481528e+002, 1.579189e+001
8.486349e+002, 1.575664e+001
8.491170e+002, 1.563512e+001
8.495991e+002, 1.558523e+001
8.500812e+002, 1.563950e+001
8.505634e+002, 1.571890e+001
8.510455e+002, 1.572833e+001
8.515276e+002, 1.567797e+001
8.520097e+002, 1.564456e+001
8.524918e+002, 1.563870e+001
8.529739e+002, 1.564520e+001
8.534561e+002, 1.566887e+001
8.539382e+002, 1.568727e+001
8.544203e+002, 1.568297e+001
8.549024e+002, 1.566719e+001
8.553845e+002, 1.557456e+001
8.558666e+002, 1.527680e+001
8.563488e+002, 1.500096e+001
8.568309e+002, 1.491856e+001
8.573130e+002, 1.506122e+001
8.577951e+002, 1.513701e+001
8.582772e+002, 1.513731e+001
8.587593e+002, 1.511832e+001
8.592415e+002, 1.513957e+001
8.597236e+002, 1.517016e+001
8.602057e+002, 1.513921e+001
8.606878e+002, 1.504195e+001
8.611699e+002, 1.498550e+001
8.616520e+002, 1.506627e+001
8.621342e+002, 1.516671e+001
8.626163e+002, 1.523084e+001
8.630984e+002, 1.526051e+001
8.635805e+002, 1.517978e+001
8.640626e+002, 1.492734e+001
8.645447e+002, 1.474846e+001
8.650269e+002, 1.483372e+001
8.655090e+002, 1.509567e+001
8.659911e+002, 1.524657e+001
8.664732e+002, 1.529121e+001
8.669553e+002, 1.526292e+001
8.674374e+002, 1.503650e+001
8.679196e+002, 1.486904e+001
8.684017e+002, 1.502807e+001
8.688838e+002, 1.545658e+001
8.693659e+002, 1.569074e+001
8.698480e+002, 1.556409e+001
8.703301e+002, 1.546109e+001
8.708123e+002, 1.550915e+001
8.712944e+002, 1.565167e+001
8.717765e+002, 1.568347e+001
8.722586e+002, 1.561440e+001
8.727407e+002, 1.555618e+001
8.732228e+002, 1.556133e+001
8.737050e+002, 1.559591e+001
8.741871e+002, 1.564614e+001
8.746692e+002, 1.569718e+001
8.751513e+002, 1.571718e+001
8.756334e+002, 1.566235e+001
8.761155e+002, 1.561524e+001
8.765977e+002, 1.556480e+001
8.770798e+002, 1.554559e+001
8.775619e+002, 1.564394e+001
8.780440e+002, 1.587143e+001
8.785261e+002, 1.604794e+001
8.790082e+002, 1.613056e+001
8.794904e+002, 1.617263e+001
8.799725e+002, 1.624572e+001
8.804546e+002, 1.632954e+001
8.809367e+002, 1.637957e+001
8.814188e+002, 1.634022e+001
8.819009e+002, 1.636217e+001
8.823831e+002, 1.656793e+001
8.828652e+002, 1.681905e+001
8.833473e+002, 1.696262e+001
8.838294e+002, 1.695447e+001
8.843115e+002, 1.702425e+001
8.847936e+002, 1.719355e+001
8.852758e+002, 1.738947e+001
8.857579e+002, 1.759398e+001
8.862400e+002, 1.775776e+001
8.867221e+002, 1.768367e+001
8.872042e+002, 1.732783e+001
8.876863e+002, 1.715744e+001
8.881685e+002, 1.765759e+001
8.886506e+002, 1.827161e+001
8.891327e+002, 1.859353e+001
8.896148e+002, 1.856678e+001
8.900969e+002, 1.854016e+001
8.905790e+002, 1.850428e+001
8.910612e+002, 1.849101e+001
8.915433e+002, 1.851213e+001
8.920254e+002, 1.857068e+001
8.925075e+002, 1.871097e+001
8.929896e+002, 1.891903e+001
8.934717e+002, 1.907967e+001
8.939539e+002, 1.906976e+001
8.944360e+002, 1.903736e+001
8.949181e+002, 1.910372e+001
8.954002e+002, 1.924872e+001
8.958823e+002, 1.931187e+001
8.963644e+002, 1.922280e+001
8.968466e+002, 1.917848e+001
8.973287e+002, 1.926179e+001
8.978108e+002, 1.939970e+001
8.982929e+002, 1.937461e+001
8.987750e+002, 1.921249e+001
8.992571e+002, 1.907564e+001
8.997393e+002, 1.901440e+001
9.002214e+002, 1.901947e+001
9.007035e+002, 1.912008e+001
9.011856e+002, 1.927343e+001
9.016677e+002, 1.940549e+001
9.021498e+002, 1.947047e+001
9.026320e+002, 1.956243e+001
9.031141e+002, 1.972353e+001
9.035962e+002, 1.987054e+001
9.040783e+002, 1.984495e+001
9.045604e+002, 1.966652e+001
9.050425e+002, 1.964098e+001
9.055247e+002, 1.984290e+001
9.060068e+002, 2.000855e+001
9.064889e+002, 1.985302e+001
9.069710e+002, 1.954171e+001
9.074531e+002, 1.926652e+001
9.079352e+002, 1.908861e+001
9.084174e+002, 1.881842e+001
9.088995e+002, 1.834634e+001
9.093816e+002, 1.787511e+001
9.098637e+002, 1.754255e+001
9.103458e+002, 1.734410e+001
9.108279e+002, 1.712127e+001
9.113101e+002, 1.687413e+001
9.117922e+002, 1.659562e+001
9.122743e+002, 1.622326e+001
9.127564e+002, 1.585534e+001
9.132385e+002, 1.562354e+001
9.137206e+002, 1.551260e+001
9.142028e+002, 1.537933e+001
9.146849e+002, 1.512358e+001
9.151670e+002, 1.490804e+001
9.156491e+002, 1.479181e+001
9.161312e+002, 1.474963e+001
9.166133e+002, 1.417582e+001
9.170955e+002, 1.303551e+001
9.175776e+002, 1.423351e+001
9.180597e+002, 2.061324e+001
9.185418e+002, 2.715494e+001
9.190239e+002, 2.688916e+001
9.195060e+002, 2.228024e+001
9.199882e+002, 1.812351e+001
9.204703e+002, 1.579516e+001
9.209524e+002, 1.429581e+001
9.214345e+002, 1.373554e+001
9.219166e+002, 1.367006e+001
9.223987e+002, 1.361384e+001
9.228809e+002, 1.356571e+001
9.233630e+002, 1.355006e+001
9.238451e+002, 1.357600e+001
9.243272e+002, 1.359486e+001
9.248093e+002, 1.354227e+001
9.252914e+002, 1.345696e+001
9.257736e+002, 1.339182e+001
9.262557e+002, 1.335798e+001
9.267378e+002, 1.332195e+001
9.272199e+002, 1.324630e+001
9.277020e+002, 1.319553e+001
9.281841e+002, 1.322210e+001
9.286663e+002, 1.332572e+001
9.291484e+002, 1.332397e+001
9.296305e+002, 1.321198e+001
9.301126e+002, 1.310332e+001
9.305947e+002, 1.307789e+001
9.310768e+002, 1.309108e+001
9.315590e+002, 1.309003e+001
9.320411e+002, 1.307749e+001
9.325232e+002, 1.306932e+001
9.330053e+002, 1.308338e+001
9.334874e+002, 1.308570e+001
9.339695e+002, 1.305595e+001
9.344517e+002, 1.301495e+001
9.349338e+002, 1.302771e+001
9.354159e+002, 1.309609e+001
9.358980e+002, 1.312612e+001
9.363801e+002, 1.309860e+001
9.368622e+002, 1.300664e+001
9.373444e+002, 1.276603e+001
9.378265e+002, 1.248286e+001
9.383086e+002, 1.231186e+001
9.387907e+002, 1.232013e+001
9.392728e+002, 1.239964e+001
9.397549e+002, 1.259111e+001
9.402371e+002, 1.278556e+001
9.407192e+002, 1.291135e+001
9.412013e+002, 1.296825e+001
9.416834e+002, 1.288235e+001
9.421655e+002, 1.264180e+001
9.426476e+002, 1.245267e+001
9.431298e+002, 1.256402e+001
9.436119e+002, 1.277115e+001
9.440940e+002, 1.285157e+001
9.445761e+002, 1.279473e+001
9.450582e+002, 1.273758e+001
9.455403e+002, 1.271056e+001
9.460225e+002, 1.269021e+001
9.465046e+002, 1.266883e+001
9.469867e+002, 1.264882e+001
9.474688e+002, 1.264404e+001
9.479509e+002, 1.265318e+001
9.484330e+002, 1.265316e+001
9.489152e+002, 1.261845e+001
9.493973e+002, 1.259208e+001
9.498794e+002, 1.266014e+001
9.503615e+002, 1.275589e+001
9.508436e+002, 1.276091e+001
9.513257e+002, 1.250118e+001
9.518079e+002, 1.236290e+001
9.522900e+002, 1.241066e+001
9.527721e+002, 1.252603e+001
9.532542e+002, 1.257344e+001
9.537363e+002, 1.255934e+001
9.542184e+002, 1.253507e+001
9.547006e+002, 1.250773e+001
9.551827e+002, 1.245168e+001
9.556648e+002, 1.225187e+001
9.561469e+002, 1.207908e+001
9.566290e+002, 1.181821e+001
9.571111e+002, 1.133167e+001
9.575933e+002, 1.261108e+001
9.580754e+002, 1.709106e+001
9.585575e+002, 2.054100e+001
9.590396e+002, 2.062605e+001
9.595217e+002, 1.824601e+001
9.600038e+002, 1.611079e+001
9.604860e+002, 1.427031e+001
9.609681e+002, 1.298074e+001
9.614502e+002, 1.265893e+001
9.619323e+002, 1.265947e+001
9.624144e+002, 1.277371e+001
9.628965e+002, 1.291600e+001
9.633787e+002, 1.288937e+001
9.638608e+002, 1.258724e+001
9.643429e+002, 1.238897e+001
9.648250e+002, 1.236046e+001
9.653071e+002, 1.239411e+001
9.657892e+002, 1.232983e+001
9.662714e+002, 1.221378e+001
9.667535e+002, 1.217110e+001
9.672356e+002, 1.223399e+001
9.677177e+002, 1.228995e+001
9.681998e+002, 1.225751e+001
9.686819e+002, 1.221136e+001
9.691641e+002, 1.221052e+001
9.696462e+002, 1.226065e+001
9.701283e+002, 1.227681e+001
9.706104e+002, 1.225437e+001
9.710925e+002, 1.222487e+001
9.715746e+002, 1.219622e+001
9.720568e+002, 1.217814e+001
9.725389e+002, 1.220024e+001
9.730210e+002, 1.224976e+001
9.735031e+002, 1.228406e+001
9.739852e+002, 1.225728e+001
9.744673e+002, 1.224719e+001
9.749495e+002, 1.229369e+001
9.754316e+002, 1.236019e+001
9.759137e+002, 1.237915e+001
9.763958e+002, 1.234752e+001
9.768779e+002, 1.233333e+001
9.773600e+002, 1.235669e+001
9.778422e+002, 1.236123e+001
9.783243e+002, 1.220310e+001
9.788064e+002, 1.203152e+001
9.792885e+002, 1.208282e+001
9.797706e+002, 1.247230e+001
9.802527e+002, 1.268215e+001
9.807349e+002, 1.249570e+001
9.812170e+002, 1.230033e+001
9.816991e+002, 1.231608e+001
9.821812e+002, 1.250923e+001
9.826633e+002, 1.257154e+001
9.831454e+002, 1.252630e+001
9.836276e+002, 1.263672e+001
9.841097e+002, 1.294206e+001
9.845918e+002, 1.357210e+001
9.850739e+002, 1.529286e+001
9.855560e+002, 1.738980e+001
9.860381e+002, 1.778271e+001
9.865203e+002, 1.531147e+001
9.870024e+002, 1.340151e+001
9.874845e+002, 1.253080e+001
9.879666e+002, 1.227309e+001
9.884487e+002, 1.214593e+001
9.889308e+002, 1.211938e+001
9.894130e+002, 1.210143e+001
9.898951e+002, 1.207452e+001
9.903772e+002, 1.207370e+001
9.908593e+002, 1.215752e+001
9.913414e+002, 1.224478e+001
9.918235e+002, 1.226186e+001
9.923057e+002, 1.220276e+001
9.927878e+002, 1.222722e+001
9.932699e+002, 1.235708e+001
9.937520e+002, 1.243602e+001
9.942341e+002, 1.233186e+001
9.947162e+002, 1.216002e+001
9.951984e+002, 1.212488e+001
9.956805e+002, 1.218778e+001
9.961626e+002, 1.224422e+001
9.966447e+002, 1.226214e+001
9.971268e+002, 1.225869e+001
9.976089e+002, 1.222898e+001
9.980911e+002, 1.218863e+001
9.985732e+002, 1.215874e+001
9.990553e+002, 1.213907e+001
9.995374e+002, 1.212146e+001
1.000020e+003, 1.210448e+001
1.000502e+003, 1.209590e+001
1.000984e+003, 1.212550e+001
1.001466e+003, 1.215226e+001
1.001948e+003, 1.212781e+001
1.002430e+003, 1.204162e+001
1.002912e+003, 1.197232e+001
1.003394e+003, 1.192144e+001
1.003876e+003, 1.189550e+001
1.004359e+003, 1.189668e+001
1.004841e+003, 1.192506e+001
1.005323e+003, 1.202052e+001
1.005805e+003, 1.215292e+001
1.006287e+003, 1.219223e+001
1.006769e+003, 1.197837e+001
1.007251e+003, 1.179326e+001
1.007733e+003, 1.184459e+001
1.008216e+003, 1.198341e+001
1.008698e+003, 1.198537e+001
1.009180e+003, 1.177653e+001
1.009662e+003, 1.160125e+001
1.010144e+003, 1.137432e+001
1.010626e+003, 1.165938e+001
1.011108e+003, 1.360419e+001
1.011590e+003, 1.612275e+001
1.012072e+003, 1.775622e+001
1.012555e+003, 1.838992e+001
1.013037e+003, 1.800155e+001
1.013519e+003, 1.540423e+001
1.014001e+003, 1.314012e+001
1.014483e+003, 1.204160e+001
1.014965e+003, 1.185535e+001
1.015447e+003, 1.181267e+001
1.015929e+003, 1.190169e+001
1.016411e+003, 1.200543e+001
1.016894e+003, 1.209601e+001
1.017376e+003, 1.216413e+001
1.017858e+003, 1.221963e+001
1.018340e+003, 1.223820e+001
1.018822e+003, 1.218025e+001
1.019304e+003, 1.198929e+001
1.019786e+003, 1.185456e+001
1.020268e+003, 1.177916e+001
1.020751e+003, 1.175197e+001
1.021233e+003, 1.177222e+001
1.021715e+003, 1.183267e+001
1.022197e+003, 1.192152e+001
1.022679e+003, 1.203479e+001
1.023161e+003, 1.215054e+001
1.023643e+003, 1.228491e+001
1.024125e+003, 1.238961e+001
1.024607e+003, 1.246375e+001
1.025090e+003, 1.248890e+001
1.025572e+003, 1.238396e+001
1.026054e+003, 1.213195e+001
1.026536e+003, 1.201336e+001
1.027018e+003, 1.210204e+001
1.027500e+003, 1.222686e+001
1.027982e+003, 1.218615e+001
1.028464e+003, 1.208937e+001
1.028947e+003, 1.206285e+001
1.029429e+003, 1.213628e+001
1.029911e+003, 1.224241e+001
1.030393e+003, 1.241445e+001
1.030875e+003, 1.254168e+001
1.031357e+003, 1.254802e+001
1.031839e+003, 1.247438e+001
1.032321e+003, 1.244684e+001
1.032803e+003, 1.246339e+001
1.033286e+003, 1.251426e+001
1.033768e+003, 1.263004e+001
1.034250e+003, 1.273837e+001
1.034732e+003, 1.282271e+001
1.035214e+003, 1.287263e+001
1.035696e+003, 1.286833e+001
1.036178e+003, 1.279592e+001
1.036660e+003, 1.274130e+001
1.037143e+003, 1.270839e+001
1.037625e+003, 1.270091e+001
1.038107e+003, 1.272931e+001
1.038589e+003, 1.277985e+001
1.039071e+003, 1.285399e+001
1.039553e+003, 1.294668e+001
1.040035e+003, 1.297858e+001
1.040517e+003, 1.285302e+001
1.041000e+003, 1.279853e+001
1.041482e+003, 1.292495e+001
1.041964e+003, 1.311512e+001
1.042446e+003, 1.301985e+001
1.042928e+003, 1.272400e+001
1.043410e+003, 1.260580e+001
1.043892e+003, 1.285891e+001
1.044374e+003, 1.306003e+001
1.044856e+003, 1.282601e+001
1.045339e+003, 1.251206e+001
1.045821e+003, 1.245683e+001
1.046303e+003, 1.271240e+001
1.046785e+003, 1.285361e+001
1.047267e+003, 1.286833e+001
1.047749e+003, 1.287383e+001
1.048231e+003, 1.300762e+001
1.048713e+003, 1.313324e+001
1.049195e+003, 1.301487e+001
1.049677e+003, 1.273868e+001
1.050160e+003, 1.255682e+001
1.050642e+003, 1.266489e+001
1.051124e+003, 1.268962e+001
1.051606e+003, 1.254522e+001
1.052088e+003, 1.237132e+001
1.052570e+003, 1.239669e+001
1.053052e+003, 1.255827e+001
1.053534e+003, 1.258876e+001
1.054017e+003, 1.245270e+001
1.054499e+003, 1.232922e+001
1.054981e+003, 1.235466e+001
1.055463e+003, 1.240580e+001
1.055945e+003, 1.241281e+001
1.056427e+003, 1.237848e+001
1.056909e+003, 1.230486e+001
1.057391e+003, 1.218485e+001
1.057874e+003, 1.211964e+001
1.058356e+003, 1.217850e+001
1.058838e+003, 1.223340e+001
1.059320e+003, 1.204159e+001
1.059802e+003, 1.178008e+001
1.060284e+003, 1.171835e+001
1.060766e+003, 1.208415e+001
1.061248e+003, 1.222706e+001
1.061730e+003, 1.203072e+001
1.062213e+003, 1.179781e+001
1.062695e+003, 1.176072e+001
1.063177e+003, 1.186007e+001
1.063659e+003, 1.189200e+001
1.064141e+003, 1.186282e+001
1.064623e+003, 1.180403e+001
1.065105e+003, 1.165099e+001
1.065587e+003, 1.156389e+001
1.066070e+003, 1.168796e+001
1.066552e+003, 1.187178e+001
1.067034e+003, 1.187051e+001
1.067516e+003, 1.167672e+001
1.067998e+003, 1.153150e+001
1.068480e+003, 1.146185e+001
1.068962e+003, 1.146131e+001
1.069444e+003, 1.160237e+001
1.069927e+003, 1.175335e+001
1.070409e+003, 1.177198e+001
1.070891e+003, 1.164895e+001
1.071373e+003, 1.159999e+001
1.071855e+003, 1.167026e+001
1.072337e+003, 1.169795e+001
1.072819e+003, 1.160666e+001
1.073301e+003, 1.148828e+001
1.073783e+003, 1.153207e+001
1.074266e+003, 1.167000e+001
1.074748e+003, 1.176563e+001
1.075230e+003, 1.179563e+001
1.075712e+003, 1.174144e+001
1.076194e+003, 1.151296e+001
1.076676e+003, 1.129294e+001
1.077158e+003, 1.119514e+001
1.077640e+003, 1.120821e+001
1.078122e+003, 1.119536e+001
1.078604e+003, 1.116599e+001
1.079087e+003, 1.119983e+001
1.079569e+003, 1.145592e+001
1.080051e+003, 1.166802e+001
1.080533e+003, 1.161881e+001
1.081015e+003, 1.143709e+001
1.081497e+003, 1.119585e+001
1.081979e+003, 1.059435e+001
1.082461e+003, 1.172029e+001
1.082944e+003, 1.499700e+001
1.083426e+003, 1.814013e+001
1.083908e+003, 1.858208e+001
1.084390e+003, 1.786324e+001
1.084872e+003, 1.813238e+001
1.085354e+003, 1.931747e+001
1.085836e+003, 1.888227e+001
1.086318e+003, 1.525875e+001
1.086801e+003, 1.234516e+001
1.087283e+003, 1.112244e+001
1.087765e+003, 1.096981e+001
1.088247e+003, 1.099180e+001
1.088729e+003, 1.113309e+001
1.089211e+003, 1.126153e+001
1.089693e+003, 1.135993e+001
1.090175e+003, 1.139092e+001
1.090657e+003, 1.128687e+001
1.091140e+003, 1.115856e+001
1.091622e+003, 1.105976e+001
1.092104e+003, 1.098933e+001
1.092586e+003, 1.093969e+001
1.093068e+003, 1.091052e+001
1.093550e+003, 1.089897e+001
1.094032e+003, 1.089984e+001
1.094514e+003, 1.092323e+001
1.094997e+003, 1.102433e+001
1.095479e+003, 1.112874e+001
1.095961e+003, 1.112665e+001
1.096443e+003, 1.096199e+001
1.096925e+003, 1.089047e+001
1.097407e+003, 1.092624e+001
1.097889e+003, 1.096813e+001
1.098371e+003, 1.089316e+001
1.098854e+003, 1.080884e+001
1.099336e+003, 1.090432e+001
1.099818e+003, 1.112080e+001
1.100300e+003, 1.121652e+001
1.100782e+003, 1.103003e+001
1.101264e+003, 1.091323e+001
1.101746e+003, 1.093607e+001
1.102228e+003, 1.098881e+001
1.102710e+003, 1.088002e+001
1.103193e+003, 1.069525e+001
1.103675e+003, 1.067106e+001
1.104157e+003, 1.083511e+001
1.104639e+003, 1.096642e+001
1.105121e+003, 1.093921e+001
1.105603e+003, 1.089392e+001
1.106085e+003, 1.089569e+001
1.106567e+003, 1.091466e+001
1.107049e+003, 1.082296e+001
1.107531e+003, 1.064388e+001
1.108014e+003, 1.057706e+001
1.108496e+003, 1.069880e+001
1.108978e+003, 1.085936e+001
1.109460e+003, 1.101079e+001
1.109942e+003, 1.110952e+001
1.110424e+003, 1.109199e+001
1.110906e+003, 1.095274e+001
1.111388e+003, 1.090515e+001
1.111871e+003, 1.095409e+001
1.112353e+003, 1.102781e+001
1.112835e+003, 1.112789e+001
1.113317e+003, 1.118812e+001
1.113799e+003, 1.109821e+001
1.114281e+003, 1.093003e+001
1.114763e+003, 1.079845e+001
1.115245e+003, 1.070036e+001
1.115728e+003, 1.071064e+001
1.116210e+003, 1.086780e+001
1.116692e+003, 1.100561e+001
1.117174e+003, 1.094840e+001
1.117656e+003, 1.079545e+001
1.118138e+003, 1.072169e+001
1.118620e+003, 1.071697e+001
1.119102e+003, 1.071907e+001
1.119584e+003, 1.071948e+001
1.120067e+003, 1.070548e+001
1.120549e+003, 1.066964e+001
1.121031e+003, 1.062718e+001
1.121513e+003, 1.058754e+001
1.121995e+003, 1.055867e+001
1.122477e+003, 1.056848e+001
1.122959e+003, 1.061942e+001
1.123441e+003, 1.070028e+001
1.123924e+003, 1.086803e+001
1.124406e+003, 1.099099e+001
1.124888e+003, 1.099316e+001
1.125370e+003, 1.092419e+001
1.125852e+003, 1.094652e+001
1.126334e+003, 1.104488e+001
1.126816e+003, 1.101329e+001
1.127298e+003, 1.076616e+001
1.127781e+003, 1.057725e+001
1.128263e+003, 1.072956e+001
1.128745e+003, 1.096379e+001
1.129227e+003, 1.106227e+001
1.129709e+003, 1.102800e+001
1.130191e+003, 1.104086e+001
1.130673e+003, 1.110994e+001
1.131155e+003, 1.107018e+001
1.131637e+003, 1.078658e+001
1.132120e+003, 1.048903e+001
1.132602e+003, 1.043275e+001
1.133084e+003, 1.051059e+001
1.133566e+003, 1.058227e+001
1.134048e+003, 1.064196e+001
1.134530e+003, 1.063867e+001
1.135012e+003, 1.054880e+001
1.135494e+003, 1.049142e+001
1.135976e+003, 1.057419e+001
1.136458e+003, 1.071734e+001
1.136941e+003, 1.079873e+001
1.137423e+003, 1.083525e+001
1.137905e+003, 1.086779e+001
1.138387e+003, 1.094769e+001
1.138869e+003, 1.095318e+001
1.139351e+003, 1.085412e+001
1.139833e+003, 1.073277e+001
1.140315e+003, 1.067057e+001
1.140798e+003, 1.064821e+001
1.141280e+003, 1.062440e+001
1.141762e+003, 1.059690e+001
1.142244e+003, 1.056731e+001
1.142726e+003, 1.050019e+001
1.143208e+003, 1.048289e+001
1.143690e+003, 1.054923e+001
1.144172e+003, 1.065237e+001
1.144655e+003, 1.074425e+001
1.145137e+003, 1.081250e+001
1.145619e+003, 1.078607e+001
1.146101e+003, 1.065495e+001
1.146583e+003, 1.056903e+001
1.147065e+003, 1.068684e+001
1.147547e+003, 1.078308e+001
1.148029e+003, 1.072590e+001
1.148511e+003, 1.058623e+001
1.148994e+003, 1.059599e+001
1.149476e+003, 1.073222e+001
1.149958e+003, 1.077392e+001
1.150440e+003, 1.065216e+001
1.150922e+003, 1.052387e+001
1.151404e+003, 1.048689e+001
1.151886e+003, 1.050227e+001
1.152368e+003, 1.056448e+001
1.152851e+003, 1.065985e+001
1.153333e+003, 1.065266e+001
1.153815e+003, 1.054211e+001
1.154297e+003, 1.045490e+001
1.154779e+003, 1.043604e+001
1.155261e+003, 1.046203e+001
1.155743e+003, 1.056577e+001
1.156225e+003, 1.067163e+001
1.156708e+003, 1.067420e+001
1.157190e+003, 1.055201e+001
1.157672e+003, 1.049074e+001
1.158154e+003, 1.049811e+001
1.158636e+003, 1.049881e+001
1.159118e+003, 1.042509e+001
1.159600e+003, 1.035259e+001
1.160082e+003, 1.040509e+001
1.160564e+003, 1.050675e+001
1.161047e+003, 1.051874e+001
1.161529e+003, 1.036395e+001
1.162011e+003, 1.026672e+001
1.162493e+003, 1.023841e+001
1.162975e+003, 1.022198e+001
1.163457e+003, 1.014451e+001
1.163939e+003, 1.007158e+001
1.164421e+003, 1.013497e+001
1.164903e+003, 1.028235e+001
1.165385e+003, 1.035021e+001
1.165868e+003, 1.021102e+001
1.166350e+003, 1.017481e+001
1.166832e+003, 1.029936e+001
1.167314e+003, 1.043272e+001
1.167796e+003, 1.037781e+001
1.168278e+003, 1.023966e+001
1.168760e+003, 1.019961e+001
1.169242e+003, 1.025836e+001
1.169725e+003, 1.034581e+001
1.170207e+003, 1.048399e+001
1.170689e+003, 1.058985e+001
1.171171e+003, 1.065625e+001
1.171653e+003, 1.067523e+001
1.172135e+003, 1.060868e+001
1.172617e+003, 1.049272e+001
1.173099e+003, 1.041147e+001
1.173582e+003, 1.037381e+001
1.174064e+003, 1.032321e+001
1.174546e+003, 1.019248e+001
1.175028e+003, 1.010662e+001
1.175510e+003, 1.009341e+001
1.175992e+003, 1.014898e+001
1.176474e+003, 1.031859e+001
1.176956e+003, 1.054689e+001
1.177438e+003, 1.067311e+001
1.177921e+003, 1.066552e+001
1.178403e+003, 1.057354e+001
1.178885e+003, 1.026980e+001
1.179367e+003, 1.006102e+001
1.179849e+003, 1.009329e+001
1.180331e+003, 1.028865e+001
1.180813e+003, 1.043917e+001
1.181295e+003, 1.054341e+001
1.181778e+003, 1.059567e+001
1.182260e+003, 1.059395e+001
1.182742e+003, 1.054202e+001
1.183224e+003, 1.037753e+001
1.183706e+003, 1.022659e+001
1.184188e+003, 1.015258e+001
1.184670e+003, 1.015073e+001
1.185152e+003, 1.023411e+001
1.185635e+003, 1.037865e+001
1.186117e+003, 1.045989e+001
1.186599e+003, 1.039969e+001
1.187081e+003, 1.033250e+001
1.187563e+003, 1.033496e+001
1.188045e+003, 1.034634e+001
1.188527e+003, 1.031821e+001
1.189009e+003, 1.025473e+001
1.189491e+003, 1.020784e+001
1.189974e+003, 1.017554e+001
1.190456e+003, 1.014343e+001
1.190938e+003, 1.011200e+001
1.191420e+003, 1.006893e+001
1.191902e+003, 9.960467e+000
1.192384e+003, 9.873550e+000
1.192866e+003, 9.908365e+000
1.193348e+003, 1.006866e+001
1.193830e+003, 1.016894e+001
1.194313e+003, 1.021228e+001
1.194795e+003, 1.024068e+001
1.195277e+003, 1.027465e+001
1.195759e+003, 1.030556e+001
1.196241e+003, 1.035421e+001
1.196723e+003, 1.037991e+001
1.197205e+003, 1.030777e+001
1.197687e+003, 1.013280e+001
1.198169e+003, 1.008204e+001
1.198652e+003, 1.016053e+001
1.199134e+003, 1.021565e+001
1.199616e+003, 1.011364e+001
1.200098e+003, 9.989520e+000
1.200580e+003, 9.889661e+000
1.201062e+003, 9.837680e+000
1.201544e+003, 9.898554e+000
1.202026e+003, 1.007812e+001
1.202509e+003, 1.012706e+001
1.202991e+003, 1.002243e+001
1.203473e+003, 9.911527e+000
1.203955e+003, 9.876784e+000
1.204437e+003, 9.894788e+000
1.204919e+003, 9.970379e+000
1.205401e+003, 1.008271e+001
1.205883e+003, 1.023062e+001
1.206365e+003, 1.041986e+001
1.206848e+003, 1.033294e+001
1.207330e+003, 9.908587e+000
1.207812e+003, 9.551386e+000
1.208294e+003, 9.634341e+000
1.208776e+003, 9.834167e+000
1.209258e+003, 9.957545e+000
1.209740e+003, 1.001248e+001
1.210222e+003, 1.002761e+001
1.210705e+003, 1.000286e+001
1.211187e+003, 9.927958e+000
1.211669e+003, 9.787574e+000
1.212151e+003, 9.721491e+000
1.212633e+003, 9.935713e+000
1.213115e+003, 1.018407e+001
1.213597e+003, 1.028513e+001
1.214079e+003, 1.026597e+001
1.214562e+003, 1.019609e+001
1.215044e+003, 1.007778e+001
1.215526e+003, 1.002383e+001
1.216008e+003, 1.007135e+001
1.216490e+003, 1.012170e+001
1.216972e+003, 1.005471e+001
1.217454e+003, 9.999089e+000
1.217936e+003, 1.010129e+001
1.218418e+003, 1.030527e+001
1.218901e+003, 1.027016e+001
1.219383e+003, 1.001126e+001
1.219865e+003, 9.902035e+000
1.220347e+003, 1.009478e+001
1.220829e+003, 1.027195e+001
1.221311e+003, 1.015587e+001
1.221793e+003, 9.963940e+000
1.222275e+003, 9.836689e+000
1.222757e+003, 9.779937e+000
1.223240e+003, 9.869869e+000
1.223722e+003, 1.008828e+001
1.224204e+003, 1.018499e+001
1.224686e+003, 1.003456e+001
1.225168e+003, 9.868898e+000
1.225650e+003, 9.822004e+000
1.226132e+003, 9.844142e+000
1.226614e+003, 9.902836e+000
1.227096e+003, 9.991577e+000
1.227579e+003, 1.006895e+001
1.228061e+003, 1.012994e+001
1.228543e+003, 1.011989e+001
1.229025e+003, 9.973980e+000
1.229507e+003, 9.857098e+000
1.229989e+003, 9.929718e+000
1.230471e+003, 1.001045e+001
1.230953e+003, 9.922540e+000
1.231436e+003, 9.702338e+000
1.231918e+003, 9.755423e+000
1.232400e+003, 1.003463e+001
1.232882e+003, 1.021288e+001
1.233364e+003, 1.011039e+001
1.233846e+003, 9.966180e+000
1.234328e+003, 9.849990e+000
1.234810e+003, 9.780112e+000
1.235292e+003, 9.781552e+000
1.235775e+003, 9.844240e+000
1.236257e+003, 9.904122e+000
1.236739e+003, 9.953137e+000
1.237221e+003, 9.946644e+000
1.237703e+003, 9.800888e+000
1.238185e+003, 9.700755e+000
1.238667e+003, 9.748158e+000
1.239149e+003, 9.837049e+000
1.239632e+003, 9.899251e+000
1.240114e+003, 9.939072e+000
1.240596e+003, 1.000265e+001
1.241078e+003, 1.007626e+001
1.241560e+003, 1.010383e+001
1.242042e+003, 1.002313e+001
1.242524e+003, 9.945142e+000
1.243006e+003, 9.890945e+000
1.243489e+003, 9.855645e+000
1.243971e+003, 9.839020e+000
1.244453e+003, 9.838330e+000
1.244935e+003, 9.841849e+000
1.245417e+003, 9.851399e+000
1.245899e+003, 9.873642e+000
1.246381e+003, 9.924319e+000
1.246863e+003, 9.972054e+000
1.247345e+003, 1.002407e+001
1.247828e+003, 1.005138e+001
1.248310e+003, 1.000073e+001
1.248792e+003, 9.914677e+000
1.249274e+003, 9.931982e+000
1.249756e+003, 1.001817e+001
1.250238e+003, 1.005131e+001
1.250720e+003, 9.913748e+000
1.251202e+003, 9.838379e+000
1.251684e+003, 9.860360e+000
1.252167e+003, 9.903195e+000
1.252649e+003, 9.875368e+000
1.253131e+003, 9.834414e+000
1.253613e+003, 9.933439e+000
1.254095e+003, 1.011969e+001
1.254577e+003, 1.021581e+001
1.255059e+003, 1.012735e+001
1.255541e+003, 1.002315e+001
1.256023e+003, 9.884523e+000
1.256506e+003, 9.825356e+000
1.256988e+003, 1.006974e+001
1.257470e+003, 1.036975e+001
1.257952e+003, 1.031918e+001
1.258434e+003, 1.002784e+001
1.258916e+003, 9.843648e+000
1.259398e+003, 9.824387e+000
1.259880e+003, 9.871128e+000
1.260363e+003, 9.992369e+000
1.260845e+003, 1.009485e+001
1.261327e+003, 1.007937e+001
1.261809e+003, 1.002255e+001
1.262291e+003, 9.997579e+000
1.262773e+003, 9.996451e+000
1.263255e+003, 9.994556e+000
1.263737e+003, 9.997264e+000
1.264219e+003, 9.954786e+000
1.264702e+003, 9.859176e+000
1.265184e+003, 9.788693e+000
1.265666e+003, 9.806624e+000
1.266148e+003, 9.870273e+000
1.266630e+003, 9.976358e+000
1.267112e+003, 1.009458e+001
1.267594e+003, 1.017179e+001
1.268076e+003, 1.020939e+001
1.268559e+003, 1.016465e+001
1.269041e+003, 1.003631e+001
1.269523e+003, 9.963130e+000
1.270005e+003, 1.013580e+001
1.270487e+003, 1.028780e+001
1.270969e+003, 1.018916e+001
1.271451e+003, 1.001902e+001
1.271933e+003, 1.005464e+001
1.272416e+003, 1.027125e+001
1.272898e+003, 1.032171e+001
1.273380e+003, 1.019890e+001
1.273862e+003, 1.009437e+001
1.274344e+003, 1.018440e+001
1.274826e+003, 1.022418e+001
1.275308e+003, 1.008309e+001
1.275790e+003, 9.905758e+000
1.276272e+003, 9.908237e+000
1.276755e+003, 1.002852e+001
1.277237e+003, 9.998289e+000
1.277719e+003, 9.831351e+000
1.278201e+003, 9.733069e+000
1.278683e+003, 9.847798e+000
1.279165e+003, 9.977291e+000
1.279647e+003, 1.011370e+001
1.280129e+003, 1.019757e+001
1.280611e+003, 1.010900e+001
1.281094e+003, 9.943369e+000
1.281576e+003, 9.931310e+000
1.282058e+003, 1.004436e+001
1.282540e+003, 1.008509e+001
1.283022e+003, 9.929274e+000
1.283504e+003, 9.839338e+000
1.283986e+003, 9.848114e+000
1.284468e+003, 9.901355e+000
1.284950e+003, 9.991390e+000
1.285433e+003, 1.006113e+001
1.285915e+003, 1.000617e+001
1.286397e+003, 9.859927e+000
1.286879e+003, 9.761127e+000
1.287361e+003, 9.728589e+000
1.287843e+003, 9.712337e+000
1.288325e+003, 9.709413e+000
1.288807e+003, 9.713605e+000
1.289290e+003, 9.712485e+000
1.289772e+003, 9.722753e+000
1.290254e+003, 9.789931e+000
1.290736e+003, 9.869473e+000
1.291218e+003, 9.850781e+000
1.291700e+003, 9.722149e+000
1.292182e+003, 9.662295e+000
1.292664e+003, 9.682770e+000
1.293146e+003, 9.701396e+000
1.293629e+003, 9.652666e+000
1.294111e+003, 9.593939e+000
1.294593e+003, 9.512132e+000
1.295075e+003, 9.472205e+000
1.295557e+003, 9.626330e+000
1.296039e+003, 9.927846e+000
1.296521e+003, 9.947473e+000
1.297003e+003, 9.694638e+000
1.297486e+003, 9.454949e+000
1.297968e+003, 9.305871e+000
1.298450e+003, 9.316656e+000
1.298932e+003, 9.565341e+000
1.299414e+003, 9.853330e+000
1.299896e+003, 9.979323e+000
1.300378e+003, 9.965540e+000
1.300860e+003, 9.804228e+000
1.301343e+003, 9.547552e+000
1.301825e+003, 9.399360e+000
##END=



