##NAMES=Terlinguaite
##RRUFFID=R140878
##IDEAL CHEMISTRY=Hg_2_OCl
##LOCALITY=Terlingua, Texas, USA
##OWNER=RRUFF
##SOURCE=Tom Loomis
##DESCRIPTION=Yellow crystals, associated with red montroydite (R140877)
##STATUS=The identification of this mineral has been confirmed by single-crystal X-ray diffraction.
##URL=rruff.info/R140878
9.059570e+001, 3.974111e+001
9.107782e+001, 3.857032e+001
9.155994e+001, 3.815592e+001
9.204205e+001, 3.894592e+001
9.252417e+001, 4.019410e+001
9.300629e+001, 4.170865e+001
9.348840e+001, 4.316919e+001
9.397052e+001, 4.419977e+001
9.445264e+001, 4.452564e+001
9.493475e+001, 4.456260e+001
9.541687e+001, 4.474873e+001
9.589898e+001, 4.491749e+001
9.638110e+001, 4.531168e+001
9.686321e+001, 4.611762e+001
9.734533e+001, 4.736526e+001
9.782745e+001, 4.893606e+001
9.830956e+001, 5.103199e+001
9.879168e+001, 5.365008e+001
9.927380e+001, 5.663734e+001
9.975591e+001, 6.021236e+001
1.002380e+002, 6.416923e+001
1.007201e+002, 6.809105e+001
1.012023e+002, 7.226608e+001
1.016844e+002, 7.594174e+001
1.021665e+002, 7.717432e+001
1.026486e+002, 7.533305e+001
1.031307e+002, 7.158105e+001
1.036128e+002, 6.647865e+001
1.040950e+002, 5.971196e+001
1.045771e+002, 5.310614e+001
1.050592e+002, 4.764803e+001
1.055413e+002, 4.312400e+001
1.060234e+002, 3.947564e+001
1.065055e+002, 3.686792e+001
1.069877e+002, 3.512613e+001
1.074698e+002, 3.355005e+001
1.079519e+002, 3.223030e+001
1.084340e+002, 3.097509e+001
1.089161e+002, 2.960366e+001
1.093982e+002, 2.820069e+001
1.098804e+002, 2.698865e+001
1.103625e+002, 2.619243e+001
1.108446e+002, 2.588926e+001
1.113267e+002, 2.562159e+001
1.118088e+002, 2.548889e+001
1.122909e+002, 2.530997e+001
1.127731e+002, 2.505376e+001
1.132552e+002, 2.468845e+001
1.137373e+002, 2.414322e+001
1.142194e+002, 2.331581e+001
1.147015e+002, 2.203724e+001
1.151836e+002, 2.071586e+001
1.156658e+002, 1.926848e+001
1.161479e+002, 1.781228e+001
1.166300e+002, 1.643985e+001
1.171121e+002, 1.517662e+001
1.175942e+002, 1.403587e+001
1.180763e+002, 1.308350e+001
1.185584e+002, 1.231090e+001
1.190406e+002, 1.166889e+001
1.195227e+002, 1.118527e+001
1.200048e+002, 1.082962e+001
1.204869e+002, 1.051383e+001
1.209690e+002, 1.019520e+001
1.214511e+002, 9.907883e+000
1.219333e+002, 9.697004e+000
1.224154e+002, 9.575335e+000
1.228975e+002, 9.507104e+000
1.233796e+002, 9.466529e+000
1.238617e+002, 9.453104e+000
1.243438e+002, 9.469761e+000
1.248260e+002, 9.526448e+000
1.253081e+002, 9.611948e+000
1.257902e+002, 9.727601e+000
1.262723e+002, 9.884323e+000
1.267544e+002, 1.005729e+001
1.272365e+002, 1.017435e+001
1.277187e+002, 1.015404e+001
1.282008e+002, 1.022287e+001
1.286829e+002, 1.049985e+001
1.291650e+002, 1.088138e+001
1.296471e+002, 1.122011e+001
1.301292e+002, 1.140865e+001
1.306114e+002, 1.146479e+001
1.310935e+002, 1.165188e+001
1.315756e+002, 1.204547e+001
1.320577e+002, 1.250934e+001
1.325398e+002, 1.303296e+001
1.330219e+002, 1.360471e+001
1.335041e+002, 1.420842e+001
1.339862e+002, 1.483556e+001
1.344683e+002, 1.549516e+001
1.349504e+002, 1.613388e+001
1.354325e+002, 1.670285e+001
1.359146e+002, 1.729372e+001
1.363968e+002, 1.798485e+001
1.368789e+002, 1.877235e+001
1.373610e+002, 1.956166e+001
1.378431e+002, 2.022428e+001
1.383252e+002, 2.072733e+001
1.388073e+002, 2.128505e+001
1.392895e+002, 2.197017e+001
1.397716e+002, 2.269365e+001
1.402537e+002, 2.333316e+001
1.407358e+002, 2.384100e+001
1.412179e+002, 2.433570e+001
1.417000e+002, 2.498337e+001
1.421821e+002, 2.576629e+001
1.426643e+002, 2.656114e+001
1.431464e+002, 2.727525e+001
1.436285e+002, 2.795016e+001
1.441106e+002, 2.874541e+001
1.445927e+002, 2.972733e+001
1.450748e+002, 3.081698e+001
1.455570e+002, 3.193157e+001
1.460391e+002, 3.306781e+001
1.465212e+002, 3.424516e+001
1.470033e+002, 3.545184e+001
1.474854e+002, 3.667855e+001
1.479675e+002, 3.804781e+001
1.484497e+002, 3.965062e+001
1.489318e+002, 4.138560e+001
1.494139e+002, 4.320073e+001
1.498960e+002, 4.508074e+001
1.503781e+002, 4.708947e+001
1.508602e+002, 4.935285e+001
1.513424e+002, 5.212570e+001
1.518245e+002, 5.462881e+001
1.523066e+002, 5.671200e+001
1.527887e+002, 5.860776e+001
1.532708e+002, 6.058428e+001
1.537529e+002, 6.271920e+001
1.542351e+002, 6.481316e+001
1.547172e+002, 6.636132e+001
1.551993e+002, 6.717886e+001
1.556814e+002, 6.755196e+001
1.561635e+002, 6.761867e+001
1.566456e+002, 6.722807e+001
1.571278e+002, 6.614504e+001
1.576099e+002, 6.423544e+001
1.580920e+002, 6.163425e+001
1.585741e+002, 5.886946e+001
1.590562e+002, 5.592152e+001
1.595383e+002, 5.286025e+001
1.600205e+002, 4.959286e+001
1.605026e+002, 4.622013e+001
1.609847e+002, 4.295464e+001
1.614668e+002, 3.992969e+001
1.619489e+002, 3.713096e+001
1.624310e+002, 3.447747e+001
1.629131e+002, 3.185466e+001
1.633953e+002, 2.946934e+001
1.638774e+002, 2.748302e+001
1.643595e+002, 2.587475e+001
1.648416e+002, 2.449279e+001
1.653237e+002, 2.330938e+001
1.658058e+002, 2.229207e+001
1.662880e+002, 2.133683e+001
1.667701e+002, 2.040341e+001
1.672522e+002, 1.954653e+001
1.677343e+002, 1.883975e+001
1.682164e+002, 1.829684e+001
1.686985e+002, 1.784482e+001
1.691807e+002, 1.748925e+001
1.696628e+002, 1.719032e+001
1.701449e+002, 1.690478e+001
1.706270e+002, 1.662013e+001
1.711091e+002, 1.633850e+001
1.715912e+002, 1.604834e+001
1.720734e+002, 1.568879e+001
1.725555e+002, 1.544526e+001
1.730376e+002, 1.541860e+001
1.735197e+002, 1.552339e+001
1.740018e+002, 1.565309e+001
1.744839e+002, 1.577175e+001
1.749661e+002, 1.586130e+001
1.754482e+002, 1.579816e+001
1.759303e+002, 1.538702e+001
1.764124e+002, 1.503587e+001
1.768945e+002, 1.487191e+001
1.773766e+002, 1.484322e+001
1.778588e+002, 1.484938e+001
1.783409e+002, 1.481427e+001
1.788230e+002, 1.473707e+001
1.793051e+002, 1.472828e+001
1.797872e+002, 1.477675e+001
1.802693e+002, 1.490254e+001
1.807515e+002, 1.513513e+001
1.812336e+002, 1.545605e+001
1.817157e+002, 1.583121e+001
1.821978e+002, 1.624682e+001
1.826799e+002, 1.672111e+001
1.831620e+002, 1.703106e+001
1.836441e+002, 1.710084e+001
1.841263e+002, 1.711515e+001
1.846084e+002, 1.719509e+001
1.850905e+002, 1.732306e+001
1.855726e+002, 1.735727e+001
1.860547e+002, 1.712694e+001
1.865368e+002, 1.657640e+001
1.870190e+002, 1.630968e+001
1.875011e+002, 1.650540e+001
1.879832e+002, 1.684521e+001
1.884653e+002, 1.709668e+001
1.889474e+002, 1.723500e+001
1.894296e+002, 1.737948e+001
1.899117e+002, 1.764013e+001
1.903938e+002, 1.801891e+001
1.908759e+002, 1.846271e+001
1.913580e+002, 1.895078e+001
1.918401e+002, 1.950688e+001
1.923223e+002, 2.018342e+001
1.928044e+002, 2.100376e+001
1.932865e+002, 2.186025e+001
1.937686e+002, 2.269819e+001
1.942507e+002, 2.350625e+001
1.947328e+002, 2.419885e+001
1.952150e+002, 2.456973e+001
1.956971e+002, 2.483775e+001
1.961792e+002, 2.549809e+001
1.966613e+002, 2.675315e+001
1.971434e+002, 2.804432e+001
1.976255e+002, 2.893726e+001
1.981077e+002, 2.954425e+001
1.985898e+002, 3.011246e+001
1.990719e+002, 3.084158e+001
1.995540e+002, 3.165869e+001
2.000361e+002, 3.224834e+001
2.005182e+002, 3.259229e+001
2.010004e+002, 3.268797e+001
2.014825e+002, 3.265450e+001
2.019646e+002, 3.242771e+001
2.024467e+002, 3.184900e+001
2.029288e+002, 3.077682e+001
2.034109e+002, 2.922608e+001
2.038930e+002, 2.744196e+001
2.043752e+002, 2.511516e+001
2.048573e+002, 2.287815e+001
2.053394e+002, 2.094688e+001
2.058215e+002, 1.930511e+001
2.063036e+002, 1.785702e+001
2.067857e+002, 1.654210e+001
2.072679e+002, 1.536022e+001
2.077500e+002, 1.431559e+001
2.082321e+002, 1.345571e+001
2.087142e+002, 1.269942e+001
2.091963e+002, 1.203664e+001
2.096784e+002, 1.146362e+001
2.101606e+002, 1.098332e+001
2.106427e+002, 1.060707e+001
2.111248e+002, 1.034926e+001
2.116069e+002, 1.008820e+001
2.120890e+002, 9.787596e+000
2.125711e+002, 9.517421e+000
2.130533e+002, 9.298295e+000
2.135354e+002, 9.133837e+000
2.140175e+002, 9.025956e+000
2.144996e+002, 8.987826e+000
2.149817e+002, 9.041322e+000
2.154638e+002, 9.002319e+000
2.159460e+002, 8.775126e+000
2.164281e+002, 8.561271e+000
2.169102e+002, 8.483260e+000
2.173923e+002, 8.525080e+000
2.178744e+002, 8.572021e+000
2.183565e+002, 8.513676e+000
2.188387e+002, 8.331417e+000
2.193208e+002, 8.216472e+000
2.198029e+002, 8.242021e+000
2.202850e+002, 8.266849e+000
2.207671e+002, 8.181158e+000
2.212492e+002, 7.993236e+000
2.217314e+002, 7.814520e+000
2.222135e+002, 7.744057e+000
2.226956e+002, 7.792304e+000
2.231777e+002, 7.824821e+000
2.236598e+002, 7.829466e+000
2.241419e+002, 7.827577e+000
2.246240e+002, 7.858467e+000
2.251062e+002, 7.918983e+000
2.255883e+002, 7.925408e+000
2.260704e+002, 7.777399e+000
2.265525e+002, 7.498630e+000
2.270346e+002, 7.295919e+000
2.275167e+002, 7.234000e+000
2.279989e+002, 7.221008e+000
2.284810e+002, 7.174385e+000
2.289631e+002, 7.089374e+000
2.294452e+002, 7.007545e+000
2.299273e+002, 6.977079e+000
2.304094e+002, 6.972976e+000
2.308916e+002, 6.924950e+000
2.313737e+002, 6.794171e+000
2.318558e+002, 6.629548e+000
2.323379e+002, 6.478210e+000
2.328200e+002, 6.338956e+000
2.333021e+002, 6.221595e+000
2.337843e+002, 6.141912e+000
2.342664e+002, 6.087047e+000
2.347485e+002, 6.042020e+000
2.352306e+002, 6.017119e+000
2.357127e+002, 5.988616e+000
2.361948e+002, 5.911059e+000
2.366770e+002, 5.766819e+000
2.371591e+002, 5.645338e+000
2.376412e+002, 5.620021e+000
2.381233e+002, 5.634568e+000
2.386054e+002, 5.628539e+000
2.390875e+002, 5.579360e+000
2.395697e+002, 5.507545e+000
2.400518e+002, 5.452768e+000
2.405339e+002, 5.429931e+000
2.410160e+002, 5.374156e+000
2.414981e+002, 5.213494e+000
2.419802e+002, 5.028555e+000
2.424624e+002, 4.898384e+000
2.429445e+002, 4.854729e+000
2.434266e+002, 4.862274e+000
2.439087e+002, 4.870619e+000
2.443908e+002, 4.893378e+000
2.448729e+002, 4.877348e+000
2.453550e+002, 4.758346e+000
2.458372e+002, 4.622746e+000
2.463193e+002, 4.553549e+000
2.468014e+002, 4.581430e+000
2.472835e+002, 4.650688e+000
2.477656e+002, 4.657188e+000
2.482477e+002, 4.557159e+000
2.487299e+002, 4.500346e+000
2.492120e+002, 4.525131e+000
2.496941e+002, 4.589662e+000
2.501762e+002, 4.680695e+000
2.506583e+002, 4.791472e+000
2.511404e+002, 4.888116e+000
2.516226e+002, 4.911604e+000
2.521047e+002, 4.837340e+000
2.525868e+002, 4.740456e+000
2.530689e+002, 4.571587e+000
2.535510e+002, 4.422249e+000
2.540331e+002, 4.370568e+000
2.545153e+002, 4.431071e+000
2.549974e+002, 4.543005e+000
2.554795e+002, 4.616013e+000
2.559616e+002, 4.634881e+000
2.564437e+002, 4.644096e+000
2.569258e+002, 4.651290e+000
2.574080e+002, 4.647042e+000
2.578901e+002, 4.615967e+000
2.583722e+002, 4.559906e+000
2.588543e+002, 4.502541e+000
2.593364e+002, 4.476621e+000
2.598185e+002, 4.494314e+000
2.603007e+002, 4.514979e+000
2.607828e+002, 4.538283e+000
2.612649e+002, 4.564250e+000
2.617470e+002, 4.592142e+000
2.622291e+002, 4.622366e+000
2.627112e+002, 4.656332e+000
2.631934e+002, 4.696220e+000
2.636755e+002, 4.743739e+000
2.641576e+002, 4.791389e+000
2.646397e+002, 4.837447e+000
2.651218e+002, 4.884811e+000
2.656039e+002, 4.924610e+000
2.660861e+002, 4.962949e+000
2.665682e+002, 5.023046e+000
2.670503e+002, 5.131105e+000
2.675324e+002, 5.296898e+000
2.680145e+002, 5.448013e+000
2.684966e+002, 5.586086e+000
2.689788e+002, 5.711599e+000
2.694609e+002, 5.800368e+000
2.699430e+002, 5.869562e+000
2.704251e+002, 5.981098e+000
2.709072e+002, 6.201067e+000
2.713893e+002, 6.536153e+000
2.718715e+002, 6.727096e+000
2.723536e+002, 6.645489e+000
2.728357e+002, 6.578048e+000
2.733178e+002, 6.647908e+000
2.737999e+002, 6.833617e+000
2.742820e+002, 7.063525e+000
2.747642e+002, 7.299879e+000
2.752463e+002, 7.537196e+000
2.757284e+002, 7.696515e+000
2.762105e+002, 7.716610e+000
2.766926e+002, 7.745344e+000
2.771747e+002, 7.808273e+000
2.776568e+002, 7.917119e+000
2.781389e+002, 8.094960e+000
2.786211e+002, 8.358556e+000
2.791032e+002, 8.693887e+000
2.795853e+002, 9.049323e+000
2.800674e+002, 9.455922e+000
2.805495e+002, 9.843640e+000
2.810316e+002, 1.021514e+001
2.815138e+002, 1.055401e+001
2.819959e+002, 1.081335e+001
2.824780e+002, 1.096068e+001
2.829601e+002, 1.105609e+001
2.834422e+002, 1.125522e+001
2.839243e+002, 1.159373e+001
2.844065e+002, 1.194878e+001
2.848886e+002, 1.235156e+001
2.853707e+002, 1.274203e+001
2.858528e+002, 1.303201e+001
2.863349e+002, 1.319192e+001
2.868170e+002, 1.324941e+001
2.872992e+002, 1.323983e+001
2.877813e+002, 1.315882e+001
2.882634e+002, 1.303669e+001
2.887455e+002, 1.292856e+001
2.892276e+002, 1.276104e+001
2.897097e+002, 1.242125e+001
2.901919e+002, 1.187946e+001
2.906740e+002, 1.125323e+001
2.911561e+002, 1.067726e+001
2.916382e+002, 1.016504e+001
2.921203e+002, 9.608657e+000
2.926024e+002, 8.917633e+000
2.930846e+002, 8.222746e+000
2.935667e+002, 7.662061e+000
2.940488e+002, 7.249908e+000
2.945309e+002, 6.896565e+000
2.950130e+002, 6.517457e+000
2.954951e+002, 6.115171e+000
2.959773e+002, 5.775191e+000
2.964594e+002, 5.526376e+000
2.969415e+002, 5.322238e+000
2.974236e+002, 5.134227e+000
2.979057e+002, 4.960312e+000
2.983878e+002, 4.796385e+000
2.988700e+002, 4.640851e+000
2.993521e+002, 4.494204e+000
2.998342e+002, 4.352394e+000
3.003163e+002, 4.208366e+000
3.007984e+002, 4.076415e+000
3.012805e+002, 3.964140e+000
3.017627e+002, 3.870746e+000
3.022448e+002, 3.790920e+000
3.027269e+002, 3.723689e+000
3.032090e+002, 3.667085e+000
3.036911e+002, 3.610920e+000
3.041732e+002, 3.537535e+000
3.046554e+002, 3.490942e+000
3.051375e+002, 3.524450e+000
3.056196e+002, 3.602152e+000
3.061017e+002, 3.624973e+000
3.065838e+002, 3.545672e+000
3.070659e+002, 3.412816e+000
3.075481e+002, 3.318233e+000
3.080302e+002, 3.264080e+000
3.085123e+002, 3.223684e+000
3.089944e+002, 3.203641e+000
3.094765e+002, 3.188900e+000
3.099586e+002, 3.146226e+000
3.104408e+002, 3.061509e+000
3.109229e+002, 2.972812e+000
3.114050e+002, 2.930393e+000
3.118871e+002, 2.931923e+000
3.123692e+002, 2.961196e+000
3.128513e+002, 3.057515e+000
3.133335e+002, 3.160508e+000
3.138156e+002, 3.185926e+000
3.142977e+002, 3.119113e+000
3.147798e+002, 3.037830e+000
3.152619e+002, 3.016484e+000
3.157440e+002, 3.051187e+000
3.162262e+002, 3.068785e+000
3.167083e+002, 3.039102e+000
3.171904e+002, 3.007438e+000
3.176725e+002, 3.023342e+000
3.181546e+002, 3.083755e+000
3.186367e+002, 3.129194e+000
3.191188e+002, 3.114704e+000
3.196010e+002, 3.051883e+000
3.200831e+002, 3.007708e+000
3.205652e+002, 2.984388e+000
3.210473e+002, 2.976363e+000
3.215294e+002, 2.986170e+000
3.220115e+002, 3.010137e+000
3.224937e+002, 3.040845e+000
3.229758e+002, 3.084484e+000
3.234579e+002, 3.120448e+000
3.239400e+002, 3.089098e+000
3.244221e+002, 2.952454e+000
3.249042e+002, 2.842327e+000
3.253864e+002, 2.811384e+000
3.258685e+002, 2.837405e+000
3.263506e+002, 2.885863e+000
3.268327e+002, 2.951424e+000
3.273148e+002, 3.016909e+000
3.277969e+002, 3.056056e+000
3.282791e+002, 3.070034e+000
3.287612e+002, 3.063027e+000
3.292433e+002, 3.023658e+000
3.297254e+002, 2.969094e+000
3.302075e+002, 2.916226e+000
3.306896e+002, 2.867959e+000
3.311718e+002, 2.825704e+000
3.316539e+002, 2.788392e+000
3.321360e+002, 2.756756e+000
3.326181e+002, 2.745511e+000
3.331002e+002, 2.774138e+000
3.335823e+002, 2.808951e+000
3.340645e+002, 2.826172e+000
3.345466e+002, 2.825609e+000
3.350287e+002, 2.817116e+000
3.355108e+002, 2.803035e+000
3.359929e+002, 2.787215e+000
3.364750e+002, 2.793752e+000
3.369572e+002, 2.860114e+000
3.374393e+002, 2.907333e+000
3.379214e+002, 2.890578e+000
3.384035e+002, 2.828939e+000
3.388856e+002, 2.762332e+000
3.393677e+002, 2.704223e+000
3.398499e+002, 2.663952e+000
3.403320e+002, 2.676186e+000
3.408141e+002, 2.790125e+000
3.412962e+002, 2.860202e+000
3.417783e+002, 2.817138e+000
3.422604e+002, 2.730043e+000
3.427426e+002, 2.690141e+000
3.432247e+002, 2.723605e+000
3.437068e+002, 2.793188e+000
3.441889e+002, 2.851774e+000
3.446710e+002, 2.902349e+000
3.451531e+002, 2.924649e+000
3.456353e+002, 2.890268e+000
3.461174e+002, 2.846946e+000
3.465995e+002, 2.826528e+000
3.470816e+002, 2.833467e+000
3.475637e+002, 2.864230e+000
3.480458e+002, 2.922007e+000
3.485280e+002, 3.009618e+000
3.490101e+002, 3.053997e+000
3.494922e+002, 3.029627e+000
3.499743e+002, 2.995847e+000
3.504564e+002, 2.965954e+000
3.509385e+002, 2.946338e+000
3.514207e+002, 2.948735e+000
3.519028e+002, 2.981820e+000
3.523849e+002, 3.038140e+000
3.528670e+002, 3.086354e+000
3.533491e+002, 3.148045e+000
3.538312e+002, 3.175042e+000
3.543134e+002, 3.124415e+000
3.547955e+002, 3.050555e+000
3.552776e+002, 3.018857e+000
3.557597e+002, 3.051726e+000
3.562418e+002, 3.120397e+000
3.567239e+002, 3.175860e+000
3.572061e+002, 3.200186e+000
3.576882e+002, 3.249458e+000
3.581703e+002, 3.346889e+000
3.586524e+002, 3.449556e+000
3.591345e+002, 3.541815e+000
3.596166e+002, 3.614296e+000
3.600987e+002, 3.643317e+000
3.605808e+002, 3.593098e+000
3.610630e+002, 3.445138e+000
3.615451e+002, 3.400601e+000
3.620272e+002, 3.554789e+000
3.625093e+002, 3.706069e+000
3.629914e+002, 3.795609e+000
3.634735e+002, 3.832352e+000
3.639557e+002, 3.831307e+000
3.644378e+002, 3.795460e+000
3.649199e+002, 3.747901e+000
3.654020e+002, 3.790050e+000
3.658841e+002, 3.998274e+000
3.663662e+002, 4.196984e+000
3.668484e+002, 4.378389e+000
3.673305e+002, 4.534163e+000
3.678126e+002, 4.656247e+000
3.682947e+002, 4.741942e+000
3.687768e+002, 4.797728e+000
3.692589e+002, 4.821197e+000
3.697411e+002, 4.775984e+000
3.702232e+002, 4.800622e+000
3.707053e+002, 4.954814e+000
3.711874e+002, 5.128867e+000
3.716695e+002, 5.281862e+000
3.721516e+002, 5.403436e+000
3.726338e+002, 5.492076e+000
3.731159e+002, 5.534416e+000
3.735980e+002, 5.532664e+000
3.740801e+002, 5.564505e+000
3.745622e+002, 5.630731e+000
3.750443e+002, 5.735311e+000
3.755265e+002, 5.928302e+000
3.760086e+002, 6.147331e+000
3.764907e+002, 6.286311e+000
3.769728e+002, 6.279305e+000
3.774549e+002, 6.200196e+000
3.779370e+002, 6.228408e+000
3.784192e+002, 6.419474e+000
3.789013e+002, 6.559691e+000
3.793834e+002, 6.525758e+000
3.798655e+002, 6.457966e+000
3.803476e+002, 6.480712e+000
3.808297e+002, 6.617271e+000
3.813119e+002, 6.756753e+000
3.817940e+002, 6.752909e+000
3.822761e+002, 6.610357e+000
3.827582e+002, 6.575376e+000
3.832403e+002, 6.766989e+000
3.837224e+002, 6.970314e+000
3.842046e+002, 7.037944e+000
3.846867e+002, 6.993914e+000
3.851688e+002, 6.931478e+000
3.856509e+002, 6.889411e+000
3.861330e+002, 6.865460e+000
3.866151e+002, 6.861903e+000
3.870973e+002, 6.888289e+000
3.875794e+002, 6.900377e+000
3.880615e+002, 6.859842e+000
3.885436e+002, 6.792031e+000
3.890257e+002, 6.731469e+000
3.895078e+002, 6.687163e+000
3.899900e+002, 6.646570e+000
3.904721e+002, 6.610217e+000
3.909542e+002, 6.573747e+000
3.914363e+002, 6.500420e+000
3.919184e+002, 6.364837e+000
3.924005e+002, 6.202849e+000
3.928827e+002, 6.060067e+000
3.933648e+002, 5.935505e+000
3.938469e+002, 5.829001e+000
3.943290e+002, 5.747397e+000
3.948111e+002, 5.681933e+000
3.952932e+002, 5.607738e+000
3.957754e+002, 5.516431e+000
3.962575e+002, 5.465531e+000
3.967396e+002, 5.535370e+000
3.972217e+002, 5.709881e+000
3.977038e+002, 5.797365e+000
3.981859e+002, 5.713144e+000
3.986681e+002, 5.607531e+000
3.991501e+002, 5.580520e+000
3.996323e+002, 5.617146e+000
4.001144e+002, 5.656454e+000
4.005965e+002, 5.669715e+000
4.010786e+002, 5.663265e+000
4.015607e+002, 5.654383e+000
4.020428e+002, 5.647338e+000
4.025250e+002, 5.631095e+000
4.030071e+002, 5.576726e+000
4.034892e+002, 5.524398e+000
4.039713e+002, 5.531909e+000
4.044534e+002, 5.609082e+000
4.049355e+002, 5.701795e+000
4.054177e+002, 5.740587e+000
4.058998e+002, 5.701434e+000
4.063819e+002, 5.733660e+000
4.068640e+002, 5.899313e+000
4.073461e+002, 6.067430e+000
4.078282e+002, 6.161796e+000
4.083104e+002, 6.204679e+000
4.087925e+002, 6.267911e+000
4.092746e+002, 6.400794e+000
4.097567e+002, 6.580992e+000
4.102388e+002, 6.706622e+000
4.107209e+002, 6.707852e+000
4.112031e+002, 6.743180e+000
4.116852e+002, 6.849073e+000
4.121673e+002, 6.981304e+000
4.126494e+002, 7.104834e+000
4.131315e+002, 7.207674e+000
4.136136e+002, 7.287718e+000
4.140958e+002, 7.323850e+000
4.145779e+002, 7.279543e+000
4.150600e+002, 7.340464e+000
4.155421e+002, 7.629934e+000
4.160242e+002, 7.912050e+000
4.165063e+002, 8.089549e+000
4.169885e+002, 8.185334e+000
4.174706e+002, 8.262635e+000
4.179527e+002, 8.351062e+000
4.184348e+002, 8.461699e+000
4.189169e+002, 8.645670e+000
4.193990e+002, 8.944748e+000
4.198812e+002, 9.222479e+000
4.203633e+002, 9.418412e+000
4.208454e+002, 9.583943e+000
4.213275e+002, 9.771656e+000
4.218096e+002, 9.995116e+000
4.222917e+002, 1.020418e+001
4.227739e+002, 1.031886e+001
4.232560e+002, 1.034655e+001
4.237381e+002, 1.044970e+001
4.242202e+002, 1.067403e+001
4.247023e+002, 1.095232e+001
4.251844e+002, 1.126688e+001
4.256666e+002, 1.159672e+001
4.261487e+002, 1.186472e+001
4.266308e+002, 1.200230e+001
4.271129e+002, 1.207619e+001
4.275950e+002, 1.216954e+001
4.280771e+002, 1.228201e+001
4.285593e+002, 1.244324e+001
4.290414e+002, 1.269866e+001
4.295235e+002, 1.299886e+001
4.300056e+002, 1.323661e+001
4.304877e+002, 1.340596e+001
4.309698e+002, 1.352636e+001
4.314520e+002, 1.356985e+001
4.319341e+002, 1.357622e+001
4.324162e+002, 1.363383e+001
4.328983e+002, 1.376902e+001
4.333804e+002, 1.392382e+001
4.338625e+002, 1.403499e+001
4.343447e+002, 1.409730e+001
4.348268e+002, 1.413815e+001
4.353089e+002, 1.414540e+001
4.357910e+002, 1.414244e+001
4.362731e+002, 1.419228e+001
4.367552e+002, 1.425462e+001
4.372374e+002, 1.418339e+001
4.377195e+002, 1.387681e+001
4.382016e+002, 1.340755e+001
4.386837e+002, 1.305785e+001
4.391658e+002, 1.292750e+001
4.396479e+002, 1.279060e+001
4.401301e+002, 1.263530e+001
4.406122e+002, 1.246617e+001
4.410943e+002, 1.230645e+001
4.415764e+002, 1.215226e+001
4.420585e+002, 1.194945e+001
4.425406e+002, 1.162347e+001
4.430227e+002, 1.114646e+001
4.435049e+002, 1.074510e+001
4.439870e+002, 1.053214e+001
4.444691e+002, 1.027953e+001
4.449512e+002, 9.852016e+000
4.454333e+002, 9.352341e+000
4.459154e+002, 8.955592e+000
4.463976e+002, 8.761516e+000
4.468797e+002, 8.684241e+000
4.473618e+002, 8.536621e+000
4.478439e+002, 8.300874e+000
4.483260e+002, 8.047467e+000
4.488081e+002, 7.743172e+000
4.492903e+002, 7.457604e+000
4.497724e+002, 7.246387e+000
4.502545e+002, 7.106763e+000
4.507366e+002, 6.980651e+000
4.512187e+002, 6.824227e+000
4.517008e+002, 6.644567e+000
4.521830e+002, 6.471856e+000
4.526651e+002, 6.301007e+000
4.531472e+002, 6.153260e+000
4.536293e+002, 6.059108e+000
4.541114e+002, 5.991953e+000
4.545935e+002, 5.914692e+000
4.550757e+002, 5.815207e+000
4.555578e+002, 5.713320e+000
4.560399e+002, 5.631223e+000
4.565220e+002, 5.562506e+000
4.570041e+002, 5.470424e+000
4.574862e+002, 5.331587e+000
4.579684e+002, 5.193838e+000
4.584505e+002, 5.144635e+000
4.589326e+002, 5.185448e+000
4.594147e+002, 5.159753e+000
4.598968e+002, 4.963357e+000
4.603789e+002, 4.744393e+000
4.608611e+002, 4.652050e+000
4.613432e+002, 4.670964e+000
4.618253e+002, 4.669489e+000
4.623074e+002, 4.559331e+000
4.627895e+002, 4.374526e+000
4.632716e+002, 4.254900e+000
4.637538e+002, 4.222598e+000
4.642359e+002, 4.221035e+000
4.647180e+002, 4.302196e+000
4.652001e+002, 4.379582e+000
4.656822e+002, 4.342721e+000
4.661643e+002, 4.181771e+000
4.666465e+002, 3.996941e+000
4.671286e+002, 3.896752e+000
4.676107e+002, 3.887411e+000
4.680928e+002, 3.897112e+000
4.685749e+002, 3.984522e+000
4.690570e+002, 4.027511e+000
4.695392e+002, 3.972665e+000
4.700213e+002, 3.857524e+000
4.705034e+002, 3.732759e+000
4.709855e+002, 3.619503e+000
4.714676e+002, 3.521441e+000
4.719497e+002, 3.445460e+000
4.724319e+002, 3.392927e+000
4.729140e+002, 3.357278e+000
4.733961e+002, 3.361458e+000
4.738782e+002, 3.362381e+000
4.743603e+002, 3.315570e+000
4.748424e+002, 3.237615e+000
4.753246e+002, 3.198192e+000
4.758067e+002, 3.286430e+000
4.762888e+002, 3.424369e+000
4.767709e+002, 3.421196e+000
4.772530e+002, 3.252774e+000
4.777351e+002, 3.095485e+000
4.782173e+002, 3.035071e+000
4.786994e+002, 3.034001e+000
4.791815e+002, 3.034966e+000
4.796636e+002, 3.040729e+000
4.801457e+002, 3.030356e+000
4.806278e+002, 2.977911e+000
4.811100e+002, 2.906055e+000
4.815920e+002, 2.855003e+000
4.820742e+002, 2.831917e+000
4.825563e+002, 2.827166e+000
4.830384e+002, 2.840696e+000
4.835205e+002, 2.870529e+000
4.840026e+002, 2.864246e+000
4.844847e+002, 2.799582e+000
4.849669e+002, 2.725554e+000
4.854490e+002, 2.646961e+000
4.859311e+002, 2.575443e+000
4.864132e+002, 2.538627e+000
4.868953e+002, 2.546138e+000
4.873774e+002, 2.563409e+000
4.878596e+002, 2.531865e+000
4.883417e+002, 2.428697e+000
4.888238e+002, 2.337286e+000
4.893059e+002, 2.245843e+000
4.897880e+002, 2.175197e+000
4.902701e+002, 2.134515e+000
4.907523e+002, 2.123132e+000
4.912344e+002, 2.144004e+000
4.917165e+002, 2.204655e+000
4.921986e+002, 2.282267e+000
4.926807e+002, 2.312106e+000
4.931628e+002, 2.281082e+000
4.936450e+002, 2.238299e+000
4.941271e+002, 2.178190e+000
4.946092e+002, 2.121240e+000
4.950913e+002, 2.073526e+000
4.955734e+002, 2.038947e+000
4.960555e+002, 2.033311e+000
4.965377e+002, 2.107015e+000
4.970198e+002, 2.214967e+000
4.975019e+002, 2.215646e+000
4.979840e+002, 2.082610e+000
4.984661e+002, 1.953353e+000
4.989482e+002, 1.894470e+000
4.994304e+002, 1.892090e+000
4.999125e+002, 1.922109e+000
5.003946e+002, 2.005196e+000
5.008767e+002, 2.067062e+000
5.013588e+002, 2.053798e+000
5.018409e+002, 1.999323e+000
5.023231e+002, 1.962969e+000
5.028052e+002, 1.956934e+000
5.032873e+002, 1.962438e+000
5.037694e+002, 1.960039e+000
5.042515e+002, 1.949319e+000
5.047336e+002, 1.961556e+000
5.052158e+002, 2.034239e+000
5.056979e+002, 2.085498e+000
5.061800e+002, 2.055620e+000
5.066621e+002, 1.994768e+000
5.071442e+002, 1.986302e+000
5.076263e+002, 2.058525e+000
5.081085e+002, 2.163135e+000
5.085906e+002, 2.227774e+000
5.090727e+002, 2.247505e+000
5.095548e+002, 2.245051e+000
5.100369e+002, 2.176407e+000
5.105190e+002, 2.129657e+000
5.110012e+002, 2.150415e+000
5.114833e+002, 2.216228e+000
5.119654e+002, 2.279907e+000
5.124475e+002, 2.315933e+000
5.129296e+002, 2.345885e+000
5.134117e+002, 2.425693e+000
5.138939e+002, 2.570241e+000
5.143760e+002, 2.647600e+000
5.148581e+002, 2.575608e+000
5.153402e+002, 2.480438e+000
5.158223e+002, 2.463295e+000
5.163044e+002, 2.518070e+000
5.167866e+002, 2.595383e+000
5.172687e+002, 2.702386e+000
5.177508e+002, 2.805057e+000
5.182329e+002, 2.833753e+000
5.187150e+002, 2.796871e+000
5.191971e+002, 2.821114e+000
5.196793e+002, 2.990562e+000
5.201614e+002, 3.228109e+000
5.206435e+002, 3.344578e+000
5.211256e+002, 3.294834e+000
5.216077e+002, 3.284874e+000
5.220898e+002, 3.363439e+000
5.225720e+002, 3.485196e+000
5.230541e+002, 3.631878e+000
5.235362e+002, 3.788208e+000
5.240183e+002, 3.913590e+000
5.245004e+002, 3.972448e+000
5.249825e+002, 3.983185e+000
5.254647e+002, 4.046380e+000
5.259468e+002, 4.248850e+000
5.264289e+002, 4.376785e+000
5.269110e+002, 4.357671e+000
5.273931e+002, 4.299045e+000
5.278752e+002, 4.302546e+000
5.283574e+002, 4.369484e+000
5.288395e+002, 4.414402e+000
5.293216e+002, 4.363515e+000
5.298037e+002, 4.225836e+000
5.302858e+002, 4.040506e+000
5.307679e+002, 3.770937e+000
5.312501e+002, 3.540207e+000
5.317322e+002, 3.454416e+000
5.322143e+002, 3.409729e+000
5.326964e+002, 3.290187e+000
5.331785e+002, 3.068871e+000
5.336606e+002, 2.843141e+000
5.341428e+002, 2.686049e+000
5.346249e+002, 2.567602e+000
5.351070e+002, 2.404414e+000
5.355891e+002, 2.179834e+000
5.360712e+002, 1.995232e+000
5.365533e+002, 1.940966e+000
5.370355e+002, 1.995485e+000
5.375176e+002, 2.013160e+000
5.379997e+002, 1.967886e+000
5.384818e+002, 1.921414e+000
5.389639e+002, 1.888927e+000
5.394460e+002, 1.865712e+000
5.399282e+002, 1.845527e+000
5.404103e+002, 1.827240e+000
5.408924e+002, 1.815565e+000
5.413745e+002, 1.819154e+000
5.418566e+002, 1.839310e+000
5.423387e+002, 1.829300e+000
5.428209e+002, 1.762517e+000
5.433029e+002, 1.695839e+000
5.437850e+002, 1.634257e+000
5.442672e+002, 1.581801e+000
5.447493e+002, 1.535647e+000
5.452314e+002, 1.496487e+000
5.457135e+002, 1.485866e+000
5.461956e+002, 1.557019e+000
5.466777e+002, 1.697718e+000
5.471599e+002, 1.747868e+000
5.476420e+002, 1.658947e+000
5.481241e+002, 1.564740e+000
5.486062e+002, 1.548735e+000
5.490883e+002, 1.582606e+000
5.495704e+002, 1.631052e+000
5.500526e+002, 1.706052e+000
5.505347e+002, 1.756684e+000
5.510168e+002, 1.736059e+000
5.514989e+002, 1.670806e+000
5.519810e+002, 1.611575e+000
5.524631e+002, 1.568601e+000
5.529453e+002, 1.542435e+000
5.534274e+002, 1.535438e+000
5.539095e+002, 1.547761e+000
5.543916e+002, 1.563032e+000
5.548737e+002, 1.587788e+000
5.553558e+002, 1.607249e+000
5.558380e+002, 1.615460e+000
5.563201e+002, 1.617103e+000
5.568022e+002, 1.618685e+000
5.572843e+002, 1.621534e+000
5.577664e+002, 1.620942e+000
5.582485e+002, 1.611131e+000
5.587307e+002, 1.591949e+000
5.592128e+002, 1.569538e+000
5.596949e+002, 1.539635e+000
5.601770e+002, 1.513011e+000
5.606591e+002, 1.487122e+000
5.611412e+002, 1.468684e+000
5.616234e+002, 1.464828e+000
5.621055e+002, 1.477268e+000
5.625876e+002, 1.506003e+000
5.630697e+002, 1.575638e+000
5.635518e+002, 1.663185e+000
5.640339e+002, 1.681555e+000
5.645161e+002, 1.610027e+000
5.649982e+002, 1.522902e+000
5.654803e+002, 1.462105e+000
5.659624e+002, 1.430778e+000
5.664445e+002, 1.431488e+000
5.669266e+002, 1.500612e+000
5.674088e+002, 1.549865e+000
5.678909e+002, 1.532731e+000
5.683730e+002, 1.486892e+000
5.688551e+002, 1.458494e+000
5.693372e+002, 1.455845e+000
5.698193e+002, 1.460066e+000
5.703015e+002, 1.451140e+000
5.707836e+002, 1.431323e+000
5.712657e+002, 1.445665e+000
5.717478e+002, 1.535485e+000
5.722299e+002, 1.604473e+000
5.727120e+002, 1.639122e+000
5.731942e+002, 1.646870e+000
5.736763e+002, 1.626279e+000
5.741584e+002, 1.581509e+000
5.746405e+002, 1.536416e+000
5.751226e+002, 1.520686e+000
5.756047e+002, 1.523023e+000
5.760869e+002, 1.485082e+000
5.765690e+002, 1.390235e+000
5.770511e+002, 1.327384e+000
5.775332e+002, 1.368769e+000
5.780153e+002, 1.450279e+000
5.784974e+002, 1.459951e+000
5.789796e+002, 1.375464e+000
5.794617e+002, 1.312384e+000
5.799438e+002, 1.338514e+000
5.804259e+002, 1.394393e+000
5.809080e+002, 1.407855e+000
5.813901e+002, 1.378869e+000
5.818723e+002, 1.355032e+000
5.823544e+002, 1.369193e+000
5.828365e+002, 1.405108e+000
5.833186e+002, 1.407133e+000
5.838007e+002, 1.346963e+000
5.842828e+002, 1.294632e+000
5.847650e+002, 1.243253e+000
5.852471e+002, 1.206080e+000
5.857292e+002, 1.201467e+000
5.862113e+002, 1.219893e+000
5.866934e+002, 1.230985e+000
5.871755e+002, 1.212553e+000
5.876577e+002, 1.181003e+000
5.881398e+002, 1.175697e+000
5.886219e+002, 1.200293e+000
5.891040e+002, 1.226458e+000
5.895861e+002, 1.248593e+000
5.900682e+002, 1.268980e+000
5.905504e+002, 1.292267e+000
5.910325e+002, 1.317016e+000
5.915146e+002, 1.332955e+000
5.919967e+002, 1.346950e+000
5.924788e+002, 1.342435e+000
5.929609e+002, 1.278930e+000
5.934431e+002, 1.183386e+000
5.939252e+002, 1.141647e+000
5.944073e+002, 1.187495e+000
5.948894e+002, 1.271372e+000
5.953715e+002, 1.327573e+000
5.958536e+002, 1.355402e+000
5.963358e+002, 1.356434e+000
5.968179e+002, 1.302849e+000
5.973000e+002, 1.257444e+000
5.977821e+002, 1.242109e+000
5.982642e+002, 1.248755e+000
5.987463e+002, 1.268865e+000
5.992285e+002, 1.298675e+000
5.997106e+002, 1.325403e+000
6.001927e+002, 1.332466e+000
6.006748e+002, 1.320459e+000
6.011569e+002, 1.302112e+000
6.016390e+002, 1.267950e+000
6.021212e+002, 1.249008e+000
6.026033e+002, 1.289339e+000
6.030854e+002, 1.348311e+000
6.035675e+002, 1.354937e+000
6.040496e+002, 1.277564e+000
6.045317e+002, 1.217656e+000
6.050139e+002, 1.248903e+000
6.054960e+002, 1.319056e+000
6.059781e+002, 1.348247e+000
6.064602e+002, 1.329862e+000
6.069423e+002, 1.310160e+000
6.074244e+002, 1.325089e+000
6.079066e+002, 1.362395e+000
6.083887e+002, 1.366008e+000
6.088708e+002, 1.303076e+000
6.093529e+002, 1.252242e+000
6.098350e+002, 1.210823e+000
6.103171e+002, 1.186539e+000
6.107993e+002, 1.186516e+000
6.112814e+002, 1.208885e+000
6.117635e+002, 1.252242e+000
6.122456e+002, 1.330188e+000
6.127277e+002, 1.404557e+000
6.132098e+002, 1.378957e+000
6.136920e+002, 1.242661e+000
6.141741e+002, 1.130309e+000
6.146562e+002, 1.075598e+000
6.151383e+002, 1.053788e+000
6.156204e+002, 1.039878e+000
6.161025e+002, 1.035050e+000
6.165847e+002, 1.053191e+000
6.170668e+002, 1.129538e+000
6.175489e+002, 1.197560e+000
6.180310e+002, 1.196302e+000
6.185131e+002, 1.159094e+000
6.189952e+002, 1.156904e+000
6.194774e+002, 1.210235e+000
6.199595e+002, 1.284467e+000
6.204416e+002, 1.340135e+000
6.209237e+002, 1.376585e+000
6.214058e+002, 1.407758e+000
6.218879e+002, 1.445424e+000
6.223701e+002, 1.461991e+000
6.228522e+002, 1.436992e+000
6.233343e+002, 1.396863e+000
6.238164e+002, 1.364759e+000
6.242985e+002, 1.346492e+000
6.247806e+002, 1.341984e+000
6.252628e+002, 1.359287e+000
6.257448e+002, 1.389257e+000
6.262269e+002, 1.402569e+000
6.267090e+002, 1.396325e+000
6.271912e+002, 1.406106e+000
6.276733e+002, 1.464128e+000
6.281554e+002, 1.532420e+000
6.286375e+002, 1.521553e+000
6.291196e+002, 1.403960e+000
6.296017e+002, 1.350488e+000
6.300839e+002, 1.440562e+000
6.305660e+002, 1.553825e+000
6.310481e+002, 1.606892e+000
6.315302e+002, 1.614780e+000
6.320123e+002, 1.634208e+000
6.324944e+002, 1.691169e+000
6.329766e+002, 1.749678e+000
6.334587e+002, 1.734173e+000
6.339408e+002, 1.617299e+000
6.344229e+002, 1.570585e+000
6.349050e+002, 1.657049e+000
6.353871e+002, 1.735163e+000
6.358693e+002, 1.722268e+000
6.363514e+002, 1.669355e+000
6.368335e+002, 1.659526e+000
6.373156e+002, 1.721496e+000
6.377977e+002, 1.785429e+000
6.382798e+002, 1.797617e+000
6.387620e+002, 1.778611e+000
6.392441e+002, 1.772389e+000
6.397262e+002, 1.782734e+000
6.402083e+002, 1.772293e+000
6.406904e+002, 1.712639e+000
6.411725e+002, 1.619118e+000
6.416547e+002, 1.542635e+000
6.421368e+002, 1.509885e+000
6.426189e+002, 1.454842e+000
6.431010e+002, 1.347232e+000
6.435831e+002, 1.244464e+000
6.440652e+002, 1.181223e+000
6.445474e+002, 1.153620e+000
6.450295e+002, 1.145956e+000
6.455116e+002, 1.153312e+000
6.459937e+002, 1.161590e+000
6.464758e+002, 1.140118e+000
6.469579e+002, 1.089323e+000
6.474401e+002, 1.062152e+000
6.479222e+002, 1.068170e+000
6.484043e+002, 1.096058e+000
6.488864e+002, 1.159842e+000
6.493685e+002, 1.239082e+000
6.498506e+002, 1.265347e+000
6.503328e+002, 1.193055e+000
6.508149e+002, 1.129972e+000
6.512970e+002, 1.135494e+000
6.517791e+002, 1.163644e+000
6.522612e+002, 1.151451e+000
6.527433e+002, 1.098590e+000
6.532255e+002, 1.054440e+000
6.537076e+002, 1.055262e+000
6.541897e+002, 1.093677e+000
6.546718e+002, 1.151813e+000
6.551539e+002, 1.264561e+000
6.556360e+002, 1.311618e+000
6.561182e+002, 1.202995e+000
6.566003e+002, 1.086452e+000
6.570824e+002, 1.039411e+000
6.575645e+002, 1.051983e+000
6.580466e+002, 1.083944e+000
6.585287e+002, 1.133825e+000
6.590109e+002, 1.175572e+000
6.594930e+002, 1.184198e+000
6.599751e+002, 1.164978e+000
6.604572e+002, 1.121363e+000
6.609393e+002, 1.052798e+000
6.614214e+002, 1.006113e+000
6.619036e+002, 1.030710e+000
6.623857e+002, 1.116765e+000
6.628678e+002, 1.157336e+000
6.633499e+002, 1.116521e+000
6.638320e+002, 1.076771e+000
6.643141e+002, 1.030001e+000
6.647963e+002, 9.981968e-001
6.652784e+002, 1.009667e+000
6.657605e+002, 1.054589e+000
6.662426e+002, 1.091441e+000
6.667247e+002, 1.090749e+000
6.672068e+002, 1.074227e+000
6.676890e+002, 1.084769e+000
6.681711e+002, 1.121368e+000
6.686532e+002, 1.151875e+000
6.691353e+002, 1.175180e+000
6.696174e+002, 1.175184e+000
6.700995e+002, 1.121391e+000
6.705817e+002, 1.022090e+000
6.710638e+002, 9.640601e-001
6.715459e+002, 9.839951e-001
6.720280e+002, 1.001755e+000
6.725101e+002, 9.848225e-001
6.729922e+002, 9.573969e-001
6.734744e+002, 9.439570e-001
6.739565e+002, 9.483452e-001
6.744386e+002, 9.638788e-001
6.749207e+002, 9.869601e-001
6.754028e+002, 1.015042e+000
6.758849e+002, 1.042351e+000
6.763671e+002, 1.072073e+000
6.768492e+002, 1.085634e+000
6.773313e+002, 1.066195e+000
6.778134e+002, 1.044368e+000
6.782955e+002, 1.050716e+000
6.787776e+002, 1.075907e+000
6.792598e+002, 1.086125e+000
6.797419e+002, 1.068706e+000
6.802240e+002, 1.040933e+000
6.807061e+002, 9.896253e-001
6.811882e+002, 9.434745e-001
6.816703e+002, 9.668240e-001
6.821525e+002, 1.060135e+000
6.826346e+002, 1.140096e+000
6.831167e+002, 1.136542e+000
6.835988e+002, 1.065224e+000
6.840809e+002, 1.000770e+000
6.845630e+002, 9.345165e-001
6.850452e+002, 8.944077e-001
6.855273e+002, 8.994173e-001
6.860094e+002, 9.187638e-001
6.864915e+002, 9.548733e-001
6.869736e+002, 9.916843e-001
6.874557e+002, 9.829549e-001
6.879379e+002, 8.856795e-001
6.884200e+002, 7.830868e-001
6.889021e+002, 7.415002e-001
6.893842e+002, 7.522320e-001
6.898663e+002, 8.163574e-001
6.903484e+002, 9.316931e-001
6.908306e+002, 1.017075e+000
6.913127e+002, 1.000586e+000
6.917948e+002, 9.081547e-001
6.922769e+002, 8.711891e-001
6.927590e+002, 9.306644e-001
6.932411e+002, 9.817374e-001
6.937233e+002, 1.033533e+000
6.942054e+002, 1.063166e+000
6.946875e+002, 1.039438e+000
6.951696e+002, 9.831017e-001
6.956517e+002, 9.450989e-001
6.961339e+002, 9.482546e-001
6.966160e+002, 9.754728e-001
6.970981e+002, 1.032557e+000
6.975802e+002, 1.099609e+000
6.980623e+002, 1.089080e+000
6.985444e+002, 9.819509e-001
6.990266e+002, 8.853461e-001
6.995087e+002, 8.765960e-001
6.999908e+002, 9.349796e-001
7.004729e+002, 9.826018e-001
7.009550e+002, 1.040069e+000
7.014371e+002, 1.052893e+000
7.019193e+002, 9.616560e-001
7.024014e+002, 8.799583e-001
7.028835e+002, 8.992044e-001
7.033656e+002, 9.795223e-001
7.038477e+002, 1.022424e+000
7.043298e+002, 9.825388e-001
7.048120e+002, 9.214293e-001
7.052941e+002, 9.218951e-001
7.057762e+002, 9.691373e-001
7.062583e+002, 9.867252e-001
7.067404e+002, 9.634112e-001
7.072225e+002, 9.401258e-001
7.077046e+002, 9.422811e-001
7.081867e+002, 9.590862e-001
7.086688e+002, 9.606906e-001
7.091509e+002, 9.312635e-001
7.096331e+002, 9.277440e-001
7.101152e+002, 9.851140e-001
7.105973e+002, 1.038975e+000
7.110794e+002, 1.044887e+000
7.115615e+002, 1.021631e+000
7.120436e+002, 1.007525e+000
7.125258e+002, 1.016266e+000
7.130079e+002, 1.029098e+000
7.134900e+002, 1.030013e+000
7.139721e+002, 1.017354e+000
7.144542e+002, 9.687918e-001
7.149363e+002, 8.725927e-001
7.154185e+002, 8.147656e-001
7.159006e+002, 8.475348e-001
7.163827e+002, 9.273821e-001
7.168648e+002, 9.860439e-001
7.173469e+002, 1.023426e+000
7.178290e+002, 1.043670e+000
7.183112e+002, 1.034598e+000
7.187933e+002, 1.021598e+000
7.192754e+002, 1.010176e+000
7.197575e+002, 1.005755e+000
7.202396e+002, 1.020279e+000
7.207217e+002, 1.053923e+000
7.212039e+002, 1.084837e+000
7.216860e+002, 1.090691e+000
7.221681e+002, 1.076754e+000
7.226502e+002, 1.062868e+000
7.231323e+002, 1.048959e+000
7.236144e+002, 1.035226e+000
7.240966e+002, 1.022552e+000
7.245787e+002, 1.008943e+000
7.250608e+002, 9.918398e-001
7.255429e+002, 9.711720e-001
7.260250e+002, 9.504505e-001
7.265071e+002, 9.071391e-001
7.269893e+002, 8.909250e-001
7.274714e+002, 9.479223e-001
7.279535e+002, 1.024756e+000
7.284356e+002, 1.062264e+000
7.289177e+002, 1.053764e+000
7.293998e+002, 1.024655e+000
7.298820e+002, 9.892015e-001
7.303641e+002, 9.531333e-001
7.308462e+002, 9.255823e-001
7.313283e+002, 9.061247e-001
7.318104e+002, 9.164708e-001
7.322925e+002, 9.761932e-001
7.327747e+002, 1.031116e+000
7.332568e+002, 1.038734e+000
7.337389e+002, 1.002815e+000
7.342210e+002, 9.508170e-001
7.347031e+002, 8.440915e-001
7.351852e+002, 7.813972e-001
7.356674e+002, 8.050024e-001
7.361495e+002, 8.621940e-001
7.366316e+002, 9.309363e-001
7.371137e+002, 9.936374e-001
7.375958e+002, 1.019095e+000
7.380779e+002, 9.903247e-001
7.385601e+002, 9.347671e-001
7.390422e+002, 8.871042e-001
7.395243e+002, 8.477181e-001
7.400064e+002, 8.199138e-001
7.404885e+002, 8.044830e-001
7.409706e+002, 7.990376e-001
7.414528e+002, 8.040418e-001
7.419349e+002, 8.170533e-001
7.424170e+002, 8.347211e-001
7.428991e+002, 8.614309e-001
7.433812e+002, 8.776472e-001
7.438633e+002, 8.609814e-001
7.443455e+002, 8.551125e-001
7.448276e+002, 8.990929e-001
7.453097e+002, 9.629219e-001
7.457918e+002, 9.996347e-001
7.462739e+002, 9.963698e-001
7.467560e+002, 9.754717e-001
7.472382e+002, 9.478937e-001
7.477203e+002, 9.212143e-001
7.482024e+002, 9.270139e-001
7.486845e+002, 9.664323e-001
7.491666e+002, 9.891457e-001
7.496487e+002, 9.744191e-001
7.501309e+002, 9.465308e-001
7.506130e+002, 9.341062e-001
7.510951e+002, 9.384830e-001
7.515772e+002, 9.338543e-001
7.520593e+002, 8.976158e-001
7.525414e+002, 8.823668e-001
7.530236e+002, 9.124762e-001
7.535057e+002, 9.591497e-001
7.539878e+002, 1.010105e+000
7.544699e+002, 1.053801e+000
7.549520e+002, 1.060910e+000
7.554341e+002, 9.990669e-001
7.559163e+002, 9.263240e-001
7.563984e+002, 9.421757e-001
7.568805e+002, 1.021622e+000
7.573626e+002, 1.047081e+000
7.578447e+002, 9.965292e-001
7.583268e+002, 9.420561e-001
7.588090e+002, 9.366920e-001
7.592911e+002, 9.635942e-001
7.597732e+002, 9.648991e-001
7.602553e+002, 9.069747e-001
7.607374e+002, 8.853199e-001
7.612195e+002, 9.471893e-001
7.617017e+002, 9.930567e-001
7.621838e+002, 9.581954e-001
7.626659e+002, 8.826950e-001
7.631480e+002, 8.298336e-001
7.636301e+002, 8.170646e-001
7.641122e+002, 8.261624e-001
7.645944e+002, 8.681408e-001
7.650765e+002, 9.107147e-001
7.655586e+002, 8.850009e-001
7.660407e+002, 8.045252e-001
7.665228e+002, 7.625712e-001
7.670049e+002, 7.978419e-001
7.674871e+002, 8.444166e-001
7.679692e+002, 8.072795e-001
7.684513e+002, 6.801337e-001
7.689334e+002, 6.265190e-001
7.694155e+002, 6.863976e-001
7.698976e+002, 7.554414e-001
7.703798e+002, 8.313326e-001
7.708619e+002, 8.914751e-001
7.713440e+002, 9.082584e-001
7.718261e+002, 8.891537e-001
7.723082e+002, 8.757974e-001
7.727903e+002, 8.935617e-001
7.732725e+002, 9.066491e-001
7.737546e+002, 8.761119e-001
7.742367e+002, 8.309157e-001
7.747188e+002, 8.204680e-001
7.752009e+002, 8.468672e-001
7.756830e+002, 8.771712e-001
7.761652e+002, 8.903514e-001
7.766473e+002, 8.907833e-001
7.771294e+002, 8.859984e-001
7.776115e+002, 8.735230e-001
7.780936e+002, 8.731034e-001
7.785757e+002, 8.909596e-001
7.790579e+002, 9.120296e-001
7.795400e+002, 9.346156e-001
7.800221e+002, 9.524183e-001
7.805042e+002, 9.524139e-001
7.809863e+002, 9.297968e-001
7.814684e+002, 9.117641e-001
7.819506e+002, 9.142647e-001
7.824327e+002, 9.139740e-001
7.829148e+002, 8.866228e-001
7.833969e+002, 8.493699e-001
7.838790e+002, 8.336069e-001
7.843611e+002, 8.459372e-001
7.848433e+002, 8.654932e-001
7.853254e+002, 8.746568e-001
7.858075e+002, 8.754152e-001
7.862896e+002, 8.668547e-001
7.867717e+002, 8.485215e-001
7.872538e+002, 8.593116e-001
7.877360e+002, 9.180324e-001
7.882181e+002, 9.823635e-001
7.887002e+002, 1.022819e+000
7.891823e+002, 1.036328e+000
7.896644e+002, 9.949398e-001
7.901465e+002, 8.115643e-001
7.906286e+002, 7.008837e-001
7.911107e+002, 7.387827e-001
7.915928e+002, 7.984278e-001
7.920750e+002, 7.857720e-001
7.925571e+002, 7.324541e-001
7.930392e+002, 7.222704e-001
7.935213e+002, 7.888725e-001
7.940034e+002, 8.706085e-001
7.944855e+002, 9.235366e-001
7.949677e+002, 9.507090e-001
7.954498e+002, 9.497957e-001
7.959319e+002, 9.250043e-001
7.964140e+002, 9.006712e-001
7.968961e+002, 8.865496e-001
7.973782e+002, 8.799594e-001
7.978604e+002, 8.793703e-001
7.983425e+002, 8.856094e-001
7.988246e+002, 8.732977e-001
7.993067e+002, 8.128914e-001
7.997888e+002, 7.873302e-001
8.002709e+002, 8.594740e-001
8.007531e+002, 9.406264e-001
8.012352e+002, 9.540508e-001
8.017173e+002, 9.136526e-001
8.021994e+002, 8.971068e-001
8.026815e+002, 9.425502e-001
8.031636e+002, 9.897407e-001
8.036458e+002, 1.010060e+000
8.041279e+002, 1.013218e+000
8.046100e+002, 1.009359e+000
8.050921e+002, 9.996650e-001
8.055742e+002, 9.786440e-001
8.060563e+002, 9.425251e-001
8.065385e+002, 9.062234e-001
8.070206e+002, 8.961700e-001
8.075027e+002, 9.103769e-001
8.079848e+002, 9.258083e-001
8.084669e+002, 9.455835e-001
8.089490e+002, 9.426416e-001
8.094312e+002, 8.925794e-001
8.099133e+002, 8.303750e-001
8.103954e+002, 8.073627e-001
8.108775e+002, 8.280212e-001
8.113596e+002, 8.638498e-001
8.118417e+002, 9.638636e-001
8.123239e+002, 1.016570e+000
8.128060e+002, 9.386772e-001
8.132881e+002, 8.378953e-001
8.137702e+002, 8.323151e-001
8.142523e+002, 9.082314e-001
8.147344e+002, 9.534272e-001
8.152166e+002, 8.978832e-001
8.156987e+002, 8.206368e-001
8.161808e+002, 8.043537e-001
8.166629e+002, 8.286894e-001
8.171450e+002, 8.501437e-001
8.176271e+002, 8.637474e-001
8.181093e+002, 8.843469e-001
8.185914e+002, 9.223111e-001
8.190735e+002, 9.606866e-001
8.195556e+002, 9.627737e-001
8.200377e+002, 9.203234e-001
8.205198e+002, 8.941110e-001
8.210020e+002, 8.913266e-001
8.214841e+002, 8.907396e-001
8.219662e+002, 8.804760e-001
8.224483e+002, 8.715299e-001
8.229304e+002, 8.783675e-001
8.234125e+002, 9.004596e-001
8.238947e+002, 9.189062e-001
8.243768e+002, 9.186439e-001
8.248589e+002, 9.275556e-001
8.253410e+002, 9.688101e-001
8.258231e+002, 1.018496e+000
8.263052e+002, 1.053453e+000
8.267874e+002, 1.070195e+000
8.272695e+002, 1.067440e+000
8.277516e+002, 1.039004e+000
8.282337e+002, 1.017035e+000
8.287158e+002, 1.061005e+000
8.291979e+002, 1.152161e+000
8.296801e+002, 1.214169e+000
8.301622e+002, 1.240066e+000
8.306443e+002, 1.241537e+000
8.311264e+002, 1.221926e+000
8.316085e+002, 1.186303e+000
8.320906e+002, 1.137495e+000
8.325728e+002, 1.068048e+000
8.330549e+002, 1.041689e+000
8.335370e+002, 1.086231e+000
8.340191e+002, 1.134820e+000
8.345012e+002, 1.171595e+000
8.349833e+002, 1.206726e+000
8.354655e+002, 1.254653e+000
8.359476e+002, 1.310423e+000
8.364297e+002, 1.349954e+000
8.369118e+002, 1.367078e+000
8.373939e+002, 1.364904e+000
8.378760e+002, 1.342250e+000
8.383582e+002, 1.303126e+000
8.388403e+002, 1.234937e+000
8.393224e+002, 1.154066e+000
8.398045e+002, 1.114794e+000
8.402866e+002, 1.143121e+000
8.407687e+002, 1.184254e+000
8.412509e+002, 1.152315e+000
8.417330e+002, 1.063765e+000
8.422151e+002, 1.014141e+000
8.426972e+002, 1.006384e+000
8.431793e+002, 1.022286e+000
8.436614e+002, 1.065201e+000
8.441436e+002, 1.100128e+000
8.446257e+002, 1.076392e+000
8.451078e+002, 9.965233e-001
8.455899e+002, 9.751177e-001
8.460720e+002, 1.071958e+000
8.465541e+002, 1.140178e+000
8.470363e+002, 1.173988e+000
8.475184e+002, 1.169922e+000
8.480005e+002, 1.091513e+000
8.484826e+002, 9.798814e-001
8.489647e+002, 9.322556e-001
8.494468e+002, 9.907983e-001
8.499290e+002, 1.035125e+000
8.504111e+002, 9.590784e-001
8.508932e+002, 8.702049e-001
8.513753e+002, 9.056109e-001
8.518574e+002, 1.013885e+000
8.523395e+002, 1.057749e+000
8.528217e+002, 9.990442e-001
8.533038e+002, 9.114518e-001
8.537859e+002, 8.611048e-001
8.542680e+002, 8.430048e-001
8.547501e+002, 8.467147e-001
8.552322e+002, 8.722018e-001
8.557144e+002, 9.015687e-001
8.561965e+002, 9.326877e-001
8.566786e+002, 9.601123e-001
8.571607e+002, 9.775583e-001
8.576428e+002, 9.896256e-001
8.581249e+002, 1.011977e+000
8.586071e+002, 1.053567e+000
8.590892e+002, 1.085799e+000
8.595713e+002, 1.133613e+000
8.600534e+002, 1.143379e+000
8.605355e+002, 1.066830e+000
8.610176e+002, 9.584652e-001
8.614998e+002, 8.734548e-001
8.619819e+002, 8.204234e-001
8.624640e+002, 8.079738e-001
8.629461e+002, 8.823836e-001
8.634282e+002, 9.521539e-001
8.639103e+002, 9.356343e-001
8.643925e+002, 8.856720e-001
8.648746e+002, 8.801225e-001
8.653567e+002, 9.209222e-001
8.658388e+002, 9.626484e-001
8.663209e+002, 9.795367e-001
8.668030e+002, 9.796897e-001
8.672852e+002, 9.644915e-001
8.677673e+002, 9.411773e-001
8.682494e+002, 9.561489e-001
8.687315e+002, 1.013416e+000
8.692136e+002, 1.061746e+000
8.696957e+002, 1.080014e+000
8.701779e+002, 1.080811e+000
8.706600e+002, 1.081847e+000
8.711421e+002, 1.083326e+000
8.716242e+002, 1.060474e+000
8.721063e+002, 9.802503e-001
8.725884e+002, 9.339234e-001
8.730705e+002, 9.597973e-001
8.735526e+002, 1.002625e+000
8.740347e+002, 1.037305e+000
8.745168e+002, 1.062649e+000
8.749990e+002, 1.077685e+000
8.754811e+002, 1.078792e+000
8.759632e+002, 1.079768e+000
8.764453e+002, 1.088131e+000
8.769274e+002, 1.095423e+000
8.774095e+002, 1.094950e+000
8.778917e+002, 1.089113e+000
8.783738e+002, 1.087494e+000
8.788559e+002, 1.089364e+000
8.793380e+002, 1.072234e+000
8.798201e+002, 9.982811e-001
8.803022e+002, 9.193962e-001
8.807844e+002, 9.311370e-001
8.812665e+002, 1.012231e+000
8.817486e+002, 1.095024e+000
8.822307e+002, 1.166296e+000
8.827128e+002, 1.199870e+000
8.831949e+002, 1.172973e+000
8.836771e+002, 1.124197e+000
8.841592e+002, 1.143949e+000
8.846413e+002, 1.249042e+000
8.851234e+002, 1.291618e+000
8.856055e+002, 1.245885e+000
8.860876e+002, 1.199973e+000
8.865698e+002, 1.175740e+000
8.870519e+002, 1.173468e+000
8.875340e+002, 1.208995e+000
8.880161e+002, 1.277383e+000
8.884982e+002, 1.303347e+000
8.889803e+002, 1.237426e+000
8.894625e+002, 1.195890e+000
8.899446e+002, 1.208027e+000
8.904267e+002, 1.241788e+000
8.909088e+002, 1.290323e+000
8.913909e+002, 1.339357e+000
8.918730e+002, 1.365329e+000
8.923552e+002, 1.361552e+000
8.928373e+002, 1.346210e+000
8.933194e+002, 1.321454e+000
8.938015e+002, 1.298850e+000
8.942836e+002, 1.285368e+000
8.947657e+002, 1.285152e+000
8.952479e+002, 1.310635e+000
8.957300e+002, 1.361091e+000
8.962121e+002, 1.420895e+000
8.966942e+002, 1.482845e+000
8.971763e+002, 1.530702e+000
8.976584e+002, 1.514016e+000
8.981406e+002, 1.442825e+000
8.986227e+002, 1.430255e+000
8.991048e+002, 1.492944e+000
8.995869e+002, 1.527410e+000
9.000690e+002, 1.474425e+000
9.005511e+002, 1.398982e+000
9.010333e+002, 1.402905e+000
9.015154e+002, 1.491435e+000
9.019975e+002, 1.539089e+000
9.024796e+002, 1.514391e+000
9.029617e+002, 1.508076e+000
9.034438e+002, 1.568316e+000
9.039260e+002, 1.620970e+000
9.044081e+002, 1.601093e+000
9.048902e+002, 1.536752e+000
9.053723e+002, 1.505578e+000
9.058544e+002, 1.539429e+000
9.063365e+002, 1.538615e+000
9.068187e+002, 1.434588e+000
9.073008e+002, 1.336210e+000
9.077829e+002, 1.320312e+000
9.082650e+002, 1.345064e+000
9.087471e+002, 1.349627e+000
9.092292e+002, 1.325152e+000
9.097114e+002, 1.301866e+000
9.101935e+002, 1.305294e+000
9.106756e+002, 1.305076e+000
9.111577e+002, 1.263970e+000
9.116398e+002, 1.199565e+000
9.121219e+002, 1.142925e+000
9.126041e+002, 1.096593e+000
9.130862e+002, 1.045756e+000
9.135683e+002, 9.834031e-001
9.140504e+002, 9.345581e-001
9.145325e+002, 9.433174e-001
9.150146e+002, 9.959990e-001
9.154968e+002, 1.016565e+000
9.159789e+002, 1.004872e+000
9.164610e+002, 9.560853e-001
9.169431e+002, 8.589210e-001
9.174252e+002, 7.681625e-001
9.179073e+002, 7.266744e-001
9.183895e+002, 7.286536e-001
9.188716e+002, 7.577823e-001
9.193537e+002, 8.449106e-001
9.198358e+002, 8.786291e-001
9.203179e+002, 8.135917e-001
9.208000e+002, 7.599738e-001
9.212822e+002, 7.790478e-001
9.217643e+002, 8.195639e-001
9.222464e+002, 8.213891e-001
9.227285e+002, 7.858644e-001
9.232106e+002, 7.678191e-001
9.236927e+002, 7.842899e-001
9.241749e+002, 8.061969e-001
9.246570e+002, 8.267277e-001
9.251391e+002, 8.485739e-001
9.256212e+002, 8.794338e-001
9.261033e+002, 9.118313e-001
9.265854e+002, 9.322166e-001
9.270676e+002, 9.367447e-001
9.275497e+002, 9.253845e-001
9.280318e+002, 8.788320e-001
9.285139e+002, 8.335751e-001
9.289960e+002, 8.454648e-001
9.294781e+002, 8.796059e-001
9.299603e+002, 8.516958e-001
9.304424e+002, 7.628854e-001
9.309245e+002, 7.039071e-001
9.314066e+002, 7.352935e-001
9.318887e+002, 8.091738e-001
9.323708e+002, 8.616369e-001
9.328530e+002, 8.919030e-001
9.333351e+002, 8.907148e-001
9.338172e+002, 8.593931e-001
9.342993e+002, 8.234044e-001
9.347814e+002, 7.910569e-001
9.352635e+002, 7.721142e-001
9.357457e+002, 7.817524e-001
9.362278e+002, 8.114564e-001
9.367099e+002, 8.049419e-001
9.371920e+002, 7.470706e-001
9.376741e+002, 7.210121e-001
9.381563e+002, 7.461759e-001
9.386384e+002, 7.824050e-001
9.391205e+002, 8.144409e-001
9.396026e+002, 8.389798e-001
9.400847e+002, 8.507125e-001
9.405668e+002, 8.496670e-001
9.410490e+002, 8.355839e-001
9.415311e+002, 7.874332e-001
9.420132e+002, 7.554373e-001
9.424953e+002, 7.672722e-001
9.429774e+002, 7.819442e-001
9.434595e+002, 7.541443e-001
9.439417e+002, 7.068425e-001
9.444238e+002, 7.096134e-001
9.449059e+002, 7.967582e-001
9.453880e+002, 8.535086e-001
9.458701e+002, 8.060212e-001
9.463522e+002, 7.504606e-001
9.468344e+002, 7.620661e-001
9.473165e+002, 7.985900e-001
9.477986e+002, 7.898533e-001
9.482807e+002, 7.372589e-001
9.487628e+002, 7.074842e-001
9.492449e+002, 7.449439e-001
9.497271e+002, 7.944650e-001
9.502092e+002, 8.030027e-001
9.506913e+002, 7.898117e-001
9.511734e+002, 7.731844e-001
9.516555e+002, 7.629955e-001
9.521376e+002, 7.922758e-001
9.526198e+002, 8.672878e-001
9.531019e+002, 9.295339e-001
9.535840e+002, 9.208291e-001
9.540661e+002, 8.623732e-001
9.545482e+002, 7.940518e-001
9.550303e+002, 7.202398e-001
9.555124e+002, 6.682283e-001
9.559945e+002, 6.417357e-001
9.564766e+002, 6.464508e-001
9.569587e+002, 6.895608e-001
9.574409e+002, 7.412974e-001
9.579230e+002, 7.474921e-001
9.584051e+002, 7.097925e-001
9.588872e+002, 7.284245e-001
9.593693e+002, 8.249711e-001
9.598514e+002, 8.826416e-001
9.603336e+002, 8.641289e-001
9.608157e+002, 8.290604e-001
9.612978e+002, 8.194608e-001
9.617799e+002, 8.278142e-001
9.622620e+002, 8.355485e-001
9.627441e+002, 8.529485e-001
9.632263e+002, 8.370130e-001
9.637084e+002, 7.307523e-001
9.641905e+002, 6.690449e-001
9.646726e+002, 7.324180e-001
9.651547e+002, 8.170929e-001
9.656368e+002, 8.374947e-001
9.661190e+002, 8.007196e-001
9.666011e+002, 7.472331e-001
9.670832e+002, 6.499701e-001
9.675653e+002, 6.013092e-001
9.680474e+002, 6.574062e-001
9.685295e+002, 7.278264e-001
9.690117e+002, 7.748985e-001
9.694938e+002, 7.969005e-001
9.699759e+002, 7.820937e-001
9.704580e+002, 7.382543e-001
9.709401e+002, 7.195999e-001
9.714222e+002, 7.730196e-001
9.719044e+002, 8.200929e-001
9.723865e+002, 7.978708e-001
9.728686e+002, 7.549282e-001
9.733507e+002, 7.425699e-001
9.738328e+002, 7.535676e-001
9.743149e+002, 7.582605e-001
9.747971e+002, 7.489271e-001
9.752792e+002, 7.478091e-001
9.757613e+002, 7.921191e-001
9.762434e+002, 8.324384e-001
9.767255e+002, 7.724342e-001
9.772076e+002, 6.678507e-001
9.776898e+002, 6.513519e-001
9.781719e+002, 7.207248e-001
9.786540e+002, 7.739889e-001
9.791361e+002, 7.629605e-001
9.796182e+002, 7.371274e-001
9.801003e+002, 7.675806e-001
9.805825e+002, 8.295110e-001
9.810646e+002, 8.323306e-001
9.815467e+002, 7.834827e-001
9.820288e+002, 7.426416e-001
9.825109e+002, 7.217343e-001
9.829930e+002, 7.037340e-001
9.834752e+002, 6.761954e-001
9.839573e+002, 6.524804e-001
9.844394e+002, 6.667106e-001
9.849215e+002, 7.194417e-001
9.854036e+002, 7.167835e-001
9.858857e+002, 6.432287e-001
9.863679e+002, 6.116161e-001
9.868500e+002, 6.630618e-001
9.873321e+002, 7.250355e-001
9.878142e+002, 7.354491e-001
9.882963e+002, 7.144298e-001
9.887784e+002, 7.290646e-001
9.892606e+002, 7.997277e-001
9.897427e+002, 8.331733e-001
9.902248e+002, 8.198312e-001
9.907069e+002, 7.854705e-001
9.911890e+002, 7.123138e-001
9.916711e+002, 6.498789e-001
9.921533e+002, 6.600307e-001
9.926354e+002, 7.265642e-001
9.931175e+002, 7.514959e-001
9.935996e+002, 6.886105e-001
9.940817e+002, 6.674034e-001
9.945638e+002, 7.419926e-001
9.950460e+002, 7.958468e-001
9.955281e+002, 7.588044e-001
9.960102e+002, 6.962802e-001
9.964923e+002, 6.824214e-001
9.969744e+002, 7.137047e-001
9.974565e+002, 7.345650e-001
9.979387e+002, 7.254034e-001
9.984208e+002, 7.205161e-001
9.989029e+002, 7.431551e-001
9.993850e+002, 7.572590e-001
9.998671e+002, 7.270439e-001
1.000349e+003, 6.808030e-001
1.000831e+003, 6.626613e-001
1.001313e+003, 6.757461e-001
1.001796e+003, 6.845060e-001
1.002278e+003, 6.610572e-001
1.002760e+003, 6.502022e-001
1.003242e+003, 6.914275e-001
1.003724e+003, 7.431372e-001
1.004206e+003, 7.825990e-001
1.004688e+003, 7.965531e-001
1.005170e+003, 7.471717e-001
1.005653e+003, 6.367341e-001
1.006135e+003, 5.682756e-001
1.006617e+003, 6.366326e-001
1.007099e+003, 7.334972e-001
1.007581e+003, 7.602689e-001
1.008063e+003, 7.497134e-001
1.008545e+003, 7.559670e-001
1.009027e+003, 7.673934e-001
1.009509e+003, 7.150624e-001
1.009992e+003, 5.837123e-001
1.010474e+003, 4.897620e-001
1.010956e+003, 5.622105e-001
1.011438e+003, 7.021751e-001
1.011920e+003, 7.748631e-001
1.012402e+003, 7.940779e-001
1.012884e+003, 7.778003e-001
1.013366e+003, 7.389166e-001
1.013849e+003, 7.127762e-001
1.014331e+003, 7.150015e-001
1.014813e+003, 7.413493e-001
1.015295e+003, 8.044020e-001
1.015777e+003, 8.743575e-001
1.016259e+003, 8.601325e-001
1.016741e+003, 7.822323e-001
1.017223e+003, 7.392483e-001
1.017705e+003, 7.435533e-001
1.018188e+003, 7.539195e-001
1.018670e+003, 7.496340e-001
1.019152e+003, 7.331930e-001
1.019634e+003, 6.991890e-001
1.020116e+003, 6.585812e-001
1.020598e+003, 6.818254e-001
1.021080e+003, 7.647336e-001
1.021562e+003, 7.806833e-001
1.022044e+003, 7.029047e-001
1.022527e+003, 6.595690e-001
1.023009e+003, 7.326584e-001
1.023491e+003, 8.400556e-001
1.023973e+003, 8.447102e-001
1.024455e+003, 7.538857e-001
1.024937e+003, 6.883630e-001
1.025419e+003, 6.499514e-001
1.025901e+003, 6.209652e-001
1.026384e+003, 5.944034e-001
1.026866e+003, 5.984871e-001
1.027348e+003, 6.617958e-001
1.027830e+003, 7.416848e-001
1.028312e+003, 7.518788e-001
1.028794e+003, 6.875750e-001
1.029276e+003, 6.841125e-001
1.029758e+003, 7.705536e-001
1.030240e+003, 8.112016e-001
1.030723e+003, 7.618892e-001
1.031205e+003, 7.064517e-001
1.031687e+003, 6.981682e-001
1.032169e+003, 7.217609e-001
1.032651e+003, 7.532988e-001
1.033133e+003, 8.006286e-001
1.033615e+003, 7.831712e-001
1.034097e+003, 6.439508e-001
1.034579e+003, 5.659078e-001
1.035062e+003, 6.041651e-001
1.035544e+003, 6.821923e-001
1.036026e+003, 7.820337e-001
1.036508e+003, 8.675126e-001
1.036990e+003, 8.474170e-001
1.037472e+003, 6.890478e-001
1.037954e+003, 6.095006e-001
1.038436e+003, 6.546564e-001
1.038919e+003, 7.065113e-001
1.039401e+003, 7.630559e-001
1.039883e+003, 8.006947e-001
1.040365e+003, 7.855498e-001
1.040847e+003, 7.465321e-001
1.041329e+003, 7.539524e-001
1.041811e+003, 8.271257e-001
1.042293e+003, 8.443012e-001
1.042776e+003, 7.264248e-001
1.043258e+003, 6.604418e-001
1.043740e+003, 7.321669e-001
1.044222e+003, 8.145989e-001
1.044704e+003, 8.170277e-001
1.045186e+003, 7.749948e-001
1.045668e+003, 7.622791e-001
1.046150e+003, 7.890056e-001
1.046632e+003, 8.055378e-001
1.047115e+003, 7.857090e-001
1.047597e+003, 7.839931e-001
1.048079e+003, 8.546456e-001
1.048561e+003, 9.075658e-001
1.049043e+003, 8.530552e-001
1.049525e+003, 7.468280e-001
1.050007e+003, 6.991737e-001
1.050489e+003, 7.275770e-001
1.050971e+003, 7.521198e-001
1.051454e+003, 7.557544e-001
1.051936e+003, 7.558915e-001
1.052418e+003, 7.558898e-001
1.052900e+003, 7.558832e-001
1.053382e+003, 7.558717e-001
1.053864e+003, 7.558553e-001
1.054346e+003, 7.576059e-001
1.054828e+003, 7.615866e-001
1.055311e+003, 7.571931e-001
1.055793e+003, 7.266399e-001
1.056275e+003, 7.075967e-001
1.056757e+003, 7.241771e-001
1.057239e+003, 7.460296e-001
1.057721e+003, 7.504877e-001
1.058203e+003, 7.438567e-001
1.058685e+003, 7.410336e-001
1.059167e+003, 7.440975e-001
1.059650e+003, 7.397938e-001
1.060132e+003, 7.062981e-001
1.060614e+003, 6.883426e-001
1.061096e+003, 7.265735e-001
1.061578e+003, 7.635270e-001
1.062060e+003, 7.423220e-001
1.062542e+003, 6.951823e-001
1.063024e+003, 6.744062e-001
1.063506e+003, 6.891848e-001
1.063989e+003, 7.307200e-001
1.064471e+003, 8.556719e-001
1.064953e+003, 9.219776e-001
1.065435e+003, 8.178298e-001
1.065917e+003, 6.858582e-001
1.066399e+003, 6.199151e-001
1.066881e+003, 6.077474e-001
1.067363e+003, 6.319711e-001
1.067846e+003, 6.820594e-001
1.068328e+003, 7.147492e-001
1.068810e+003, 7.038125e-001
1.069292e+003, 6.904114e-001
1.069774e+003, 6.826444e-001
1.070256e+003, 6.897651e-001
1.070738e+003, 7.365614e-001
1.071220e+003, 7.925121e-001
1.071703e+003, 8.180609e-001
1.072185e+003, 8.081536e-001
1.072667e+003, 7.745985e-001
1.073149e+003, 7.054772e-001
1.073631e+003, 6.509473e-001
1.074113e+003, 6.378034e-001
1.074595e+003, 6.440928e-001
1.075077e+003, 6.659960e-001
1.075559e+003, 6.899462e-001
1.076042e+003, 7.029212e-001
1.076524e+003, 7.022395e-001
1.077006e+003, 6.842644e-001
1.077488e+003, 6.373509e-001
1.077970e+003, 6.067600e-001
1.078452e+003, 6.317605e-001
1.078934e+003, 6.600958e-001
1.079416e+003, 6.508417e-001
1.079898e+003, 6.286364e-001
1.080380e+003, 6.234164e-001
1.080863e+003, 6.352833e-001
1.081345e+003, 6.506790e-001
1.081827e+003, 6.660829e-001
1.082309e+003, 6.814798e-001
1.082791e+003, 7.016828e-001
1.083273e+003, 7.163747e-001
1.083755e+003, 7.100580e-001
1.084237e+003, 7.019743e-001
1.084720e+003, 7.173384e-001
1.085202e+003, 7.483827e-001
1.085684e+003, 7.723229e-001
1.086166e+003, 7.842731e-001
1.086648e+003, 7.774729e-001
1.087130e+003, 7.334782e-001
1.087612e+003, 6.894037e-001
1.088094e+003, 6.670803e-001
1.088577e+003, 6.509297e-001
1.089059e+003, 6.109688e-001
1.089541e+003, 5.699327e-001
1.090023e+003, 5.899177e-001
1.090505e+003, 6.839702e-001
1.090987e+003, 7.455515e-001
1.091469e+003, 7.061070e-001
1.091951e+003, 6.647466e-001
1.092433e+003, 6.733466e-001
1.092916e+003, 6.872628e-001
1.093398e+003, 6.660250e-001
1.093880e+003, 6.273661e-001
1.094362e+003, 6.048983e-001
1.094844e+003, 6.027400e-001
1.095326e+003, 6.010273e-001
1.095808e+003, 5.820055e-001
1.096290e+003, 5.797020e-001
1.096772e+003, 6.244133e-001
1.097255e+003, 6.686584e-001
1.097737e+003, 6.884882e-001
1.098219e+003, 6.858248e-001
1.098701e+003, 6.528689e-001
1.099183e+003, 5.982378e-001
1.099665e+003, 5.713144e-001
1.100147e+003, 5.883467e-001
1.100629e+003, 6.235441e-001
1.101112e+003, 6.970456e-001
1.101594e+003, 7.553512e-001
1.102076e+003, 7.703524e-001
1.102558e+003, 7.584564e-001
1.103040e+003, 7.209373e-001
1.103522e+003, 6.724328e-001
1.104004e+003, 6.623868e-001
1.104486e+003, 7.138093e-001
1.104969e+003, 7.526335e-001
1.105451e+003, 7.706182e-001
1.105933e+003, 7.676558e-001
1.106415e+003, 7.262484e-001
1.106897e+003, 6.799776e-001
1.107379e+003, 6.574870e-001
1.107861e+003, 6.505882e-001
1.108343e+003, 6.390101e-001
1.108825e+003, 6.227344e-001
1.109307e+003, 5.929782e-001
1.109790e+003, 5.071895e-001
1.110272e+003, 4.674370e-001
1.110754e+003, 5.272194e-001
1.111236e+003, 6.037706e-001
1.111718e+003, 6.666673e-001
1.112200e+003, 7.056285e-001
1.112682e+003, 6.899452e-001
1.113164e+003, 6.146672e-001
1.113647e+003, 5.893425e-001
1.114129e+003, 6.859089e-001
1.114611e+003, 7.111397e-001
1.115093e+003, 5.748101e-001
1.115575e+003, 4.715847e-001
1.116057e+003, 5.048974e-001
1.116539e+003, 5.928209e-001
1.117021e+003, 6.455921e-001
1.117504e+003, 6.678450e-001
1.117986e+003, 6.959099e-001
1.118468e+003, 7.513176e-001
1.118950e+003, 7.567506e-001
1.119432e+003, 6.715240e-001
1.119914e+003, 6.208482e-001
1.120396e+003, 6.742812e-001
1.120878e+003, 7.225932e-001
1.121360e+003, 6.554565e-001
1.121843e+003, 5.233033e-001
1.122325e+003, 4.781660e-001
1.122807e+003, 5.357723e-001
1.123289e+003, 5.875329e-001
1.123771e+003, 6.374047e-001
1.124253e+003, 6.672050e-001
1.124735e+003, 6.692992e-001
1.125217e+003, 6.611350e-001
1.125699e+003, 6.512473e-001
1.126182e+003, 6.434044e-001
1.126664e+003, 6.461967e-001
1.127146e+003, 6.583121e-001
1.127628e+003, 6.510635e-001
1.128110e+003, 6.199773e-001
1.128592e+003, 6.142743e-001
1.129074e+003, 6.445191e-001
1.129556e+003, 6.646041e-001
1.130039e+003, 6.499843e-001
1.130521e+003, 6.420785e-001
1.131003e+003, 6.985798e-001
1.131485e+003, 7.837799e-001
1.131967e+003, 7.500398e-001
1.132449e+003, 6.074932e-001
1.132931e+003, 5.455676e-001
1.133413e+003, 5.728493e-001
1.133896e+003, 5.948213e-001
1.134378e+003, 5.825588e-001
1.134860e+003, 5.745086e-001
1.135342e+003, 6.006843e-001
1.135824e+003, 6.478150e-001
1.136306e+003, 7.027006e-001
1.136788e+003, 7.567047e-001
1.137270e+003, 7.688366e-001
1.137752e+003, 7.475674e-001
1.138234e+003, 7.365410e-001
1.138717e+003, 7.421917e-001
1.139199e+003, 7.438933e-001
1.139681e+003, 7.310323e-001
1.140163e+003, 7.173302e-001
1.140645e+003, 7.265571e-001
1.141127e+003, 7.370933e-001
1.141609e+003, 7.042671e-001
1.142091e+003, 6.440011e-001
1.142574e+003, 5.693110e-001
1.143056e+003, 5.021994e-001
1.143538e+003, 5.230052e-001
1.144020e+003, 6.415263e-001
1.144502e+003, 7.204570e-001
1.144984e+003, 6.466213e-001
1.145466e+003, 5.324019e-001
1.145948e+003, 4.705760e-001
1.146431e+003, 4.565242e-001
1.146913e+003, 5.138565e-001
1.147395e+003, 6.009759e-001
1.147877e+003, 6.363774e-001
1.148359e+003, 6.220812e-001
1.148841e+003, 6.421039e-001
1.149323e+003, 7.465228e-001
1.149805e+003, 7.976333e-001
1.150287e+003, 6.232665e-001
1.150770e+003, 4.616007e-001
1.151252e+003, 5.243524e-001
1.151734e+003, 6.586000e-001
1.152216e+003, 7.008107e-001
1.152698e+003, 6.698932e-001
1.153180e+003, 6.480091e-001
1.153662e+003, 6.525010e-001
1.154144e+003, 6.587995e-001
1.154626e+003, 6.487753e-001
1.155109e+003, 6.533511e-001
1.155591e+003, 7.250860e-001
1.156073e+003, 7.679977e-001
1.156555e+003, 6.716734e-001
1.157037e+003, 5.443923e-001
1.157519e+003, 5.434736e-001
1.158001e+003, 6.558760e-001
1.158483e+003, 7.268000e-001
1.158966e+003, 7.334840e-001
1.159448e+003, 7.170842e-001
1.159930e+003, 6.490523e-001
1.160412e+003, 6.008068e-001
1.160894e+003, 5.927293e-001
1.161376e+003, 6.090676e-001
1.161858e+003, 6.483346e-001
1.162340e+003, 6.988035e-001
1.162822e+003, 7.404005e-001
1.163305e+003, 7.774779e-001
1.163787e+003, 7.498996e-001
1.164269e+003, 6.067781e-001
1.164751e+003, 5.613854e-001
1.165233e+003, 6.891446e-001
1.165715e+003, 7.703483e-001
1.166197e+003, 6.818994e-001
1.166679e+003, 5.529026e-001
1.167161e+003, 5.387345e-001
1.167644e+003, 6.088101e-001
1.168126e+003, 6.324516e-001
1.168608e+003, 6.071369e-001
1.169090e+003, 6.232426e-001
1.169572e+003, 6.864145e-001
1.170054e+003, 7.139650e-001
1.170536e+003, 6.826956e-001
1.171018e+003, 6.388094e-001
1.171500e+003, 6.121249e-001
1.171983e+003, 6.048272e-001
1.172465e+003, 6.304423e-001
1.172947e+003, 6.744296e-001
1.173429e+003, 6.845615e-001
1.173911e+003, 6.698179e-001
1.174393e+003, 6.668302e-001
1.174875e+003, 6.761823e-001
1.175357e+003, 6.688121e-001
1.175840e+003, 6.359968e-001
1.176322e+003, 6.148604e-001
1.176804e+003, 6.432547e-001
1.177286e+003, 6.816778e-001
1.177768e+003, 6.705752e-001
1.178250e+003, 6.458970e-001
1.178732e+003, 6.704420e-001
1.179214e+003, 7.185373e-001
1.179697e+003, 7.366216e-001
1.180179e+003, 7.178754e-001
1.180661e+003, 6.755182e-001
1.181143e+003, 6.097448e-001
1.181625e+003, 5.648188e-001
1.182107e+003, 5.739502e-001
1.182589e+003, 6.055011e-001
1.183071e+003, 6.567004e-001
1.183553e+003, 7.045171e-001
1.184036e+003, 7.411844e-001
1.184518e+003, 7.526082e-001
1.185000e+003, 6.960389e-001
1.185482e+003, 5.729045e-001
1.185964e+003, 5.084775e-001
1.186446e+003, 5.860198e-001
1.186928e+003, 6.346964e-001
1.187410e+003, 6.081092e-001
1.187892e+003, 5.698307e-001
1.188375e+003, 5.382807e-001
1.188857e+003, 5.140129e-001
1.189339e+003, 4.949702e-001
1.189821e+003, 4.834741e-001
1.190303e+003, 4.856460e-001
1.190785e+003, 5.000383e-001
1.191267e+003, 5.422172e-001
1.191749e+003, 6.422581e-001
1.192232e+003, 6.776434e-001
1.192714e+003, 6.025848e-001
1.193196e+003, 5.410341e-001
1.193678e+003, 5.606115e-001
1.194160e+003, 6.013908e-001
1.194642e+003, 5.760160e-001
1.195124e+003, 5.280172e-001
1.195606e+003, 6.825008e-001
1.196089e+003, 1.024276e+000
1.196571e+003, 1.095316e+000
1.197053e+003, 8.892023e-001
1.197535e+003, 7.184568e-001
1.198017e+003, 6.624750e-001
1.198499e+003, 6.616546e-001
1.198981e+003, 6.816733e-001
1.199463e+003, 7.036788e-001
1.199945e+003, 6.951236e-001
1.200427e+003, 6.767054e-001
1.200910e+003, 7.046201e-001
1.201392e+003, 7.490911e-001
1.201874e+003, 7.381116e-001
1.202356e+003, 6.819186e-001
1.202838e+003, 6.327946e-001
1.203320e+003, 6.045060e-001
1.203802e+003, 5.744982e-001
1.204284e+003, 5.205061e-001
1.204767e+003, 4.887595e-001
1.205249e+003, 5.343440e-001
1.205731e+003, 5.951952e-001
1.206213e+003, 6.185390e-001
1.206695e+003, 6.277112e-001
1.207177e+003, 6.580122e-001
1.207659e+003, 7.006102e-001
1.208141e+003, 7.227746e-001
1.208624e+003, 7.169566e-001
1.209106e+003, 7.106317e-001
1.209588e+003, 7.356790e-001
1.210070e+003, 7.228233e-001
1.210552e+003, 5.958347e-001
1.211034e+003, 5.009844e-001
1.211516e+003, 5.406541e-001
1.211998e+003, 6.222523e-001
1.212480e+003, 6.581763e-001
1.212963e+003, 6.583740e-001
1.213445e+003, 6.628953e-001
1.213927e+003, 6.814799e-001
1.214409e+003, 6.454374e-001
1.214891e+003, 5.269984e-001
1.215373e+003, 4.707002e-001
1.215855e+003, 5.148926e-001
1.216337e+003, 5.704666e-001
1.216819e+003, 5.926094e-001
1.217302e+003, 5.904550e-001
1.217784e+003, 5.698873e-001
1.218266e+003, 5.424910e-001
1.218748e+003, 5.560480e-001
1.219230e+003, 5.962901e-001
1.219712e+003, 5.712643e-001
1.220194e+003, 4.977387e-001
1.220676e+003, 5.089973e-001
1.221159e+003, 6.146249e-001
1.221641e+003, 6.515089e-001
1.222123e+003, 5.279694e-001
1.222605e+003, 4.070679e-001
1.223087e+003, 4.899454e-001
1.223569e+003, 6.246188e-001
1.224051e+003, 6.371774e-001
1.224533e+003, 5.953616e-001
1.225016e+003, 5.849054e-001
1.225498e+003, 5.933338e-001
1.225980e+003, 5.687759e-001
1.226462e+003, 5.129847e-001
1.226944e+003, 4.950329e-001
1.227426e+003, 5.602245e-001
1.227908e+003, 6.015170e-001
1.228390e+003, 5.488723e-001
1.228872e+003, 5.087601e-001
1.229354e+003, 5.447318e-001
1.229837e+003, 5.920018e-001
1.230319e+003, 5.919017e-001
1.230801e+003, 5.717199e-001
1.231283e+003, 5.876133e-001
1.231765e+003, 6.377658e-001
1.232247e+003, 6.548113e-001
1.232729e+003, 6.199691e-001
1.233211e+003, 6.147217e-001
1.233694e+003, 6.593764e-001
1.234176e+003, 6.654717e-001
1.234658e+003, 5.931119e-001
1.235140e+003, 5.393652e-001
1.235622e+003, 5.791024e-001
1.236104e+003, 6.584463e-001
1.236586e+003, 6.810383e-001
1.237068e+003, 6.661956e-001
1.237551e+003, 7.125909e-001
1.238033e+003, 7.963506e-001
1.238515e+003, 8.083674e-001
1.238997e+003, 7.477207e-001
1.239479e+003, 6.447622e-001
1.239961e+003, 5.251153e-001
1.240443e+003, 4.979014e-001
1.240925e+003, 6.567896e-001
1.241407e+003, 8.008160e-001
1.241890e+003, 6.900294e-001
1.242372e+003, 5.201341e-001
1.242854e+003, 4.595830e-001
1.243336e+003, 4.723797e-001
1.243818e+003, 5.460598e-001
1.244300e+003, 6.351246e-001
1.244782e+003, 6.436622e-001
1.245264e+003, 5.659031e-001
1.245746e+003, 5.422346e-001
1.246229e+003, 6.797734e-001
1.246711e+003, 7.424201e-001
1.247193e+003, 6.106665e-001
1.247675e+003, 5.067257e-001
1.248157e+003, 5.338075e-001
1.248639e+003, 5.783657e-001
1.249121e+003, 5.560685e-001
1.249603e+003, 5.045584e-001
1.250085e+003, 4.919534e-001
1.250568e+003, 5.161469e-001
1.251050e+003, 5.388983e-001
1.251532e+003, 5.590991e-001
1.252014e+003, 5.931942e-001
1.252496e+003, 6.433285e-001
1.252978e+003, 6.892164e-001
1.253460e+003, 7.246352e-001
1.253942e+003, 7.228318e-001
1.254425e+003, 6.617896e-001
1.254907e+003, 5.934688e-001
1.255389e+003, 5.925519e-001
1.255871e+003, 6.328220e-001
1.256353e+003, 6.943349e-001
1.256835e+003, 7.440513e-001
1.257317e+003, 7.015992e-001
1.257799e+003, 5.969092e-001
1.258281e+003, 5.035537e-001
1.258764e+003, 4.436384e-001
1.259246e+003, 4.245606e-001
1.259728e+003, 4.606370e-001
1.260210e+003, 4.955592e-001
1.260692e+003, 5.011166e-001
1.261174e+003, 5.020484e-001
1.261656e+003, 5.046538e-001
1.262138e+003, 5.127134e-001
1.262620e+003, 5.308603e-001
1.263103e+003, 5.551351e-001
1.263585e+003, 5.818392e-001
1.264067e+003, 6.095853e-001
1.264549e+003, 6.260648e-001
1.265031e+003, 6.313146e-001
1.265513e+003, 6.231411e-001
1.265995e+003, 5.969471e-001
1.266477e+003, 5.787529e-001
1.266960e+003, 5.752802e-001
1.267442e+003, 5.723433e-001
1.267924e+003, 5.611099e-001
1.268406e+003, 5.561774e-001
1.268888e+003, 5.791251e-001
1.269370e+003, 6.130163e-001
1.269852e+003, 6.132991e-001
1.270334e+003, 5.956420e-001
1.270817e+003, 6.009141e-001
1.271299e+003, 6.230801e-001
1.271781e+003, 6.365929e-001
1.272263e+003, 6.420762e-001
1.272745e+003, 6.725156e-001
1.273227e+003, 7.405612e-001
1.273709e+003, 7.634516e-001
1.274191e+003, 6.361188e-001
1.274673e+003, 5.290858e-001
1.275156e+003, 5.545223e-001
1.275638e+003, 5.976407e-001
1.276120e+003, 5.798593e-001
1.276602e+003, 5.395311e-001
1.277084e+003, 5.124404e-001
1.277566e+003, 5.056074e-001
1.278048e+003, 5.453267e-001
1.278530e+003, 6.470402e-001
1.279012e+003, 6.389897e-001
1.279495e+003, 4.661834e-001
1.279977e+003, 3.898387e-001
1.280459e+003, 4.526406e-001
1.280941e+003, 5.356718e-001
1.281423e+003, 5.990591e-001
1.281905e+003, 6.473856e-001
1.282387e+003, 6.867689e-001
1.282869e+003, 7.020208e-001
1.283352e+003, 6.469309e-001
1.283834e+003, 5.594538e-001
1.284316e+003, 5.209659e-001
1.284798e+003, 5.314901e-001
##END=



