##NAMES=Tetradymite
##RRUFFID=R130067
##IDEAL CHEMISTRY=Bi^3+^_2_Te^2-^_2_S^2-^
##LOCALITY=Oravica, Transylvania, Romania
##OWNER=RRUFF
##SOURCE=William W. Pinch
##DESCRIPTION=Mass of platy dark gray crystals
##STATUS=The identification of this mineral has been confirmed only by single crystal X-ray diffraction.
##URL=rruff.info/R130067
8.975323e+001, 0.000000e+000
9.023535e+001, 9.563577e+001
9.071747e+001, 9.247205e+001
9.119958e+001, 9.097774e+001
9.168170e+001, 9.441763e+001
9.216382e+001, 9.806873e+001
9.264594e+001, 1.004896e+002
9.312805e+001, 1.017612e+002
9.361017e+001, 1.025934e+002
9.409229e+001, 1.034732e+002
9.457440e+001, 1.040452e+002
9.505651e+001, 1.052571e+002
9.553863e+001, 1.075644e+002
9.602074e+001, 1.102606e+002
9.650286e+001, 1.126066e+002
9.698498e+001, 1.142018e+002
9.746709e+001, 1.151925e+002
9.794921e+001, 1.171469e+002
9.843133e+001, 1.207121e+002
9.891344e+001, 1.242688e+002
9.939556e+001, 1.276273e+002
9.987768e+001, 1.307004e+002
1.003598e+002, 1.332764e+002
1.008419e+002, 1.354056e+002
1.013240e+002, 1.367693e+002
1.018061e+002, 1.368884e+002
1.022883e+002, 1.358136e+002
1.027704e+002, 1.335030e+002
1.032525e+002, 1.297074e+002
1.037346e+002, 1.242568e+002
1.042167e+002, 1.181342e+002
1.046988e+002, 1.113723e+002
1.051810e+002, 1.044134e+002
1.056631e+002, 9.801206e+001
1.061452e+002, 9.251817e+001
1.066273e+002, 8.781828e+001
1.071094e+002, 8.340048e+001
1.075915e+002, 7.906773e+001
1.080737e+002, 7.533704e+001
1.085558e+002, 7.240150e+001
1.090379e+002, 7.016737e+001
1.095200e+002, 6.843935e+001
1.100021e+002, 6.706132e+001
1.104842e+002, 6.604520e+001
1.109664e+002, 6.536921e+001
1.114485e+002, 6.518200e+001
1.119306e+002, 6.517461e+001
1.124127e+002, 6.530349e+001
1.128948e+002, 6.551409e+001
1.133769e+002, 6.568945e+001
1.138591e+002, 6.565285e+001
1.143412e+002, 6.522404e+001
1.148233e+002, 6.488771e+001
1.153054e+002, 6.477068e+001
1.157875e+002, 6.468333e+001
1.162696e+002, 6.445020e+001
1.167517e+002, 6.400805e+001
1.172339e+002, 6.339195e+001
1.177160e+002, 6.264832e+001
1.181981e+002, 6.170729e+001
1.186802e+002, 6.080822e+001
1.191623e+002, 6.000989e+001
1.196444e+002, 5.930505e+001
1.201266e+002, 5.869495e+001
1.206087e+002, 5.826838e+001
1.210908e+002, 5.786240e+001
1.215729e+002, 5.715151e+001
1.220550e+002, 5.596442e+001
1.225371e+002, 5.476543e+001
1.230193e+002, 5.398912e+001
1.235014e+002, 5.367139e+001
1.239835e+002, 5.345038e+001
1.244656e+002, 5.319355e+001
1.249477e+002, 5.293634e+001
1.254298e+002, 5.267656e+001
1.259120e+002, 5.235157e+001
1.263941e+002, 5.210482e+001
1.268762e+002, 5.231619e+001
1.273583e+002, 5.332483e+001
1.278404e+002, 5.424220e+001
1.283225e+002, 5.468407e+001
1.288047e+002, 5.491198e+001
1.292868e+002, 5.527289e+001
1.297689e+002, 5.599628e+001
1.302510e+002, 5.705812e+001
1.307331e+002, 5.810703e+001
1.312152e+002, 5.905848e+001
1.316974e+002, 6.008718e+001
1.321795e+002, 6.112113e+001
1.326616e+002, 6.225411e+001
1.331437e+002, 6.369106e+001
1.336258e+002, 6.565881e+001
1.341079e+002, 6.829459e+001
1.345901e+002, 7.060683e+001
1.350722e+002, 7.242043e+001
1.355543e+002, 7.412442e+001
1.360364e+002, 7.584518e+001
1.365185e+002, 7.762765e+001
1.370006e+002, 7.959093e+001
1.374828e+002, 8.195014e+001
1.379649e+002, 8.487878e+001
1.384470e+002, 8.723629e+001
1.389291e+002, 8.858582e+001
1.394112e+002, 8.948676e+001
1.398933e+002, 9.065259e+001
1.403755e+002, 9.229947e+001
1.408576e+002, 9.395131e+001
1.413397e+002, 9.501225e+001
1.418218e+002, 9.555885e+001
1.423039e+002, 9.571795e+001
1.427860e+002, 9.556384e+001
1.432681e+002, 9.506685e+001
1.437503e+002, 9.411826e+001
1.442324e+002, 9.265506e+001
1.447145e+002, 9.069929e+001
1.451966e+002, 8.826864e+001
1.456787e+002, 8.537416e+001
1.461608e+002, 8.234837e+001
1.466430e+002, 7.954154e+001
1.471251e+002, 7.699970e+001
1.476072e+002, 7.417697e+001
1.480893e+002, 7.049415e+001
1.485714e+002, 6.676231e+001
1.490535e+002, 6.342997e+001
1.495357e+002, 6.060077e+001
1.500178e+002, 5.801868e+001
1.504999e+002, 5.531787e+001
1.509820e+002, 5.230627e+001
1.514641e+002, 4.956375e+001
1.519462e+002, 4.713568e+001
1.524284e+002, 4.493031e+001
1.529105e+002, 4.285178e+001
1.533926e+002, 4.087710e+001
1.538747e+002, 3.904187e+001
1.543568e+002, 3.744896e+001
1.548389e+002, 3.639759e+001
1.553211e+002, 3.525856e+001
1.558032e+002, 3.382424e+001
1.562853e+002, 3.233616e+001
1.567674e+002, 3.112509e+001
1.572495e+002, 3.036657e+001
1.577316e+002, 2.994159e+001
1.582138e+002, 2.934809e+001
1.586959e+002, 2.837455e+001
1.591780e+002, 2.749281e+001
1.596601e+002, 2.686646e+001
1.601422e+002, 2.642321e+001
1.606243e+002, 2.598509e+001
1.611065e+002, 2.543957e+001
1.615886e+002, 2.483451e+001
1.620707e+002, 2.438066e+001
1.625528e+002, 2.418529e+001
1.630349e+002, 2.402542e+001
1.635170e+002, 2.377201e+001
1.639991e+002, 2.343340e+001
1.644813e+002, 2.309529e+001
1.649634e+002, 2.280943e+001
1.654455e+002, 2.256235e+001
1.659276e+002, 2.231781e+001
1.664097e+002, 2.206772e+001
1.668918e+002, 2.182081e+001
1.673740e+002, 2.159371e+001
1.678561e+002, 2.139275e+001
1.683382e+002, 2.118316e+001
1.688203e+002, 2.091033e+001
1.693024e+002, 2.062522e+001
1.697845e+002, 2.039075e+001
1.702667e+002, 2.022680e+001
1.707488e+002, 2.013114e+001
1.712309e+002, 2.012951e+001
1.717130e+002, 2.033584e+001
1.721951e+002, 2.041664e+001
1.726772e+002, 2.020161e+001
1.731594e+002, 1.981158e+001
1.736415e+002, 1.940361e+001
1.741236e+002, 1.905046e+001
1.746057e+002, 1.875788e+001
1.750878e+002, 1.857605e+001
1.755699e+002, 1.867496e+001
1.760521e+002, 1.869437e+001
1.765342e+002, 1.848557e+001
1.770163e+002, 1.813367e+001
1.774984e+002, 1.779279e+001
1.779805e+002, 1.757417e+001
1.784626e+002, 1.747844e+001
1.789448e+002, 1.738883e+001
1.794269e+002, 1.739416e+001
1.799090e+002, 1.731951e+001
1.803911e+002, 1.702809e+001
1.808732e+002, 1.659641e+001
1.813553e+002, 1.622319e+001
1.818375e+002, 1.608965e+001
1.823196e+002, 1.623121e+001
1.828017e+002, 1.626786e+001
1.832838e+002, 1.615957e+001
1.837659e+002, 1.600872e+001
1.842480e+002, 1.583288e+001
1.847301e+002, 1.564943e+001
1.852123e+002, 1.551075e+001
1.856944e+002, 1.548747e+001
1.861765e+002, 1.560524e+001
1.866586e+002, 1.556374e+001
1.871407e+002, 1.517157e+001
1.876228e+002, 1.476177e+001
1.881050e+002, 1.461072e+001
1.885871e+002, 1.474172e+001
1.890692e+002, 1.493600e+001
1.895513e+002, 1.498343e+001
1.900334e+002, 1.488644e+001
1.905155e+002, 1.481179e+001
1.909977e+002, 1.477764e+001
1.914798e+002, 1.477401e+001
1.919619e+002, 1.480974e+001
1.924440e+002, 1.489805e+001
1.929261e+002, 1.496135e+001
1.934082e+002, 1.489007e+001
1.938904e+002, 1.472377e+001
1.943725e+002, 1.457501e+001
1.948546e+002, 1.449390e+001
1.953367e+002, 1.445040e+001
1.958188e+002, 1.438804e+001
1.963009e+002, 1.430432e+001
1.967831e+002, 1.419582e+001
1.972652e+002, 1.401577e+001
1.977473e+002, 1.380191e+001
1.982294e+002, 1.366343e+001
1.987115e+002, 1.370008e+001
1.991936e+002, 1.386907e+001
1.996758e+002, 1.398533e+001
2.001579e+002, 1.402382e+001
2.006400e+002, 1.403396e+001
2.011221e+002, 1.404754e+001
2.016042e+002, 1.405848e+001
2.020863e+002, 1.404959e+001
2.025685e+002, 1.399144e+001
2.030506e+002, 1.388947e+001
2.035327e+002, 1.384443e+001
2.040148e+002, 1.394470e+001
2.044969e+002, 1.401061e+001
2.049790e+002, 1.393742e+001
2.054612e+002, 1.377059e+001
2.059433e+002, 1.362347e+001
2.064254e+002, 1.359541e+001
2.069075e+002, 1.369321e+001
2.073896e+002, 1.377738e+001
2.078717e+002, 1.396308e+001
2.083539e+002, 1.402568e+001
2.088360e+002, 1.377935e+001
2.093181e+002, 1.332370e+001
2.098002e+002, 1.292091e+001
2.102823e+002, 1.282238e+001
2.107644e+002, 1.307589e+001
2.112466e+002, 1.321251e+001
2.117287e+002, 1.311399e+001
2.122108e+002, 1.302047e+001
2.126929e+002, 1.307256e+001
2.131750e+002, 1.322962e+001
2.136571e+002, 1.333409e+001
2.141393e+002, 1.322663e+001
2.146214e+002, 1.285825e+001
2.151035e+002, 1.262421e+001
2.155856e+002, 1.263497e+001
2.160677e+002, 1.264985e+001
2.165498e+002, 1.249115e+001
2.170320e+002, 1.219702e+001
2.175141e+002, 1.198139e+001
2.179962e+002, 1.207000e+001
2.184783e+002, 1.251905e+001
2.189604e+002, 1.273050e+001
2.194425e+002, 1.255651e+001
2.199247e+002, 1.229770e+001
2.204068e+002, 1.212810e+001
2.208889e+002, 1.205477e+001
2.213710e+002, 1.198512e+001
2.218531e+002, 1.181259e+001
2.223352e+002, 1.153616e+001
2.228174e+002, 1.145785e+001
2.232995e+002, 1.177780e+001
2.237816e+002, 1.214690e+001
2.242637e+002, 1.230189e+001
2.247458e+002, 1.223203e+001
2.252279e+002, 1.208038e+001
2.257100e+002, 1.192925e+001
2.261922e+002, 1.178912e+001
2.266743e+002, 1.170908e+001
2.271564e+002, 1.175775e+001
2.276385e+002, 1.182736e+001
2.281206e+002, 1.180812e+001
2.286027e+002, 1.169268e+001
2.290849e+002, 1.156909e+001
2.295670e+002, 1.149571e+001
2.300491e+002, 1.146493e+001
2.305312e+002, 1.145441e+001
2.310133e+002, 1.146527e+001
2.314954e+002, 1.149273e+001
2.319776e+002, 1.153581e+001
2.324597e+002, 1.159663e+001
2.329418e+002, 1.165927e+001
2.334239e+002, 1.176122e+001
2.339060e+002, 1.184875e+001
2.343881e+002, 1.181929e+001
2.348703e+002, 1.156377e+001
2.353524e+002, 1.125057e+001
2.358345e+002, 1.113341e+001
2.363166e+002, 1.126136e+001
2.367987e+002, 1.137925e+001
2.372808e+002, 1.130291e+001
2.377630e+002, 1.115915e+001
2.382451e+002, 1.109819e+001
2.387272e+002, 1.120261e+001
2.392093e+002, 1.135630e+001
2.396914e+002, 1.135092e+001
2.401735e+002, 1.112456e+001
2.406557e+002, 1.093805e+001
2.411378e+002, 1.092967e+001
2.416199e+002, 1.099271e+001
2.421020e+002, 1.102615e+001
2.425841e+002, 1.098890e+001
2.430662e+002, 1.093033e+001
2.435484e+002, 1.095071e+001
2.440305e+002, 1.109910e+001
2.445126e+002, 1.119035e+001
2.449947e+002, 1.114219e+001
2.454768e+002, 1.103668e+001
2.459589e+002, 1.093169e+001
2.464410e+002, 1.084511e+001
2.469232e+002, 1.078223e+001
2.474053e+002, 1.076185e+001
2.478874e+002, 1.081903e+001
2.483695e+002, 1.083282e+001
2.488516e+002, 1.077175e+001
2.493337e+002, 1.067182e+001
2.498159e+002, 1.054881e+001
2.502980e+002, 1.040902e+001
2.507801e+002, 1.026995e+001
2.512622e+002, 1.016648e+001
2.517443e+002, 1.013160e+001
2.522264e+002, 1.005693e+001
2.527086e+002, 9.875139e+000
2.531907e+002, 9.693463e+000
2.536728e+002, 9.593986e+000
2.541549e+002, 9.594891e+000
2.546370e+002, 9.646988e+000
2.551191e+002, 9.677225e+000
2.556013e+002, 9.675074e+000
2.560834e+002, 9.672311e+000
2.565655e+002, 9.687472e+000
2.570476e+002, 9.690359e+000
2.575297e+002, 9.657137e+000
2.580118e+002, 9.585616e+000
2.584940e+002, 9.493913e+000
2.589761e+002, 9.401746e+000
2.594582e+002, 9.292575e+000
2.599403e+002, 9.229181e+000
2.604224e+002, 9.245398e+000
2.609045e+002, 9.270756e+000
2.613867e+002, 9.263031e+000
2.618688e+002, 9.217596e+000
2.623509e+002, 9.155334e+000
2.628330e+002, 9.099180e+000
2.633151e+002, 9.050935e+000
2.637972e+002, 9.002672e+000
2.642794e+002, 8.922496e+000
2.647615e+002, 8.868091e+000
2.652436e+002, 8.922051e+000
2.657257e+002, 9.054178e+000
2.662078e+002, 9.127000e+000
2.666899e+002, 8.987345e+000
2.671721e+002, 8.579851e+000
2.676542e+002, 8.322311e+000
2.681363e+002, 8.333058e+000
2.686184e+002, 8.353587e+000
2.691005e+002, 8.225197e+000
2.695826e+002, 7.979934e+000
2.700648e+002, 7.775325e+000
2.705469e+002, 7.754485e+000
2.710290e+002, 7.928062e+000
2.715111e+002, 7.966607e+000
2.719932e+002, 7.781341e+000
2.724753e+002, 7.579699e+000
2.729575e+002, 7.398442e+000
2.734396e+002, 7.266770e+000
2.739217e+002, 7.264521e+000
2.744038e+002, 7.476330e+000
2.748859e+002, 7.868507e+000
2.753680e+002, 8.006687e+000
2.758501e+002, 7.763350e+000
2.763322e+002, 7.472859e+000
2.768144e+002, 7.182010e+000
2.772965e+002, 6.926394e+000
2.777786e+002, 6.788798e+000
2.782607e+002, 6.831085e+000
2.787428e+002, 7.000318e+000
2.792249e+002, 7.066479e+000
2.797071e+002, 6.952270e+000
2.801892e+002, 6.848883e+000
2.806713e+002, 6.814142e+000
2.811534e+002, 6.820954e+000
2.816355e+002, 6.813781e+000
2.821176e+002, 6.763459e+000
2.825998e+002, 6.703156e+000
2.830819e+002, 6.731822e+000
2.835640e+002, 6.933572e+000
2.840461e+002, 7.054569e+000
2.845282e+002, 6.967896e+000
2.850103e+002, 6.789162e+000
2.854925e+002, 6.698769e+000
2.859746e+002, 6.762164e+000
2.864567e+002, 6.889970e+000
2.869388e+002, 6.935680e+000
2.874209e+002, 6.892596e+000
2.879030e+002, 6.802831e+000
2.883852e+002, 6.595734e+000
2.888673e+002, 6.375813e+000
2.893494e+002, 6.299259e+000
2.898315e+002, 6.406241e+000
2.903136e+002, 6.552444e+000
2.907957e+002, 6.547702e+000
2.912779e+002, 6.365112e+000
2.917600e+002, 6.243216e+000
2.922421e+002, 6.238836e+000
2.927242e+002, 6.286394e+000
2.932063e+002, 6.330707e+000
2.936884e+002, 6.364093e+000
2.941706e+002, 6.391281e+000
2.946527e+002, 6.433005e+000
2.951348e+002, 6.483648e+000
2.956169e+002, 6.438842e+000
2.960990e+002, 6.145705e+000
2.965811e+002, 5.863772e+000
2.970633e+002, 5.853147e+000
2.975454e+002, 6.097570e+000
2.980275e+002, 6.309485e+000
2.985096e+002, 6.275643e+000
2.989917e+002, 6.027063e+000
2.994738e+002, 5.839406e+000
2.999560e+002, 5.743093e+000
3.004381e+002, 5.679529e+000
3.009202e+002, 5.603179e+000
3.014023e+002, 5.525177e+000
3.018844e+002, 5.504110e+000
3.023665e+002, 5.593225e+000
3.028487e+002, 5.744204e+000
3.033308e+002, 5.809882e+000
3.038129e+002, 5.748628e+000
3.042950e+002, 5.680400e+000
3.047771e+002, 5.673784e+000
3.052592e+002, 5.702063e+000
3.057414e+002, 5.685128e+000
3.062235e+002, 5.576340e+000
3.067056e+002, 5.439365e+000
3.071877e+002, 5.397612e+000
3.076698e+002, 5.450144e+000
3.081519e+002, 5.556546e+000
3.086341e+002, 5.751976e+000
3.091162e+002, 5.983212e+000
3.095983e+002, 6.169772e+000
3.100804e+002, 6.297908e+000
3.105625e+002, 6.346443e+000
3.110446e+002, 6.245969e+000
3.115268e+002, 5.991770e+000
3.120089e+002, 5.778943e+000
3.124910e+002, 5.637503e+000
3.129731e+002, 5.561017e+000
3.134552e+002, 5.566865e+000
3.139373e+002, 5.661240e+000
3.144195e+002, 5.752638e+000
3.149016e+002, 5.744980e+000
3.153837e+002, 5.645165e+000
3.158658e+002, 5.579688e+000
3.163479e+002, 5.581789e+000
3.168300e+002, 5.605468e+000
3.173121e+002, 5.628310e+000
3.177943e+002, 5.645886e+000
3.182764e+002, 5.623315e+000
3.187585e+002, 5.512688e+000
3.192406e+002, 5.345403e+000
3.197227e+002, 5.265088e+000
3.202048e+002, 5.330336e+000
3.206870e+002, 5.420519e+000
3.211691e+002, 5.479510e+000
3.216512e+002, 5.510801e+000
3.221333e+002, 5.526196e+000
3.226154e+002, 5.528600e+000
3.230975e+002, 5.520862e+000
3.235797e+002, 5.514338e+000
3.240618e+002, 5.526718e+000
3.245439e+002, 5.505257e+000
3.250260e+002, 5.384832e+000
3.255081e+002, 5.224200e+000
3.259902e+002, 5.140704e+000
3.264724e+002, 5.178504e+000
3.269545e+002, 5.276628e+000
3.274366e+002, 5.355527e+000
3.279187e+002, 5.424888e+000
3.284008e+002, 5.436336e+000
3.288829e+002, 5.328731e+000
3.293651e+002, 5.182218e+000
3.298472e+002, 5.090971e+000
3.303293e+002, 5.071220e+000
3.308114e+002, 5.081487e+000
3.312935e+002, 5.088049e+000
3.317756e+002, 5.090330e+000
3.322578e+002, 5.073128e+000
3.327399e+002, 5.011212e+000
3.332220e+002, 4.948518e+000
3.337041e+002, 4.923659e+000
3.341862e+002, 4.933410e+000
3.346683e+002, 4.944785e+000
3.351505e+002, 4.943950e+000
3.356326e+002, 4.923269e+000
3.361147e+002, 4.844647e+000
3.365968e+002, 4.597747e+000
3.370789e+002, 4.413434e+000
3.375610e+002, 4.449038e+000
3.380432e+002, 4.623163e+000
3.385253e+002, 4.724815e+000
3.390074e+002, 4.639817e+000
3.394895e+002, 4.462326e+000
3.399716e+002, 4.463735e+000
3.404537e+002, 4.782470e+000
3.409359e+002, 5.001661e+000
3.414180e+002, 4.979846e+000
3.419001e+002, 4.838109e+000
3.423822e+002, 4.731044e+000
3.428643e+002, 4.703164e+000
3.433464e+002, 4.700767e+000
3.438286e+002, 4.646605e+000
3.443107e+002, 4.509102e+000
3.447928e+002, 4.412744e+000
3.452749e+002, 4.361219e+000
3.457570e+002, 4.349671e+000
3.462391e+002, 4.402543e+000
3.467213e+002, 4.507135e+000
3.472034e+002, 4.594653e+000
3.476855e+002, 4.605024e+000
3.481676e+002, 4.534793e+000
3.486497e+002, 4.419512e+000
3.491318e+002, 4.172086e+000
3.496140e+002, 3.974060e+000
3.500961e+002, 3.902951e+000
3.505782e+002, 3.943687e+000
3.510603e+002, 4.068979e+000
3.515424e+002, 4.274869e+000
3.520245e+002, 4.526431e+000
3.525067e+002, 4.672040e+000
3.529888e+002, 4.637136e+000
3.534709e+002, 4.589216e+000
3.539530e+002, 4.557041e+000
3.544351e+002, 4.518624e+000
3.549172e+002, 4.422578e+000
3.553994e+002, 4.255059e+000
3.558815e+002, 4.092489e+000
3.563636e+002, 4.069889e+000
3.568457e+002, 4.288010e+000
3.573278e+002, 4.447289e+000
3.578099e+002, 4.541050e+000
3.582920e+002, 4.587592e+000
3.587741e+002, 4.581765e+000
3.592563e+002, 4.533950e+000
3.597384e+002, 4.479348e+000
3.602205e+002, 4.454742e+000
3.607026e+002, 4.466220e+000
3.611847e+002, 4.447826e+000
3.616668e+002, 4.363616e+000
3.621490e+002, 4.288915e+000
3.626311e+002, 4.261724e+000
3.631132e+002, 4.261495e+000
3.635953e+002, 4.248407e+000
3.640774e+002, 4.198226e+000
3.645595e+002, 4.116815e+000
3.650417e+002, 4.026262e+000
3.655238e+002, 3.884076e+000
3.660059e+002, 3.795314e+000
3.664880e+002, 3.776525e+000
3.669701e+002, 3.811167e+000
3.674522e+002, 3.897575e+000
3.679344e+002, 4.030727e+000
3.684165e+002, 4.177608e+000
3.688986e+002, 4.293397e+000
3.693807e+002, 4.386548e+000
3.698628e+002, 4.420765e+000
3.703449e+002, 4.328750e+000
3.708271e+002, 4.237069e+000
3.713092e+002, 4.231015e+000
3.717913e+002, 4.297061e+000
3.722734e+002, 4.350963e+000
3.727555e+002, 4.314705e+000
3.732376e+002, 4.191249e+000
3.737198e+002, 4.069306e+000
3.742019e+002, 3.916417e+000
3.746840e+002, 3.809303e+000
3.751661e+002, 3.797414e+000
3.756482e+002, 3.838785e+000
3.761303e+002, 3.872426e+000
3.766125e+002, 3.870926e+000
3.770946e+002, 3.840074e+000
3.775767e+002, 3.788005e+000
3.780588e+002, 3.705050e+000
3.785409e+002, 3.628258e+000
3.790230e+002, 3.574612e+000
3.795052e+002, 3.526798e+000
3.799873e+002, 3.458110e+000
3.804694e+002, 3.364300e+000
3.809515e+002, 3.298923e+000
3.814336e+002, 3.343547e+000
3.819157e+002, 3.495051e+000
3.823979e+002, 3.587239e+000
3.828800e+002, 3.572865e+000
3.833621e+002, 3.521550e+000
3.838442e+002, 3.439858e+000
3.843263e+002, 3.354053e+000
3.848084e+002, 3.354189e+000
3.852906e+002, 3.578259e+000
3.857727e+002, 3.906552e+000
3.862548e+002, 4.053761e+000
3.867369e+002, 3.982591e+000
3.872190e+002, 3.862493e+000
3.877011e+002, 3.776358e+000
3.881833e+002, 3.703578e+000
3.886654e+002, 3.602628e+000
3.891475e+002, 3.422796e+000
3.896296e+002, 3.292046e+000
3.901117e+002, 3.368627e+000
3.905938e+002, 3.623803e+000
3.910760e+002, 3.830881e+000
3.915581e+002, 3.914696e+000
3.920402e+002, 3.917922e+000
3.925223e+002, 3.892941e+000
3.930044e+002, 3.837507e+000
3.934865e+002, 3.788966e+000
3.939687e+002, 3.798152e+000
3.944508e+002, 3.811774e+000
3.949329e+002, 3.712502e+000
3.954150e+002, 3.469973e+000
3.958971e+002, 3.254097e+000
3.963792e+002, 3.232037e+000
3.968614e+002, 3.390454e+000
3.973435e+002, 3.507855e+000
3.978256e+002, 3.553686e+000
3.983077e+002, 3.575526e+000
3.987898e+002, 3.622326e+000
3.992719e+002, 3.676342e+000
3.997540e+002, 3.662791e+000
4.002361e+002, 3.531398e+000
4.007183e+002, 3.328967e+000
4.012004e+002, 3.190464e+000
4.016825e+002, 3.104991e+000
4.021646e+002, 3.087953e+000
4.026467e+002, 3.226384e+000
4.031288e+002, 3.396388e+000
4.036110e+002, 3.427633e+000
4.040931e+002, 3.289326e+000
4.045752e+002, 3.124024e+000
4.050573e+002, 3.109960e+000
4.055394e+002, 3.299694e+000
4.060215e+002, 3.373966e+000
4.065037e+002, 3.186132e+000
4.069858e+002, 3.036851e+000
4.074679e+002, 3.143623e+000
4.079500e+002, 3.415336e+000
4.084321e+002, 3.591571e+000
4.089142e+002, 3.497959e+000
4.093964e+002, 3.212363e+000
4.098785e+002, 3.096415e+000
4.103606e+002, 3.367406e+000
4.108427e+002, 3.531531e+000
4.113248e+002, 3.475971e+000
4.118069e+002, 3.337243e+000
4.122891e+002, 3.230064e+000
4.127712e+002, 3.190642e+000
4.132533e+002, 3.207911e+000
4.137354e+002, 3.289527e+000
4.142175e+002, 3.478332e+000
4.146996e+002, 3.559311e+000
4.151818e+002, 3.441204e+000
4.156639e+002, 3.296573e+000
4.161460e+002, 3.163348e+000
4.166281e+002, 3.056086e+000
4.171102e+002, 2.993890e+000
4.175923e+002, 2.992909e+000
4.180745e+002, 3.041093e+000
4.185566e+002, 3.111345e+000
4.190387e+002, 3.246931e+000
4.195208e+002, 3.304668e+000
4.200029e+002, 3.177783e+000
4.204850e+002, 2.992174e+000
4.209672e+002, 2.844058e+000
4.214493e+002, 2.754606e+000
4.219314e+002, 2.742703e+000
4.224135e+002, 2.892743e+000
4.228956e+002, 3.190292e+000
4.233777e+002, 3.322305e+000
4.238599e+002, 3.126325e+000
4.243420e+002, 2.914949e+000
4.248241e+002, 2.975816e+000
4.253062e+002, 3.233203e+000
4.257883e+002, 3.411311e+000
4.262704e+002, 3.336958e+000
4.267526e+002, 3.143383e+000
4.272347e+002, 3.023430e+000
4.277168e+002, 2.980430e+000
4.281989e+002, 2.959229e+000
4.286810e+002, 2.940128e+000
4.291631e+002, 2.920447e+000
4.296453e+002, 2.886038e+000
4.301274e+002, 2.806237e+000
4.306095e+002, 2.781332e+000
4.310916e+002, 2.926198e+000
4.315737e+002, 3.151218e+000
4.320558e+002, 3.264904e+000
4.325380e+002, 3.211324e+000
4.330201e+002, 3.098526e+000
4.335022e+002, 3.047734e+000
4.339843e+002, 3.069016e+000
4.344664e+002, 3.081236e+000
4.349485e+002, 3.060097e+000
4.354307e+002, 3.047527e+000
4.359128e+002, 3.094447e+000
4.363949e+002, 3.178952e+000
4.368770e+002, 3.228135e+000
4.373591e+002, 3.199731e+000
4.378412e+002, 3.104309e+000
4.383234e+002, 2.981479e+000
4.388055e+002, 2.780588e+000
4.392876e+002, 2.617014e+000
4.397697e+002, 2.454372e+000
4.402518e+002, 2.357706e+000
4.407339e+002, 2.439632e+000
4.412160e+002, 2.696131e+000
4.416982e+002, 2.964306e+000
4.421803e+002, 3.043778e+000
4.426624e+002, 2.896998e+000
4.431445e+002, 2.837970e+000
4.436266e+002, 2.965763e+000
4.441087e+002, 3.079797e+000
4.445909e+002, 3.119529e+000
4.450730e+002, 3.103550e+000
4.455551e+002, 3.062057e+000
4.460372e+002, 3.006459e+000
4.465193e+002, 2.954237e+000
4.470014e+002, 2.964832e+000
4.474836e+002, 3.093340e+000
4.479657e+002, 3.119132e+000
4.484478e+002, 2.811718e+000
4.489299e+002, 2.528090e+000
4.494120e+002, 2.553677e+000
4.498941e+002, 2.872981e+000
4.503763e+002, 3.183255e+000
4.508584e+002, 3.236308e+000
4.513405e+002, 3.085223e+000
4.518226e+002, 2.937452e+000
4.523047e+002, 2.775046e+000
4.527868e+002, 2.672140e+000
4.532690e+002, 2.715701e+000
4.537511e+002, 2.836750e+000
4.542332e+002, 2.950161e+000
4.547153e+002, 3.056169e+000
4.551974e+002, 3.115001e+000
4.556795e+002, 3.042785e+000
4.561617e+002, 2.880588e+000
4.566438e+002, 2.824481e+000
4.571259e+002, 2.963584e+000
4.576080e+002, 3.155481e+000
4.580901e+002, 3.214713e+000
4.585722e+002, 3.146927e+000
4.590544e+002, 3.044521e+000
4.595365e+002, 2.849997e+000
4.600186e+002, 2.680602e+000
4.605007e+002, 2.664222e+000
4.609828e+002, 2.782936e+000
4.614649e+002, 2.917402e+000
4.619471e+002, 3.006968e+000
4.624292e+002, 3.044475e+000
4.629113e+002, 2.997800e+000
4.633934e+002, 2.772365e+000
4.638755e+002, 2.592531e+000
4.643576e+002, 2.471758e+000
4.648398e+002, 2.413402e+000
4.653219e+002, 2.442641e+000
4.658040e+002, 2.553346e+000
4.662861e+002, 2.684352e+000
4.667682e+002, 2.768248e+000
4.672503e+002, 2.800171e+000
4.677325e+002, 2.837566e+000
4.682146e+002, 2.912402e+000
4.686967e+002, 2.957923e+000
4.691788e+002, 2.945550e+000
4.696609e+002, 2.894834e+000
4.701430e+002, 2.829102e+000
4.706252e+002, 2.757429e+000
4.711073e+002, 2.692266e+000
4.715894e+002, 2.662183e+000
4.720715e+002, 2.679273e+000
4.725536e+002, 2.677234e+000
4.730357e+002, 2.586739e+000
4.735179e+002, 2.528221e+000
4.740000e+002, 2.616929e+000
4.744821e+002, 2.813331e+000
4.749642e+002, 2.950756e+000
4.754463e+002, 2.888641e+000
4.759284e+002, 2.715184e+000
4.764106e+002, 2.624120e+000
4.768927e+002, 2.626312e+000
4.773748e+002, 2.648544e+000
4.778569e+002, 2.696538e+000
4.783390e+002, 2.720345e+000
4.788211e+002, 2.621017e+000
4.793033e+002, 2.342767e+000
4.797854e+002, 2.132915e+000
4.802675e+002, 2.161247e+000
4.807496e+002, 2.330299e+000
4.812317e+002, 2.480502e+000
4.817138e+002, 2.585779e+000
4.821959e+002, 2.632991e+000
4.826780e+002, 2.582345e+000
4.831602e+002, 2.439857e+000
4.836423e+002, 2.416561e+000
4.841244e+002, 2.671826e+000
4.846065e+002, 2.866171e+000
4.850886e+002, 2.796552e+000
4.855707e+002, 2.586172e+000
4.860529e+002, 2.464624e+000
4.865350e+002, 2.516603e+000
4.870171e+002, 2.638077e+000
4.874992e+002, 2.654854e+000
4.879813e+002, 2.514518e+000
4.884634e+002, 2.411602e+000
4.889456e+002, 2.308103e+000
4.894277e+002, 2.270770e+000
4.899098e+002, 2.401777e+000
4.903919e+002, 2.623292e+000
4.908740e+002, 2.757216e+000
4.913561e+002, 2.684339e+000
4.918383e+002, 2.487139e+000
4.923204e+002, 2.404446e+000
4.928025e+002, 2.497737e+000
4.932846e+002, 2.535866e+000
4.937667e+002, 2.378799e+000
4.942488e+002, 2.216959e+000
4.947310e+002, 2.189260e+000
4.952131e+002, 2.295785e+000
4.956952e+002, 2.425618e+000
4.961773e+002, 2.511301e+000
4.966594e+002, 2.561043e+000
4.971415e+002, 2.593326e+000
4.976237e+002, 2.606197e+000
4.981058e+002, 2.612940e+000
4.985879e+002, 2.623478e+000
4.990700e+002, 2.630949e+000
4.995521e+002, 2.619383e+000
5.000342e+002, 2.574540e+000
5.005164e+002, 2.543585e+000
5.009985e+002, 2.587713e+000
5.014806e+002, 2.651501e+000
5.019627e+002, 2.620191e+000
5.024448e+002, 2.469340e+000
5.029269e+002, 2.295503e+000
5.034091e+002, 2.185577e+000
5.038912e+002, 2.141642e+000
5.043733e+002, 2.125201e+000
5.048554e+002, 2.149224e+000
5.053375e+002, 2.182752e+000
5.058196e+002, 2.184153e+000
5.063018e+002, 2.197122e+000
5.067839e+002, 2.336318e+000
5.072660e+002, 2.632537e+000
5.077481e+002, 2.912239e+000
5.082302e+002, 2.873606e+000
5.087123e+002, 2.376334e+000
5.091945e+002, 2.068749e+000
5.096766e+002, 2.073032e+000
5.101587e+002, 2.146630e+000
5.106408e+002, 2.280091e+000
5.111229e+002, 2.404775e+000
5.116050e+002, 2.378383e+000
5.120872e+002, 2.090760e+000
5.125693e+002, 1.748744e+000
5.130514e+002, 1.795283e+000
5.135335e+002, 2.304612e+000
5.140156e+002, 2.623546e+000
5.144977e+002, 2.488503e+000
5.149799e+002, 2.236837e+000
5.154620e+002, 2.159159e+000
5.159441e+002, 2.232501e+000
5.164262e+002, 2.281937e+000
5.169083e+002, 2.179393e+000
5.173904e+002, 2.044525e+000
5.178726e+002, 2.044839e+000
5.183547e+002, 2.173588e+000
5.188368e+002, 2.317285e+000
5.193189e+002, 2.443677e+000
5.198010e+002, 2.527985e+000
5.202831e+002, 2.480800e+000
5.207653e+002, 2.221734e+000
5.212474e+002, 2.089090e+000
5.217295e+002, 2.264478e+000
5.222116e+002, 2.502028e+000
5.226937e+002, 2.573612e+000
5.231758e+002, 2.483365e+000
5.236580e+002, 2.374367e+000
5.241401e+002, 2.346709e+000
5.246222e+002, 2.389408e+000
5.251043e+002, 2.449884e+000
5.255864e+002, 2.586039e+000
5.260685e+002, 2.652616e+000
5.265507e+002, 2.573920e+000
5.270328e+002, 2.468785e+000
5.275149e+002, 2.444215e+000
5.279970e+002, 2.504348e+000
5.284791e+002, 2.569298e+000
5.289612e+002, 2.572538e+000
5.294434e+002, 2.520315e+000
5.299255e+002, 2.430479e+000
5.304076e+002, 2.248369e+000
5.308897e+002, 2.157225e+000
5.313718e+002, 2.392342e+000
5.318539e+002, 2.684031e+000
5.323361e+002, 2.710805e+000
5.328182e+002, 2.385288e+000
5.333003e+002, 2.076948e+000
5.337824e+002, 2.086340e+000
5.342645e+002, 2.273160e+000
5.347466e+002, 2.318102e+000
5.352288e+002, 2.171232e+000
5.357109e+002, 2.008859e+000
5.361930e+002, 1.952322e+000
5.366751e+002, 1.995516e+000
5.371572e+002, 2.078555e+000
5.376393e+002, 2.270222e+000
5.381215e+002, 2.414612e+000
5.386036e+002, 2.448962e+000
5.390857e+002, 2.420959e+000
5.395678e+002, 2.377465e+000
5.400499e+002, 2.333855e+000
5.405320e+002, 2.302090e+000
5.410142e+002, 2.296493e+000
5.414963e+002, 2.317861e+000
5.419784e+002, 2.337819e+000
5.424604e+002, 2.350875e+000
5.429426e+002, 2.369144e+000
5.434247e+002, 2.446341e+000
5.439068e+002, 2.505253e+000
5.443889e+002, 2.422188e+000
5.448710e+002, 2.173756e+000
5.453531e+002, 1.929645e+000
5.458353e+002, 1.912021e+000
5.463174e+002, 2.096831e+000
5.467995e+002, 2.186652e+000
5.472816e+002, 2.119183e+000
5.477637e+002, 2.055396e+000
5.482458e+002, 2.155911e+000
5.487280e+002, 2.313469e+000
5.492101e+002, 2.335567e+000
5.496922e+002, 2.120013e+000
5.501743e+002, 1.916527e+000
5.506564e+002, 1.899242e+000
5.511385e+002, 2.003272e+000
5.516207e+002, 2.102520e+000
5.521028e+002, 2.171258e+000
5.525849e+002, 2.215351e+000
5.530670e+002, 2.228492e+000
5.535491e+002, 2.210780e+000
5.540313e+002, 2.264343e+000
5.545134e+002, 2.487659e+000
5.549955e+002, 2.653623e+000
5.554776e+002, 2.701638e+000
5.559597e+002, 2.658002e+000
5.564418e+002, 2.527235e+000
5.569240e+002, 2.323941e+000
5.574061e+002, 2.121838e+000
5.578882e+002, 1.995878e+000
5.583703e+002, 1.946044e+000
5.588524e+002, 1.993201e+000
5.593345e+002, 2.245220e+000
5.598167e+002, 2.437683e+000
5.602988e+002, 2.479104e+000
5.607809e+002, 2.421185e+000
5.612630e+002, 2.296536e+000
5.617451e+002, 2.102960e+000
5.622272e+002, 1.959881e+000
5.627094e+002, 2.017677e+000
5.631915e+002, 2.213021e+000
5.636736e+002, 2.314215e+000
5.641557e+002, 2.272772e+000
5.646378e+002, 2.260310e+000
5.651199e+002, 2.467118e+000
5.656021e+002, 2.800486e+000
5.660842e+002, 2.861294e+000
5.665663e+002, 2.335861e+000
5.670484e+002, 1.985966e+000
5.675305e+002, 2.279147e+000
5.680126e+002, 2.792018e+000
5.684948e+002, 2.976696e+000
5.689769e+002, 2.751286e+000
5.694590e+002, 2.391132e+000
5.699411e+002, 2.138772e+000
5.704232e+002, 1.991247e+000
5.709053e+002, 1.911182e+000
5.713875e+002, 1.936587e+000
5.718696e+002, 1.982516e+000
5.723517e+002, 2.061795e+000
5.728338e+002, 2.138716e+000
5.733159e+002, 2.184132e+000
5.737980e+002, 2.192412e+000
5.742802e+002, 2.170789e+000
5.747623e+002, 2.106041e+000
5.752444e+002, 2.014158e+000
5.757265e+002, 1.972864e+000
5.762086e+002, 1.999547e+000
5.766907e+002, 2.000817e+000
5.771729e+002, 1.894370e+000
5.776550e+002, 1.759627e+000
5.781371e+002, 1.723697e+000
5.786192e+002, 1.803028e+000
5.791013e+002, 1.916216e+000
5.795834e+002, 2.104517e+000
5.800656e+002, 2.268121e+000
5.805477e+002, 2.255008e+000
5.810298e+002, 2.082152e+000
5.815119e+002, 1.922815e+000
5.819940e+002, 1.889348e+000
5.824761e+002, 1.944578e+000
5.829583e+002, 1.961348e+000
5.834404e+002, 1.908152e+000
5.839225e+002, 1.862717e+000
5.844046e+002, 1.787765e+000
5.848867e+002, 1.752413e+000
5.853688e+002, 1.852913e+000
5.858510e+002, 2.039628e+000
5.863331e+002, 2.148153e+000
5.868152e+002, 2.048938e+000
5.872973e+002, 1.857740e+000
5.877794e+002, 1.873641e+000
5.882615e+002, 2.140326e+000
5.887437e+002, 2.312038e+000
5.892258e+002, 2.270186e+000
5.897079e+002, 2.143000e+000
5.901900e+002, 2.034054e+000
5.906721e+002, 1.944315e+000
5.911542e+002, 1.884128e+000
5.916364e+002, 1.859125e+000
5.921185e+002, 1.863032e+000
5.926006e+002, 1.920081e+000
5.930827e+002, 2.003850e+000
5.935648e+002, 2.026503e+000
5.940469e+002, 1.952208e+000
5.945291e+002, 1.849140e+000
5.950112e+002, 1.815644e+000
5.954933e+002, 1.874631e+000
5.959754e+002, 1.899097e+000
5.964575e+002, 1.805646e+000
5.969396e+002, 1.775018e+000
5.974218e+002, 1.961711e+000
5.979039e+002, 2.217978e+000
5.983860e+002, 2.312878e+000
5.988681e+002, 2.172209e+000
5.993502e+002, 1.962393e+000
5.998323e+002, 1.884887e+000
6.003145e+002, 1.934757e+000
6.007966e+002, 1.992589e+000
6.012787e+002, 2.081574e+000
6.017608e+002, 2.117866e+000
6.022429e+002, 1.981033e+000
6.027250e+002, 1.782202e+000
6.032072e+002, 1.706775e+000
6.036893e+002, 1.821019e+000
6.041714e+002, 1.924828e+000
6.046535e+002, 1.865152e+000
6.051356e+002, 1.755873e+000
6.056177e+002, 1.802164e+000
6.060999e+002, 2.008340e+000
6.065820e+002, 2.163520e+000
6.070641e+002, 2.099776e+000
6.075462e+002, 1.880250e+000
6.080283e+002, 1.792502e+000
6.085104e+002, 1.975464e+000
6.089926e+002, 2.095826e+000
6.094747e+002, 2.115607e+000
6.099568e+002, 2.091790e+000
6.104389e+002, 2.057596e+000
6.109210e+002, 2.016889e+000
6.114031e+002, 1.959332e+000
6.118853e+002, 1.870226e+000
6.123674e+002, 1.773799e+000
6.128495e+002, 1.719408e+000
6.133316e+002, 1.708310e+000
6.138137e+002, 1.723242e+000
6.142958e+002, 1.765075e+000
6.147780e+002, 1.825425e+000
6.152601e+002, 1.912560e+000
6.157422e+002, 2.018549e+000
6.162243e+002, 2.087418e+000
6.167064e+002, 2.085813e+000
6.171885e+002, 2.065630e+000
6.176707e+002, 2.052110e+000
6.181528e+002, 2.045456e+000
6.186349e+002, 2.038316e+000
6.191170e+002, 2.029609e+000
6.195991e+002, 2.045611e+000
6.200812e+002, 2.130515e+000
6.205634e+002, 2.295993e+000
6.210455e+002, 2.356244e+000
6.215276e+002, 2.245018e+000
6.220097e+002, 2.103503e+000
6.224918e+002, 1.910351e+000
6.229739e+002, 1.730318e+000
6.234561e+002, 1.629138e+000
6.239382e+002, 1.619231e+000
6.244203e+002, 1.666924e+000
6.249023e+002, 1.776297e+000
6.253845e+002, 1.918242e+000
6.258666e+002, 2.021698e+000
6.263487e+002, 2.086541e+000
6.268308e+002, 2.095086e+000
6.273129e+002, 2.032968e+000
6.277950e+002, 1.916133e+000
6.282772e+002, 1.747265e+000
6.287593e+002, 1.493728e+000
6.292414e+002, 1.343956e+000
6.297235e+002, 1.364467e+000
6.302056e+002, 1.461740e+000
6.306877e+002, 1.603348e+000
6.311699e+002, 1.765939e+000
6.316520e+002, 1.931042e+000
6.321341e+002, 2.089769e+000
6.326162e+002, 2.195084e+000
6.330983e+002, 2.130149e+000
6.335804e+002, 1.833423e+000
6.340626e+002, 1.690889e+000
6.345447e+002, 1.851765e+000
6.350268e+002, 1.979786e+000
6.355089e+002, 1.888858e+000
6.359910e+002, 1.688194e+000
6.364731e+002, 1.537521e+000
6.369553e+002, 1.473408e+000
6.374374e+002, 1.468484e+000
6.379195e+002, 1.539040e+000
6.384016e+002, 1.644734e+000
6.388837e+002, 1.701792e+000
6.393658e+002, 1.702375e+000
6.398480e+002, 1.715984e+000
6.403301e+002, 1.801433e+000
6.408122e+002, 1.917775e+000
6.412943e+002, 1.925727e+000
6.417764e+002, 1.654094e+000
6.422585e+002, 1.528617e+000
6.427407e+002, 1.675138e+000
6.432228e+002, 1.855205e+000
6.437049e+002, 1.930575e+000
6.441870e+002, 1.910559e+000
6.446691e+002, 1.852180e+000
6.451512e+002, 1.778547e+000
6.456334e+002, 1.713012e+000
6.461155e+002, 1.693416e+000
6.465976e+002, 1.719597e+000
6.470797e+002, 1.783425e+000
6.475618e+002, 1.917072e+000
6.480439e+002, 2.016055e+000
6.485261e+002, 1.954167e+000
6.490082e+002, 1.792436e+000
6.494903e+002, 1.728489e+000
6.499724e+002, 1.863873e+000
6.504545e+002, 1.964210e+000
6.509366e+002, 1.909619e+000
6.514188e+002, 1.785717e+000
6.519009e+002, 1.668533e+000
6.523830e+002, 1.582298e+000
6.528651e+002, 1.563291e+000
6.533472e+002, 1.646596e+000
6.538293e+002, 1.799932e+000
6.543115e+002, 1.908293e+000
6.547936e+002, 1.975910e+000
6.552757e+002, 1.987105e+000
6.557578e+002, 1.902286e+000
6.562399e+002, 1.790211e+000
6.567220e+002, 1.651275e+000
6.572042e+002, 1.513065e+000
6.576863e+002, 1.453490e+000
6.581684e+002, 1.532612e+000
6.586505e+002, 1.650737e+000
6.591326e+002, 1.731036e+000
6.596147e+002, 1.774566e+000
6.600969e+002, 1.770607e+000
6.605790e+002, 1.714993e+000
6.610611e+002, 1.673378e+000
6.615432e+002, 1.715550e+000
6.620253e+002, 1.827301e+000
6.625074e+002, 1.854574e+000
6.629896e+002, 1.632790e+000
6.634717e+002, 1.545904e+000
6.639538e+002, 1.765842e+000
6.644359e+002, 2.026013e+000
6.649180e+002, 2.103503e+000
6.654001e+002, 2.013904e+000
6.658823e+002, 1.913826e+000
6.663644e+002, 1.894895e+000
6.668465e+002, 1.928572e+000
6.673286e+002, 1.958171e+000
6.678107e+002, 1.984996e+000
6.682928e+002, 2.073357e+000
6.687750e+002, 2.276519e+000
6.692571e+002, 2.447417e+000
6.697392e+002, 2.405132e+000
6.702213e+002, 2.179136e+000
6.707034e+002, 2.083171e+000
6.711855e+002, 2.296659e+000
6.716677e+002, 2.425629e+000
6.721498e+002, 2.284672e+000
6.726319e+002, 2.032273e+000
6.731140e+002, 1.804499e+000
6.735961e+002, 1.641138e+000
6.740782e+002, 1.569470e+000
6.745604e+002, 1.627034e+000
6.750425e+002, 1.762756e+000
6.755246e+002, 1.793980e+000
6.760067e+002, 1.683799e+000
6.764888e+002, 1.635052e+000
6.769709e+002, 1.717797e+000
6.774531e+002, 1.840089e+000
6.779352e+002, 1.944872e+000
6.784173e+002, 2.029178e+000
6.788994e+002, 2.078330e+000
6.793815e+002, 2.053935e+000
6.798636e+002, 2.038653e+000
6.803458e+002, 2.134780e+000
6.808279e+002, 2.250845e+000
6.813100e+002, 2.196195e+000
6.817921e+002, 1.964139e+000
6.822742e+002, 1.783300e+000
6.827563e+002, 1.861975e+000
6.832385e+002, 2.121638e+000
6.837206e+002, 2.159927e+000
6.842027e+002, 1.845895e+000
6.846848e+002, 1.597061e+000
6.851669e+002, 1.487809e+000
6.856490e+002, 1.443612e+000
6.861312e+002, 1.453001e+000
6.866133e+002, 1.494402e+000
6.870954e+002, 1.512683e+000
6.875775e+002, 1.469506e+000
6.880596e+002, 1.428350e+000
6.885417e+002, 1.441857e+000
6.890239e+002, 1.500862e+000
6.895060e+002, 1.607573e+000
6.899881e+002, 1.759882e+000
6.904702e+002, 1.866619e+000
6.909523e+002, 1.848054e+000
6.914344e+002, 1.731749e+000
6.919166e+002, 1.654239e+000
6.923987e+002, 1.599070e+000
6.928808e+002, 1.613615e+000
6.933629e+002, 1.764766e+000
6.938450e+002, 1.921838e+000
6.943271e+002, 2.025599e+000
6.948093e+002, 2.068749e+000
6.952914e+002, 2.047480e+000
6.957735e+002, 1.948987e+000
6.962556e+002, 1.821129e+000
6.967377e+002, 1.698529e+000
6.972198e+002, 1.589636e+000
6.977020e+002, 1.528755e+000
6.981841e+002, 1.523580e+000
6.986662e+002, 1.535190e+000
6.991483e+002, 1.536281e+000
6.996304e+002, 1.533243e+000
7.001125e+002, 1.550562e+000
7.005947e+002, 1.601773e+000
7.010768e+002, 1.653177e+000
7.015589e+002, 1.706749e+000
7.020410e+002, 1.758230e+000
7.025231e+002, 1.813273e+000
7.030052e+002, 1.862799e+000
7.034874e+002, 1.883713e+000
7.039695e+002, 1.862909e+000
7.044516e+002, 1.839119e+000
7.049337e+002, 1.868146e+000
7.054158e+002, 1.937724e+000
7.058979e+002, 1.995167e+000
7.063801e+002, 2.039297e+000
7.068622e+002, 2.043185e+000
7.073442e+002, 1.984986e+000
7.078264e+002, 1.880014e+000
7.083085e+002, 1.753725e+000
7.087906e+002, 1.548203e+000
7.092727e+002, 1.469147e+000
7.097548e+002, 1.666454e+000
7.102369e+002, 1.860665e+000
7.107191e+002, 1.888844e+000
7.112012e+002, 1.794607e+000
7.116833e+002, 1.649997e+000
7.121654e+002, 1.484080e+000
7.126475e+002, 1.363707e+000
7.131296e+002, 1.392131e+000
7.136118e+002, 1.540388e+000
7.140939e+002, 1.659399e+000
7.145760e+002, 1.749813e+000
7.150581e+002, 1.771781e+000
7.155402e+002, 1.677193e+000
7.160223e+002, 1.533950e+000
7.165045e+002, 1.454046e+000
7.169866e+002, 1.442202e+000
7.174687e+002, 1.455274e+000
7.179508e+002, 1.527409e+000
7.184329e+002, 1.583702e+000
7.189150e+002, 1.560967e+000
7.193972e+002, 1.509625e+000
7.198793e+002, 1.517189e+000
7.203614e+002, 1.598606e+000
7.208435e+002, 1.671380e+000
7.213256e+002, 1.632623e+000
7.218077e+002, 1.524740e+000
7.222899e+002, 1.537398e+000
7.227720e+002, 1.691295e+000
7.232541e+002, 1.790433e+000
7.237362e+002, 1.752883e+000
7.242183e+002, 1.665176e+000
7.247004e+002, 1.617968e+000
7.251826e+002, 1.610771e+000
7.256647e+002, 1.632517e+000
7.261468e+002, 1.752756e+000
7.266289e+002, 1.817896e+000
7.271110e+002, 1.717686e+000
7.275931e+002, 1.565770e+000
7.280753e+002, 1.484955e+000
7.285574e+002, 1.491818e+000
7.290395e+002, 1.542450e+000
7.295216e+002, 1.614184e+000
7.300037e+002, 1.691448e+000
7.304858e+002, 1.736591e+000
7.309680e+002, 1.748549e+000
7.314501e+002, 1.751767e+000
7.319322e+002, 1.741124e+000
7.324143e+002, 1.746206e+000
7.328964e+002, 1.803353e+000
7.333785e+002, 1.899058e+000
7.338607e+002, 1.961633e+000
7.343428e+002, 1.992625e+000
7.348249e+002, 1.988232e+000
7.353070e+002, 1.943140e+000
7.357891e+002, 1.865881e+000
7.362712e+002, 1.730879e+000
7.367534e+002, 1.570656e+000
7.372355e+002, 1.468535e+000
7.377176e+002, 1.468262e+000
7.381997e+002, 1.510912e+000
7.386818e+002, 1.489524e+000
7.391639e+002, 1.418502e+000
7.396461e+002, 1.464529e+000
7.401282e+002, 1.675598e+000
7.406103e+002, 1.839162e+000
7.410924e+002, 1.813632e+000
7.415745e+002, 1.681551e+000
7.420566e+002, 1.626070e+000
7.425388e+002, 1.667495e+000
7.430209e+002, 1.706622e+000
7.435030e+002, 1.757833e+000
7.439851e+002, 1.781795e+000
7.444672e+002, 1.731824e+000
7.449493e+002, 1.650827e+000
7.454315e+002, 1.609709e+000
7.459136e+002, 1.625803e+000
7.463957e+002, 1.648645e+000
7.468778e+002, 1.612400e+000
7.473599e+002, 1.547860e+000
7.478420e+002, 1.568669e+000
7.483242e+002, 1.677787e+000
7.488063e+002, 1.748022e+000
7.492884e+002, 1.732218e+000
7.497705e+002, 1.672024e+000
7.502526e+002, 1.602555e+000
7.507347e+002, 1.521333e+000
7.512169e+002, 1.496243e+000
7.516990e+002, 1.557935e+000
7.521811e+002, 1.630810e+000
7.526632e+002, 1.763991e+000
7.531453e+002, 1.854142e+000
7.536274e+002, 1.757946e+000
7.541096e+002, 1.518062e+000
7.545917e+002, 1.331785e+000
7.550738e+002, 1.311605e+000
7.555559e+002, 1.394447e+000
7.560380e+002, 1.534887e+000
7.565201e+002, 1.708838e+000
7.570023e+002, 1.806134e+000
7.574844e+002, 1.807832e+000
7.579665e+002, 1.748740e+000
7.584486e+002, 1.634913e+000
7.589307e+002, 1.496221e+000
7.594128e+002, 1.432438e+000
7.598950e+002, 1.469503e+000
7.603771e+002, 1.537280e+000
7.608592e+002, 1.717108e+000
7.613413e+002, 1.839922e+000
7.618234e+002, 1.779908e+000
7.623055e+002, 1.626400e+000
7.627877e+002, 1.520707e+000
7.632698e+002, 1.502327e+000
7.637519e+002, 1.517189e+000
7.642340e+002, 1.536042e+000
7.647161e+002, 1.557262e+000
7.651982e+002, 1.590269e+000
7.656804e+002, 1.627265e+000
7.661625e+002, 1.609467e+000
7.666446e+002, 1.508567e+000
7.671267e+002, 1.422534e+000
7.676088e+002, 1.500242e+000
7.680909e+002, 1.754403e+000
7.685731e+002, 1.847216e+000
7.690552e+002, 1.652333e+000
7.695373e+002, 1.502428e+000
7.700194e+002, 1.498377e+000
7.705015e+002, 1.541675e+000
7.709836e+002, 1.570839e+000
7.714658e+002, 1.580561e+000
7.719479e+002, 1.573064e+000
7.724300e+002, 1.543621e+000
7.729121e+002, 1.504622e+000
7.733942e+002, 1.438042e+000
7.738763e+002, 1.379235e+000
7.743585e+002, 1.409944e+000
7.748406e+002, 1.520497e+000
7.753227e+002, 1.587652e+000
7.758048e+002, 1.521336e+000
7.762869e+002, 1.403968e+000
7.767690e+002, 1.460233e+000
7.772512e+002, 1.735504e+000
7.777333e+002, 1.872131e+000
7.782154e+002, 1.785198e+000
7.786975e+002, 1.673331e+000
7.791796e+002, 1.647858e+000
7.796617e+002, 1.662476e+000
7.801439e+002, 1.631722e+000
7.806260e+002, 1.535411e+000
7.811081e+002, 1.481544e+000
7.815902e+002, 1.533370e+000
7.820723e+002, 1.598329e+000
7.825544e+002, 1.640966e+000
7.830366e+002, 1.646930e+000
7.835187e+002, 1.555924e+000
7.840008e+002, 1.376109e+000
7.844829e+002, 1.273283e+000
7.849650e+002, 1.445514e+000
7.854471e+002, 1.783184e+000
7.859293e+002, 1.960653e+000
7.864114e+002, 1.975962e+000
7.868935e+002, 1.900464e+000
7.873756e+002, 1.714195e+000
7.878577e+002, 1.558144e+000
7.883398e+002, 1.588343e+000
7.888220e+002, 1.774136e+000
7.893040e+002, 1.853510e+000
7.897861e+002, 1.743461e+000
7.902682e+002, 1.652022e+000
7.907504e+002, 1.627902e+000
7.912325e+002, 1.595787e+000
7.917146e+002, 1.486888e+000
7.921967e+002, 1.335404e+000
7.926788e+002, 1.208180e+000
7.931609e+002, 1.125574e+000
7.936431e+002, 1.106453e+000
7.941252e+002, 1.216607e+000
7.946073e+002, 1.381300e+000
7.950894e+002, 1.458299e+000
7.955715e+002, 1.448302e+000
7.960536e+002, 1.406276e+000
7.965358e+002, 1.351698e+000
7.970179e+002, 1.309058e+000
7.975000e+002, 1.315666e+000
7.979821e+002, 1.374139e+000
7.984642e+002, 1.418274e+000
7.989464e+002, 1.430469e+000
7.994285e+002, 1.460479e+000
7.999106e+002, 1.571837e+000
8.003927e+002, 1.664404e+000
8.008748e+002, 1.632296e+000
8.013569e+002, 1.504458e+000
8.018391e+002, 1.427059e+000
8.023212e+002, 1.420507e+000
8.028033e+002, 1.497379e+000
8.032854e+002, 1.797218e+000
8.037675e+002, 2.100497e+000
8.042496e+002, 2.092454e+000
8.047318e+002, 1.823902e+000
8.052139e+002, 1.585480e+000
8.056960e+002, 1.536708e+000
8.061781e+002, 1.570093e+000
8.066602e+002, 1.495311e+000
8.071423e+002, 1.326561e+000
8.076245e+002, 1.282418e+000
8.081066e+002, 1.397496e+000
8.085887e+002, 1.505879e+000
8.090708e+002, 1.540125e+000
8.095529e+002, 1.521688e+000
8.100350e+002, 1.474684e+000
8.105172e+002, 1.392452e+000
8.109993e+002, 1.325272e+000
8.114814e+002, 1.202405e+000
8.119635e+002, 1.183809e+000
8.124456e+002, 1.474275e+000
8.129277e+002, 1.772842e+000
8.134099e+002, 1.709386e+000
8.138920e+002, 1.355413e+000
8.143741e+002, 1.153163e+000
8.148562e+002, 1.393909e+000
8.153383e+002, 1.718205e+000
8.158204e+002, 1.716138e+000
8.163026e+002, 1.522963e+000
8.167847e+002, 1.437025e+000
8.172668e+002, 1.487771e+000
8.177489e+002, 1.570378e+000
8.182310e+002, 1.628673e+000
8.187131e+002, 1.663246e+000
8.191953e+002, 1.674055e+000
8.196774e+002, 1.659394e+000
8.201595e+002, 1.632725e+000
8.206416e+002, 1.602509e+000
8.211237e+002, 1.541768e+000
8.216058e+002, 1.370289e+000
8.220880e+002, 1.213791e+000
8.225701e+002, 1.246091e+000
8.230522e+002, 1.459767e+000
8.235343e+002, 1.601225e+000
8.240164e+002, 1.564463e+000
8.244985e+002, 1.512578e+000
8.249807e+002, 1.505520e+000
8.254628e+002, 1.527766e+000
8.259449e+002, 1.598848e+000
8.264270e+002, 1.685334e+000
8.269091e+002, 1.658357e+000
8.273912e+002, 1.415338e+000
8.278734e+002, 1.172589e+000
8.283555e+002, 1.337917e+000
8.288376e+002, 1.778432e+000
8.293197e+002, 1.893463e+000
8.298018e+002, 1.628690e+000
8.302839e+002, 1.351775e+000
8.307661e+002, 1.230263e+000
8.312482e+002, 1.241000e+000
8.317303e+002, 1.377178e+000
8.322124e+002, 1.685122e+000
8.326945e+002, 1.768787e+000
8.331766e+002, 1.356916e+000
8.336588e+002, 1.113131e+000
8.341409e+002, 1.336685e+000
8.346230e+002, 1.655185e+000
8.351051e+002, 1.769982e+000
8.355872e+002, 1.697006e+000
8.360693e+002, 1.612553e+000
8.365515e+002, 1.560350e+000
8.370336e+002, 1.521671e+000
8.375157e+002, 1.492591e+000
8.379978e+002, 1.467155e+000
8.384799e+002, 1.418682e+000
8.389620e+002, 1.366333e+000
8.394442e+002, 1.390295e+000
8.399263e+002, 1.529200e+000
8.404084e+002, 1.668081e+000
8.408905e+002, 1.630198e+000
8.413726e+002, 1.447131e+000
8.418547e+002, 1.282798e+000
8.423369e+002, 1.136983e+000
8.428190e+002, 1.077529e+000
8.433011e+002, 1.147651e+000
8.437832e+002, 1.261778e+000
8.442653e+002, 1.317137e+000
8.447474e+002, 1.316210e+000
8.452296e+002, 1.364241e+000
8.457117e+002, 1.558669e+000
8.461938e+002, 1.656987e+000
8.466759e+002, 1.585864e+000
8.471580e+002, 1.465328e+000
8.476401e+002, 1.299820e+000
8.481223e+002, 1.155662e+000
8.486044e+002, 1.192801e+000
8.490865e+002, 1.503121e+000
8.495686e+002, 1.764059e+000
8.500507e+002, 1.788258e+000
8.505328e+002, 1.689514e+000
8.510150e+002, 1.511503e+000
8.514971e+002, 1.320744e+000
8.519792e+002, 1.265313e+000
8.524613e+002, 1.378765e+000
8.529434e+002, 1.526788e+000
8.534255e+002, 1.582075e+000
8.539077e+002, 1.566130e+000
8.543898e+002, 1.533046e+000
8.548719e+002, 1.482770e+000
8.553540e+002, 1.460846e+000
8.558361e+002, 1.479027e+000
8.563182e+002, 1.520809e+000
8.568004e+002, 1.593876e+000
8.572825e+002, 1.666193e+000
8.577646e+002, 1.623901e+000
8.582467e+002, 1.342784e+000
8.587288e+002, 1.218608e+000
8.592109e+002, 1.368659e+000
8.596931e+002, 1.533813e+000
8.601752e+002, 1.644260e+000
8.606573e+002, 1.708771e+000
8.611394e+002, 1.741251e+000
8.616215e+002, 1.743494e+000
8.621036e+002, 1.712766e+000
8.625858e+002, 1.599563e+000
8.630679e+002, 1.504822e+000
8.635500e+002, 1.511780e+000
8.640321e+002, 1.572593e+000
8.645142e+002, 1.661829e+000
8.649963e+002, 1.743095e+000
8.654785e+002, 1.688680e+000
8.659606e+002, 1.406484e+000
8.664427e+002, 1.095928e+000
8.669248e+002, 1.113767e+000
8.674069e+002, 1.388315e+000
8.678890e+002, 1.544174e+000
8.683712e+002, 1.558115e+000
8.688533e+002, 1.477015e+000
8.693354e+002, 1.291686e+000
8.698175e+002, 1.122065e+000
8.702996e+002, 1.152053e+000
8.707817e+002, 1.384622e+000
8.712639e+002, 1.454312e+000
8.717459e+002, 1.188639e+000
8.722280e+002, 1.064030e+000
8.727101e+002, 1.304947e+000
8.731923e+002, 1.573121e+000
8.736744e+002, 1.695603e+000
8.741565e+002, 1.685583e+000
8.746386e+002, 1.565208e+000
8.751207e+002, 1.267358e+000
8.756028e+002, 1.078607e+000
8.760850e+002, 1.179282e+000
8.765671e+002, 1.348072e+000
8.770492e+002, 1.464798e+000
8.775313e+002, 1.516808e+000
8.780134e+002, 1.470342e+000
8.784955e+002, 1.339292e+000
8.789777e+002, 1.254423e+000
8.794598e+002, 1.338105e+000
8.799419e+002, 1.502423e+000
8.804240e+002, 1.623263e+000
8.809061e+002, 1.700702e+000
8.813882e+002, 1.730486e+000
8.818704e+002, 1.713270e+000
8.823525e+002, 1.656853e+000
8.828346e+002, 1.558706e+000
8.833167e+002, 1.457014e+000
8.837988e+002, 1.446970e+000
8.842809e+002, 1.551417e+000
8.847631e+002, 1.565744e+000
8.852452e+002, 1.442814e+000
8.857273e+002, 1.345441e+000
8.862094e+002, 1.329299e+000
8.866915e+002, 1.363701e+000
8.871736e+002, 1.439492e+000
8.876558e+002, 1.550065e+000
8.881379e+002, 1.596538e+000
8.886200e+002, 1.523240e+000
8.891021e+002, 1.460440e+000
8.895842e+002, 1.436757e+000
8.900663e+002, 1.424385e+000
8.905485e+002, 1.379380e+000
8.910306e+002, 1.338117e+000
8.915127e+002, 1.380579e+000
8.919948e+002, 1.531440e+000
8.924769e+002, 1.701649e+000
8.929590e+002, 1.899382e+000
8.934412e+002, 2.033943e+000
8.939233e+002, 1.968778e+000
8.944054e+002, 1.775636e+000
8.948875e+002, 1.570223e+000
8.953696e+002, 1.398906e+000
8.958517e+002, 1.347544e+000
8.963339e+002, 1.508037e+000
8.968160e+002, 1.731625e+000
8.972981e+002, 1.685098e+000
8.977802e+002, 1.399610e+000
8.982623e+002, 1.174969e+000
8.987444e+002, 1.036793e+000
8.992266e+002, 9.863933e-001
8.997087e+002, 1.035578e+000
9.001908e+002, 1.142120e+000
9.006729e+002, 1.247051e+000
9.011550e+002, 1.350358e+000
9.016371e+002, 1.457366e+000
9.021193e+002, 1.621319e+000
9.026014e+002, 1.688681e+000
9.030835e+002, 1.519700e+000
9.035656e+002, 1.354623e+000
9.040477e+002, 1.391187e+000
9.045298e+002, 1.552826e+000
9.050120e+002, 1.645177e+000
9.054941e+002, 1.644960e+000
9.059762e+002, 1.583109e+000
9.064583e+002, 1.381973e+000
9.069404e+002, 1.211471e+000
9.074225e+002, 1.200102e+000
9.079047e+002, 1.269830e+000
9.083868e+002, 1.308936e+000
9.088689e+002, 1.301371e+000
9.093510e+002, 1.303633e+000
9.098331e+002, 1.360372e+000
9.103152e+002, 1.422381e+000
9.107974e+002, 1.428362e+000
9.112795e+002, 1.408548e+000
9.117616e+002, 1.431281e+000
9.122437e+002, 1.489069e+000
9.127258e+002, 1.501455e+000
9.132079e+002, 1.430141e+000
9.136901e+002, 1.360297e+000
9.141722e+002, 1.447107e+000
9.146543e+002, 1.639511e+000
9.151364e+002, 1.585885e+000
9.156185e+002, 1.272278e+000
9.161006e+002, 1.152963e+000
9.165828e+002, 1.385182e+000
9.170649e+002, 1.630372e+000
9.175470e+002, 1.598233e+000
9.180291e+002, 1.367652e+000
9.185112e+002, 1.227161e+000
9.189933e+002, 1.209374e+000
9.194755e+002, 1.194996e+000
9.199576e+002, 1.159596e+000
9.204397e+002, 1.162331e+000
9.209218e+002, 1.248756e+000
9.214039e+002, 1.370913e+000
9.218860e+002, 1.513488e+000
9.223682e+002, 1.668362e+000
9.228503e+002, 1.689558e+000
9.233324e+002, 1.395873e+000
9.238145e+002, 1.184427e+000
9.242966e+002, 1.245332e+000
9.247787e+002, 1.359432e+000
9.252609e+002, 1.353382e+000
9.257430e+002, 1.263501e+000
9.262251e+002, 1.192980e+000
9.267072e+002, 1.172034e+000
9.271893e+002, 1.169218e+000
9.276714e+002, 1.144439e+000
9.281536e+002, 1.145018e+000
9.286357e+002, 1.247034e+000
9.291178e+002, 1.401005e+000
9.295999e+002, 1.538463e+000
9.300820e+002, 1.630478e+000
9.305641e+002, 1.601511e+000
9.310463e+002, 1.380781e+000
9.315284e+002, 1.147913e+000
9.320105e+002, 1.277122e+000
9.324926e+002, 1.644052e+000
9.329747e+002, 1.655488e+000
9.334568e+002, 1.309013e+000
9.339390e+002, 1.155666e+000
9.344211e+002, 1.417641e+000
9.349032e+002, 1.749066e+000
9.353853e+002, 1.765675e+000
9.358674e+002, 1.526501e+000
9.363495e+002, 1.376879e+000
9.368317e+002, 1.332979e+000
9.373138e+002, 1.314156e+000
9.377959e+002, 1.334935e+000
9.382780e+002, 1.318066e+000
9.387601e+002, 1.146438e+000
9.392422e+002, 9.732544e-001
9.397244e+002, 1.118869e+000
9.402065e+002, 1.680120e+000
9.406886e+002, 1.986364e+000
9.411707e+002, 1.895615e+000
9.416528e+002, 1.755360e+000
9.421349e+002, 1.551706e+000
9.426171e+002, 1.391277e+000
9.430992e+002, 1.391927e+000
9.435813e+002, 1.492306e+000
9.440634e+002, 1.532739e+000
9.445455e+002, 1.477851e+000
9.450276e+002, 1.380011e+000
9.455098e+002, 1.161537e+000
9.459919e+002, 1.007443e+000
9.464740e+002, 1.098761e+000
9.469561e+002, 1.298771e+000
9.474382e+002, 1.429747e+000
9.479203e+002, 1.466539e+000
9.484025e+002, 1.475785e+000
9.488846e+002, 1.496121e+000
9.493667e+002, 1.492607e+000
9.498488e+002, 1.398902e+000
9.503309e+002, 1.278746e+000
9.508130e+002, 1.230198e+000
9.512952e+002, 1.247526e+000
9.517773e+002, 1.295330e+000
9.522594e+002, 1.356941e+000
9.527415e+002, 1.399565e+000
9.532236e+002, 1.385319e+000
9.537057e+002, 1.338087e+000
9.541878e+002, 1.306443e+000
9.546699e+002, 1.292830e+000
9.551520e+002, 1.323684e+000
9.556342e+002, 1.402613e+000
9.561163e+002, 1.473541e+000
9.565984e+002, 1.506948e+000
9.570805e+002, 1.515028e+000
9.575626e+002, 1.518145e+000
9.580447e+002, 1.515929e+000
9.585269e+002, 1.476416e+000
9.590090e+002, 1.377559e+000
9.594911e+002, 1.343396e+000
9.599732e+002, 1.429079e+000
9.604553e+002, 1.517557e+000
9.609374e+002, 1.507352e+000
9.614196e+002, 1.443818e+000
9.619017e+002, 1.464025e+000
9.623838e+002, 1.630269e+000
9.628659e+002, 1.686530e+000
9.633480e+002, 1.531886e+000
9.638301e+002, 1.403351e+000
9.643123e+002, 1.400413e+000
9.647944e+002, 1.418955e+000
9.652765e+002, 1.360507e+000
9.657586e+002, 1.242126e+000
9.662407e+002, 1.147236e+000
9.667228e+002, 1.052027e+000
9.672050e+002, 1.049397e+000
9.676871e+002, 1.276776e+000
9.681692e+002, 1.474888e+000
9.686513e+002, 1.445402e+000
9.691334e+002, 1.324659e+000
9.696155e+002, 1.340150e+000
9.700977e+002, 1.487818e+000
9.705798e+002, 1.496686e+000
9.710619e+002, 1.085787e+000
9.715440e+002, 7.702557e-001
9.720261e+002, 9.792024e-001
9.725082e+002, 1.365505e+000
9.729904e+002, 1.673387e+000
9.734725e+002, 1.817399e+000
9.739546e+002, 1.587009e+000
9.744367e+002, 9.756196e-001
9.749188e+002, 5.380222e-001
9.754009e+002, 8.326543e-001
9.758831e+002, 1.410919e+000
9.763652e+002, 1.750265e+000
9.768473e+002, 1.888549e+000
9.773294e+002, 1.863556e+000
9.778115e+002, 1.714119e+000
9.782936e+002, 1.560865e+000
9.787758e+002, 1.460556e+000
9.792579e+002, 1.390131e+000
9.797400e+002, 1.326843e+000
9.802221e+002, 1.267746e+000
9.807042e+002, 1.179241e+000
9.811863e+002, 1.075677e+000
9.816685e+002, 1.099398e+000
9.821506e+002, 1.277892e+000
9.826327e+002, 1.450239e+000
9.831148e+002, 1.513074e+000
9.835969e+002, 1.499138e+000
9.840790e+002, 1.458451e+000
9.845612e+002, 1.390660e+000
9.850433e+002, 1.367542e+000
9.855254e+002, 1.403308e+000
9.860075e+002, 1.387864e+000
9.864896e+002, 1.268751e+000
9.869717e+002, 1.171532e+000
9.874539e+002, 1.214972e+000
9.879360e+002, 1.342189e+000
9.884181e+002, 1.356053e+000
9.889002e+002, 1.168945e+000
9.893823e+002, 1.202305e+000
9.898644e+002, 1.662062e+000
9.903466e+002, 1.936965e+000
9.908287e+002, 1.717864e+000
9.913108e+002, 1.369881e+000
9.917929e+002, 1.235710e+000
9.922750e+002, 1.280985e+000
9.927571e+002, 1.302619e+000
9.932393e+002, 1.249649e+000
9.937214e+002, 1.264700e+000
9.942035e+002, 1.401297e+000
9.946856e+002, 1.544813e+000
9.951677e+002, 1.700751e+000
9.956498e+002, 1.807133e+000
9.961320e+002, 1.766499e+000
9.966141e+002, 1.599549e+000
9.970962e+002, 1.477102e+000
9.975783e+002, 1.468419e+000
9.980604e+002, 1.444422e+000
9.985425e+002, 1.335156e+000
9.990247e+002, 1.240548e+000
9.995068e+002, 1.236459e+000
9.999889e+002, 1.280577e+000
1.000471e+003, 1.312651e+000
1.000953e+003, 1.323881e+000
1.001435e+003, 1.333982e+000
1.001917e+003, 1.365635e+000
1.002399e+003, 1.375623e+000
1.002882e+003, 1.296456e+000
1.003364e+003, 1.223117e+000
1.003846e+003, 1.282000e+000
1.004328e+003, 1.403831e+000
1.004810e+003, 1.416948e+000
1.005292e+003, 1.295492e+000
1.005774e+003, 1.231498e+000
1.006256e+003, 1.423679e+000
1.006739e+003, 1.618835e+000
1.007221e+003, 1.533768e+000
1.007703e+003, 1.331232e+000
1.008185e+003, 1.246882e+000
1.008667e+003, 1.259822e+000
1.009149e+003, 1.213543e+000
1.009631e+003, 1.062332e+000
1.010113e+003, 9.571162e-001
1.010595e+003, 1.070997e+000
1.011078e+003, 1.263290e+000
1.011560e+003, 1.327833e+000
1.012042e+003, 1.302679e+000
1.012524e+003, 1.253416e+000
1.013006e+003, 1.202753e+000
1.013488e+003, 1.208788e+000
1.013970e+003, 1.294968e+000
1.014452e+003, 1.376153e+000
1.014935e+003, 1.322415e+000
1.015417e+003, 1.220096e+000
1.015899e+003, 1.319541e+000
1.016381e+003, 1.573013e+000
1.016863e+003, 1.771906e+000
1.017345e+003, 1.880744e+000
1.017827e+003, 1.891899e+000
1.018309e+003, 1.797890e+000
1.018791e+003, 1.663019e+000
1.019274e+003, 1.572036e+000
1.019756e+003, 1.517997e+000
1.020238e+003, 1.456053e+000
1.020720e+003, 1.388653e+000
1.021202e+003, 1.393332e+000
1.021684e+003, 1.488510e+000
1.022166e+003, 1.559339e+000
1.022648e+003, 1.537624e+000
1.023130e+003, 1.466031e+000
1.023613e+003, 1.414597e+000
1.024095e+003, 1.379988e+000
1.024577e+003, 1.291988e+000
1.025059e+003, 1.135805e+000
1.025541e+003, 1.060370e+000
1.026023e+003, 1.104738e+000
1.026505e+003, 1.181469e+000
1.026987e+003, 1.240173e+000
1.027469e+003, 1.290660e+000
1.027952e+003, 1.358399e+000
1.028434e+003, 1.447562e+000
1.028916e+003, 1.442458e+000
1.029398e+003, 1.292009e+000
1.029880e+003, 1.239059e+000
1.030362e+003, 1.378081e+000
1.030844e+003, 1.503994e+000
1.031326e+003, 1.468871e+000
1.031809e+003, 1.349375e+000
1.032291e+003, 1.305032e+000
1.032773e+003, 1.350117e+000
1.033255e+003, 1.346201e+000
1.033737e+003, 1.254385e+000
1.034219e+003, 1.204145e+000
1.034701e+003, 1.274301e+000
1.035183e+003, 1.303982e+000
1.035666e+003, 1.129048e+000
1.036148e+003, 8.770462e-001
1.036630e+003, 8.361167e-001
1.037112e+003, 1.063819e+000
1.037594e+003, 1.176752e+000
1.038076e+003, 1.063411e+000
1.038558e+003, 1.014483e+000
1.039040e+003, 1.156748e+000
1.039522e+003, 1.292871e+000
1.040005e+003, 1.256435e+000
1.040487e+003, 1.137134e+000
1.040969e+003, 1.134868e+000
1.041451e+003, 1.281066e+000
1.041933e+003, 1.377048e+000
1.042415e+003, 1.376889e+000
1.042897e+003, 1.385977e+000
1.043379e+003, 1.454552e+000
1.043861e+003, 1.507435e+000
1.044344e+003, 1.471492e+000
1.044826e+003, 1.393506e+000
1.045308e+003, 1.382732e+000
1.045790e+003, 1.468042e+000
1.046272e+003, 1.461094e+000
1.046754e+003, 1.179852e+000
1.047236e+003, 1.028356e+000
1.047718e+003, 1.211541e+000
1.048201e+003, 1.452584e+000
1.048683e+003, 1.585892e+000
1.049165e+003, 1.630776e+000
1.049647e+003, 1.628998e+000
1.050129e+003, 1.578735e+000
1.050611e+003, 1.557945e+000
1.051093e+003, 1.646873e+000
1.051575e+003, 1.678244e+000
1.052057e+003, 1.561477e+000
1.052540e+003, 1.409342e+000
1.053022e+003, 1.253586e+000
1.053504e+003, 1.141410e+000
1.053986e+003, 1.181661e+000
1.054468e+003, 1.394828e+000
1.054950e+003, 1.515357e+000
1.055432e+003, 1.438805e+000
1.055914e+003, 1.305514e+000
1.056396e+003, 1.048018e+000
1.056879e+003, 8.629030e-001
1.057361e+003, 9.662292e-001
1.057843e+003, 1.217437e+000
1.058325e+003, 1.361766e+000
1.058807e+003, 1.360960e+000
1.059289e+003, 1.364384e+000
1.059771e+003, 1.541053e+000
1.060253e+003, 1.567451e+000
1.060736e+003, 1.102191e+000
1.061218e+003, 6.545397e-001
1.061700e+003, 6.636587e-001
1.062182e+003, 9.370975e-001
1.062664e+003, 1.136132e+000
1.063146e+003, 1.205733e+000
1.063628e+003, 1.253008e+000
1.064110e+003, 1.313661e+000
1.064593e+003, 1.363992e+000
1.065075e+003, 1.385911e+000
1.065557e+003, 1.402155e+000
1.066039e+003, 1.425920e+000
1.066521e+003, 1.457937e+000
1.067003e+003, 1.509156e+000
1.067485e+003, 1.573573e+000
1.067967e+003, 1.600726e+000
1.068449e+003, 1.565861e+000
1.068932e+003, 1.500800e+000
1.069414e+003, 1.398372e+000
1.069896e+003, 1.292722e+000
1.070378e+003, 1.201839e+000
1.070860e+003, 1.128265e+000
1.071342e+003, 1.056851e+000
1.071824e+003, 9.975373e-001
1.072306e+003, 1.013098e+000
1.072788e+003, 1.172035e+000
1.073271e+003, 1.303724e+000
1.073753e+003, 1.281214e+000
1.074235e+003, 1.252587e+000
1.074717e+003, 1.362290e+000
1.075199e+003, 1.508424e+000
1.075681e+003, 1.549525e+000
1.076163e+003, 1.483407e+000
1.076645e+003, 1.386074e+000
1.077127e+003, 1.248589e+000
1.077610e+003, 1.194819e+000
1.078092e+003, 1.389253e+000
1.078574e+003, 1.569407e+000
1.079056e+003, 1.519038e+000
1.079538e+003, 1.380654e+000
1.080020e+003, 1.320915e+000
1.080502e+003, 1.345058e+000
1.080984e+003, 1.391963e+000
1.081467e+003, 1.450016e+000
1.081949e+003, 1.493536e+000
1.082431e+003, 1.502881e+000
1.082913e+003, 1.503901e+000
1.083395e+003, 1.531105e+000
1.083877e+003, 1.543618e+000
1.084359e+003, 1.475309e+000
1.084841e+003, 1.357190e+000
1.085323e+003, 1.270263e+000
1.085806e+003, 1.232675e+000
1.086288e+003, 1.259690e+000
1.086770e+003, 1.442483e+000
1.087252e+003, 1.586203e+000
1.087734e+003, 1.555394e+000
1.088216e+003, 1.469712e+000
1.088698e+003, 1.428178e+000
1.089180e+003, 1.427584e+000
1.089662e+003, 1.456247e+000
1.090145e+003, 1.511982e+000
1.090627e+003, 1.499545e+000
1.091109e+003, 1.318529e+000
1.091591e+003, 1.148192e+000
1.092073e+003, 1.041837e+000
1.092555e+003, 9.982166e-001
1.093037e+003, 1.023613e+000
1.093519e+003, 1.108224e+000
1.094002e+003, 1.276234e+000
1.094484e+003, 1.514694e+000
1.094966e+003, 1.645954e+000
1.095448e+003, 1.579523e+000
1.095930e+003, 1.447929e+000
1.096412e+003, 1.197820e+000
1.096894e+003, 9.999783e-001
1.097376e+003, 1.016692e+000
1.097859e+003, 1.117298e+000
1.098341e+003, 1.086975e+000
1.098823e+003, 9.438730e-001
1.099305e+003, 9.551658e-001
1.099787e+003, 1.346043e+000
1.100269e+003, 1.549803e+000
1.100751e+003, 1.215795e+000
1.101233e+003, 9.050201e-001
1.101715e+003, 9.553894e-001
1.102198e+003, 1.119773e+000
1.102680e+003, 1.130790e+000
1.103162e+003, 1.011185e+000
1.103644e+003, 9.088267e-001
1.104126e+003, 8.099182e-001
1.104608e+003, 8.411750e-001
1.105090e+003, 1.160306e+000
1.105572e+003, 1.436893e+000
1.106054e+003, 1.604343e+000
1.106537e+003, 1.641871e+000
1.107019e+003, 1.442235e+000
1.107501e+003, 1.122820e+000
1.107983e+003, 9.691536e-001
1.108465e+003, 1.030255e+000
1.108947e+003, 1.090768e+000
1.109429e+003, 1.148140e+000
1.109911e+003, 1.180499e+000
1.110394e+003, 1.126958e+000
1.110876e+003, 1.106536e+000
1.111358e+003, 1.257273e+000
1.111840e+003, 1.455978e+000
1.112322e+003, 1.459180e+000
1.112804e+003, 1.247549e+000
1.113286e+003, 1.207079e+000
1.113768e+003, 1.552063e+000
1.114250e+003, 1.709660e+000
1.114733e+003, 1.505638e+000
1.115215e+003, 1.293480e+000
1.115697e+003, 1.210768e+000
1.116179e+003, 1.204998e+000
1.116661e+003, 1.228415e+000
1.117143e+003, 1.276895e+000
1.117625e+003, 1.318646e+000
1.118107e+003, 1.338734e+000
1.118589e+003, 1.394677e+000
1.119072e+003, 1.552022e+000
1.119554e+003, 1.603953e+000
1.120036e+003, 1.413607e+000
1.120518e+003, 1.216552e+000
1.121000e+003, 1.228219e+000
1.121482e+003, 1.378020e+000
1.121964e+003, 1.461827e+000
1.122446e+003, 1.475340e+000
1.122929e+003, 1.448755e+000
1.123411e+003, 1.382874e+000
1.123893e+003, 1.253133e+000
1.124375e+003, 1.000708e+000
1.124857e+003, 8.595149e-001
1.125339e+003, 1.014959e+000
1.125821e+003, 1.292434e+000
1.126303e+003, 1.399036e+000
1.126786e+003, 1.339704e+000
1.127268e+003, 1.167618e+000
1.127750e+003, 8.525134e-001
1.128232e+003, 7.155818e-001
1.128714e+003, 8.129685e-001
1.129196e+003, 1.008767e+000
1.129678e+003, 1.264536e+000
1.130160e+003, 1.452350e+000
1.130642e+003, 1.409637e+000
1.131125e+003, 1.205929e+000
1.131607e+003, 1.073701e+000
1.132089e+003, 1.011627e+000
1.132571e+003, 9.976860e-001
1.133053e+003, 1.030353e+000
1.133535e+003, 1.127801e+000
1.134017e+003, 1.295268e+000
1.134499e+003, 1.419298e+000
1.134981e+003, 1.409746e+000
1.135464e+003, 1.315648e+000
1.135946e+003, 1.193273e+000
1.136428e+003, 1.066172e+000
1.136910e+003, 1.046702e+000
1.137392e+003, 1.111335e+000
1.137874e+003, 1.133450e+000
1.138356e+003, 1.097700e+000
1.138838e+003, 1.081333e+000
1.139321e+003, 1.123974e+000
1.139803e+003, 1.196150e+000
1.140285e+003, 1.294300e+000
1.140767e+003, 1.372844e+000
1.141249e+003, 1.315880e+000
1.141731e+003, 1.188102e+000
1.142213e+003, 1.106818e+000
1.142695e+003, 1.095290e+000
1.143177e+003, 1.209171e+000
1.143660e+003, 1.441195e+000
1.144142e+003, 1.592460e+000
1.144624e+003, 1.483162e+000
1.145106e+003, 1.331194e+000
1.145588e+003, 1.396755e+000
1.146070e+003, 1.525581e+000
1.146552e+003, 1.506787e+000
1.147034e+003, 1.409173e+000
1.147516e+003, 1.389080e+000
1.147999e+003, 1.451112e+000
1.148481e+003, 1.486015e+000
1.148963e+003, 1.447856e+000
1.149445e+003, 1.377466e+000
1.149927e+003, 1.216681e+000
1.150409e+003, 1.128283e+000
1.150891e+003, 1.356438e+000
1.151373e+003, 1.616612e+000
1.151856e+003, 1.559714e+000
1.152338e+003, 1.286777e+000
1.152820e+003, 1.058320e+000
1.153302e+003, 9.304522e-001
1.153784e+003, 9.559219e-001
1.154266e+003, 1.386937e+000
1.154748e+003, 1.640192e+000
1.155230e+003, 1.336247e+000
1.155713e+003, 1.002398e+000
1.156195e+003, 1.011827e+000
1.156677e+003, 1.155118e+000
1.157159e+003, 1.106712e+000
1.157641e+003, 8.943213e-001
1.158123e+003, 8.502201e-001
1.158605e+003, 1.117894e+000
1.159087e+003, 1.311878e+000
1.159569e+003, 1.439669e+000
1.160052e+003, 1.445816e+000
1.160534e+003, 1.202421e+000
1.161016e+003, 9.595112e-001
1.161498e+003, 8.881606e-001
1.161980e+003, 9.569642e-001
1.162462e+003, 1.133385e+000
1.162944e+003, 1.449631e+000
1.163426e+003, 1.502696e+000
1.163908e+003, 1.135607e+000
1.164391e+003, 9.813352e-001
1.164873e+003, 1.193233e+000
1.165355e+003, 1.419018e+000
1.165837e+003, 1.499125e+000
1.166319e+003, 1.508139e+000
1.166801e+003, 1.543039e+000
1.167283e+003, 1.572173e+000
1.167765e+003, 1.422628e+000
1.168247e+003, 1.082674e+000
1.168730e+003, 9.327382e-001
1.169212e+003, 9.916228e-001
1.169694e+003, 1.199808e+000
1.170176e+003, 1.547056e+000
1.170658e+003, 1.749177e+000
1.171140e+003, 1.597172e+000
1.171622e+003, 1.281043e+000
1.172104e+003, 1.050839e+000
1.172587e+003, 9.261981e-001
1.173069e+003, 1.055466e+000
1.173551e+003, 1.345730e+000
1.174033e+003, 1.403584e+000
1.174515e+003, 1.235387e+000
1.174997e+003, 1.146074e+000
1.175479e+003, 1.249525e+000
1.175961e+003, 1.443054e+000
1.176443e+003, 1.699283e+000
1.176926e+003, 1.873435e+000
1.177408e+003, 1.675711e+000
1.177890e+003, 1.362119e+000
1.178372e+003, 1.326756e+000
1.178854e+003, 1.462424e+000
1.179336e+003, 1.524132e+000
1.179818e+003, 1.479226e+000
1.180300e+003, 1.416617e+000
1.180782e+003, 1.374577e+000
1.181265e+003, 1.306682e+000
1.181747e+003, 1.094831e+000
1.182229e+003, 9.568679e-001
1.182711e+003, 1.136962e+000
1.183193e+003, 1.368315e+000
1.183675e+003, 1.380459e+000
1.184157e+003, 1.254808e+000
1.184639e+003, 1.149454e+000
1.185122e+003, 1.094728e+000
1.185604e+003, 1.151385e+000
1.186086e+003, 1.519497e+000
1.186568e+003, 1.698202e+000
1.187050e+003, 1.425345e+000
1.187532e+003, 1.170293e+000
1.188014e+003, 1.165847e+000
1.188496e+003, 1.235842e+000
1.188979e+003, 1.210329e+000
1.189461e+003, 1.129860e+000
1.189943e+003, 1.119538e+000
1.190425e+003, 1.202330e+000
1.190907e+003, 1.209356e+000
1.191389e+003, 1.078750e+000
1.191871e+003, 1.062968e+000
1.192353e+003, 1.260298e+000
1.192835e+003, 1.388013e+000
1.193318e+003, 1.268379e+000
1.193800e+003, 1.129124e+000
1.194282e+003, 1.281060e+000
1.194764e+003, 1.606205e+000
1.195246e+003, 1.585817e+000
1.195728e+003, 1.239491e+000
1.196210e+003, 1.109526e+000
1.196692e+003, 1.212034e+000
1.197174e+003, 1.356370e+000
1.197657e+003, 1.488174e+000
1.198139e+003, 1.538152e+000
1.198621e+003, 1.459107e+000
1.199103e+003, 1.335853e+000
1.199585e+003, 1.268099e+000
1.200067e+003, 1.245491e+000
1.200549e+003, 1.264829e+000
1.201031e+003, 1.305256e+000
1.201514e+003, 1.316777e+000
1.201996e+003, 1.305948e+000
1.202478e+003, 1.317587e+000
1.202960e+003, 1.356869e+000
1.203442e+003, 1.364069e+000
1.203924e+003, 1.289988e+000
1.204406e+003, 1.218070e+000
1.204888e+003, 1.211053e+000
1.205370e+003, 1.232916e+000
1.205853e+003, 1.264753e+000
1.206335e+003, 1.299967e+000
1.206817e+003, 1.355960e+000
1.207299e+003, 1.405501e+000
1.207781e+003, 1.359060e+000
1.208263e+003, 1.189117e+000
1.208745e+003, 1.107454e+000
1.209227e+003, 1.236858e+000
1.209709e+003, 1.351213e+000
1.210192e+003, 1.437723e+000
1.210674e+003, 1.458381e+000
1.211156e+003, 1.331884e+000
1.211638e+003, 1.182999e+000
1.212120e+003, 1.119589e+000
1.212602e+003, 1.141068e+000
1.213084e+003, 1.264204e+000
1.213566e+003, 1.540330e+000
1.214049e+003, 1.646859e+000
1.214531e+003, 1.538484e+000
1.215013e+003, 1.440907e+000
1.215495e+003, 1.399897e+000
1.215977e+003, 1.346085e+000
1.216459e+003, 1.233437e+000
1.216941e+003, 1.146342e+000
1.217423e+003, 1.203318e+000
1.217906e+003, 1.342864e+000
1.218388e+003, 1.376459e+000
1.218870e+003, 1.318918e+000
1.219352e+003, 1.219587e+000
1.219834e+003, 1.098446e+000
1.220316e+003, 1.016557e+000
1.220798e+003, 9.979203e-001
1.221280e+003, 1.116070e+000
1.221762e+003, 1.418279e+000
1.222245e+003, 1.681836e+000
1.222727e+003, 1.634004e+000
1.223209e+003, 1.479031e+000
1.223691e+003, 1.440053e+000
1.224173e+003, 1.444412e+000
1.224655e+003, 1.378718e+000
1.225137e+003, 1.287228e+000
1.225619e+003, 1.290966e+000
1.226101e+003, 1.389188e+000
1.226584e+003, 1.439063e+000
1.227066e+003, 1.357175e+000
1.227548e+003, 1.325078e+000
1.228030e+003, 1.503833e+000
1.228512e+003, 1.614443e+000
1.228994e+003, 1.449282e+000
1.229476e+003, 1.259801e+000
1.229958e+003, 1.309686e+000
1.230441e+003, 1.436144e+000
1.230923e+003, 1.299296e+000
1.231405e+003, 9.123265e-001
1.231887e+003, 7.620319e-001
1.232369e+003, 9.487112e-001
1.232851e+003, 1.065716e+000
1.233333e+003, 1.084968e+000
1.233815e+003, 1.065673e+000
1.234297e+003, 1.012040e+000
1.234780e+003, 9.843436e-001
1.235262e+003, 1.026598e+000
1.235744e+003, 1.120192e+000
1.236226e+003, 1.251781e+000
1.236708e+003, 1.397805e+000
1.237190e+003, 1.457672e+000
1.237672e+003, 1.443075e+000
1.238154e+003, 1.392059e+000
1.238636e+003, 1.319008e+000
1.239119e+003, 1.252829e+000
1.239601e+003, 1.207381e+000
1.240083e+003, 1.217045e+000
1.240565e+003, 1.318158e+000
1.241047e+003, 1.404508e+000
1.241529e+003, 1.346300e+000
1.242011e+003, 1.253220e+000
1.242493e+003, 1.217566e+000
1.242975e+003, 1.222930e+000
1.243458e+003, 1.263626e+000
1.243940e+003, 1.317836e+000
1.244422e+003, 1.353996e+000
1.244904e+003, 1.365419e+000
1.245386e+003, 1.341173e+000
1.245868e+003, 1.199156e+000
1.246350e+003, 1.168344e+000
1.246832e+003, 1.461258e+000
1.247315e+003, 1.632222e+000
1.247797e+003, 1.392724e+000
1.248279e+003, 1.150836e+000
1.248761e+003, 1.203654e+000
1.249243e+003, 1.431395e+000
1.249725e+003, 1.646732e+000
1.250207e+003, 1.840334e+000
1.250689e+003, 1.800272e+000
1.251172e+003, 1.477525e+000
1.251654e+003, 1.543161e+000
1.252136e+003, 2.070314e+000
1.252618e+003, 2.301060e+000
1.253100e+003, 2.009273e+000
1.253582e+003, 1.606522e+000
1.254064e+003, 1.368052e+000
1.254546e+003, 1.258316e+000
1.255028e+003, 1.302332e+000
1.255510e+003, 1.389462e+000
1.255993e+003, 1.251926e+000
1.256475e+003, 1.036099e+000
1.256957e+003, 1.033916e+000
1.257439e+003, 1.193231e+000
1.257921e+003, 1.359804e+000
1.258403e+003, 1.474068e+000
1.258885e+003, 1.446585e+000
1.259367e+003, 1.178321e+000
1.259850e+003, 9.998991e-001
1.260332e+003, 1.176297e+000
1.260814e+003, 1.331793e+000
1.261296e+003, 1.222286e+000
1.261778e+003, 1.091163e+000
1.262260e+003, 1.147344e+000
1.262742e+003, 1.295506e+000
1.263224e+003, 1.373230e+000
1.263707e+003, 1.389043e+000
1.264189e+003, 1.422219e+000
1.264671e+003, 1.484172e+000
1.265153e+003, 1.527601e+000
1.265635e+003, 1.556037e+000
1.266117e+003, 1.535988e+000
1.266599e+003, 1.447506e+000
1.267081e+003, 1.413121e+000
1.267563e+003, 1.511905e+000
1.268046e+003, 1.592181e+000
1.268528e+003, 1.447100e+000
1.269010e+003, 1.201985e+000
1.269492e+003, 1.164773e+000
1.269974e+003, 1.251431e+000
1.270456e+003, 1.248868e+000
1.270938e+003, 1.181285e+000
1.271420e+003, 1.113909e+000
1.271902e+003, 1.087974e+000
1.272385e+003, 1.232133e+000
1.272867e+003, 1.596200e+000
1.273349e+003, 1.826915e+000
1.273831e+003, 1.580178e+000
1.274313e+003, 1.334402e+000
1.274795e+003, 1.344853e+000
1.275277e+003, 1.417595e+000
1.275759e+003, 1.439089e+000
1.276242e+003, 1.439350e+000
1.276724e+003, 1.461889e+000
1.277206e+003, 1.498360e+000
1.277688e+003, 1.511661e+000
1.278170e+003, 1.495880e+000
1.278652e+003, 1.514153e+000
1.279134e+003, 1.579928e+000
1.279616e+003, 1.633922e+000
1.280099e+003, 1.673560e+000
1.280581e+003, 1.676938e+000
1.281063e+003, 1.632666e+000
1.281545e+003, 1.582921e+000
1.282027e+003, 1.562682e+000
1.282509e+003, 1.545565e+000
1.282991e+003, 1.480310e+000
1.283473e+003, 1.388181e+000
1.283955e+003, 1.315140e+000
##END=



