##NAMES=Tetradymite
##RRUFFID=R130067
##IDEAL CHEMISTRY=Bi^3+^_2_Te^2-^_2_S^2-^
##LOCALITY=Oravica, Transylvania, Romania
##OWNER=RRUFF
##SOURCE=William W. Pinch
##DESCRIPTION=Mass of platy dark gray crystals
##STATUS=The identification of this mineral has been confirmed only by single crystal X-ray diffraction.
##URL=rruff.info/R130067
8.936163e+001, 0.000000e+000
8.984375e+001, 7.984350e+001
9.032587e+001, 8.100584e+001
9.080798e+001, 8.120667e+001
9.129010e+001, 7.999636e+001
9.177222e+001, 7.834885e+001
9.225433e+001, 7.755358e+001
9.273645e+001, 7.753529e+001
9.321857e+001, 7.752229e+001
9.370068e+001, 7.687245e+001
9.418280e+001, 7.570466e+001
9.466492e+001, 7.439340e+001
9.514703e+001, 7.293970e+001
9.562915e+001, 7.145159e+001
9.611127e+001, 7.014992e+001
9.659338e+001, 6.902891e+001
9.707550e+001, 6.816982e+001
9.755762e+001, 6.781344e+001
9.803973e+001, 6.797002e+001
9.852185e+001, 6.800882e+001
9.900397e+001, 6.759536e+001
9.948608e+001, 6.671444e+001
9.996820e+001, 6.602182e+001
1.004503e+002, 6.561240e+001
1.009324e+002, 6.527496e+001
1.014146e+002, 6.448262e+001
1.018967e+002, 6.303835e+001
1.023788e+002, 6.168190e+001
1.028609e+002, 6.082927e+001
1.033430e+002, 6.065578e+001
1.038251e+002, 6.045724e+001
1.043073e+002, 6.022524e+001
1.047894e+002, 5.993900e+001
1.052715e+002, 5.947502e+001
1.057536e+002, 5.871380e+001
1.062357e+002, 5.790213e+001
1.067178e+002, 5.719731e+001
1.072000e+002, 5.663518e+001
1.076821e+002, 5.614069e+001
1.081642e+002, 5.577993e+001
1.086463e+002, 5.557885e+001
1.091284e+002, 5.514984e+001
1.096105e+002, 5.427203e+001
1.100927e+002, 5.326021e+001
1.105748e+002, 5.241665e+001
1.110569e+002, 5.172248e+001
1.115390e+002, 5.121855e+001
1.120211e+002, 5.101583e+001
1.125032e+002, 5.126750e+001
1.129854e+002, 5.125365e+001
1.134675e+002, 5.072001e+001
1.139496e+002, 4.989544e+001
1.144317e+002, 4.910222e+001
1.149138e+002, 4.829274e+001
1.153959e+002, 4.762729e+001
1.158781e+002, 4.723417e+001
1.163602e+002, 4.732477e+001
1.168423e+002, 4.727215e+001
1.173244e+002, 4.676074e+001
1.178065e+002, 4.592673e+001
1.182886e+002, 4.511668e+001
1.187708e+002, 4.439795e+001
1.192529e+002, 4.379937e+001
1.197350e+002, 4.336880e+001
1.202171e+002, 4.325972e+001
1.206992e+002, 4.314888e+001
1.211813e+002, 4.277687e+001
1.216635e+002, 4.219113e+001
1.221456e+002, 4.166201e+001
1.226277e+002, 4.143324e+001
1.231098e+002, 4.134450e+001
1.235919e+002, 4.118494e+001
1.240740e+002, 4.088297e+001
1.245562e+002, 4.047335e+001
1.250383e+002, 3.989880e+001
1.255204e+002, 3.915822e+001
1.260025e+002, 3.855528e+001
1.264846e+002, 3.854199e+001
1.269667e+002, 3.889508e+001
1.274489e+002, 3.905646e+001
1.279310e+002, 3.860005e+001
1.284131e+002, 3.781891e+001
1.288952e+002, 3.731768e+001
1.293773e+002, 3.715108e+001
1.298594e+002, 3.707014e+001
1.303416e+002, 3.676400e+001
1.308237e+002, 3.625742e+001
1.313058e+002, 3.571030e+001
1.317879e+002, 3.507622e+001
1.322700e+002, 3.442869e+001
1.327521e+002, 3.423622e+001
1.332343e+002, 3.470866e+001
1.337164e+002, 3.533886e+001
1.341985e+002, 3.503871e+001
1.346806e+002, 3.373609e+001
1.351627e+002, 3.245278e+001
1.356448e+002, 3.191640e+001
1.361270e+002, 3.213402e+001
1.366091e+002, 3.236615e+001
1.370912e+002, 3.260108e+001
1.375733e+002, 3.275360e+001
1.380554e+002, 3.245360e+001
1.385375e+002, 3.155225e+001
1.390197e+002, 3.062855e+001
1.395018e+002, 3.014210e+001
1.399839e+002, 3.018319e+001
1.404660e+002, 3.029781e+001
1.409481e+002, 3.046310e+001
1.414302e+002, 3.066216e+001
1.419124e+002, 3.068001e+001
1.423945e+002, 3.048276e+001
1.428766e+002, 3.015338e+001
1.433587e+002, 2.976430e+001
1.438408e+002, 2.930902e+001
1.443229e+002, 2.880434e+001
1.448051e+002, 2.817822e+001
1.452872e+002, 2.735458e+001
1.457693e+002, 2.697696e+001
1.462514e+002, 2.737034e+001
1.467335e+002, 2.800068e+001
1.472156e+002, 2.816652e+001
1.476978e+002, 2.739553e+001
1.481799e+002, 2.674264e+001
1.486620e+002, 2.653030e+001
1.491441e+002, 2.703500e+001
1.496262e+002, 2.722941e+001
1.501083e+002, 2.682821e+001
1.505905e+002, 2.616068e+001
1.510726e+002, 2.580351e+001
1.515547e+002, 2.627283e+001
1.520368e+002, 2.661036e+001
1.525189e+002, 2.646645e+001
1.530010e+002, 2.528713e+001
1.534832e+002, 2.458447e+001
1.539653e+002, 2.494171e+001
1.544474e+002, 2.586903e+001
1.549295e+002, 2.619055e+001
1.554116e+002, 2.507889e+001
1.558937e+002, 2.382334e+001
1.563759e+002, 2.301426e+001
1.568580e+002, 2.296910e+001
1.573401e+002, 2.305556e+001
1.578222e+002, 2.327097e+001
1.583043e+002, 2.355752e+001
1.587864e+002, 2.370206e+001
1.592686e+002, 2.356793e+001
1.597507e+002, 2.331967e+001
1.602328e+002, 2.306140e+001
1.607149e+002, 2.277656e+001
1.611970e+002, 2.252630e+001
1.616791e+002, 2.238135e+001
1.621613e+002, 2.231827e+001
1.626434e+002, 2.216665e+001
1.631255e+002, 2.168851e+001
1.636076e+002, 2.116451e+001
1.640897e+002, 2.084464e+001
1.645718e+002, 2.104229e+001
1.650540e+002, 2.127034e+001
1.655361e+002, 2.123291e+001
1.660182e+002, 2.094100e+001
1.665003e+002, 2.072066e+001
1.669824e+002, 2.079386e+001
1.674645e+002, 2.102587e+001
1.679467e+002, 2.124856e+001
1.684288e+002, 2.135534e+001
1.689109e+002, 2.146085e+001
1.693930e+002, 2.173719e+001
1.698751e+002, 2.220465e+001
1.703572e+002, 2.247618e+001
1.708394e+002, 2.213223e+001
1.713215e+002, 2.142722e+001
1.718036e+002, 2.079756e+001
1.722857e+002, 2.033757e+001
1.727678e+002, 2.008789e+001
1.732499e+002, 2.020902e+001
1.737321e+002, 2.077071e+001
1.742142e+002, 2.125257e+001
1.746963e+002, 2.110498e+001
1.751784e+002, 2.053402e+001
1.756605e+002, 2.002588e+001
1.761426e+002, 1.988049e+001
1.766248e+002, 1.993020e+001
1.771069e+002, 1.993398e+001
1.775890e+002, 1.984927e+001
1.780711e+002, 1.981203e+001
1.785532e+002, 2.003629e+001
1.790353e+002, 2.045523e+001
1.795175e+002, 2.082058e+001
1.799996e+002, 2.095561e+001
1.804817e+002, 2.094860e+001
1.809638e+002, 2.095961e+001
1.814459e+002, 2.099565e+001
1.819280e+002, 2.108500e+001
1.824102e+002, 2.135282e+001
1.828923e+002, 2.175469e+001
1.833744e+002, 2.204101e+001
1.838565e+002, 2.188063e+001
1.843386e+002, 2.146202e+001
1.848207e+002, 2.139953e+001
1.853029e+002, 2.190597e+001
1.857850e+002, 2.255692e+001
1.862671e+002, 2.254556e+001
1.867492e+002, 2.190317e+001
1.872313e+002, 2.130012e+001
1.877134e+002, 2.128256e+001
1.881956e+002, 2.173300e+001
1.886777e+002, 2.209035e+001
1.891598e+002, 2.225361e+001
1.896419e+002, 2.229610e+001
1.901240e+002, 2.240421e+001
1.906061e+002, 2.258589e+001
1.910883e+002, 2.268209e+001
1.915704e+002, 2.247445e+001
1.920525e+002, 2.200604e+001
1.925346e+002, 2.173384e+001
1.930167e+002, 2.177633e+001
1.934988e+002, 2.202233e+001
1.939810e+002, 2.217377e+001
1.944631e+002, 2.221978e+001
1.949452e+002, 2.218831e+001
1.954273e+002, 2.190955e+001
1.959094e+002, 2.139280e+001
1.963915e+002, 2.113761e+001
1.968737e+002, 2.129119e+001
1.973558e+002, 2.174243e+001
1.978379e+002, 2.216848e+001
1.983200e+002, 2.259639e+001
1.988021e+002, 2.288513e+001
1.992842e+002, 2.282734e+001
1.997664e+002, 2.240234e+001
2.002485e+002, 2.210399e+001
2.007306e+002, 2.207178e+001
2.012127e+002, 2.224632e+001
2.016948e+002, 2.228466e+001
2.021769e+002, 2.215820e+001
2.026591e+002, 2.199222e+001
2.031412e+002, 2.191908e+001
2.036233e+002, 2.195521e+001
2.041054e+002, 2.194967e+001
2.045875e+002, 2.184513e+001
2.050696e+002, 2.165991e+001
2.055518e+002, 2.156528e+001
2.060339e+002, 2.157104e+001
2.065160e+002, 2.163966e+001
2.069981e+002, 2.181135e+001
2.074802e+002, 2.217317e+001
2.079623e+002, 2.221245e+001
2.084445e+002, 2.165574e+001
2.089266e+002, 2.054355e+001
2.094087e+002, 1.998678e+001
2.098908e+002, 2.010859e+001
2.103729e+002, 2.053543e+001
2.108550e+002, 2.089803e+001
2.113372e+002, 2.119940e+001
2.118193e+002, 2.142515e+001
2.123014e+002, 2.160884e+001
2.127835e+002, 2.175148e+001
2.132656e+002, 2.156740e+001
2.137477e+002, 2.087638e+001
2.142299e+002, 2.011203e+001
2.147120e+002, 1.986578e+001
2.151941e+002, 2.038622e+001
2.156762e+002, 2.070417e+001
2.161583e+002, 2.045916e+001
2.166404e+002, 1.960040e+001
2.171226e+002, 1.924032e+001
2.176047e+002, 1.961140e+001
2.180868e+002, 2.020139e+001
2.185689e+002, 2.037974e+001
2.190510e+002, 1.999725e+001
2.195331e+002, 1.955493e+001
2.200153e+002, 1.915886e+001
2.204974e+002, 1.880893e+001
2.209795e+002, 1.846858e+001
2.214616e+002, 1.804687e+001
2.219437e+002, 1.772367e+001
2.224258e+002, 1.777578e+001
2.229080e+002, 1.843796e+001
2.233901e+002, 1.896758e+001
2.238722e+002, 1.912010e+001
2.243543e+002, 1.884288e+001
2.248364e+002, 1.868384e+001
2.253185e+002, 1.870085e+001
2.258007e+002, 1.878251e+001
2.262828e+002, 1.879119e+001
2.267649e+002, 1.871089e+001
2.272470e+002, 1.858614e+001
2.277291e+002, 1.841560e+001
2.282112e+002, 1.818430e+001
2.286934e+002, 1.800828e+001
2.291755e+002, 1.792572e+001
2.296576e+002, 1.786458e+001
2.301397e+002, 1.771692e+001
2.306218e+002, 1.738350e+001
2.311039e+002, 1.714281e+001
2.315861e+002, 1.707342e+001
2.320682e+002, 1.719021e+001
2.325503e+002, 1.739037e+001
2.330324e+002, 1.781470e+001
2.335145e+002, 1.820598e+001
2.339966e+002, 1.819704e+001
2.344788e+002, 1.749868e+001
2.349609e+002, 1.692177e+001
2.354430e+002, 1.672927e+001
2.359251e+002, 1.700444e+001
2.364072e+002, 1.706309e+001
2.368893e+002, 1.678711e+001
2.373715e+002, 1.639226e+001
2.378536e+002, 1.615834e+001
2.383357e+002, 1.619809e+001
2.388178e+002, 1.619304e+001
2.392999e+002, 1.602727e+001
2.397820e+002, 1.566074e+001
2.402642e+002, 1.544874e+001
2.407463e+002, 1.543058e+001
2.412284e+002, 1.553260e+001
2.417105e+002, 1.569563e+001
2.421926e+002, 1.604891e+001
2.426747e+002, 1.622283e+001
2.431569e+002, 1.606823e+001
2.436390e+002, 1.552606e+001
2.441211e+002, 1.513719e+001
2.446032e+002, 1.493667e+001
2.450853e+002, 1.485340e+001
2.455674e+002, 1.480896e+001
2.460496e+002, 1.480480e+001
2.465317e+002, 1.484022e+001
2.470138e+002, 1.494347e+001
2.474959e+002, 1.513106e+001
2.479780e+002, 1.519243e+001
2.484601e+002, 1.506839e+001
2.489423e+002, 1.487870e+001
2.494244e+002, 1.476229e+001
2.499065e+002, 1.478049e+001
2.503886e+002, 1.475133e+001
2.508707e+002, 1.462829e+001
2.513528e+002, 1.440921e+001
2.518350e+002, 1.416556e+001
2.523171e+002, 1.384534e+001
2.527992e+002, 1.355939e+001
2.532813e+002, 1.344226e+001
2.537634e+002, 1.359413e+001
2.542455e+002, 1.369664e+001
2.547277e+002, 1.366265e+001
2.552098e+002, 1.348836e+001
2.556919e+002, 1.340224e+001
2.561740e+002, 1.345624e+001
2.566561e+002, 1.353291e+001
2.571382e+002, 1.350287e+001
2.576204e+002, 1.328782e+001
2.581025e+002, 1.315918e+001
2.585846e+002, 1.319855e+001
2.590667e+002, 1.339516e+001
2.595488e+002, 1.351570e+001
2.600309e+002, 1.354140e+001
2.605131e+002, 1.351574e+001
2.609952e+002, 1.348049e+001
2.614773e+002, 1.345294e+001
2.619594e+002, 1.336217e+001
2.624415e+002, 1.316719e+001
2.629236e+002, 1.288402e+001
2.634058e+002, 1.269260e+001
2.638879e+002, 1.259663e+001
2.643700e+002, 1.258271e+001
2.648521e+002, 1.268275e+001
2.653342e+002, 1.298048e+001
2.658163e+002, 1.309622e+001
2.662985e+002, 1.291715e+001
2.667806e+002, 1.250540e+001
2.672627e+002, 1.221246e+001
2.677448e+002, 1.207100e+001
2.682269e+002, 1.198377e+001
2.687090e+002, 1.189031e+001
2.691912e+002, 1.179446e+001
2.696733e+002, 1.166830e+001
2.701554e+002, 1.149783e+001
2.706375e+002, 1.129633e+001
2.711196e+002, 1.112132e+001
2.716017e+002, 1.097358e+001
2.720839e+002, 1.085013e+001
2.725660e+002, 1.070948e+001
2.730481e+002, 1.051340e+001
2.735302e+002, 1.058331e+001
2.740123e+002, 1.107908e+001
2.744944e+002, 1.177900e+001
2.749766e+002, 1.200116e+001
2.754587e+002, 1.165813e+001
2.759408e+002, 1.118167e+001
2.764229e+002, 1.077500e+001
2.769050e+002, 1.042320e+001
2.773871e+002, 1.032579e+001
2.778693e+002, 1.057557e+001
2.783514e+002, 1.099701e+001
2.788335e+002, 1.120232e+001
2.793156e+002, 1.117278e+001
2.797977e+002, 1.104967e+001
2.802798e+002, 1.088086e+001
2.807620e+002, 1.066730e+001
2.812441e+002, 1.048544e+001
2.817262e+002, 1.033466e+001
2.822083e+002, 1.022417e+001
2.826904e+002, 1.019858e+001
2.831725e+002, 1.026616e+001
2.836547e+002, 1.029906e+001
2.841368e+002, 1.016036e+001
2.846189e+002, 9.880912e+000
2.851010e+002, 9.875525e+000
2.855831e+002, 1.022327e+001
2.860652e+002, 1.064762e+001
2.865474e+002, 1.070211e+001
2.870295e+002, 1.039450e+001
2.875116e+002, 1.010100e+001
2.879937e+002, 1.000799e+001
2.884758e+002, 1.007817e+001
2.889579e+002, 1.009839e+001
2.894401e+002, 1.006446e+001
2.899222e+002, 1.000562e+001
2.904043e+002, 9.930621e+000
2.908864e+002, 9.847687e+000
2.913685e+002, 9.827211e+000
2.918506e+002, 9.958830e+000
2.923328e+002, 1.016582e+001
2.928149e+002, 1.017595e+001
2.932970e+002, 9.973550e+000
2.937791e+002, 9.768673e+000
2.942612e+002, 9.873826e+000
2.947433e+002, 1.019112e+001
2.952255e+002, 1.031129e+001
2.957076e+002, 9.948944e+000
2.961897e+002, 9.389631e+000
2.966718e+002, 9.291905e+000
2.971539e+002, 9.642911e+000
2.976360e+002, 9.949814e+000
2.981182e+002, 9.661853e+000
2.986003e+002, 9.000329e+000
2.990824e+002, 8.516582e+000
2.995645e+002, 8.400916e+000
3.000466e+002, 8.487441e+000
3.005287e+002, 8.565518e+000
3.010109e+002, 8.638078e+000
3.014930e+002, 8.729782e+000
3.019751e+002, 8.914393e+000
3.024572e+002, 9.119611e+000
3.029393e+002, 9.210071e+000
3.034214e+002, 9.127501e+000
3.039036e+002, 8.978436e+000
3.043857e+002, 8.875645e+000
3.048678e+002, 8.804928e+000
3.053499e+002, 8.711356e+000
3.058320e+002, 8.454379e+000
3.063141e+002, 8.197743e+000
3.067963e+002, 8.166914e+000
3.072784e+002, 8.448993e+000
3.077605e+002, 8.809279e+000
3.082426e+002, 9.135121e+000
3.087247e+002, 9.396017e+000
3.092068e+002, 9.518775e+000
3.096890e+002, 9.355285e+000
3.101711e+002, 9.100908e+000
3.106532e+002, 8.915298e+000
3.111353e+002, 8.818553e+000
3.116174e+002, 8.780762e+000
3.120995e+002, 8.838006e+000
3.125817e+002, 8.934977e+000
3.130638e+002, 8.983350e+000
3.135459e+002, 8.846393e+000
3.140280e+002, 8.725368e+000
3.145101e+002, 8.774127e+000
3.149922e+002, 9.013380e+000
3.154744e+002, 9.231993e+000
3.159565e+002, 9.320314e+000
3.164386e+002, 9.335948e+000
3.169207e+002, 9.343708e+000
3.174028e+002, 9.425979e+000
3.178849e+002, 9.448838e+000
3.183671e+002, 9.315310e+000
3.188492e+002, 9.033604e+000
3.193313e+002, 8.803007e+000
3.198134e+002, 8.684748e+000
3.202955e+002, 8.646527e+000
3.207776e+002, 8.663358e+000
3.212598e+002, 8.757814e+000
3.217419e+002, 8.875837e+000
3.222240e+002, 9.062948e+000
3.227061e+002, 9.286988e+000
3.231882e+002, 9.381908e+000
3.236703e+002, 9.264585e+000
3.241525e+002, 9.044158e+000
3.246346e+002, 8.772367e+000
3.251167e+002, 8.261967e+000
3.255988e+002, 7.961440e+000
3.260809e+002, 8.042838e+000
3.265630e+002, 8.374474e+000
3.270452e+002, 8.595976e+000
3.275273e+002, 8.604215e+000
3.280094e+002, 8.568074e+000
3.284915e+002, 8.548845e+000
3.289736e+002, 8.579419e+000
3.294557e+002, 8.554040e+000
3.299379e+002, 8.447291e+000
3.304200e+002, 8.292047e+000
3.309021e+002, 8.137371e+000
3.313842e+002, 7.929189e+000
3.318663e+002, 7.792726e+000
3.323484e+002, 7.788871e+000
3.328306e+002, 7.950562e+000
3.333127e+002, 8.023863e+000
3.337948e+002, 7.961341e+000
3.342769e+002, 7.852618e+000
3.347590e+002, 7.814254e+000
3.352411e+002, 7.928466e+000
3.357233e+002, 7.914899e+000
3.362054e+002, 7.630475e+000
3.366875e+002, 7.107537e+000
3.371696e+002, 6.969718e+000
3.376517e+002, 7.391082e+000
3.381339e+002, 7.862855e+000
3.386160e+002, 7.897209e+000
3.390981e+002, 7.364972e+000
3.395802e+002, 7.063983e+000
3.400623e+002, 7.188910e+000
3.405444e+002, 7.586943e+000
3.410266e+002, 7.722524e+000
3.415087e+002, 7.557939e+000
3.419908e+002, 7.323877e+000
3.424729e+002, 7.128336e+000
3.429550e+002, 6.973070e+000
3.434371e+002, 6.943642e+000
3.439193e+002, 7.087966e+000
3.444014e+002, 7.284042e+000
3.448835e+002, 7.267007e+000
3.453656e+002, 7.038908e+000
3.458477e+002, 6.867511e+000
3.463298e+002, 6.978178e+000
3.468120e+002, 7.278323e+000
3.472941e+002, 7.338258e+000
3.477762e+002, 7.124985e+000
3.482583e+002, 6.800871e+000
3.487404e+002, 6.500277e+000
3.492225e+002, 6.236970e+000
3.497047e+002, 6.067797e+000
3.501868e+002, 5.981394e+000
3.506689e+002, 6.016635e+000
3.511510e+002, 6.350215e+000
3.516331e+002, 6.973076e+000
3.521152e+002, 7.509102e+000
3.525974e+002, 7.577336e+000
3.530795e+002, 7.345500e+000
3.535616e+002, 7.126370e+000
3.540437e+002, 7.032564e+000
3.545258e+002, 6.951907e+000
3.550079e+002, 6.693965e+000
3.554901e+002, 6.317600e+000
3.559722e+002, 6.080206e+000
3.564543e+002, 6.268559e+000
3.569364e+002, 6.615858e+000
3.574185e+002, 6.855587e+000
3.579006e+002, 6.929880e+000
3.583828e+002, 6.918573e+000
3.588649e+002, 6.819981e+000
3.593470e+002, 6.673265e+000
3.598291e+002, 6.556940e+000
3.603112e+002, 6.493686e+000
3.607933e+002, 6.479846e+000
3.612755e+002, 6.541957e+000
3.617576e+002, 6.700531e+000
3.622397e+002, 6.797115e+000
3.627218e+002, 6.710446e+000
3.632039e+002, 6.551673e+000
3.636860e+002, 6.444869e+000
3.641682e+002, 6.502423e+000
3.646503e+002, 6.538299e+000
3.651324e+002, 6.453700e+000
3.656145e+002, 6.255352e+000
3.660966e+002, 6.153563e+000
3.665787e+002, 6.309897e+000
3.670609e+002, 6.494098e+000
3.675430e+002, 6.558634e+000
3.680251e+002, 6.193352e+000
3.685072e+002, 6.062930e+000
3.689893e+002, 6.429657e+000
3.694714e+002, 7.097006e+000
3.699536e+002, 7.400855e+000
3.704357e+002, 7.042529e+000
3.709178e+002, 6.634852e+000
3.713999e+002, 6.427797e+000
3.718820e+002, 6.516377e+000
3.723641e+002, 6.560102e+000
3.728463e+002, 6.567156e+000
3.733284e+002, 6.523743e+000
3.738105e+002, 6.388585e+000
3.742926e+002, 6.093733e+000
3.747747e+002, 5.861106e+000
3.752568e+002, 5.770908e+000
3.757390e+002, 5.824779e+000
3.762211e+002, 5.837491e+000
3.767032e+002, 5.799947e+000
3.771853e+002, 5.740198e+000
3.776674e+002, 5.685175e+000
3.781495e+002, 5.636584e+000
3.786317e+002, 5.573903e+000
3.791138e+002, 5.488419e+000
3.795959e+002, 5.388820e+000
3.800780e+002, 5.277921e+000
3.805601e+002, 5.149831e+000
3.810422e+002, 5.084629e+000
3.815244e+002, 5.209002e+000
3.820065e+002, 5.471763e+000
3.824886e+002, 5.565509e+000
3.829707e+002, 5.433839e+000
3.834528e+002, 5.204297e+000
3.839349e+002, 4.956803e+000
3.844171e+002, 4.729462e+000
3.848992e+002, 4.719366e+000
3.853813e+002, 5.260780e+000
3.858634e+002, 6.006697e+000
3.863455e+002, 6.333523e+000
3.868276e+002, 6.209259e+000
3.873098e+002, 5.957228e+000
3.877919e+002, 5.823237e+000
3.882740e+002, 5.757430e+000
3.887561e+002, 5.665075e+000
3.892382e+002, 5.409010e+000
3.897203e+002, 5.215914e+000
3.902025e+002, 5.362718e+000
3.906846e+002, 5.776917e+000
3.911667e+002, 6.120523e+000
3.916488e+002, 6.158261e+000
3.921309e+002, 6.065657e+000
3.926130e+002, 5.987186e+000
3.930952e+002, 5.960892e+000
3.935773e+002, 5.932087e+000
3.940594e+002, 5.897827e+000
3.945415e+002, 5.843921e+000
3.950236e+002, 5.743974e+000
3.955057e+002, 5.463832e+000
3.959879e+002, 5.246745e+000
3.964700e+002, 5.223862e+000
3.969521e+002, 5.441044e+000
3.974342e+002, 5.608886e+000
3.979163e+002, 5.678905e+000
3.983984e+002, 5.682005e+000
3.988806e+002, 5.646377e+000
3.993627e+002, 5.588454e+000
3.998448e+002, 5.473467e+000
4.003269e+002, 5.263114e+000
4.008090e+002, 4.974858e+000
4.012911e+002, 4.743389e+000
4.017733e+002, 4.537613e+000
4.022554e+002, 4.422171e+000
4.027375e+002, 4.452860e+000
4.032196e+002, 4.731181e+000
4.037017e+002, 4.890845e+000
4.041838e+002, 4.870187e+000
4.046660e+002, 4.772445e+000
4.051481e+002, 4.830115e+000
4.056302e+002, 5.117496e+000
4.061123e+002, 5.281041e+000
4.065944e+002, 5.110205e+000
4.070765e+002, 4.632326e+000
4.075587e+002, 4.511510e+000
4.080408e+002, 4.823339e+000
4.085229e+002, 5.199716e+000
4.090050e+002, 5.198467e+000
4.094871e+002, 4.852209e+000
4.099692e+002, 4.648831e+000
4.104514e+002, 4.740476e+000
4.109335e+002, 4.982264e+000
4.114156e+002, 5.079065e+000
4.118977e+002, 5.039578e+000
4.123798e+002, 4.975154e+000
4.128619e+002, 4.915699e+000
4.133441e+002, 4.891586e+000
4.138262e+002, 5.008374e+000
4.143083e+002, 5.316781e+000
4.147904e+002, 5.573034e+000
4.152725e+002, 5.466613e+000
4.157546e+002, 5.135601e+000
4.162368e+002, 4.863461e+000
4.167189e+002, 4.813639e+000
4.172010e+002, 4.850100e+000
4.176831e+002, 4.871223e+000
4.181652e+002, 4.876447e+000
4.186473e+002, 4.899552e+000
4.191295e+002, 5.035068e+000
4.196116e+002, 5.158309e+000
4.200937e+002, 5.150002e+000
4.205758e+002, 4.887741e+000
4.210579e+002, 4.627498e+000
4.215400e+002, 4.390679e+000
4.220222e+002, 4.213037e+000
4.225043e+002, 4.175985e+000
4.229864e+002, 4.535022e+000
4.234685e+002, 4.832705e+000
4.239506e+002, 4.831080e+000
4.244327e+002, 4.344052e+000
4.249149e+002, 4.150625e+000
4.253970e+002, 4.554862e+000
4.258791e+002, 5.109740e+000
4.263612e+002, 5.367190e+000
4.268433e+002, 5.101174e+000
4.273254e+002, 4.894722e+000
4.278076e+002, 4.852212e+000
4.282897e+002, 4.947758e+000
4.287718e+002, 5.005865e+000
4.292539e+002, 5.030410e+000
4.297360e+002, 5.008896e+000
4.302181e+002, 4.899196e+000
4.307003e+002, 4.668220e+000
4.311824e+002, 4.583676e+000
4.316645e+002, 4.689770e+000
4.321466e+002, 4.888762e+000
4.326287e+002, 5.032282e+000
4.331108e+002, 5.119181e+000
4.335930e+002, 5.154840e+000
4.340751e+002, 5.131606e+000
4.345572e+002, 5.059916e+000
4.350393e+002, 4.955513e+000
4.355214e+002, 4.817292e+000
4.360035e+002, 4.702756e+000
4.364857e+002, 4.712652e+000
4.369678e+002, 4.785873e+000
4.374499e+002, 4.750754e+000
4.379320e+002, 4.506790e+000
4.384141e+002, 4.269218e+000
4.388962e+002, 4.392754e+000
4.393784e+002, 4.738551e+000
4.398605e+002, 4.899157e+000
4.403426e+002, 4.318980e+000
4.408247e+002, 3.674146e+000
4.413068e+002, 3.640249e+000
4.417889e+002, 4.330410e+000
4.422711e+002, 4.911082e+000
4.427532e+002, 4.808826e+000
4.432353e+002, 4.442983e+000
4.437174e+002, 4.249091e+000
4.441995e+002, 4.544547e+000
4.446816e+002, 4.821761e+000
4.451638e+002, 4.961822e+000
4.456459e+002, 4.971843e+000
4.461280e+002, 4.898776e+000
4.466101e+002, 4.556296e+000
4.470922e+002, 4.291720e+000
4.475743e+002, 4.311244e+000
4.480565e+002, 4.877604e+000
4.485386e+002, 5.046947e+000
4.490207e+002, 4.504157e+000
4.495028e+002, 3.761611e+000
4.499849e+002, 3.512865e+000
4.504670e+002, 3.976467e+000
4.509492e+002, 4.447706e+000
4.514313e+002, 4.817474e+000
4.519134e+002, 5.076136e+000
4.523955e+002, 5.086610e+000
4.528776e+002, 4.782648e+000
4.533597e+002, 4.460837e+000
4.538419e+002, 4.319909e+000
4.543240e+002, 4.357943e+000
4.548061e+002, 4.489421e+000
4.552882e+002, 4.744974e+000
4.557703e+002, 4.990343e+000
4.562524e+002, 4.951695e+000
4.567346e+002, 4.676463e+000
4.572167e+002, 4.486072e+000
4.576988e+002, 4.616037e+000
4.581809e+002, 4.870491e+000
4.586630e+002, 4.900943e+000
4.591451e+002, 4.716844e+000
4.596273e+002, 4.473838e+000
4.601094e+002, 4.196422e+000
4.605915e+002, 3.965217e+000
4.610736e+002, 3.910018e+000
4.615557e+002, 4.139521e+000
4.620378e+002, 4.369233e+000
4.625200e+002, 4.414077e+000
4.630021e+002, 4.327902e+000
4.634842e+002, 4.214060e+000
4.639663e+002, 4.089004e+000
4.644484e+002, 3.965415e+000
4.649305e+002, 3.811180e+000
4.654127e+002, 3.615841e+000
4.658948e+002, 3.571701e+000
4.663769e+002, 3.877903e+000
4.668590e+002, 4.254443e+000
4.673411e+002, 4.497904e+000
4.678232e+002, 4.469015e+000
4.683054e+002, 4.481965e+000
4.687875e+002, 4.602751e+000
4.692696e+002, 4.761857e+000
4.697517e+002, 4.777438e+000
4.702338e+002, 4.583379e+000
4.707159e+002, 4.365501e+000
4.711981e+002, 4.173297e+000
4.716802e+002, 4.005044e+000
4.721623e+002, 3.908735e+000
4.726444e+002, 3.889492e+000
4.731265e+002, 3.930064e+000
4.736086e+002, 4.044316e+000
4.740908e+002, 4.230152e+000
4.745729e+002, 4.360358e+000
4.750550e+002, 4.410162e+000
4.755371e+002, 4.395976e+000
4.760192e+002, 4.324843e+000
4.765013e+002, 4.204317e+000
4.769835e+002, 4.096612e+000
4.774656e+002, 4.001458e+000
4.779477e+002, 3.951897e+000
4.784298e+002, 4.068336e+000
4.789119e+002, 4.362279e+000
4.793940e+002, 4.556139e+000
4.798762e+002, 4.311460e+000
4.803583e+002, 3.872650e+000
4.808404e+002, 3.563236e+000
4.813225e+002, 3.517077e+000
4.818046e+002, 3.561274e+000
4.822867e+002, 3.659328e+000
4.827689e+002, 3.783040e+000
4.832510e+002, 3.859719e+000
4.837331e+002, 3.823652e+000
4.842152e+002, 3.771470e+000
4.846973e+002, 3.744926e+000
4.851794e+002, 3.751184e+000
4.856616e+002, 3.760546e+000
4.861437e+002, 3.721793e+000
4.866258e+002, 3.715237e+000
4.871079e+002, 3.819319e+000
4.875900e+002, 4.204093e+000
4.880721e+002, 4.390897e+000
4.885543e+002, 4.269382e+000
4.890364e+002, 3.944997e+000
4.895185e+002, 3.694024e+000
4.900006e+002, 3.496064e+000
4.904827e+002, 3.448088e+000
4.909648e+002, 3.693900e+000
4.914470e+002, 4.206569e+000
4.919291e+002, 4.331506e+000
4.924112e+002, 4.000192e+000
4.928933e+002, 3.607292e+000
4.933754e+002, 3.626426e+000
4.938575e+002, 3.953002e+000
4.943397e+002, 4.100914e+000
4.948218e+002, 3.894507e+000
4.953039e+002, 3.595914e+000
4.957860e+002, 3.594504e+000
4.962681e+002, 3.815913e+000
4.967502e+002, 4.005526e+000
4.972324e+002, 3.935288e+000
4.977145e+002, 3.829492e+000
4.981966e+002, 3.957602e+000
4.986787e+002, 4.334989e+000
4.991608e+002, 4.606749e+000
4.996429e+002, 4.516049e+000
5.001251e+002, 4.273748e+000
5.006072e+002, 4.060988e+000
5.010893e+002, 3.896038e+000
5.015714e+002, 3.798701e+000
5.020535e+002, 3.844426e+000
5.025356e+002, 3.957784e+000
5.030178e+002, 3.966422e+000
5.034999e+002, 3.737355e+000
5.039820e+002, 3.531613e+000
5.044641e+002, 3.410845e+000
5.049462e+002, 3.375779e+000
5.054283e+002, 3.391371e+000
5.059105e+002, 3.479400e+000
5.063926e+002, 3.584438e+000
5.068747e+002, 3.653948e+000
5.073568e+002, 3.674066e+000
5.078389e+002, 3.784418e+000
5.083210e+002, 4.060894e+000
5.088032e+002, 4.319665e+000
5.092853e+002, 4.141431e+000
5.097674e+002, 3.557336e+000
5.102495e+002, 3.088198e+000
5.107316e+002, 2.983857e+000
5.112137e+002, 3.118328e+000
5.116959e+002, 3.290621e+000
5.121780e+002, 3.488192e+000
5.126601e+002, 3.567035e+000
5.131422e+002, 3.243404e+000
5.136243e+002, 2.809116e+000
5.141064e+002, 2.674577e+000
5.145886e+002, 2.984566e+000
5.150707e+002, 3.326354e+000
5.155528e+002, 3.431625e+000
5.160349e+002, 3.409957e+000
5.165170e+002, 3.421812e+000
5.169991e+002, 3.630207e+000
5.174813e+002, 3.766285e+000
5.179634e+002, 3.680470e+000
5.184455e+002, 3.407161e+000
5.189276e+002, 3.236785e+000
5.194097e+002, 3.226348e+000
5.198918e+002, 3.309657e+000
5.203740e+002, 3.494989e+000
5.208561e+002, 3.875921e+000
5.213382e+002, 4.032067e+000
5.218203e+002, 3.831010e+000
5.223024e+002, 3.558228e+000
5.227845e+002, 3.601367e+000
5.232667e+002, 4.051143e+000
5.237488e+002, 4.286905e+000
5.242309e+002, 4.117726e+000
5.247130e+002, 3.722312e+000
5.251951e+002, 3.533775e+000
5.256772e+002, 3.549585e+000
5.261594e+002, 3.654578e+000
5.266415e+002, 3.847955e+000
5.271236e+002, 4.072624e+000
5.276057e+002, 4.192359e+000
5.280878e+002, 4.202066e+000
5.285699e+002, 4.164589e+000
5.290521e+002, 4.142417e+000
5.295342e+002, 4.100787e+000
5.300163e+002, 3.980850e+000
5.304984e+002, 3.709500e+000
5.309805e+002, 3.466055e+000
5.314626e+002, 3.319130e+000
5.319448e+002, 3.274537e+000
5.324269e+002, 3.343250e+000
5.329090e+002, 3.793883e+000
5.333911e+002, 4.100195e+000
5.338732e+002, 3.961665e+000
5.343553e+002, 3.349518e+000
5.348375e+002, 3.066161e+000
5.353196e+002, 3.436728e+000
5.358017e+002, 3.834756e+000
5.362838e+002, 3.892888e+000
5.367659e+002, 3.437894e+000
5.372480e+002, 3.119522e+000
5.377302e+002, 2.937207e+000
5.382123e+002, 2.899901e+000
5.386944e+002, 3.092805e+000
5.391765e+002, 3.542259e+000
5.396586e+002, 3.863482e+000
5.401407e+002, 3.923332e+000
5.406229e+002, 3.812765e+000
5.411050e+002, 3.708003e+000
5.415871e+002, 3.612530e+000
5.420692e+002, 3.561433e+000
5.425513e+002, 3.592588e+000
5.430334e+002, 3.675956e+000
5.435156e+002, 3.795981e+000
5.439977e+002, 3.956036e+000
5.444798e+002, 4.041953e+000
5.449619e+002, 3.954484e+000
5.454440e+002, 3.756127e+000
5.459261e+002, 3.504021e+000
5.464083e+002, 3.093616e+000
5.468904e+002, 2.804024e+000
5.473725e+002, 2.820033e+000
5.478546e+002, 3.019623e+000
5.483367e+002, 3.141855e+000
5.488188e+002, 2.972520e+000
5.493010e+002, 2.914347e+000
5.497831e+002, 3.171613e+000
5.502652e+002, 3.735078e+000
5.507473e+002, 3.878736e+000
5.512294e+002, 3.373176e+000
5.517115e+002, 2.835489e+000
5.521937e+002, 2.681735e+000
5.526758e+002, 2.962218e+000
5.531579e+002, 3.142756e+000
5.536400e+002, 3.186585e+000
5.541221e+002, 3.169653e+000
5.546042e+002, 3.154810e+000
5.550864e+002, 3.154270e+000
5.555685e+002, 3.257950e+000
5.560506e+002, 3.547039e+000
5.565327e+002, 3.880967e+000
5.570148e+002, 4.086095e+000
5.574969e+002, 4.168763e+000
5.579791e+002, 4.152547e+000
5.584612e+002, 3.940545e+000
5.589433e+002, 3.710577e+000
5.594254e+002, 3.627183e+000
5.599075e+002, 3.702958e+000
5.603896e+002, 3.777056e+000
5.608718e+002, 3.754310e+000
5.613539e+002, 3.722316e+000
5.618360e+002, 3.755015e+000
5.623181e+002, 4.055296e+000
5.628002e+002, 4.118107e+000
5.632823e+002, 3.701209e+000
5.637645e+002, 3.129997e+000
5.642466e+002, 2.929285e+000
5.647287e+002, 3.298971e+000
5.652108e+002, 3.590318e+000
5.656929e+002, 3.638022e+000
5.661750e+002, 3.495998e+000
5.666572e+002, 3.403918e+000
5.671393e+002, 3.367096e+000
5.676214e+002, 3.345542e+000
5.681035e+002, 3.294002e+000
5.685856e+002, 3.235335e+000
5.690677e+002, 3.287679e+000
5.695499e+002, 3.462724e+000
5.700320e+002, 3.617232e+000
5.705141e+002, 3.629830e+000
5.709962e+002, 3.527647e+000
5.714783e+002, 3.328176e+000
5.719604e+002, 2.943528e+000
5.724426e+002, 2.652883e+000
5.729247e+002, 2.704001e+000
5.734068e+002, 2.961278e+000
5.738889e+002, 3.183146e+000
5.743710e+002, 3.281102e+000
5.748531e+002, 3.339528e+000
5.753353e+002, 3.387827e+000
5.758174e+002, 3.424288e+000
5.762995e+002, 3.416507e+000
5.767816e+002, 3.310594e+000
5.772637e+002, 3.225076e+000
5.777458e+002, 3.247242e+000
5.782280e+002, 3.438301e+000
5.787101e+002, 3.355327e+000
5.791922e+002, 2.876107e+000
5.796743e+002, 2.391198e+000
5.801564e+002, 2.373014e+000
5.806385e+002, 2.793287e+000
5.811207e+002, 3.157859e+000
5.816028e+002, 3.392584e+000
5.820849e+002, 3.503888e+000
5.825670e+002, 3.430970e+000
5.830491e+002, 3.229806e+000
5.835313e+002, 3.078075e+000
5.840134e+002, 3.126190e+000
5.844955e+002, 3.215449e+000
5.849776e+002, 3.211077e+000
5.854597e+002, 3.119923e+000
5.859418e+002, 2.986276e+000
5.864240e+002, 2.619090e+000
5.869061e+002, 2.378890e+000
5.873882e+002, 2.579869e+000
5.878703e+002, 3.463658e+000
5.883524e+002, 3.958126e+000
5.888345e+002, 3.545924e+000
5.893167e+002, 2.950459e+000
5.897988e+002, 2.749485e+000
5.902809e+002, 3.180575e+000
5.907630e+002, 3.462098e+000
5.912451e+002, 3.517915e+000
5.917272e+002, 3.420449e+000
5.922094e+002, 3.251399e+000
5.926915e+002, 2.999325e+000
5.931736e+002, 2.887849e+000
5.936557e+002, 3.051957e+000
5.941378e+002, 3.366593e+000
5.946199e+002, 3.562381e+000
5.951021e+002, 3.639784e+000
5.955842e+002, 3.616002e+000
5.960663e+002, 3.402841e+000
5.965484e+002, 3.146201e+000
5.970305e+002, 3.023510e+000
5.975126e+002, 3.052297e+000
5.979948e+002, 3.110113e+000
5.984769e+002, 3.121246e+000
5.989590e+002, 3.134997e+000
5.994411e+002, 3.203351e+000
5.999232e+002, 3.443751e+000
6.004053e+002, 3.561884e+000
6.008875e+002, 3.409035e+000
6.013696e+002, 3.145783e+000
6.018517e+002, 2.995123e+000
6.023338e+002, 3.007645e+000
6.028159e+002, 3.042834e+000
6.032980e+002, 3.108388e+000
6.037802e+002, 3.168175e+000
6.042623e+002, 3.036797e+000
6.047444e+002, 2.681700e+000
6.052265e+002, 2.422383e+000
6.057086e+002, 2.495094e+000
6.061907e+002, 2.796479e+000
6.066729e+002, 2.960526e+000
6.071550e+002, 2.989138e+000
6.076371e+002, 3.000064e+000
6.081192e+002, 3.164051e+000
6.086013e+002, 3.334630e+000
6.090834e+002, 3.266478e+000
6.095656e+002, 2.843020e+000
6.100477e+002, 2.508406e+000
6.105298e+002, 2.571297e+000
6.110119e+002, 2.827182e+000
6.114940e+002, 3.047832e+000
6.119761e+002, 3.232821e+000
6.124583e+002, 3.315480e+000
6.129404e+002, 3.262166e+000
6.134225e+002, 3.105387e+000
6.139046e+002, 2.884559e+000
6.143867e+002, 2.504409e+000
6.148688e+002, 2.275643e+000
6.153510e+002, 2.338314e+000
6.158331e+002, 2.633755e+000
6.163152e+002, 2.769560e+000
6.167973e+002, 2.728318e+000
6.172794e+002, 2.695734e+000
6.177615e+002, 2.831190e+000
6.182437e+002, 3.069347e+000
6.187258e+002, 3.240614e+000
6.192079e+002, 3.337983e+000
6.196900e+002, 3.363636e+000
6.201721e+002, 3.253798e+000
6.206542e+002, 3.099890e+000
6.211364e+002, 3.015883e+000
6.216185e+002, 3.033614e+000
6.221006e+002, 3.109593e+000
6.225827e+002, 3.328118e+000
6.230648e+002, 3.562115e+000
6.235469e+002, 3.634034e+000
6.240291e+002, 3.401344e+000
6.245112e+002, 3.131828e+000
6.249933e+002, 2.787915e+000
6.254754e+002, 2.437177e+000
6.259575e+002, 2.328455e+000
6.264396e+002, 2.518482e+000
6.269218e+002, 2.786186e+000
6.274039e+002, 3.093227e+000
6.278860e+002, 3.413161e+000
6.283681e+002, 3.572004e+000
6.288502e+002, 3.566741e+000
6.293323e+002, 3.483868e+000
6.298145e+002, 3.381843e+000
6.302966e+002, 3.249438e+000
6.307787e+002, 3.040902e+000
6.312608e+002, 2.744774e+000
6.317429e+002, 2.470811e+000
6.322250e+002, 2.226412e+000
6.327072e+002, 2.081923e+000
6.331893e+002, 2.122033e+000
6.336714e+002, 2.476467e+000
6.341535e+002, 2.830921e+000
6.346356e+002, 3.204673e+000
6.351177e+002, 3.498525e+000
6.355999e+002, 3.549882e+000
6.360820e+002, 3.125380e+000
6.365641e+002, 2.847187e+000
6.370462e+002, 2.889768e+000
6.375283e+002, 3.127149e+000
6.380104e+002, 3.102377e+000
6.384926e+002, 2.767060e+000
6.389747e+002, 2.476582e+000
6.394568e+002, 2.399066e+000
6.399389e+002, 2.485686e+000
6.404210e+002, 2.589657e+000
6.409031e+002, 2.711001e+000
6.413853e+002, 2.834547e+000
6.418674e+002, 2.960505e+000
6.423495e+002, 3.077519e+000
6.428316e+002, 3.186131e+000
6.433137e+002, 3.293823e+000
6.437958e+002, 3.322315e+000
6.442780e+002, 3.119241e+000
6.447601e+002, 2.882526e+000
6.452422e+002, 2.791934e+000
6.457243e+002, 3.032292e+000
6.462064e+002, 3.180013e+000
6.466885e+002, 3.195781e+000
6.471707e+002, 3.120590e+000
6.476528e+002, 2.990284e+000
6.481349e+002, 2.764386e+000
6.486170e+002, 2.613111e+000
6.490991e+002, 2.576244e+000
6.495812e+002, 2.621469e+000
6.500634e+002, 2.689479e+000
6.505455e+002, 2.777998e+000
6.510276e+002, 2.844425e+000
6.515097e+002, 2.830125e+000
6.519918e+002, 2.806231e+000
6.524739e+002, 2.939837e+000
6.529561e+002, 3.188895e+000
6.534382e+002, 3.341486e+000
6.539203e+002, 3.180619e+000
6.544024e+002, 2.948133e+000
6.548845e+002, 2.800864e+000
6.553666e+002, 2.759225e+000
6.558488e+002, 2.749248e+000
6.563309e+002, 2.762060e+000
6.568130e+002, 2.796930e+000
6.572951e+002, 2.863244e+000
6.577772e+002, 3.008516e+000
6.582593e+002, 3.055432e+000
6.587415e+002, 2.991231e+000
6.592236e+002, 2.849331e+000
6.597057e+002, 2.617563e+000
6.601878e+002, 2.301081e+000
6.606699e+002, 2.131621e+000
6.611520e+002, 2.178952e+000
6.616342e+002, 2.324056e+000
6.621163e+002, 2.393632e+000
6.625984e+002, 2.425513e+000
6.630805e+002, 2.523369e+000
6.635626e+002, 2.838307e+000
6.640447e+002, 3.120887e+000
6.645269e+002, 3.173985e+000
6.650090e+002, 3.050681e+000
6.654911e+002, 2.908746e+000
6.659732e+002, 2.783299e+000
6.664553e+002, 2.660573e+000
6.669374e+002, 2.491422e+000
6.674196e+002, 2.287099e+000
6.679017e+002, 2.274906e+000
6.683838e+002, 2.555953e+000
6.688659e+002, 2.839343e+000
6.693480e+002, 2.964949e+000
6.698301e+002, 2.935656e+000
6.703123e+002, 2.980702e+000
6.707944e+002, 3.112097e+000
6.712765e+002, 3.227196e+000
6.717586e+002, 3.222770e+000
6.722407e+002, 3.137255e+000
6.727228e+002, 3.040274e+000
6.732050e+002, 2.930918e+000
6.736871e+002, 2.873801e+000
6.741692e+002, 2.998932e+000
6.746513e+002, 3.168397e+000
6.751334e+002, 3.217529e+000
6.756155e+002, 3.032950e+000
6.760977e+002, 2.834347e+000
6.765798e+002, 2.591234e+000
6.770619e+002, 2.392597e+000
6.775440e+002, 2.392478e+000
6.780261e+002, 2.735653e+000
6.785082e+002, 2.961272e+000
6.789904e+002, 2.946989e+000
6.794725e+002, 2.798506e+000
6.799546e+002, 2.804637e+000
6.804367e+002, 2.966717e+000
6.809188e+002, 3.121231e+000
6.814009e+002, 3.187693e+000
6.818831e+002, 3.209593e+000
6.823652e+002, 3.319472e+000
6.828473e+002, 3.479492e+000
6.833294e+002, 3.495941e+000
6.838115e+002, 3.025696e+000
6.842936e+002, 2.546931e+000
6.847758e+002, 2.447194e+000
6.852579e+002, 2.749132e+000
6.857400e+002, 3.022582e+000
6.862221e+002, 3.262207e+000
6.867042e+002, 3.347648e+000
6.871863e+002, 3.177228e+000
6.876685e+002, 2.644429e+000
6.881506e+002, 2.329835e+000
6.886327e+002, 2.277546e+000
6.891148e+002, 2.343219e+000
6.895969e+002, 2.426493e+000
6.900790e+002, 2.524261e+000
6.905612e+002, 2.571295e+000
6.910433e+002, 2.554098e+000
6.915254e+002, 2.520793e+000
6.920075e+002, 2.507267e+000
6.924896e+002, 2.521081e+000
6.929717e+002, 2.583123e+000
6.934539e+002, 2.726527e+000
6.939360e+002, 2.863685e+000
6.944181e+002, 2.924060e+000
6.949002e+002, 2.949694e+000
6.953823e+002, 3.006129e+000
6.958644e+002, 3.149474e+000
6.963466e+002, 3.274034e+000
6.968287e+002, 3.386590e+000
6.973108e+002, 3.466314e+000
6.977929e+002, 3.439792e+000
6.982750e+002, 3.273496e+000
6.987571e+002, 3.131361e+000
6.992393e+002, 3.088571e+000
6.997214e+002, 3.093672e+000
7.002035e+002, 2.954411e+000
7.006856e+002, 2.691025e+000
7.011677e+002, 2.485783e+000
7.016498e+002, 2.492789e+000
7.021320e+002, 2.585593e+000
7.026141e+002, 2.623412e+000
7.030962e+002, 2.608668e+000
7.035783e+002, 2.599650e+000
7.040604e+002, 2.606478e+000
7.045425e+002, 2.640625e+000
7.050247e+002, 2.716245e+000
7.055068e+002, 2.844751e+000
7.059889e+002, 2.958447e+000
7.064710e+002, 3.059195e+000
7.069531e+002, 3.142196e+000
7.074352e+002, 3.199251e+000
7.079174e+002, 3.227407e+000
7.083995e+002, 3.259503e+000
7.088816e+002, 3.295192e+000
7.093637e+002, 3.339209e+000
7.098458e+002, 3.442268e+000
7.103279e+002, 3.554026e+000
7.108101e+002, 3.539757e+000
7.112922e+002, 3.359802e+000
7.117743e+002, 3.123255e+000
7.122564e+002, 2.791423e+000
7.127385e+002, 2.498257e+000
7.132206e+002, 2.412707e+000
7.137028e+002, 2.842854e+000
7.141849e+002, 3.118623e+000
7.146670e+002, 3.013063e+000
7.151491e+002, 2.726088e+000
7.156312e+002, 2.503457e+000
7.161133e+002, 2.333011e+000
7.165955e+002, 2.276017e+000
7.170776e+002, 2.373448e+000
7.175597e+002, 2.554711e+000
7.180418e+002, 2.697153e+000
7.185239e+002, 2.796924e+000
7.190060e+002, 2.799019e+000
7.194882e+002, 2.627614e+000
7.199703e+002, 2.407784e+000
7.204524e+002, 2.253313e+000
7.209345e+002, 2.174376e+000
7.214166e+002, 2.196290e+000
7.218987e+002, 2.514518e+000
7.223809e+002, 2.763000e+000
7.228630e+002, 2.655943e+000
7.233451e+002, 2.254796e+000
7.238272e+002, 2.133287e+000
7.243093e+002, 2.536590e+000
7.247914e+002, 2.884150e+000
7.252736e+002, 2.922299e+000
7.257557e+002, 2.687474e+000
7.262378e+002, 2.678509e+000
7.267199e+002, 2.928040e+000
7.272020e+002, 3.123703e+000
7.276841e+002, 2.955486e+000
7.281663e+002, 2.609368e+000
7.286484e+002, 2.526985e+000
7.291305e+002, 2.714697e+000
7.296126e+002, 2.929001e+000
7.300947e+002, 3.062312e+000
7.305768e+002, 3.114834e+000
7.310590e+002, 3.070441e+000
7.315411e+002, 2.908746e+000
7.320232e+002, 2.749396e+000
7.325053e+002, 2.582760e+000
7.329874e+002, 2.450804e+000
7.334695e+002, 2.375427e+000
7.339517e+002, 2.353347e+000
7.344338e+002, 2.423490e+000
7.349159e+002, 2.619397e+000
7.353980e+002, 2.813037e+000
7.358801e+002, 2.825742e+000
7.363622e+002, 2.709701e+000
7.368444e+002, 2.698875e+000
7.373265e+002, 2.847057e+000
7.378086e+002, 3.013254e+000
7.382907e+002, 3.076733e+000
7.387728e+002, 3.072903e+000
7.392549e+002, 3.048084e+000
7.397371e+002, 3.028435e+000
7.402192e+002, 2.965090e+000
7.407013e+002, 2.805204e+000
7.411834e+002, 2.610122e+000
7.416655e+002, 2.455373e+000
7.421476e+002, 2.336798e+000
7.426298e+002, 2.267319e+000
7.431119e+002, 2.236482e+000
7.435940e+002, 2.271495e+000
7.440761e+002, 2.487257e+000
7.445582e+002, 2.854946e+000
7.450403e+002, 3.085193e+000
7.455225e+002, 3.041768e+000
7.460046e+002, 2.909167e+000
7.464867e+002, 2.929431e+000
7.469688e+002, 3.034195e+000
7.474509e+002, 3.076061e+000
7.479330e+002, 2.912385e+000
7.484152e+002, 2.760476e+000
7.488973e+002, 2.726251e+000
7.493794e+002, 2.771966e+000
7.498615e+002, 2.767226e+000
7.503436e+002, 2.662669e+000
7.508257e+002, 2.591462e+000
7.513079e+002, 2.594320e+000
7.517900e+002, 2.651477e+000
7.522721e+002, 2.695761e+000
7.527542e+002, 2.727442e+000
7.532363e+002, 2.753472e+000
7.537184e+002, 2.791251e+000
7.542006e+002, 2.816007e+000
7.546827e+002, 2.776357e+000
7.551648e+002, 2.684803e+000
7.556469e+002, 2.595073e+000
7.561290e+002, 2.464889e+000
7.566111e+002, 2.406440e+000
7.570933e+002, 2.582140e+000
7.575754e+002, 2.963593e+000
7.580575e+002, 3.039042e+000
7.585396e+002, 2.541742e+000
7.590217e+002, 2.101641e+000
7.595038e+002, 1.955950e+000
7.599860e+002, 2.087126e+000
7.604681e+002, 2.335248e+000
7.609502e+002, 2.715297e+000
7.614323e+002, 3.017275e+000
7.619144e+002, 3.078670e+000
7.623965e+002, 2.975906e+000
7.628787e+002, 2.805921e+000
7.633608e+002, 2.583079e+000
7.638429e+002, 2.408088e+000
7.643250e+002, 2.273425e+000
7.648071e+002, 2.262486e+000
7.652892e+002, 2.529477e+000
7.657714e+002, 3.160393e+000
7.662535e+002, 3.428790e+000
7.667356e+002, 3.069416e+000
7.672177e+002, 2.645759e+000
7.676998e+002, 2.478327e+000
7.681819e+002, 2.584102e+000
7.686641e+002, 2.625877e+000
7.691462e+002, 2.595943e+000
7.696283e+002, 2.558397e+000
7.701104e+002, 2.618298e+000
7.705925e+002, 2.694188e+000
7.710746e+002, 2.562008e+000
7.715568e+002, 2.189737e+000
7.720389e+002, 1.946741e+000
7.725210e+002, 2.207279e+000
7.730031e+002, 2.593113e+000
7.734852e+002, 2.810869e+000
7.739673e+002, 2.777263e+000
7.744495e+002, 2.707767e+000
7.749316e+002, 2.564724e+000
7.754137e+002, 2.445668e+000
7.758958e+002, 2.453404e+000
7.763779e+002, 2.606220e+000
7.768600e+002, 2.629922e+000
7.773422e+002, 2.502253e+000
7.778243e+002, 2.327549e+000
7.783064e+002, 2.160252e+000
7.787885e+002, 2.033537e+000
7.792706e+002, 2.037549e+000
7.797527e+002, 2.209968e+000
7.802349e+002, 2.361550e+000
7.807170e+002, 2.300828e+000
7.811991e+002, 2.214043e+000
7.816812e+002, 2.274379e+000
7.821633e+002, 2.627654e+000
7.826454e+002, 2.896958e+000
7.831276e+002, 3.084646e+000
7.836097e+002, 3.185596e+000
7.840918e+002, 3.177545e+000
7.845739e+002, 3.059272e+000
7.850560e+002, 2.910415e+000
7.855381e+002, 2.728537e+000
7.860203e+002, 2.577235e+000
7.865024e+002, 2.574521e+000
7.869845e+002, 2.639361e+000
7.874666e+002, 2.615069e+000
7.879487e+002, 2.426997e+000
7.884308e+002, 2.279502e+000
7.889130e+002, 2.247117e+000
7.893951e+002, 2.316378e+000
7.898772e+002, 2.482956e+000
7.903593e+002, 2.849574e+000
7.908414e+002, 3.129635e+000
7.913235e+002, 3.349202e+000
7.918057e+002, 3.438183e+000
7.922878e+002, 3.200887e+000
7.927699e+002, 2.670074e+000
7.932520e+002, 2.460057e+000
7.937341e+002, 2.709146e+000
7.942162e+002, 3.050592e+000
7.946984e+002, 3.097356e+000
7.951805e+002, 2.968638e+000
7.956626e+002, 2.861987e+000
7.961447e+002, 2.874141e+000
7.966268e+002, 2.798097e+000
7.971089e+002, 2.424924e+000
7.975911e+002, 1.995267e+000
7.980732e+002, 1.773878e+000
7.985553e+002, 1.816542e+000
7.990374e+002, 1.956644e+000
7.995195e+002, 2.235373e+000
8.000016e+002, 2.517596e+000
8.004838e+002, 2.637642e+000
8.009659e+002, 2.608978e+000
8.014480e+002, 2.481862e+000
8.019301e+002, 2.231128e+000
8.024122e+002, 2.033684e+000
8.028943e+002, 2.129943e+000
8.033765e+002, 2.359231e+000
8.038586e+002, 2.510415e+000
8.043407e+002, 2.491267e+000
8.048228e+002, 2.463098e+000
8.053049e+002, 2.435772e+000
8.057870e+002, 2.429180e+000
8.062692e+002, 2.468413e+000
8.067513e+002, 2.566101e+000
8.072334e+002, 2.649513e+000
8.077155e+002, 2.694858e+000
8.081976e+002, 2.771550e+000
8.086797e+002, 3.092259e+000
8.091619e+002, 3.518712e+000
8.096440e+002, 3.597414e+000
8.101261e+002, 3.149206e+000
8.106082e+002, 2.664912e+000
8.110903e+002, 2.522385e+000
8.115724e+002, 2.536296e+000
8.120546e+002, 2.502653e+000
8.125367e+002, 2.284012e+000
8.130188e+002, 2.184552e+000
8.135009e+002, 2.268803e+000
8.139830e+002, 2.423191e+000
8.144651e+002, 2.548405e+000
8.149473e+002, 2.649942e+000
8.154294e+002, 2.620883e+000
8.159115e+002, 2.427535e+000
8.163936e+002, 2.212126e+000
8.168757e+002, 2.076286e+000
8.173578e+002, 2.050435e+000
8.178400e+002, 2.250442e+000
8.183221e+002, 2.822748e+000
8.188042e+002, 3.190065e+000
8.192863e+002, 2.813605e+000
8.197684e+002, 2.251865e+000
8.202505e+002, 2.062842e+000
8.207327e+002, 2.524475e+000
8.212148e+002, 2.767408e+000
8.216969e+002, 2.719314e+000
8.221790e+002, 2.583289e+000
8.226611e+002, 2.561229e+000
8.231432e+002, 2.641910e+000
8.236254e+002, 2.784241e+000
8.241075e+002, 2.996390e+000
8.245896e+002, 3.160011e+000
8.250717e+002, 3.147073e+000
8.255538e+002, 3.034038e+000
8.260359e+002, 2.905758e+000
8.265181e+002, 2.782224e+000
8.270002e+002, 2.628279e+000
8.274823e+002, 2.341001e+000
8.279644e+002, 2.096892e+000
8.284465e+002, 2.013276e+000
8.289286e+002, 2.112944e+000
8.294108e+002, 2.299495e+000
8.298929e+002, 2.605735e+000
8.303750e+002, 2.848176e+000
8.308571e+002, 2.763617e+000
8.313392e+002, 2.510467e+000
8.318214e+002, 2.470827e+000
8.323035e+002, 2.692194e+000
8.327856e+002, 2.854403e+000
8.332677e+002, 2.623910e+000
8.337498e+002, 2.349471e+000
8.342319e+002, 2.326693e+000
8.347141e+002, 2.688302e+000
8.351962e+002, 2.868735e+000
8.356783e+002, 2.808895e+000
8.361604e+002, 2.667358e+000
8.366425e+002, 2.483181e+000
8.371246e+002, 2.273350e+000
8.376068e+002, 2.399493e+000
8.380889e+002, 2.866256e+000
8.385710e+002, 3.202297e+000
8.390531e+002, 2.803403e+000
8.395352e+002, 2.232250e+000
8.400173e+002, 2.165770e+000
8.404995e+002, 2.639516e+000
8.409816e+002, 3.024912e+000
8.414637e+002, 3.121839e+000
8.419458e+002, 3.066337e+000
8.424279e+002, 2.871204e+000
8.429100e+002, 2.541890e+000
8.433922e+002, 2.415585e+000
8.438743e+002, 2.528085e+000
8.443564e+002, 2.647282e+000
8.448385e+002, 2.585754e+000
8.453206e+002, 2.445032e+000
8.458027e+002, 2.515609e+000
8.462849e+002, 2.752396e+000
8.467670e+002, 2.900601e+000
8.472491e+002, 2.746719e+000
8.477312e+002, 2.528575e+000
8.482133e+002, 2.361155e+000
8.486954e+002, 2.249029e+000
8.491776e+002, 2.162246e+000
8.496597e+002, 2.068937e+000
8.501418e+002, 2.062117e+000
8.506239e+002, 2.189366e+000
8.511060e+002, 2.416588e+000
8.515881e+002, 2.720680e+000
8.520703e+002, 3.067081e+000
8.525524e+002, 3.157695e+000
8.530345e+002, 2.595149e+000
8.535166e+002, 1.942450e+000
8.539987e+002, 1.649622e+000
8.544808e+002, 1.671775e+000
8.549630e+002, 1.895805e+000
8.554451e+002, 2.662036e+000
8.559272e+002, 3.159855e+000
8.564093e+002, 3.156177e+000
8.568914e+002, 2.827089e+000
8.573735e+002, 2.510994e+000
8.578557e+002, 2.191266e+000
8.583378e+002, 2.115995e+000
8.588199e+002, 2.428293e+000
8.593020e+002, 2.852855e+000
8.597841e+002, 2.992570e+000
8.602662e+002, 2.932606e+000
8.607484e+002, 2.839648e+000
8.612305e+002, 2.717817e+000
8.617126e+002, 2.653309e+000
8.621947e+002, 2.723091e+000
8.626768e+002, 2.852022e+000
8.631589e+002, 2.948057e+000
8.636411e+002, 3.059925e+000
8.641232e+002, 2.965019e+000
8.646053e+002, 2.571065e+000
8.650874e+002, 2.141100e+000
8.655695e+002, 2.035840e+000
8.660516e+002, 2.180514e+000
8.665338e+002, 2.351691e+000
8.670159e+002, 2.519606e+000
8.674980e+002, 2.656223e+000
8.679801e+002, 2.767568e+000
8.684622e+002, 2.824665e+000
8.689443e+002, 2.790475e+000
8.694265e+002, 2.591298e+000
8.699086e+002, 2.461108e+000
8.703907e+002, 2.399764e+000
8.708728e+002, 2.409281e+000
8.713549e+002, 2.570069e+000
8.718370e+002, 2.849940e+000
8.723192e+002, 2.781950e+000
8.728013e+002, 2.339920e+000
8.732834e+002, 1.957426e+000
8.737655e+002, 2.069318e+000
8.742476e+002, 2.365774e+000
8.747297e+002, 2.581442e+000
8.752119e+002, 2.692698e+000
8.756940e+002, 2.648858e+000
8.761761e+002, 2.210585e+000
8.766582e+002, 1.857583e+000
8.771403e+002, 1.819177e+000
8.776224e+002, 2.064782e+000
8.781046e+002, 2.129218e+000
8.785867e+002, 1.998659e+000
8.790688e+002, 1.977631e+000
8.795509e+002, 2.430065e+000
8.800330e+002, 2.993461e+000
8.805151e+002, 3.114305e+000
8.809973e+002, 2.878487e+000
8.814794e+002, 2.622356e+000
8.819615e+002, 2.408957e+000
8.824436e+002, 2.283959e+000
8.829257e+002, 2.296996e+000
8.834078e+002, 2.406909e+000
8.838900e+002, 2.523939e+000
8.843721e+002, 2.663802e+000
8.848542e+002, 2.716598e+000
8.853363e+002, 2.616397e+000
8.858184e+002, 2.469121e+000
8.863005e+002, 2.457046e+000
8.867827e+002, 2.548329e+000
8.872648e+002, 2.664465e+000
8.877469e+002, 2.806734e+000
8.882290e+002, 2.921909e+000
8.887111e+002, 3.025796e+000
8.891932e+002, 3.070235e+000
8.896754e+002, 2.972152e+000
8.901575e+002, 2.632220e+000
8.906396e+002, 2.427657e+000
8.911217e+002, 2.418953e+000
8.916038e+002, 2.480531e+000
8.920859e+002, 2.461957e+000
8.925681e+002, 2.384884e+000
8.930502e+002, 2.305059e+000
8.935323e+002, 2.226620e+000
8.940144e+002, 2.187593e+000
8.944965e+002, 2.253023e+000
8.949786e+002, 2.344546e+000
8.954608e+002, 2.386205e+000
8.959429e+002, 2.338861e+000
8.964250e+002, 2.377619e+000
8.969071e+002, 2.569676e+000
8.973892e+002, 2.712162e+000
8.978713e+002, 2.569730e+000
8.983535e+002, 2.229200e+000
8.988356e+002, 2.267777e+000
8.993177e+002, 2.665143e+000
8.997998e+002, 3.066533e+000
9.002819e+002, 3.307534e+000
9.007640e+002, 3.401917e+000
9.012462e+002, 3.305119e+000
9.017283e+002, 3.041516e+000
9.022104e+002, 2.826206e+000
9.026925e+002, 2.624211e+000
9.031746e+002, 2.591655e+000
9.036567e+002, 2.891196e+000
9.041389e+002, 3.328284e+000
9.046210e+002, 3.188098e+000
9.051031e+002, 2.536927e+000
9.055852e+002, 1.959909e+000
9.060673e+002, 1.659965e+000
9.065494e+002, 1.582861e+000
9.070316e+002, 1.815816e+000
9.075137e+002, 2.206303e+000
9.079958e+002, 2.488487e+000
9.084779e+002, 2.484558e+000
9.089600e+002, 2.519389e+000
9.094421e+002, 2.658736e+000
9.099243e+002, 2.808356e+000
9.104064e+002, 2.814514e+000
9.108885e+002, 2.688355e+000
9.113706e+002, 2.650497e+000
9.118527e+002, 2.747725e+000
9.123348e+002, 2.843789e+000
9.128170e+002, 2.823036e+000
9.132991e+002, 2.719864e+000
9.137812e+002, 2.545442e+000
9.142633e+002, 2.258441e+000
9.147454e+002, 2.093565e+000
9.152275e+002, 2.158847e+000
9.157097e+002, 2.263479e+000
9.161918e+002, 2.282478e+000
9.166739e+002, 2.218740e+000
9.171560e+002, 2.301515e+000
9.176381e+002, 2.531722e+000
9.181202e+002, 2.714710e+000
9.186024e+002, 2.629257e+000
9.190845e+002, 2.485619e+000
9.195666e+002, 2.556086e+000
9.200487e+002, 2.798133e+000
9.205308e+002, 2.934349e+000
9.210129e+002, 2.755218e+000
9.214951e+002, 2.620596e+000
9.219772e+002, 2.672072e+000
9.224593e+002, 2.809250e+000
9.229414e+002, 2.641332e+000
9.234235e+002, 2.179569e+000
9.239056e+002, 1.990221e+000
9.243878e+002, 2.392925e+000
9.248699e+002, 2.876376e+000
9.253520e+002, 2.789516e+000
9.258341e+002, 2.408119e+000
9.263162e+002, 2.173397e+000
9.267983e+002, 2.399822e+000
9.272805e+002, 2.479894e+000
9.277626e+002, 2.202913e+000
9.282447e+002, 1.901596e+000
9.287268e+002, 1.958716e+000
9.292089e+002, 2.376369e+000
9.296910e+002, 2.724959e+000
9.301732e+002, 2.980691e+000
9.306553e+002, 3.071414e+000
9.311374e+002, 2.753161e+000
9.316195e+002, 2.337987e+000
9.321016e+002, 2.210542e+000
9.325837e+002, 2.428750e+000
9.330659e+002, 2.585417e+000
9.335480e+002, 2.577741e+000
9.340301e+002, 2.497595e+000
9.345122e+002, 2.340855e+000
9.349943e+002, 2.134178e+000
9.354764e+002, 2.071290e+000
9.359586e+002, 2.150348e+000
9.364407e+002, 2.307591e+000
9.369228e+002, 2.590019e+000
9.374049e+002, 2.862687e+000
9.378870e+002, 3.008783e+000
9.383691e+002, 3.036139e+000
9.388513e+002, 2.959313e+000
9.393334e+002, 2.560987e+000
9.398155e+002, 2.375550e+000
9.402976e+002, 2.594334e+000
9.407797e+002, 2.929630e+000
9.412618e+002, 2.838752e+000
9.417440e+002, 2.369720e+000
9.422261e+002, 2.231112e+000
9.427082e+002, 2.596963e+000
9.431903e+002, 2.991924e+000
9.436724e+002, 2.912308e+000
9.441545e+002, 2.647271e+000
9.446367e+002, 2.508116e+000
9.451188e+002, 2.597922e+000
9.456009e+002, 2.586480e+000
9.460830e+002, 2.373389e+000
9.465651e+002, 2.171685e+000
9.470472e+002, 2.075836e+000
9.475294e+002, 2.093353e+000
9.480115e+002, 2.383173e+000
9.484936e+002, 2.913945e+000
9.489757e+002, 3.310189e+000
9.494578e+002, 3.293885e+000
9.499399e+002, 3.087541e+000
9.504221e+002, 2.747686e+000
9.509042e+002, 2.345371e+000
9.513863e+002, 2.152458e+000
9.518684e+002, 2.304417e+000
9.523505e+002, 2.455527e+000
9.528326e+002, 2.584338e+000
9.533148e+002, 2.628294e+000
9.537969e+002, 2.349829e+000
9.542790e+002, 1.856710e+000
9.547611e+002, 1.641403e+000
9.552432e+002, 1.884696e+000
9.557253e+002, 2.215387e+000
9.562075e+002, 2.429490e+000
9.566896e+002, 2.562904e+000
9.571717e+002, 2.654491e+000
9.576538e+002, 2.721715e+000
9.581359e+002, 2.695073e+000
9.586180e+002, 2.543638e+000
9.591002e+002, 2.374545e+000
9.595823e+002, 2.226552e+000
9.600644e+002, 2.127703e+000
9.605465e+002, 2.235758e+000
9.610286e+002, 2.517291e+000
9.615107e+002, 2.699952e+000
9.619929e+002, 2.468480e+000
9.624750e+002, 2.258719e+000
9.629571e+002, 2.361607e+000
9.634392e+002, 2.682223e+000
9.639213e+002, 2.848138e+000
9.644034e+002, 2.813129e+000
9.648856e+002, 2.809094e+000
9.653677e+002, 2.909999e+000
9.658498e+002, 3.030136e+000
9.663319e+002, 3.042628e+000
9.668140e+002, 2.969499e+000
9.672961e+002, 2.831496e+000
9.677783e+002, 2.558160e+000
9.682604e+002, 2.426799e+000
9.687425e+002, 2.729117e+000
9.692246e+002, 3.071221e+000
9.697067e+002, 3.102540e+000
9.701888e+002, 2.742440e+000
9.706710e+002, 2.704041e+000
9.711531e+002, 3.022196e+000
9.716352e+002, 3.331511e+000
9.721173e+002, 3.336287e+000
9.725994e+002, 3.173890e+000
9.730815e+002, 2.992312e+000
9.735637e+002, 2.802528e+000
9.740458e+002, 2.621506e+000
9.745279e+002, 2.404620e+000
9.750100e+002, 2.262922e+000
9.754921e+002, 2.226782e+000
9.759742e+002, 2.277442e+000
9.764564e+002, 2.416692e+000
9.769385e+002, 2.634392e+000
9.774206e+002, 2.691021e+000
9.779027e+002, 2.469835e+000
9.783848e+002, 2.241389e+000
9.788669e+002, 2.359569e+000
9.793491e+002, 2.572966e+000
9.798312e+002, 2.541460e+000
9.803133e+002, 1.981249e+000
9.807954e+002, 1.781793e+000
9.812775e+002, 2.083565e+000
9.817596e+002, 2.544696e+000
9.822418e+002, 3.122733e+000
9.827239e+002, 3.688748e+000
9.832060e+002, 3.264615e+000
9.836881e+002, 1.987179e+000
9.841702e+002, 1.086870e+000
9.846523e+002, 1.693063e+000
9.851345e+002, 2.543589e+000
9.856166e+002, 2.951086e+000
9.860987e+002, 2.970876e+000
9.865808e+002, 2.937555e+000
9.870629e+002, 2.833787e+000
9.875450e+002, 2.746516e+000
9.880272e+002, 2.710853e+000
9.885093e+002, 2.654173e+000
9.889914e+002, 2.410522e+000
9.894735e+002, 2.076876e+000
9.899556e+002, 1.844109e+000
9.904377e+002, 1.748981e+000
9.909199e+002, 1.776904e+000
9.914020e+002, 2.043643e+000
9.918841e+002, 2.329670e+000
9.923662e+002, 2.495451e+000
9.928483e+002, 2.536727e+000
9.933304e+002, 2.516924e+000
9.938126e+002, 2.432978e+000
9.942947e+002, 2.341187e+000
9.947768e+002, 2.244231e+000
9.952589e+002, 2.182411e+000
9.957410e+002, 2.245278e+000
9.962231e+002, 2.384185e+000
9.967053e+002, 2.460684e+000
9.971874e+002, 2.329045e+000
9.976695e+002, 2.273144e+000
9.981516e+002, 2.328995e+000
9.986337e+002, 2.478054e+000
9.991158e+002, 2.784371e+000
9.995980e+002, 3.196841e+000
1.000080e+003, 3.286420e+000
1.000562e+003, 2.956841e+000
1.001044e+003, 2.631936e+000
1.001526e+003, 2.674865e+000
1.002009e+003, 2.831774e+000
1.002491e+003, 2.882514e+000
1.002973e+003, 2.793464e+000
1.003455e+003, 2.789212e+000
1.003937e+003, 2.889831e+000
1.004419e+003, 3.018064e+000
1.004901e+003, 3.182287e+000
1.005383e+003, 3.314411e+000
1.005865e+003, 3.209089e+000
1.006348e+003, 2.946142e+000
1.006830e+003, 2.750669e+000
1.007312e+003, 2.857418e+000
1.007794e+003, 2.878352e+000
1.008276e+003, 2.538010e+000
1.008758e+003, 2.151049e+000
1.009240e+003, 2.074759e+000
1.009722e+003, 2.345329e+000
1.010205e+003, 2.581698e+000
1.010687e+003, 2.767990e+000
1.011169e+003, 2.866271e+000
1.011651e+003, 2.780377e+000
1.012133e+003, 2.634891e+000
1.012615e+003, 2.542877e+000
1.013097e+003, 2.515559e+000
1.013579e+003, 2.569303e+000
1.014061e+003, 2.828956e+000
1.014544e+003, 2.949890e+000
1.015026e+003, 2.757416e+000
1.015508e+003, 2.433868e+000
1.015990e+003, 2.505685e+000
1.016472e+003, 2.859499e+000
1.016954e+003, 3.011989e+000
1.017436e+003, 2.739905e+000
1.017918e+003, 2.429482e+000
1.018401e+003, 2.318565e+000
1.018883e+003, 2.291138e+000
1.019365e+003, 2.218844e+000
1.019847e+003, 2.067181e+000
1.020329e+003, 2.032346e+000
1.020811e+003, 2.132550e+000
1.021293e+003, 2.250069e+000
1.021775e+003, 2.313755e+000
1.022257e+003, 2.333682e+000
1.022740e+003, 2.282588e+000
1.023222e+003, 2.194644e+000
1.023704e+003, 2.195947e+000
1.024186e+003, 2.445820e+000
1.024668e+003, 2.636028e+000
1.025150e+003, 2.645788e+000
1.025632e+003, 2.617315e+000
1.026114e+003, 2.849951e+000
1.026596e+003, 3.297757e+000
1.027079e+003, 3.571382e+000
1.027561e+003, 3.600791e+000
1.028043e+003, 3.518972e+000
1.028525e+003, 3.385159e+000
1.029007e+003, 3.222310e+000
1.029489e+003, 3.025680e+000
1.029971e+003, 2.791628e+000
1.030453e+003, 2.671336e+000
1.030936e+003, 2.680192e+000
1.031418e+003, 2.761385e+000
1.031900e+003, 2.941363e+000
1.032382e+003, 3.122982e+000
1.032864e+003, 3.098688e+000
1.033346e+003, 2.921833e+000
1.033828e+003, 2.714365e+000
1.034310e+003, 2.439702e+000
1.034792e+003, 2.266025e+000
1.035275e+003, 2.289567e+000
1.035757e+003, 2.381047e+000
1.036239e+003, 2.423870e+000
1.036721e+003, 2.417698e+000
1.037203e+003, 2.511724e+000
1.037685e+003, 2.708058e+000
1.038167e+003, 2.840287e+000
1.038649e+003, 2.764189e+000
1.039132e+003, 2.591591e+000
1.039614e+003, 2.322928e+000
1.040096e+003, 2.019198e+000
1.040578e+003, 1.956130e+000
1.041060e+003, 2.246035e+000
1.041542e+003, 2.502125e+000
1.042024e+003, 2.655898e+000
1.042506e+003, 2.740327e+000
1.042989e+003, 2.848182e+000
1.043471e+003, 2.916218e+000
1.043953e+003, 2.759069e+000
1.044435e+003, 2.279862e+000
1.044917e+003, 1.944788e+000
1.045399e+003, 2.114979e+000
1.045881e+003, 2.286593e+000
1.046363e+003, 2.167230e+000
1.046845e+003, 1.814078e+000
1.047328e+003, 1.725923e+000
1.047810e+003, 1.884625e+000
1.048292e+003, 1.987179e+000
1.048774e+003, 1.783387e+000
1.049256e+003, 1.622084e+000
1.049738e+003, 1.893439e+000
1.050220e+003, 2.355480e+000
1.050702e+003, 2.605176e+000
1.051184e+003, 2.471635e+000
1.051667e+003, 2.489422e+000
1.052149e+003, 2.724773e+000
1.052631e+003, 2.929353e+000
1.053113e+003, 2.814456e+000
1.053595e+003, 2.545187e+000
1.054077e+003, 2.442914e+000
1.054559e+003, 2.503941e+000
1.055041e+003, 2.597086e+000
1.055523e+003, 2.722633e+000
1.056006e+003, 2.808272e+000
1.056488e+003, 2.854413e+000
1.056970e+003, 2.839000e+000
1.057452e+003, 2.646053e+000
1.057934e+003, 2.311930e+000
1.058416e+003, 2.206729e+000
1.058898e+003, 2.432580e+000
1.059380e+003, 2.688970e+000
1.059863e+003, 2.741770e+000
1.060345e+003, 2.710786e+000
1.060827e+003, 2.674950e+000
1.061309e+003, 2.639268e+000
1.061791e+003, 2.688192e+000
1.062273e+003, 2.867591e+000
1.062755e+003, 2.900009e+000
1.063237e+003, 2.582232e+000
1.063719e+003, 2.160164e+000
1.064202e+003, 1.944205e+000
1.064684e+003, 1.921706e+000
1.065166e+003, 2.085012e+000
1.065648e+003, 2.682402e+000
1.066130e+003, 3.008291e+000
1.066612e+003, 2.934490e+000
1.067094e+003, 2.681681e+000
1.067576e+003, 2.323385e+000
1.068059e+003, 1.920981e+000
1.068541e+003, 1.922849e+000
1.069023e+003, 2.286144e+000
1.069505e+003, 2.624495e+000
1.069987e+003, 2.651985e+000
1.070469e+003, 2.653609e+000
1.070951e+003, 2.920773e+000
1.071433e+003, 3.209193e+000
1.071916e+003, 2.939839e+000
1.072398e+003, 2.001326e+000
1.072880e+003, 1.572803e+000
1.073362e+003, 1.867167e+000
1.073844e+003, 2.342352e+000
1.074326e+003, 2.474419e+000
1.074808e+003, 2.481557e+000
1.075290e+003, 2.631807e+000
1.075772e+003, 2.947149e+000
1.076255e+003, 3.057613e+000
1.076737e+003, 2.832199e+000
1.077219e+003, 2.665884e+000
1.077701e+003, 2.701163e+000
1.078183e+003, 2.846385e+000
1.078665e+003, 2.975375e+000
1.079147e+003, 3.064162e+000
1.079629e+003, 3.042951e+000
1.080111e+003, 2.849713e+000
1.080594e+003, 2.677196e+000
1.081076e+003, 2.632469e+000
1.081558e+003, 2.587350e+000
1.082040e+003, 2.448922e+000
1.082522e+003, 2.234960e+000
1.083004e+003, 2.134645e+000
1.083486e+003, 2.143065e+000
1.083968e+003, 2.221133e+000
1.084450e+003, 2.411030e+000
1.084933e+003, 2.593975e+000
1.085415e+003, 2.696414e+000
1.085897e+003, 2.740424e+000
1.086379e+003, 2.770654e+000
1.086861e+003, 2.795816e+000
1.087343e+003, 2.778771e+000
1.087825e+003, 2.718300e+000
1.088307e+003, 2.613276e+000
1.088790e+003, 2.372700e+000
1.089272e+003, 2.148054e+000
1.089754e+003, 2.165753e+000
1.090236e+003, 2.386136e+000
1.090718e+003, 2.544815e+000
1.091200e+003, 2.556610e+000
1.091682e+003, 2.567468e+000
1.092164e+003, 2.592231e+000
1.092646e+003, 2.644104e+000
1.093129e+003, 2.818848e+000
1.093611e+003, 3.023104e+000
1.094093e+003, 2.982983e+000
1.094575e+003, 2.638405e+000
1.095057e+003, 2.352473e+000
1.095539e+003, 2.338579e+000
1.096021e+003, 2.368465e+000
1.096503e+003, 2.326018e+000
1.096986e+003, 2.253637e+000
1.097468e+003, 2.333552e+000
1.097950e+003, 2.549254e+000
1.098432e+003, 2.768293e+000
1.098914e+003, 2.983299e+000
1.099396e+003, 3.100068e+000
1.099878e+003, 2.968180e+000
1.100360e+003, 2.757720e+000
1.100843e+003, 2.626445e+000
1.101325e+003, 2.576344e+000
1.101807e+003, 2.655839e+000
1.102289e+003, 2.889035e+000
1.102771e+003, 2.997697e+000
1.103253e+003, 2.734090e+000
1.103735e+003, 2.351609e+000
1.104217e+003, 2.080087e+000
1.104699e+003, 1.928783e+000
1.105182e+003, 1.918805e+000
1.105664e+003, 2.114931e+000
1.106146e+003, 2.360572e+000
1.106628e+003, 2.694380e+000
1.107110e+003, 2.967809e+000
1.107592e+003, 3.050117e+000
1.108074e+003, 2.978334e+000
1.108556e+003, 2.761208e+000
1.109038e+003, 2.443042e+000
1.109521e+003, 2.235134e+000
1.110003e+003, 2.357209e+000
1.110485e+003, 2.401522e+000
1.110967e+003, 2.206196e+000
1.111449e+003, 1.985855e+000
1.111931e+003, 2.198613e+000
1.112413e+003, 2.693034e+000
1.112895e+003, 2.670945e+000
1.113377e+003, 2.028926e+000
1.113860e+003, 1.523317e+000
1.114342e+003, 1.781158e+000
1.114824e+003, 2.135442e+000
1.115306e+003, 2.212191e+000
1.115788e+003, 2.095831e+000
1.116270e+003, 2.030926e+000
1.116752e+003, 2.018960e+000
1.117234e+003, 2.211293e+000
1.117717e+003, 2.717534e+000
1.118199e+003, 3.140281e+000
1.118681e+003, 3.070816e+000
1.119163e+003, 2.788616e+000
1.119645e+003, 2.532041e+000
1.120127e+003, 2.319262e+000
1.120609e+003, 2.121083e+000
1.121091e+003, 1.928788e+000
1.121573e+003, 1.806917e+000
1.122056e+003, 1.788237e+000
1.122538e+003, 1.844654e+000
1.123020e+003, 1.971644e+000
1.123502e+003, 2.137344e+000
1.123984e+003, 2.300239e+000
1.124466e+003, 2.494138e+000
1.124948e+003, 2.552353e+000
1.125430e+003, 2.408397e+000
1.125913e+003, 2.298758e+000
1.126395e+003, 2.450736e+000
1.126877e+003, 2.714910e+000
1.127359e+003, 2.754856e+000
1.127841e+003, 2.621013e+000
1.128323e+003, 2.451520e+000
1.128805e+003, 2.191118e+000
1.129287e+003, 2.059435e+000
1.129770e+003, 2.117774e+000
1.130252e+003, 2.249205e+000
1.130734e+003, 2.341869e+000
1.131216e+003, 2.410133e+000
1.131698e+003, 2.571030e+000
1.132180e+003, 2.798237e+000
1.132662e+003, 2.868776e+000
1.133144e+003, 2.439923e+000
1.133626e+003, 2.101207e+000
1.134109e+003, 2.079839e+000
1.134591e+003, 2.248006e+000
1.135073e+003, 2.486332e+000
1.135555e+003, 2.772372e+000
1.136037e+003, 2.824108e+000
1.136519e+003, 2.605102e+000
1.137001e+003, 2.330836e+000
1.137483e+003, 1.993533e+000
1.137965e+003, 1.806175e+000
1.138448e+003, 2.053268e+000
1.138930e+003, 2.549718e+000
1.139412e+003, 2.736425e+000
1.139894e+003, 2.604314e+000
1.140376e+003, 2.322506e+000
1.140858e+003, 1.875904e+000
1.141340e+003, 1.560961e+000
1.141822e+003, 1.748191e+000
1.142304e+003, 2.124882e+000
1.142787e+003, 2.458699e+000
1.143269e+003, 2.720340e+000
1.143751e+003, 2.778039e+000
1.144233e+003, 2.597089e+000
1.144715e+003, 2.390748e+000
1.145197e+003, 2.211373e+000
1.145679e+003, 2.092311e+000
1.146161e+003, 2.087794e+000
1.146644e+003, 2.168473e+000
1.147126e+003, 2.319527e+000
1.147608e+003, 2.583861e+000
1.148090e+003, 2.713956e+000
1.148572e+003, 2.689400e+000
1.149054e+003, 2.579754e+000
1.149536e+003, 2.380498e+000
1.150018e+003, 2.161570e+000
1.150500e+003, 2.039266e+000
1.150983e+003, 1.990210e+000
1.151465e+003, 1.965992e+000
1.151947e+003, 1.945639e+000
1.152429e+003, 1.970607e+000
1.152911e+003, 2.044592e+000
1.153393e+003, 2.157649e+000
1.153875e+003, 2.354948e+000
1.154357e+003, 2.566829e+000
1.154840e+003, 2.550091e+000
1.155322e+003, 2.378031e+000
1.155804e+003, 2.284825e+000
1.156286e+003, 2.379033e+000
1.156768e+003, 2.555627e+000
1.157250e+003, 2.893165e+000
1.157732e+003, 3.159710e+000
1.158214e+003, 3.057132e+000
1.158697e+003, 2.696088e+000
1.159179e+003, 2.580553e+000
1.159661e+003, 2.682831e+000
1.160143e+003, 2.764965e+000
1.160625e+003, 2.657638e+000
1.161107e+003, 2.578641e+000
1.161589e+003, 2.618040e+000
1.162071e+003, 2.692697e+000
1.162553e+003, 2.724228e+000
1.163036e+003, 2.702998e+000
1.163518e+003, 2.478963e+000
1.164000e+003, 2.063597e+000
1.164482e+003, 1.840185e+000
1.164964e+003, 2.361781e+000
1.165446e+003, 2.771752e+000
1.165928e+003, 2.534823e+000
1.166410e+003, 1.994302e+000
1.166892e+003, 1.745809e+000
1.167375e+003, 1.778406e+000
1.167857e+003, 2.050459e+000
1.168339e+003, 2.574813e+000
1.168821e+003, 2.904896e+000
1.169303e+003, 2.463249e+000
1.169785e+003, 1.963940e+000
1.170267e+003, 1.952812e+000
1.170749e+003, 2.238127e+000
1.171231e+003, 2.230284e+000
1.171714e+003, 1.932460e+000
1.172196e+003, 1.792744e+000
1.172678e+003, 1.924702e+000
1.173160e+003, 2.091507e+000
1.173642e+003, 2.134753e+000
1.174124e+003, 2.095438e+000
1.174606e+003, 1.942355e+000
1.175088e+003, 1.719587e+000
1.175571e+003, 1.709117e+000
1.176053e+003, 1.923481e+000
1.176535e+003, 2.106738e+000
1.177017e+003, 2.198123e+000
1.177499e+003, 2.200472e+000
1.177981e+003, 1.955442e+000
1.178463e+003, 1.736296e+000
1.178945e+003, 1.880594e+000
1.179427e+003, 2.396111e+000
1.179910e+003, 2.727472e+000
1.180392e+003, 2.867376e+000
1.180874e+003, 2.924873e+000
1.181356e+003, 2.955852e+000
1.181838e+003, 2.886506e+000
1.182320e+003, 2.451956e+000
1.182802e+003, 1.980354e+000
1.183284e+003, 1.904714e+000
1.183767e+003, 2.319044e+000
1.184249e+003, 2.675898e+000
1.184731e+003, 3.003530e+000
1.185213e+003, 3.079384e+000
1.185695e+003, 2.664336e+000
1.186177e+003, 2.155739e+000
1.186659e+003, 1.973499e+000
1.187141e+003, 2.015781e+000
1.187624e+003, 2.185584e+000
1.188106e+003, 2.572098e+000
1.188588e+003, 2.605995e+000
1.189070e+003, 2.207207e+000
1.189552e+003, 1.917286e+000
1.190034e+003, 2.128026e+000
1.190516e+003, 2.528458e+000
1.190998e+003, 2.856543e+000
1.191480e+003, 3.055556e+000
1.191963e+003, 2.996362e+000
1.192445e+003, 2.461860e+000
1.192927e+003, 2.222796e+000
1.193409e+003, 2.335591e+000
1.193891e+003, 2.483948e+000
1.194373e+003, 2.423970e+000
1.194855e+003, 2.293609e+000
1.195337e+003, 2.312650e+000
1.195819e+003, 2.395536e+000
1.196302e+003, 2.336634e+000
1.196784e+003, 1.920326e+000
1.197266e+003, 1.831664e+000
1.197748e+003, 2.156124e+000
1.198230e+003, 2.497199e+000
1.198712e+003, 2.503106e+000
1.199194e+003, 2.360363e+000
1.199676e+003, 2.233965e+000
1.200158e+003, 2.172502e+000
1.200641e+003, 2.329101e+000
1.201123e+003, 2.978625e+000
1.201605e+003, 3.199044e+000
1.202087e+003, 2.863351e+000
1.202569e+003, 2.415988e+000
1.203051e+003, 2.231418e+000
1.203533e+003, 2.197323e+000
1.204015e+003, 2.194352e+000
1.204498e+003, 2.211275e+000
1.204980e+003, 2.232413e+000
1.205462e+003, 2.288700e+000
1.205944e+003, 2.241367e+000
1.206426e+003, 2.035390e+000
1.206908e+003, 1.894444e+000
1.207390e+003, 2.184237e+000
1.207872e+003, 2.570339e+000
1.208354e+003, 2.514957e+000
1.208837e+003, 2.131856e+000
1.209319e+003, 2.071567e+000
1.209801e+003, 2.637832e+000
1.210283e+003, 2.884969e+000
1.210765e+003, 2.652265e+000
1.211247e+003, 2.276326e+000
1.211729e+003, 1.999270e+000
1.212211e+003, 1.858404e+000
1.212694e+003, 1.979048e+000
1.213176e+003, 2.310491e+000
1.213658e+003, 2.529526e+000
1.214140e+003, 2.567172e+000
1.214622e+003, 2.629041e+000
1.215104e+003, 2.757585e+000
1.215586e+003, 2.861176e+000
1.216068e+003, 2.828635e+000
1.216551e+003, 2.723255e+000
1.217033e+003, 2.596063e+000
1.217515e+003, 2.460824e+000
1.217997e+003, 2.392749e+000
1.218479e+003, 2.426936e+000
1.218961e+003, 2.400764e+000
1.219443e+003, 2.268773e+000
1.219925e+003, 2.145713e+000
1.220407e+003, 2.159115e+000
1.220890e+003, 2.253174e+000
1.221372e+003, 2.410481e+000
1.221854e+003, 2.604558e+000
1.222336e+003, 2.656598e+000
1.222818e+003, 2.517089e+000
1.223300e+003, 2.420678e+000
1.223782e+003, 2.417691e+000
1.224264e+003, 2.445334e+000
1.224746e+003, 2.400492e+000
1.225229e+003, 2.374611e+000
1.225711e+003, 2.546383e+000
1.226193e+003, 2.876652e+000
1.226675e+003, 2.858683e+000
1.227157e+003, 2.397212e+000
1.227639e+003, 2.090735e+000
1.228121e+003, 2.075273e+000
1.228603e+003, 2.204224e+000
1.229085e+003, 2.446173e+000
1.229568e+003, 2.662077e+000
1.230050e+003, 2.678501e+000
1.230532e+003, 2.512883e+000
1.231014e+003, 2.445099e+000
1.231496e+003, 2.491481e+000
1.231978e+003, 2.475514e+000
1.232460e+003, 2.340329e+000
1.232942e+003, 2.217040e+000
1.233425e+003, 2.259483e+000
1.233907e+003, 2.347297e+000
1.234389e+003, 2.380818e+000
1.234871e+003, 2.360732e+000
1.235353e+003, 2.310691e+000
1.235835e+003, 2.228350e+000
1.236317e+003, 2.167532e+000
1.236799e+003, 2.130393e+000
1.237281e+003, 2.178951e+000
1.237764e+003, 2.540907e+000
1.238246e+003, 2.859775e+000
1.238728e+003, 2.753445e+000
1.239210e+003, 2.350073e+000
1.239692e+003, 2.178944e+000
1.240174e+003, 2.235023e+000
1.240656e+003, 2.340832e+000
1.241138e+003, 2.467885e+000
1.241621e+003, 2.553454e+000
1.242103e+003, 2.524179e+000
1.242585e+003, 2.457443e+000
1.243067e+003, 2.363247e+000
1.243549e+003, 2.284882e+000
1.244031e+003, 2.469440e+000
1.244513e+003, 2.861715e+000
1.244995e+003, 2.961583e+000
1.245478e+003, 2.599777e+000
1.245960e+003, 2.281108e+000
1.246442e+003, 2.488191e+000
1.246924e+003, 2.621111e+000
1.247406e+003, 2.284589e+000
1.247888e+003, 1.685882e+000
1.248370e+003, 1.483845e+000
1.248852e+003, 1.603796e+000
1.249334e+003, 1.742347e+000
1.249817e+003, 1.837113e+000
1.250299e+003, 1.904126e+000
1.250781e+003, 1.932468e+000
1.251263e+003, 1.950608e+000
1.251745e+003, 1.945161e+000
1.252227e+003, 1.961156e+000
1.252709e+003, 2.184252e+000
1.253191e+003, 2.516395e+000
1.253673e+003, 2.675419e+000
1.254156e+003, 2.595480e+000
1.254638e+003, 2.402843e+000
1.255120e+003, 1.918046e+000
1.255602e+003, 1.683383e+000
1.256084e+003, 1.987552e+000
1.256566e+003, 2.494364e+000
1.257048e+003, 2.482144e+000
1.257530e+003, 2.175295e+000
1.258012e+003, 2.041225e+000
1.258495e+003, 2.178097e+000
1.258977e+003, 2.286430e+000
1.259459e+003, 2.289376e+000
1.259941e+003, 2.336997e+000
1.260423e+003, 2.503991e+000
1.260905e+003, 2.680783e+000
1.261387e+003, 2.708318e+000
1.261869e+003, 2.623212e+000
1.262352e+003, 2.413490e+000
1.262834e+003, 2.063837e+000
1.263316e+003, 2.050494e+000
1.263798e+003, 2.545245e+000
1.264280e+003, 2.778457e+000
1.264762e+003, 2.445049e+000
1.265244e+003, 2.010514e+000
1.265726e+003, 2.101139e+000
1.266208e+003, 2.362924e+000
1.266691e+003, 2.355870e+000
1.267173e+003, 2.052393e+000
1.267655e+003, 1.994072e+000
1.268137e+003, 2.216314e+000
1.268619e+003, 2.383904e+000
1.269101e+003, 2.400234e+000
1.269583e+003, 2.374076e+000
1.270065e+003, 2.419219e+000
1.270548e+003, 2.460061e+000
1.271030e+003, 2.392414e+000
1.271512e+003, 2.256313e+000
1.271994e+003, 2.297368e+000
1.272476e+003, 2.506069e+000
1.272958e+003, 2.374835e+000
1.273440e+003, 1.721034e+000
1.273922e+003, 1.253306e+000
1.274405e+003, 1.697678e+000
1.274887e+003, 2.276110e+000
1.275369e+003, 2.582664e+000
1.275851e+003, 2.642275e+000
1.276333e+003, 2.408603e+000
1.276815e+003, 1.974451e+000
1.277297e+003, 1.873342e+000
1.277779e+003, 2.229889e+000
1.278261e+003, 2.514462e+000
1.278744e+003, 2.366724e+000
1.279226e+003, 2.192878e+000
1.279708e+003, 2.133108e+000
1.280190e+003, 2.144754e+000
1.280672e+003, 2.131412e+000
1.281154e+003, 2.123184e+000
1.281636e+003, 2.217941e+000
1.282118e+003, 2.429526e+000
1.282600e+003, 2.608455e+000
1.283083e+003, 2.756029e+000
1.283565e+003, 2.767239e+000
1.284047e+003, 2.565884e+000
1.284529e+003, 2.340543e+000
1.285011e+003, 2.439077e+000
1.285493e+003, 2.649749e+000
1.285975e+003, 2.609315e+000
1.286457e+003, 2.306751e+000
1.286939e+003, 2.121061e+000
1.287422e+003, 2.126751e+000
1.287904e+003, 2.090380e+000
1.288386e+003, 1.952022e+000
1.288868e+003, 1.840028e+000
1.289350e+003, 1.878721e+000
1.289832e+003, 2.025264e+000
1.290314e+003, 2.347284e+000
1.290796e+003, 2.745553e+000
1.291279e+003, 2.770963e+000
1.291761e+003, 2.370500e+000
1.292243e+003, 2.157535e+000
1.292725e+003, 2.223031e+000
1.293207e+003, 2.386019e+000
1.293689e+003, 2.629046e+000
1.294171e+003, 2.791455e+000
1.294653e+003, 2.665921e+000
1.295135e+003, 2.431931e+000
1.295618e+003, 2.394151e+000
1.296100e+003, 2.535051e+000
1.296582e+003, 2.728662e+000
1.297064e+003, 2.954059e+000
1.297546e+003, 3.060160e+000
1.298028e+003, 2.851420e+000
1.298510e+003, 2.639617e+000
1.298992e+003, 2.502663e+000
1.299475e+003, 2.440804e+000
1.299957e+003, 2.509603e+000
1.300439e+003, 2.643562e+000
1.300921e+003, 2.623844e+000
1.301403e+003, 2.468285e+000
1.301885e+003, 2.354198e+000
##END=



