##NAMES=Tetradymite
##RRUFFID=R110138
##IDEAL CHEMISTRY=Bi^3+^_2_Te^2-^_2_S^2-^
##LOCALITY=Schubkau, Schemnitz, Hungary
##OWNER=RRUFF
##SOURCE=William W. Pinch
##DESCRIPTION=Aggregate of grey crystals with a dull surface but bright silver grey on fresh cleavage
##STATUS=The identification of this mineral has been confirmed only by single crystal X-ray diffraction.
##URL=rruff.info/R110138
9.001007e+001, 0.000000e+000
9.049219e+001, 3.503222e+001
9.097430e+001, 3.536449e+001
9.145642e+001, 3.532060e+001
9.193854e+001, 3.492262e+001
9.242065e+001, 3.435553e+001
9.290277e+001, 3.369061e+001
9.338489e+001, 3.296383e+001
9.386700e+001, 3.225328e+001
9.434912e+001, 3.145391e+001
9.483124e+001, 3.073198e+001
9.531335e+001, 3.055481e+001
9.579547e+001, 3.098083e+001
9.627759e+001, 3.153116e+001
9.675970e+001, 3.164410e+001
9.724182e+001, 3.134439e+001
9.772394e+001, 3.099443e+001
9.820605e+001, 3.079424e+001
9.868817e+001, 3.071707e+001
9.917029e+001, 3.039222e+001
9.965240e+001, 2.971652e+001
1.001345e+002, 2.894917e+001
1.006166e+002, 2.868647e+001
1.010988e+002, 2.905446e+001
1.015809e+002, 2.936501e+001
1.020630e+002, 2.919947e+001
1.025451e+002, 2.844274e+001
1.030272e+002, 2.776993e+001
1.035093e+002, 2.720774e+001
1.039915e+002, 2.676085e+001
1.044736e+002, 2.644617e+001
1.049557e+002, 2.633756e+001
1.054378e+002, 2.625805e+001
1.059199e+002, 2.607423e+001
1.064020e+002, 2.567396e+001
1.068842e+002, 2.537750e+001
1.073663e+002, 2.526362e+001
1.078484e+002, 2.533670e+001
1.083305e+002, 2.532327e+001
1.088126e+002, 2.518189e+001
1.092947e+002, 2.497721e+001
1.097769e+002, 2.476818e+001
1.102590e+002, 2.454582e+001
1.107411e+002, 2.432826e+001
1.112232e+002, 2.411828e+001
1.117053e+002, 2.391566e+001
1.121874e+002, 2.372457e+001
1.126696e+002, 2.382267e+001
1.131517e+002, 2.386509e+001
1.136338e+002, 2.340493e+001
1.141159e+002, 2.156507e+001
1.145980e+002, 1.988065e+001
1.150801e+002, 1.891602e+001
1.155623e+002, 1.894961e+001
1.160444e+002, 1.921591e+001
1.165265e+002, 1.969639e+001
1.170086e+002, 2.027678e+001
1.174907e+002, 2.070174e+001
1.179728e+002, 2.078688e+001
1.184550e+002, 2.075122e+001
1.189371e+002, 2.076138e+001
1.194192e+002, 2.102670e+001
1.199013e+002, 2.107394e+001
1.203834e+002, 2.035603e+001
1.208655e+002, 1.910373e+001
1.213477e+002, 1.821673e+001
1.218298e+002, 1.858419e+001
1.223119e+002, 1.944296e+001
1.227940e+002, 1.998731e+001
1.232761e+002, 1.986317e+001
1.237582e+002, 1.943394e+001
1.242404e+002, 1.887846e+001
1.247225e+002, 1.821574e+001
1.252046e+002, 1.767861e+001
1.256867e+002, 1.771334e+001
1.261688e+002, 1.798940e+001
1.266509e+002, 1.790455e+001
1.271331e+002, 1.669034e+001
1.276152e+002, 1.516437e+001
1.280973e+002, 1.473455e+001
1.285794e+002, 1.547921e+001
1.290615e+002, 1.637152e+001
1.295436e+002, 1.619344e+001
1.300258e+002, 1.517004e+001
1.305079e+002, 1.429585e+001
1.309900e+002, 1.415530e+001
1.314721e+002, 1.452563e+001
1.319542e+002, 1.470076e+001
1.324363e+002, 1.462381e+001
1.329185e+002, 1.445646e+001
1.334006e+002, 1.439484e+001
1.338827e+002, 1.444037e+001
1.343648e+002, 1.462477e+001
1.348469e+002, 1.520847e+001
1.353290e+002, 1.612414e+001
1.358112e+002, 1.625569e+001
1.362933e+002, 1.525989e+001
1.367754e+002, 1.376004e+001
1.372575e+002, 1.334610e+001
1.377396e+002, 1.425661e+001
1.382217e+002, 1.517212e+001
1.387039e+002, 1.509695e+001
1.391860e+002, 1.382161e+001
1.396681e+002, 1.305039e+001
1.401502e+002, 1.304709e+001
1.406323e+002, 1.367055e+001
1.411144e+002, 1.443592e+001
1.415966e+002, 1.559342e+001
1.420787e+002, 1.641385e+001
1.425608e+002, 1.620935e+001
1.430429e+002, 1.454353e+001
1.435250e+002, 1.307945e+001
1.440071e+002, 1.200568e+001
1.444893e+002, 1.133087e+001
1.449714e+002, 1.113826e+001
1.454535e+002, 1.181702e+001
1.459356e+002, 1.260022e+001
1.464177e+002, 1.268950e+001
1.468998e+002, 1.134809e+001
1.473820e+002, 1.048884e+001
1.478641e+002, 1.068825e+001
1.483462e+002, 1.219858e+001
1.488283e+002, 1.297783e+001
1.493104e+002, 1.250617e+001
1.497925e+002, 1.155192e+001
1.502747e+002, 1.099385e+001
1.507568e+002, 1.101711e+001
1.512389e+002, 1.125671e+001
1.517210e+002, 1.180307e+001
1.522031e+002, 1.298452e+001
1.526852e+002, 1.342493e+001
1.531674e+002, 1.221838e+001
1.536495e+002, 1.045327e+001
1.541316e+002, 9.696509e+000
1.546137e+002, 1.124177e+001
1.550958e+002, 1.280096e+001
1.555779e+002, 1.363155e+001
1.560601e+002, 1.338963e+001
1.565422e+002, 1.309520e+001
1.570243e+002, 1.281356e+001
1.575064e+002, 1.257617e+001
1.579885e+002, 1.244385e+001
1.584706e+002, 1.237406e+001
1.589528e+002, 1.245304e+001
1.594349e+002, 1.275584e+001
1.599170e+002, 1.348605e+001
1.603991e+002, 1.409825e+001
1.608812e+002, 1.424032e+001
1.613633e+002, 1.412429e+001
1.618455e+002, 1.430676e+001
1.623276e+002, 1.542418e+001
1.628097e+002, 1.662873e+001
1.632918e+002, 1.737603e+001
1.637739e+002, 1.719278e+001
1.642560e+002, 1.700417e+001
1.647382e+002, 1.719653e+001
1.652203e+002, 1.771234e+001
1.657024e+002, 1.833155e+001
1.661845e+002, 1.875331e+001
1.666666e+002, 1.932256e+001
1.671487e+002, 2.037352e+001
1.676309e+002, 2.257445e+001
1.681130e+002, 2.469364e+001
1.685951e+002, 2.598547e+001
1.690772e+002, 2.651658e+001
1.695593e+002, 2.663422e+001
1.700414e+002, 2.601472e+001
1.705236e+002, 2.525075e+001
1.710057e+002, 2.506897e+001
1.714878e+002, 2.617529e+001
1.719699e+002, 2.759182e+001
1.724520e+002, 2.855916e+001
1.729341e+002, 2.909819e+001
1.734163e+002, 2.939533e+001
1.738984e+002, 2.936982e+001
1.743805e+002, 2.921687e+001
1.748626e+002, 2.925921e+001
1.753447e+002, 2.971363e+001
1.758268e+002, 3.037058e+001
1.763090e+002, 3.104379e+001
1.767911e+002, 3.172802e+001
1.772732e+002, 3.236743e+001
1.777553e+002, 3.279817e+001
1.782374e+002, 3.299693e+001
1.787195e+002, 3.306575e+001
1.792017e+002, 3.303923e+001
1.796838e+002, 3.292530e+001
1.801659e+002, 3.264505e+001
1.806480e+002, 3.217522e+001
1.811301e+002, 3.183837e+001
1.816122e+002, 3.207331e+001
1.820944e+002, 3.273055e+001
1.825765e+002, 3.331192e+001
1.830586e+002, 3.342561e+001
1.835407e+002, 3.334110e+001
1.840228e+002, 3.370236e+001
1.845049e+002, 3.456355e+001
1.849871e+002, 3.557936e+001
1.854692e+002, 3.641926e+001
1.859513e+002, 3.708693e+001
1.864334e+002, 3.754197e+001
1.869155e+002, 3.777750e+001
1.873976e+002, 3.779408e+001
1.878798e+002, 3.748283e+001
1.883619e+002, 3.675256e+001
1.888440e+002, 3.603563e+001
1.893261e+002, 3.603241e+001
1.898082e+002, 3.669328e+001
1.902903e+002, 3.740061e+001
1.907725e+002, 3.789721e+001
1.912546e+002, 3.819556e+001
1.917367e+002, 3.823745e+001
1.922188e+002, 3.792606e+001
1.927009e+002, 3.760331e+001
1.931830e+002, 3.814205e+001
1.936652e+002, 3.955115e+001
1.941473e+002, 4.043449e+001
1.946294e+002, 3.952618e+001
1.951115e+002, 3.703083e+001
1.955936e+002, 3.569210e+001
1.960757e+002, 3.586773e+001
1.965579e+002, 3.689116e+001
1.970400e+002, 3.760390e+001
1.975221e+002, 3.800116e+001
1.980042e+002, 3.817068e+001
1.984863e+002, 3.808330e+001
1.989684e+002, 3.773576e+001
1.994506e+002, 3.745813e+001
1.999327e+002, 3.724682e+001
2.004148e+002, 3.714955e+001
2.008969e+002, 3.738484e+001
2.013790e+002, 3.804655e+001
2.018611e+002, 3.855345e+001
2.023433e+002, 3.841283e+001
2.028254e+002, 3.753569e+001
2.033075e+002, 3.714486e+001
2.037896e+002, 3.750627e+001
2.042717e+002, 3.825195e+001
2.047538e+002, 3.832661e+001
2.052360e+002, 3.752404e+001
2.057181e+002, 3.681112e+001
2.062002e+002, 3.687263e+001
2.066823e+002, 3.786536e+001
2.071644e+002, 3.860697e+001
2.076465e+002, 3.900554e+001
2.081287e+002, 3.909403e+001
2.086108e+002, 3.890424e+001
2.090929e+002, 3.831993e+001
2.095750e+002, 3.777574e+001
2.100571e+002, 3.754688e+001
2.105392e+002, 3.767455e+001
2.110214e+002, 3.792607e+001
2.115035e+002, 3.834930e+001
2.119856e+002, 3.886118e+001
2.124677e+002, 3.920744e+001
2.129498e+002, 3.941528e+001
2.134319e+002, 3.940343e+001
2.139140e+002, 3.903425e+001
2.143962e+002, 3.812820e+001
2.148783e+002, 3.753889e+001
2.153604e+002, 3.748159e+001
2.158425e+002, 3.777573e+001
2.163246e+002, 3.762567e+001
2.168067e+002, 3.675695e+001
2.172889e+002, 3.596887e+001
2.177710e+002, 3.586632e+001
2.182531e+002, 3.685612e+001
2.187352e+002, 3.728791e+001
2.192173e+002, 3.683222e+001
2.196994e+002, 3.570751e+001
2.201816e+002, 3.494744e+001
2.206637e+002, 3.456014e+001
2.211458e+002, 3.449184e+001
2.216279e+002, 3.475574e+001
2.221100e+002, 3.549362e+001
2.225921e+002, 3.621242e+001
2.230743e+002, 3.697394e+001
2.235564e+002, 3.769410e+001
2.240385e+002, 3.795007e+001
2.245206e+002, 3.749834e+001
2.250027e+002, 3.696306e+001
2.254848e+002, 3.675634e+001
2.259670e+002, 3.708924e+001
2.264491e+002, 3.723210e+001
2.269312e+002, 3.703213e+001
2.274133e+002, 3.659141e+001
2.278954e+002, 3.642009e+001
2.283775e+002, 3.668668e+001
2.288597e+002, 3.698137e+001
2.293418e+002, 3.704480e+001
2.298239e+002, 3.677184e+001
2.303060e+002, 3.650244e+001
2.307881e+002, 3.621201e+001
2.312702e+002, 3.593697e+001
2.317524e+002, 3.588531e+001
2.322345e+002, 3.617445e+001
2.327166e+002, 3.651786e+001
2.331987e+002, 3.676750e+001
2.336808e+002, 3.697052e+001
2.341629e+002, 3.695655e+001
2.346451e+002, 3.658803e+001
2.351272e+002, 3.598387e+001
2.356093e+002, 3.569328e+001
2.360914e+002, 3.595194e+001
2.365735e+002, 3.620092e+001
2.370556e+002, 3.609579e+001
2.375378e+002, 3.538316e+001
2.380199e+002, 3.486576e+001
2.385020e+002, 3.457860e+001
2.389841e+002, 3.451550e+001
2.394662e+002, 3.469579e+001
2.399483e+002, 3.531037e+001
2.404305e+002, 3.590981e+001
2.409126e+002, 3.624963e+001
2.413947e+002, 3.620275e+001
2.418768e+002, 3.619450e+001
2.423589e+002, 3.635205e+001
2.428410e+002, 3.655729e+001
2.433232e+002, 3.633870e+001
2.438053e+002, 3.539066e+001
2.442874e+002, 3.443903e+001
2.447695e+002, 3.384293e+001
2.452516e+002, 3.364717e+001
2.457337e+002, 3.371043e+001
2.462159e+002, 3.415550e+001
2.466980e+002, 3.484102e+001
2.471801e+002, 3.530660e+001
2.476622e+002, 3.549400e+001
2.481443e+002, 3.555575e+001
2.486264e+002, 3.555358e+001
2.491086e+002, 3.546794e+001
2.495907e+002, 3.535739e+001
2.500728e+002, 3.517834e+001
2.505549e+002, 3.498763e+001
2.510370e+002, 3.496191e+001
2.515191e+002, 3.523983e+001
2.520013e+002, 3.546433e+001
2.524834e+002, 3.547701e+001
2.529655e+002, 3.522361e+001
2.534476e+002, 3.488137e+001
2.539297e+002, 3.433695e+001
2.544118e+002, 3.375533e+001
2.548940e+002, 3.352420e+001
2.553761e+002, 3.381106e+001
2.558582e+002, 3.415276e+001
2.563403e+002, 3.436962e+001
2.568224e+002, 3.444965e+001
2.573046e+002, 3.442725e+001
2.577867e+002, 3.423389e+001
2.582688e+002, 3.398083e+001
2.587509e+002, 3.391842e+001
2.592330e+002, 3.418212e+001
2.597151e+002, 3.435889e+001
2.601973e+002, 3.425492e+001
2.606794e+002, 3.378477e+001
2.611615e+002, 3.343266e+001
2.616436e+002, 3.324899e+001
2.621257e+002, 3.314380e+001
2.626078e+002, 3.291874e+001
2.630900e+002, 3.242949e+001
2.635721e+002, 3.218243e+001
2.640542e+002, 3.250618e+001
2.645363e+002, 3.358968e+001
2.650184e+002, 3.393042e+001
2.655005e+002, 3.325037e+001
2.659827e+002, 3.216663e+001
2.664648e+002, 3.157679e+001
2.669469e+002, 3.164333e+001
2.674290e+002, 3.174229e+001
2.679111e+002, 3.165037e+001
2.683932e+002, 3.134427e+001
2.688754e+002, 3.127713e+001
2.693575e+002, 3.155759e+001
2.698396e+002, 3.190831e+001
2.703217e+002, 3.188381e+001
2.708038e+002, 3.131195e+001
2.712859e+002, 3.105818e+001
2.717681e+002, 3.157088e+001
2.722502e+002, 3.279913e+001
2.727323e+002, 3.312085e+001
2.732144e+002, 3.224163e+001
2.736965e+002, 3.104087e+001
2.741786e+002, 3.047580e+001
2.746608e+002, 3.064506e+001
2.751429e+002, 3.090183e+001
2.756250e+002, 3.113490e+001
2.761071e+002, 3.133288e+001
2.765892e+002, 3.139394e+001
2.770714e+002, 3.128923e+001
2.775535e+002, 3.112724e+001
2.780356e+002, 3.101712e+001
2.785177e+002, 3.096838e+001
2.789998e+002, 3.087232e+001
2.794819e+002, 3.070719e+001
2.799641e+002, 3.047736e+001
2.804462e+002, 3.019452e+001
2.809283e+002, 2.984568e+001
2.814104e+002, 2.949540e+001
2.818925e+002, 2.915069e+001
2.823746e+002, 2.880917e+001
2.828568e+002, 2.866797e+001
2.833389e+002, 2.885644e+001
2.838210e+002, 2.919015e+001
2.843031e+002, 2.907718e+001
2.847852e+002, 2.846503e+001
2.852673e+002, 2.785423e+001
2.857495e+002, 2.757583e+001
2.862316e+002, 2.761646e+001
2.867137e+002, 2.783574e+001
2.871958e+002, 2.827252e+001
2.876779e+002, 2.879586e+001
2.881600e+002, 2.918469e+001
2.886422e+002, 2.944037e+001
2.891243e+002, 2.949987e+001
2.896064e+002, 2.914543e+001
2.900885e+002, 2.849452e+001
2.905706e+002, 2.825706e+001
2.910527e+002, 2.860982e+001
2.915349e+002, 2.911419e+001
2.920170e+002, 2.900367e+001
2.924991e+002, 2.832821e+001
2.929812e+002, 2.763959e+001
2.934633e+002, 2.716065e+001
2.939454e+002, 2.690006e+001
2.944276e+002, 2.696519e+001
2.949097e+002, 2.741205e+001
2.953918e+002, 2.795597e+001
2.958739e+002, 2.835325e+001
2.963560e+002, 2.857480e+001
2.968381e+002, 2.849848e+001
2.973203e+002, 2.780272e+001
2.978024e+002, 2.681772e+001
2.982845e+002, 2.622208e+001
2.987666e+002, 2.604379e+001
2.992487e+002, 2.608916e+001
2.997308e+002, 2.620724e+001
3.002130e+002, 2.639629e+001
3.006951e+002, 2.664975e+001
3.011772e+002, 2.701365e+001
3.016593e+002, 2.741512e+001
3.021414e+002, 2.781952e+001
3.026235e+002, 2.821926e+001
3.031057e+002, 2.844025e+001
3.035878e+002, 2.819049e+001
3.040699e+002, 2.767000e+001
3.045520e+002, 2.725545e+001
3.050341e+002, 2.713427e+001
3.055162e+002, 2.711232e+001
3.059984e+002, 2.696371e+001
3.064805e+002, 2.671232e+001
3.069626e+002, 2.651160e+001
3.074447e+002, 2.659506e+001
3.079268e+002, 2.675355e+001
3.084089e+002, 2.667818e+001
3.088911e+002, 2.610206e+001
3.093732e+002, 2.556220e+001
3.098553e+002, 2.557987e+001
3.103374e+002, 2.601861e+001
3.108195e+002, 2.641965e+001
3.113016e+002, 2.649808e+001
3.117838e+002, 2.643137e+001
3.122659e+002, 2.637653e+001
3.127480e+002, 2.637309e+001
3.132301e+002, 2.636081e+001
3.137122e+002, 2.620773e+001
3.141943e+002, 2.601748e+001
3.146765e+002, 2.601258e+001
3.151586e+002, 2.676800e+001
3.156407e+002, 2.740750e+001
3.161228e+002, 2.719299e+001
3.166049e+002, 2.575605e+001
3.170870e+002, 2.465970e+001
3.175692e+002, 2.498869e+001
3.180513e+002, 2.599484e+001
3.185334e+002, 2.663166e+001
3.190155e+002, 2.607491e+001
3.194976e+002, 2.549529e+001
3.199797e+002, 2.550158e+001
3.204619e+002, 2.619558e+001
3.209440e+002, 2.669088e+001
3.214261e+002, 2.657473e+001
3.219082e+002, 2.619867e+001
3.223903e+002, 2.589499e+001
3.228724e+002, 2.578277e+001
3.233546e+002, 2.570054e+001
3.238367e+002, 2.560677e+001
3.243188e+002, 2.550155e+001
3.248009e+002, 2.542047e+001
3.252830e+002, 2.542758e+001
3.257651e+002, 2.542591e+001
3.262473e+002, 2.535279e+001
3.267294e+002, 2.496359e+001
3.272115e+002, 2.477924e+001
3.276936e+002, 2.503774e+001
3.281757e+002, 2.560947e+001
3.286578e+002, 2.585526e+001
3.291400e+002, 2.546616e+001
3.296221e+002, 2.500467e+001
3.301042e+002, 2.471320e+001
3.305863e+002, 2.478916e+001
3.310684e+002, 2.469954e+001
3.315505e+002, 2.427769e+001
3.320327e+002, 2.372102e+001
3.325148e+002, 2.348492e+001
3.329969e+002, 2.377977e+001
3.334790e+002, 2.411155e+001
3.339611e+002, 2.428324e+001
3.344432e+002, 2.419329e+001
3.349254e+002, 2.442136e+001
3.354075e+002, 2.536294e+001
3.358896e+002, 2.628564e+001
3.363717e+002, 2.598088e+001
3.368538e+002, 2.372955e+001
3.373359e+002, 2.201285e+001
3.378180e+002, 2.168197e+001
3.383001e+002, 2.270846e+001
3.387823e+002, 2.326765e+001
3.392644e+002, 2.320519e+001
3.397465e+002, 2.297099e+001
3.402286e+002, 2.303089e+001
3.407107e+002, 2.345142e+001
3.411928e+002, 2.378961e+001
3.416750e+002, 2.401835e+001
3.421571e+002, 2.408422e+001
3.426392e+002, 2.362317e+001
3.431213e+002, 2.251645e+001
3.436034e+002, 2.149471e+001
3.440855e+002, 2.114329e+001
3.445677e+002, 2.143819e+001
3.450498e+002, 2.174505e+001
3.455319e+002, 2.202214e+001
3.460140e+002, 2.222144e+001
3.464961e+002, 2.213584e+001
3.469782e+002, 2.178250e+001
3.474604e+002, 2.160471e+001
3.479425e+002, 2.207667e+001
3.484246e+002, 2.296432e+001
3.489067e+002, 2.332712e+001
3.493888e+002, 2.304523e+001
3.498709e+002, 2.259087e+001
3.503531e+002, 2.260092e+001
3.508352e+002, 2.294516e+001
3.513173e+002, 2.313992e+001
3.517994e+002, 2.277926e+001
3.522815e+002, 2.220561e+001
3.527636e+002, 2.206308e+001
3.532458e+002, 2.235115e+001
3.537279e+002, 2.262786e+001
3.542100e+002, 2.243392e+001
3.546921e+002, 2.198596e+001
3.551742e+002, 2.165847e+001
3.556563e+002, 2.158158e+001
3.561385e+002, 2.165240e+001
3.566206e+002, 2.189724e+001
3.571027e+002, 2.225679e+001
3.575848e+002, 2.243282e+001
3.580669e+002, 2.204734e+001
3.585490e+002, 2.149634e+001
3.590312e+002, 2.116454e+001
3.595133e+002, 2.118090e+001
3.599954e+002, 2.129612e+001
3.604775e+002, 2.137369e+001
3.609596e+002, 2.144561e+001
3.614417e+002, 2.157764e+001
3.619239e+002, 2.195892e+001
3.624060e+002, 2.228470e+001
3.628881e+002, 2.240555e+001
3.633702e+002, 2.230719e+001
3.638523e+002, 2.199672e+001
3.643344e+002, 2.120860e+001
3.648166e+002, 2.030279e+001
3.652987e+002, 1.968504e+001
3.657808e+002, 1.967426e+001
3.662629e+002, 1.975320e+001
3.667450e+002, 1.981704e+001
3.672271e+002, 1.986116e+001
3.677093e+002, 1.987547e+001
3.681914e+002, 2.000649e+001
3.686735e+002, 2.001455e+001
3.691556e+002, 1.973503e+001
3.696377e+002, 1.846529e+001
3.701198e+002, 1.779988e+001
3.706020e+002, 1.814094e+001
3.710841e+002, 1.917768e+001
3.715662e+002, 1.977317e+001
3.720483e+002, 1.960783e+001
3.725304e+002, 1.938280e+001
3.730125e+002, 1.941939e+001
3.734947e+002, 1.990834e+001
3.739768e+002, 2.008143e+001
3.744589e+002, 1.976617e+001
3.749410e+002, 1.927512e+001
3.754231e+002, 1.914883e+001
3.759052e+002, 1.953863e+001
3.763874e+002, 1.986706e+001
3.768695e+002, 1.995400e+001
3.773516e+002, 1.980509e+001
3.778337e+002, 1.961999e+001
3.783158e+002, 1.937874e+001
3.787979e+002, 1.915070e+001
3.792801e+002, 1.895112e+001
3.797622e+002, 1.876831e+001
3.802443e+002, 1.888976e+001
3.807264e+002, 1.952830e+001
3.812085e+002, 2.037766e+001
3.816906e+002, 2.058862e+001
3.821728e+002, 2.015406e+001
3.826549e+002, 1.949679e+001
3.831370e+002, 1.875637e+001
3.836191e+002, 1.799977e+001
3.841012e+002, 1.755157e+001
3.845833e+002, 1.747866e+001
3.850655e+002, 1.758433e+001
3.855476e+002, 1.762190e+001
3.860297e+002, 1.761724e+001
3.865118e+002, 1.766332e+001
3.869939e+002, 1.776294e+001
3.874760e+002, 1.795774e+001
3.879582e+002, 1.844958e+001
3.884403e+002, 1.924969e+001
3.889224e+002, 1.981493e+001
3.894045e+002, 1.956094e+001
3.898866e+002, 1.883399e+001
3.903687e+002, 1.809830e+001
3.908509e+002, 1.732245e+001
3.913330e+002, 1.679557e+001
3.918151e+002, 1.694315e+001
3.922972e+002, 1.758730e+001
3.927793e+002, 1.800486e+001
3.932614e+002, 1.760477e+001
3.937436e+002, 1.699212e+001
3.942257e+002, 1.658478e+001
3.947078e+002, 1.649761e+001
3.951899e+002, 1.652516e+001
3.956720e+002, 1.673247e+001
3.961541e+002, 1.698460e+001
3.966363e+002, 1.706467e+001
3.971184e+002, 1.666006e+001
3.976005e+002, 1.631692e+001
3.980826e+002, 1.626766e+001
3.985647e+002, 1.656842e+001
3.990468e+002, 1.677131e+001
3.995290e+002, 1.667690e+001
4.000111e+002, 1.655607e+001
4.004932e+002, 1.663465e+001
4.009753e+002, 1.729565e+001
4.014574e+002, 1.763323e+001
4.019395e+002, 1.739751e+001
4.024217e+002, 1.674083e+001
4.029038e+002, 1.639048e+001
4.033859e+002, 1.646344e+001
4.038680e+002, 1.667123e+001
4.043501e+002, 1.690341e+001
4.048322e+002, 1.719337e+001
4.053144e+002, 1.738135e+001
4.057965e+002, 1.745163e+001
4.062786e+002, 1.743652e+001
4.067607e+002, 1.734439e+001
4.072428e+002, 1.713949e+001
4.077249e+002, 1.707104e+001
4.082071e+002, 1.735275e+001
4.086892e+002, 1.787041e+001
4.091713e+002, 1.775703e+001
4.096534e+002, 1.690870e+001
4.101355e+002, 1.602828e+001
4.106176e+002, 1.574229e+001
4.110998e+002, 1.598881e+001
4.115819e+002, 1.652593e+001
4.120640e+002, 1.752159e+001
4.125461e+002, 1.842353e+001
4.130282e+002, 1.803635e+001
4.135103e+002, 1.658376e+001
4.139925e+002, 1.538110e+001
4.144746e+002, 1.546721e+001
4.149567e+002, 1.619319e+001
4.154388e+002, 1.654746e+001
4.159209e+002, 1.642843e+001
4.164030e+002, 1.617179e+001
4.168852e+002, 1.599260e+001
4.173673e+002, 1.587518e+001
4.178494e+002, 1.579249e+001
4.183315e+002, 1.556712e+001
4.188136e+002, 1.550940e+001
4.192957e+002, 1.605301e+001
4.197779e+002, 1.706500e+001
4.202600e+002, 1.770677e+001
4.207421e+002, 1.725366e+001
4.212242e+002, 1.648813e+001
4.217063e+002, 1.599086e+001
4.221884e+002, 1.598716e+001
4.226706e+002, 1.600939e+001
4.231527e+002, 1.592380e+001
4.236348e+002, 1.578951e+001
4.241169e+002, 1.571722e+001
4.245990e+002, 1.558295e+001
4.250811e+002, 1.564566e+001
4.255633e+002, 1.613715e+001
4.260454e+002, 1.718986e+001
4.265275e+002, 1.771593e+001
4.270096e+002, 1.741524e+001
4.274917e+002, 1.682841e+001
4.279738e+002, 1.638749e+001
4.284560e+002, 1.614211e+001
4.289381e+002, 1.594447e+001
4.294202e+002, 1.580413e+001
4.299023e+002, 1.569770e+001
4.303844e+002, 1.549708e+001
4.308665e+002, 1.512305e+001
4.313487e+002, 1.488527e+001
4.318308e+002, 1.501344e+001
4.323129e+002, 1.553261e+001
4.327950e+002, 1.590318e+001
4.332771e+002, 1.613112e+001
4.337592e+002, 1.617412e+001
4.342414e+002, 1.580351e+001
4.347235e+002, 1.507603e+001
4.352056e+002, 1.470371e+001
4.356877e+002, 1.506956e+001
4.361698e+002, 1.581978e+001
4.366519e+002, 1.623924e+001
4.371341e+002, 1.633542e+001
4.376162e+002, 1.627583e+001
4.380983e+002, 1.614527e+001
4.385804e+002, 1.595342e+001
4.390625e+002, 1.570121e+001
4.395446e+002, 1.536873e+001
4.400268e+002, 1.504474e+001
4.405089e+002, 1.468063e+001
4.409910e+002, 1.438641e+001
4.414731e+002, 1.438950e+001
4.419552e+002, 1.517529e+001
4.424373e+002, 1.598711e+001
4.429195e+002, 1.628848e+001
4.434016e+002, 1.607455e+001
4.438837e+002, 1.586245e+001
4.443658e+002, 1.603597e+001
4.448479e+002, 1.620094e+001
4.453300e+002, 1.603757e+001
4.458122e+002, 1.509437e+001
4.462943e+002, 1.432767e+001
4.467764e+002, 1.377653e+001
4.472585e+002, 1.350751e+001
4.477406e+002, 1.369524e+001
4.482227e+002, 1.522183e+001
4.487049e+002, 1.633459e+001
4.491870e+002, 1.640175e+001
4.496691e+002, 1.519334e+001
4.501512e+002, 1.431153e+001
4.506333e+002, 1.380587e+001
4.511154e+002, 1.358217e+001
4.515976e+002, 1.360790e+001
4.520797e+002, 1.398411e+001
4.525618e+002, 1.426596e+001
4.530439e+002, 1.435933e+001
4.535260e+002, 1.432787e+001
4.540081e+002, 1.437249e+001
4.544903e+002, 1.450158e+001
4.549724e+002, 1.465498e+001
4.554545e+002, 1.480712e+001
4.559366e+002, 1.495668e+001
4.564187e+002, 1.517550e+001
4.569008e+002, 1.550914e+001
4.573830e+002, 1.566113e+001
4.578651e+002, 1.497655e+001
4.583472e+002, 1.376448e+001
4.588293e+002, 1.307412e+001
4.593114e+002, 1.341152e+001
4.597935e+002, 1.425663e+001
4.602757e+002, 1.521973e+001
4.607578e+002, 1.621094e+001
4.612399e+002, 1.680521e+001
4.617220e+002, 1.644819e+001
4.622041e+002, 1.573086e+001
4.626862e+002, 1.515671e+001
4.631684e+002, 1.477059e+001
4.636505e+002, 1.466101e+001
4.641326e+002, 1.522095e+001
4.646147e+002, 1.598369e+001
4.650968e+002, 1.635181e+001
4.655789e+002, 1.576532e+001
4.660611e+002, 1.513945e+001
4.665432e+002, 1.470987e+001
4.670253e+002, 1.447722e+001
4.675074e+002, 1.433537e+001
4.679895e+002, 1.434380e+001
4.684716e+002, 1.438382e+001
4.689538e+002, 1.440700e+001
4.694359e+002, 1.443974e+001
4.699180e+002, 1.438309e+001
4.704001e+002, 1.412267e+001
4.708822e+002, 1.385102e+001
4.713643e+002, 1.392751e+001
4.718465e+002, 1.456352e+001
4.723286e+002, 1.491507e+001
4.728107e+002, 1.466221e+001
4.732928e+002, 1.393815e+001
4.737749e+002, 1.350403e+001
4.742570e+002, 1.339485e+001
4.747392e+002, 1.340690e+001
4.752213e+002, 1.335219e+001
4.757034e+002, 1.326554e+001
4.761855e+002, 1.346370e+001
4.766676e+002, 1.406591e+001
4.771497e+002, 1.466237e+001
4.776319e+002, 1.456038e+001
4.781140e+002, 1.396032e+001
4.785961e+002, 1.351536e+001
4.790782e+002, 1.365289e+001
4.795603e+002, 1.400510e+001
4.800424e+002, 1.418182e+001
4.805246e+002, 1.419253e+001
4.810067e+002, 1.411182e+001
4.814888e+002, 1.391238e+001
4.819709e+002, 1.368439e+001
4.824530e+002, 1.349244e+001
4.829352e+002, 1.331343e+001
4.834173e+002, 1.326063e+001
4.838994e+002, 1.344520e+001
4.843815e+002, 1.377023e+001
4.848636e+002, 1.408603e+001
4.853457e+002, 1.448079e+001
4.858279e+002, 1.473698e+001
4.863100e+002, 1.474535e+001
4.867921e+002, 1.450357e+001
4.872742e+002, 1.430926e+001
4.877563e+002, 1.416158e+001
4.882384e+002, 1.406056e+001
4.887206e+002, 1.403315e+001
4.892027e+002, 1.418064e+001
4.896848e+002, 1.408835e+001
4.901669e+002, 1.358553e+001
4.906490e+002, 1.302133e+001
4.911311e+002, 1.308247e+001
4.916133e+002, 1.390481e+001
4.920954e+002, 1.438771e+001
4.925775e+002, 1.404891e+001
4.930596e+002, 1.314945e+001
4.935417e+002, 1.264804e+001
4.940238e+002, 1.254865e+001
4.945060e+002, 1.262704e+001
4.949881e+002, 1.277538e+001
4.954702e+002, 1.297159e+001
4.959523e+002, 1.319413e+001
4.964344e+002, 1.346292e+001
4.969165e+002, 1.364372e+001
4.973987e+002, 1.343742e+001
4.978808e+002, 1.306177e+001
4.983629e+002, 1.293189e+001
4.988450e+002, 1.358685e+001
4.993271e+002, 1.423377e+001
4.998092e+002, 1.424971e+001
5.002914e+002, 1.374772e+001
5.007735e+002, 1.336116e+001
5.012556e+002, 1.341878e+001
5.017377e+002, 1.360018e+001
5.022198e+002, 1.370787e+001
5.027019e+002, 1.365519e+001
5.031841e+002, 1.369844e+001
5.036662e+002, 1.405056e+001
5.041483e+002, 1.443895e+001
5.046304e+002, 1.453337e+001
5.051125e+002, 1.411397e+001
5.055946e+002, 1.375947e+001
5.060768e+002, 1.358754e+001
5.065589e+002, 1.355126e+001
5.070410e+002, 1.337023e+001
5.075231e+002, 1.294853e+001
5.080052e+002, 1.265124e+001
5.084873e+002, 1.276151e+001
5.089695e+002, 1.328311e+001
5.094516e+002, 1.352530e+001
5.099337e+002, 1.343992e+001
5.104158e+002, 1.325848e+001
5.108979e+002, 1.324599e+001
5.113800e+002, 1.336920e+001
5.118622e+002, 1.348730e+001
5.123443e+002, 1.358496e+001
5.128264e+002, 1.362751e+001
5.133085e+002, 1.349704e+001
5.137906e+002, 1.325308e+001
5.142728e+002, 1.310911e+001
5.147549e+002, 1.332088e+001
5.152370e+002, 1.359654e+001
5.157191e+002, 1.364968e+001
5.162012e+002, 1.344634e+001
5.166833e+002, 1.328963e+001
5.171655e+002, 1.351477e+001
5.176476e+002, 1.374478e+001
5.181297e+002, 1.365044e+001
5.186118e+002, 1.262547e+001
5.190939e+002, 1.194373e+001
5.195760e+002, 1.199632e+001
5.200582e+002, 1.251923e+001
5.205403e+002, 1.287989e+001
5.210224e+002, 1.308902e+001
5.215045e+002, 1.310876e+001
5.219866e+002, 1.285699e+001
5.224688e+002, 1.233328e+001
5.229509e+002, 1.199488e+001
5.234330e+002, 1.185570e+001
5.239151e+002, 1.186217e+001
5.243972e+002, 1.202312e+001
5.248793e+002, 1.234240e+001
5.253615e+002, 1.260987e+001
5.258436e+002, 1.283295e+001
5.263257e+002, 1.293244e+001
5.268078e+002, 1.266158e+001
5.272899e+002, 1.211412e+001
5.277720e+002, 1.174599e+001
5.282542e+002, 1.182992e+001
5.287363e+002, 1.212038e+001
5.292184e+002, 1.228543e+001
5.297005e+002, 1.235257e+001
5.301826e+002, 1.247983e+001
5.306647e+002, 1.296082e+001
5.311469e+002, 1.342392e+001
5.316290e+002, 1.352999e+001
5.321111e+002, 1.318103e+001
5.325932e+002, 1.272137e+001
5.330753e+002, 1.203404e+001
5.335574e+002, 1.141258e+001
5.340396e+002, 1.117251e+001
5.345217e+002, 1.175620e+001
5.350038e+002, 1.226479e+001
5.354859e+002, 1.253505e+001
5.359680e+002, 1.263931e+001
5.364501e+002, 1.281935e+001
5.369323e+002, 1.316145e+001
5.374144e+002, 1.343517e+001
5.378965e+002, 1.357165e+001
5.383786e+002, 1.357218e+001
5.388607e+002, 1.331874e+001
5.393428e+002, 1.269329e+001
5.398250e+002, 1.218384e+001
5.403071e+002, 1.238877e+001
5.407892e+002, 1.321653e+001
5.412713e+002, 1.385666e+001
5.417534e+002, 1.421735e+001
5.422355e+002, 1.426011e+001
5.427177e+002, 1.364631e+001
5.431998e+002, 1.261373e+001
5.436819e+002, 1.193755e+001
5.441640e+002, 1.233654e+001
5.446461e+002, 1.300539e+001
5.451282e+002, 1.315063e+001
5.456104e+002, 1.285205e+001
5.460925e+002, 1.262175e+001
5.465746e+002, 1.285292e+001
5.470567e+002, 1.315355e+001
5.475388e+002, 1.324211e+001
5.480209e+002, 1.300403e+001
5.485031e+002, 1.280859e+001
5.489852e+002, 1.271902e+001
5.494673e+002, 1.271430e+001
5.499494e+002, 1.277398e+001
5.504315e+002, 1.293847e+001
5.509136e+002, 1.310514e+001
5.513958e+002, 1.328842e+001
5.518779e+002, 1.346127e+001
5.523600e+002, 1.355124e+001
5.528421e+002, 1.356930e+001
5.533242e+002, 1.346364e+001
5.538063e+002, 1.313506e+001
5.542885e+002, 1.263508e+001
5.547706e+002, 1.237451e+001
5.552527e+002, 1.236041e+001
5.557348e+002, 1.250955e+001
5.562169e+002, 1.286440e+001
5.566990e+002, 1.332173e+001
5.571812e+002, 1.363518e+001
5.576633e+002, 1.377228e+001
5.581454e+002, 1.373546e+001
5.586275e+002, 1.328561e+001
5.591096e+002, 1.269916e+001
5.595917e+002, 1.245432e+001
5.600739e+002, 1.314882e+001
5.605560e+002, 1.385189e+001
5.610381e+002, 1.418402e+001
5.615202e+002, 1.415203e+001
5.620023e+002, 1.382428e+001
5.624844e+002, 1.261849e+001
5.629666e+002, 1.163358e+001
5.634487e+002, 1.148845e+001
5.639308e+002, 1.241366e+001
5.644129e+002, 1.302221e+001
5.648950e+002, 1.323736e+001
5.653771e+002, 1.321918e+001
5.658593e+002, 1.304045e+001
5.663414e+002, 1.261472e+001
5.668235e+002, 1.241396e+001
5.673056e+002, 1.252793e+001
5.677877e+002, 1.281555e+001
5.682698e+002, 1.308778e+001
5.687520e+002, 1.333811e+001
5.692341e+002, 1.340608e+001
5.697162e+002, 1.313035e+001
5.701983e+002, 1.270446e+001
5.706804e+002, 1.242598e+001
5.711625e+002, 1.230009e+001
5.716447e+002, 1.234834e+001
5.721268e+002, 1.269237e+001
5.726089e+002, 1.315526e+001
5.730910e+002, 1.367146e+001
5.735731e+002, 1.429597e+001
5.740552e+002, 1.449868e+001
5.745374e+002, 1.346095e+001
5.750195e+002, 1.217759e+001
5.755016e+002, 1.157435e+001
5.759837e+002, 1.257122e+001
5.764658e+002, 1.333657e+001
5.769479e+002, 1.371574e+001
5.774301e+002, 1.376153e+001
5.779122e+002, 1.351083e+001
5.783943e+002, 1.265009e+001
5.788764e+002, 1.213674e+001
5.793585e+002, 1.238405e+001
5.798406e+002, 1.323335e+001
5.803228e+002, 1.352317e+001
5.808049e+002, 1.318950e+001
5.812870e+002, 1.271099e+001
5.817691e+002, 1.235645e+001
5.822512e+002, 1.211593e+001
5.827333e+002, 1.192300e+001
5.832155e+002, 1.176628e+001
5.836975e+002, 1.173304e+001
5.841796e+002, 1.207741e+001
5.846617e+002, 1.256002e+001
5.851439e+002, 1.277635e+001
5.856260e+002, 1.254139e+001
5.861081e+002, 1.215212e+001
5.865902e+002, 1.153375e+001
5.870723e+002, 1.091457e+001
5.875544e+002, 1.074112e+001
5.880366e+002, 1.165530e+001
5.885187e+002, 1.250602e+001
5.890008e+002, 1.296286e+001
5.894829e+002, 1.301687e+001
5.899650e+002, 1.281285e+001
5.904471e+002, 1.198832e+001
5.909293e+002, 1.137805e+001
5.914114e+002, 1.146773e+001
5.918935e+002, 1.239409e+001
5.923756e+002, 1.300536e+001
5.928577e+002, 1.322076e+001
5.933398e+002, 1.334128e+001
5.938220e+002, 1.386924e+001
5.943041e+002, 1.469101e+001
5.947862e+002, 1.478465e+001
5.952683e+002, 1.374232e+001
5.957504e+002, 1.250631e+001
5.962325e+002, 1.246406e+001
5.967147e+002, 1.321495e+001
5.971968e+002, 1.371597e+001
5.976789e+002, 1.318562e+001
5.981610e+002, 1.251125e+001
5.986431e+002, 1.234831e+001
5.991252e+002, 1.261013e+001
5.996074e+002, 1.286680e+001
6.000895e+002, 1.297717e+001
6.005716e+002, 1.303662e+001
6.010537e+002, 1.309857e+001
6.015358e+002, 1.318148e+001
6.020179e+002, 1.318427e+001
6.025001e+002, 1.308094e+001
6.029822e+002, 1.292198e+001
6.034643e+002, 1.272673e+001
6.039464e+002, 1.246164e+001
6.044285e+002, 1.227088e+001
6.049106e+002, 1.213362e+001
6.053928e+002, 1.212302e+001
6.058749e+002, 1.248802e+001
6.063570e+002, 1.318357e+001
6.068391e+002, 1.357795e+001
6.073212e+002, 1.334674e+001
6.078033e+002, 1.288489e+001
6.082855e+002, 1.280019e+001
6.087676e+002, 1.301160e+001
6.092497e+002, 1.321793e+001
6.097318e+002, 1.327496e+001
6.102139e+002, 1.324341e+001
6.106960e+002, 1.312748e+001
6.111782e+002, 1.293421e+001
6.116603e+002, 1.280617e+001
6.121424e+002, 1.283034e+001
6.126245e+002, 1.290723e+001
6.131066e+002, 1.298179e+001
6.135887e+002, 1.306934e+001
6.140709e+002, 1.310285e+001
6.145530e+002, 1.301324e+001
6.150351e+002, 1.293259e+001
6.155172e+002, 1.303239e+001
6.159993e+002, 1.338184e+001
6.164814e+002, 1.360178e+001
6.169636e+002, 1.363110e+001
6.174457e+002, 1.351721e+001
6.179278e+002, 1.333472e+001
6.184099e+002, 1.308406e+001
6.188920e+002, 1.276721e+001
6.193741e+002, 1.220207e+001
6.198563e+002, 1.169925e+001
6.203384e+002, 1.182134e+001
6.208205e+002, 1.247024e+001
6.213026e+002, 1.315596e+001
6.217847e+002, 1.370222e+001
6.222668e+002, 1.410279e+001
6.227490e+002, 1.436583e+001
6.232311e+002, 1.450379e+001
6.237132e+002, 1.439530e+001
6.241953e+002, 1.366859e+001
6.246774e+002, 1.291644e+001
6.251595e+002, 1.255981e+001
6.256417e+002, 1.281625e+001
6.261238e+002, 1.306751e+001
6.266059e+002, 1.337232e+001
6.270880e+002, 1.360603e+001
6.275701e+002, 1.351777e+001
6.280522e+002, 1.305165e+001
6.285344e+002, 1.283043e+001
6.290165e+002, 1.305388e+001
6.294986e+002, 1.348798e+001
6.299807e+002, 1.370795e+001
6.304628e+002, 1.373516e+001
6.309449e+002, 1.368275e+001
6.314271e+002, 1.363411e+001
6.319092e+002, 1.351734e+001
6.323913e+002, 1.312613e+001
6.328734e+002, 1.253057e+001
6.333555e+002, 1.217602e+001
6.338376e+002, 1.264179e+001
6.343198e+002, 1.313304e+001
6.348019e+002, 1.305481e+001
6.352840e+002, 1.216050e+001
6.357661e+002, 1.171502e+001
6.362482e+002, 1.224611e+001
6.367303e+002, 1.292888e+001
6.372125e+002, 1.317148e+001
6.376946e+002, 1.273465e+001
6.381767e+002, 1.258500e+001
6.386588e+002, 1.285354e+001
6.391409e+002, 1.325145e+001
6.396230e+002, 1.328974e+001
6.401052e+002, 1.300346e+001
6.405873e+002, 1.295531e+001
6.410694e+002, 1.337541e+001
6.415515e+002, 1.394856e+001
6.420336e+002, 1.415767e+001
6.425157e+002, 1.411484e+001
6.429979e+002, 1.415153e+001
6.434800e+002, 1.470093e+001
6.439621e+002, 1.516181e+001
6.444442e+002, 1.492995e+001
6.449263e+002, 1.414517e+001
6.454084e+002, 1.365385e+001
6.458906e+002, 1.405470e+001
6.463727e+002, 1.452839e+001
6.468548e+002, 1.471362e+001
6.473369e+002, 1.459433e+001
6.478190e+002, 1.426431e+001
6.483011e+002, 1.351365e+001
6.487833e+002, 1.287140e+001
6.492654e+002, 1.281448e+001
6.497475e+002, 1.340300e+001
6.502296e+002, 1.382038e+001
6.507117e+002, 1.399891e+001
6.511938e+002, 1.409379e+001
6.516760e+002, 1.436323e+001
6.521581e+002, 1.471208e+001
6.526402e+002, 1.480180e+001
6.531223e+002, 1.442738e+001
6.536044e+002, 1.401575e+001
6.540865e+002, 1.395124e+001
6.545687e+002, 1.412286e+001
6.550508e+002, 1.431424e+001
6.555329e+002, 1.456865e+001
6.560150e+002, 1.470316e+001
6.564971e+002, 1.460054e+001
6.569792e+002, 1.430217e+001
6.574614e+002, 1.402719e+001
6.579435e+002, 1.377621e+001
6.584256e+002, 1.356420e+001
6.589077e+002, 1.341269e+001
6.593898e+002, 1.331730e+001
6.598719e+002, 1.311276e+001
6.603541e+002, 1.274009e+001
6.608362e+002, 1.253438e+001
6.613183e+002, 1.285291e+001
6.618004e+002, 1.354918e+001
6.622825e+002, 1.408582e+001
6.627646e+002, 1.443481e+001
6.632468e+002, 1.460066e+001
6.637289e+002, 1.440091e+001
6.642110e+002, 1.409351e+001
6.646931e+002, 1.404439e+001
6.651752e+002, 1.444111e+001
6.656573e+002, 1.481469e+001
6.661395e+002, 1.503609e+001
6.666216e+002, 1.509364e+001
6.671037e+002, 1.497292e+001
6.675858e+002, 1.430677e+001
6.680679e+002, 1.393850e+001
6.685500e+002, 1.402108e+001
6.690322e+002, 1.440049e+001
6.695143e+002, 1.478918e+001
6.699964e+002, 1.522872e+001
6.704785e+002, 1.547548e+001
6.709606e+002, 1.540441e+001
6.714427e+002, 1.512503e+001
6.719249e+002, 1.487191e+001
6.724070e+002, 1.465878e+001
6.728891e+002, 1.461152e+001
6.733712e+002, 1.506943e+001
6.738533e+002, 1.557716e+001
6.743354e+002, 1.549601e+001
6.748176e+002, 1.487213e+001
6.752997e+002, 1.433286e+001
6.757818e+002, 1.417456e+001
6.762639e+002, 1.421867e+001
6.767460e+002, 1.441498e+001
6.772281e+002, 1.484211e+001
6.777103e+002, 1.505704e+001
6.781924e+002, 1.488978e+001
6.786745e+002, 1.466613e+001
6.791566e+002, 1.462380e+001
6.796387e+002, 1.479490e+001
6.801208e+002, 1.501653e+001
6.806030e+002, 1.531157e+001
6.810851e+002, 1.557951e+001
6.815672e+002, 1.569904e+001
6.820493e+002, 1.568622e+001
6.825314e+002, 1.562382e+001
6.830135e+002, 1.555389e+001
6.834957e+002, 1.538756e+001
6.839778e+002, 1.483989e+001
6.844599e+002, 1.415089e+001
6.849420e+002, 1.379017e+001
6.854241e+002, 1.420842e+001
6.859063e+002, 1.468380e+001
6.863884e+002, 1.493572e+001
6.868705e+002, 1.502876e+001
6.873526e+002, 1.521102e+001
6.878347e+002, 1.567831e+001
6.883168e+002, 1.597301e+001
6.887990e+002, 1.593135e+001
6.892811e+002, 1.560561e+001
6.897632e+002, 1.528238e+001
6.902453e+002, 1.493138e+001
6.907274e+002, 1.479224e+001
6.912095e+002, 1.524556e+001
6.916917e+002, 1.600241e+001
6.921738e+002, 1.611576e+001
6.926559e+002, 1.559818e+001
6.931380e+002, 1.501726e+001
6.936201e+002, 1.466368e+001
6.941022e+002, 1.452317e+001
6.945844e+002, 1.465345e+001
6.950665e+002, 1.511540e+001
6.955486e+002, 1.546519e+001
6.960307e+002, 1.540545e+001
6.965128e+002, 1.526621e+001
6.969949e+002, 1.533021e+001
6.974771e+002, 1.585054e+001
6.979592e+002, 1.603551e+001
6.984413e+002, 1.576026e+001
6.989234e+002, 1.530801e+001
6.994055e+002, 1.497076e+001
6.998876e+002, 1.474721e+001
7.003698e+002, 1.474425e+001
7.008519e+002, 1.502742e+001
7.013340e+002, 1.540948e+001
7.018161e+002, 1.566562e+001
7.022982e+002, 1.581212e+001
7.027803e+002, 1.587874e+001
7.032625e+002, 1.573395e+001
7.037446e+002, 1.568888e+001
7.042267e+002, 1.618722e+001
7.047088e+002, 1.692670e+001
7.051909e+002, 1.723700e+001
7.056730e+002, 1.659271e+001
7.061552e+002, 1.586966e+001
7.066373e+002, 1.505032e+001
7.071194e+002, 1.428702e+001
7.076015e+002, 1.446942e+001
7.080836e+002, 1.604166e+001
7.085657e+002, 1.717892e+001
7.090479e+002, 1.688452e+001
7.095300e+002, 1.558773e+001
7.100121e+002, 1.522530e+001
7.104942e+002, 1.576057e+001
7.109763e+002, 1.630105e+001
7.114584e+002, 1.613865e+001
7.119406e+002, 1.569566e+001
7.124227e+002, 1.552884e+001
7.129048e+002, 1.565895e+001
7.133869e+002, 1.572783e+001
7.138690e+002, 1.537681e+001
7.143511e+002, 1.504150e+001
7.148333e+002, 1.504389e+001
7.153154e+002, 1.557393e+001
7.157975e+002, 1.593797e+001
7.162796e+002, 1.608868e+001
7.167617e+002, 1.613132e+001
7.172438e+002, 1.610250e+001
7.177260e+002, 1.597976e+001
7.182081e+002, 1.608378e+001
7.186902e+002, 1.648707e+001
7.191723e+002, 1.689384e+001
7.196544e+002, 1.697706e+001
7.201365e+002, 1.678746e+001
7.206187e+002, 1.638734e+001
7.211008e+002, 1.566737e+001
7.215829e+002, 1.510984e+001
7.220650e+002, 1.518433e+001
7.225471e+002, 1.560048e+001
7.230292e+002, 1.597160e+001
7.235114e+002, 1.620740e+001
7.239935e+002, 1.635793e+001
7.244756e+002, 1.638946e+001
7.249577e+002, 1.635642e+001
7.254398e+002, 1.637234e+001
7.259219e+002, 1.650790e+001
7.264041e+002, 1.642244e+001
7.268862e+002, 1.588774e+001
7.273683e+002, 1.525404e+001
7.278504e+002, 1.565426e+001
7.283325e+002, 1.689621e+001
7.288146e+002, 1.764687e+001
7.292968e+002, 1.676902e+001
7.297789e+002, 1.554842e+001
7.302610e+002, 1.566133e+001
7.307431e+002, 1.670764e+001
7.312252e+002, 1.736050e+001
7.317073e+002, 1.659758e+001
7.321895e+002, 1.575729e+001
7.326716e+002, 1.537239e+001
7.331537e+002, 1.545489e+001
7.336358e+002, 1.572981e+001
7.341179e+002, 1.642630e+001
7.346000e+002, 1.691847e+001
7.350822e+002, 1.682058e+001
7.355643e+002, 1.622859e+001
7.360464e+002, 1.617330e+001
7.365285e+002, 1.667929e+001
7.370106e+002, 1.723108e+001
7.374927e+002, 1.745875e+001
7.379749e+002, 1.749007e+001
7.384570e+002, 1.759119e+001
7.389391e+002, 1.776607e+001
7.394212e+002, 1.773939e+001
7.399033e+002, 1.708875e+001
7.403854e+002, 1.636078e+001
7.408676e+002, 1.594008e+001
7.413497e+002, 1.591284e+001
7.418318e+002, 1.605177e+001
7.423139e+002, 1.650025e+001
7.427960e+002, 1.692221e+001
7.432781e+002, 1.704987e+001
7.437603e+002, 1.681703e+001
7.442424e+002, 1.679431e+001
7.447245e+002, 1.704036e+001
7.452066e+002, 1.731394e+001
7.456887e+002, 1.735522e+001
7.461708e+002, 1.722805e+001
7.466530e+002, 1.707727e+001
7.471351e+002, 1.691222e+001
7.476172e+002, 1.680897e+001
7.480993e+002, 1.693686e+001
7.485814e+002, 1.710716e+001
7.490635e+002, 1.709538e+001
7.495457e+002, 1.661105e+001
7.500278e+002, 1.633030e+001
7.505099e+002, 1.646604e+001
7.509920e+002, 1.676256e+001
7.514741e+002, 1.691630e+001
7.519562e+002, 1.686791e+001
7.524384e+002, 1.694158e+001
7.529205e+002, 1.722214e+001
7.534026e+002, 1.754873e+001
7.538847e+002, 1.761431e+001
7.543668e+002, 1.749013e+001
7.548489e+002, 1.746767e+001
7.553311e+002, 1.766654e+001
7.558132e+002, 1.793765e+001
7.562953e+002, 1.820540e+001
7.567774e+002, 1.844299e+001
7.572595e+002, 1.859773e+001
7.577416e+002, 1.876460e+001
7.582238e+002, 1.871597e+001
7.587059e+002, 1.818384e+001
7.591880e+002, 1.745463e+001
7.596701e+002, 1.712777e+001
7.601522e+002, 1.728042e+001
7.606343e+002, 1.761328e+001
7.611165e+002, 1.816882e+001
7.615986e+002, 1.874241e+001
7.620807e+002, 1.876398e+001
7.625628e+002, 1.831166e+001
7.630449e+002, 1.783564e+001
7.635270e+002, 1.739527e+001
7.640092e+002, 1.715809e+001
7.644913e+002, 1.744824e+001
7.649734e+002, 1.809315e+001
7.654555e+002, 1.856003e+001
7.659376e+002, 1.842023e+001
7.664197e+002, 1.831513e+001
7.669019e+002, 1.858131e+001
7.673840e+002, 1.909356e+001
7.678661e+002, 1.922044e+001
7.683482e+002, 1.882609e+001
7.688303e+002, 1.844224e+001
7.693124e+002, 1.828107e+001
7.697946e+002, 1.829252e+001
7.702767e+002, 1.832704e+001
7.707588e+002, 1.837903e+001
7.712409e+002, 1.839633e+001
7.717230e+002, 1.837260e+001
7.722051e+002, 1.828133e+001
7.726873e+002, 1.799353e+001
7.731694e+002, 1.756050e+001
7.736515e+002, 1.735346e+001
7.741336e+002, 1.774698e+001
7.746157e+002, 1.815556e+001
7.750978e+002, 1.828646e+001
7.755800e+002, 1.815350e+001
7.760621e+002, 1.818204e+001
7.765442e+002, 1.838031e+001
7.770263e+002, 1.872419e+001
7.775084e+002, 1.939658e+001
7.779905e+002, 2.022481e+001
7.784727e+002, 2.016319e+001
7.789548e+002, 1.926768e+001
7.794369e+002, 1.853926e+001
7.799190e+002, 1.908065e+001
7.804011e+002, 1.988190e+001
7.808832e+002, 1.980202e+001
7.813654e+002, 1.878119e+001
7.818475e+002, 1.804757e+001
7.823296e+002, 1.815733e+001
7.828117e+002, 1.851660e+001
7.832938e+002, 1.890837e+001
7.837759e+002, 1.936928e+001
7.842581e+002, 1.935879e+001
7.847402e+002, 1.872053e+001
7.852223e+002, 1.810183e+001
7.857044e+002, 1.801979e+001
7.861865e+002, 1.833336e+001
7.866686e+002, 1.845246e+001
7.871508e+002, 1.836370e+001
7.876329e+002, 1.832310e+001
7.881150e+002, 1.857259e+001
7.885971e+002, 1.893210e+001
7.890792e+002, 1.920669e+001
7.895613e+002, 1.936091e+001
7.900435e+002, 1.960355e+001
7.905256e+002, 2.019411e+001
7.910077e+002, 2.070193e+001
7.914898e+002, 2.091837e+001
7.919719e+002, 2.083103e+001
7.924540e+002, 2.041789e+001
7.929362e+002, 1.956728e+001
7.934183e+002, 1.887906e+001
7.939004e+002, 1.905119e+001
7.943825e+002, 1.977268e+001
7.948646e+002, 2.017879e+001
7.953467e+002, 2.020945e+001
7.958289e+002, 2.007439e+001
7.963110e+002, 1.983916e+001
7.967931e+002, 1.956537e+001
7.972752e+002, 1.924783e+001
7.977573e+002, 1.879869e+001
7.982394e+002, 1.873043e+001
7.987216e+002, 1.955514e+001
7.992037e+002, 2.027004e+001
7.996858e+002, 2.009240e+001
8.001679e+002, 1.881519e+001
8.006500e+002, 1.834797e+001
8.011321e+002, 1.878171e+001
8.016143e+002, 1.940731e+001
8.020964e+002, 1.965954e+001
8.025785e+002, 1.962269e+001
8.030606e+002, 1.937208e+001
8.035427e+002, 1.889579e+001
8.040248e+002, 1.856093e+001
8.045070e+002, 1.860759e+001
8.049891e+002, 1.886194e+001
8.054712e+002, 1.922420e+001
8.059533e+002, 1.975810e+001
8.064354e+002, 2.016235e+001
8.069175e+002, 2.041890e+001
8.073997e+002, 2.056921e+001
8.078818e+002, 2.061373e+001
8.083639e+002, 2.055505e+001
8.088460e+002, 2.052957e+001
8.093281e+002, 2.054082e+001
8.098102e+002, 2.059723e+001
8.102924e+002, 2.092666e+001
8.107745e+002, 2.120600e+001
8.112566e+002, 2.080610e+001
8.117387e+002, 1.954438e+001
8.122208e+002, 1.869841e+001
8.127029e+002, 1.911556e+001
8.131851e+002, 1.989895e+001
8.136672e+002, 2.046060e+001
8.141493e+002, 2.077636e+001
8.146314e+002, 2.090382e+001
8.151135e+002, 2.080184e+001
8.155956e+002, 2.061147e+001
8.160778e+002, 2.039826e+001
8.165599e+002, 2.018525e+001
8.170420e+002, 2.008911e+001
8.175241e+002, 2.011675e+001
8.180062e+002, 2.022101e+001
8.184883e+002, 2.047663e+001
8.189705e+002, 2.072134e+001
8.194526e+002, 2.074565e+001
8.199347e+002, 2.047908e+001
8.204168e+002, 2.035057e+001
8.208989e+002, 2.065791e+001
8.213810e+002, 2.093059e+001
8.218632e+002, 2.086877e+001
8.223453e+002, 2.040508e+001
8.228274e+002, 2.034590e+001
8.233095e+002, 2.075917e+001
8.237916e+002, 2.116850e+001
8.242737e+002, 2.114562e+001
8.247559e+002, 2.086058e+001
8.252380e+002, 2.062882e+001
8.257201e+002, 2.047294e+001
8.262022e+002, 2.036671e+001
8.266843e+002, 2.023588e+001
8.271664e+002, 2.019739e+001
8.276486e+002, 2.039933e+001
8.281307e+002, 2.091969e+001
8.286128e+002, 2.117104e+001
8.290949e+002, 2.109919e+001
8.295770e+002, 2.084676e+001
8.300591e+002, 2.034933e+001
8.305413e+002, 1.967056e+001
8.310234e+002, 1.961172e+001
8.315055e+002, 2.016480e+001
8.319876e+002, 2.073298e+001
8.324697e+002, 2.091393e+001
8.329518e+002, 2.087286e+001
8.334340e+002, 2.075617e+001
8.339161e+002, 2.057840e+001
8.343982e+002, 2.038986e+001
8.348803e+002, 2.012764e+001
8.353624e+002, 1.994043e+001
8.358445e+002, 1.988733e+001
8.363267e+002, 1.996549e+001
8.368088e+002, 2.015365e+001
8.372909e+002, 2.049231e+001
8.377730e+002, 2.074915e+001
8.382551e+002, 2.074567e+001
8.387372e+002, 2.058239e+001
8.392194e+002, 2.052996e+001
8.397015e+002, 2.056380e+001
8.401836e+002, 2.054130e+001
8.406657e+002, 2.015504e+001
8.411478e+002, 1.988799e+001
8.416299e+002, 2.017345e+001
8.421121e+002, 2.093893e+001
8.425942e+002, 2.142254e+001
8.430763e+002, 2.144281e+001
8.435584e+002, 2.143608e+001
8.440405e+002, 2.155857e+001
8.445226e+002, 2.175154e+001
8.450048e+002, 2.177458e+001
8.454869e+002, 2.163487e+001
8.459690e+002, 2.144355e+001
8.464511e+002, 2.122864e+001
8.469332e+002, 2.101578e+001
8.474153e+002, 2.071879e+001
8.478975e+002, 2.043958e+001
8.483796e+002, 2.046624e+001
8.488617e+002, 2.148289e+001
8.493438e+002, 2.213990e+001
8.498259e+002, 2.193192e+001
8.503080e+002, 2.114440e+001
8.507902e+002, 2.040633e+001
8.512723e+002, 1.967296e+001
8.517544e+002, 1.933832e+001
8.522365e+002, 1.965272e+001
8.527186e+002, 2.020953e+001
8.532007e+002, 2.025151e+001
8.536829e+002, 1.993911e+001
8.541650e+002, 1.972273e+001
8.546471e+002, 2.003574e+001
8.551292e+002, 2.015293e+001
8.556113e+002, 1.932537e+001
8.560934e+002, 1.816702e+001
8.565756e+002, 1.784375e+001
8.570577e+002, 1.894736e+001
8.575398e+002, 1.974198e+001
8.580219e+002, 2.002181e+001
8.585040e+002, 1.996003e+001
8.589861e+002, 1.976045e+001
8.594683e+002, 1.944670e+001
8.599504e+002, 1.912714e+001
8.604325e+002, 1.879667e+001
8.609146e+002, 1.857784e+001
8.613967e+002, 1.867332e+001
8.618788e+002, 1.891065e+001
8.623610e+002, 1.908567e+001
8.628431e+002, 1.920208e+001
8.633252e+002, 1.914955e+001
8.638073e+002, 1.886508e+001
8.642894e+002, 1.847981e+001
8.647715e+002, 1.803610e+001
8.652537e+002, 1.751121e+001
8.657358e+002, 1.750483e+001
8.662179e+002, 1.813842e+001
8.667000e+002, 1.876810e+001
8.671821e+002, 1.856359e+001
8.676642e+002, 1.801579e+001
8.681464e+002, 1.788617e+001
8.686285e+002, 1.835532e+001
8.691106e+002, 1.876382e+001
8.695927e+002, 1.880914e+001
8.700748e+002, 1.874844e+001
8.705569e+002, 1.876802e+001
8.710391e+002, 1.890141e+001
8.715212e+002, 1.886418e+001
8.720033e+002, 1.862148e+001
8.724854e+002, 1.834279e+001
8.729675e+002, 1.816335e+001
8.734496e+002, 1.804205e+001
8.739318e+002, 1.786250e+001
8.744139e+002, 1.763169e+001
8.748960e+002, 1.747452e+001
8.753781e+002, 1.756987e+001
8.758602e+002, 1.767079e+001
8.763423e+002, 1.760040e+001
8.768245e+002, 1.735225e+001
8.773066e+002, 1.718890e+001
8.777887e+002, 1.716421e+001
8.782708e+002, 1.709350e+001
8.787529e+002, 1.683250e+001
8.792350e+002, 1.650100e+001
8.797172e+002, 1.662171e+001
8.801993e+002, 1.710985e+001
8.806814e+002, 1.742284e+001
8.811635e+002, 1.703563e+001
8.816456e+002, 1.657093e+001
8.821277e+002, 1.657655e+001
8.826099e+002, 1.688567e+001
8.830920e+002, 1.699069e+001
8.835741e+002, 1.664362e+001
8.840562e+002, 1.627443e+001
8.845383e+002, 1.585411e+001
8.850204e+002, 1.552431e+001
8.855026e+002, 1.569540e+001
8.859847e+002, 1.632886e+001
8.864668e+002, 1.687541e+001
8.869489e+002, 1.722297e+001
8.874310e+002, 1.731786e+001
8.879131e+002, 1.685345e+001
8.883953e+002, 1.617436e+001
8.888774e+002, 1.580784e+001
8.893595e+002, 1.627561e+001
8.898416e+002, 1.649206e+001
8.903237e+002, 1.619640e+001
8.908058e+002, 1.568811e+001
8.912880e+002, 1.524447e+001
8.917701e+002, 1.486860e+001
8.922522e+002, 1.452837e+001
8.927343e+002, 1.420579e+001
8.932164e+002, 1.400077e+001
8.936985e+002, 1.402513e+001
8.941807e+002, 1.423070e+001
8.946628e+002, 1.465382e+001
8.951449e+002, 1.537083e+001
8.956270e+002, 1.574043e+001
8.961091e+002, 1.518746e+001
8.965912e+002, 1.451294e+001
8.970734e+002, 1.419671e+001
8.975555e+002, 1.427097e+001
8.980376e+002, 1.435745e+001
8.985197e+002, 1.446756e+001
8.990018e+002, 1.451826e+001
8.994839e+002, 1.445130e+001
8.999661e+002, 1.428473e+001
9.004482e+002, 1.396397e+001
9.009303e+002, 1.353385e+001
9.014124e+002, 1.328236e+001
9.018945e+002, 1.362787e+001
9.023766e+002, 1.390923e+001
9.028588e+002, 1.363534e+001
9.033409e+002, 1.298988e+001
9.038230e+002, 1.291067e+001
9.043051e+002, 1.361083e+001
9.047872e+002, 1.400622e+001
9.052693e+002, 1.360893e+001
9.057515e+002, 1.286021e+001
9.062336e+002, 1.264274e+001
9.067157e+002, 1.282773e+001
9.071978e+002, 1.304379e+001
9.076799e+002, 1.315891e+001
9.081620e+002, 1.324390e+001
9.086442e+002, 1.326497e+001
9.091263e+002, 1.330089e+001
9.096084e+002, 1.352602e+001
9.100905e+002, 1.418999e+001
9.105726e+002, 1.431868e+001
9.110547e+002, 1.369177e+001
9.115369e+002, 1.283434e+001
9.120190e+002, 1.244882e+001
9.125011e+002, 1.239386e+001
9.129832e+002, 1.225518e+001
9.134653e+002, 1.194284e+001
9.139474e+002, 1.167271e+001
9.144296e+002, 1.165635e+001
9.149117e+002, 1.169138e+001
9.153938e+002, 1.159430e+001
9.158759e+002, 1.131302e+001
9.163580e+002, 1.103029e+001
9.168401e+002, 1.063459e+001
9.173223e+002, 1.051322e+001
9.178044e+002, 1.115428e+001
9.182865e+002, 1.228665e+001
9.187686e+002, 1.295917e+001
9.192507e+002, 1.317761e+001
9.197328e+002, 1.309558e+001
9.202150e+002, 1.240012e+001
9.206971e+002, 1.180449e+001
9.211792e+002, 1.192280e+001
9.216613e+002, 1.263795e+001
9.221434e+002, 1.291025e+001
9.226255e+002, 1.253576e+001
9.231077e+002, 1.213004e+001
9.235898e+002, 1.179823e+001
9.240719e+002, 1.161990e+001
9.245540e+002, 1.196243e+001
9.250361e+002, 1.266131e+001
9.255182e+002, 1.301600e+001
9.260004e+002, 1.253948e+001
9.264825e+002, 1.202611e+001
9.269646e+002, 1.207471e+001
9.274467e+002, 1.236567e+001
9.279288e+002, 1.239908e+001
9.284109e+002, 1.190869e+001
9.288931e+002, 1.166302e+001
9.293752e+002, 1.177067e+001
9.298573e+002, 1.198221e+001
9.303394e+002, 1.204023e+001
9.308215e+002, 1.196599e+001
9.313036e+002, 1.182283e+001
9.317858e+002, 1.161439e+001
9.322679e+002, 1.139266e+001
9.327500e+002, 1.107635e+001
9.332321e+002, 1.084747e+001
9.337142e+002, 1.091239e+001
9.341964e+002, 1.135058e+001
9.346785e+002, 1.150716e+001
9.351606e+002, 1.130101e+001
9.356427e+002, 1.100408e+001
9.361248e+002, 1.069744e+001
9.366069e+002, 1.042614e+001
9.370891e+002, 1.040465e+001
9.375712e+002, 1.058939e+001
9.380533e+002, 1.076472e+001
9.385354e+002, 1.072425e+001
9.390175e+002, 1.072903e+001
9.394996e+002, 1.108551e+001
9.399818e+002, 1.159522e+001
9.404639e+002, 1.164343e+001
9.409460e+002, 1.092386e+001
9.414281e+002, 1.055929e+001
9.419102e+002, 1.087194e+001
9.423923e+002, 1.138390e+001
9.428745e+002, 1.121263e+001
9.433566e+002, 1.060152e+001
9.438387e+002, 1.027489e+001
9.443208e+002, 1.046042e+001
9.448029e+002, 1.075626e+001
9.452850e+002, 1.104241e+001
9.457672e+002, 1.126575e+001
9.462493e+002, 1.134092e+001
9.467314e+002, 1.117936e+001
9.472135e+002, 1.131536e+001
9.476956e+002, 1.188739e+001
9.481777e+002, 1.228526e+001
9.486599e+002, 1.182808e+001
9.491420e+002, 1.089182e+001
9.496241e+002, 1.039180e+001
9.501062e+002, 1.031147e+001
9.505883e+002, 1.030269e+001
9.510704e+002, 1.019456e+001
9.515526e+002, 1.009509e+001
9.520347e+002, 9.950838e+000
9.525168e+002, 9.851085e+000
9.529989e+002, 1.029239e+001
9.534810e+002, 1.150339e+001
9.539631e+002, 1.211443e+001
9.544453e+002, 1.155259e+001
9.549274e+002, 1.052314e+001
9.554095e+002, 1.010509e+001
9.558916e+002, 1.012961e+001
9.563737e+002, 1.022167e+001
9.568558e+002, 1.021583e+001
9.573380e+002, 1.035434e+001
9.578201e+002, 1.107272e+001
9.583022e+002, 1.173076e+001
9.587843e+002, 1.164153e+001
9.592664e+002, 1.059559e+001
9.597485e+002, 9.994121e+000
9.602307e+002, 9.906978e+000
9.607128e+002, 1.005500e+001
9.611949e+002, 1.028154e+001
9.616770e+002, 1.054561e+001
9.621591e+002, 1.085429e+001
9.626412e+002, 1.119216e+001
9.631234e+002, 1.129729e+001
9.636055e+002, 1.075702e+001
9.640876e+002, 1.033051e+001
9.645697e+002, 1.033774e+001
9.650518e+002, 1.066304e+001
9.655339e+002, 1.080859e+001
9.660161e+002, 1.077409e+001
9.664982e+002, 1.063948e+001
9.669803e+002, 1.039499e+001
9.674624e+002, 1.013086e+001
9.679445e+002, 9.865133e+000
9.684266e+002, 9.674353e+000
9.689088e+002, 9.689982e+000
9.693909e+002, 1.030495e+001
9.698730e+002, 1.060359e+001
9.703551e+002, 1.043183e+001
9.708372e+002, 1.006459e+001
9.713193e+002, 9.689987e+000
9.718015e+002, 9.338533e+000
9.722836e+002, 9.368735e+000
9.727657e+002, 9.820927e+000
9.732478e+002, 1.020436e+001
9.737299e+002, 1.003721e+001
9.742120e+002, 9.715113e+000
9.746942e+002, 9.536685e+000
9.751763e+002, 9.532049e+000
9.756584e+002, 9.656845e+000
9.761405e+002, 1.002198e+001
9.766226e+002, 1.026314e+001
9.771047e+002, 1.021753e+001
9.775869e+002, 9.982706e+000
9.780690e+002, 9.791157e+000
9.785511e+002, 9.642920e+000
9.790332e+002, 9.523898e+000
9.795153e+002, 9.322686e+000
9.799974e+002, 9.302732e+000
9.804796e+002, 9.842390e+000
9.809617e+002, 1.054255e+001
9.814438e+002, 1.083548e+001
9.819259e+002, 1.058858e+001
9.824080e+002, 1.030998e+001
9.828901e+002, 1.001302e+001
9.833723e+002, 9.722994e+000
9.838544e+002, 9.521315e+000
9.843365e+002, 9.324991e+000
9.848186e+002, 8.798048e+000
9.853007e+002, 7.940301e+000
9.857828e+002, 7.618122e+000
9.862650e+002, 8.872450e+000
9.867471e+002, 1.005100e+001
9.872292e+002, 1.041942e+001
9.877113e+002, 1.010427e+001
9.881934e+002, 9.667563e+000
9.886755e+002, 9.093886e+000
9.891577e+002, 8.778784e+000
9.896398e+002, 8.963382e+000
9.901219e+002, 9.330735e+000
9.906040e+002, 9.608778e+000
9.910861e+002, 9.773667e+000
9.915682e+002, 9.781764e+000
9.920504e+002, 9.442161e+000
9.925325e+002, 9.219451e+000
9.930146e+002, 9.177847e+000
9.934967e+002, 9.219735e+000
9.939788e+002, 9.207172e+000
9.944609e+002, 9.170734e+000
9.949431e+002, 9.493196e+000
9.954252e+002, 1.019226e+001
9.959073e+002, 1.070802e+001
9.963894e+002, 1.047620e+001
9.968715e+002, 1.003961e+001
9.973536e+002, 9.788743e+000
9.978358e+002, 9.733065e+000
9.983179e+002, 9.606387e+000
9.988000e+002, 9.314306e+000
9.992821e+002, 9.198834e+000
9.997642e+002, 9.415177e+000
1.000246e+003, 9.782413e+000
1.000728e+003, 9.930835e+000
1.001211e+003, 9.929188e+000
1.001693e+003, 9.953796e+000
1.002175e+003, 1.010235e+001
1.002657e+003, 1.019005e+001
1.003139e+003, 1.014450e+001
1.003621e+003, 9.990808e+000
1.004103e+003, 9.762033e+000
1.004585e+003, 9.463500e+000
1.005068e+003, 8.963108e+000
1.005550e+003, 8.210234e+000
1.006032e+003, 7.711931e+000
1.006514e+003, 8.121078e+000
1.006996e+003, 8.825791e+000
1.007478e+003, 8.989455e+000
1.007960e+003, 8.701097e+000
1.008442e+003, 8.627082e+000
1.008924e+003, 9.401120e+000
1.009407e+003, 9.796629e+000
1.009889e+003, 9.413392e+000
1.010371e+003, 8.663800e+000
1.010853e+003, 8.400241e+000
1.011335e+003, 8.563675e+000
1.011817e+003, 8.825698e+000
1.012299e+003, 9.163043e+000
1.012781e+003, 9.359775e+000
1.013263e+003, 9.125578e+000
1.013746e+003, 8.755376e+000
1.014228e+003, 8.520723e+000
1.014710e+003, 8.445878e+000
1.015192e+003, 8.504550e+000
1.015674e+003, 8.726603e+000
1.016156e+003, 8.987139e+000
1.016638e+003, 9.232103e+000
1.017120e+003, 9.454678e+000
1.017603e+003, 9.698240e+000
1.018085e+003, 9.917169e+000
1.018567e+003, 9.942413e+000
1.019049e+003, 9.331600e+000
1.019531e+003, 8.969633e+000
1.020013e+003, 9.301154e+000
1.020495e+003, 9.898231e+000
1.020977e+003, 1.012025e+001
1.021459e+003, 9.956103e+000
1.021942e+003, 9.926056e+000
1.022424e+003, 1.012054e+001
1.022906e+003, 1.025146e+001
1.023388e+003, 9.973665e+000
1.023870e+003, 9.550384e+000
1.024352e+003, 9.201771e+000
1.024834e+003, 8.950174e+000
1.025316e+003, 8.920383e+000
1.025799e+003, 9.260542e+000
1.026281e+003, 9.504718e+000
1.026763e+003, 9.411968e+000
1.027245e+003, 9.146655e+000
1.027727e+003, 9.165607e+000
1.028209e+003, 9.386889e+000
1.028691e+003, 9.533720e+000
1.029173e+003, 9.444093e+000
1.029656e+003, 9.344747e+000
1.030138e+003, 9.376438e+000
1.030620e+003, 9.426738e+000
1.031102e+003, 9.363057e+000
1.031584e+003, 9.149095e+000
1.032066e+003, 9.021290e+000
1.032548e+003, 8.985397e+000
1.033030e+003, 9.018398e+000
1.033512e+003, 9.201028e+000
1.033995e+003, 9.375577e+000
1.034477e+003, 9.247286e+000
1.034959e+003, 8.885633e+000
1.035441e+003, 8.791960e+000
1.035923e+003, 9.475002e+000
1.036405e+003, 9.790620e+000
1.036887e+003, 9.301808e+000
1.037369e+003, 8.582381e+000
1.037851e+003, 9.002177e+000
1.038334e+003, 1.019753e+001
1.038816e+003, 1.077373e+001
1.039298e+003, 1.034632e+001
1.039780e+003, 9.599405e+000
1.040262e+003, 8.462697e+000
1.040744e+003, 7.560470e+000
1.041226e+003, 7.502328e+000
1.041708e+003, 8.344198e+000
1.042191e+003, 8.851362e+000
1.042673e+003, 9.018347e+000
1.043155e+003, 8.951219e+000
1.043637e+003, 8.462464e+000
1.044119e+003, 7.987595e+000
1.044601e+003, 8.282673e+000
1.045083e+003, 9.051326e+000
1.045565e+003, 9.603494e+000
1.046047e+003, 9.666238e+000
1.046530e+003, 9.572865e+000
1.047012e+003, 9.258785e+000
1.047494e+003, 8.943568e+000
1.047976e+003, 8.909563e+000
1.048458e+003, 9.096571e+000
1.048940e+003, 9.233847e+000
1.049422e+003, 9.300068e+000
1.049904e+003, 9.297810e+000
1.050386e+003, 9.265162e+000
1.050869e+003, 9.130290e+000
1.051351e+003, 8.775148e+000
1.051833e+003, 8.271800e+000
1.052315e+003, 7.852517e+000
1.052797e+003, 7.487340e+000
1.053279e+003, 7.489709e+000
1.053761e+003, 8.060735e+000
1.054243e+003, 8.714105e+000
1.054726e+003, 8.809601e+000
1.055208e+003, 8.607039e+000
1.055690e+003, 8.462705e+000
1.056172e+003, 8.462529e+000
1.056654e+003, 8.482024e+000
1.057136e+003, 8.518018e+000
1.057618e+003, 8.554851e+000
1.058100e+003, 8.612638e+000
1.058583e+003, 8.658751e+000
1.059065e+003, 8.509103e+000
1.059547e+003, 8.211985e+000
1.060029e+003, 7.989412e+000
1.060511e+003, 8.010007e+000
1.060993e+003, 8.071819e+000
1.061475e+003, 8.106251e+000
1.061957e+003, 8.126437e+000
1.062439e+003, 8.121839e+000
1.062922e+003, 8.069870e+000
1.063404e+003, 8.269370e+000
1.063886e+003, 8.779424e+000
1.064368e+003, 9.181385e+000
1.064850e+003, 9.007438e+000
1.065332e+003, 8.611077e+000
1.065814e+003, 8.300386e+000
1.066296e+003, 8.102941e+000
1.066778e+003, 8.002847e+000
1.067261e+003, 7.992400e+000
1.067743e+003, 8.089526e+000
1.068225e+003, 8.348324e+000
1.068707e+003, 8.632605e+000
1.069189e+003, 8.643727e+000
1.069671e+003, 8.485128e+000
1.070153e+003, 8.411231e+000
1.070635e+003, 8.520247e+000
1.071118e+003, 8.579156e+000
1.071600e+003, 8.457084e+000
1.072082e+003, 8.291388e+000
1.072564e+003, 8.179155e+000
1.073046e+003, 8.106709e+000
1.073528e+003, 7.780335e+000
1.074010e+003, 7.235871e+000
1.074492e+003, 6.958998e+000
1.074974e+003, 7.482450e+000
1.075457e+003, 8.060448e+000
1.075939e+003, 8.165694e+000
1.076421e+003, 7.941343e+000
1.076903e+003, 7.583867e+000
1.077385e+003, 6.920352e+000
1.077867e+003, 6.772718e+000
1.078349e+003, 7.276612e+000
1.078831e+003, 7.872584e+000
1.079313e+003, 8.069423e+000
1.079796e+003, 8.014172e+000
1.080278e+003, 7.875162e+000
1.080760e+003, 7.677530e+000
1.081242e+003, 7.512633e+000
1.081724e+003, 7.299706e+000
1.082206e+003, 7.307925e+000
1.082688e+003, 7.730305e+000
1.083170e+003, 8.230184e+000
1.083652e+003, 8.100945e+000
1.084135e+003, 7.501642e+000
1.084617e+003, 6.979300e+000
1.085099e+003, 6.606789e+000
1.085581e+003, 6.547955e+000
1.086063e+003, 7.362157e+000
1.086545e+003, 8.085846e+000
1.087027e+003, 8.006637e+000
1.087509e+003, 7.236936e+000
1.087992e+003, 7.003731e+000
1.088474e+003, 7.313844e+000
1.088956e+003, 7.563375e+000
1.089438e+003, 7.465968e+000
1.089920e+003, 7.280489e+000
1.090402e+003, 7.258838e+000
1.090884e+003, 7.308842e+000
1.091366e+003, 7.300066e+000
1.091849e+003, 7.177894e+000
1.092331e+003, 7.109733e+000
1.092813e+003, 7.119395e+000
1.093295e+003, 7.102314e+000
1.093777e+003, 6.880134e+000
1.094259e+003, 6.628711e+000
1.094741e+003, 6.798690e+000
1.095223e+003, 7.247086e+000
1.095705e+003, 7.465693e+000
1.096188e+003, 6.787203e+000
1.096670e+003, 6.575111e+000
1.097152e+003, 7.351995e+000
1.097634e+003, 8.263132e+000
1.098116e+003, 8.043304e+000
1.098598e+003, 6.960118e+000
1.099080e+003, 6.268002e+000
1.099562e+003, 6.077837e+000
1.100044e+003, 6.061488e+000
1.100527e+003, 6.205243e+000
1.101009e+003, 6.274749e+000
1.101491e+003, 5.970869e+000
1.101973e+003, 5.522027e+000
1.102455e+003, 5.862796e+000
1.102937e+003, 7.008927e+000
1.103419e+003, 7.427615e+000
1.103901e+003, 6.553592e+000
1.104384e+003, 5.603678e+000
1.104866e+003, 5.834091e+000
1.105348e+003, 6.536154e+000
1.105830e+003, 7.029922e+000
1.106312e+003, 7.218476e+000
1.106794e+003, 7.392939e+000
1.107276e+003, 7.587481e+000
1.107758e+003, 7.611955e+000
1.108240e+003, 7.249417e+000
1.108723e+003, 6.829917e+000
1.109205e+003, 7.014368e+000
1.109687e+003, 7.498934e+000
1.110169e+003, 7.683066e+000
1.110651e+003, 7.067180e+000
1.111133e+003, 6.791056e+000
1.111615e+003, 7.100262e+000
1.112097e+003, 7.448031e+000
1.112579e+003, 7.454059e+000
1.113062e+003, 7.152374e+000
1.113544e+003, 6.426519e+000
1.114026e+003, 5.428549e+000
1.114508e+003, 4.911595e+000
1.114990e+003, 5.800316e+000
1.115472e+003, 6.530833e+000
1.115954e+003, 6.487518e+000
1.116436e+003, 6.134160e+000
1.116919e+003, 5.992887e+000
1.117401e+003, 6.063279e+000
1.117883e+003, 6.527883e+000
1.118365e+003, 7.403478e+000
1.118847e+003, 7.879439e+000
1.119329e+003, 6.902384e+000
1.119811e+003, 5.773342e+000
1.120293e+003, 5.368689e+000
1.120776e+003, 5.534608e+000
1.121258e+003, 5.701797e+000
1.121740e+003, 5.868927e+000
1.122222e+003, 6.075332e+000
1.122704e+003, 6.360246e+000
1.123186e+003, 6.550288e+000
1.123668e+003, 6.268724e+000
1.124150e+003, 5.930354e+000
1.124632e+003, 6.068904e+000
1.125115e+003, 6.809465e+000
1.125597e+003, 7.112799e+000
1.126079e+003, 6.805451e+000
1.126561e+003, 6.631719e+000
1.127043e+003, 6.993119e+000
1.127525e+003, 7.443782e+000
1.128007e+003, 7.111619e+000
1.128489e+003, 6.389073e+000
1.128971e+003, 5.957194e+000
1.129454e+003, 6.080136e+000
1.129936e+003, 6.273714e+000
1.130418e+003, 6.675907e+000
1.130900e+003, 6.771147e+000
1.131382e+003, 5.972434e+000
1.131864e+003, 4.740446e+000
1.132346e+003, 4.643890e+000
1.132828e+003, 5.353658e+000
1.133311e+003, 5.784244e+000
1.133793e+003, 4.943937e+000
1.134275e+003, 4.479270e+000
1.134757e+003, 4.939948e+000
1.135239e+003, 5.705882e+000
1.135721e+003, 6.318330e+000
1.136203e+003, 6.751413e+000
1.136685e+003, 6.699872e+000
1.137167e+003, 6.205978e+000
1.137650e+003, 5.808114e+000
1.138132e+003, 5.888000e+000
1.138614e+003, 6.079587e+000
1.139096e+003, 6.300316e+000
1.139578e+003, 6.474496e+000
1.140060e+003, 6.438990e+000
1.140542e+003, 6.187143e+000
1.141024e+003, 6.052715e+000
1.141506e+003, 6.073637e+000
1.141989e+003, 6.152894e+000
1.142471e+003, 6.291349e+000
1.142953e+003, 6.389967e+000
1.143435e+003, 6.340487e+000
1.143917e+003, 6.176984e+000
1.144399e+003, 6.094246e+000
1.144881e+003, 6.118227e+000
1.145363e+003, 6.021008e+000
1.145846e+003, 5.716270e+000
1.146328e+003, 5.444254e+000
1.146810e+003, 5.573485e+000
1.147292e+003, 5.812272e+000
1.147774e+003, 5.838603e+000
1.148256e+003, 5.593894e+000
1.148738e+003, 5.352074e+000
1.149220e+003, 5.045578e+000
1.149703e+003, 5.047446e+000
1.150185e+003, 5.637827e+000
1.150667e+003, 6.301559e+000
1.151149e+003, 6.222725e+000
1.151631e+003, 5.716432e+000
1.152113e+003, 5.256194e+000
1.152595e+003, 4.911420e+000
1.153077e+003, 4.752032e+000
1.153559e+003, 4.836393e+000
1.154042e+003, 4.949778e+000
1.154524e+003, 4.924078e+000
1.155006e+003, 4.898958e+000
1.155488e+003, 5.372828e+000
1.155970e+003, 6.085790e+000
1.156452e+003, 6.367101e+000
1.156934e+003, 5.550247e+000
1.157416e+003, 5.145939e+000
1.157898e+003, 5.513361e+000
1.158381e+003, 6.009568e+000
1.158863e+003, 6.219177e+000
1.159345e+003, 6.153892e+000
1.159827e+003, 5.653364e+000
1.160309e+003, 4.876009e+000
1.160791e+003, 4.473724e+000
1.161273e+003, 5.105819e+000
1.161755e+003, 5.680838e+000
1.162238e+003, 5.907319e+000
1.162720e+003, 5.986038e+000
1.163202e+003, 6.195397e+000
1.163684e+003, 6.465912e+000
1.164166e+003, 6.230093e+000
1.164648e+003, 5.528131e+000
1.165130e+003, 4.974923e+000
1.165612e+003, 5.115700e+000
1.166094e+003, 5.253404e+000
1.166577e+003, 4.995420e+000
1.167059e+003, 4.623312e+000
1.167541e+003, 4.623844e+000
1.168023e+003, 4.961306e+000
1.168505e+003, 5.155890e+000
1.168987e+003, 5.158022e+000
1.169469e+003, 5.192017e+000
1.169951e+003, 5.428177e+000
1.170433e+003, 5.730479e+000
1.170916e+003, 6.105981e+000
1.171398e+003, 6.465039e+000
1.171880e+003, 6.574457e+000
1.172362e+003, 6.437274e+000
1.172844e+003, 6.124880e+000
1.173326e+003, 5.601937e+000
1.173808e+003, 5.296235e+000
1.174290e+003, 5.876594e+000
1.174773e+003, 6.559660e+000
1.175255e+003, 6.588522e+000
1.175737e+003, 6.130073e+000
1.176219e+003, 6.206652e+000
1.176701e+003, 6.858721e+000
1.177183e+003, 7.169830e+000
1.177665e+003, 6.824263e+000
1.178147e+003, 6.314409e+000
1.178630e+003, 5.987543e+000
1.179112e+003, 5.815709e+000
1.179594e+003, 5.864095e+000
1.180076e+003, 6.125764e+000
1.180558e+003, 5.949881e+000
1.181040e+003, 5.250287e+000
1.181522e+003, 4.995069e+000
1.182004e+003, 5.762825e+000
1.182486e+003, 6.671646e+000
1.182969e+003, 6.852973e+000
1.183451e+003, 6.579063e+000
1.183933e+003, 6.058456e+000
1.184415e+003, 5.200571e+000
1.184897e+003, 5.001015e+000
1.185379e+003, 5.570421e+000
1.185861e+003, 6.080844e+000
1.186343e+003, 6.023062e+000
1.186825e+003, 5.805235e+000
1.187308e+003, 6.075387e+000
1.187790e+003, 6.451081e+000
1.188272e+003, 6.248887e+000
1.188754e+003, 4.979554e+000
1.189236e+003, 4.404920e+000
1.189718e+003, 4.619915e+000
1.190200e+003, 5.062576e+000
1.190682e+003, 5.489647e+000
1.191165e+003, 5.842878e+000
1.191647e+003, 6.084783e+000
1.192129e+003, 6.187327e+000
1.192611e+003, 6.072197e+000
1.193093e+003, 5.546128e+000
1.193575e+003, 5.214556e+000
1.194057e+003, 5.096629e+000
1.194539e+003, 5.127476e+000
1.195021e+003, 5.395654e+000
1.195504e+003, 5.683364e+000
1.195986e+003, 5.673963e+000
1.196468e+003, 5.432299e+000
1.196950e+003, 5.135335e+000
1.197432e+003, 4.550678e+000
1.197914e+003, 4.582818e+000
1.198396e+003, 5.450053e+000
1.198878e+003, 6.344195e+000
1.199360e+003, 6.436512e+000
1.199843e+003, 6.111315e+000
1.200325e+003, 5.906077e+000
1.200807e+003, 5.784068e+000
1.201289e+003, 5.462129e+000
1.201771e+003, 4.538871e+000
1.202253e+003, 4.307249e+000
1.202735e+003, 5.096303e+000
1.203217e+003, 5.997935e+000
1.203700e+003, 5.802451e+000
1.204182e+003, 5.199745e+000
1.204664e+003, 5.281316e+000
1.205146e+003, 5.983779e+000
1.205628e+003, 6.399354e+000
1.206110e+003, 6.363176e+000
1.206592e+003, 6.057538e+000
1.207074e+003, 5.406483e+000
1.207557e+003, 4.790982e+000
1.208039e+003, 4.774572e+000
1.208521e+003, 5.048965e+000
1.209003e+003, 5.236479e+000
1.209485e+003, 5.291636e+000
1.209967e+003, 5.074104e+000
1.210449e+003, 4.274803e+000
1.210931e+003, 3.962606e+000
1.211413e+003, 4.456915e+000
1.211896e+003, 5.254373e+000
1.212378e+003, 5.805034e+000
1.212860e+003, 6.160018e+000
1.213342e+003, 6.434840e+000
1.213824e+003, 6.641894e+000
1.214306e+003, 6.378208e+000
1.214788e+003, 5.351385e+000
1.215270e+003, 4.604652e+000
1.215752e+003, 4.431684e+000
1.216235e+003, 4.604745e+000
1.216717e+003, 5.043819e+000
1.217199e+003, 5.494324e+000
1.217681e+003, 5.495436e+000
1.218163e+003, 4.940053e+000
1.218645e+003, 4.688263e+000
1.219127e+003, 4.824901e+000
1.219609e+003, 5.218181e+000
1.220092e+003, 5.979119e+000
1.220574e+003, 6.637702e+000
1.221056e+003, 6.161131e+000
1.221538e+003, 5.296289e+000
1.222020e+003, 5.250572e+000
1.222502e+003, 6.383975e+000
1.222984e+003, 6.846427e+000
1.223466e+003, 6.392602e+000
1.223948e+003, 5.840584e+000
1.224431e+003, 5.442321e+000
1.224913e+003, 5.184355e+000
1.225395e+003, 5.115588e+000
1.225877e+003, 5.141575e+000
1.226359e+003, 5.097394e+000
1.226841e+003, 4.902799e+000
1.227323e+003, 5.052197e+000
1.227805e+003, 5.701216e+000
1.228287e+003, 6.016813e+000
1.228770e+003, 5.443784e+000
1.229252e+003, 4.750468e+000
1.229734e+003, 5.126598e+000
1.230216e+003, 5.978270e+000
1.230698e+003, 6.539269e+000
1.231180e+003, 6.690964e+000
1.231662e+003, 6.408279e+000
1.232144e+003, 5.559314e+000
1.232627e+003, 5.063267e+000
1.233109e+003, 5.570366e+000
1.233591e+003, 6.239339e+000
1.234073e+003, 5.939878e+000
1.234555e+003, 5.241782e+000
1.235037e+003, 4.943115e+000
1.235519e+003, 5.197327e+000
1.236001e+003, 5.337358e+000
1.236484e+003, 5.352406e+000
1.236966e+003, 5.341241e+000
1.237448e+003, 5.351810e+000
1.237930e+003, 5.359172e+000
1.238412e+003, 5.310029e+000
1.238894e+003, 5.256656e+000
1.239376e+003, 5.292926e+000
1.239858e+003, 5.449809e+000
1.240340e+003, 5.442234e+000
1.240823e+003, 5.260460e+000
1.241305e+003, 5.133058e+000
1.241787e+003, 5.186357e+000
1.242269e+003, 5.336711e+000
1.242751e+003, 5.552527e+000
1.243233e+003, 5.803775e+000
1.243715e+003, 6.100312e+000
1.244197e+003, 6.483196e+000
1.244679e+003, 6.361565e+000
1.245162e+003, 5.747700e+000
1.245644e+003, 5.284630e+000
1.246126e+003, 5.457499e+000
1.246608e+003, 5.706023e+000
1.247090e+003, 5.692982e+000
1.247572e+003, 5.517036e+000
1.248054e+003, 5.255910e+000
1.248536e+003, 4.892833e+000
1.249019e+003, 4.928140e+000
1.249501e+003, 5.318957e+000
1.249983e+003, 5.601886e+000
1.250465e+003, 5.450854e+000
1.250947e+003, 5.212766e+000
1.251429e+003, 4.945831e+000
1.251911e+003, 4.773370e+000
1.252393e+003, 4.834962e+000
1.252875e+003, 5.117164e+000
1.253358e+003, 5.447084e+000
1.253840e+003, 5.791527e+000
1.254322e+003, 5.942461e+000
1.254804e+003, 5.527821e+000
1.255286e+003, 5.246521e+000
1.255768e+003, 5.475768e+000
1.256250e+003, 5.789121e+000
1.256732e+003, 5.791847e+000
1.257214e+003, 5.555992e+000
1.257697e+003, 5.617511e+000
1.258179e+003, 5.878863e+000
1.258661e+003, 5.886737e+000
1.259143e+003, 5.025995e+000
1.259625e+003, 4.500139e+000
1.260107e+003, 4.652123e+000
1.260589e+003, 4.975697e+000
1.261071e+003, 5.058938e+000
1.261554e+003, 4.969216e+000
1.262036e+003, 4.936290e+000
1.262518e+003, 4.923706e+000
1.263000e+003, 4.801009e+000
1.263482e+003, 4.218050e+000
1.263964e+003, 4.018734e+000
1.264446e+003, 4.352458e+000
1.264928e+003, 4.870898e+000
1.265411e+003, 5.462239e+000
1.265893e+003, 5.938058e+000
1.266375e+003, 5.766944e+000
1.266857e+003, 5.186316e+000
1.267339e+003, 4.844246e+000
1.267821e+003, 5.052402e+000
1.268303e+003, 5.298004e+000
1.268785e+003, 5.634169e+000
1.269267e+003, 5.764577e+000
1.269750e+003, 5.172185e+000
1.270232e+003, 4.455822e+000
1.270714e+003, 4.498944e+000
1.271196e+003, 5.009690e+000
1.271678e+003, 5.285625e+000
1.272160e+003, 5.165272e+000
1.272642e+003, 5.126094e+000
1.273124e+003, 5.183757e+000
1.273606e+003, 5.283150e+000
1.274089e+003, 5.409279e+000
1.274571e+003, 5.535001e+000
1.275053e+003, 5.681447e+000
1.275535e+003, 5.787415e+000
1.276017e+003, 5.748146e+000
1.276499e+003, 5.540634e+000
1.276981e+003, 5.362261e+000
1.277463e+003, 5.216370e+000
1.277946e+003, 4.993242e+000
1.278428e+003, 4.508080e+000
1.278910e+003, 4.052970e+000
1.279392e+003, 3.704134e+000
1.279874e+003, 3.573918e+000
1.280356e+003, 3.867813e+000
1.280838e+003, 4.566866e+000
1.281320e+003, 5.037303e+000
1.281802e+003, 5.273401e+000
1.282285e+003, 5.342346e+000
1.282767e+003, 5.086825e+000
1.283249e+003, 4.926017e+000
1.283731e+003, 5.100595e+000
1.284213e+003, 5.332213e+000
1.284695e+003, 5.406452e+000
1.285177e+003, 5.329996e+000
1.285659e+003, 5.048513e+000
1.286141e+003, 4.628912e+000
1.286624e+003, 4.348622e+000
1.287106e+003, 4.367979e+000
1.287588e+003, 4.487469e+000
1.288070e+003, 4.670902e+000
1.288552e+003, 4.936326e+000
1.289034e+003, 5.450971e+000
1.289516e+003, 5.985895e+000
1.289998e+003, 5.834923e+000
1.290481e+003, 5.286760e+000
1.290963e+003, 5.091003e+000
1.291445e+003, 5.910095e+000
1.291927e+003, 6.274607e+000
1.292409e+003, 6.121382e+000
1.292891e+003, 5.740432e+000
1.293373e+003, 5.030406e+000
1.293855e+003, 4.462991e+000
1.294338e+003, 4.971557e+000
1.294820e+003, 5.961990e+000
1.295302e+003, 6.199573e+000
1.295784e+003, 5.263542e+000
1.296266e+003, 5.152469e+000
1.296748e+003, 5.917901e+000
1.297230e+003, 6.582552e+000
1.297712e+003, 6.492289e+000
1.298194e+003, 6.137002e+000
1.298677e+003, 5.729213e+000
1.299159e+003, 5.391231e+000
1.299641e+003, 5.302007e+000
1.300123e+003, 5.471837e+000
1.300605e+003, 5.329063e+000
1.301087e+003, 4.928705e+000
1.301569e+003, 4.777199e+000
1.302051e+003, 5.334365e+000
1.302533e+003, 5.864800e+000
1.303016e+003, 6.130900e+000
##END=



