##NAMES=Thomasclarkite-(Y)
##RRUFFID=R110186
##IDEAL CHEMISTRY=NaY(HCO_3_)(OH)_3_&#183;4H_2_O
##LOCALITY=Mont Saint-Hilaire, Quebec, Canada
##OWNER=RRUFF
##SOURCE=Donald Doell
##DESCRIPTION=Aggregate of sharp yellow blocky crystals
##STATUS=The identification of this mineral has been confirmed only by single crystal X-ray diffraction.
##URL=rruff.info/R110186
9.001007e+001, 0.000000e+000
9.049219e+001, 2.096015e+001
9.097430e+001, 2.105060e+001
9.145642e+001, 2.105927e+001
9.193854e+001, 2.098554e+001
9.242065e+001, 2.082452e+001
9.290277e+001, 2.045475e+001
9.338489e+001, 1.998671e+001
9.386700e+001, 1.968881e+001
9.434912e+001, 1.978641e+001
9.483124e+001, 2.007621e+001
9.531335e+001, 2.011311e+001
9.579547e+001, 1.987392e+001
9.627759e+001, 1.954595e+001
9.675970e+001, 1.933887e+001
9.724182e+001, 1.924552e+001
9.772394e+001, 1.915260e+001
9.820605e+001, 1.899634e+001
9.868817e+001, 1.878407e+001
9.917029e+001, 1.862840e+001
9.965240e+001, 1.855159e+001
1.001345e+002, 1.849487e+001
1.006166e+002, 1.832506e+001
1.010988e+002, 1.801004e+001
1.015809e+002, 1.771520e+001
1.020630e+002, 1.754756e+001
1.025451e+002, 1.753996e+001
1.030272e+002, 1.748832e+001
1.035093e+002, 1.737376e+001
1.039915e+002, 1.720649e+001
1.044736e+002, 1.701466e+001
1.049557e+002, 1.677033e+001
1.054378e+002, 1.654413e+001
1.059199e+002, 1.637946e+001
1.064020e+002, 1.626199e+001
1.068842e+002, 1.623992e+001
1.073663e+002, 1.642289e+001
1.078484e+002, 1.681687e+001
1.083305e+002, 1.685409e+001
1.088126e+002, 1.625525e+001
1.092947e+002, 1.545682e+001
1.097769e+002, 1.485859e+001
1.102590e+002, 1.459031e+001
1.107411e+002, 1.439190e+001
1.112232e+002, 1.420773e+001
1.117053e+002, 1.401219e+001
1.121874e+002, 1.394263e+001
1.126696e+002, 1.417624e+001
1.131517e+002, 1.450017e+001
1.136338e+002, 1.463855e+001
1.141159e+002, 1.438728e+001
1.145980e+002, 1.407810e+001
1.150801e+002, 1.383842e+001
1.155623e+002, 1.374101e+001
1.160444e+002, 1.357582e+001
1.165265e+002, 1.315963e+001
1.170086e+002, 1.263082e+001
1.174907e+002, 1.229201e+001
1.179728e+002, 1.236730e+001
1.184550e+002, 1.258988e+001
1.189371e+002, 1.281128e+001
1.194192e+002, 1.307607e+001
1.199013e+002, 1.321764e+001
1.203834e+002, 1.304894e+001
1.208655e+002, 1.264668e+001
1.213477e+002, 1.230981e+001
1.218298e+002, 1.228434e+001
1.223119e+002, 1.238399e+001
1.227940e+002, 1.240601e+001
1.232761e+002, 1.217665e+001
1.237582e+002, 1.194800e+001
1.242404e+002, 1.204005e+001
1.247225e+002, 1.241894e+001
1.252046e+002, 1.266680e+001
1.256867e+002, 1.224094e+001
1.261688e+002, 1.146969e+001
1.266509e+002, 1.095254e+001
1.271331e+002, 1.116511e+001
1.276152e+002, 1.168226e+001
1.280973e+002, 1.183953e+001
1.285794e+002, 1.161382e+001
1.290615e+002, 1.130801e+001
1.295436e+002, 1.128238e+001
1.300258e+002, 1.146933e+001
1.305079e+002, 1.157383e+001
1.309900e+002, 1.132014e+001
1.314721e+002, 1.086741e+001
1.319542e+002, 1.075029e+001
1.324363e+002, 1.104799e+001
1.329185e+002, 1.148777e+001
1.334006e+002, 1.170073e+001
1.338827e+002, 1.168653e+001
1.343648e+002, 1.152338e+001
1.348469e+002, 1.112805e+001
1.353290e+002, 1.053262e+001
1.358112e+002, 1.025110e+001
1.362933e+002, 1.041672e+001
1.367754e+002, 1.080056e+001
1.372575e+002, 1.086231e+001
1.377396e+002, 1.054866e+001
1.382217e+002, 1.014821e+001
1.387039e+002, 9.803637e+000
1.391860e+002, 9.505839e+000
1.396681e+002, 9.334262e+000
1.401502e+002, 9.330106e+000
1.406323e+002, 9.452652e+000
1.411144e+002, 9.534628e+000
1.415966e+002, 9.585705e+000
1.420787e+002, 9.577011e+000
1.425608e+002, 9.438039e+000
1.430429e+002, 9.046004e+000
1.435250e+002, 8.888229e+000
1.440071e+002, 9.157676e+000
1.444893e+002, 9.823118e+000
1.449714e+002, 1.010840e+001
1.454535e+002, 9.791030e+000
1.459356e+002, 9.306777e+000
1.464177e+002, 9.072825e+000
1.468998e+002, 9.228847e+000
1.473820e+002, 9.411292e+000
1.478641e+002, 9.590433e+000
1.483462e+002, 9.785817e+000
1.488283e+002, 9.823070e+000
1.493104e+002, 9.517577e+000
1.497925e+002, 9.140593e+000
1.502747e+002, 9.007664e+000
1.507568e+002, 9.432570e+000
1.512389e+002, 9.780593e+000
1.517210e+002, 9.868058e+000
1.522031e+002, 9.552644e+000
1.526852e+002, 9.427924e+000
1.531674e+002, 9.646697e+000
1.536495e+002, 1.002887e+001
1.541316e+002, 1.031442e+001
1.546137e+002, 1.030097e+001
1.550958e+002, 1.034539e+001
1.555779e+002, 1.055628e+001
1.560601e+002, 1.096141e+001
1.565422e+002, 1.148465e+001
1.570243e+002, 1.218601e+001
1.575064e+002, 1.299412e+001
1.579885e+002, 1.377075e+001
1.584706e+002, 1.428706e+001
1.589528e+002, 1.491095e+001
1.594349e+002, 1.584333e+001
1.599170e+002, 1.731500e+001
1.603991e+002, 1.874043e+001
1.608812e+002, 1.984367e+001
1.613633e+002, 2.076407e+001
1.618455e+002, 2.186748e+001
1.623276e+002, 2.338042e+001
1.628097e+002, 2.504828e+001
1.632918e+002, 2.674252e+001
1.637739e+002, 2.840031e+001
1.642560e+002, 3.010489e+001
1.647382e+002, 3.183658e+001
1.652203e+002, 3.362641e+001
1.657024e+002, 3.559306e+001
1.661845e+002, 3.811881e+001
1.666666e+002, 4.071108e+001
1.671487e+002, 4.287429e+001
1.676309e+002, 4.400340e+001
1.681130e+002, 4.519281e+001
1.685951e+002, 4.727341e+001
1.690772e+002, 5.010868e+001
1.695593e+002, 5.282397e+001
1.700414e+002, 5.477497e+001
1.705236e+002, 5.635808e+001
1.710057e+002, 5.801964e+001
1.714878e+002, 5.990338e+001
1.719699e+002, 6.195192e+001
1.724520e+002, 6.412841e+001
1.729341e+002, 6.643526e+001
1.734163e+002, 6.879044e+001
1.738984e+002, 7.106111e+001
1.743805e+002, 7.336948e+001
1.748626e+002, 7.584299e+001
1.753447e+002, 7.858067e+001
1.758268e+002, 8.152447e+001
1.763090e+002, 8.464857e+001
1.767911e+002, 8.792692e+001
1.772732e+002, 9.131298e+001
1.777553e+002, 9.427867e+001
1.782374e+002, 9.686007e+001
1.787195e+002, 9.958435e+001
1.792017e+002, 1.029277e+002
1.796838e+002, 1.064882e+002
1.801659e+002, 1.094592e+002
1.806480e+002, 1.118267e+002
1.811301e+002, 1.142150e+002
1.816122e+002, 1.174131e+002
1.820944e+002, 1.212216e+002
1.825765e+002, 1.249022e+002
1.830586e+002, 1.281724e+002
1.835407e+002, 1.311026e+002
1.840228e+002, 1.340226e+002
1.845049e+002, 1.369403e+002
1.849871e+002, 1.397188e+002
1.854692e+002, 1.421039e+002
1.859513e+002, 1.441591e+002
1.864334e+002, 1.460841e+002
1.869155e+002, 1.480070e+002
1.873976e+002, 1.498898e+002
1.878798e+002, 1.516261e+002
1.883619e+002, 1.531962e+002
1.888440e+002, 1.546633e+002
1.893261e+002, 1.559573e+002
1.898082e+002, 1.571153e+002
1.902903e+002, 1.585106e+002
1.907725e+002, 1.604799e+002
1.912546e+002, 1.629294e+002
1.917367e+002, 1.650199e+002
1.922188e+002, 1.665561e+002
1.927009e+002, 1.681447e+002
1.931830e+002, 1.709297e+002
1.936652e+002, 1.748990e+002
1.941473e+002, 1.789570e+002
1.946294e+002, 1.824367e+002
1.951115e+002, 1.853892e+002
1.955936e+002, 1.884373e+002
1.960757e+002, 1.915967e+002
1.965579e+002, 1.948958e+002
1.970400e+002, 1.984660e+002
1.975221e+002, 2.023372e+002
1.980042e+002, 2.061498e+002
1.984863e+002, 2.096852e+002
1.989684e+002, 2.129245e+002
1.994506e+002, 2.163545e+002
1.999327e+002, 2.200441e+002
2.004148e+002, 2.238456e+002
2.008969e+002, 2.274672e+002
2.013790e+002, 2.309818e+002
2.018611e+002, 2.341368e+002
2.023433e+002, 2.367277e+002
2.028254e+002, 2.387197e+002
2.033075e+002, 2.406408e+002
2.037896e+002, 2.425613e+002
2.042717e+002, 2.443858e+002
2.047538e+002, 2.459187e+002
2.052360e+002, 2.472258e+002
2.057181e+002, 2.480003e+002
2.062002e+002, 2.479373e+002
2.066823e+002, 2.469099e+002
2.071644e+002, 2.459165e+002
2.076465e+002, 2.452147e+002
2.081287e+002, 2.444982e+002
2.086108e+002, 2.426983e+002
2.090929e+002, 2.395272e+002
2.095750e+002, 2.360582e+002
2.100571e+002, 2.330315e+002
2.105392e+002, 2.305884e+002
2.110214e+002, 2.278167e+002
2.115035e+002, 2.244936e+002
2.119856e+002, 2.208507e+002
2.124677e+002, 2.176122e+002
2.129498e+002, 2.149088e+002
2.134319e+002, 2.123124e+002
2.139140e+002, 2.094584e+002
2.143962e+002, 2.061503e+002
2.148783e+002, 2.033050e+002
2.153604e+002, 2.011191e+002
2.158425e+002, 1.994412e+002
2.163246e+002, 1.977697e+002
2.168067e+002, 1.960739e+002
2.172889e+002, 1.944103e+002
2.177710e+002, 1.928004e+002
2.182531e+002, 1.912503e+002
2.187352e+002, 1.897174e+002
2.192173e+002, 1.882146e+002
2.196994e+002, 1.867004e+002
2.201816e+002, 1.850327e+002
2.206637e+002, 1.830215e+002
2.211458e+002, 1.811259e+002
2.216279e+002, 1.797249e+002
2.221100e+002, 1.791008e+002
2.225921e+002, 1.781774e+002
2.230743e+002, 1.767788e+002
2.235564e+002, 1.750143e+002
2.240385e+002, 1.733045e+002
2.245206e+002, 1.716837e+002
2.250027e+002, 1.701295e+002
2.254848e+002, 1.686620e+002
2.259670e+002, 1.673958e+002
2.264491e+002, 1.659662e+002
2.269312e+002, 1.642625e+002
2.274133e+002, 1.623707e+002
2.278954e+002, 1.606064e+002
2.283775e+002, 1.590272e+002
2.288597e+002, 1.575425e+002
2.293418e+002, 1.561571e+002
2.298239e+002, 1.550272e+002
2.303060e+002, 1.536093e+002
2.307881e+002, 1.516806e+002
2.312702e+002, 1.494051e+002
2.317524e+002, 1.476831e+002
2.322345e+002, 1.467985e+002
2.327166e+002, 1.460827e+002
2.331987e+002, 1.451834e+002
2.336808e+002, 1.441019e+002
2.341629e+002, 1.428107e+002
2.346451e+002, 1.411470e+002
2.351272e+002, 1.392525e+002
2.356093e+002, 1.377134e+002
2.360914e+002, 1.365573e+002
2.365735e+002, 1.357167e+002
2.370556e+002, 1.352475e+002
2.375378e+002, 1.355787e+002
2.380199e+002, 1.353311e+002
2.385020e+002, 1.342495e+002
2.389841e+002, 1.325329e+002
2.394662e+002, 1.310018e+002
2.399483e+002, 1.296566e+002
2.404305e+002, 1.285006e+002
2.409126e+002, 1.275435e+002
2.413947e+002, 1.268757e+002
2.418768e+002, 1.262187e+002
2.423589e+002, 1.255879e+002
2.428410e+002, 1.249625e+002
2.433232e+002, 1.242317e+002
2.438053e+002, 1.232841e+002
2.442874e+002, 1.223865e+002
2.447695e+002, 1.216633e+002
2.452516e+002, 1.210698e+002
2.457337e+002, 1.207465e+002
2.462159e+002, 1.208194e+002
2.466980e+002, 1.211455e+002
2.471801e+002, 1.212476e+002
2.476622e+002, 1.209532e+002
2.481443e+002, 1.206920e+002
2.486264e+002, 1.206892e+002
2.491086e+002, 1.210920e+002
2.495907e+002, 1.213946e+002
2.500728e+002, 1.215569e+002
2.505549e+002, 1.216247e+002
2.510370e+002, 1.217092e+002
2.515191e+002, 1.217839e+002
2.520013e+002, 1.219224e+002
2.524834e+002, 1.221506e+002
2.529655e+002, 1.224431e+002
2.534476e+002, 1.229170e+002
2.539297e+002, 1.237229e+002
2.544118e+002, 1.246443e+002
2.548940e+002, 1.251786e+002
2.553761e+002, 1.251252e+002
2.558582e+002, 1.250384e+002
2.563403e+002, 1.251297e+002
2.568224e+002, 1.254083e+002
2.573046e+002, 1.258345e+002
2.577867e+002, 1.264555e+002
2.582688e+002, 1.271851e+002
2.587509e+002, 1.278666e+002
2.592330e+002, 1.285037e+002
2.597151e+002, 1.290670e+002
2.601973e+002, 1.295619e+002
2.606794e+002, 1.300028e+002
2.611615e+002, 1.302598e+002
2.616436e+002, 1.302780e+002
2.621257e+002, 1.301593e+002
2.626078e+002, 1.300553e+002
2.630900e+002, 1.299442e+002
2.635721e+002, 1.299151e+002
2.640542e+002, 1.300701e+002
2.645363e+002, 1.304908e+002
2.650184e+002, 1.305565e+002
2.655005e+002, 1.301824e+002
2.659827e+002, 1.295643e+002
2.664648e+002, 1.289594e+002
2.669469e+002, 1.283773e+002
2.674290e+002, 1.277990e+002
2.679111e+002, 1.272505e+002
2.683932e+002, 1.267470e+002
2.688754e+002, 1.259859e+002
2.693575e+002, 1.248472e+002
2.698396e+002, 1.236319e+002
2.703217e+002, 1.227808e+002
2.708038e+002, 1.224030e+002
2.712859e+002, 1.219666e+002
2.717681e+002, 1.213350e+002
2.722502e+002, 1.205139e+002
2.727323e+002, 1.195813e+002
2.732144e+002, 1.185232e+002
2.736965e+002, 1.174121e+002
2.741786e+002, 1.162971e+002
2.746608e+002, 1.151407e+002
2.751429e+002, 1.141472e+002
2.756250e+002, 1.134434e+002
2.761071e+002, 1.129701e+002
2.765892e+002, 1.122357e+002
2.770714e+002, 1.112212e+002
2.775535e+002, 1.100325e+002
2.780356e+002, 1.087194e+002
2.785177e+002, 1.072630e+002
2.789998e+002, 1.058916e+002
2.794819e+002, 1.047201e+002
2.799641e+002, 1.036509e+002
2.804462e+002, 1.022737e+002
2.809283e+002, 1.005313e+002
2.814104e+002, 9.870533e+001
2.818925e+002, 9.695427e+001
2.823746e+002, 9.527711e+001
2.828568e+002, 9.380064e+001
2.833389e+002, 9.262569e+001
2.838210e+002, 9.160509e+001
2.843031e+002, 9.027482e+001
2.847852e+002, 8.859367e+001
2.852673e+002, 8.692985e+001
2.857495e+002, 8.558671e+001
2.862316e+002, 8.453419e+001
2.867137e+002, 8.333182e+001
2.871958e+002, 8.185918e+001
2.876779e+002, 8.030760e+001
2.881600e+002, 7.909330e+001
2.886422e+002, 7.821944e+001
2.891243e+002, 7.742210e+001
2.896064e+002, 7.658398e+001
2.900885e+002, 7.569909e+001
2.905706e+002, 7.476712e+001
2.910527e+002, 7.377586e+001
2.915349e+002, 7.276170e+001
2.920170e+002, 7.173513e+001
2.924991e+002, 7.071362e+001
2.929812e+002, 6.980078e+001
2.934633e+002, 6.915309e+001
2.939454e+002, 6.867336e+001
2.944276e+002, 6.802267e+001
2.949097e+002, 6.715368e+001
2.953918e+002, 6.627431e+001
2.958739e+002, 6.562845e+001
2.963560e+002, 6.520297e+001
2.968381e+002, 6.490490e+001
2.973203e+002, 6.481471e+001
2.978024e+002, 6.480459e+001
2.982845e+002, 6.458763e+001
2.987666e+002, 6.414456e+001
2.992487e+002, 6.362611e+001
2.997308e+002, 6.308313e+001
3.002130e+002, 6.256656e+001
3.006951e+002, 6.223362e+001
3.011772e+002, 6.231025e+001
3.016593e+002, 6.252517e+001
3.021414e+002, 6.245446e+001
3.026235e+002, 6.210437e+001
3.031057e+002, 6.172348e+001
3.035878e+002, 6.153133e+001
3.040699e+002, 6.145466e+001
3.045520e+002, 6.135986e+001
3.050341e+002, 6.116526e+001
3.055162e+002, 6.096957e+001
3.059984e+002, 6.090005e+001
3.064805e+002, 6.093969e+001
3.069626e+002, 6.096693e+001
3.074447e+002, 6.095056e+001
3.079268e+002, 6.085651e+001
3.084089e+002, 6.060630e+001
3.088911e+002, 6.002452e+001
3.093732e+002, 5.952222e+001
3.098553e+002, 5.959393e+001
3.103374e+002, 6.006597e+001
3.108195e+002, 6.035144e+001
3.113016e+002, 5.990713e+001
3.117838e+002, 5.923346e+001
3.122659e+002, 5.880434e+001
3.127480e+002, 5.882948e+001
3.132301e+002, 5.882520e+001
3.137122e+002, 5.831815e+001
3.141943e+002, 5.756665e+001
3.146765e+002, 5.712653e+001
3.151586e+002, 5.759071e+001
3.156407e+002, 5.820264e+001
3.161228e+002, 5.850536e+001
3.166049e+002, 5.841124e+001
3.170870e+002, 5.812432e+001
3.175692e+002, 5.760441e+001
3.180513e+002, 5.697744e+001
3.185334e+002, 5.642235e+001
3.190155e+002, 5.608363e+001
3.194976e+002, 5.575440e+001
3.199797e+002, 5.530452e+001
3.204619e+002, 5.470564e+001
3.209440e+002, 5.423919e+001
3.214261e+002, 5.406442e+001
3.219082e+002, 5.403123e+001
3.223903e+002, 5.399881e+001
3.228724e+002, 5.398289e+001
3.233546e+002, 5.391744e+001
3.238367e+002, 5.380216e+001
3.243188e+002, 5.363446e+001
3.248009e+002, 5.336145e+001
3.252830e+002, 5.275737e+001
3.257651e+002, 5.218246e+001
3.262473e+002, 5.187196e+001
3.267294e+002, 5.230944e+001
3.272115e+002, 5.248116e+001
3.276936e+002, 5.209889e+001
3.281757e+002, 5.130715e+001
3.286578e+002, 5.081028e+001
3.291400e+002, 5.091077e+001
3.296221e+002, 5.106226e+001
3.301042e+002, 5.102958e+001
3.305863e+002, 5.064903e+001
3.310684e+002, 5.035501e+001
3.315505e+002, 5.018651e+001
3.320327e+002, 5.009768e+001
3.325148e+002, 4.998738e+001
3.329969e+002, 4.981416e+001
3.334790e+002, 4.967291e+001
3.339611e+002, 4.961907e+001
3.344432e+002, 4.971105e+001
3.349254e+002, 4.963797e+001
3.354075e+002, 4.933138e+001
3.358896e+002, 4.891606e+001
3.363717e+002, 4.854162e+001
3.368538e+002, 4.817052e+001
3.373359e+002, 4.794713e+001
3.378180e+002, 4.797998e+001
3.383001e+002, 4.826221e+001
3.387823e+002, 4.831071e+001
3.392644e+002, 4.806147e+001
3.397465e+002, 4.770741e+001
3.402286e+002, 4.742163e+001
3.407107e+002, 4.721185e+001
3.411928e+002, 4.705500e+001
3.416750e+002, 4.698901e+001
3.421571e+002, 4.696370e+001
3.426392e+002, 4.674672e+001
3.431213e+002, 4.629880e+001
3.436034e+002, 4.586112e+001
3.440855e+002, 4.563622e+001
3.445677e+002, 4.561553e+001
3.450498e+002, 4.552989e+001
3.455319e+002, 4.533584e+001
3.460140e+002, 4.508364e+001
3.464961e+002, 4.484843e+001
3.469782e+002, 4.463200e+001
3.474604e+002, 4.446350e+001
3.479425e+002, 4.435123e+001
3.484246e+002, 4.429975e+001
3.489067e+002, 4.438101e+001
3.493888e+002, 4.463455e+001
3.498709e+002, 4.484295e+001
3.503531e+002, 4.463165e+001
3.508352e+002, 4.411824e+001
3.513173e+002, 4.374082e+001
3.517994e+002, 4.382071e+001
3.522815e+002, 4.410709e+001
3.527636e+002, 4.416911e+001
3.532458e+002, 4.400617e+001
3.537279e+002, 4.379466e+001
3.542100e+002, 4.368068e+001
3.546921e+002, 4.361961e+001
3.551742e+002, 4.353299e+001
3.556563e+002, 4.337185e+001
3.561385e+002, 4.319970e+001
3.566206e+002, 4.309843e+001
3.571027e+002, 4.304877e+001
3.575848e+002, 4.295900e+001
3.580669e+002, 4.263742e+001
3.585490e+002, 4.231677e+001
3.590312e+002, 4.226274e+001
3.595133e+002, 4.266915e+001
3.599954e+002, 4.302152e+001
3.604775e+002, 4.296848e+001
3.609596e+002, 4.264581e+001
3.614417e+002, 4.234330e+001
3.619239e+002, 4.221751e+001
3.624060e+002, 4.211254e+001
3.628881e+002, 4.190346e+001
3.633702e+002, 4.153235e+001
3.638523e+002, 4.130326e+001
3.643344e+002, 4.142509e+001
3.648166e+002, 4.170259e+001
3.652987e+002, 4.191477e+001
3.657808e+002, 4.195837e+001
3.662629e+002, 4.197790e+001
3.667450e+002, 4.202892e+001
3.672271e+002, 4.211140e+001
3.677093e+002, 4.211564e+001
3.681914e+002, 4.197487e+001
3.686735e+002, 4.178530e+001
3.691556e+002, 4.160782e+001
3.696377e+002, 4.148402e+001
3.701198e+002, 4.132482e+001
3.706020e+002, 4.105190e+001
3.710841e+002, 4.072981e+001
3.715662e+002, 4.060243e+001
3.720483e+002, 4.080309e+001
3.725304e+002, 4.103732e+001
3.730125e+002, 4.119850e+001
3.734947e+002, 4.129982e+001
3.739768e+002, 4.126916e+001
3.744589e+002, 4.102388e+001
3.749410e+002, 4.071238e+001
3.754231e+002, 4.060523e+001
3.759052e+002, 4.080447e+001
3.763874e+002, 4.091407e+001
3.768695e+002, 4.075278e+001
3.773516e+002, 4.033167e+001
3.778337e+002, 4.021416e+001
3.783158e+002, 4.047749e+001
3.787979e+002, 4.082600e+001
3.792801e+002, 4.095228e+001
3.797622e+002, 4.084682e+001
3.802443e+002, 4.076793e+001
3.807264e+002, 4.078818e+001
3.812085e+002, 4.084737e+001
3.816906e+002, 4.073669e+001
3.821728e+002, 4.045150e+001
3.826549e+002, 4.022667e+001
3.831370e+002, 4.031281e+001
3.836191e+002, 4.061173e+001
3.841012e+002, 4.070897e+001
3.845833e+002, 4.052664e+001
3.850655e+002, 4.025896e+001
3.855476e+002, 4.015588e+001
3.860297e+002, 4.018562e+001
3.865118e+002, 4.024041e+001
3.869939e+002, 4.025419e+001
3.874760e+002, 4.026807e+001
3.879582e+002, 4.036187e+001
3.884403e+002, 4.053892e+001
3.889224e+002, 4.070427e+001
3.894045e+002, 4.081583e+001
3.898866e+002, 4.085884e+001
3.903687e+002, 4.080276e+001
3.908509e+002, 4.052481e+001
3.913330e+002, 4.026892e+001
3.918151e+002, 4.024955e+001
3.922972e+002, 4.041416e+001
3.927793e+002, 4.054644e+001
3.932614e+002, 4.052952e+001
3.937436e+002, 4.044632e+001
3.942257e+002, 4.035199e+001
3.947078e+002, 4.025408e+001
3.951899e+002, 4.015078e+001
3.956720e+002, 4.000329e+001
3.961541e+002, 3.985592e+001
3.966363e+002, 3.978019e+001
3.971184e+002, 3.983361e+001
3.976005e+002, 3.992342e+001
3.980826e+002, 4.005766e+001
3.985647e+002, 4.025595e+001
3.990468e+002, 4.032143e+001
3.995290e+002, 4.007631e+001
4.000111e+002, 3.977987e+001
4.004932e+002, 3.963824e+001
4.009753e+002, 3.970127e+001
4.014574e+002, 3.986367e+001
4.019395e+002, 4.024067e+001
4.024217e+002, 4.073706e+001
4.029038e+002, 4.085399e+001
4.033859e+002, 4.031329e+001
4.038680e+002, 3.980177e+001
4.043501e+002, 3.969442e+001
4.048322e+002, 4.016663e+001
4.053144e+002, 4.042497e+001
4.057965e+002, 4.041943e+001
4.062786e+002, 4.025667e+001
4.067607e+002, 4.006916e+001
4.072428e+002, 3.983516e+001
4.077249e+002, 3.970085e+001
4.082071e+002, 3.976270e+001
4.086892e+002, 3.997623e+001
4.091713e+002, 4.003584e+001
4.096534e+002, 3.991951e+001
4.101355e+002, 3.977630e+001
4.106176e+002, 3.974163e+001
4.110998e+002, 3.980107e+001
4.115819e+002, 3.988347e+001
4.120640e+002, 3.999492e+001
4.125461e+002, 4.008920e+001
4.130282e+002, 4.005397e+001
4.135103e+002, 3.991425e+001
4.139925e+002, 3.981697e+001
4.144746e+002, 3.992747e+001
4.149567e+002, 4.010815e+001
4.154388e+002, 4.013266e+001
4.159209e+002, 3.997325e+001
4.164030e+002, 3.975380e+001
4.168852e+002, 3.951353e+001
4.173673e+002, 3.929234e+001
4.178494e+002, 3.915342e+001
4.183315e+002, 3.913305e+001
4.188136e+002, 3.919176e+001
4.192957e+002, 3.935690e+001
4.197779e+002, 3.960469e+001
4.202600e+002, 3.979022e+001
4.207421e+002, 3.987339e+001
4.212242e+002, 3.985258e+001
4.217063e+002, 3.971067e+001
4.221884e+002, 3.935984e+001
4.226706e+002, 3.904873e+001
4.231527e+002, 3.878474e+001
4.236348e+002, 3.860511e+001
4.241169e+002, 3.857625e+001
4.245990e+002, 3.893998e+001
4.250811e+002, 3.923235e+001
4.255633e+002, 3.929353e+001
4.260454e+002, 3.908996e+001
4.265275e+002, 3.888025e+001
4.270096e+002, 3.856133e+001
4.274917e+002, 3.831468e+001
4.279738e+002, 3.831552e+001
4.284560e+002, 3.874578e+001
4.289381e+002, 3.902932e+001
4.294202e+002, 3.902724e+001
4.299023e+002, 3.884749e+001
4.303844e+002, 3.891388e+001
4.308665e+002, 3.935038e+001
4.313487e+002, 3.967833e+001
4.318308e+002, 3.955509e+001
4.323129e+002, 3.894461e+001
4.327950e+002, 3.867812e+001
4.332771e+002, 3.883292e+001
4.337592e+002, 3.915175e+001
4.342414e+002, 3.931577e+001
4.347235e+002, 3.933643e+001
4.352056e+002, 3.934988e+001
4.356877e+002, 3.941155e+001
4.361698e+002, 3.948500e+001
4.366519e+002, 3.948543e+001
4.371341e+002, 3.941571e+001
4.376162e+002, 3.932890e+001
4.380983e+002, 3.919114e+001
4.385804e+002, 3.907891e+001
4.390625e+002, 3.917230e+001
4.395446e+002, 3.956989e+001
4.400268e+002, 3.994042e+001
4.405089e+002, 3.992336e+001
4.409910e+002, 3.966272e+001
4.414731e+002, 3.945427e+001
4.419552e+002, 3.939760e+001
4.424373e+002, 3.946009e+001
4.429195e+002, 3.969386e+001
4.434016e+002, 4.008957e+001
4.438837e+002, 4.037393e+001
4.443658e+002, 4.037057e+001
4.448479e+002, 4.024494e+001
4.453300e+002, 4.012477e+001
4.458122e+002, 4.001532e+001
4.462943e+002, 3.993703e+001
4.467764e+002, 3.989647e+001
4.472585e+002, 3.988871e+001
4.477406e+002, 3.990180e+001
4.482227e+002, 4.001287e+001
4.487049e+002, 4.006548e+001
4.491870e+002, 3.997809e+001
4.496691e+002, 3.970301e+001
4.501512e+002, 3.958770e+001
4.506333e+002, 3.969948e+001
4.511154e+002, 3.989960e+001
4.515976e+002, 4.004111e+001
4.520797e+002, 4.006775e+001
4.525618e+002, 4.024654e+001
4.530439e+002, 4.071763e+001
4.535260e+002, 4.131544e+001
4.540081e+002, 4.150301e+001
4.544903e+002, 4.122636e+001
4.549724e+002, 4.089358e+001
4.554545e+002, 4.072504e+001
4.559366e+002, 4.070087e+001
4.564187e+002, 4.068151e+001
4.569008e+002, 4.066732e+001
4.573830e+002, 4.063094e+001
4.578651e+002, 4.052639e+001
4.583472e+002, 4.037031e+001
4.588293e+002, 4.022289e+001
4.593114e+002, 4.010872e+001
4.597935e+002, 4.000462e+001
4.602757e+002, 3.981482e+001
4.607578e+002, 3.957892e+001
4.612399e+002, 3.949222e+001
4.617220e+002, 3.991500e+001
4.622041e+002, 4.041290e+001
4.626862e+002, 4.053125e+001
4.631684e+002, 4.013515e+001
4.636505e+002, 3.968099e+001
4.641326e+002, 3.932907e+001
4.646147e+002, 3.908248e+001
4.650968e+002, 3.894103e+001
4.655789e+002, 3.891845e+001
4.660611e+002, 3.899324e+001
4.665432e+002, 3.924672e+001
4.670253e+002, 3.964857e+001
4.675074e+002, 3.988277e+001
4.679895e+002, 3.978179e+001
4.684716e+002, 3.961077e+001
4.689538e+002, 3.948400e+001
4.694359e+002, 3.937780e+001
4.699180e+002, 3.937437e+001
4.704001e+002, 3.951870e+001
4.708822e+002, 3.973414e+001
4.713643e+002, 3.992900e+001
4.718465e+002, 4.014281e+001
4.723286e+002, 4.020962e+001
4.728107e+002, 4.003344e+001
4.732928e+002, 3.967105e+001
4.737749e+002, 3.944446e+001
4.742570e+002, 3.936961e+001
4.747392e+002, 3.935334e+001
4.752213e+002, 3.933269e+001
4.757034e+002, 3.931102e+001
4.761855e+002, 3.933622e+001
4.766676e+002, 3.943985e+001
4.771497e+002, 3.950071e+001
4.776319e+002, 3.926993e+001
4.781140e+002, 3.884261e+001
4.785961e+002, 3.853183e+001
4.790782e+002, 3.857665e+001
4.795603e+002, 3.874577e+001
4.800424e+002, 3.875232e+001
4.805246e+002, 3.861818e+001
4.810067e+002, 3.852132e+001
4.814888e+002, 3.862276e+001
4.819709e+002, 3.878332e+001
4.824530e+002, 3.887387e+001
4.829352e+002, 3.883938e+001
4.834173e+002, 3.880865e+001
4.838994e+002, 3.882147e+001
4.843815e+002, 3.887194e+001
4.848636e+002, 3.895098e+001
4.853457e+002, 3.922338e+001
4.858279e+002, 3.935277e+001
4.863100e+002, 3.913137e+001
4.867921e+002, 3.855991e+001
4.872742e+002, 3.829267e+001
4.877563e+002, 3.857831e+001
4.882384e+002, 3.891445e+001
4.887206e+002, 3.902024e+001
4.892027e+002, 3.881967e+001
4.896848e+002, 3.856849e+001
4.901669e+002, 3.817523e+001
4.906490e+002, 3.783535e+001
4.911311e+002, 3.793378e+001
4.916133e+002, 3.854718e+001
4.920954e+002, 3.906421e+001
4.925775e+002, 3.929416e+001
4.930596e+002, 3.928424e+001
4.935417e+002, 3.914609e+001
4.940238e+002, 3.887615e+001
4.945060e+002, 3.869112e+001
4.949881e+002, 3.888712e+001
4.954702e+002, 3.928396e+001
4.959523e+002, 3.938699e+001
4.964344e+002, 3.907597e+001
4.969165e+002, 3.872340e+001
4.973987e+002, 3.874179e+001
4.978808e+002, 3.898081e+001
4.983629e+002, 3.915702e+001
4.988450e+002, 3.913204e+001
4.993271e+002, 3.902428e+001
4.998092e+002, 3.882453e+001
5.002914e+002, 3.857195e+001
5.007735e+002, 3.848764e+001
5.012556e+002, 3.881010e+001
5.017377e+002, 3.921173e+001
5.022198e+002, 3.950460e+001
5.027019e+002, 3.964690e+001
5.031841e+002, 3.974162e+001
5.036662e+002, 3.978779e+001
5.041483e+002, 3.979909e+001
5.046304e+002, 3.978865e+001
5.051125e+002, 3.973512e+001
5.055946e+002, 3.969278e+001
5.060768e+002, 3.965644e+001
5.065589e+002, 3.963601e+001
5.070410e+002, 3.970440e+001
5.075231e+002, 3.991168e+001
5.080052e+002, 4.006574e+001
5.084873e+002, 4.002499e+001
5.089695e+002, 3.978719e+001
5.094516e+002, 3.968351e+001
5.099337e+002, 3.974561e+001
5.104158e+002, 3.981591e+001
5.108979e+002, 3.961541e+001
5.113800e+002, 3.923350e+001
5.118622e+002, 3.911461e+001
5.123443e+002, 3.950831e+001
5.128264e+002, 4.002397e+001
5.133085e+002, 4.010869e+001
5.137906e+002, 3.985876e+001
5.142728e+002, 3.961914e+001
5.147549e+002, 3.962144e+001
5.152370e+002, 3.969421e+001
5.157191e+002, 3.970500e+001
5.162012e+002, 3.964318e+001
5.166833e+002, 3.952315e+001
5.171655e+002, 3.927900e+001
5.176476e+002, 3.901839e+001
5.181297e+002, 3.883292e+001
5.186118e+002, 3.874348e+001
5.190939e+002, 3.872824e+001
5.195760e+002, 3.888974e+001
5.200582e+002, 3.911767e+001
5.205403e+002, 3.914698e+001
5.210224e+002, 3.878186e+001
5.215045e+002, 3.849229e+001
5.219866e+002, 3.842978e+001
5.224688e+002, 3.859376e+001
5.229509e+002, 3.868829e+001
5.234330e+002, 3.869183e+001
5.239151e+002, 3.867632e+001
5.243972e+002, 3.869033e+001
5.248793e+002, 3.873371e+001
5.253615e+002, 3.880717e+001
5.258436e+002, 3.891671e+001
5.263257e+002, 3.904002e+001
5.268078e+002, 3.920266e+001
5.272899e+002, 3.937102e+001
5.277720e+002, 3.936845e+001
5.282542e+002, 3.897192e+001
5.287363e+002, 3.848752e+001
5.292184e+002, 3.836511e+001
5.297005e+002, 3.854967e+001
5.301826e+002, 3.873504e+001
5.306647e+002, 3.872493e+001
5.311469e+002, 3.863947e+001
5.316290e+002, 3.857072e+001
5.321111e+002, 3.852736e+001
5.325932e+002, 3.852620e+001
5.330753e+002, 3.858382e+001
5.335574e+002, 3.868328e+001
5.340396e+002, 3.880593e+001
5.345217e+002, 3.907372e+001
5.350038e+002, 3.921843e+001
5.354859e+002, 3.909784e+001
5.359680e+002, 3.882230e+001
5.364501e+002, 3.875417e+001
5.369323e+002, 3.902743e+001
5.374144e+002, 3.928107e+001
5.378965e+002, 3.937964e+001
5.383786e+002, 3.931977e+001
5.388607e+002, 3.924146e+001
5.393428e+002, 3.913689e+001
5.398250e+002, 3.903832e+001
5.403071e+002, 3.896833e+001
5.407892e+002, 3.892856e+001
5.412713e+002, 3.893151e+001
5.417534e+002, 3.897968e+001
5.422355e+002, 3.906963e+001
5.427177e+002, 3.923881e+001
5.431998e+002, 3.945447e+001
5.436819e+002, 3.960753e+001
5.441640e+002, 3.957388e+001
5.446461e+002, 3.950531e+001
5.451282e+002, 3.959251e+001
5.456104e+002, 3.979956e+001
5.460925e+002, 3.990542e+001
5.465746e+002, 3.966721e+001
5.470567e+002, 3.937941e+001
5.475388e+002, 3.925352e+001
5.480209e+002, 3.937708e+001
5.485031e+002, 3.946740e+001
5.489852e+002, 3.946523e+001
5.494673e+002, 3.940205e+001
5.499494e+002, 3.930616e+001
5.504315e+002, 3.909491e+001
5.509136e+002, 3.898887e+001
5.513958e+002, 3.907863e+001
5.518779e+002, 3.927083e+001
5.523600e+002, 3.924949e+001
5.528421e+002, 3.892965e+001
5.533242e+002, 3.869659e+001
5.538063e+002, 3.877398e+001
5.542885e+002, 3.910416e+001
5.547706e+002, 3.920569e+001
5.552527e+002, 3.906289e+001
5.557348e+002, 3.885943e+001
5.562169e+002, 3.871640e+001
5.566990e+002, 3.863877e+001
5.571812e+002, 3.863993e+001
5.576633e+002, 3.872759e+001
5.581454e+002, 3.887371e+001
5.586275e+002, 3.914828e+001
5.591096e+002, 3.944809e+001
5.595917e+002, 3.959660e+001
5.600739e+002, 3.928285e+001
5.605560e+002, 3.902528e+001
5.610381e+002, 3.916560e+001
5.615202e+002, 3.960909e+001
5.620023e+002, 3.993657e+001
5.624844e+002, 3.998867e+001
5.629666e+002, 3.994755e+001
5.634487e+002, 3.985856e+001
5.639308e+002, 3.969040e+001
5.644129e+002, 3.965027e+001
5.648950e+002, 3.982076e+001
5.653771e+002, 4.002833e+001
5.658593e+002, 4.014096e+001
5.663414e+002, 4.015615e+001
5.668235e+002, 4.006289e+001
5.673056e+002, 3.980934e+001
5.677877e+002, 3.952312e+001
5.682698e+002, 3.948638e+001
5.687520e+002, 3.968080e+001
5.692341e+002, 3.979651e+001
5.697162e+002, 3.967658e+001
5.701983e+002, 3.943324e+001
5.706804e+002, 3.921749e+001
5.711625e+002, 3.904270e+001
5.716447e+002, 3.898940e+001
5.721268e+002, 3.924635e+001
5.726089e+002, 3.957219e+001
5.730910e+002, 3.970839e+001
5.735731e+002, 3.960414e+001
5.740552e+002, 3.949859e+001
5.745374e+002, 3.954517e+001
5.750195e+002, 3.961940e+001
5.755016e+002, 3.960490e+001
5.759837e+002, 3.923534e+001
5.764658e+002, 3.908025e+001
5.769479e+002, 3.935137e+001
5.774301e+002, 3.982920e+001
5.779122e+002, 4.007188e+001
5.783943e+002, 3.994151e+001
5.788764e+002, 3.985206e+001
5.793585e+002, 3.992243e+001
5.798406e+002, 4.013036e+001
5.803228e+002, 4.036076e+001
5.808049e+002, 4.063485e+001
5.812870e+002, 4.079305e+001
5.817691e+002, 4.060415e+001
5.822512e+002, 4.019100e+001
5.827333e+002, 4.009748e+001
5.832155e+002, 4.038178e+001
5.836975e+002, 4.072136e+001
5.841796e+002, 4.081686e+001
5.846617e+002, 4.076524e+001
5.851439e+002, 4.073552e+001
5.856260e+002, 4.081998e+001
5.861081e+002, 4.085441e+001
5.865902e+002, 4.066395e+001
5.870723e+002, 4.035966e+001
5.875544e+002, 4.015887e+001
5.880366e+002, 4.019760e+001
5.885187e+002, 4.026897e+001
5.890008e+002, 4.032117e+001
5.894829e+002, 4.035082e+001
5.899650e+002, 4.034804e+001
5.904471e+002, 4.024792e+001
5.909293e+002, 4.019913e+001
5.914114e+002, 4.031296e+001
5.918935e+002, 4.064061e+001
5.923756e+002, 4.072626e+001
5.928577e+002, 4.049557e+001
5.933398e+002, 4.022276e+001
5.938220e+002, 4.023041e+001
5.943041e+002, 4.047852e+001
5.947862e+002, 4.063349e+001
5.952683e+002, 4.059981e+001
5.957504e+002, 4.054964e+001
5.962325e+002, 4.076222e+001
5.967147e+002, 4.114350e+001
5.971968e+002, 4.144409e+001
5.976789e+002, 4.160676e+001
5.981610e+002, 4.160988e+001
5.986431e+002, 4.129742e+001
5.991252e+002, 4.076355e+001
5.996074e+002, 4.043365e+001
6.000895e+002, 4.063991e+001
6.005716e+002, 4.092862e+001
6.010537e+002, 4.106407e+001
6.015358e+002, 4.097247e+001
6.020179e+002, 4.100617e+001
6.025001e+002, 4.127927e+001
6.029822e+002, 4.156915e+001
6.034643e+002, 4.171383e+001
6.039464e+002, 4.169267e+001
6.044285e+002, 4.159121e+001
6.049106e+002, 4.137075e+001
6.053928e+002, 4.115001e+001
6.058749e+002, 4.114070e+001
6.063570e+002, 4.132597e+001
6.068391e+002, 4.148417e+001
6.073212e+002, 4.154336e+001
6.078033e+002, 4.154558e+001
6.082855e+002, 4.154877e+001
6.087676e+002, 4.154923e+001
6.092497e+002, 4.153418e+001
6.097318e+002, 4.148611e+001
6.102139e+002, 4.142665e+001
6.106960e+002, 4.134448e+001
6.111782e+002, 4.124370e+001
6.116603e+002, 4.122937e+001
6.121424e+002, 4.140249e+001
6.126245e+002, 4.162687e+001
6.131066e+002, 4.183720e+001
6.135887e+002, 4.210729e+001
6.140709e+002, 4.216813e+001
6.145530e+002, 4.187657e+001
6.150351e+002, 4.150601e+001
6.155172e+002, 4.134060e+001
6.159993e+002, 4.141277e+001
6.164814e+002, 4.155020e+001
6.169636e+002, 4.175196e+001
6.174457e+002, 4.197123e+001
6.179278e+002, 4.212408e+001
6.184099e+002, 4.221248e+001
6.188920e+002, 4.226191e+001
6.193741e+002, 4.226487e+001
6.198563e+002, 4.224822e+001
6.203384e+002, 4.224404e+001
6.208205e+002, 4.225282e+001
6.213026e+002, 4.227869e+001
6.217847e+002, 4.232395e+001
6.222668e+002, 4.238714e+001
6.227490e+002, 4.247452e+001
6.232311e+002, 4.259022e+001
6.237132e+002, 4.269028e+001
6.241953e+002, 4.281334e+001
6.246774e+002, 4.288289e+001
6.251595e+002, 4.283640e+001
6.256417e+002, 4.255445e+001
6.261238e+002, 4.240152e+001
6.266059e+002, 4.243583e+001
6.270880e+002, 4.253852e+001
6.275701e+002, 4.253908e+001
6.280522e+002, 4.242243e+001
6.285344e+002, 4.235715e+001
6.290165e+002, 4.239016e+001
6.294986e+002, 4.247591e+001
6.299807e+002, 4.251447e+001
6.304628e+002, 4.251983e+001
6.309449e+002, 4.256669e+001
6.314271e+002, 4.274503e+001
6.319092e+002, 4.294877e+001
6.323913e+002, 4.305329e+001
6.328734e+002, 4.307104e+001
6.333555e+002, 4.308539e+001
6.338376e+002, 4.312897e+001
6.343198e+002, 4.318840e+001
6.348019e+002, 4.326834e+001
6.352840e+002, 4.338265e+001
6.357661e+002, 4.344222e+001
6.362482e+002, 4.335831e+001
6.367303e+002, 4.328394e+001
6.372125e+002, 4.333173e+001
6.376946e+002, 4.355471e+001
6.381767e+002, 4.376038e+001
6.386588e+002, 4.396404e+001
6.391409e+002, 4.411109e+001
6.396230e+002, 4.404586e+001
6.401052e+002, 4.379153e+001
6.405873e+002, 4.373351e+001
6.410694e+002, 4.405069e+001
6.415515e+002, 4.447009e+001
6.420336e+002, 4.456618e+001
6.425157e+002, 4.441787e+001
6.429979e+002, 4.425558e+001
6.434800e+002, 4.414368e+001
6.439621e+002, 4.409940e+001
6.444442e+002, 4.415725e+001
6.449263e+002, 4.430360e+001
6.454084e+002, 4.446172e+001
6.458906e+002, 4.474762e+001
6.463727e+002, 4.491570e+001
6.468548e+002, 4.474611e+001
6.473369e+002, 4.414571e+001
6.478190e+002, 4.397328e+001
6.483011e+002, 4.445701e+001
6.487833e+002, 4.502915e+001
6.492654e+002, 4.523269e+001
6.497475e+002, 4.503098e+001
6.502296e+002, 4.495034e+001
6.507117e+002, 4.503664e+001
6.511938e+002, 4.518070e+001
6.516760e+002, 4.522496e+001
6.521581e+002, 4.521313e+001
6.526402e+002, 4.529152e+001
6.531223e+002, 4.553960e+001
6.536044e+002, 4.580103e+001
6.540865e+002, 4.593025e+001
6.545687e+002, 4.597503e+001
6.550508e+002, 4.602875e+001
6.555329e+002, 4.608072e+001
6.560150e+002, 4.619544e+001
6.564971e+002, 4.650258e+001
6.569792e+002, 4.692828e+001
6.574614e+002, 4.708677e+001
6.579435e+002, 4.679006e+001
6.584256e+002, 4.646969e+001
6.589077e+002, 4.623586e+001
6.593898e+002, 4.609034e+001
6.598719e+002, 4.612333e+001
6.603541e+002, 4.637944e+001
6.608362e+002, 4.660405e+001
6.613183e+002, 4.657759e+001
6.618004e+002, 4.636596e+001
6.622825e+002, 4.623165e+001
6.627646e+002, 4.619175e+001
6.632468e+002, 4.618150e+001
6.637289e+002, 4.613202e+001
6.642110e+002, 4.608274e+001
6.646931e+002, 4.608869e+001
6.651752e+002, 4.617649e+001
6.656573e+002, 4.628312e+001
6.661395e+002, 4.648714e+001
6.666216e+002, 4.665586e+001
6.671037e+002, 4.662586e+001
6.675858e+002, 4.596492e+001
6.680679e+002, 4.564351e+001
6.685500e+002, 4.587795e+001
6.690322e+002, 4.643206e+001
6.695143e+002, 4.681048e+001
6.699964e+002, 4.700980e+001
6.704785e+002, 4.704665e+001
6.709606e+002, 4.685878e+001
6.714427e+002, 4.655770e+001
6.719249e+002, 4.644621e+001
6.724070e+002, 4.651244e+001
6.728891e+002, 4.667207e+001
6.733712e+002, 4.699849e+001
6.738533e+002, 4.731778e+001
6.743354e+002, 4.738326e+001
6.748176e+002, 4.721328e+001
6.752997e+002, 4.704946e+001
6.757818e+002, 4.699652e+001
6.762639e+002, 4.700195e+001
6.767460e+002, 4.705124e+001
6.772281e+002, 4.716825e+001
6.777103e+002, 4.721892e+001
6.781924e+002, 4.713450e+001
6.786745e+002, 4.704842e+001
6.791566e+002, 4.706964e+001
6.796387e+002, 4.722992e+001
6.801208e+002, 4.734721e+001
6.806030e+002, 4.741162e+001
6.810851e+002, 4.743576e+001
6.815672e+002, 4.742202e+001
6.820493e+002, 4.737941e+001
6.825314e+002, 4.734276e+001
6.830135e+002, 4.731224e+001
6.834957e+002, 4.731000e+001
6.839778e+002, 4.744011e+001
6.844599e+002, 4.760569e+001
6.849420e+002, 4.762134e+001
6.854241e+002, 4.726109e+001
6.859063e+002, 4.690639e+001
6.863884e+002, 4.671659e+001
6.868705e+002, 4.664804e+001
6.873526e+002, 4.653277e+001
6.878347e+002, 4.621773e+001
6.883168e+002, 4.607044e+001
6.887990e+002, 4.626941e+001
6.892811e+002, 4.673655e+001
6.897632e+002, 4.692693e+001
6.902453e+002, 4.681867e+001
6.907274e+002, 4.658882e+001
6.912095e+002, 4.622854e+001
6.916917e+002, 4.583450e+001
6.921738e+002, 4.575422e+001
6.926559e+002, 4.597867e+001
6.931380e+002, 4.619682e+001
6.936201e+002, 4.615423e+001
6.941022e+002, 4.600975e+001
6.945844e+002, 4.589778e+001
6.950665e+002, 4.583077e+001
6.955486e+002, 4.583693e+001
6.960307e+002, 4.607233e+001
6.965128e+002, 4.628881e+001
6.969949e+002, 4.626983e+001
6.974771e+002, 4.577341e+001
6.979592e+002, 4.556308e+001
6.984413e+002, 4.575024e+001
6.989234e+002, 4.608411e+001
6.994055e+002, 4.625430e+001
6.998876e+002, 4.625785e+001
7.003698e+002, 4.630080e+001
7.008519e+002, 4.641990e+001
7.013340e+002, 4.658790e+001
7.018161e+002, 4.683828e+001
7.022982e+002, 4.710839e+001
7.027803e+002, 4.722945e+001
7.032625e+002, 4.697972e+001
7.037446e+002, 4.675662e+001
7.042267e+002, 4.688258e+001
7.047088e+002, 4.722815e+001
7.051909e+002, 4.750957e+001
7.056730e+002, 4.760316e+001
7.061552e+002, 4.767130e+001
7.066373e+002, 4.769302e+001
7.071194e+002, 4.771062e+001
7.076015e+002, 4.795136e+001
7.080836e+002, 4.848711e+001
7.085657e+002, 4.902363e+001
7.090479e+002, 4.946563e+001
7.095300e+002, 4.981076e+001
7.100121e+002, 5.000230e+001
7.104942e+002, 5.004802e+001
7.109763e+002, 5.013000e+001
7.114584e+002, 5.046774e+001
7.119406e+002, 5.086197e+001
7.124227e+002, 5.099933e+001
7.129048e+002, 5.087665e+001
7.133869e+002, 5.087375e+001
7.138690e+002, 5.126045e+001
7.143511e+002, 5.176838e+001
7.148333e+002, 5.223162e+001
7.153154e+002, 5.261457e+001
7.157975e+002, 5.300269e+001
7.162796e+002, 5.338812e+001
7.167617e+002, 5.379472e+001
7.172438e+002, 5.428777e+001
7.177260e+002, 5.488882e+001
7.182081e+002, 5.526298e+001
7.186902e+002, 5.533720e+001
7.191723e+002, 5.539344e+001
7.196544e+002, 5.584423e+001
7.201365e+002, 5.652989e+001
7.206187e+002, 5.701402e+001
7.211008e+002, 5.712843e+001
7.215829e+002, 5.725627e+001
7.220650e+002, 5.776390e+001
7.225471e+002, 5.843531e+001
7.230292e+002, 5.899236e+001
7.235114e+002, 5.914507e+001
7.239935e+002, 5.942104e+001
7.244756e+002, 6.002713e+001
7.249577e+002, 6.075777e+001
7.254398e+002, 6.127545e+001
7.259219e+002, 6.152402e+001
7.264041e+002, 6.170138e+001
7.268862e+002, 6.180194e+001
7.273683e+002, 6.190827e+001
7.278504e+002, 6.230359e+001
7.283325e+002, 6.293032e+001
7.288146e+002, 6.339475e+001
7.292968e+002, 6.344886e+001
7.297789e+002, 6.330507e+001
7.302610e+002, 6.315277e+001
7.307431e+002, 6.299769e+001
7.312252e+002, 6.285881e+001
7.317073e+002, 6.273612e+001
7.321895e+002, 6.263939e+001
7.326716e+002, 6.262255e+001
7.331537e+002, 6.266786e+001
7.336358e+002, 6.253449e+001
7.341179e+002, 6.203480e+001
7.346000e+002, 6.167530e+001
7.350822e+002, 6.168387e+001
7.355643e+002, 6.203115e+001
7.360464e+002, 6.246754e+001
7.365285e+002, 6.299810e+001
7.370106e+002, 6.352475e+001
7.374927e+002, 6.388013e+001
7.379749e+002, 6.422202e+001
7.384570e+002, 6.483082e+001
7.389391e+002, 6.571272e+001
7.394212e+002, 6.672984e+001
7.399033e+002, 6.784695e+001
7.403854e+002, 6.903397e+001
7.408676e+002, 7.026917e+001
7.413497e+002, 7.155163e+001
7.418318e+002, 7.288777e+001
7.423139e+002, 7.423267e+001
7.427960e+002, 7.568481e+001
7.432781e+002, 7.732491e+001
7.437603e+002, 7.916134e+001
7.442424e+002, 8.112975e+001
7.447245e+002, 8.324025e+001
7.452066e+002, 8.546463e+001
7.456887e+002, 8.785813e+001
7.461708e+002, 9.037226e+001
7.466530e+002, 9.288241e+001
7.471351e+002, 9.539197e+001
7.476172e+002, 9.773082e+001
7.480993e+002, 9.970083e+001
7.485814e+002, 1.014651e+002
7.490635e+002, 1.032090e+002
7.495457e+002, 1.054345e+002
7.500278e+002, 1.069311e+002
7.505099e+002, 1.075042e+002
7.509920e+002, 1.072970e+002
7.514741e+002, 1.064052e+002
7.519562e+002, 1.047996e+002
7.524384e+002, 1.025913e+002
7.529205e+002, 9.971005e+001
7.534026e+002, 9.645596e+001
7.538847e+002, 9.321989e+001
7.543668e+002, 9.002103e+001
7.548489e+002, 8.687502e+001
7.553311e+002, 8.376273e+001
7.558132e+002, 8.076180e+001
7.562953e+002, 7.794420e+001
7.567774e+002, 7.531096e+001
7.572595e+002, 7.292537e+001
7.577416e+002, 7.088203e+001
7.582238e+002, 6.897208e+001
7.587059e+002, 6.708285e+001
7.591880e+002, 6.528069e+001
7.596701e+002, 6.372701e+001
7.601522e+002, 6.248713e+001
7.606343e+002, 6.123389e+001
7.611165e+002, 5.981942e+001
7.615986e+002, 5.838833e+001
7.620807e+002, 5.730318e+001
7.625628e+002, 5.652627e+001
7.630449e+002, 5.583773e+001
7.635270e+002, 5.514674e+001
7.640092e+002, 5.449049e+001
7.644913e+002, 5.391407e+001
7.649734e+002, 5.339878e+001
7.654555e+002, 5.287716e+001
7.659376e+002, 5.233662e+001
7.664197e+002, 5.177980e+001
7.669019e+002, 5.114500e+001
7.673840e+002, 5.048196e+001
7.678661e+002, 5.004989e+001
7.683482e+002, 4.990971e+001
7.688303e+002, 4.982659e+001
7.693124e+002, 4.972860e+001
7.697946e+002, 4.961190e+001
7.702767e+002, 4.950397e+001
7.707588e+002, 4.938900e+001
7.712409e+002, 4.911998e+001
7.717230e+002, 4.843329e+001
7.722051e+002, 4.767234e+001
7.726873e+002, 4.717495e+001
7.731694e+002, 4.692569e+001
7.736515e+002, 4.674793e+001
7.741336e+002, 4.652999e+001
7.746157e+002, 4.641919e+001
7.750978e+002, 4.656838e+001
7.755800e+002, 4.695850e+001
7.760621e+002, 4.702262e+001
7.765442e+002, 4.667376e+001
7.770263e+002, 4.624357e+001
7.775084e+002, 4.586091e+001
7.779905e+002, 4.554307e+001
7.784727e+002, 4.542574e+001
7.789548e+002, 4.549829e+001
7.794369e+002, 4.557589e+001
7.799190e+002, 4.545218e+001
7.804011e+002, 4.531746e+001
7.808832e+002, 4.545329e+001
7.813654e+002, 4.586687e+001
7.818475e+002, 4.603297e+001
7.823296e+002, 4.546769e+001
7.828117e+002, 4.489885e+001
7.832938e+002, 4.471403e+001
7.837759e+002, 4.495839e+001
7.842581e+002, 4.507317e+001
7.847402e+002, 4.504015e+001
7.852223e+002, 4.493396e+001
7.857044e+002, 4.476683e+001
7.861865e+002, 4.456702e+001
7.866686e+002, 4.443330e+001
7.871508e+002, 4.436894e+001
7.876329e+002, 4.436925e+001
7.881150e+002, 4.449665e+001
7.885971e+002, 4.464526e+001
7.890792e+002, 4.469571e+001
7.895613e+002, 4.462219e+001
7.900435e+002, 4.458438e+001
7.905256e+002, 4.462054e+001
7.910077e+002, 4.470333e+001
7.914898e+002, 4.484748e+001
7.919719e+002, 4.508210e+001
7.924540e+002, 4.513212e+001
7.929362e+002, 4.495972e+001
7.934183e+002, 4.475235e+001
7.939004e+002, 4.463895e+001
7.943825e+002, 4.461641e+001
7.948646e+002, 4.471386e+001
7.953467e+002, 4.493572e+001
7.958289e+002, 4.513539e+001
7.963110e+002, 4.519453e+001
7.967931e+002, 4.519281e+001
7.972752e+002, 4.519004e+001
7.977573e+002, 4.519379e+001
7.982394e+002, 4.520589e+001
7.987216e+002, 4.530146e+001
7.992037e+002, 4.532727e+001
7.996858e+002, 4.514004e+001
8.001679e+002, 4.468549e+001
8.006500e+002, 4.445297e+001
8.011321e+002, 4.445662e+001
8.016143e+002, 4.457172e+001
8.020964e+002, 4.472011e+001
8.025785e+002, 4.488807e+001
8.030606e+002, 4.506343e+001
8.035427e+002, 4.524694e+001
8.040248e+002, 4.538879e+001
8.045070e+002, 4.545851e+001
8.049891e+002, 4.547677e+001
8.054712e+002, 4.544572e+001
8.059533e+002, 4.533012e+001
8.064354e+002, 4.528417e+001
8.069175e+002, 4.533726e+001
8.073997e+002, 4.541730e+001
8.078818e+002, 4.545685e+001
8.083639e+002, 4.545789e+001
8.088460e+002, 4.556337e+001
8.093281e+002, 4.578748e+001
8.098102e+002, 4.599868e+001
8.102924e+002, 4.607774e+001
8.107745e+002, 4.607186e+001
8.112566e+002, 4.605180e+001
8.117387e+002, 4.603234e+001
8.122208e+002, 4.594522e+001
8.127029e+002, 4.558080e+001
8.131851e+002, 4.527769e+001
8.136672e+002, 4.530655e+001
8.141493e+002, 4.577279e+001
8.146314e+002, 4.611754e+001
8.151135e+002, 4.633869e+001
8.155956e+002, 4.643625e+001
8.160778e+002, 4.634817e+001
8.165599e+002, 4.612314e+001
8.170420e+002, 4.600158e+001
8.175241e+002, 4.599735e+001
8.180062e+002, 4.599803e+001
8.184883e+002, 4.589181e+001
8.189705e+002, 4.576013e+001
8.194526e+002, 4.567141e+001
8.199347e+002, 4.563069e+001
8.204168e+002, 4.566022e+001
8.208989e+002, 4.579591e+001
8.213810e+002, 4.597788e+001
8.218632e+002, 4.621486e+001
8.223453e+002, 4.653307e+001
8.228274e+002, 4.664312e+001
8.233095e+002, 4.653330e+001
8.237916e+002, 4.628365e+001
8.242737e+002, 4.581215e+001
8.247559e+002, 4.529063e+001
8.252380e+002, 4.509097e+001
8.257201e+002, 4.523186e+001
8.262022e+002, 4.549659e+001
8.266843e+002, 4.600281e+001
8.271664e+002, 4.639412e+001
8.276486e+002, 4.632245e+001
8.281307e+002, 4.564597e+001
8.286128e+002, 4.539111e+001
8.290949e+002, 4.575246e+001
8.295770e+002, 4.620089e+001
8.300591e+002, 4.644920e+001
8.305413e+002, 4.651623e+001
8.310234e+002, 4.665534e+001
8.315055e+002, 4.686434e+001
8.319876e+002, 4.700459e+001
8.324697e+002, 4.700375e+001
8.329518e+002, 4.686600e+001
8.334340e+002, 4.646004e+001
8.339161e+002, 4.582244e+001
8.343982e+002, 4.548783e+001
8.348803e+002, 4.603144e+001
8.353624e+002, 4.653392e+001
8.358445e+002, 4.653791e+001
8.363267e+002, 4.607351e+001
8.368088e+002, 4.585962e+001
8.372909e+002, 4.594068e+001
8.377730e+002, 4.607659e+001
8.382551e+002, 4.613289e+001
8.387372e+002, 4.614839e+001
8.392194e+002, 4.626374e+001
8.397015e+002, 4.644931e+001
8.401836e+002, 4.653271e+001
8.406657e+002, 4.622977e+001
8.411478e+002, 4.595885e+001
8.416299e+002, 4.605777e+001
8.421121e+002, 4.648009e+001
8.425942e+002, 4.671854e+001
8.430763e+002, 4.668741e+001
8.435584e+002, 4.657247e+001
8.440405e+002, 4.639819e+001
8.445226e+002, 4.619438e+001
8.450048e+002, 4.601688e+001
8.454869e+002, 4.587877e+001
8.459690e+002, 4.599318e+001
8.464511e+002, 4.676031e+001
8.469332e+002, 4.758425e+001
8.474153e+002, 4.776842e+001
8.478975e+002, 4.747319e+001
8.483796e+002, 4.715159e+001
8.488617e+002, 4.682985e+001
8.493438e+002, 4.665874e+001
8.498259e+002, 4.671650e+001
8.503080e+002, 4.694015e+001
8.507902e+002, 4.721817e+001
8.512723e+002, 4.758428e+001
8.517544e+002, 4.777548e+001
8.522365e+002, 4.766867e+001
8.527186e+002, 4.742334e+001
8.532007e+002, 4.730501e+001
8.536829e+002, 4.728084e+001
8.541650e+002, 4.725628e+001
8.546471e+002, 4.711624e+001
8.551292e+002, 4.706594e+001
8.556113e+002, 4.736215e+001
8.560934e+002, 4.777464e+001
8.565756e+002, 4.786108e+001
8.570577e+002, 4.735320e+001
8.575398e+002, 4.705401e+001
8.580219e+002, 4.709554e+001
8.585040e+002, 4.730402e+001
8.589861e+002, 4.741017e+001
8.594683e+002, 4.743267e+001
8.599504e+002, 4.746481e+001
8.604325e+002, 4.752037e+001
8.609146e+002, 4.761580e+001
8.613967e+002, 4.782270e+001
8.618788e+002, 4.805263e+001
8.623610e+002, 4.819484e+001
8.628431e+002, 4.815874e+001
8.633252e+002, 4.815257e+001
8.638073e+002, 4.827583e+001
8.642894e+002, 4.835482e+001
8.647715e+002, 4.815672e+001
8.652537e+002, 4.765806e+001
8.657358e+002, 4.738592e+001
8.662179e+002, 4.739065e+001
8.667000e+002, 4.753467e+001
8.671821e+002, 4.774546e+001
8.676642e+002, 4.797874e+001
8.681464e+002, 4.818247e+001
8.686285e+002, 4.836105e+001
8.691106e+002, 4.844049e+001
8.695927e+002, 4.827050e+001
8.700748e+002, 4.809382e+001
8.705569e+002, 4.809175e+001
8.710391e+002, 4.830849e+001
8.715212e+002, 4.836026e+001
8.720033e+002, 4.819954e+001
8.724854e+002, 4.805531e+001
8.729675e+002, 4.812142e+001
8.734496e+002, 4.832640e+001
8.739318e+002, 4.853759e+001
8.744139e+002, 4.874128e+001
8.748960e+002, 4.885877e+001
8.753781e+002, 4.877295e+001
8.758602e+002, 4.864738e+001
8.763423e+002, 4.857616e+001
8.768245e+002, 4.856737e+001
8.773066e+002, 4.857785e+001
8.777887e+002, 4.863506e+001
8.782708e+002, 4.865366e+001
8.787529e+002, 4.859316e+001
8.792350e+002, 4.847442e+001
8.797172e+002, 4.834296e+001
8.801993e+002, 4.820777e+001
8.806814e+002, 4.810896e+001
8.811635e+002, 4.808268e+001
8.816456e+002, 4.808897e+001
8.821277e+002, 4.806595e+001
8.826099e+002, 4.804873e+001
8.830920e+002, 4.814582e+001
8.835741e+002, 4.853653e+001
8.840562e+002, 4.881673e+001
8.845383e+002, 4.891269e+001
8.850204e+002, 4.887148e+001
8.855026e+002, 4.878535e+001
8.859847e+002, 4.865372e+001
8.864668e+002, 4.845239e+001
8.869489e+002, 4.809701e+001
8.874310e+002, 4.784754e+001
8.879131e+002, 4.815271e+001
8.883953e+002, 4.870426e+001
8.888774e+002, 4.903741e+001
8.893595e+002, 4.887614e+001
8.898416e+002, 4.870726e+001
8.903237e+002, 4.857170e+001
8.908058e+002, 4.848274e+001
8.912880e+002, 4.845071e+001
8.917701e+002, 4.847546e+001
8.922522e+002, 4.861362e+001
8.927343e+002, 4.890223e+001
8.932164e+002, 4.910660e+001
8.936985e+002, 4.884987e+001
8.941807e+002, 4.840800e+001
8.946628e+002, 4.820516e+001
8.951449e+002, 4.834315e+001
8.956270e+002, 4.845355e+001
8.961091e+002, 4.842986e+001
8.965912e+002, 4.830986e+001
8.970734e+002, 4.806615e+001
8.975555e+002, 4.766846e+001
8.980376e+002, 4.758329e+001
8.985197e+002, 4.784934e+001
8.990018e+002, 4.820089e+001
8.994839e+002, 4.851976e+001
8.999661e+002, 4.876903e+001
9.004482e+002, 4.886325e+001
9.009303e+002, 4.881478e+001
9.014124e+002, 4.870402e+001
9.018945e+002, 4.839920e+001
9.023766e+002, 4.820821e+001
9.028588e+002, 4.838387e+001
9.033409e+002, 4.881995e+001
9.038230e+002, 4.902209e+001
9.043051e+002, 4.892539e+001
9.047872e+002, 4.886010e+001
9.052693e+002, 4.897095e+001
9.057515e+002, 4.913134e+001
9.062336e+002, 4.901895e+001
9.067157e+002, 4.873572e+001
9.071978e+002, 4.858229e+001
9.076799e+002, 4.883764e+001
9.081620e+002, 4.905333e+001
9.086442e+002, 4.893797e+001
9.091263e+002, 4.868494e+001
9.096084e+002, 4.861975e+001
9.100905e+002, 4.881506e+001
9.105726e+002, 4.902679e+001
9.110547e+002, 4.924815e+001
9.115369e+002, 4.945280e+001
9.120190e+002, 4.962715e+001
9.125011e+002, 4.975694e+001
9.129832e+002, 4.979023e+001
9.134653e+002, 4.970911e+001
9.139474e+002, 4.959349e+001
9.144296e+002, 4.936995e+001
9.149117e+002, 4.921644e+001
9.153938e+002, 4.933494e+001
9.158759e+002, 4.984127e+001
9.163580e+002, 5.012811e+001
9.168401e+002, 5.013298e+001
9.173223e+002, 5.007066e+001
9.178044e+002, 5.005807e+001
9.182865e+002, 5.009905e+001
9.187686e+002, 5.025346e+001
9.192507e+002, 5.050312e+001
9.197328e+002, 5.068243e+001
9.202150e+002, 5.060234e+001
9.206971e+002, 5.049757e+001
9.211792e+002, 5.054886e+001
9.216613e+002, 5.073004e+001
9.221434e+002, 5.078533e+001
9.226255e+002, 5.063000e+001
9.231077e+002, 5.053440e+001
9.235898e+002, 5.056962e+001
9.240719e+002, 5.071919e+001
9.245540e+002, 5.101927e+001
9.250361e+002, 5.141713e+001
9.255182e+002, 5.168534e+001
9.260004e+002, 5.166679e+001
9.264825e+002, 5.161745e+001
9.269646e+002, 5.168678e+001
9.274467e+002, 5.183076e+001
9.279288e+002, 5.198256e+001
9.284109e+002, 5.210968e+001
9.288931e+002, 5.231890e+001
9.293752e+002, 5.267480e+001
9.298573e+002, 5.298744e+001
9.303394e+002, 5.300552e+001
9.308215e+002, 5.279884e+001
9.313036e+002, 5.259277e+001
9.317858e+002, 5.240936e+001
9.322679e+002, 5.230461e+001
9.327500e+002, 5.234330e+001
9.332321e+002, 5.245665e+001
9.337142e+002, 5.260312e+001
9.341964e+002, 5.278293e+001
9.346785e+002, 5.296400e+001
9.351606e+002, 5.314652e+001
9.356427e+002, 5.333134e+001
9.361248e+002, 5.355051e+001
9.366069e+002, 5.376262e+001
9.370891e+002, 5.380721e+001
9.375712e+002, 5.370232e+001
9.380533e+002, 5.353393e+001
9.385354e+002, 5.318037e+001
9.390175e+002, 5.294452e+001
9.394996e+002, 5.308464e+001
9.399818e+002, 5.347808e+001
9.404639e+002, 5.374889e+001
9.409460e+002, 5.378843e+001
9.414281e+002, 5.397099e+001
9.419102e+002, 5.442259e+001
9.423923e+002, 5.492287e+001
9.428745e+002, 5.504787e+001
9.433566e+002, 5.492806e+001
9.438387e+002, 5.495811e+001
9.443208e+002, 5.527905e+001
9.448029e+002, 5.558501e+001
9.452850e+002, 5.579205e+001
9.457672e+002, 5.584741e+001
9.462493e+002, 5.564577e+001
9.467314e+002, 5.506072e+001
9.472135e+002, 5.480747e+001
9.476956e+002, 5.497730e+001
9.481777e+002, 5.517022e+001
9.486599e+002, 5.502066e+001
9.491420e+002, 5.467671e+001
9.496241e+002, 5.451533e+001
9.501062e+002, 5.452205e+001
9.505883e+002, 5.449920e+001
9.510704e+002, 5.425860e+001
9.515526e+002, 5.404063e+001
9.520347e+002, 5.407502e+001
9.525168e+002, 5.424479e+001
9.529989e+002, 5.402888e+001
9.534810e+002, 5.329197e+001
9.539631e+002, 5.283486e+001
9.544453e+002, 5.296847e+001
9.549274e+002, 5.334839e+001
9.554095e+002, 5.341507e+001
9.558916e+002, 5.328908e+001
9.563737e+002, 5.324603e+001
9.568558e+002, 5.349837e+001
9.573380e+002, 5.360652e+001
9.578201e+002, 5.326125e+001
9.583022e+002, 5.281098e+001
9.587843e+002, 5.258714e+001
9.592664e+002, 5.263646e+001
9.597485e+002, 5.266254e+001
9.602307e+002, 5.266092e+001
9.607128e+002, 5.260601e+001
9.611949e+002, 5.238211e+001
9.616770e+002, 5.213778e+001
9.621591e+002, 5.216798e+001
9.626412e+002, 5.246460e+001
9.631234e+002, 5.257587e+001
9.636055e+002, 5.212430e+001
9.640876e+002, 5.170115e+001
9.645697e+002, 5.152316e+001
9.650518e+002, 5.153756e+001
9.655339e+002, 5.152614e+001
9.660161e+002, 5.148806e+001
9.664982e+002, 5.138262e+001
9.669803e+002, 5.111826e+001
9.674624e+002, 5.090347e+001
9.679445e+002, 5.110690e+001
9.684266e+002, 5.148964e+001
9.689088e+002, 5.165331e+001
9.693909e+002, 5.134347e+001
9.698730e+002, 5.099950e+001
9.703551e+002, 5.056711e+001
9.708372e+002, 5.021856e+001
9.713193e+002, 5.019963e+001
9.718015e+002, 5.046315e+001
9.722836e+002, 5.046711e+001
9.727657e+002, 5.015878e+001
9.732478e+002, 5.003011e+001
9.737299e+002, 5.093988e+001
9.742120e+002, 5.183518e+001
9.746942e+002, 5.166768e+001
9.751763e+002, 5.035343e+001
9.756584e+002, 4.943709e+001
9.761405e+002, 4.901437e+001
9.766226e+002, 4.893279e+001
9.771047e+002, 4.926283e+001
9.775869e+002, 4.979049e+001
9.780690e+002, 4.984863e+001
9.785511e+002, 4.956263e+001
9.790332e+002, 4.941832e+001
9.795153e+002, 4.978575e+001
9.799974e+002, 5.008453e+001
9.804796e+002, 4.991817e+001
9.809617e+002, 4.953178e+001
9.814438e+002, 4.926345e+001
9.819259e+002, 4.911180e+001
9.824080e+002, 4.914629e+001
9.828901e+002, 4.943227e+001
9.833723e+002, 4.966865e+001
9.838544e+002, 4.941583e+001
9.843365e+002, 4.894761e+001
9.848186e+002, 4.884093e+001
9.853007e+002, 4.913215e+001
9.857828e+002, 4.932833e+001
9.862650e+002, 4.916314e+001
9.867471e+002, 4.890032e+001
9.872292e+002, 4.860037e+001
9.877113e+002, 4.830241e+001
9.881934e+002, 4.826539e+001
9.886755e+002, 4.850296e+001
9.891577e+002, 4.866144e+001
9.896398e+002, 4.856551e+001
9.901219e+002, 4.839186e+001
9.906040e+002, 4.827850e+001
9.910861e+002, 4.825554e+001
9.915682e+002, 4.838070e+001
9.920504e+002, 4.899292e+001
9.925325e+002, 4.922370e+001
9.930146e+002, 4.878894e+001
9.934967e+002, 4.826238e+001
9.939788e+002, 4.826882e+001
9.944609e+002, 4.872164e+001
9.949431e+002, 4.882927e+001
9.954252e+002, 4.855152e+001
9.959073e+002, 4.819421e+001
9.963894e+002, 4.779633e+001
9.968715e+002, 4.755833e+001
9.973536e+002, 4.775369e+001
9.978358e+002, 4.833427e+001
9.983179e+002, 4.860779e+001
9.988000e+002, 4.846546e+001
9.992821e+002, 4.826868e+001
9.997642e+002, 4.812146e+001
1.000246e+003, 4.797888e+001
1.000728e+003, 4.762035e+001
1.001211e+003, 4.720184e+001
1.001693e+003, 4.718172e+001
1.002175e+003, 4.793197e+001
1.002657e+003, 4.858343e+001
1.003139e+003, 4.876383e+001
1.003621e+003, 4.866013e+001
1.004103e+003, 4.840490e+001
1.004585e+003, 4.793621e+001
1.005068e+003, 4.769624e+001
1.005550e+003, 4.769886e+001
1.006032e+003, 4.777314e+001
1.006514e+003, 4.781244e+001
1.006996e+003, 4.783179e+001
1.007478e+003, 4.786010e+001
1.007960e+003, 4.788958e+001
1.008442e+003, 4.787734e+001
1.008924e+003, 4.775203e+001
1.009407e+003, 4.765873e+001
1.009889e+003, 4.762740e+001
1.010371e+003, 4.764183e+001
1.010853e+003, 4.768250e+001
1.011335e+003, 4.774365e+001
1.011817e+003, 4.779551e+001
1.012299e+003, 4.784867e+001
1.012781e+003, 4.782238e+001
1.013263e+003, 4.758509e+001
1.013746e+003, 4.728530e+001
1.014228e+003, 4.706243e+001
1.014710e+003, 4.693396e+001
1.015192e+003, 4.686438e+001
1.015674e+003, 4.687782e+001
1.016156e+003, 4.687212e+001
1.016638e+003, 4.671138e+001
1.017120e+003, 4.652221e+001
1.017603e+003, 4.665968e+001
1.018085e+003, 4.702599e+001
1.018567e+003, 4.727288e+001
1.019049e+003, 4.703880e+001
1.019531e+003, 4.691625e+001
1.020013e+003, 4.722507e+001
1.020495e+003, 4.764363e+001
1.020977e+003, 4.761049e+001
1.021459e+003, 4.710659e+001
1.021942e+003, 4.703302e+001
1.022424e+003, 4.755620e+001
1.022906e+003, 4.809411e+001
1.023388e+003, 4.809704e+001
1.023870e+003, 4.785353e+001
1.024352e+003, 4.761928e+001
1.024834e+003, 4.742282e+001
1.025316e+003, 4.728802e+001
1.025799e+003, 4.724648e+001
1.026281e+003, 4.720344e+001
1.026763e+003, 4.712989e+001
1.027245e+003, 4.702427e+001
1.027727e+003, 4.679829e+001
1.028209e+003, 4.652370e+001
1.028691e+003, 4.644957e+001
1.029173e+003, 4.680678e+001
1.029656e+003, 4.717046e+001
1.030138e+003, 4.738722e+001
1.030620e+003, 4.747756e+001
1.031102e+003, 4.745557e+001
1.031584e+003, 4.729404e+001
1.032066e+003, 4.714010e+001
1.032548e+003, 4.698427e+001
1.033030e+003, 4.694100e+001
1.033512e+003, 4.727639e+001
1.033995e+003, 4.766369e+001
1.034477e+003, 4.761469e+001
1.034959e+003, 4.720121e+001
1.035441e+003, 4.699838e+001
1.035923e+003, 4.728870e+001
1.036405e+003, 4.756820e+001
1.036887e+003, 4.772903e+001
1.037369e+003, 4.784013e+001
1.037851e+003, 4.809043e+001
1.038334e+003, 4.841676e+001
1.038816e+003, 4.857082e+001
1.039298e+003, 4.846308e+001
1.039780e+003, 4.833641e+001
1.040262e+003, 4.833897e+001
1.040744e+003, 4.838556e+001
1.041226e+003, 4.841059e+001
1.041708e+003, 4.841196e+001
1.042191e+003, 4.840273e+001
1.042673e+003, 4.837796e+001
1.043155e+003, 4.838444e+001
1.043637e+003, 4.843602e+001
1.044119e+003, 4.854379e+001
1.044601e+003, 4.878043e+001
1.045083e+003, 4.908137e+001
1.045565e+003, 4.928999e+001
1.046047e+003, 4.928359e+001
1.046530e+003, 4.928878e+001
1.047012e+003, 4.931378e+001
1.047494e+003, 4.937220e+001
1.047976e+003, 4.946032e+001
1.048458e+003, 4.959304e+001
1.048940e+003, 4.988783e+001
1.049422e+003, 5.034686e+001
1.049904e+003, 5.071240e+001
1.050386e+003, 5.056522e+001
1.050869e+003, 5.051854e+001
1.051351e+003, 5.109717e+001
1.051833e+003, 5.211333e+001
1.052315e+003, 5.277557e+001
1.052797e+003, 5.303072e+001
1.053279e+003, 5.335235e+001
1.053761e+003, 5.389812e+001
1.054243e+003, 5.449783e+001
1.054726e+003, 5.493446e+001
1.055208e+003, 5.529057e+001
1.055690e+003, 5.564896e+001
1.056172e+003, 5.594454e+001
1.056654e+003, 5.654980e+001
1.057136e+003, 5.759071e+001
1.057618e+003, 5.873943e+001
1.058100e+003, 5.976282e+001
1.058583e+003, 6.074289e+001
1.059065e+003, 6.182708e+001
1.059547e+003, 6.311325e+001
1.060029e+003, 6.507124e+001
1.060511e+003, 6.826333e+001
1.060993e+003, 7.174594e+001
1.061475e+003, 7.475826e+001
1.061957e+003, 7.804089e+001
1.062439e+003, 8.257116e+001
1.062922e+003, 8.838892e+001
1.063404e+003, 9.529324e+001
1.063886e+003, 1.033191e+002
1.064368e+003, 1.116327e+002
1.064850e+003, 1.195329e+002
1.065332e+003, 1.274067e+002
1.065814e+003, 1.356646e+002
1.066296e+003, 1.442548e+002
1.066778e+003, 1.529969e+002
1.067261e+003, 1.616475e+002
1.067743e+003, 1.709113e+002
1.068225e+003, 1.808551e+002
1.068707e+003, 1.916788e+002
1.069189e+003, 2.032265e+002
1.069671e+003, 2.158252e+002
1.070153e+003, 2.302786e+002
1.070635e+003, 2.468091e+002
1.071118e+003, 2.646864e+002
1.071600e+003, 2.838658e+002
1.072082e+003, 3.036681e+002
1.072564e+003, 3.240938e+002
1.073046e+003, 3.448125e+002
1.073528e+003, 3.656678e+002
1.074010e+003, 3.860066e+002
1.074492e+003, 3.987851e+002
1.074974e+003, 4.025002e+002
1.075457e+003, 3.944870e+002
1.075939e+003, 3.687229e+002
1.076421e+003, 3.312140e+002
1.076903e+003, 2.908192e+002
1.077385e+003, 2.453736e+002
1.077867e+003, 2.065880e+002
1.078349e+003, 1.752790e+002
1.078831e+003, 1.502317e+002
1.079313e+003, 1.315298e+002
1.079796e+003, 1.177186e+002
1.080278e+003, 1.072918e+002
1.080760e+003, 9.984318e+001
1.081242e+003, 9.410240e+001
1.081724e+003, 9.064382e+001
1.082206e+003, 8.768530e+001
1.082688e+003, 8.493589e+001
1.083170e+003, 8.254550e+001
1.083652e+003, 8.082072e+001
1.084135e+003, 7.970686e+001
1.084617e+003, 7.893071e+001
1.085099e+003, 7.835139e+001
1.085581e+003, 7.880094e+001
1.086063e+003, 8.106276e+001
1.086545e+003, 8.428025e+001
1.087027e+003, 8.793156e+001
1.087509e+003, 9.200700e+001
1.087992e+003, 9.674200e+001
1.088474e+003, 1.021380e+002
1.088956e+003, 1.081300e+002
1.089438e+003, 1.148587e+002
1.089920e+003, 1.219014e+002
1.090402e+003, 1.288898e+002
1.090884e+003, 1.360018e+002
1.091366e+003, 1.434133e+002
1.091849e+003, 1.507218e+002
1.092331e+003, 1.594495e+002
1.092813e+003, 1.695725e+002
1.093295e+003, 1.812036e+002
1.093777e+003, 1.942291e+002
1.094259e+003, 2.088946e+002
1.094741e+003, 2.260024e+002
1.095223e+003, 2.453905e+002
1.095705e+003, 2.665501e+002
1.096188e+003, 2.905888e+002
1.096670e+003, 3.145410e+002
1.097152e+003, 3.391816e+002
1.097634e+003, 3.618684e+002
1.098116e+003, 3.806889e+002
1.098598e+003, 3.950648e+002
1.099080e+003, 4.022546e+002
1.099562e+003, 4.020674e+002
1.100044e+003, 3.943740e+002
1.100527e+003, 3.761574e+002
1.101009e+003, 3.530968e+002
1.101491e+003, 3.267790e+002
1.101973e+003, 2.983639e+002
1.102455e+003, 2.713593e+002
1.102937e+003, 2.456444e+002
1.103419e+003, 2.221052e+002
1.103901e+003, 2.012100e+002
1.104384e+003, 1.823659e+002
1.104866e+003, 1.652632e+002
1.105348e+003, 1.501290e+002
1.105830e+003, 1.371413e+002
1.106312e+003, 1.265217e+002
1.106794e+003, 1.176041e+002
1.107276e+003, 1.105933e+002
1.107758e+003, 1.043760e+002
1.108240e+003, 9.827550e+001
1.108723e+003, 9.276866e+001
1.109205e+003, 8.857587e+001
1.109687e+003, 8.535683e+001
1.110169e+003, 8.243547e+001
1.110651e+003, 7.960197e+001
1.111133e+003, 7.708897e+001
1.111615e+003, 7.493945e+001
1.112097e+003, 7.298594e+001
1.112579e+003, 7.110285e+001
1.113062e+003, 6.930379e+001
1.113544e+003, 6.773902e+001
1.114026e+003, 6.632751e+001
1.114508e+003, 6.474306e+001
1.114990e+003, 6.246411e+001
1.115472e+003, 6.043815e+001
1.115954e+003, 5.908428e+001
1.116436e+003, 5.806488e+001
1.116919e+003, 5.695572e+001
1.117401e+003, 5.577095e+001
1.117883e+003, 5.485176e+001
1.118365e+003, 5.422816e+001
1.118847e+003, 5.370980e+001
1.119329e+003, 5.325667e+001
1.119811e+003, 5.277358e+001
1.120293e+003, 5.215009e+001
1.120776e+003, 5.144399e+001
1.121258e+003, 5.084741e+001
1.121740e+003, 5.036233e+001
1.122222e+003, 4.998244e+001
1.122704e+003, 4.972929e+001
1.123186e+003, 4.947304e+001
1.123668e+003, 4.896234e+001
1.124150e+003, 4.844344e+001
1.124632e+003, 4.822501e+001
1.125115e+003, 4.837999e+001
1.125597e+003, 4.836341e+001
1.126079e+003, 4.813987e+001
1.126561e+003, 4.783282e+001
1.127043e+003, 4.744718e+001
1.127525e+003, 4.706962e+001
1.128007e+003, 4.686198e+001
1.128489e+003, 4.675672e+001
1.128971e+003, 4.664451e+001
1.129454e+003, 4.651062e+001
1.129936e+003, 4.632178e+001
1.130418e+003, 4.597656e+001
1.130900e+003, 4.577254e+001
1.131382e+003, 4.602993e+001
1.131864e+003, 4.650822e+001
1.132346e+003, 4.638438e+001
1.132828e+003, 4.582959e+001
1.133311e+003, 4.540899e+001
1.133793e+003, 4.550799e+001
1.134275e+003, 4.558289e+001
1.134757e+003, 4.551308e+001
1.135239e+003, 4.536387e+001
1.135721e+003, 4.512614e+001
1.136203e+003, 4.483513e+001
1.136685e+003, 4.486893e+001
1.137167e+003, 4.519959e+001
1.137650e+003, 4.542397e+001
1.138132e+003, 4.516455e+001
1.138614e+003, 4.488725e+001
1.139096e+003, 4.484315e+001
1.139578e+003, 4.491603e+001
1.140060e+003, 4.492788e+001
1.140542e+003, 4.487805e+001
1.141024e+003, 4.483815e+001
1.141506e+003, 4.481758e+001
1.141989e+003, 4.478616e+001
1.142471e+003, 4.473542e+001
1.142953e+003, 4.465181e+001
1.143435e+003, 4.444814e+001
1.143917e+003, 4.419266e+001
1.144399e+003, 4.424262e+001
1.144881e+003, 4.467653e+001
1.145363e+003, 4.483944e+001
1.145846e+003, 4.452810e+001
1.146328e+003, 4.415921e+001
1.146810e+003, 4.429627e+001
1.147292e+003, 4.455204e+001
1.147774e+003, 4.445280e+001
1.148256e+003, 4.390631e+001
1.148738e+003, 4.365381e+001
1.149220e+003, 4.379177e+001
1.149703e+003, 4.390594e+001
1.150185e+003, 4.382815e+001
1.150667e+003, 4.370256e+001
1.151149e+003, 4.375112e+001
1.151631e+003, 4.389523e+001
1.152113e+003, 4.402610e+001
1.152595e+003, 4.415110e+001
1.153077e+003, 4.411576e+001
1.153559e+003, 4.380367e+001
1.154042e+003, 4.360720e+001
1.154524e+003, 4.383730e+001
1.155006e+003, 4.423227e+001
1.155488e+003, 4.411548e+001
1.155970e+003, 4.369642e+001
1.156452e+003, 4.349962e+001
1.156934e+003, 4.395747e+001
1.157416e+003, 4.414455e+001
1.157898e+003, 4.382344e+001
1.158381e+003, 4.343716e+001
1.158863e+003, 4.329956e+001
1.159345e+003, 4.337381e+001
1.159827e+003, 4.359758e+001
1.160309e+003, 4.391586e+001
1.160791e+003, 4.410221e+001
1.161273e+003, 4.387080e+001
1.161755e+003, 4.373907e+001
1.162238e+003, 4.391362e+001
1.162720e+003, 4.414997e+001
1.163202e+003, 4.419410e+001
1.163684e+003, 4.406579e+001
1.164166e+003, 4.383426e+001
1.164648e+003, 4.352688e+001
1.165130e+003, 4.336625e+001
1.165612e+003, 4.372844e+001
1.166094e+003, 4.397146e+001
1.166577e+003, 4.368153e+001
1.167059e+003, 4.320764e+001
1.167541e+003, 4.314770e+001
1.168023e+003, 4.345717e+001
1.168505e+003, 4.353735e+001
1.168987e+003, 4.332617e+001
1.169469e+003, 4.311639e+001
1.169951e+003, 4.316536e+001
1.170433e+003, 4.322424e+001
1.170916e+003, 4.303006e+001
1.171398e+003, 4.275993e+001
1.171880e+003, 4.295995e+001
1.172362e+003, 4.362134e+001
1.172844e+003, 4.399127e+001
1.173326e+003, 4.390086e+001
1.173808e+003, 4.370882e+001
1.174290e+003, 4.373737e+001
1.174773e+003, 4.376099e+001
1.175255e+003, 4.353334e+001
1.175737e+003, 4.312341e+001
1.176219e+003, 4.290846e+001
1.176701e+003, 4.289076e+001
1.177183e+003, 4.302313e+001
1.177665e+003, 4.334847e+001
1.178147e+003, 4.362235e+001
1.178630e+003, 4.352095e+001
1.179112e+003, 4.331792e+001
1.179594e+003, 4.331157e+001
1.180076e+003, 4.351545e+001
1.180558e+003, 4.358030e+001
1.181040e+003, 4.350069e+001
1.181522e+003, 4.332107e+001
1.182004e+003, 4.298915e+001
1.182486e+003, 4.271476e+001
1.182969e+003, 4.276537e+001
1.183451e+003, 4.298124e+001
1.183933e+003, 4.316964e+001
1.184415e+003, 4.329383e+001
1.184897e+003, 4.353699e+001
1.185379e+003, 4.394722e+001
1.185861e+003, 4.416601e+001
1.186343e+003, 4.389074e+001
1.186825e+003, 4.349156e+001
1.187308e+003, 4.343169e+001
1.187790e+003, 4.353643e+001
1.188272e+003, 4.352831e+001
1.188754e+003, 4.331511e+001
1.189236e+003, 4.314840e+001
1.189718e+003, 4.303022e+001
1.190200e+003, 4.295632e+001
1.190682e+003, 4.290293e+001
1.191165e+003, 4.291107e+001
1.191647e+003, 4.313872e+001
1.192129e+003, 4.344494e+001
1.192611e+003, 4.353615e+001
1.193093e+003, 4.327658e+001
1.193575e+003, 4.295095e+001
1.194057e+003, 4.250276e+001
1.194539e+003, 4.223496e+001
1.195021e+003, 4.256975e+001
1.195504e+003, 4.309377e+001
1.195986e+003, 4.323027e+001
1.196468e+003, 4.307846e+001
1.196950e+003, 4.294670e+001
1.197432e+003, 4.286296e+001
1.197914e+003, 4.286117e+001
1.198396e+003, 4.295497e+001
1.198878e+003, 4.308785e+001
1.199360e+003, 4.325764e+001
1.199843e+003, 4.339992e+001
1.200325e+003, 4.339149e+001
1.200807e+003, 4.326477e+001
1.201289e+003, 4.316623e+001
1.201771e+003, 4.316631e+001
1.202253e+003, 4.306946e+001
1.202735e+003, 4.280182e+001
1.203217e+003, 4.260774e+001
1.203700e+003, 4.293057e+001
1.204182e+003, 4.339715e+001
1.204664e+003, 4.337642e+001
1.205146e+003, 4.292623e+001
1.205628e+003, 4.271500e+001
1.206110e+003, 4.296719e+001
1.206592e+003, 4.318604e+001
1.207074e+003, 4.331072e+001
1.207557e+003, 4.332972e+001
1.208039e+003, 4.312787e+001
1.208521e+003, 4.286772e+001
1.209003e+003, 4.282431e+001
1.209485e+003, 4.300196e+001
1.209967e+003, 4.307500e+001
1.210449e+003, 4.298247e+001
1.210931e+003, 4.281736e+001
1.211413e+003, 4.255076e+001
1.211896e+003, 4.234649e+001
1.212378e+003, 4.252534e+001
1.212860e+003, 4.285158e+001
1.213342e+003, 4.296049e+001
1.213824e+003, 4.281237e+001
1.214306e+003, 4.270696e+001
1.214788e+003, 4.266365e+001
1.215270e+003, 4.271503e+001
1.215752e+003, 4.291740e+001
1.216235e+003, 4.309762e+001
1.216717e+003, 4.291616e+001
1.217199e+003, 4.259822e+001
1.217681e+003, 4.249300e+001
1.218163e+003, 4.266619e+001
1.218645e+003, 4.276303e+001
1.219127e+003, 4.272072e+001
1.219609e+003, 4.272243e+001
1.220092e+003, 4.285698e+001
1.220574e+003, 4.299279e+001
1.221056e+003, 4.283808e+001
1.221538e+003, 4.260485e+001
1.222020e+003, 4.264800e+001
1.222502e+003, 4.308030e+001
1.222984e+003, 4.328301e+001
1.223466e+003, 4.318974e+001
1.223948e+003, 4.299044e+001
1.224431e+003, 4.269353e+001
1.224913e+003, 4.244724e+001
1.225395e+003, 4.254840e+001
1.225877e+003, 4.279903e+001
1.226359e+003, 4.292287e+001
1.226841e+003, 4.284348e+001
1.227323e+003, 4.275948e+001
1.227805e+003, 4.264025e+001
1.228287e+003, 4.266652e+001
1.228770e+003, 4.298598e+001
1.229252e+003, 4.335496e+001
1.229734e+003, 4.350994e+001
1.230216e+003, 4.346756e+001
1.230698e+003, 4.317715e+001
1.231180e+003, 4.252318e+001
1.231662e+003, 4.228676e+001
1.232144e+003, 4.254872e+001
1.232627e+003, 4.274671e+001
1.233109e+003, 4.256154e+001
1.233591e+003, 4.229708e+001
1.234073e+003, 4.233996e+001
1.234555e+003, 4.251762e+001
1.235037e+003, 4.258998e+001
1.235519e+003, 4.251309e+001
1.236001e+003, 4.246878e+001
1.236484e+003, 4.245789e+001
1.236966e+003, 4.248709e+001
1.237448e+003, 4.261401e+001
1.237930e+003, 4.269887e+001
1.238412e+003, 4.251441e+001
1.238894e+003, 4.224445e+001
1.239376e+003, 4.214628e+001
1.239858e+003, 4.224123e+001
1.240340e+003, 4.239360e+001
1.240823e+003, 4.260320e+001
1.241305e+003, 4.280215e+001
1.241787e+003, 4.294718e+001
1.242269e+003, 4.307148e+001
1.242751e+003, 4.326725e+001
1.243233e+003, 4.341273e+001
1.243715e+003, 4.330602e+001
1.244197e+003, 4.289357e+001
1.244679e+003, 4.287223e+001
1.245162e+003, 4.323246e+001
1.245644e+003, 4.351399e+001
1.246126e+003, 4.346891e+001
1.246608e+003, 4.326793e+001
1.247090e+003, 4.286810e+001
1.247572e+003, 4.248370e+001
1.248054e+003, 4.238850e+001
1.248536e+003, 4.259897e+001
1.249019e+003, 4.254140e+001
1.249501e+003, 4.225206e+001
1.249983e+003, 4.212035e+001
1.250465e+003, 4.253910e+001
1.250947e+003, 4.294831e+001
1.251429e+003, 4.307642e+001
1.251911e+003, 4.303899e+001
1.252393e+003, 4.288237e+001
1.252875e+003, 4.262227e+001
1.253358e+003, 4.264571e+001
1.253840e+003, 4.290034e+001
1.254322e+003, 4.304203e+001
1.254804e+003, 4.277275e+001
1.255286e+003, 4.250855e+001
1.255768e+003, 4.232668e+001
1.256250e+003, 4.227374e+001
1.256732e+003, 4.247828e+001
1.257214e+003, 4.287063e+001
1.257697e+003, 4.297918e+001
1.258179e+003, 4.286364e+001
1.258661e+003, 4.280235e+001
1.259143e+003, 4.302558e+001
1.259625e+003, 4.316493e+001
1.260107e+003, 4.313463e+001
1.260589e+003, 4.303986e+001
1.261071e+003, 4.294556e+001
1.261554e+003, 4.286233e+001
1.262036e+003, 4.280968e+001
1.262518e+003, 4.279681e+001
1.263000e+003, 4.285221e+001
1.263482e+003, 4.318300e+001
1.263964e+003, 4.323119e+001
1.264446e+003, 4.281042e+001
1.264928e+003, 4.243601e+001
1.265411e+003, 4.271239e+001
1.265893e+003, 4.323965e+001
1.266375e+003, 4.317975e+001
1.266857e+003, 4.272437e+001
1.267339e+003, 4.240894e+001
1.267821e+003, 4.239932e+001
1.268303e+003, 4.250730e+001
1.268785e+003, 4.274462e+001
1.269267e+003, 4.304320e+001
1.269750e+003, 4.351748e+001
1.270232e+003, 4.388977e+001
1.270714e+003, 4.371449e+001
1.271196e+003, 4.316926e+001
1.271678e+003, 4.264768e+001
1.272160e+003, 4.210982e+001
1.272642e+003, 4.187312e+001
1.273124e+003, 4.197215e+001
1.273606e+003, 4.214711e+001
1.274089e+003, 4.219935e+001
1.274571e+003, 4.225294e+001
1.275053e+003, 4.248803e+001
1.275535e+003, 4.277074e+001
1.276017e+003, 4.286308e+001
1.276499e+003, 4.272840e+001
1.276981e+003, 4.260872e+001
1.277463e+003, 4.250991e+001
1.277946e+003, 4.246876e+001
1.278428e+003, 4.252142e+001
1.278910e+003, 4.262828e+001
1.279392e+003, 4.289772e+001
1.279874e+003, 4.311473e+001
1.280356e+003, 4.297698e+001
1.280838e+003, 4.249897e+001
1.281320e+003, 4.220678e+001
1.281802e+003, 4.210300e+001
1.282285e+003, 4.211629e+001
1.282767e+003, 4.231197e+001
1.283249e+003, 4.248476e+001
1.283731e+003, 4.259386e+001
1.284213e+003, 4.261338e+001
1.284695e+003, 4.243999e+001
1.285177e+003, 4.214885e+001
1.285659e+003, 4.215735e+001
1.286141e+003, 4.239445e+001
1.286624e+003, 4.255920e+001
1.287106e+003, 4.245643e+001
1.287588e+003, 4.236938e+001
1.288070e+003, 4.235683e+001
1.288552e+003, 4.232985e+001
1.289034e+003, 4.218450e+001
1.289516e+003, 4.198661e+001
1.289998e+003, 4.184449e+001
1.290481e+003, 4.177799e+001
1.290963e+003, 4.183917e+001
1.291445e+003, 4.227796e+001
1.291927e+003, 4.238021e+001
1.292409e+003, 4.206169e+001
1.292891e+003, 4.172870e+001
1.293373e+003, 4.166708e+001
1.293855e+003, 4.176128e+001
1.294338e+003, 4.193049e+001
1.294820e+003, 4.212774e+001
1.295302e+003, 4.226707e+001
1.295784e+003, 4.236730e+001
1.296266e+003, 4.228911e+001
1.296748e+003, 4.201813e+001
1.297230e+003, 4.182482e+001
1.297712e+003, 4.185540e+001
1.298194e+003, 4.204961e+001
1.298677e+003, 4.260372e+001
1.299159e+003, 4.312468e+001
1.299641e+003, 4.309033e+001
1.300123e+003, 4.248033e+001
1.300605e+003, 4.220547e+001
1.301087e+003, 4.222729e+001
1.301569e+003, 4.219436e+001
1.302051e+003, 4.179684e+001
1.302533e+003, 4.151442e+001
1.303016e+003, 4.151148e+001
##END=



