##NAMES=Thomsonite-Ca
##RRUFFID=R050103
##IDEAL CHEMISTRY=NaCa_2_(Al_5_Si_5_)O_20_&#183;6H_2_O
##LOCALITY=Seeberg, Bohemia, Czech Republic
##OWNER=RRUFF
##SOURCE=Rock Currier
##DESCRIPTION=Colorless prismatic crystals
##STATUS=The identification of this mineral has been confirmed by X-ray diffraction and chemical analysis
##URL=rruff.info/R050103
##MEASURED CHEMISTRY=Na_1.00_(Ca_0.92_Sr_0.08_)_2_(Al_5.00_Si_5.00_)O_20_Â·6H_2_O
142.5202, 350.7072
143.0023, 355.0912
143.4845, 359.4122
143.9666, 363.4339
144.4487, 367.1910
144.9308, 370.8878
145.4129, 374.1066
145.8951, 377.6908
146.3772, 382.7172
146.8593, 389.8401
147.3414, 397.2725
147.8235, 404.6143
148.3056, 411.9313
148.7878, 419.1561
149.2699, 426.1307
149.7520, 433.1700
150.2341, 440.6002
150.7162, 449.0773
151.1983, 457.3898
151.6805, 465.2223
152.1626, 472.1042
152.6447, 479.5278
153.1268, 488.2999
153.6089, 497.5631
154.0910, 505.8483
154.5732, 513.1543
155.0553, 519.5018
155.5374, 524.7593
156.0195, 528.5177
156.5016, 532.0092
156.9837, 535.2230
157.4659, 538.2611
157.9480, 541.3509
158.4301, 544.6776
158.9122, 547.9407
159.3943, 550.8398
159.8764, 552.4896
160.3586, 555.1737
160.8407, 559.6494
161.3228, 565.6324
161.8049, 572.3416
162.2870, 580.1002
162.7691, 588.1396
163.2512, 595.9495
163.7334, 603.1846
164.2155, 610.4782
164.6976, 618.5902
165.1797, 627.1497
165.6618, 634.7287
166.1439, 640.5729
166.6261, 645.1115
167.1082, 648.6544
167.5903, 650.9161
168.0724, 652.6044
168.5545, 653.9623
169.0366, 655.0361
169.5188, 656.0959
170.0009, 656.6586
170.4830, 657.5039
170.9651, 659.5379
171.4472, 663.0729
171.9293, 667.8875
172.4115, 673.6722
172.8936, 680.4669
173.3757, 688.7950
173.8578, 699.1868
174.3399, 711.2257
174.8220, 724.4046
175.3042, 738.9493
175.7863, 754.2598
176.2684, 770.3911
176.7505, 787.3170
177.2326, 803.6429
177.7147, 818.9348
178.1969, 832.7244
178.6790, 843.6412
179.1611, 851.8361
179.6432, 856.6410
180.1253, 857.0654
180.6074, 853.1134
181.0896, 844.8032
181.5717, 831.3041
182.0538, 813.3351
182.5359, 792.5519
183.0180, 768.8779
183.5001, 743.3243
183.9823, 717.9232
184.4644, 692.8231
184.9465, 668.4876
185.4286, 646.0686
185.9107, 625.1964
186.3928, 605.0496
186.8750, 584.6380
187.3571, 564.6634
187.8392, 546.9239
188.3213, 531.6595
188.8034, 518.3376
189.2855, 506.8967
189.7677, 497.2801
190.2498, 488.4152
190.7319, 479.6300
191.2140, 471.1529
191.6961, 464.3295
192.1782, 459.3556
192.6603, 455.5365
193.1425, 452.0977
193.6246, 449.0522
194.1067, 446.2606
194.5888, 443.6517
195.0709, 441.2595
195.5530, 439.2364
196.0352, 437.6139
196.5173, 436.2533
196.9994, 435.2001
197.4815, 434.5345
197.9636, 433.1519
198.4457, 430.7000
198.9279, 427.1633
199.4100, 421.7189
199.8921, 413.7865
200.3742, 404.7925
200.8563, 397.6092
201.3384, 392.4820
201.8206, 387.2748
202.3027, 380.7971
202.7848, 372.9025
203.2669, 365.1459
203.7490, 357.2788
204.2311, 349.8523
204.7133, 344.1516
205.1954, 340.4404
205.6775, 337.3787
206.1596, 334.1436
206.6417, 330.5175
207.1238, 328.3047
207.6060, 327.8473
208.0881, 328.5225
208.5702, 328.9518
209.0523, 328.9862
209.5344, 329.2276
210.0165, 329.9478
210.4987, 331.1663
210.9808, 332.7970
211.4629, 334.8461
211.9450, 337.2815
212.4271, 339.9627
212.9092, 342.7637
213.3914, 346.1113
213.8735, 350.2432
214.3556, 355.1823
214.8377, 360.7595
215.3198, 367.2042
215.8019, 374.1289
216.2841, 380.3326
216.7662, 385.5446
217.2483, 390.7213
217.7304, 396.6051
218.2125, 403.8873
218.6946, 409.4648
219.1767, 412.9932
219.6589, 414.9053
220.1410, 416.5378
220.6231, 418.4071
221.1052, 419.0362
221.5873, 417.7217
222.0694, 414.2050
222.5516, 409.5033
223.0337, 403.4839
223.5158, 396.3618
223.9979, 388.1839
224.4800, 378.5637
224.9621, 368.6727
225.4443, 359.0863
225.9264, 349.6800
226.4085, 340.6689
226.8906, 331.8712
227.3727, 323.5289
227.8548, 315.7868
228.3370, 308.8150
228.8191, 302.2839
229.3012, 295.9322
229.7833, 289.5563
230.2654, 284.0918
230.7475, 279.9067
231.2297, 276.5313
231.7118, 272.9369
232.1939, 269.1169
232.6760, 265.1021
233.1581, 260.7003
233.6402, 255.3835
234.1224, 251.2773
234.6045, 248.8985
235.0866, 247.4791
235.5687, 245.3303
236.0508, 241.8550
236.5329, 238.5848
237.0151, 236.1099
237.4972, 234.5569
237.9793, 233.4596
238.4614, 233.0576
238.9435, 232.9934
239.4256, 232.5076
239.9078, 231.2007
240.3899, 230.1288
240.8720, 229.7018
241.3541, 230.1155
241.8362, 230.5317
242.3183, 231.0726
242.8005, 231.5620
243.2826, 231.6334
243.7647, 230.9114
244.2468, 230.3970
244.7289, 230.4130
245.2110, 231.0368
245.6931, 231.8837
246.1753, 232.9873
246.6574, 234.2907
247.1395, 235.7223
247.6216, 237.3024
248.1037, 238.9374
248.5858, 240.5645
249.0680, 242.1108
249.5501, 243.9464
250.0322, 246.0916
250.5143, 248.5048
250.9964, 251.1978
251.4785, 254.4840
251.9607, 257.4642
252.4428, 259.7588
252.9249, 261.1852
253.4070, 263.3665
253.8891, 266.6293
254.3712, 270.3431
254.8534, 273.7226
255.3355, 276.4103
255.8176, 279.4734
256.2997, 283.4716
256.7818, 288.4730
257.2639, 292.3080
257.7461, 294.6839
258.2282, 296.2310
258.7103, 297.7378
259.1924, 299.8290
259.6745, 300.4115
260.1566, 298.7374
260.6388, 294.8485
261.1209, 291.2229
261.6030, 287.9804
262.0851, 284.7815
262.5672, 281.2910
263.0493, 277.2461
263.5315, 273.5464
264.0136, 270.4477
264.4957, 267.8864
264.9778, 265.0900
265.4599, 261.9351
265.9420, 258.8061
266.4242, 256.1819
266.9063, 254.3578
267.3884, 251.9489
267.8705, 248.6057
268.3526, 244.5407
268.8347, 240.6345
269.3169, 236.7747
269.7990, 233.3796
270.2811, 230.7794
270.7632, 229.1407
271.2453, 227.6280
271.7274, 226.0835
272.2096, 224.6209
272.6917, 223.6763
273.1738, 223.4596
273.6559, 223.1185
274.1380, 221.9004
274.6201, 219.5134
275.1023, 218.1527
275.5844, 218.3161
276.0665, 219.2908
276.5486, 219.2795
277.0307, 218.0361
277.5128, 216.8300
277.9950, 216.4739
278.4771, 217.0642
278.9592, 217.1129
279.4413, 216.3587
279.9234, 215.3532
280.4055, 215.1895
280.8877, 215.9528
281.3698, 216.8895
281.8519, 217.7112
282.3340, 218.4173
282.8161, 219.0245
283.2982, 219.5554
283.7804, 219.9305
284.2625, 219.9392
284.7446, 219.5662
285.2267, 219.2487
285.7088, 219.1074
286.1909, 219.1516
286.6730, 219.5387
287.1552, 220.3388
287.6373, 221.1945
288.1194, 221.4686
288.6015, 221.2224
289.0836, 221.4804
289.5657, 222.8100
290.0479, 224.8726
290.5300, 226.5022
291.0121, 227.6731
291.4942, 228.5304
291.9763, 229.0069
292.4584, 229.1944
292.9406, 229.6674
293.4227, 230.5587
293.9048, 231.8336
294.3869, 233.5160
294.8690, 235.6127
295.3511, 237.7842
295.8333, 239.9489
296.3154, 241.9995
296.7975, 243.5958
297.2796, 244.4810
297.7617, 245.1222
298.2438, 246.1253
298.7260, 247.4906
299.2081, 249.2866
299.6902, 252.1451
300.1723, 255.3969
300.6544, 257.6159
301.1365, 258.3280
301.6187, 258.5948
302.1008, 259.5645
302.5829, 261.1400
303.0650, 262.9926
303.5471, 265.3669
304.0292, 267.7463
304.5114, 269.2466
304.9935, 269.6807
305.4756, 269.8516
305.9577, 270.4429
306.4398, 271.3452
306.9219, 272.3088
307.4041, 273.4494
307.8862, 274.4625
308.3683, 275.0754
308.8504, 275.2637
309.3325, 275.1284
309.8146, 274.5316
310.2968, 273.6987
310.7789, 272.9564
311.2610, 272.8660
311.7431, 272.6128
312.2252, 271.2250
312.7073, 268.8188
313.1895, 266.9498
313.6716, 266.8752
314.1537, 267.6532
314.6358, 268.3130
315.1179, 268.3178
315.6000, 268.4000
316.0822, 268.8447
316.5643, 269.6585
317.0464, 270.8667
317.5285, 272.9942
318.0106, 275.2106
318.4927, 276.8615
318.9749, 277.4175
319.4570, 278.1192
319.9391, 279.5651
320.4212, 281.4837
320.9033, 283.2753
321.3854, 284.8929
321.8676, 286.2282
322.3497, 287.1579
322.8318, 287.4974
323.3139, 287.9327
323.7960, 288.6051
324.2781, 289.4594
324.7603, 290.4265
325.2424, 291.7554
325.7245, 292.9541
326.2066, 293.8496
326.6887, 294.3908
327.1708, 294.9243
327.6530, 295.7026
328.1351, 296.3883
328.6172, 296.6816
329.0993, 295.8374
329.5814, 295.4151
330.0635, 295.7533
330.5457, 296.8265
331.0278, 297.7997
331.5099, 298.5722
331.9920, 299.3328
332.4741, 300.1505
332.9562, 300.7534
333.4384, 301.9035
333.9205, 303.9160
334.4026, 306.5071
334.8847, 308.6717
335.3668, 310.1011
335.8489, 311.5605
336.3311, 313.4057
336.8132, 315.7346
337.2953, 318.2272
337.7774, 320.9702
338.2595, 323.7898
338.7416, 326.3763
339.2238, 328.8575
339.7059, 330.7631
340.1880, 331.6772
340.6701, 331.5466
341.1522, 332.2272
341.6343, 334.0904
342.1164, 335.9814
342.5985, 336.5411
343.0807, 335.6878
343.5628, 334.2974
344.0449, 332.5448
344.5270, 330.4444
345.0091, 327.8004
345.4912, 324.5038
345.9734, 321.2768
346.4555, 318.7471
346.9376, 316.8648
347.4197, 314.9795
347.9018, 312.9081
348.3839, 310.8947
348.8661, 309.4240
349.3482, 308.4639
349.8303, 307.5360
350.3124, 306.2084
350.7945, 304.6765
351.2766, 303.4672
351.7588, 302.6451
352.2409, 302.0263
352.7230, 301.5260
353.2051, 301.0688
353.6872, 300.4158
354.1693, 299.2751
354.6515, 297.9632
355.1336, 296.9295
355.6157, 296.1800
356.0978, 295.4532
356.5799, 294.2782
357.0620, 293.0399
357.5442, 292.3275
358.0263, 292.8124
358.5084, 293.4543
358.9905, 293.4800
359.4726, 292.9709
359.9547, 292.3618
360.4369, 291.7886
360.9190, 291.2782
361.4011, 290.8429
361.8832, 290.4373
362.3653, 290.1959
362.8474, 290.4572
363.3296, 290.9200
363.8117, 290.9533
364.2938, 290.4331
364.7759, 289.3601
365.2580, 287.7089
365.7401, 285.4448
366.2223, 282.7451
366.7044, 279.0948
367.1865, 275.2394
367.6686, 271.9565
368.1507, 269.4660
368.6328, 267.4899
369.1150, 266.0953
369.5971, 265.2873
370.0792, 264.5659
370.5613, 264.0596
371.0434, 263.5397
371.5255, 262.8482
372.0077, 261.5924
372.4898, 260.7587
372.9719, 260.2856
373.4540, 260.2617
373.9361, 261.0721
374.4182, 263.2365
374.9004, 265.3625
375.3825, 266.7933
375.8646, 267.2858
376.3467, 268.1071
376.8288, 269.3577
377.3109, 270.8126
377.7931, 272.3018
378.2752, 273.9565
378.7573, 275.0107
379.2394, 275.0591
379.7215, 274.2657
380.2036, 273.8755
380.6858, 273.9678
381.1679, 274.1134
381.6500, 273.9652
382.1321, 273.5309
382.6142, 272.8892
383.0963, 271.9853
383.5785, 270.9797
384.0606, 270.0798
384.5427, 269.3134
385.0248, 268.7959
385.5069, 268.7085
385.9890, 268.9233
386.4712, 269.1963
386.9533, 269.5332
387.4354, 269.7774
387.9175, 269.7112
388.3996, 269.4175
388.8817, 269.0797
389.3639, 268.7130
389.8460, 268.3805
390.3281, 268.3822
390.8102, 268.6529
391.2923, 268.3769
391.7744, 266.6187
392.2566, 264.2033
392.7387, 262.0206
393.2208, 260.5932
393.7029, 259.0087
394.1850, 256.5630
394.6671, 253.5688
395.1493, 250.8267
395.6314, 248.9100
396.1135, 247.1195
396.5956, 245.0611
397.0777, 242.5939
397.5598, 240.1729
398.0419, 237.4663
398.5240, 235.0118
399.0062, 233.4272
399.4883, 233.7712
399.9704, 233.9612
400.4525, 233.5083
400.9346, 232.4255
401.4167, 231.3920
401.8989, 230.3205
402.3810, 229.3726
402.8631, 228.6727
403.3452, 228.4586
403.8273, 227.9754
404.3094, 226.9112
404.7916, 225.6903
405.2737, 225.4288
405.7558, 226.5658
406.2379, 227.5700
406.7200, 227.7513
407.2021, 227.0608
407.6843, 226.8271
408.1664, 227.1218
408.6485, 227.7010
409.1306, 228.3557
409.6127, 229.0903
410.0948, 229.7021
410.5770, 230.0241
411.0591, 230.2878
411.5412, 231.1961
412.0233, 232.7469
412.5054, 234.3181
412.9875, 235.3625
413.4697, 236.1003
413.9518, 237.0654
414.4339, 238.3003
414.9160, 239.8094
415.3981, 241.7295
415.8802, 243.9190
416.3624, 246.1150
416.8445, 248.2322
417.3266, 250.2625
417.8087, 252.0758
418.2908, 253.6869
418.7729, 255.6414
419.2551, 258.6623
419.7372, 262.0079
420.2193, 264.8690
420.7014, 266.6714
421.1835, 268.5237
421.6656, 270.7122
422.1478, 273.2727
422.6299, 276.3383
423.1120, 280.5030
423.5941, 284.7104
424.0762, 288.3498
424.5583, 291.2683
425.0405, 294.3591
425.5226, 297.5448
426.0047, 301.0424
426.4868, 305.0489
426.9689, 310.2421
427.4510, 315.0187
427.9332, 318.9504
428.4153, 322.1988
428.8974, 325.6634
429.3795, 329.2767
429.8616, 333.1771
430.3438, 337.3510
430.8259, 341.7216
431.3080, 347.0019
431.7901, 353.6167
432.2722, 360.5316
432.7543, 366.2577
433.2365, 370.6551
433.7186, 374.9920
434.2007, 379.4913
434.6828, 384.2776
435.1649, 389.9367
435.6470, 396.4948
436.1292, 403.4173
436.6113, 410.4098
437.0934, 417.4216
437.5755, 424.2303
438.0576, 430.6886
438.5397, 437.2173
439.0219, 444.9217
439.5040, 453.2556
439.9861, 460.4471
440.4682, 465.5560
440.9503, 469.2295
441.4324, 472.0846
441.9146, 474.1499
442.3967, 475.1837
442.8788, 475.1480
443.3609, 473.9581
443.8430, 471.5519
444.3251, 467.8473
444.8073, 463.0092
445.2894, 456.7183
445.7715, 449.3080
446.2536, 441.6444
446.7357, 434.1916
447.2178, 426.2529
447.7000, 417.3442
448.1821, 406.9574
448.6642, 397.3077
449.1463, 388.5855
449.6284, 380.5353
450.1105, 372.8267
450.5927, 365.3704
451.0747, 358.3548
451.5569, 351.5183
452.0390, 345.1467
452.5211, 340.2690
453.0032, 337.3006
453.4853, 334.8317
453.9674, 332.1165
454.4496, 329.0967
454.9317, 326.8224
455.4138, 325.4291
455.8959, 324.4726
456.3780, 323.3920
456.8601, 322.2198
457.3423, 321.2518
457.8244, 320.4593
458.3065, 320.0381
458.7886, 320.1120
459.2707, 320.7654
459.7528, 322.6550
460.2350, 327.8555
460.7171, 333.9832
461.1992, 337.2914
461.6813, 336.8040
462.1634, 336.0319
462.6455, 337.1812
463.1277, 339.8708
463.6098, 343.5131
464.0919, 348.6580
464.5740, 353.9617
465.0561, 358.2671
465.5382, 361.9077
466.0204, 367.0766
466.5025, 375.8397
466.9846, 385.3759
467.4667, 393.9628
467.9488, 400.6354
468.4309, 408.1069
468.9131, 417.1023
469.3952, 426.7243
469.8773, 435.8123
470.3594, 444.3525
470.8415, 452.5722
471.3236, 460.7798
471.8058, 468.7787
472.2879, 475.5858
472.7700, 481.4905
473.2521, 485.5067
473.7342, 487.0564
474.2163, 486.1537
474.6985, 482.4345
475.1806, 475.4791
475.6627, 466.6831
476.1448, 457.8797
476.6269, 448.9736
477.1090, 439.0906
477.5912, 427.3012
478.0733, 414.7438
478.5554, 403.3867
479.0375, 393.1503
479.5196, 383.7983
480.0017, 374.7813
480.4839, 366.5781
480.9660, 359.9954
481.4481, 355.4127
481.9302, 351.3727
482.4123, 346.6552
482.8944, 341.9114
483.3766, 338.0861
483.8587, 336.2437
484.3408, 334.6188
484.8229, 332.3989
485.3050, 329.6736
485.7871, 327.4205
486.2693, 326.2998
486.7514, 325.3015
487.2335, 323.8205
487.7156, 321.1406
488.1977, 319.5946
488.6798, 320.0721
489.1620, 321.0739
489.6441, 320.4479
490.1262, 317.2628
490.6083, 314.8463
491.0904, 314.0332
491.5725, 314.5310
492.0547, 315.2358
492.5368, 316.2739
493.0189, 316.8109
493.5010, 316.0371
493.9831, 314.1739
494.4652, 312.7059
494.9474, 311.7643
495.4295, 310.9827
495.9116, 310.0279
496.3937, 308.8994
496.8758, 307.6357
497.3579, 306.3229
497.8401, 304.7738
498.3222, 302.5051
498.8043, 299.7293
499.2864, 297.2242
499.7685, 295.2490
500.2506, 293.8017
500.7328, 293.2123
501.2149, 293.7389
501.6970, 293.5482
502.1791, 290.8995
502.6612, 287.7346
503.1433, 285.8888
503.6255, 287.3375
504.1076, 288.1441
504.5897, 287.3006
505.0718, 285.4669
505.5539, 284.5780
506.0360, 285.0313
506.5181, 285.8367
507.0002, 286.5987
507.4824, 287.2802
507.9645, 288.6273
508.4466, 290.7975
508.9287, 293.2526
509.4108, 295.3999
509.8929, 297.2447
510.3751, 299.4615
510.8572, 302.0871
511.3393, 305.3096
511.8214, 309.7518
512.3035, 315.2397
512.7856, 320.8648
513.2678, 326.2577
513.7499, 331.4854
514.2320, 336.4259
514.7141, 341.1015
515.1962, 346.2864
515.6783, 352.5821
516.1605, 359.5733
516.6426, 366.7558
517.1247, 373.7080
517.6068, 381.7105
518.0889, 391.8876
518.5710, 403.3188
519.0532, 414.5306
519.5353, 424.3147
520.0174, 434.9485
520.4995, 447.1715
520.9816, 460.7530
521.4637, 474.6568
521.9459, 488.2679
522.4280, 503.0822
522.9101, 519.8611
523.3922, 539.1953
523.8743, 558.2316
524.3564, 576.8265
524.8386, 595.6317
525.3207, 615.1151
525.8028, 635.1181
526.2849, 657.2889
526.7670, 681.9322
527.2491, 708.7100
527.7313, 736.5800
528.2134, 765.6190
528.6955, 795.7733
529.1776, 827.1137
529.6597, 859.1799
530.1418, 891.2761
530.6240, 922.8496
531.1061, 955.3531
531.5882, 990.4768
532.0703, 1026.094
532.5524, 1060.373
533.0345, 1093.427
533.5167, 1123.513
533.9988, 1150.840
534.4809, 1174.449
534.9630, 1192.628
535.4451, 1204.318
535.9272, 1211.614
536.4094, 1216.008
536.8915, 1217.126
537.3736, 1210.052
537.8557, 1192.491
538.3378, 1170.427
538.8199, 1147.374
539.3021, 1123.864
539.7842, 1094.967
540.2663, 1059.531
540.7484, 1020.969
541.2305, 982.4667
541.7126, 943.9012
542.1948, 906.9293
542.6769, 872.6149
543.1590, 839.7824
543.6411, 807.7399
544.1232, 776.4301
544.6053, 745.7625
545.0875, 713.8878
545.5696, 683.3173
546.0517, 656.9973
546.5338, 634.8510
547.0159, 614.2576
547.4980, 594.1102
547.9802, 574.6965
548.4623, 556.1328
548.9444, 538.1934
549.4265, 521.5336
549.9086, 506.7208
550.3907, 493.1372
550.8729, 479.5990
551.3550, 465.3122
551.8371, 452.4715
552.3192, 441.9578
552.8013, 433.3291
553.2834, 424.1439
553.7656, 414.0886
554.2477, 404.5083
554.7298, 396.0532
555.2119, 388.6396
555.6940, 381.9204
556.1761, 375.9088
556.6583, 370.1635
557.1404, 364.1406
557.6225, 358.0321
558.1046, 352.4248
558.5867, 347.5113
559.0688, 342.8942
559.5510, 338.1919
560.0331, 333.5496
560.5152, 329.1535
560.9973, 325.2064
561.4794, 321.4069
561.9615, 317.4917
562.4437, 313.5397
562.9258, 310.1448
563.4079, 307.6354
563.8900, 305.5353
564.3721, 303.7651
564.8542, 302.6445
565.3364, 300.6123
565.8185, 297.0796
566.3006, 293.4010
566.7827, 291.1170
567.2648, 290.5050
567.7469, 289.7555
568.2291, 288.7099
568.7112, 287.2298
569.1933, 284.6646
569.6754, 281.1504
570.1575, 278.0237
570.6396, 276.0252
571.1218, 274.7265
571.6039, 273.5801
572.0860, 272.5734
572.5681, 271.5250
573.0502, 270.1384
573.5323, 268.7748
574.0145, 267.7994
574.4966, 267.3681
574.9787, 266.8124
575.4608, 265.4399
575.9429, 264.0201
576.4250, 263.3217
576.9072, 264.9848
577.3893, 265.4028
577.8714, 263.5976
578.3535, 260.5742
578.8356, 258.7341
579.3177, 258.5781
579.7999, 258.3740
580.2820, 257.5275
580.7641, 256.1695
581.2462, 255.1334
581.7283, 254.4371
582.2104, 253.9250
582.6926, 253.5656
583.1747, 253.3055
583.6568, 252.9680
584.1389, 252.5306
584.6210, 252.1051
585.1031, 251.7009
585.5853, 251.4048
586.0674, 251.3835
586.5495, 251.9195
587.0316, 252.3358
587.5137, 252.1185
587.9958, 251.5632
588.4779, 251.2421
588.9600, 251.3763
589.4421, 251.6813
589.9243, 252.1807
590.4064, 252.8347
590.8885, 253.2817
591.3706, 253.3572
591.8527, 253.4878
592.3348, 253.9094
592.8170, 254.6589
593.2991, 255.2947
593.7812, 255.7860
594.2633, 256.2946
594.7454, 257.0482
595.2275, 257.9790
595.7097, 258.7331
596.1918, 259.2026
596.6739, 259.6205
597.1560, 260.1626
597.6381, 260.8630
598.1202, 261.7791
598.6024, 263.0475
599.0845, 264.4413
599.5666, 266.0182
600.0487, 267.6603
600.5308, 268.8949
601.0129, 268.9526
601.4951, 269.1461
601.9772, 270.2540
602.4593, 272.4771
602.9414, 273.7880
603.4235, 273.7365
603.9056, 273.3497
604.3878, 273.4653
604.8699, 274.3036
605.3520, 274.0524
605.8341, 272.2937
606.3162, 270.3046
606.7983, 270.1554
607.2805, 271.4533
607.7626, 271.8742
608.2447, 270.5768
608.7268, 268.4723
609.2089, 266.5816
609.6910, 264.8015
610.1732, 262.7937
610.6553, 260.0568
611.1374, 257.3346
611.6195, 255.0582
612.1016, 253.2332
612.5837, 251.7647
613.0659, 251.0661
613.5480, 250.3490
614.0301, 249.1656
614.5122, 247.3602
614.9943, 245.7600
615.4764, 244.3481
615.9586, 243.1841
616.4407, 242.4268
616.9228, 242.1785
617.4049, 241.5347
617.8870, 240.3128
618.3691, 238.8645
618.8513, 237.6521
619.3334, 236.6673
619.8155, 235.8598
620.2976, 235.3224
620.7797, 234.8475
621.2618, 234.1509
621.7440, 233.3183
622.2261, 232.5860
622.7082, 232.0407
623.1903, 231.6675
623.6724, 231.6008
624.1545, 231.8316
624.6367, 231.7444
625.1188, 231.1113
625.6009, 230.2242
626.0830, 229.1446
626.5651, 227.7124
627.0472, 226.7190
627.5294, 226.2095
628.0115, 226.0771
628.4936, 226.4011
628.9757, 227.1919
629.4578, 227.4624
629.9399, 226.9594
630.4221, 226.2240
630.9042, 225.9923
631.3863, 226.1699
631.8684, 226.4816
632.3505, 227.0109
632.8326, 227.4271
633.3148, 227.4290
633.7969, 227.0833
634.2790, 226.5908
634.7611, 225.6535
635.2432, 224.9376
635.7253, 224.8776
636.2075, 225.5063
636.6896, 225.8306
637.1717, 225.6150
637.6538, 225.3496
638.1359, 225.3131
638.6180, 225.5774
639.1002, 225.5343
639.5823, 225.0706
640.0644, 224.6340
640.5465, 224.8029
641.0286, 225.4426
641.5107, 225.7937
641.9929, 225.6921
642.4750, 225.4507
642.9571, 225.5574
643.4392, 225.7557
643.9213, 225.5471
644.4034, 224.1937
644.8856, 223.0509
645.3677, 222.8775
645.8498, 223.4468
646.3319, 224.2200
646.8140, 225.9249
647.2961, 226.8752
647.7783, 226.2484
648.2604, 224.3260
648.7425, 223.4318
649.2246, 223.9717
649.7067, 224.6045
650.1888, 224.6458
650.6710, 224.1428
651.1531, 223.7556
651.6352, 223.5013
652.1173, 223.2375
652.5994, 222.8161
653.0815, 222.3053
653.5637, 221.8006
654.0458, 221.2901
654.5279, 220.9312
655.0100, 220.8837
655.4921, 221.0306
655.9742, 221.2522
656.4564, 221.7058
656.9385, 221.9585
657.4206, 221.8752
657.9027, 221.5413
658.3848, 221.0872
658.8669, 220.3821
659.3491, 219.7890
659.8312, 219.3137
660.3133, 219.0147
660.7954, 219.1353
661.2775, 219.6980
661.7596, 220.2999
662.2418, 220.7314
662.7239, 221.0923
663.2060, 221.8420
663.6881, 222.8626
664.1702, 223.3083
664.6523, 221.9476
665.1345, 220.2315
665.6166, 219.4426
666.0987, 219.7252
666.5808, 220.2835
667.0629, 221.1181
667.5450, 221.9408
668.0272, 222.5618
668.5093, 222.9939
668.9914, 223.1978
669.4735, 223.1377
669.9556, 222.8914
670.4377, 222.2926
670.9199, 221.2565
671.4020, 221.3856
671.8841, 223.1978
672.3662, 225.4185
672.8483, 226.0663
673.3304, 225.5331
673.8126, 224.9845
674.2947, 224.7402
674.7768, 224.7506
675.2589, 225.0967
675.7410, 225.6551
676.2231, 226.1467
676.7053, 226.4688
677.1874, 226.7000
677.6695, 226.7193
678.1516, 226.6059
678.6337, 226.9566
679.1158, 228.2283
679.5980, 229.1767
680.0801, 229.1656
680.5622, 228.2932
681.0443, 228.0086
681.5264, 228.3668
682.0085, 228.8359
682.4907, 228.8931
682.9728, 228.7937
683.4549, 229.3699
683.9370, 230.6986
684.4191, 231.5648
684.9012, 230.2321
685.3834, 228.4091
685.8655, 227.9292
686.3476, 229.6668
686.8297, 231.3282
687.3118, 232.4537
687.7939, 233.1567
688.2761, 233.5259
688.7582, 233.2893
689.2403, 233.3002
689.7224, 233.6433
690.2045, 234.2255
690.6866, 235.0188
691.1688, 236.0110
691.6509, 236.7471
692.1330, 237.0306
692.6151, 237.1221
693.0972, 237.4022
693.5793, 237.8189
694.0615, 238.2142
694.5436, 238.3448
695.0257, 238.5954
695.5078, 239.3155
695.9899, 240.3914
696.4720, 241.3453
696.9542, 241.9808
697.4363, 242.5688
697.9183, 243.2170
698.4005, 243.9155
698.8826, 244.3625
699.3647, 244.4186
699.8468, 244.6201
700.3289, 245.4351
700.8110, 246.7315
701.2932, 247.5774
701.7753, 247.9619
702.2574, 248.0290
702.7395, 247.6779
703.2216, 247.1733
703.7037, 246.8947
704.1859, 246.9141
704.6680, 246.9260
705.1501, 246.7877
705.6322, 246.5727
706.1143, 246.3098
706.5964, 245.6922
707.0786, 245.6611
707.5607, 246.5448
708.0428, 247.7117
708.5249, 248.4953
709.0070, 248.8748
709.4891, 248.9527
709.9713, 248.6245
710.4534, 248.3151
710.9355, 248.9722
711.4176, 250.2235
711.8997, 250.7614
712.3818, 249.7692
712.8640, 248.5968
713.3461, 248.3941
713.8282, 248.8456
714.3103, 249.3826
714.7924, 249.8893
715.2745, 250.3761
715.7567, 251.0163
716.2388, 251.6423
716.7209, 251.6911
717.2030, 250.8853
717.6851, 250.1709
718.1672, 249.7489
718.6494, 249.6741
719.1315, 250.4416
719.6136, 252.0011
720.0957, 253.1550
720.5778, 252.9323
721.0599, 252.0060
721.5421, 251.1228
722.0242, 250.3224
722.5063, 249.8306
722.9884, 250.0145
723.4705, 250.3319
723.9526, 250.4203
724.4348, 250.2088
724.9169, 250.2172
725.3990, 250.7460
725.8811, 251.1418
726.3632, 250.9299
726.8453, 250.0232
727.3275, 249.6761
727.8096, 249.9788
728.2917, 250.4196
728.7738, 250.6218
729.2559, 250.6016
729.7380, 250.2468
730.2202, 249.4869
730.7023, 249.0389
731.1844, 250.1743
731.6665, 251.5125
732.1486, 251.4666
732.6307, 248.7220
733.1129, 246.7725
733.5950, 246.6884
734.0771, 247.3658
734.5592, 247.8831
735.0413, 248.2479
735.5234, 248.4202
736.0056, 248.4138
736.4877, 248.1692
736.9698, 247.3430
737.4519, 246.1183
737.9340, 245.5183
738.4161, 246.0423
738.8983, 246.6784
739.3804, 246.1144
739.8625, 245.0052
740.3446, 244.4463
740.8267, 245.6467
741.3088, 246.5155
741.7910, 246.1713
742.2731, 245.1066
742.7552, 244.4470
743.2373, 244.3191
743.7194, 244.3591
744.2015, 244.5737
744.6837, 244.8448
745.1658, 244.8113
745.6479, 244.4898
746.1300, 244.2056
746.6121, 244.0642
747.0942, 244.0581
747.5764, 244.3057
748.0585, 244.6972
748.5406, 244.9019
749.0227, 244.7529
749.5048, 244.3945
749.9869, 243.5982
750.4691, 242.5187
750.9512, 242.3174
751.4333, 243.8724
751.9154, 244.8842
752.3975, 244.3129
752.8796, 242.5060
753.3618, 241.6819
753.8439, 241.8712
754.3260, 242.4128
754.8081, 243.3208
755.2902, 244.1432
755.7723, 243.9393
756.2545, 242.8188
756.7366, 241.6797
757.2187, 240.9433
757.7008, 240.4063
758.1829, 239.9863
758.6650, 239.6909
759.1472, 239.2844
759.6293, 238.3364
760.1114, 237.8544
760.5935, 238.6357
761.0756, 240.7003
761.5577, 241.4027
762.0399, 240.6035
762.5220, 239.5126
763.0041, 239.1200
763.4862, 239.0819
763.9683, 238.6353
764.4504, 237.7264
764.9326, 236.9334
765.4147, 236.6494
765.8968, 236.6065
766.3789, 236.6743
766.8610, 236.9411
767.3431, 236.8515
767.8253, 236.0159
768.3074, 235.2571
768.7895, 235.2557
769.2716, 236.1474
769.7537, 236.5470
770.2358, 236.3953
770.7180, 235.9755
771.2001, 235.5302
771.6822, 235.0272
772.1643, 234.2956
772.6464, 233.2466
773.1285, 232.5046
773.6107, 232.5687
774.0928, 233.0668
774.5749, 233.7496
775.0570, 234.9960
775.5391, 235.3984
776.0212, 234.4321
776.5034, 233.1348
776.9855, 232.4439
777.4676, 232.4207
777.9497, 232.3448
778.4318, 232.1496
778.9139, 231.9848
779.3961, 232.1795
779.8782, 232.4972
780.3603, 232.4450
780.8424, 231.8814
781.3245, 231.1196
781.8066, 229.9825
782.2888, 228.9290
782.7709, 228.4146
783.2530, 228.9745
783.7351, 229.3652
784.2172, 229.6214
784.6993, 229.6640
785.1815, 229.3863
785.6636, 228.7803
786.1457, 227.9043
786.6278, 226.6438
787.1099, 225.6072
787.5920, 225.6534
788.0742, 226.3894
788.5563, 227.1586
789.0384, 227.9283
789.5205, 228.3635
790.0026, 227.9855
790.4847, 227.3305
790.9669, 227.0080
791.4490, 227.2808
791.9311, 227.5394
792.4132, 227.8880
792.8953, 228.0578
793.3774, 227.5109
793.8596, 226.3082
794.3417, 225.5235
794.8238, 225.3746
795.3059, 225.5476
795.7880, 225.8169
796.2701, 226.1330
796.7523, 226.4273
797.2344, 226.6845
797.7165, 226.8993
798.1986, 227.1644
798.6807, 227.3403
799.1628, 227.2154
799.6450, 226.4200
800.1271, 226.2575
800.6092, 227.0117
801.0913, 228.0639
801.5734, 228.4651
802.0555, 228.3470
802.5377, 228.4370
803.0198, 228.8946
803.5019, 229.5351
803.9840, 230.3749
804.4661, 231.2176
804.9482, 231.7228
805.4304, 231.1703
805.9125, 231.3803
806.3946, 233.2950
806.8767, 235.8519
807.3588, 238.0885
807.8409, 240.0498
808.3230, 241.3636
808.8051, 241.7630
809.2872, 242.1287
809.7693, 243.9193
810.2515, 246.6284
810.7336, 248.9060
811.2157, 250.5948
811.6978, 251.2929
812.1799, 250.4482
812.6620, 248.5661
813.1442, 246.1454
813.6263, 242.3311
814.1084, 239.6555
814.5905, 239.0302
815.0726, 238.7559
815.5547, 236.8297
816.0369, 233.1253
816.5190, 230.0052
817.0011, 227.7014
817.4832, 225.9784
817.9653, 224.7307
818.4474, 223.8311
818.9296, 223.0613
819.4117, 222.3478
819.8938, 221.8428
820.3759, 221.9993
820.8580, 222.1835
821.3401, 221.7121
821.8223, 219.9341
822.3044, 219.0338
822.7865, 219.2914
823.2686, 219.8740
823.7507, 219.8698
824.2328, 219.3955
824.7150, 219.2095
825.1971, 219.4034
825.6792, 219.7278
826.1613, 220.0740
826.6434, 220.3674
827.1255, 220.5464
827.6077, 220.6264
828.0898, 220.4737
828.5719, 219.8766
829.0540, 219.1762
829.5361, 218.5496
830.0182, 217.9585
830.5004, 217.6328
830.9825, 217.5938
831.4646, 217.7140
831.9467, 217.8932
832.4288, 218.1435
832.9109, 218.5858
833.3931, 219.2288
833.8752, 219.6307
834.3573, 219.2995
834.8394, 218.7854
835.3215, 218.4618
835.8036, 218.3943
836.2858, 218.4245
836.7679, 218.5671
837.2500, 218.7926
837.7321, 219.1462
838.2142, 219.6006
838.6964, 219.8444
839.1785, 219.8769
839.6606, 219.7882
840.1427, 219.4848
840.6248, 219.1975
841.1069, 219.1702
841.5891, 219.4083
842.0712, 219.7555
842.5533, 220.6860
843.0354, 221.1414
843.5175, 220.4387
843.9996, 218.7171
844.4818, 218.0504
844.9639, 218.5922
845.4460, 219.2481
845.9281, 219.5127
846.4102, 219.4624
846.8923, 219.0650
847.3745, 218.4429
847.8566, 218.1402
848.3387, 219.0874
848.8208, 219.8190
849.3029, 219.2124
849.7850, 217.5871
850.2672, 216.8375
850.7493, 217.5098
851.2314, 218.0008
851.7135, 217.7502
852.1956, 217.1115
852.6777, 217.1060
853.1599, 217.6682
853.6420, 218.3898
854.1241, 219.3263
854.6062, 220.0602
855.0883, 220.1250
855.5704, 219.7041
856.0526, 219.1679
856.5347, 218.1027
857.0168, 217.6249
857.4989, 218.1858
857.9810, 219.2322
858.4631, 219.7290
858.9453, 219.6620
859.4274, 219.3472
859.9095, 218.7495
860.3916, 218.2278
860.8737, 218.4574
861.3558, 219.0721
861.8380, 219.3426
862.3201, 218.7517
862.8022, 218.3964
863.2843, 219.0311
863.7664, 219.9259
864.2485, 220.2208
864.7307, 219.6546
865.2128, 219.2580
865.6949, 219.0829
866.1770, 219.0622
866.6591, 219.0978
867.1412, 219.2238
867.6234, 219.7007
868.1055, 220.6429
868.5876, 221.1539
869.0697, 220.1386
869.5518, 218.7587
870.0339, 217.9431
870.5161, 217.9250
870.9982, 218.2052
871.4803, 219.0142
871.9624, 219.7106
872.4445, 219.6840
872.9266, 219.0504
873.4088, 219.0556
873.8909, 219.6899
874.3730, 220.3991
874.8551, 220.8437
875.3372, 221.1271
875.8193, 221.3504
876.3015, 221.5145
876.7836, 221.5520
877.2657, 221.2257
877.7478, 221.0444
878.2299, 221.3140
878.7120, 221.8786
879.1942, 221.6509
879.6763, 220.6090
880.1584, 219.7028
880.6405, 219.3903
881.1226, 219.4736
881.6047, 219.7824
882.0869, 220.2762
882.5690, 220.8450
883.0511, 221.9711
883.5332, 222.5504
884.0153, 221.7950
884.4974, 220.4265
884.9796, 219.8844
885.4617, 220.3024
885.9438, 220.7549
886.4259, 221.0644
886.9080, 221.3117
887.3901, 221.6974
887.8723, 222.1025
888.3544, 222.2133
888.8365, 221.7170
889.3186, 221.4396
889.8007, 222.1748
890.2828, 223.0668
890.7650, 223.1036
891.2471, 221.5277
891.7292, 221.3174
892.2113, 222.8876
892.6934, 224.7341
893.1755, 225.3288
893.6577, 224.9954
894.1398, 224.5004
894.6219, 223.9180
895.1040, 223.4377
895.5861, 223.3155
896.0682, 223.2404
896.5504, 222.8492
897.0325, 222.0349
897.5146, 221.9899
897.9967, 223.1133
898.4788, 224.1183
898.9609, 224.3005
899.4431, 223.8384
899.9252, 223.2305
900.4073, 222.5638
900.8894, 222.3969
901.3715, 223.5465
901.8536, 224.8754
902.3358, 225.6405
902.8179, 225.9179
903.3000, 225.9969
903.7821, 225.5067
904.2642, 225.6127
904.7463, 226.7725
905.2285, 228.4245
905.7106, 229.4618
906.1927, 229.9116
906.6748, 229.9106
907.1569, 229.2807
907.6390, 228.7397
908.1212, 228.8849
908.6033, 229.5078
909.0854, 230.3568
909.5675, 232.0215
910.0496, 232.7702
910.5317, 231.9867
911.0139, 231.0534
911.4960, 231.6026
911.9781, 233.4633
912.4602, 234.4602
912.9423, 234.4037
913.4244, 234.1286
913.9066, 234.1765
914.3887, 234.4550
914.8708, 234.9161
915.3529, 235.5661
915.8350, 236.1873
916.3171, 236.7221
916.7993, 237.2607
917.2813, 237.8841
917.7634, 238.5490
918.2455, 238.8264
918.7277, 238.7478
919.2098, 238.9787
919.6919, 239.8280
920.1740, 241.2106
920.6561, 243.8635
921.1382, 246.9993
921.6204, 248.5037
922.1025, 246.0783
922.5846, 244.1308
923.0667, 243.3245
923.5488, 243.3293
924.0309, 243.5761
924.5131, 244.0732
924.9952, 244.9886
925.4773, 246.4724
925.9594, 247.9646
926.4415, 248.8021
926.9236, 249.3725
927.4058, 250.2224
927.8879, 251.7204
928.3700, 252.7607
928.8521, 252.9087
929.3342, 252.9521
929.8163, 253.4157
930.2985, 254.2912
930.7806, 255.4254
931.2627, 256.8254
931.7448, 258.0879
932.2269, 258.7329
932.7090, 259.2403
933.1912, 260.1589
933.6733, 261.4433
934.1554, 262.6000
934.6375, 263.5459
935.1196, 264.2971
935.6017, 264.7485
936.0839, 265.0645
936.5660, 265.7937
937.0481, 266.9200
937.5302, 268.2404
938.0123, 269.9615
938.4944, 271.3719
938.9766, 271.3014
939.4587, 270.6367
939.9408, 270.7227
940.4229, 272.6882
940.9050, 274.3036
941.3871, 275.5157
941.8693, 276.2878
942.3514, 276.3382
942.8335, 275.7809
943.3156, 275.6852
943.7977, 276.1425
944.2798, 276.8874
944.7620, 278.0365
945.2441, 279.1283
945.7262, 279.5665
946.2083, 279.2677
946.6904, 279.5618
947.1725, 280.9065
947.6547, 282.1597
948.1368, 282.7891
948.6189, 283.0049
949.1010, 283.5474
949.5831, 284.3895
950.0652, 285.3871
950.5474, 286.8578
951.0295, 288.0134
951.5116, 288.0093
951.9937, 287.3726
952.4758, 287.1177
952.9579, 287.5734
953.4401, 287.8975
953.9222, 287.9536
954.4043, 288.0013
954.8864, 288.2448
955.3685, 288.7544
955.8506, 289.8998
956.3328, 291.7766
956.8149, 293.5992
957.2970, 294.6974
957.7791, 295.6560
958.2612, 296.9895
958.7433, 298.7616
959.2255, 300.1234
959.7076, 300.9388
960.1897, 301.7564
960.6718, 302.7435
961.1539, 303.9934
961.6360, 306.0787
962.1182, 308.7061
962.6003, 310.8477
963.0824, 311.9057
963.5645, 312.4566
964.0466, 312.1103
964.5287, 311.6455
965.0109, 312.4870
965.4930, 315.0605
965.9751, 317.0837
966.4572, 318.2942
966.9393, 318.9205
967.4214, 318.8272
967.9036, 318.4792
968.3857, 318.7999
968.8678, 320.0546
969.3499, 320.9086
969.8320, 320.1927
970.3141, 319.6195
970.7963, 320.2569
971.2784, 321.9886
971.7605, 322.7602
972.2426, 322.5309
972.7247, 322.4136
973.2068, 323.2030
973.6890, 324.2513
974.1711, 324.5636
974.6532, 324.5095
975.1353, 324.9818
975.6174, 326.5738
976.0995, 328.3114
976.5817, 330.2339
977.0638, 332.0323
977.5459, 333.0807
978.0280, 333.4893
978.5101, 334.4395
978.9922, 336.1230
979.4744, 337.9174
979.9565, 339.3062
980.4386, 340.5285
980.9207, 341.7204
981.4028, 342.8587
981.8849, 344.4157
982.3671, 346.5214
982.8492, 348.7511
983.3313, 351.0520
983.8134, 353.2570
984.2955, 354.7195
984.7776, 355.5893
985.2598, 356.4728
985.7419, 357.7239
986.2240, 358.9928
986.7061, 360.2157
987.1882, 361.3034
987.6703, 362.1485
988.1525, 362.7651
988.6346, 363.1221
989.1167, 363.2479
989.5988, 362.9979
990.0809, 361.9662
990.5630, 360.5523
991.0452, 359.3623
991.5273, 358.4633
992.0094, 357.8545
992.4915, 358.4892
992.9736, 358.3702
993.4557, 356.5886
993.9379, 353.3447
994.4200, 349.7770
994.9021, 345.8725
995.3842, 341.6817
995.8663, 336.8992
996.3484, 332.3318
996.8306, 329.1003
997.3127, 326.6828
997.7948, 324.2007
998.2769, 321.3224
998.7590, 318.6142
999.2411, 316.1727
999.7233, 313.7630
1000.205, 311.0371
1000.688, 308.1052
1001.170, 305.8378
1001.652, 304.2278
1002.134, 302.7465
1002.616, 301.3604
1003.098, 299.7103
1003.580, 297.3951
1004.062, 294.5197
1004.544, 292.0560
1005.027, 290.0422
1005.509, 288.1436
1005.991, 286.1917
1006.473, 284.4347
1006.955, 283.5395
1007.437, 283.0486
1007.919, 281.9456
1008.401, 279.6104
1008.883, 277.6531
1009.366, 276.7071
1009.848, 276.2615
1010.330, 276.1678
1010.812, 276.4521
1011.294, 276.0534
1011.776, 274.9636
1012.258, 273.7812
1012.740, 272.7167
1013.223, 271.8808
1013.705, 271.5940
1014.187, 271.6497
1014.669, 271.3542
1015.151, 270.3629
1015.633, 269.4144
1016.115, 268.5346
1016.597, 267.8769
1017.079, 267.8982
1017.562, 268.3333
1018.044, 268.4341
1018.526, 268.1042
1019.008, 267.1331
1019.490, 264.4435
1019.972, 261.9128
1020.454, 261.0396
1020.936, 261.7172
1021.419, 261.7015
1021.901, 260.9799
1022.383, 259.6296
1022.865, 257.1341
1023.347, 254.7046
1023.829, 254.5307
1024.311, 255.5275
1024.793, 255.6100
1025.275, 253.0662
1025.758, 251.1447
1026.240, 250.3545
1026.722, 249.9128
1027.204, 248.9768
1027.686, 247.6622
1028.168, 246.7085
1028.650, 246.1649
1029.132, 246.0730
1029.615, 246.9169
1030.097, 247.8046
1030.579, 248.1217
1031.061, 247.9237
1031.543, 247.7502
1032.025, 247.7451
1032.507, 247.0343
1032.989, 245.1791
1033.471, 243.1070
1033.953, 242.0123
1034.436, 241.7096
1034.918, 241.9827
1035.400, 243.0421
1035.882, 243.6963
1036.364, 243.4443
1036.846, 242.9764
1037.328, 242.6062
1037.810, 242.3323
1038.293, 242.2102
1038.775, 242.2086
1039.257, 242.0296
1039.739, 241.0612
1040.221, 240.3146
1040.703, 240.7709
1041.185, 241.8357
1041.667, 242.3172
1042.150, 241.9346
1042.632, 241.6633
1043.114, 241.5505
1043.596, 241.6407
1044.078, 242.1846
1044.560, 242.8710
1045.042, 243.0602
1045.524, 242.7412
1046.006, 242.6863
1046.489, 243.3489
1046.971, 244.1096
1047.453, 244.7265
1047.935, 245.3296
1048.417, 246.4260
1048.899, 247.9306
1049.381, 249.1156
1049.863, 249.7322
1050.345, 250.1889
1050.828, 250.8629
1051.310, 251.4842
1051.792, 251.6742
1052.274, 251.2899
1052.756, 251.4530
1053.238, 252.2901
1053.720, 253.0817
1054.202, 253.1784
1054.685, 253.1149
1055.167, 253.8766
1055.649, 255.2275
1056.131, 256.5485
1056.613, 257.5273
1057.095, 258.5889
1057.577, 259.9240
1058.059, 261.1922
1058.542, 261.8370
1059.024, 262.0050
1059.506, 262.7759
1059.988, 264.2099
1060.470, 265.5434
1060.952, 266.1552
1061.434, 266.6022
1061.916, 267.1186
1062.398, 267.7643
1062.880, 268.7780
1063.363, 270.2401
1063.845, 271.5658
1064.327, 272.5859
1064.809, 273.4626
1065.291, 274.4758
1065.773, 275.4429
1066.255, 276.1201
1066.737, 276.4359
1067.220, 276.4851
1067.702, 276.0919
1068.184, 275.8133
1068.666, 275.9843
1069.148, 276.4630
1069.630, 276.9670
1070.112, 277.3932
1070.594, 277.3515
1071.077, 275.9140
1071.559, 275.0134
1072.041, 276.3373
1072.523, 277.9349
1073.005, 277.6456
1073.487, 275.2719
1073.969, 273.4969
1074.451, 272.4153
1074.933, 271.8852
1075.416, 272.0270
1075.898, 272.4807
1076.380, 273.1461
1076.862, 273.8815
1077.344, 274.1483
1077.826, 273.9376
1078.308, 273.1789
1078.790, 271.7148
1079.272, 270.1418
1079.755, 269.4105
1080.237, 269.1114
1080.719, 268.5243
1081.201, 267.5377
1081.683, 266.4227
1082.165, 264.8405
1082.647, 263.6495
1083.129, 263.2497
1083.611, 263.3953
1084.094, 263.3006
1084.576, 263.0051
1085.058, 262.7579
1085.540, 262.7651
1086.022, 262.5262
1086.504, 261.3740
1086.986, 260.0937
1087.468, 259.5205
1087.951, 259.8061
1088.433, 259.3303
1088.915, 258.0509
1089.397, 256.6450
1089.879, 255.3191
1090.361, 254.2749
1090.843, 253.9660
1091.325, 254.0676
1091.807, 253.8621
1092.290, 252.9782
1092.772, 252.3215
1093.254, 252.0018
1093.736, 251.7473
1094.218, 251.3588
1094.700, 250.8102
1095.182, 249.7901
1095.664, 248.4168
1096.146, 247.6842
1096.629, 248.7938
1097.111, 249.6040
1097.593, 249.5025
1098.075, 248.8292
1098.557, 248.0810
1099.039, 247.3061
1099.521, 246.7585
1100.003, 246.4740
1100.486, 246.5067
1100.968, 247.2738
1101.450, 248.0263
1101.932, 248.1729
1102.414, 247.8158
1102.896, 247.7649
1103.378, 248.0546
1103.860, 247.7813
1104.343, 246.3851
1104.825, 244.8777
1105.307, 244.3461
1105.789, 244.2914
1106.271, 244.0822
1106.753, 243.5305
1107.235, 243.2272
1107.717, 243.2246
1108.199, 243.2924
1108.682, 243.3404
1109.164, 243.3342
1109.646, 243.1675
1110.128, 242.8976
1110.610, 242.6621
1111.092, 242.3931
1111.574, 242.3664
1112.056, 242.7704
1112.538, 243.1272
1113.021, 242.9814
1113.503, 242.4173
1113.985, 241.5271
1114.467, 240.4199
1114.949, 239.8011
1115.431, 240.8315
1115.913, 241.4780
1116.395, 240.7764
1116.878, 239.4252
1117.360, 238.3081
1117.842, 237.4611
1118.324, 237.6128
1118.806, 238.9083
1119.288, 240.1208
1119.770, 240.1447
1120.252, 239.8866
1120.734, 240.1799
1121.217, 240.8051
1121.699, 240.3611
1122.181, 238.6470
1122.663, 237.7674
1123.145, 238.5051
1123.627, 239.4442
1124.109, 238.6507
1124.591, 237.4026
1125.073, 237.2754
1125.556, 238.7272
1126.038, 239.5184
1126.520, 239.4578
1127.002, 239.2845
1127.484, 239.3702
1127.966, 239.4411
1128.448, 238.8497
1128.930, 237.9408
1129.413, 237.3637
1129.895, 237.4465
1130.377, 237.5553
1130.859, 237.7757
1131.341, 237.7200
1131.823, 236.8592
1132.305, 235.6009
1132.787, 235.5170
1133.270, 236.2755
1133.752, 236.6987
1134.234, 235.9526
1134.716, 235.2318
1135.198, 234.7914
1135.680, 234.5296
1136.162, 234.3433
1136.644, 234.2505
1137.126, 234.5250
1137.609, 235.1220
1138.091, 235.4759
1138.573, 235.1572
1139.055, 234.6243
1139.537, 234.0338
1140.019, 233.4092
1140.501, 232.6051
1140.983, 231.6030
1141.465, 231.6947
1141.948, 233.0440
1142.430, 234.4084
1142.912, 234.8432
1143.394, 234.8544
1143.876, 234.7102
1144.358, 234.4496
1144.840, 234.1446
1145.322, 233.7720
1145.805, 233.5390
1146.287, 233.4944
1146.769, 233.5684
1147.251, 233.7143
1147.733, 233.9270
1148.215, 234.2437
1148.697, 234.6652
1149.179, 234.9552
1149.661, 235.1214
1150.144, 235.0842
1150.626, 234.7431
1151.108, 234.3594
1151.590, 234.3271
1152.072, 234.4942
1152.554, 234.6468
1153.036, 234.7392
1153.518, 234.8186
1154.000, 234.7840
1154.483, 235.0253
1154.965, 235.9660
1155.447, 237.0125
1155.929, 236.6206
1156.411, 235.4289
1156.893, 234.7745
1157.375, 235.2108
1157.857, 235.8687
1158.340, 237.0596
1158.822, 237.6631
1159.304, 236.5111
1159.786, 234.3930
1160.268, 233.9143
1160.750, 234.6419
1161.232, 235.1796
1161.714, 234.6494
1162.197, 234.3164
1162.679, 234.5770
1163.161, 234.9376
1163.643, 234.9827
1164.125, 234.7589
1164.607, 234.3863
1165.089, 233.9425
1165.571, 233.8452
1166.053, 234.8303
1166.536, 235.5539
1167.018, 235.4433
1167.500, 234.9276
1167.982, 234.2932
1168.464, 233.6021
1168.946, 233.6293
1169.428, 234.3671
1169.910, 235.0602
1170.392, 235.2863
1170.875, 235.2881
1171.357, 235.1082
1171.839, 234.8184
1172.321, 234.4402
1172.803, 233.9883
1173.285, 233.8853
1173.767, 234.1862
1174.249, 234.5323
1174.732, 234.8029
1175.214, 234.9010
1175.696, 234.5391
1176.178, 233.9994
1176.660, 234.0867
1177.142, 234.8155
1177.624, 235.4373
1178.106, 235.8361
1178.589, 235.9170
1179.071, 234.9589
1179.553, 234.1873
1180.035, 235.1062
1180.517, 237.1842
1180.999, 237.4683
1181.481, 235.7934
1181.963, 234.5359
1182.445, 234.2648
1182.927, 234.5094
1183.410, 235.2521
1183.892, 235.9727
1184.374, 236.0407
1184.856, 235.4839
1185.338, 235.3454
1185.820, 235.6879
1186.302, 235.8110
1186.784, 235.4167
1187.267, 234.9223
1187.749, 234.6008
1188.231, 234.5149
1188.713, 234.8867
1189.195, 235.7833
1189.677, 235.9988
1190.159, 235.4267
1190.641, 234.9855
1191.124, 235.1279
1191.606, 235.4094
1192.088, 235.3548
1192.570, 235.1008
1193.052, 234.7611
1193.534, 234.2611
1194.016, 234.2681
1194.498, 234.8814
1194.980, 235.4017
1195.463, 235.3853
1195.945, 235.2186
1196.427, 235.5054
1196.909, 235.9072
1197.391, 235.8465
1197.873, 235.0294
1198.355, 234.6098
1198.837, 234.6692
1199.319, 234.6700
1199.802, 234.0185
1200.284, 233.3996
1200.766, 233.9319
1201.248, 235.0090
1201.730, 235.5106
1202.212, 234.9628
1202.694, 234.6868
1203.176, 234.7489
1203.658, 234.7166
1204.141, 233.9115
1204.623, 233.1343
1205.105, 233.7492
1205.587, 235.0869
1206.069, 235.5998
1206.551, 234.6717
1207.033, 234.0197
1207.515, 233.6746
1207.998, 233.6385
1208.480, 234.2669
1208.962, 234.9373
1209.444, 234.7708
1209.926, 234.0266
1210.408, 233.4315
1210.890, 233.1434
1211.372, 232.7396
1211.854, 232.1482
1212.337, 231.6681
1212.819, 231.6726
1213.301, 231.8324
1213.783, 231.7714
1214.265, 231.5360
1214.747, 231.2822
1215.229, 230.8531
1215.711, 231.0630
1216.193, 232.1069
1216.676, 233.0519
1217.158, 232.9035
1217.640, 232.2907
1218.122, 231.6442
1218.604, 231.1381
1219.086, 231.3450
1219.568, 232.5956
1220.050, 233.3015
1220.533, 233.2284
1221.015, 232.9461
1221.497, 233.0954
1221.979, 233.2298
1222.461, 232.7119
1222.943, 231.7448
1223.425, 231.3321
1223.907, 231.6528
1224.390, 231.7747
1224.872, 231.5188
1225.354, 231.4303
1225.836, 232.2029
1226.318, 233.2450
1226.800, 234.1761
1227.282, 234.8732
1227.764, 234.9724
1228.246, 234.3193
1228.729, 234.1214
1229.211, 234.6502
1229.693, 234.9731
1230.175, 233.8033
1230.657, 232.4004
1231.139, 231.8472
1231.621, 232.0732
1232.103, 232.4388
1232.585, 232.9681
1233.068, 233.4454
1233.550, 233.8611
1234.032, 234.0385
1234.514, 233.5930
1234.996, 233.0444
1235.478, 232.7069
1235.960, 232.6345
1236.442, 233.1422
1236.925, 234.2615
1237.407, 234.7166
1237.889, 234.2258
1238.371, 233.6612
1238.853, 233.8259
1239.335, 234.0830
1239.817, 233.9782
1240.299, 233.6025
1240.781, 233.1124
1241.264, 232.5321
1241.746, 232.2553
1242.228, 232.3681
1242.710, 232.6542
1243.192, 233.2822
1243.674, 233.6979
1244.156, 233.5659
1244.638, 233.0225
1245.120, 232.1596
1245.603, 231.1181
1246.085, 230.9570
1246.567, 231.9565
1247.049, 232.9768
1247.531, 233.5914
1248.013, 233.7757
1248.495, 233.4087
1248.977, 232.7608
1249.460, 232.4873
1249.942, 232.5247
1250.424, 232.7303
1250.906, 233.1064
1251.388, 233.1466
1251.870, 231.9348
1252.352, 231.2448
1252.834, 231.9429
1253.317, 233.2026
1253.799, 233.0415
1254.281, 232.0310
1254.763, 231.7266
1255.245, 232.4194
1255.727, 233.1228
1256.209, 233.7912
1256.691, 233.9747
1257.173, 233.4136
1257.656, 232.5121
1258.138, 231.8730
1258.620, 231.4780
1259.102, 231.2862
1259.584, 231.2888
1260.066, 231.6700
1260.548, 232.8089
1261.030, 233.4019
1261.512, 232.9479
1261.995, 232.1612
1262.477, 231.9593
1262.959, 232.1429
1263.441, 232.5668
1263.923, 233.2041
1264.405, 233.3975
1264.887, 232.9815
1265.369, 232.6699
1265.852, 232.6729
1266.334, 232.7244
1266.816, 232.4951
1267.298, 232.1509
1267.780, 231.7525
1268.262, 231.3602
1268.744, 231.5750
1269.226, 232.5039
1269.708, 232.9468
1270.191, 232.5231
1270.673, 232.0900
1271.155, 232.6721
1271.637, 233.3949
1272.119, 233.5282
1272.601, 233.1554
1273.083, 232.4816
1273.565, 231.5356
1274.047, 230.8479
1274.530, 230.5078
1275.012, 230.6342
1275.494, 231.8092
1275.976, 232.9478
1276.458, 233.4892
1276.940, 233.5553
1277.422, 233.2484
1277.904, 232.7103
1278.387, 232.8415
1278.869, 233.8499
1279.351, 234.3999
1279.833, 233.1007
1280.315, 232.1557
1280.797, 232.5227
1281.279, 233.3707
1281.761, 232.9236
1282.244, 231.7717
1282.726, 231.6139
1283.208, 232.6648
1283.690, 233.0559
1284.172, 231.4616
1284.654, 230.6400
1285.136, 231.4042
1285.618, 232.6830
1286.100, 232.9584
1286.583, 232.7721
1287.065, 232.7319
1287.547, 232.9714
1288.029, 234.4076
1288.511, 237.9109
1288.993, 239.6437
1289.475, 238.6739
1289.957, 236.7772
1290.439, 235.5163
1290.922, 234.6062
1291.404, 233.7503
1291.886, 233.0015
1292.368, 232.6957
##END=



