##NAMES=Tiemannite
##RRUFFID=R050550
##IDEAL CHEMISTRY=Hg^2+^Se^2-^
##LOCALITY=Queretaro, Mexico
##OWNER=RRUFF
##SOURCE=Dave Bunk Minerals
##DESCRIPTION=Grey semi-metallic fragments
##STATUS=The identification of this mineral has been confirmed by X-ray diffraction and chemical analysis
##URL=rruff.info/R050550
##MEASURED CHEMISTRY=Hg_1.00_(Se_0.81_S_0.19_)
8.975323e+001, 0.000000e+000
9.023535e+001, 3.464772e+001
9.071747e+001, 3.544410e+001
9.119958e+001, 3.559607e+001
9.168170e+001, 3.516779e+001
9.216382e+001, 3.434374e+001
9.264594e+001, 3.340455e+001
9.312805e+001, 3.255353e+001
9.361017e+001, 3.180432e+001
9.409229e+001, 3.097796e+001
9.457440e+001, 2.992671e+001
9.505651e+001, 2.905061e+001
9.553863e+001, 2.844263e+001
9.602074e+001, 2.795912e+001
9.650286e+001, 2.747516e+001
9.698498e+001, 2.691919e+001
9.746709e+001, 2.626694e+001
9.794921e+001, 2.566549e+001
9.843133e+001, 2.521141e+001
9.891344e+001, 2.469089e+001
9.939556e+001, 2.396270e+001
9.987768e+001, 2.310074e+001
1.003598e+002, 2.232674e+001
1.008419e+002, 2.177492e+001
1.013240e+002, 2.142193e+001
1.018061e+002, 2.108406e+001
1.022883e+002, 2.075979e+001
1.027704e+002, 2.044600e+001
1.032525e+002, 2.018522e+001
1.037346e+002, 2.000853e+001
1.042167e+002, 1.971607e+001
1.046988e+002, 1.899464e+001
1.051810e+002, 1.807970e+001
1.056631e+002, 1.733904e+001
1.061452e+002, 1.702780e+001
1.066273e+002, 1.702985e+001
1.071094e+002, 1.685228e+001
1.075915e+002, 1.633015e+001
1.080737e+002, 1.581910e+001
1.085558e+002, 1.542320e+001
1.090379e+002, 1.514926e+001
1.095200e+002, 1.500300e+001
1.100021e+002, 1.503253e+001
1.104842e+002, 1.530152e+001
1.109664e+002, 1.540760e+001
1.114485e+002, 1.526521e+001
1.119306e+002, 1.504751e+001
1.124127e+002, 1.475896e+001
1.128948e+002, 1.443856e+001
1.133769e+002, 1.419446e+001
1.138591e+002, 1.420049e+001
1.143412e+002, 1.473372e+001
1.148233e+002, 1.501767e+001
1.153054e+002, 1.484414e+001
1.157875e+002, 1.452923e+001
1.162696e+002, 1.441108e+001
1.167517e+002, 1.461916e+001
1.172339e+002, 1.498215e+001
1.177160e+002, 1.506636e+001
1.181981e+002, 1.472132e+001
1.186802e+002, 1.447272e+001
1.191623e+002, 1.455508e+001
1.196444e+002, 1.486406e+001
1.201266e+002, 1.510522e+001
1.206087e+002, 1.511441e+001
1.210908e+002, 1.499981e+001
1.215729e+002, 1.499653e+001
1.220550e+002, 1.513890e+001
1.225371e+002, 1.533264e+001
1.230193e+002, 1.548221e+001
1.235014e+002, 1.557623e+001
1.239835e+002, 1.572511e+001
1.244656e+002, 1.607588e+001
1.249477e+002, 1.647551e+001
1.254298e+002, 1.678553e+001
1.259120e+002, 1.694581e+001
1.263941e+002, 1.700206e+001
1.268762e+002, 1.705438e+001
1.273583e+002, 1.712120e+001
1.278404e+002, 1.714859e+001
1.283225e+002, 1.707715e+001
1.288047e+002, 1.697214e+001
1.292868e+002, 1.694092e+001
1.297689e+002, 1.708033e+001
1.302510e+002, 1.736390e+001
1.307331e+002, 1.739663e+001
1.312152e+002, 1.685625e+001
1.316974e+002, 1.635991e+001
1.321795e+002, 1.610113e+001
1.326616e+002, 1.602134e+001
1.331437e+002, 1.594016e+001
1.336258e+002, 1.568755e+001
1.341079e+002, 1.521377e+001
1.345901e+002, 1.490426e+001
1.350722e+002, 1.489335e+001
1.355543e+002, 1.490529e+001
1.360364e+002, 1.479770e+001
1.365185e+002, 1.455244e+001
1.370006e+002, 1.421627e+001
1.374828e+002, 1.383319e+001
1.379649e+002, 1.339024e+001
1.384470e+002, 1.294818e+001
1.389291e+002, 1.246518e+001
1.394112e+002, 1.200069e+001
1.398933e+002, 1.161770e+001
1.403755e+002, 1.132947e+001
1.408576e+002, 1.113323e+001
1.413397e+002, 1.107554e+001
1.418218e+002, 1.114386e+001
1.423039e+002, 1.118096e+001
1.427860e+002, 1.108761e+001
1.432681e+002, 1.090300e+001
1.437503e+002, 1.078060e+001
1.442324e+002, 1.081828e+001
1.447145e+002, 1.085050e+001
1.451966e+002, 1.071458e+001
1.456787e+002, 1.041041e+001
1.461608e+002, 1.008760e+001
1.466430e+002, 9.880540e+000
1.471251e+002, 9.801538e+000
1.476072e+002, 9.715716e+000
1.480893e+002, 9.532746e+000
1.485714e+002, 9.377579e+000
1.490535e+002, 9.356039e+000
1.495357e+002, 9.482405e+000
1.500178e+002, 9.638706e+000
1.504999e+002, 9.640952e+000
1.509820e+002, 9.410142e+000
1.514641e+002, 9.188758e+000
1.519462e+002, 9.003610e+000
1.524284e+002, 8.833449e+000
1.529105e+002, 8.655438e+000
1.533926e+002, 8.462826e+000
1.538747e+002, 8.270540e+000
1.543568e+002, 8.116209e+000
1.548389e+002, 8.004147e+000
1.553211e+002, 7.934670e+000
1.558032e+002, 7.921489e+000
1.562853e+002, 7.945688e+000
1.567674e+002, 7.994117e+000
1.572495e+002, 8.062588e+000
1.577316e+002, 8.139264e+000
1.582138e+002, 8.170766e+000
1.586959e+002, 8.110806e+000
1.591780e+002, 8.064441e+000
1.596601e+002, 8.106626e+000
1.601422e+002, 8.185831e+000
1.606243e+002, 8.172334e+000
1.611065e+002, 7.971727e+000
1.615886e+002, 7.630255e+000
1.620707e+002, 7.374565e+000
1.625528e+002, 7.174586e+000
1.630349e+002, 7.075974e+000
1.635170e+002, 7.171621e+000
1.639991e+002, 7.440108e+000
1.644813e+002, 7.668397e+000
1.649634e+002, 7.719951e+000
1.654455e+002, 7.632842e+000
1.659276e+002, 7.510302e+000
1.664097e+002, 7.322828e+000
1.668918e+002, 7.134824e+000
1.673740e+002, 6.993806e+000
1.678561e+002, 6.884004e+000
1.683382e+002, 6.898000e+000
1.688203e+002, 7.272447e+000
1.693024e+002, 7.762673e+000
1.697845e+002, 8.051380e+000
1.702667e+002, 7.947215e+000
1.707488e+002, 7.610459e+000
1.712309e+002, 7.414138e+000
1.717130e+002, 7.431381e+000
1.721951e+002, 7.461846e+000
1.726772e+002, 7.416727e+000
1.731594e+002, 7.333668e+000
1.736415e+002, 7.271140e+000
1.741236e+002, 7.277379e+000
1.746057e+002, 7.330849e+000
1.750878e+002, 7.293676e+000
1.755699e+002, 7.034124e+000
1.760521e+002, 6.830194e+000
1.765342e+002, 6.755383e+000
1.770163e+002, 6.787168e+000
1.774984e+002, 6.889049e+000
1.779805e+002, 7.048254e+000
1.784626e+002, 7.266118e+000
1.789448e+002, 7.391867e+000
1.794269e+002, 7.344672e+000
1.799090e+002, 7.286012e+000
1.803911e+002, 7.255371e+000
1.808732e+002, 7.252653e+000
1.813553e+002, 7.266539e+000
1.818375e+002, 7.292580e+000
1.823196e+002, 7.337260e+000
1.828017e+002, 7.321068e+000
1.832838e+002, 7.210636e+000
1.837659e+002, 7.084094e+000
1.842480e+002, 6.961007e+000
1.847301e+002, 6.851400e+000
1.852123e+002, 6.778161e+000
1.856944e+002, 6.770629e+000
1.861765e+002, 6.841379e+000
1.866586e+002, 6.874818e+000
1.871407e+002, 6.851435e+000
1.876228e+002, 6.806439e+000
1.881050e+002, 6.751059e+000
1.885871e+002, 6.689156e+000
1.890692e+002, 6.650213e+000
1.895513e+002, 6.674320e+000
1.900334e+002, 6.759954e+000
1.905155e+002, 6.830061e+000
1.909977e+002, 6.890833e+000
1.914798e+002, 6.925436e+000
1.919619e+002, 6.886747e+000
1.924440e+002, 6.750790e+000
1.929261e+002, 6.640610e+000
1.934082e+002, 6.747656e+000
1.938904e+002, 6.998723e+000
1.943725e+002, 7.158580e+000
1.948546e+002, 7.056526e+000
1.953367e+002, 6.831185e+000
1.958188e+002, 6.786579e+000
1.963009e+002, 7.032126e+000
1.967831e+002, 7.269244e+000
1.972652e+002, 7.264102e+000
1.977473e+002, 7.079482e+000
1.982294e+002, 6.860344e+000
1.987115e+002, 6.610337e+000
1.991936e+002, 6.367929e+000
1.996758e+002, 6.333842e+000
2.001579e+002, 6.710639e+000
2.006400e+002, 7.017098e+000
2.011221e+002, 6.928930e+000
2.016042e+002, 6.568327e+000
2.020863e+002, 6.240775e+000
2.025685e+002, 6.169183e+000
2.030506e+002, 6.338676e+000
2.035327e+002, 6.508323e+000
2.040148e+002, 6.757436e+000
2.044969e+002, 6.913415e+000
2.049790e+002, 6.806114e+000
2.054612e+002, 6.541442e+000
2.059433e+002, 6.375326e+000
2.064254e+002, 6.571932e+000
2.069075e+002, 7.162517e+000
2.073896e+002, 7.503730e+000
2.078717e+002, 7.382558e+000
2.083539e+002, 7.189946e+000
2.088360e+002, 7.009360e+000
2.093181e+002, 6.855547e+000
2.098002e+002, 6.717596e+000
2.102823e+002, 6.580726e+000
2.107644e+002, 6.438207e+000
2.112466e+002, 6.367006e+000
2.117287e+002, 6.440858e+000
2.122108e+002, 6.510326e+000
2.126929e+002, 6.482675e+000
2.131750e+002, 6.387136e+000
2.136571e+002, 6.337947e+000
2.141393e+002, 6.457871e+000
2.146214e+002, 6.796437e+000
2.151035e+002, 6.941792e+000
2.155856e+002, 6.811544e+000
2.160677e+002, 6.610349e+000
2.165498e+002, 6.410835e+000
2.170320e+002, 6.228601e+000
2.175141e+002, 6.057901e+000
2.179962e+002, 5.883379e+000
2.184783e+002, 5.697135e+000
2.189604e+002, 5.648197e+000
2.194425e+002, 5.848310e+000
2.199247e+002, 6.077102e+000
2.204068e+002, 6.205680e+000
2.208889e+002, 6.229478e+000
2.213710e+002, 6.211622e+000
2.218531e+002, 6.200395e+000
2.223352e+002, 6.196445e+000
2.228174e+002, 6.191833e+000
2.232995e+002, 6.271274e+000
2.237816e+002, 6.289916e+000
2.242637e+002, 6.053121e+000
2.247458e+002, 5.570566e+000
2.252279e+002, 5.172525e+000
2.257100e+002, 5.201210e+000
2.261922e+002, 5.591554e+000
2.266743e+002, 5.765500e+000
2.271564e+002, 5.471555e+000
2.276385e+002, 5.081808e+000
2.281206e+002, 4.959216e+000
2.286027e+002, 5.127032e+000
2.290849e+002, 5.339778e+000
2.295670e+002, 5.411455e+000
2.300491e+002, 5.391146e+000
2.305312e+002, 5.417703e+000
2.310133e+002, 5.589447e+000
2.314954e+002, 5.775633e+000
2.319776e+002, 5.796922e+000
2.324597e+002, 5.627180e+000
2.329418e+002, 5.476662e+000
2.334239e+002, 5.527623e+000
2.339060e+002, 5.676492e+000
2.343881e+002, 5.766989e+000
2.348703e+002, 5.740762e+000
2.353524e+002, 5.655729e+000
2.358345e+002, 5.589662e+000
2.363166e+002, 5.548394e+000
2.367987e+002, 5.500093e+000
2.372808e+002, 5.379401e+000
2.377630e+002, 5.257250e+000
2.382451e+002, 5.229632e+000
2.387272e+002, 5.361728e+000
2.392093e+002, 5.549060e+000
2.396914e+002, 5.604733e+000
2.401735e+002, 5.474754e+000
2.406557e+002, 5.387897e+000
2.411378e+002, 5.516501e+000
2.416199e+002, 5.694792e+000
2.421020e+002, 5.763518e+000
2.425841e+002, 5.662161e+000
2.430662e+002, 5.449778e+000
2.435484e+002, 5.193200e+000
2.440305e+002, 4.830255e+000
2.445126e+002, 4.601187e+000
2.449947e+002, 4.662092e+000
2.454768e+002, 4.826674e+000
2.459589e+002, 4.960464e+000
2.464410e+002, 5.021216e+000
2.469232e+002, 5.002456e+000
2.474053e+002, 4.857321e+000
2.478874e+002, 4.472976e+000
2.483695e+002, 4.241190e+000
2.488516e+002, 4.355790e+000
2.493337e+002, 4.555684e+000
2.498159e+002, 4.614038e+000
2.502980e+002, 4.466686e+000
2.507801e+002, 4.266856e+000
2.512622e+002, 4.298272e+000
2.517443e+002, 4.724784e+000
2.522264e+002, 5.009471e+000
2.527086e+002, 5.045871e+000
2.531907e+002, 4.986454e+000
2.536728e+002, 4.930064e+000
2.541549e+002, 4.904302e+000
2.546370e+002, 4.882830e+000
2.551191e+002, 4.813146e+000
2.556013e+002, 4.628827e+000
2.560834e+002, 4.546926e+000
2.565655e+002, 4.656898e+000
2.570476e+002, 4.788786e+000
2.575297e+002, 4.811659e+000
2.580118e+002, 4.712296e+000
2.584940e+002, 4.592779e+000
2.589761e+002, 4.610772e+000
2.594582e+002, 4.897867e+000
2.599403e+002, 4.978375e+000
2.604224e+002, 4.716947e+000
2.609045e+002, 4.399794e+000
2.613867e+002, 4.163590e+000
2.618688e+002, 4.042912e+000
2.623509e+002, 4.042445e+000
2.628330e+002, 4.197091e+000
2.633151e+002, 4.619521e+000
2.637972e+002, 4.765810e+000
2.642794e+002, 4.405017e+000
2.647615e+002, 4.017910e+000
2.652436e+002, 3.884806e+000
2.657257e+002, 4.000126e+000
2.662078e+002, 4.180593e+000
2.666899e+002, 4.250624e+000
2.671721e+002, 4.192459e+000
2.676542e+002, 4.126056e+000
2.681363e+002, 4.050271e+000
2.686184e+002, 3.969300e+000
2.691005e+002, 3.821610e+000
2.695826e+002, 3.652980e+000
2.700648e+002, 3.626097e+000
2.705469e+002, 3.912575e+000
2.710290e+002, 4.531249e+000
2.715111e+002, 4.825530e+000
2.719932e+002, 4.609155e+000
2.724753e+002, 4.327384e+000
2.729575e+002, 4.119191e+000
2.734396e+002, 3.996063e+000
2.739217e+002, 3.954618e+000
2.744038e+002, 4.005055e+000
2.748859e+002, 4.135847e+000
2.753680e+002, 4.201160e+000
2.758501e+002, 4.167605e+000
2.763322e+002, 4.122515e+000
2.768144e+002, 4.096156e+000
2.772965e+002, 4.080428e+000
2.777786e+002, 4.051402e+000
2.782607e+002, 3.992655e+000
2.787428e+002, 3.915696e+000
2.792249e+002, 3.871585e+000
2.797071e+002, 3.892418e+000
2.801892e+002, 3.901319e+000
2.806713e+002, 3.851150e+000
2.811534e+002, 3.779361e+000
2.816355e+002, 3.754235e+000
2.821176e+002, 3.806960e+000
2.825998e+002, 3.916729e+000
2.830819e+002, 4.040694e+000
2.835640e+002, 4.239727e+000
2.840461e+002, 4.343435e+000
2.845282e+002, 4.251083e+000
2.850103e+002, 4.059597e+000
2.854925e+002, 3.904724e+000
2.859746e+002, 3.829628e+000
2.864567e+002, 3.809606e+000
2.869388e+002, 3.806671e+000
2.874209e+002, 3.816930e+000
2.879030e+002, 3.853726e+000
2.883852e+002, 3.989194e+000
2.888673e+002, 4.124281e+000
2.893494e+002, 4.107547e+000
2.898315e+002, 3.899562e+000
2.903136e+002, 3.648411e+000
2.907957e+002, 3.535142e+000
2.912779e+002, 3.577801e+000
2.917600e+002, 3.630625e+000
2.922421e+002, 3.733929e+000
2.927242e+002, 3.810718e+000
2.932063e+002, 3.744272e+000
2.936884e+002, 3.523515e+000
2.941706e+002, 3.318593e+000
2.946527e+002, 3.292938e+000
2.951348e+002, 3.454844e+000
2.956169e+002, 3.614059e+000
2.960990e+002, 3.851575e+000
2.965811e+002, 4.021127e+000
2.970633e+002, 3.951919e+000
2.975454e+002, 3.660827e+000
2.980275e+002, 3.379800e+000
2.985096e+002, 3.271511e+000
2.989917e+002, 3.319809e+000
2.994738e+002, 3.352211e+000
2.999560e+002, 3.334900e+000
3.004381e+002, 3.332241e+000
3.009202e+002, 3.407356e+000
3.014023e+002, 3.539863e+000
3.018844e+002, 3.640705e+000
3.023665e+002, 3.670357e+000
3.028487e+002, 3.627833e+000
3.033308e+002, 3.512660e+000
3.038129e+002, 3.227686e+000
3.042950e+002, 3.029130e+000
3.047771e+002, 3.108851e+000
3.052592e+002, 3.367631e+000
3.057414e+002, 3.533926e+000
3.062235e+002, 3.480755e+000
3.067056e+002, 3.334358e+000
3.071877e+002, 3.360751e+000
3.076698e+002, 3.608271e+000
3.081519e+002, 3.799029e+000
3.086341e+002, 3.811638e+000
3.091162e+002, 3.716016e+000
3.095983e+002, 3.635565e+000
3.100804e+002, 3.607417e+000
3.105625e+002, 3.573666e+000
3.110446e+002, 3.423698e+000
3.115268e+002, 3.147908e+000
3.120089e+002, 2.969155e+000
3.124910e+002, 2.963624e+000
3.129731e+002, 3.063008e+000
3.134552e+002, 3.243897e+000
3.139373e+002, 3.509980e+000
3.144195e+002, 3.679839e+000
3.149016e+002, 3.512475e+000
3.153837e+002, 3.037638e+000
3.158658e+002, 2.749438e+000
3.163479e+002, 2.795297e+000
3.168300e+002, 2.965907e+000
3.173121e+002, 3.117397e+000
3.177943e+002, 3.241258e+000
3.182764e+002, 3.342336e+000
3.187585e+002, 3.439803e+000
3.192406e+002, 3.509434e+000
3.197227e+002, 3.475375e+000
3.202048e+002, 3.213821e+000
3.206870e+002, 2.974435e+000
3.211691e+002, 2.918089e+000
3.216512e+002, 3.004241e+000
3.221333e+002, 3.083225e+000
3.226154e+002, 3.073729e+000
3.230975e+002, 3.029801e+000
3.235797e+002, 3.105429e+000
3.240618e+002, 3.391168e+000
3.245439e+002, 3.584754e+000
3.250260e+002, 3.497394e+000
3.255081e+002, 3.257055e+000
3.259902e+002, 3.100622e+000
3.264724e+002, 3.102663e+000
3.269545e+002, 3.208478e+000
3.274366e+002, 3.378990e+000
3.279187e+002, 3.653849e+000
3.284008e+002, 3.776157e+000
3.288829e+002, 3.557061e+000
3.293651e+002, 3.225299e+000
3.298472e+002, 3.047529e+000
3.303293e+002, 3.069734e+000
3.308114e+002, 3.180980e+000
3.312935e+002, 3.295964e+000
3.317756e+002, 3.414307e+000
3.322578e+002, 3.464554e+000
3.327399e+002, 3.394413e+000
3.332220e+002, 3.293168e+000
3.337041e+002, 3.204782e+000
3.341862e+002, 3.138580e+000
3.346683e+002, 3.125586e+000
3.351505e+002, 3.209812e+000
3.356326e+002, 3.366075e+000
3.361147e+002, 3.414194e+000
3.365968e+002, 3.262513e+000
3.370789e+002, 3.113229e+000
3.375610e+002, 3.052552e+000
3.380432e+002, 3.058926e+000
3.385253e+002, 3.082776e+000
3.390074e+002, 3.103750e+000
3.394895e+002, 3.122123e+000
3.399716e+002, 3.137670e+000
3.404537e+002, 3.145234e+000
3.409359e+002, 3.159464e+000
3.414180e+002, 3.165652e+000
3.419001e+002, 3.186273e+000
3.423822e+002, 3.277823e+000
3.428643e+002, 3.456412e+000
3.433464e+002, 3.627247e+000
3.438286e+002, 3.653126e+000
3.443107e+002, 3.470932e+000
3.447928e+002, 3.307332e+000
3.452749e+002, 3.129298e+000
3.457570e+002, 2.994909e+000
3.462391e+002, 2.967007e+000
3.467213e+002, 3.040587e+000
3.472034e+002, 3.150512e+000
3.476855e+002, 3.247031e+000
3.481676e+002, 3.331108e+000
3.486497e+002, 3.355522e+000
3.491318e+002, 3.292665e+000
3.496140e+002, 3.209360e+000
3.500961e+002, 3.138058e+000
3.505782e+002, 3.069320e+000
3.510603e+002, 2.960749e+000
3.515424e+002, 2.777303e+000
3.520245e+002, 2.559331e+000
3.525067e+002, 2.484121e+000
3.529888e+002, 2.686351e+000
3.534709e+002, 2.863625e+000
3.539530e+002, 2.962228e+000
3.544351e+002, 3.023934e+000
3.549172e+002, 3.122768e+000
3.553994e+002, 3.280368e+000
3.558815e+002, 3.414362e+000
3.563636e+002, 3.374974e+000
3.568457e+002, 3.016682e+000
3.573278e+002, 2.778890e+000
3.578099e+002, 2.677122e+000
3.582920e+002, 2.670711e+000
3.587741e+002, 2.792325e+000
3.592563e+002, 3.007286e+000
3.597384e+002, 3.178782e+000
3.602205e+002, 3.152894e+000
3.607026e+002, 2.891700e+000
3.611847e+002, 2.804833e+000
3.616668e+002, 3.036222e+000
3.621490e+002, 3.279839e+000
3.626311e+002, 3.485413e+000
3.631132e+002, 3.624747e+000
3.635953e+002, 3.656094e+000
3.640774e+002, 3.549657e+000
3.645595e+002, 3.331650e+000
3.650417e+002, 3.103666e+000
3.655238e+002, 2.723073e+000
3.660059e+002, 2.546123e+000
3.664880e+002, 2.792807e+000
3.669701e+002, 3.160730e+000
3.674522e+002, 3.341628e+000
3.679344e+002, 3.241459e+000
3.684165e+002, 3.014395e+000
3.688986e+002, 2.903198e+000
3.693807e+002, 2.967580e+000
3.698628e+002, 2.986197e+000
3.703449e+002, 2.907576e+000
3.708271e+002, 2.821501e+000
3.713092e+002, 2.769778e+000
3.717913e+002, 2.755425e+000
3.722734e+002, 2.761963e+000
3.727555e+002, 2.780826e+000
3.732376e+002, 2.811224e+000
3.737198e+002, 2.826288e+000
3.742019e+002, 2.812987e+000
3.746840e+002, 2.799584e+000
3.751661e+002, 2.798527e+000
3.756482e+002, 2.802866e+000
3.761303e+002, 2.797415e+000
3.766125e+002, 2.769646e+000
3.770946e+002, 2.740207e+000
3.775767e+002, 2.760087e+000
3.780588e+002, 2.847273e+000
3.785409e+002, 2.933166e+000
3.790230e+002, 3.062217e+000
3.795052e+002, 3.144897e+000
3.799873e+002, 3.063087e+000
3.804694e+002, 2.796820e+000
3.809515e+002, 2.536387e+000
3.814336e+002, 2.537322e+000
3.819157e+002, 2.791386e+000
3.823979e+002, 2.855928e+000
3.828800e+002, 2.522495e+000
3.833621e+002, 2.164822e+000
3.838442e+002, 2.027302e+000
3.843263e+002, 2.077468e+000
3.848084e+002, 2.185880e+000
3.852906e+002, 2.327259e+000
3.857727e+002, 2.471313e+000
3.862548e+002, 2.538357e+000
3.867369e+002, 2.508521e+000
3.872190e+002, 2.472370e+000
3.877011e+002, 2.478381e+000
3.881833e+002, 2.511357e+000
3.886654e+002, 2.556338e+000
3.891475e+002, 2.623673e+000
3.896296e+002, 2.678460e+000
3.901117e+002, 2.671230e+000
3.905938e+002, 2.612649e+000
3.910760e+002, 2.598587e+000
3.915581e+002, 2.701908e+000
3.920402e+002, 2.809495e+000
3.925223e+002, 2.734476e+000
3.930044e+002, 2.459964e+000
3.934865e+002, 2.249496e+000
3.939687e+002, 2.229064e+000
3.944508e+002, 2.329219e+000
3.949329e+002, 2.457002e+000
3.954150e+002, 2.604033e+000
3.958971e+002, 2.740769e+000
3.963792e+002, 2.847304e+000
3.968614e+002, 2.920224e+000
3.973435e+002, 2.956040e+000
3.978256e+002, 2.922098e+000
3.983077e+002, 2.879719e+000
3.987898e+002, 2.866184e+000
3.992719e+002, 2.878067e+000
3.997540e+002, 2.914193e+000
4.002361e+002, 2.992595e+000
4.007183e+002, 3.064860e+000
4.012004e+002, 2.966886e+000
4.016825e+002, 2.528605e+000
4.021646e+002, 2.243253e+000
4.026467e+002, 2.313413e+000
4.031288e+002, 2.526994e+000
4.036110e+002, 2.633209e+000
4.040931e+002, 2.577624e+000
4.045752e+002, 2.484260e+000
4.050573e+002, 2.501265e+000
4.055394e+002, 2.658713e+000
4.060215e+002, 2.780269e+000
4.065037e+002, 2.889831e+000
4.069858e+002, 2.946396e+000
4.074679e+002, 2.898240e+000
4.079500e+002, 2.779127e+000
4.084321e+002, 2.665662e+000
4.089142e+002, 2.602709e+000
4.093964e+002, 2.587794e+000
4.098785e+002, 2.608944e+000
4.103606e+002, 2.719287e+000
4.108427e+002, 2.797049e+000
4.113248e+002, 2.792114e+000
4.118069e+002, 2.772568e+000
4.122891e+002, 2.820373e+000
4.127712e+002, 2.949377e+000
4.132533e+002, 3.086174e+000
4.137354e+002, 3.129481e+000
4.142175e+002, 3.057181e+000
4.146996e+002, 2.979937e+000
4.151818e+002, 2.846759e+000
4.156639e+002, 2.757355e+000
4.161460e+002, 2.786355e+000
4.166281e+002, 2.893137e+000
4.171102e+002, 2.980481e+000
4.175923e+002, 2.986969e+000
4.180745e+002, 2.928722e+000
4.185566e+002, 2.849150e+000
4.190387e+002, 2.714668e+000
4.195208e+002, 2.636517e+000
4.200029e+002, 2.747009e+000
4.204850e+002, 2.873859e+000
4.209672e+002, 2.820605e+000
4.214493e+002, 2.535007e+000
4.219314e+002, 2.233990e+000
4.224135e+002, 2.144572e+000
4.228956e+002, 2.258516e+000
4.233777e+002, 2.408410e+000
4.238599e+002, 2.615790e+000
4.243420e+002, 2.788736e+000
4.248241e+002, 2.853452e+000
4.253062e+002, 2.829027e+000
4.257883e+002, 2.782280e+000
4.262704e+002, 2.756327e+000
4.267526e+002, 2.717090e+000
4.272347e+002, 2.564996e+000
4.277168e+002, 2.285940e+000
4.281989e+002, 2.132947e+000
4.286810e+002, 2.326255e+000
4.291631e+002, 2.692275e+000
4.296453e+002, 2.831147e+000
4.301274e+002, 2.650914e+000
4.306095e+002, 2.450025e+000
4.310916e+002, 2.373621e+000
4.315737e+002, 2.381204e+000
4.320558e+002, 2.398930e+000
4.325380e+002, 2.410989e+000
4.330201e+002, 2.412229e+000
4.335022e+002, 2.385930e+000
4.339843e+002, 2.324172e+000
4.344664e+002, 2.317073e+000
4.349485e+002, 2.391930e+000
4.354307e+002, 2.501606e+000
4.359128e+002, 2.655883e+000
4.363949e+002, 2.825091e+000
4.368770e+002, 2.922013e+000
4.373591e+002, 2.891059e+000
4.378412e+002, 2.759902e+000
4.383234e+002, 2.633591e+000
4.388055e+002, 2.394686e+000
4.392876e+002, 2.314580e+000
4.397697e+002, 2.553777e+000
4.402518e+002, 2.879384e+000
4.407339e+002, 3.091609e+000
4.412160e+002, 3.141116e+000
4.416982e+002, 3.069592e+000
4.421803e+002, 2.900139e+000
4.426624e+002, 2.601005e+000
4.431445e+002, 2.434086e+000
4.436266e+002, 2.497453e+000
4.441087e+002, 2.594223e+000
4.445909e+002, 2.710673e+000
4.450730e+002, 2.811407e+000
4.455551e+002, 2.841243e+000
4.460372e+002, 2.765347e+000
4.465193e+002, 2.634049e+000
4.470014e+002, 2.555876e+000
4.474836e+002, 2.538423e+000
4.479657e+002, 2.552178e+000
4.484478e+002, 2.613470e+000
4.489299e+002, 2.688965e+000
4.494120e+002, 2.768847e+000
4.498941e+002, 2.847660e+000
4.503763e+002, 2.907053e+000
4.508584e+002, 2.933003e+000
4.513405e+002, 2.927913e+000
4.518226e+002, 2.899183e+000
4.523047e+002, 2.843762e+000
4.527868e+002, 2.772957e+000
4.532690e+002, 2.672756e+000
4.537511e+002, 2.566255e+000
4.542332e+002, 2.486014e+000
4.547153e+002, 2.435542e+000
4.551974e+002, 2.419824e+000
4.556795e+002, 2.468138e+000
4.561617e+002, 2.561880e+000
4.566438e+002, 2.612151e+000
4.571259e+002, 2.577982e+000
4.576080e+002, 2.525943e+000
4.580901e+002, 2.548267e+000
4.585722e+002, 2.642677e+000
4.590544e+002, 2.740421e+000
4.595365e+002, 2.887272e+000
4.600186e+002, 2.990580e+000
4.605007e+002, 2.935644e+000
4.609828e+002, 2.744631e+000
4.614649e+002, 2.552246e+000
4.619471e+002, 2.433173e+000
4.624292e+002, 2.382669e+000
4.629113e+002, 2.381499e+000
4.633934e+002, 2.511887e+000
4.638755e+002, 2.580892e+000
4.643576e+002, 2.493315e+000
4.648398e+002, 2.374204e+000
4.653219e+002, 2.358746e+000
4.658040e+002, 2.468633e+000
4.662861e+002, 2.627702e+000
4.667682e+002, 2.757489e+000
4.672503e+002, 2.858876e+000
4.677325e+002, 2.930659e+000
4.682146e+002, 2.945778e+000
4.686967e+002, 2.959611e+000
4.691788e+002, 3.014574e+000
4.696609e+002, 3.069686e+000
4.701430e+002, 3.056118e+000
4.706252e+002, 2.941692e+000
4.711073e+002, 2.777493e+000
4.715894e+002, 2.643466e+000
4.720715e+002, 2.534821e+000
4.725536e+002, 2.478663e+000
4.730357e+002, 2.528023e+000
4.735179e+002, 2.591578e+000
4.740000e+002, 2.641834e+000
4.744821e+002, 2.665895e+000
4.749642e+002, 2.628591e+000
4.754463e+002, 2.434867e+000
4.759284e+002, 2.191819e+000
4.764106e+002, 2.164028e+000
4.768927e+002, 2.387218e+000
4.773748e+002, 2.602897e+000
4.778569e+002, 2.701177e+000
4.783390e+002, 2.711931e+000
4.788211e+002, 2.664100e+000
4.793033e+002, 2.519664e+000
4.797854e+002, 2.460463e+000
4.802675e+002, 2.703214e+000
4.807496e+002, 3.061291e+000
4.812317e+002, 3.157334e+000
4.817138e+002, 2.916549e+000
4.821959e+002, 2.614253e+000
4.826780e+002, 2.489823e+000
4.831602e+002, 2.544830e+000
4.836423e+002, 2.580872e+000
4.841244e+002, 2.605019e+000
4.846065e+002, 2.604116e+000
4.850886e+002, 2.543897e+000
4.855707e+002, 2.461025e+000
4.860529e+002, 2.436692e+000
4.865350e+002, 2.500055e+000
4.870171e+002, 2.571706e+000
4.874992e+002, 2.507853e+000
4.879813e+002, 2.207618e+000
4.884634e+002, 2.050615e+000
4.889456e+002, 2.083982e+000
4.894277e+002, 2.189462e+000
4.899098e+002, 2.382052e+000
4.903919e+002, 2.597823e+000
4.908740e+002, 2.707278e+000
4.913561e+002, 2.618866e+000
4.918383e+002, 2.410923e+000
4.923204e+002, 2.312349e+000
4.928025e+002, 2.387363e+000
4.932846e+002, 2.394581e+000
4.937667e+002, 2.137021e+000
4.942488e+002, 1.901627e+000
4.947310e+002, 1.927645e+000
4.952131e+002, 2.203227e+000
4.956952e+002, 2.473606e+000
4.961773e+002, 2.531635e+000
4.966594e+002, 2.452394e+000
4.971415e+002, 2.459557e+000
4.976237e+002, 2.586191e+000
4.981058e+002, 2.660783e+000
4.985879e+002, 2.552720e+000
4.990700e+002, 2.343676e+000
4.995521e+002, 2.188030e+000
5.000342e+002, 2.090197e+000
5.005164e+002, 2.052685e+000
5.009985e+002, 2.115666e+000
5.014806e+002, 2.229103e+000
5.019627e+002, 2.292643e+000
5.024448e+002, 2.284903e+000
5.029269e+002, 2.287774e+000
5.034091e+002, 2.394798e+000
5.038912e+002, 2.611713e+000
5.043733e+002, 2.718685e+000
5.048554e+002, 2.669963e+000
5.053375e+002, 2.576501e+000
5.058196e+002, 2.414975e+000
5.063018e+002, 2.252690e+000
5.067839e+002, 2.201578e+000
5.072660e+002, 2.298315e+000
5.077481e+002, 2.463324e+000
5.082302e+002, 2.582298e+000
5.087123e+002, 2.661019e+000
5.091945e+002, 2.672659e+000
5.096766e+002, 2.547567e+000
5.101587e+002, 2.424840e+000
5.106408e+002, 2.357812e+000
5.111229e+002, 2.331622e+000
5.116050e+002, 2.305891e+000
5.120872e+002, 2.255074e+000
5.125693e+002, 2.213372e+000
5.130514e+002, 2.270367e+000
5.135335e+002, 2.450295e+000
5.140156e+002, 2.535869e+000
5.144977e+002, 2.388316e+000
5.149799e+002, 2.224060e+000
5.154620e+002, 2.253913e+000
5.159441e+002, 2.446957e+000
5.164262e+002, 2.587365e+000
5.169083e+002, 2.573973e+000
5.173904e+002, 2.465369e+000
5.178726e+002, 2.280461e+000
5.183547e+002, 2.034392e+000
5.188368e+002, 1.919172e+000
5.193189e+002, 2.073325e+000
5.198010e+002, 2.355823e+000
5.202831e+002, 2.430290e+000
5.207653e+002, 2.234130e+000
5.212474e+002, 2.064307e+000
5.217295e+002, 1.956964e+000
5.222116e+002, 1.905199e+000
5.226937e+002, 1.941683e+000
5.231758e+002, 2.041521e+000
5.236580e+002, 2.107353e+000
5.241401e+002, 2.067385e+000
5.246222e+002, 1.937756e+000
5.251043e+002, 1.792859e+000
5.255864e+002, 1.520814e+000
5.260685e+002, 1.405337e+000
5.265507e+002, 1.561389e+000
5.270328e+002, 1.810488e+000
5.275149e+002, 2.032098e+000
5.279970e+002, 2.198650e+000
5.284791e+002, 2.320370e+000
5.289612e+002, 2.402225e+000
5.294434e+002, 2.446388e+000
5.299255e+002, 2.466343e+000
5.304076e+002, 2.462480e+000
5.308897e+002, 2.433057e+000
5.313718e+002, 2.351337e+000
5.318539e+002, 2.255916e+000
5.323361e+002, 2.174457e+000
5.328182e+002, 2.105424e+000
5.333003e+002, 2.091922e+000
5.337824e+002, 2.204485e+000
5.342645e+002, 2.384285e+000
5.347466e+002, 2.511530e+000
5.352288e+002, 2.570977e+000
5.357109e+002, 2.575998e+000
5.361930e+002, 2.519729e+000
5.366751e+002, 2.415065e+000
5.371572e+002, 2.346229e+000
5.376393e+002, 2.360971e+000
5.381215e+002, 2.349693e+000
5.386036e+002, 2.248111e+000
5.390857e+002, 2.118570e+000
5.395678e+002, 2.042667e+000
5.400499e+002, 2.034940e+000
5.405320e+002, 2.045572e+000
5.410142e+002, 2.013252e+000
5.414963e+002, 1.933731e+000
5.419784e+002, 1.959604e+000
5.424604e+002, 2.237426e+000
5.429426e+002, 2.447291e+000
5.434247e+002, 2.560840e+000
5.439068e+002, 2.556283e+000
5.443889e+002, 2.360916e+000
5.448710e+002, 1.968513e+000
5.453531e+002, 1.568154e+000
5.458353e+002, 1.329846e+000
5.463174e+002, 1.255637e+000
5.467995e+002, 1.433208e+000
5.472816e+002, 2.023381e+000
5.477637e+002, 2.532234e+000
5.482458e+002, 2.577119e+000
5.487280e+002, 2.351139e+000
5.492101e+002, 2.127447e+000
5.496922e+002, 1.906816e+000
5.501743e+002, 1.788950e+000
5.506564e+002, 1.931663e+000
5.511385e+002, 2.205093e+000
5.516207e+002, 2.331635e+000
5.521028e+002, 2.251949e+000
5.525849e+002, 2.080290e+000
5.530670e+002, 1.895941e+000
5.535491e+002, 1.698785e+000
5.540313e+002, 1.644908e+000
5.545134e+002, 1.849110e+000
5.549955e+002, 2.036190e+000
5.554776e+002, 2.131819e+000
5.559597e+002, 2.168895e+000
5.564418e+002, 2.172737e+000
5.569240e+002, 2.157978e+000
5.574061e+002, 2.162025e+000
5.578882e+002, 2.255827e+000
5.583703e+002, 2.448025e+000
5.588524e+002, 2.465588e+000
5.593345e+002, 2.150763e+000
5.598167e+002, 1.885532e+000
5.602988e+002, 1.791826e+000
5.607809e+002, 1.814991e+000
5.612630e+002, 1.914733e+000
5.617451e+002, 2.090078e+000
5.622272e+002, 2.240308e+000
5.627094e+002, 2.236776e+000
5.631915e+002, 2.134579e+000
5.636736e+002, 2.147788e+000
5.641557e+002, 2.331478e+000
5.646378e+002, 2.468030e+000
5.651199e+002, 2.352755e+000
5.656021e+002, 2.061164e+000
5.660842e+002, 1.940187e+000
5.665663e+002, 2.155621e+000
5.670484e+002, 2.304297e+000
5.675305e+002, 2.166009e+000
5.680126e+002, 1.924757e+000
5.684948e+002, 1.796265e+000
5.689769e+002, 1.823712e+000
5.694590e+002, 1.961390e+000
5.699411e+002, 2.187558e+000
5.704232e+002, 2.492144e+000
5.709053e+002, 2.665880e+000
5.713875e+002, 2.665747e+000
5.718696e+002, 2.581950e+000
5.723517e+002, 2.313603e+000
5.728338e+002, 2.043112e+000
5.733159e+002, 1.971748e+000
5.737980e+002, 2.111712e+000
5.742802e+002, 2.268517e+000
5.747623e+002, 2.256319e+000
5.752444e+002, 2.118118e+000
5.757265e+002, 2.031002e+000
5.762086e+002, 2.000545e+000
5.766907e+002, 1.999190e+000
5.771729e+002, 2.028521e+000
5.776550e+002, 2.072320e+000
5.781371e+002, 2.109378e+000
5.786192e+002, 2.144510e+000
5.791013e+002, 2.149350e+000
5.795834e+002, 2.050391e+000
5.800656e+002, 1.952672e+000
5.805477e+002, 2.026994e+000
5.810298e+002, 2.249884e+000
5.815119e+002, 2.402730e+000
5.819940e+002, 2.338064e+000
5.824761e+002, 2.118795e+000
5.829583e+002, 1.959144e+000
5.834404e+002, 1.897910e+000
5.839225e+002, 1.840039e+000
5.844046e+002, 1.759562e+000
5.848867e+002, 1.701621e+000
5.853688e+002, 1.687862e+000
5.858510e+002, 1.723081e+000
5.863331e+002, 1.821202e+000
5.868152e+002, 2.013543e+000
5.872973e+002, 2.231336e+000
5.877794e+002, 2.302135e+000
5.882615e+002, 2.205400e+000
5.887437e+002, 2.093709e+000
5.892258e+002, 1.946663e+000
5.897079e+002, 1.861831e+000
5.901900e+002, 1.982535e+000
5.906721e+002, 2.268042e+000
5.911542e+002, 2.449186e+000
5.916364e+002, 2.380776e+000
5.921185e+002, 2.229505e+000
5.926006e+002, 2.118387e+000
5.930827e+002, 2.040674e+000
5.935648e+002, 1.946017e+000
5.940469e+002, 1.809382e+000
5.945291e+002, 1.731129e+000
5.950112e+002, 1.879527e+000
5.954933e+002, 2.351774e+000
5.959754e+002, 2.604525e+000
5.964575e+002, 2.529886e+000
5.969396e+002, 2.391111e+000
5.974218e+002, 2.264081e+000
5.979039e+002, 2.136607e+000
5.983860e+002, 1.960962e+000
5.988681e+002, 1.724219e+000
5.993502e+002, 1.509360e+000
5.998323e+002, 1.432597e+000
6.003145e+002, 1.488327e+000
6.007966e+002, 1.518283e+000
6.012787e+002, 1.479927e+000
6.017608e+002, 1.492531e+000
6.022429e+002, 1.687879e+000
6.027250e+002, 1.959123e+000
6.032072e+002, 2.144198e+000
6.036893e+002, 2.218110e+000
6.041714e+002, 2.225945e+000
6.046535e+002, 2.149975e+000
6.051356e+002, 2.040040e+000
6.056177e+002, 1.965621e+000
6.060999e+002, 1.935320e+000
6.065820e+002, 1.927586e+000
6.070641e+002, 1.924116e+000
6.075462e+002, 1.934035e+000
6.080283e+002, 2.002245e+000
6.085104e+002, 2.247159e+000
6.089926e+002, 2.377302e+000
6.094747e+002, 2.331819e+000
6.099568e+002, 2.213149e+000
6.104389e+002, 2.041667e+000
6.109210e+002, 1.858007e+000
6.114031e+002, 1.752060e+000
6.118853e+002, 1.792888e+000
6.123674e+002, 1.925640e+000
6.128495e+002, 2.049501e+000
6.133316e+002, 2.167404e+000
6.138137e+002, 2.248318e+000
6.142958e+002, 2.282395e+000
6.147780e+002, 2.279961e+000
6.152601e+002, 2.222106e+000
6.157422e+002, 2.123895e+000
6.162243e+002, 2.087987e+000
6.167064e+002, 2.269892e+000
6.171885e+002, 2.387208e+000
6.176707e+002, 2.154150e+000
6.181528e+002, 1.744053e+000
6.186349e+002, 1.519520e+000
6.191170e+002, 1.586006e+000
6.195991e+002, 1.778841e+000
6.200812e+002, 1.913815e+000
6.205634e+002, 1.989809e+000
6.210455e+002, 2.031006e+000
6.215276e+002, 1.994514e+000
6.220097e+002, 1.975358e+000
6.224918e+002, 2.027051e+000
6.229739e+002, 2.086131e+000
6.234561e+002, 2.078170e+000
6.239382e+002, 1.992774e+000
6.244203e+002, 1.894356e+000
6.249023e+002, 1.820290e+000
6.253845e+002, 1.775229e+000
6.258666e+002, 1.787799e+000
6.263487e+002, 1.864874e+000
6.268308e+002, 1.915105e+000
6.273129e+002, 1.867154e+000
6.277950e+002, 1.796747e+000
6.282772e+002, 1.877331e+000
6.287593e+002, 2.154893e+000
6.292414e+002, 2.336339e+000
6.297235e+002, 2.352487e+000
6.302056e+002, 2.283534e+000
6.306877e+002, 2.129562e+000
6.311699e+002, 1.940629e+000
6.316520e+002, 1.817724e+000
6.321341e+002, 1.807711e+000
6.326162e+002, 1.860372e+000
6.330983e+002, 1.900540e+000
6.335804e+002, 1.933493e+000
6.340626e+002, 1.922010e+000
6.345447e+002, 1.798471e+000
6.350268e+002, 1.720347e+000
6.355089e+002, 1.773885e+000
6.359910e+002, 1.905542e+000
6.364731e+002, 2.059017e+000
6.369553e+002, 2.246745e+000
6.374374e+002, 2.334633e+000
6.379195e+002, 2.121363e+000
6.384016e+002, 1.774446e+000
6.388837e+002, 1.631349e+000
6.393658e+002, 1.725371e+000
6.398480e+002, 1.849455e+000
6.403301e+002, 1.876840e+000
6.408122e+002, 1.826210e+000
6.412943e+002, 1.757961e+000
6.417764e+002, 1.578556e+000
6.422585e+002, 1.526361e+000
6.427407e+002, 1.716678e+000
6.432228e+002, 1.930955e+000
6.437049e+002, 2.022961e+000
6.441870e+002, 2.021724e+000
6.446691e+002, 2.041686e+000
6.451512e+002, 2.149627e+000
6.456334e+002, 2.272309e+000
6.461155e+002, 2.285746e+000
6.465976e+002, 2.190711e+000
6.470797e+002, 2.065967e+000
6.475618e+002, 1.885418e+000
6.480439e+002, 1.758172e+000
6.485261e+002, 1.810249e+000
6.490082e+002, 1.984469e+000
6.494903e+002, 2.098298e+000
6.499724e+002, 2.086463e+000
6.504545e+002, 2.092783e+000
6.509366e+002, 2.217050e+000
6.514188e+002, 2.365880e+000
6.519009e+002, 2.438244e+000
6.523830e+002, 2.417676e+000
6.528651e+002, 2.306750e+000
6.533472e+002, 2.089237e+000
6.538293e+002, 1.822314e+000
6.543115e+002, 1.738770e+000
6.547936e+002, 1.948330e+000
6.552757e+002, 2.075331e+000
6.557578e+002, 1.938365e+000
6.562399e+002, 1.818807e+000
6.567220e+002, 1.909375e+000
6.572042e+002, 2.150292e+000
6.576863e+002, 2.350083e+000
6.581684e+002, 2.475899e+000
6.586505e+002, 2.472980e+000
6.591326e+002, 2.157901e+000
6.596147e+002, 1.676418e+000
6.600969e+002, 1.465591e+000
6.605790e+002, 1.625072e+000
6.610611e+002, 1.891454e+000
6.615432e+002, 2.053396e+000
6.620253e+002, 2.114377e+000
6.625074e+002, 2.110216e+000
6.629896e+002, 1.983915e+000
6.634717e+002, 1.866771e+000
6.639538e+002, 1.719640e+000
6.644359e+002, 1.623631e+000
6.649180e+002, 1.686933e+000
6.654001e+002, 1.870685e+000
6.658823e+002, 2.013390e+000
6.663644e+002, 2.002116e+000
6.668465e+002, 1.916554e+000
6.673286e+002, 1.906652e+000
6.678107e+002, 1.969726e+000
6.682928e+002, 2.006254e+000
6.687750e+002, 1.980949e+000
6.692571e+002, 1.958063e+000
6.697392e+002, 2.032554e+000
6.702213e+002, 2.181062e+000
6.707034e+002, 2.187303e+000
6.711855e+002, 1.896935e+000
6.716677e+002, 1.650087e+000
6.721498e+002, 1.564548e+000
6.726319e+002, 1.571873e+000
6.731140e+002, 1.631451e+000
6.735961e+002, 1.713923e+000
6.740782e+002, 1.746776e+000
6.745604e+002, 1.657932e+000
6.750425e+002, 1.507023e+000
6.755246e+002, 1.505571e+000
6.760067e+002, 1.694481e+000
6.764888e+002, 1.852618e+000
6.769709e+002, 1.942804e+000
6.774531e+002, 1.982673e+000
6.779352e+002, 1.982350e+000
6.784173e+002, 1.946499e+000
6.788994e+002, 1.886815e+000
6.793815e+002, 1.738067e+000
6.798636e+002, 1.653200e+000
6.803458e+002, 1.802504e+000
6.808279e+002, 2.042995e+000
6.813100e+002, 2.120325e+000
6.817921e+002, 2.008627e+000
6.822742e+002, 1.909229e+000
6.827563e+002, 1.998683e+000
6.832385e+002, 2.222769e+000
6.837206e+002, 2.309736e+000
6.842027e+002, 2.200732e+000
6.846848e+002, 2.083045e+000
6.851669e+002, 1.967422e+000
6.856490e+002, 1.862341e+000
6.861312e+002, 1.769996e+000
6.866133e+002, 1.692546e+000
6.870954e+002, 1.636720e+000
6.875775e+002, 1.616650e+000
6.880596e+002, 1.598809e+000
6.885417e+002, 1.500696e+000
6.890239e+002, 1.390372e+000
6.895060e+002, 1.472979e+000
6.899881e+002, 1.779928e+000
6.904702e+002, 2.072577e+000
6.909523e+002, 2.167809e+000
6.914344e+002, 2.092310e+000
6.919166e+002, 1.976626e+000
6.923987e+002, 1.737791e+000
6.928808e+002, 1.594118e+000
6.933629e+002, 1.601757e+000
6.938450e+002, 1.658922e+000
6.943271e+002, 1.737468e+000
6.948093e+002, 1.812392e+000
6.952914e+002, 1.822093e+000
6.957735e+002, 1.705876e+000
6.962556e+002, 1.621402e+000
6.967377e+002, 1.869277e+000
6.972198e+002, 2.304661e+000
6.977020e+002, 2.323553e+000
6.981841e+002, 1.802811e+000
6.986662e+002, 1.366848e+000
6.991483e+002, 1.506248e+000
6.996304e+002, 2.035465e+000
7.001125e+002, 2.244177e+000
7.005947e+002, 1.798767e+000
7.010768e+002, 1.539390e+000
7.015589e+002, 1.566869e+000
7.020410e+002, 1.698741e+000
7.025231e+002, 1.913302e+000
7.030052e+002, 2.129636e+000
7.034874e+002, 2.190689e+000
7.039695e+002, 2.015721e+000
7.044516e+002, 1.788330e+000
7.049337e+002, 1.755119e+000
7.054158e+002, 1.872627e+000
7.058979e+002, 1.928027e+000
7.063801e+002, 1.897587e+000
7.068622e+002, 1.823727e+000
7.073442e+002, 1.692591e+000
7.078264e+002, 1.562723e+000
7.083085e+002, 1.602908e+000
7.087906e+002, 1.921154e+000
7.092727e+002, 2.124029e+000
7.097548e+002, 2.140573e+000
7.102369e+002, 2.079783e+000
7.107191e+002, 1.964788e+000
7.112012e+002, 1.830176e+000
7.116833e+002, 1.718073e+000
7.121654e+002, 1.643854e+000
7.126475e+002, 1.608456e+000
7.131296e+002, 1.612718e+000
7.136118e+002, 1.656197e+000
7.140939e+002, 1.750617e+000
7.145760e+002, 1.907488e+000
7.150581e+002, 2.041799e+000
7.155402e+002, 2.114501e+000
7.160223e+002, 2.142607e+000
7.165045e+002, 2.157050e+000
7.169866e+002, 2.165099e+000
7.174687e+002, 2.121411e+000
7.179508e+002, 1.952299e+000
7.184329e+002, 1.805180e+000
7.189150e+002, 1.750945e+000
7.193972e+002, 1.766014e+000
7.198793e+002, 1.843987e+000
7.203614e+002, 1.966702e+000
7.208435e+002, 2.036425e+000
7.213256e+002, 1.916189e+000
7.218077e+002, 1.674389e+000
7.222899e+002, 1.609190e+000
7.227720e+002, 1.747643e+000
7.232541e+002, 1.825331e+000
7.237362e+002, 1.717280e+000
7.242183e+002, 1.577822e+000
7.247004e+002, 1.617905e+000
7.251826e+002, 1.832498e+000
7.256647e+002, 1.936672e+000
7.261468e+002, 1.833918e+000
7.266289e+002, 1.716627e+000
7.271110e+002, 1.608887e+000
7.275931e+002, 1.549619e+000
7.280753e+002, 1.625650e+000
7.285574e+002, 1.811884e+000
7.290395e+002, 1.954687e+000
7.295216e+002, 1.937621e+000
7.300037e+002, 1.811638e+000
7.304858e+002, 1.660370e+000
7.309680e+002, 1.479849e+000
7.314501e+002, 1.412875e+000
7.319322e+002, 1.515470e+000
7.324143e+002, 1.673257e+000
7.328964e+002, 1.825272e+000
7.333785e+002, 1.956474e+000
7.338607e+002, 2.001584e+000
7.343428e+002, 1.888856e+000
7.348249e+002, 1.801513e+000
7.353070e+002, 1.779587e+000
7.357891e+002, 1.794413e+000
7.362712e+002, 1.849061e+000
7.367534e+002, 1.918300e+000
7.372355e+002, 1.935206e+000
7.377176e+002, 1.860799e+000
7.381997e+002, 1.778698e+000
7.386818e+002, 1.874637e+000
7.391639e+002, 2.111841e+000
7.396461e+002, 2.080102e+000
7.401282e+002, 1.674836e+000
7.406103e+002, 1.333633e+000
7.410924e+002, 1.310013e+000
7.415745e+002, 1.498853e+000
7.420566e+002, 1.697701e+000
7.425388e+002, 1.954244e+000
7.430209e+002, 2.062202e+000
7.435030e+002, 1.789089e+000
7.439851e+002, 1.587750e+000
7.444672e+002, 1.812730e+000
7.449493e+002, 2.222864e+000
7.454315e+002, 2.434300e+000
7.459136e+002, 2.341873e+000
7.463957e+002, 2.125752e+000
7.468778e+002, 1.883031e+000
7.473599e+002, 1.664964e+000
7.478420e+002, 1.668747e+000
7.483242e+002, 1.900235e+000
7.488063e+002, 2.137248e+000
7.492884e+002, 2.341861e+000
7.497705e+002, 2.431231e+000
7.502526e+002, 2.257730e+000
7.507347e+002, 1.798425e+000
7.512169e+002, 1.538541e+000
7.516990e+002, 1.570593e+000
7.521811e+002, 1.663945e+000
7.526632e+002, 1.814236e+000
7.531453e+002, 1.971386e+000
7.536274e+002, 2.134015e+000
7.541096e+002, 2.267884e+000
7.545917e+002, 2.267822e+000
7.550738e+002, 2.032035e+000
7.555559e+002, 1.723634e+000
7.560380e+002, 1.553126e+000
7.565201e+002, 1.506526e+000
7.570023e+002, 1.552837e+000
7.574844e+002, 1.694372e+000
7.579665e+002, 1.809391e+000
7.584486e+002, 1.802841e+000
7.589307e+002, 1.713662e+000
7.594128e+002, 1.674921e+000
7.598950e+002, 1.748562e+000
7.603771e+002, 1.758938e+000
7.608592e+002, 1.604547e+000
7.613413e+002, 1.497917e+000
7.618234e+002, 1.582621e+000
7.623055e+002, 1.766103e+000
7.627877e+002, 1.898000e+000
7.632698e+002, 1.935853e+000
7.637519e+002, 1.946955e+000
7.642340e+002, 1.933886e+000
7.647161e+002, 1.950134e+000
7.651982e+002, 2.161267e+000
7.656804e+002, 2.511173e+000
7.661625e+002, 2.651429e+000
7.666446e+002, 2.438629e+000
7.671267e+002, 2.096474e+000
7.676088e+002, 1.911357e+000
7.680909e+002, 1.886460e+000
7.685731e+002, 1.914738e+000
7.690552e+002, 2.066551e+000
7.695373e+002, 2.155803e+000
7.700194e+002, 2.078358e+000
7.705015e+002, 1.976339e+000
7.709836e+002, 1.982491e+000
7.714658e+002, 2.074341e+000
7.719479e+002, 2.105985e+000
7.724300e+002, 1.973562e+000
7.729121e+002, 1.837768e+000
7.733942e+002, 1.860796e+000
7.738763e+002, 1.930934e+000
7.743585e+002, 1.813431e+000
7.748406e+002, 1.525453e+000
7.753227e+002, 1.361738e+000
7.758048e+002, 1.531685e+000
7.762869e+002, 1.874209e+000
7.767690e+002, 1.988842e+000
7.772512e+002, 1.830667e+000
7.777333e+002, 1.749593e+000
7.782154e+002, 1.791924e+000
7.786975e+002, 1.869459e+000
7.791796e+002, 1.989801e+000
7.796617e+002, 2.091274e+000
7.801439e+002, 2.035816e+000
7.806260e+002, 1.761243e+000
7.811081e+002, 1.620510e+000
7.815902e+002, 1.831821e+000
7.820723e+002, 2.069765e+000
7.825544e+002, 2.153036e+000
7.830366e+002, 2.108290e+000
7.835187e+002, 1.963551e+000
7.840008e+002, 1.745969e+000
7.844829e+002, 1.560544e+000
7.849650e+002, 1.529388e+000
7.854471e+002, 1.588387e+000
7.859293e+002, 1.514171e+000
7.864114e+002, 1.303635e+000
7.868935e+002, 1.203785e+000
7.873756e+002, 1.296691e+000
7.878577e+002, 1.454561e+000
7.883398e+002, 1.571752e+000
7.888220e+002, 1.651197e+000
7.893040e+002, 1.713557e+000
7.897861e+002, 1.748638e+000
7.902682e+002, 1.782503e+000
7.907504e+002, 1.875075e+000
7.912325e+002, 1.913245e+000
7.917146e+002, 1.772230e+000
7.921967e+002, 1.529906e+000
7.926788e+002, 1.347118e+000
7.931609e+002, 1.281443e+000
7.936431e+002, 1.288507e+000
7.941252e+002, 1.369002e+000
7.946073e+002, 1.479507e+000
7.950894e+002, 1.506825e+000
7.955715e+002, 1.468424e+000
7.960536e+002, 1.544312e+000
7.965358e+002, 1.821527e+000
7.970179e+002, 2.109190e+000
7.975000e+002, 2.122571e+000
7.979821e+002, 1.844692e+000
7.984642e+002, 1.714415e+000
7.989464e+002, 1.825022e+000
7.994285e+002, 1.913345e+000
7.999106e+002, 1.864110e+000
8.003927e+002, 1.809793e+000
8.008748e+002, 1.874426e+000
8.013569e+002, 2.030256e+000
8.018391e+002, 2.133338e+000
8.023212e+002, 2.201609e+000
8.028033e+002, 2.129389e+000
8.032854e+002, 1.673230e+000
8.037675e+002, 1.164910e+000
8.042496e+002, 1.032503e+000
8.047318e+002, 1.241587e+000
8.052139e+002, 1.501274e+000
8.056960e+002, 1.656379e+000
8.061781e+002, 1.755259e+000
8.066602e+002, 1.886346e+000
8.071423e+002, 2.042252e+000
8.076245e+002, 2.112856e+000
8.081066e+002, 2.088719e+000
8.085887e+002, 1.990425e+000
8.090708e+002, 1.769658e+000
8.095529e+002, 1.558688e+000
8.100350e+002, 1.584929e+000
8.105172e+002, 1.904247e+000
8.109993e+002, 2.094381e+000
8.114814e+002, 2.123982e+000
8.119635e+002, 2.066604e+000
8.124456e+002, 1.827133e+000
8.129277e+002, 1.591724e+000
8.134099e+002, 1.568509e+000
8.138920e+002, 1.729043e+000
8.143741e+002, 1.866589e+000
8.148562e+002, 1.864102e+000
8.153383e+002, 1.829386e+000
8.158204e+002, 1.906498e+000
8.163026e+002, 2.027477e+000
8.167847e+002, 2.013563e+000
8.172668e+002, 1.861301e+000
8.177489e+002, 1.741076e+000
8.182310e+002, 1.754792e+000
8.187131e+002, 1.827335e+000
8.191953e+002, 1.793357e+000
8.196774e+002, 1.612587e+000
8.201595e+002, 1.597823e+000
8.206416e+002, 1.874999e+000
8.211237e+002, 2.078276e+000
8.216058e+002, 1.977747e+000
8.220880e+002, 1.801626e+000
8.225701e+002, 1.835217e+000
8.230522e+002, 2.070939e+000
8.235343e+002, 2.201201e+000
8.240164e+002, 2.066577e+000
8.244985e+002, 1.932901e+000
8.249807e+002, 1.925309e+000
8.254628e+002, 1.972921e+000
8.259449e+002, 2.003078e+000
8.264270e+002, 2.007300e+000
8.269091e+002, 2.011568e+000
8.273912e+002, 2.035939e+000
8.278734e+002, 2.040367e+000
8.283555e+002, 1.928608e+000
8.288376e+002, 1.743872e+000
8.293197e+002, 1.688430e+000
8.298018e+002, 1.780801e+000
8.302839e+002, 1.863745e+000
8.307661e+002, 1.859047e+000
8.312482e+002, 1.802185e+000
8.317303e+002, 1.735856e+000
8.322124e+002, 1.640283e+000
8.326945e+002, 1.688107e+000
8.331766e+002, 2.101546e+000
8.336588e+002, 2.333755e+000
8.341409e+002, 2.138412e+000
8.346230e+002, 1.824974e+000
8.351051e+002, 1.610438e+000
8.355872e+002, 1.504669e+000
8.360693e+002, 1.461686e+000
8.365515e+002, 1.459846e+000
8.370336e+002, 1.530397e+000
8.375157e+002, 1.786725e+000
8.379978e+002, 2.060981e+000
8.384799e+002, 2.126842e+000
8.389620e+002, 2.022350e+000
8.394442e+002, 1.935133e+000
8.399263e+002, 1.953635e+000
8.404084e+002, 2.021081e+000
8.408905e+002, 2.103653e+000
8.413726e+002, 2.176936e+000
8.418547e+002, 2.054331e+000
8.423369e+002, 1.718009e+000
8.428190e+002, 1.441401e+000
8.433011e+002, 1.317114e+000
8.437832e+002, 1.311925e+000
8.442653e+002, 1.409094e+000
8.447474e+002, 1.605385e+000
8.452296e+002, 1.755683e+000
8.457117e+002, 1.902043e+000
8.461938e+002, 1.935372e+000
8.466759e+002, 1.731641e+000
8.471580e+002, 1.524271e+000
8.476401e+002, 1.440316e+000
8.481223e+002, 1.468710e+000
8.486044e+002, 1.591677e+000
8.490865e+002, 1.846304e+000
8.495686e+002, 2.007288e+000
8.500507e+002, 1.851532e+000
8.505328e+002, 1.624559e+000
8.510150e+002, 1.604264e+000
8.514971e+002, 1.715142e+000
8.519792e+002, 1.731672e+000
8.524613e+002, 1.594520e+000
8.529434e+002, 1.456165e+000
8.534255e+002, 1.493932e+000
8.539077e+002, 1.622119e+000
8.543898e+002, 1.518700e+000
8.548719e+002, 1.183725e+000
8.553540e+002, 1.029748e+000
8.558361e+002, 1.168507e+000
8.563182e+002, 1.370320e+000
8.568004e+002, 1.465989e+000
8.572825e+002, 1.493321e+000
8.577646e+002, 1.583465e+000
8.582467e+002, 1.842755e+000
8.587288e+002, 1.930943e+000
8.592109e+002, 1.610781e+000
8.596931e+002, 1.401312e+000
8.601752e+002, 1.622665e+000
8.606573e+002, 1.975637e+000
8.611394e+002, 2.058935e+000
8.616215e+002, 1.843645e+000
8.621036e+002, 1.702494e+000
8.625858e+002, 1.887330e+000
8.630679e+002, 2.084569e+000
8.635500e+002, 2.043437e+000
8.640321e+002, 1.900794e+000
8.645142e+002, 1.865641e+000
8.649963e+002, 1.937862e+000
8.654785e+002, 1.972213e+000
8.659606e+002, 1.881799e+000
8.664427e+002, 1.733356e+000
8.669248e+002, 1.602045e+000
8.674069e+002, 1.498689e+000
8.678890e+002, 1.496824e+000
8.683712e+002, 1.603516e+000
8.688533e+002, 1.727699e+000
8.693354e+002, 1.845621e+000
8.698175e+002, 1.913424e+000
8.702996e+002, 1.850849e+000
8.707817e+002, 1.655579e+000
8.712639e+002, 1.596881e+000
8.717459e+002, 1.773968e+000
8.722280e+002, 1.912923e+000
8.727101e+002, 1.985321e+000
8.731923e+002, 1.990525e+000
8.736744e+002, 1.858344e+000
8.741565e+002, 1.666468e+000
8.746386e+002, 1.619185e+000
8.751207e+002, 1.820395e+000
8.756028e+002, 1.947698e+000
8.760850e+002, 1.839512e+000
8.765671e+002, 1.664617e+000
8.770492e+002, 1.502777e+000
8.775313e+002, 1.380028e+000
8.780134e+002, 1.329722e+000
8.784955e+002, 1.353865e+000
8.789777e+002, 1.408241e+000
8.794598e+002, 1.456145e+000
8.799419e+002, 1.517657e+000
8.804240e+002, 1.687789e+000
8.809061e+002, 1.903361e+000
8.813882e+002, 1.861124e+000
8.818704e+002, 1.534060e+000
8.823525e+002, 1.323659e+000
8.828346e+002, 1.501037e+000
8.833167e+002, 1.876756e+000
8.837988e+002, 2.052075e+000
8.842809e+002, 1.998464e+000
8.847631e+002, 1.964099e+000
8.852452e+002, 1.965966e+000
8.857273e+002, 1.942739e+000
8.862094e+002, 1.850490e+000
8.866915e+002, 1.747146e+000
8.871736e+002, 1.691863e+000
8.876558e+002, 1.683996e+000
8.881379e+002, 1.707680e+000
8.886200e+002, 1.840414e+000
8.891021e+002, 1.894722e+000
8.895842e+002, 1.752441e+000
8.900663e+002, 1.602826e+000
8.905485e+002, 1.569299e+000
8.910306e+002, 1.629689e+000
8.915127e+002, 1.742660e+000
8.919948e+002, 1.901875e+000
8.924769e+002, 2.005523e+000
8.929590e+002, 1.945462e+000
8.934412e+002, 1.833880e+000
8.939233e+002, 1.783255e+000
8.944054e+002, 1.776513e+000
8.948875e+002, 1.778074e+000
8.953696e+002, 1.776248e+000
8.958517e+002, 1.758671e+000
8.963339e+002, 1.711220e+000
8.968160e+002, 1.659889e+000
8.972981e+002, 1.687881e+000
8.977802e+002, 1.777772e+000
8.982623e+002, 1.716347e+000
8.987444e+002, 1.466075e+000
8.992266e+002, 1.310907e+000
8.997087e+002, 1.411168e+000
9.001908e+002, 1.596185e+000
9.006729e+002, 1.599406e+000
9.011550e+002, 1.407546e+000
9.016371e+002, 1.339366e+000
9.021193e+002, 1.473694e+000
9.026014e+002, 1.585170e+000
9.030835e+002, 1.623378e+000
9.035656e+002, 1.634684e+000
9.040477e+002, 1.641495e+000
9.045298e+002, 1.646975e+000
9.050120e+002, 1.664215e+000
9.054941e+002, 1.715513e+000
9.059762e+002, 1.718283e+000
9.064583e+002, 1.583451e+000
9.069404e+002, 1.467690e+000
9.074225e+002, 1.511827e+000
9.079047e+002, 1.609250e+000
9.083868e+002, 1.581076e+000
9.088689e+002, 1.422828e+000
9.093510e+002, 1.319650e+000
9.098331e+002, 1.413543e+000
9.103152e+002, 1.555784e+000
9.107974e+002, 1.577047e+000
9.112795e+002, 1.545943e+000
9.117616e+002, 1.628444e+000
9.122437e+002, 1.799240e+000
9.127258e+002, 1.849631e+000
9.132079e+002, 1.680402e+000
9.136901e+002, 1.450621e+000
9.141722e+002, 1.376717e+000
9.146543e+002, 1.431556e+000
9.151364e+002, 1.432239e+000
9.156185e+002, 1.373213e+000
9.161006e+002, 1.475200e+000
9.165828e+002, 1.852432e+000
9.170649e+002, 2.119433e+000
9.175470e+002, 1.910970e+000
9.180291e+002, 1.382262e+000
9.185112e+002, 1.098612e+000
9.189933e+002, 1.119727e+000
9.194755e+002, 1.238204e+000
9.199576e+002, 1.572923e+000
9.204397e+002, 1.832161e+000
9.209218e+002, 1.854794e+000
9.214039e+002, 1.774250e+000
9.218860e+002, 1.745245e+000
9.223682e+002, 1.764287e+000
9.228503e+002, 1.690540e+000
9.233324e+002, 1.268547e+000
9.238145e+002, 1.070971e+000
9.242966e+002, 1.501096e+000
9.247787e+002, 1.999234e+000
9.252609e+002, 2.094025e+000
9.257430e+002, 1.915015e+000
9.262251e+002, 1.794862e+000
9.267072e+002, 1.831253e+000
9.271893e+002, 1.912337e+000
9.276714e+002, 2.072411e+000
9.281536e+002, 2.146116e+000
9.286357e+002, 1.830654e+000
9.291178e+002, 1.349817e+000
9.295999e+002, 1.146496e+000
9.300820e+002, 1.268637e+000
9.305641e+002, 1.481318e+000
9.310463e+002, 1.642504e+000
9.315284e+002, 1.771812e+000
9.320105e+002, 1.940921e+000
9.324926e+002, 2.105770e+000
9.329747e+002, 2.008933e+000
9.334568e+002, 1.660914e+000
9.339390e+002, 1.499426e+000
9.344211e+002, 1.705115e+000
9.349032e+002, 1.952670e+000
9.353853e+002, 1.861939e+000
9.358674e+002, 1.518738e+000
9.363495e+002, 1.452496e+000
9.368317e+002, 1.741438e+000
9.373138e+002, 1.972819e+000
9.377959e+002, 2.116438e+000
9.382780e+002, 2.158272e+000
9.387601e+002, 2.045323e+000
9.392422e+002, 1.861991e+000
9.397244e+002, 1.754296e+000
9.402065e+002, 1.728999e+000
9.406886e+002, 1.740458e+000
9.411707e+002, 1.891321e+000
9.416528e+002, 1.937596e+000
9.421349e+002, 1.692064e+000
9.426171e+002, 1.453818e+000
9.430992e+002, 1.469121e+000
9.435813e+002, 1.665043e+000
9.440634e+002, 1.861673e+000
9.445455e+002, 2.081943e+000
9.450276e+002, 2.079757e+000
9.455098e+002, 1.445071e+000
9.459919e+002, 9.017903e-001
9.464740e+002, 1.028382e+000
9.469561e+002, 1.490359e+000
9.474382e+002, 1.885650e+000
9.479203e+002, 2.117164e+000
9.484025e+002, 2.174114e+000
9.488846e+002, 1.982123e+000
9.493667e+002, 1.791428e+000
9.498488e+002, 1.910116e+000
9.503309e+002, 2.144388e+000
9.508130e+002, 2.204904e+000
9.512952e+002, 2.099157e+000
9.517773e+002, 1.903657e+000
9.522594e+002, 1.658934e+000
9.527415e+002, 1.482552e+000
9.532236e+002, 1.519079e+000
9.537057e+002, 1.662823e+000
9.541878e+002, 1.611643e+000
9.546699e+002, 1.412217e+000
9.551520e+002, 1.413941e+000
9.556342e+002, 1.664986e+000
9.561163e+002, 1.867015e+000
9.565984e+002, 1.857937e+000
9.570805e+002, 1.723728e+000
9.575626e+002, 1.570969e+000
9.580447e+002, 1.402618e+000
9.585269e+002, 1.483925e+000
9.590090e+002, 1.915488e+000
9.594911e+002, 2.147006e+000
9.599732e+002, 1.985128e+000
9.604553e+002, 1.771314e+000
9.609374e+002, 1.765921e+000
9.614196e+002, 1.893516e+000
9.619017e+002, 1.932059e+000
9.623838e+002, 1.807384e+000
9.628659e+002, 1.825529e+000
9.633480e+002, 2.186054e+000
9.638301e+002, 2.417725e+000
9.643123e+002, 2.303255e+000
9.647944e+002, 2.088007e+000
9.652765e+002, 1.979894e+000
9.657586e+002, 1.957476e+000
9.662407e+002, 1.889020e+000
9.667228e+002, 1.679194e+000
9.672050e+002, 1.583393e+000
9.676871e+002, 1.792059e+000
9.681692e+002, 1.981892e+000
9.686513e+002, 1.893593e+000
9.691334e+002, 1.716207e+000
9.696155e+002, 1.743278e+000
9.700977e+002, 1.979681e+000
9.705798e+002, 2.146122e+000
9.710619e+002, 2.104760e+000
9.715440e+002, 1.987292e+000
9.720261e+002, 1.823006e+000
9.725082e+002, 1.666521e+000
9.729904e+002, 1.528418e+000
9.734725e+002, 1.459695e+000
9.739546e+002, 1.626529e+000
9.744367e+002, 2.044091e+000
9.749188e+002, 2.359435e+000
9.754009e+002, 2.224339e+000
9.758831e+002, 1.909076e+000
9.763652e+002, 1.747276e+000
9.768473e+002, 1.691059e+000
9.773294e+002, 1.633267e+000
9.778115e+002, 1.569134e+000
9.782936e+002, 1.566139e+000
9.787758e+002, 1.655928e+000
9.792579e+002, 1.766309e+000
9.797400e+002, 1.830489e+000
9.802221e+002, 1.835262e+000
9.807042e+002, 1.670987e+000
9.811863e+002, 1.374927e+000
9.816685e+002, 1.279152e+000
9.821506e+002, 1.448893e+000
9.826327e+002, 1.638120e+000
9.831148e+002, 1.684297e+000
9.835969e+002, 1.667066e+000
9.840790e+002, 1.754959e+000
9.845612e+002, 1.949330e+000
9.850433e+002, 2.015722e+000
9.855254e+002, 1.929807e+000
9.860075e+002, 1.856775e+000
9.864896e+002, 1.837397e+000
9.869717e+002, 1.850048e+000
9.874539e+002, 1.886444e+000
9.879360e+002, 1.933072e+000
9.884181e+002, 1.948496e+000
9.889002e+002, 1.932661e+000
9.893823e+002, 1.876006e+000
9.898644e+002, 1.704947e+000
9.903466e+002, 1.644279e+000
9.908287e+002, 1.885149e+000
9.913108e+002, 2.129361e+000
9.917929e+002, 2.046569e+000
9.922750e+002, 1.702681e+000
9.927571e+002, 1.490841e+000
9.932393e+002, 1.481569e+000
9.937214e+002, 1.477346e+000
9.942035e+002, 1.494776e+000
9.946856e+002, 1.493524e+000
9.951677e+002, 1.381135e+000
9.956498e+002, 1.295586e+000
9.961320e+002, 1.460030e+000
9.966141e+002, 1.826748e+000
9.970962e+002, 1.997370e+000
9.975783e+002, 1.749447e+000
9.980604e+002, 1.546664e+000
9.985425e+002, 1.510528e+000
9.990247e+002, 1.549027e+000
9.995068e+002, 1.694938e+000
9.999889e+002, 1.832009e+000
1.000471e+003, 1.745337e+000
1.000953e+003, 1.445494e+000
1.001435e+003, 1.276001e+000
1.001917e+003, 1.498917e+000
1.002399e+003, 1.701244e+000
1.002882e+003, 1.600978e+000
1.003364e+003, 1.427819e+000
1.003846e+003, 1.403192e+000
1.004328e+003, 1.472489e+000
1.004810e+003, 1.470860e+000
1.005292e+003, 1.370599e+000
1.005774e+003, 1.330818e+000
1.006256e+003, 1.474226e+000
1.006739e+003, 1.689897e+000
1.007221e+003, 2.003278e+000
1.007703e+003, 2.242390e+000
1.008185e+003, 2.042865e+000
1.008667e+003, 1.551151e+000
1.009149e+003, 1.247923e+000
1.009631e+003, 1.295462e+000
1.010113e+003, 1.446879e+000
1.010595e+003, 1.472004e+000
1.011078e+003, 1.490727e+000
1.011560e+003, 1.796570e+000
1.012042e+003, 2.204548e+000
1.012524e+003, 2.219765e+000
1.013006e+003, 1.868519e+000
1.013488e+003, 1.550511e+000
1.013970e+003, 1.441649e+000
1.014452e+003, 1.460734e+000
1.014935e+003, 1.577070e+000
1.015417e+003, 1.705583e+000
1.015899e+003, 1.589368e+000
1.016381e+003, 1.284171e+000
1.016863e+003, 1.005678e+000
1.017345e+003, 8.033610e-001
1.017827e+003, 8.328393e-001
1.018309e+003, 1.184921e+000
1.018791e+003, 1.617119e+000
1.019274e+003, 1.775690e+000
1.019756e+003, 1.730996e+000
1.020238e+003, 1.873420e+000
1.020720e+003, 2.189779e+000
1.021202e+003, 2.313635e+000
1.021684e+003, 2.173308e+000
1.022166e+003, 1.993301e+000
1.022648e+003, 1.900642e+000
1.023130e+003, 1.850787e+000
1.023613e+003, 1.777964e+000
1.024095e+003, 1.681139e+000
1.024577e+003, 1.517004e+000
1.025059e+003, 1.260859e+000
1.025541e+003, 1.169133e+000
1.026023e+003, 1.319086e+000
1.026505e+003, 1.515118e+000
1.026987e+003, 1.661624e+000
1.027469e+003, 1.717860e+000
1.027952e+003, 1.569758e+000
1.028434e+003, 1.197596e+000
1.028916e+003, 1.128733e+000
1.029398e+003, 1.489292e+000
1.029880e+003, 1.694764e+000
1.030362e+003, 1.572747e+000
1.030844e+003, 1.431926e+000
1.031326e+003, 1.500094e+000
1.031809e+003, 1.649069e+000
1.032291e+003, 1.596181e+000
1.032773e+003, 1.296314e+000
1.033255e+003, 1.192227e+000
1.033737e+003, 1.431023e+000
1.034219e+003, 1.529881e+000
1.034701e+003, 1.256997e+000
1.035183e+003, 1.044083e+000
1.035666e+003, 1.243832e+000
1.036148e+003, 1.656446e+000
1.036630e+003, 1.857689e+000
1.037112e+003, 1.804713e+000
1.037594e+003, 1.778459e+000
1.038076e+003, 1.751357e+000
1.038558e+003, 1.798079e+000
1.039040e+003, 2.037589e+000
1.039522e+003, 2.238589e+000
1.040005e+003, 2.262807e+000
1.040487e+003, 2.140437e+000
1.040969e+003, 1.895545e+000
1.041451e+003, 1.467493e+000
1.041933e+003, 1.233919e+000
1.042415e+003, 1.310048e+000
1.042897e+003, 1.427740e+000
1.043379e+003, 1.560262e+000
1.043861e+003, 1.697157e+000
1.044344e+003, 1.837158e+000
1.044826e+003, 1.975065e+000
1.045308e+003, 2.125792e+000
1.045790e+003, 2.314211e+000
1.046272e+003, 2.337809e+000
1.046754e+003, 2.036606e+000
1.047236e+003, 1.760137e+000
1.047718e+003, 1.589251e+000
1.048201e+003, 1.475254e+000
1.048683e+003, 1.367289e+000
1.049165e+003, 1.296143e+000
1.049647e+003, 1.348763e+000
1.050129e+003, 1.551145e+000
1.050611e+003, 1.673352e+000
1.051093e+003, 1.621862e+000
1.051575e+003, 1.551150e+000
1.052057e+003, 1.492148e+000
1.052540e+003, 1.443830e+000
1.053022e+003, 1.372670e+000
1.053504e+003, 1.323345e+000
1.053986e+003, 1.409988e+000
1.054468e+003, 1.653888e+000
1.054950e+003, 1.795606e+000
1.055432e+003, 1.683635e+000
1.055914e+003, 1.571607e+000
1.056396e+003, 1.537182e+000
1.056879e+003, 1.542747e+000
1.057361e+003, 1.623103e+000
1.057843e+003, 1.695717e+000
1.058325e+003, 1.551245e+000
1.058807e+003, 1.170943e+000
1.059289e+003, 1.037804e+000
1.059771e+003, 1.581441e+000
1.060253e+003, 2.030736e+000
1.060736e+003, 2.027013e+000
1.061218e+003, 1.886000e+000
1.061700e+003, 1.800840e+000
1.062182e+003, 1.771347e+000
1.062664e+003, 1.781432e+000
1.063146e+003, 1.821183e+000
1.063628e+003, 1.821151e+000
1.064110e+003, 1.684911e+000
1.064593e+003, 1.605608e+000
1.065075e+003, 1.780376e+000
1.065557e+003, 1.925605e+000
1.066039e+003, 1.728865e+000
1.066521e+003, 1.403729e+000
1.067003e+003, 1.293401e+000
1.067485e+003, 1.438861e+000
1.067967e+003, 1.667059e+000
1.068449e+003, 2.086508e+000
1.068932e+003, 2.274475e+000
1.069414e+003, 1.761771e+000
1.069896e+003, 1.230519e+000
1.070378e+003, 1.255830e+000
1.070860e+003, 1.556076e+000
1.071342e+003, 1.733862e+000
1.071824e+003, 1.724204e+000
1.072306e+003, 1.589692e+000
1.072788e+003, 1.258691e+000
1.073271e+003, 1.024627e+000
1.073753e+003, 1.013116e+000
1.074235e+003, 1.159997e+000
1.074717e+003, 1.570219e+000
1.075199e+003, 2.015018e+000
1.075681e+003, 2.160122e+000
1.076163e+003, 2.037735e+000
1.076645e+003, 2.002589e+000
1.077127e+003, 2.241263e+000
1.077610e+003, 2.366428e+000
1.078092e+003, 2.057029e+000
1.078574e+003, 1.727943e+000
1.079056e+003, 1.655440e+000
1.079538e+003, 1.725552e+000
1.080020e+003, 1.851102e+000
1.080502e+003, 1.971456e+000
1.080984e+003, 1.948746e+000
1.081467e+003, 1.705763e+000
1.081949e+003, 1.495764e+000
1.082431e+003, 1.434731e+000
1.082913e+003, 1.437423e+000
1.083395e+003, 1.423335e+000
1.083877e+003, 1.468371e+000
1.084359e+003, 1.750248e+000
1.084841e+003, 2.148664e+000
1.085323e+003, 2.329878e+000
1.085806e+003, 2.190169e+000
1.086288e+003, 1.998109e+000
1.086770e+003, 1.760375e+000
1.087252e+003, 1.631427e+000
1.087734e+003, 1.825553e+000
1.088216e+003, 2.047856e+000
1.088698e+003, 1.966893e+000
1.089180e+003, 1.710983e+000
1.089662e+003, 1.618285e+000
1.090145e+003, 1.758621e+000
1.090627e+003, 1.818878e+000
1.091109e+003, 1.634792e+000
1.091591e+003, 1.409331e+000
1.092073e+003, 1.132833e+000
1.092555e+003, 9.416593e-001
1.093037e+003, 1.029486e+000
1.093519e+003, 1.240126e+000
1.094002e+003, 1.293456e+000
1.094484e+003, 1.160967e+000
1.094966e+003, 1.064608e+000
1.095448e+003, 9.728502e-001
1.095930e+003, 1.077932e+000
1.096412e+003, 1.720234e+000
1.096894e+003, 2.280145e+000
1.097376e+003, 2.292865e+000
1.097859e+003, 2.029833e+000
1.098341e+003, 1.827873e+000
1.098823e+003, 1.730489e+000
1.099305e+003, 1.712050e+000
1.099787e+003, 1.811744e+000
1.100269e+003, 1.895538e+000
1.100751e+003, 1.957242e+000
1.101233e+003, 1.961458e+000
1.101715e+003, 1.831919e+000
1.102198e+003, 1.681119e+000
1.102680e+003, 1.662812e+000
1.103162e+003, 1.731158e+000
1.103644e+003, 1.685570e+000
1.104126e+003, 1.467136e+000
1.104608e+003, 1.230433e+000
1.105090e+003, 8.357953e-001
1.105572e+003, 6.453800e-001
1.106054e+003, 9.298012e-001
1.106537e+003, 1.332991e+000
1.107019e+003, 1.650172e+000
1.107501e+003, 1.843439e+000
1.107983e+003, 1.808609e+000
1.108465e+003, 1.466124e+000
1.108947e+003, 1.317897e+000
1.109429e+003, 1.598967e+000
1.109911e+003, 1.805101e+000
1.110394e+003, 1.828413e+000
1.110876e+003, 1.756737e+000
1.111358e+003, 1.541823e+000
1.111840e+003, 1.313556e+000
1.112322e+003, 1.316135e+000
1.112804e+003, 1.566963e+000
1.113286e+003, 1.727968e+000
1.113768e+003, 1.804654e+000
1.114250e+003, 1.777981e+000
1.114733e+003, 1.530280e+000
1.115215e+003, 1.338693e+000
1.115697e+003, 1.365731e+000
1.116179e+003, 1.464950e+000
1.116661e+003, 1.461333e+000
1.117143e+003, 1.373730e+000
1.117625e+003, 1.342828e+000
1.118107e+003, 1.390277e+000
1.118589e+003, 1.442827e+000
1.119072e+003, 1.495332e+000
1.119554e+003, 1.566114e+000
1.120036e+003, 1.687582e+000
1.120518e+003, 1.784809e+000
1.121000e+003, 1.783876e+000
1.121482e+003, 1.717593e+000
1.121964e+003, 1.694226e+000
1.122446e+003, 1.743321e+000
1.122929e+003, 1.624763e+000
1.123411e+003, 1.235047e+000
1.123893e+003, 1.048277e+000
1.124375e+003, 1.223280e+000
1.124857e+003, 1.440650e+000
1.125339e+003, 1.493612e+000
1.125821e+003, 1.479496e+000
1.126303e+003, 1.575728e+000
1.126786e+003, 1.771351e+000
1.127268e+003, 1.852210e+000
1.127750e+003, 1.802200e+000
1.128232e+003, 1.788189e+000
1.128714e+003, 1.840912e+000
1.129196e+003, 1.858446e+000
1.129678e+003, 1.794028e+000
1.130160e+003, 1.670335e+000
1.130642e+003, 1.488463e+000
1.131125e+003, 1.306127e+000
1.131607e+003, 1.354286e+000
1.132089e+003, 1.619082e+000
1.132571e+003, 1.905469e+000
1.133053e+003, 2.195975e+000
1.133535e+003, 2.205245e+000
1.134017e+003, 1.847332e+000
1.134499e+003, 1.538156e+000
1.134981e+003, 1.609849e+000
1.135464e+003, 1.872044e+000
1.135946e+003, 2.037085e+000
1.136428e+003, 2.090507e+000
1.136910e+003, 1.873181e+000
1.137392e+003, 1.477146e+000
1.137874e+003, 1.402666e+000
1.138356e+003, 1.690993e+000
1.138838e+003, 1.911736e+000
1.139321e+003, 1.844586e+000
1.139803e+003, 1.690610e+000
1.140285e+003, 1.687688e+000
1.140767e+003, 1.735881e+000
1.141249e+003, 1.633067e+000
1.141731e+003, 1.445702e+000
1.142213e+003, 1.301423e+000
1.142695e+003, 1.216852e+000
1.143177e+003, 1.179560e+000
1.143660e+003, 1.187122e+000
1.144142e+003, 1.270820e+000
1.144624e+003, 1.517756e+000
1.145106e+003, 1.693455e+000
1.145588e+003, 1.405457e+000
1.146070e+003, 1.023796e+000
1.146552e+003, 1.064967e+000
1.147034e+003, 1.348418e+000
1.147516e+003, 1.512833e+000
1.147999e+003, 1.510983e+000
1.148481e+003, 1.478179e+000
1.148963e+003, 1.470241e+000
1.149445e+003, 1.446387e+000
1.149927e+003, 1.324552e+000
1.150409e+003, 1.241671e+000
1.150891e+003, 1.324455e+000
1.151373e+003, 1.475789e+000
1.151856e+003, 1.662088e+000
1.152338e+003, 1.805315e+000
1.152820e+003, 1.718486e+000
1.153302e+003, 1.364700e+000
1.153784e+003, 1.117614e+000
1.154266e+003, 1.150645e+000
1.154748e+003, 1.240388e+000
1.155230e+003, 1.346450e+000
1.155713e+003, 1.450122e+000
1.156195e+003, 1.540509e+000
1.156677e+003, 1.622168e+000
1.157159e+003, 1.745214e+000
1.157641e+003, 1.882226e+000
1.158123e+003, 1.833882e+000
1.158605e+003, 1.404423e+000
1.159087e+003, 1.170126e+000
1.159569e+003, 1.297563e+000
1.160052e+003, 1.445125e+000
1.160534e+003, 1.572488e+000
1.161016e+003, 1.632843e+000
1.161498e+003, 1.560700e+000
1.161980e+003, 1.412853e+000
1.162462e+003, 1.298417e+000
1.162944e+003, 1.208082e+000
1.163426e+003, 1.267088e+000
1.163908e+003, 1.573044e+000
1.164391e+003, 1.734468e+000
1.164873e+003, 1.665035e+000
1.165355e+003, 1.539776e+000
1.165837e+003, 1.414225e+000
1.166319e+003, 1.345219e+000
1.166801e+003, 1.424700e+000
1.167283e+003, 1.591045e+000
1.167765e+003, 1.560624e+000
1.168247e+003, 1.323165e+000
1.168730e+003, 1.212248e+000
1.169212e+003, 1.244440e+000
1.169694e+003, 1.339008e+000
1.170176e+003, 1.476534e+000
1.170658e+003, 1.547603e+000
1.171140e+003, 1.468829e+000
1.171622e+003, 1.337721e+000
1.172104e+003, 1.305421e+000
1.172587e+003, 1.350607e+000
1.173069e+003, 1.428905e+000
1.173551e+003, 1.520004e+000
1.174033e+003, 1.520193e+000
1.174515e+003, 1.444570e+000
1.174997e+003, 1.436350e+000
1.175479e+003, 1.546491e+000
1.175961e+003, 1.697191e+000
1.176443e+003, 1.854237e+000
1.176926e+003, 1.952813e+000
1.177408e+003, 1.892761e+000
1.177890e+003, 1.737334e+000
1.178372e+003, 1.521157e+000
1.178854e+003, 1.307145e+000
1.179336e+003, 1.218438e+000
1.179818e+003, 1.246536e+000
1.180300e+003, 1.271091e+000
1.180782e+003, 1.240989e+000
1.181265e+003, 1.214373e+000
1.181747e+003, 1.218642e+000
1.182229e+003, 1.247593e+000
1.182711e+003, 1.290208e+000
1.183193e+003, 1.361855e+000
1.183675e+003, 1.504067e+000
1.184157e+003, 1.674739e+000
1.184639e+003, 1.824891e+000
1.185122e+003, 1.939474e+000
1.185604e+003, 1.920717e+000
1.186086e+003, 1.633006e+000
1.186568e+003, 1.394911e+000
1.187050e+003, 1.205174e+000
1.187532e+003, 1.142294e+000
1.188014e+003, 1.385980e+000
1.188496e+003, 1.642267e+000
1.188979e+003, 1.572688e+000
1.189461e+003, 1.321851e+000
1.189943e+003, 1.328780e+000
1.190425e+003, 1.662358e+000
1.190907e+003, 1.847811e+000
1.191389e+003, 1.863185e+000
1.191871e+003, 1.765678e+000
1.192353e+003, 1.487004e+000
1.192835e+003, 1.340942e+000
1.193318e+003, 1.525739e+000
1.193800e+003, 1.795452e+000
1.194282e+003, 1.845257e+000
1.194764e+003, 1.733881e+000
1.195246e+003, 1.688908e+000
1.195728e+003, 1.707849e+000
1.196210e+003, 1.717509e+000
1.196692e+003, 1.717779e+000
1.197174e+003, 1.804724e+000
1.197657e+003, 1.993701e+000
1.198139e+003, 2.105352e+000
1.198621e+003, 2.023068e+000
1.199103e+003, 1.886668e+000
1.199585e+003, 1.882920e+000
1.200067e+003, 1.954570e+000
1.200549e+003, 2.038440e+000
1.201031e+003, 2.085920e+000
1.201514e+003, 1.926701e+000
1.201996e+003, 1.637961e+000
1.202478e+003, 1.503914e+000
1.202960e+003, 1.578110e+000
1.203442e+003, 1.628802e+000
1.203924e+003, 1.509985e+000
1.204406e+003, 1.362272e+000
1.204888e+003, 1.237711e+000
1.205370e+003, 1.186854e+000
1.205853e+003, 1.352333e+000
1.206335e+003, 1.541407e+000
1.206817e+003, 1.462760e+000
1.207299e+003, 1.219854e+000
1.207781e+003, 1.144595e+000
1.208263e+003, 1.310682e+000
1.208745e+003, 1.482563e+000
1.209227e+003, 1.684656e+000
1.209709e+003, 1.765585e+000
1.210192e+003, 1.594628e+000
1.210674e+003, 1.413978e+000
1.211156e+003, 1.314769e+000
1.211638e+003, 1.289908e+000
1.212120e+003, 1.356819e+000
1.212602e+003, 1.488079e+000
1.213084e+003, 1.580639e+000
1.213566e+003, 1.633868e+000
1.214049e+003, 1.655215e+000
1.214531e+003, 1.654688e+000
1.215013e+003, 1.551039e+000
1.215495e+003, 1.280331e+000
1.215977e+003, 1.160555e+000
1.216459e+003, 1.382942e+000
1.216941e+003, 1.718044e+000
1.217423e+003, 1.896745e+000
1.217906e+003, 1.945788e+000
1.218388e+003, 1.931128e+000
1.218870e+003, 1.860823e+000
1.219352e+003, 1.738829e+000
1.219834e+003, 1.594358e+000
1.220316e+003, 1.599357e+000
1.220798e+003, 1.763179e+000
1.221280e+003, 1.881874e+000
1.221762e+003, 1.845590e+000
1.222245e+003, 1.732978e+000
1.222727e+003, 1.577500e+000
1.223209e+003, 1.433842e+000
1.223691e+003, 1.367884e+000
1.224173e+003, 1.349205e+000
1.224655e+003, 1.346472e+000
1.225137e+003, 1.355916e+000
1.225619e+003, 1.365259e+000
1.226101e+003, 1.383547e+000
1.226584e+003, 1.484423e+000
1.227066e+003, 1.767296e+000
1.227548e+003, 1.911878e+000
1.228030e+003, 1.636001e+000
1.228512e+003, 1.426581e+000
1.228994e+003, 1.579905e+000
1.229476e+003, 1.787927e+000
1.229958e+003, 1.842445e+000
1.230441e+003, 1.763931e+000
1.230923e+003, 1.546072e+000
1.231405e+003, 1.199670e+000
1.231887e+003, 1.146770e+000
1.232369e+003, 1.549388e+000
1.232851e+003, 1.732759e+000
1.233333e+003, 1.600239e+000
1.233815e+003, 1.499988e+000
1.234297e+003, 1.551191e+000
1.234780e+003, 1.571144e+000
1.235262e+003, 1.399393e+000
1.235744e+003, 1.238031e+000
1.236226e+003, 1.481659e+000
1.236708e+003, 2.008334e+000
1.237190e+003, 2.372542e+000
1.237672e+003, 2.555036e+000
1.238154e+003, 2.391100e+000
1.238636e+003, 1.948275e+000
1.239119e+003, 1.556592e+000
1.239601e+003, 1.331922e+000
1.240083e+003, 1.320627e+000
1.240565e+003, 1.595196e+000
1.241047e+003, 1.865988e+000
1.241529e+003, 1.815250e+000
1.242011e+003, 1.667822e+000
1.242493e+003, 1.623337e+000
1.242975e+003, 1.630364e+000
1.243458e+003, 1.615562e+000
1.243940e+003, 1.593267e+000
1.244422e+003, 1.627831e+000
1.244904e+003, 1.721015e+000
1.245386e+003, 1.755827e+000
1.245868e+003, 1.695606e+000
1.246350e+003, 1.586925e+000
1.246832e+003, 1.290239e+000
1.247315e+003, 1.149270e+000
1.247797e+003, 1.423707e+000
1.248279e+003, 1.714042e+000
1.248761e+003, 1.715824e+000
1.249243e+003, 1.576053e+000
1.249725e+003, 1.554194e+000
1.250207e+003, 1.645770e+000
1.250689e+003, 1.797875e+000
1.251172e+003, 2.031049e+000
1.251654e+003, 2.073673e+000
1.252136e+003, 1.898243e+000
1.252618e+003, 1.734721e+000
1.253100e+003, 1.652159e+000
1.253582e+003, 1.584532e+000
1.254064e+003, 1.484851e+000
1.254546e+003, 1.399206e+000
1.255028e+003, 1.395755e+000
1.255510e+003, 1.448678e+000
1.255993e+003, 1.541717e+000
1.256475e+003, 1.637135e+000
1.256957e+003, 1.650839e+000
1.257439e+003, 1.606599e+000
1.257921e+003, 1.596210e+000
1.258403e+003, 1.620865e+000
1.258885e+003, 1.546556e+000
1.259367e+003, 1.255146e+000
1.259850e+003, 1.097019e+000
1.260332e+003, 1.363373e+000
1.260814e+003, 1.631803e+000
1.261296e+003, 1.722199e+000
1.261778e+003, 1.718391e+000
1.262260e+003, 1.595356e+000
1.262742e+003, 1.478607e+000
1.263224e+003, 1.617900e+000
1.263707e+003, 1.962952e+000
1.264189e+003, 2.071177e+000
1.264671e+003, 1.854738e+000
1.265153e+003, 1.674414e+000
1.265635e+003, 1.488860e+000
1.266117e+003, 1.597400e+000
1.266599e+003, 2.130436e+000
1.267081e+003, 2.510468e+000
1.267563e+003, 2.406409e+000
1.268046e+003, 2.074864e+000
1.268528e+003, 1.767239e+000
1.269010e+003, 1.554661e+000
1.269492e+003, 1.684131e+000
1.269974e+003, 2.001249e+000
1.270456e+003, 2.124995e+000
1.270938e+003, 2.087606e+000
1.271420e+003, 2.038145e+000
1.271902e+003, 1.994816e+000
1.272385e+003, 1.867347e+000
1.272867e+003, 1.621044e+000
1.273349e+003, 1.483756e+000
1.273831e+003, 1.720791e+000
1.274313e+003, 1.919816e+000
1.274795e+003, 1.774374e+000
1.275277e+003, 1.636322e+000
1.275759e+003, 1.822459e+000
1.276242e+003, 2.078801e+000
1.276724e+003, 2.061263e+000
1.277206e+003, 1.868403e+000
1.277688e+003, 1.890607e+000
1.278170e+003, 2.182131e+000
1.278652e+003, 2.161895e+000
1.279134e+003, 1.693958e+000
1.279616e+003, 1.417650e+000
1.280099e+003, 1.425577e+000
1.280581e+003, 1.498266e+000
1.281063e+003, 1.562683e+000
1.281545e+003, 1.615817e+000
1.282027e+003, 1.653810e+000
1.282509e+003, 1.690753e+000
1.282991e+003, 1.759181e+000
1.283473e+003, 1.839707e+000
1.283955e+003, 1.890995e+000
##END=



