##NAMES=Tiemannite
##RRUFFID=R060463
##IDEAL CHEMISTRY=Hg^2+^Se^2-^
##LOCALITY=Lucky Boy mine, Cottonwood Creek, Marysvale, Piute County, Utah, USA
##OWNER=RRUFF
##SOURCE=Michael Scott
##DESCRIPTION=Gray metallic bleb
##STATUS=The identification of this mineral is confirmed by single-crystal X-ray diffraction and chemical analysis.
##URL=rruff.info/R060463
##MEASURED CHEMISTRY=Hg_1.02_Se_0.98_
9.112140e+001, 0.000000e+000
9.160352e+001, 6.213503e+001
9.208563e+001, 6.148766e+001
9.256775e+001, 6.140925e+001
9.304987e+001, 6.215842e+001
9.353198e+001, 6.316132e+001
9.401410e+001, 6.383204e+001
9.449622e+001, 6.384607e+001
9.497833e+001, 6.295340e+001
9.546045e+001, 6.090139e+001
9.594257e+001, 5.766343e+001
9.642468e+001, 5.531116e+001
9.690680e+001, 5.400783e+001
9.738892e+001, 5.323581e+001
9.787103e+001, 5.323149e+001
9.835315e+001, 5.366307e+001
9.883527e+001, 5.375660e+001
9.931738e+001, 5.276955e+001
9.979950e+001, 5.019165e+001
1.002816e+002, 4.839912e+001
1.007637e+002, 4.811418e+001
1.012458e+002, 4.811245e+001
1.017280e+002, 4.713317e+001
1.022101e+002, 4.477697e+001
1.026922e+002, 4.201319e+001
1.031743e+002, 4.048139e+001
1.036564e+002, 4.015860e+001
1.041385e+002, 3.986016e+001
1.046207e+002, 3.893862e+001
1.051028e+002, 3.765154e+001
1.055849e+002, 3.696196e+001
1.060670e+002, 3.762400e+001
1.065491e+002, 3.857003e+001
1.070313e+002, 3.860232e+001
1.075134e+002, 3.757377e+001
1.079955e+002, 3.618648e+001
1.084776e+002, 3.510304e+001
1.089597e+002, 3.435646e+001
1.094418e+002, 3.376338e+001
1.099240e+002, 3.357906e+001
1.104061e+002, 3.336651e+001
1.108882e+002, 3.274454e+001
1.113703e+002, 3.154975e+001
1.118524e+002, 2.998903e+001
1.123345e+002, 2.859253e+001
1.128167e+002, 2.724631e+001
1.132988e+002, 2.627541e+001
1.137809e+002, 2.598518e+001
1.142630e+002, 2.601351e+001
1.147451e+002, 2.585654e+001
1.152272e+002, 2.517066e+001
1.157094e+002, 2.400251e+001
1.161915e+002, 2.338526e+001
1.166736e+002, 2.353849e+001
1.171557e+002, 2.391721e+001
1.176378e+002, 2.443912e+001
1.181199e+002, 2.505515e+001
1.186021e+002, 2.570306e+001
1.190842e+002, 2.639435e+001
1.195663e+002, 2.710921e+001
1.200484e+002, 2.733174e+001
1.205305e+002, 2.632968e+001
1.210126e+002, 2.528051e+001
1.214948e+002, 2.544095e+001
1.219769e+002, 2.707569e+001
1.224590e+002, 2.889821e+001
1.229411e+002, 2.951397e+001
1.234232e+002, 2.921124e+001
1.239053e+002, 2.870697e+001
1.243875e+002, 2.796012e+001
1.248696e+002, 2.716726e+001
1.253517e+002, 2.691036e+001
1.258338e+002, 2.744716e+001
1.263159e+002, 2.831679e+001
1.267980e+002, 2.934397e+001
1.272802e+002, 3.044781e+001
1.277623e+002, 3.125917e+001
1.282444e+002, 3.130010e+001
1.287265e+002, 3.046269e+001
1.292086e+002, 2.999798e+001
1.296907e+002, 3.052522e+001
1.301729e+002, 3.107965e+001
1.306550e+002, 3.124359e+001
1.311371e+002, 3.095733e+001
1.316192e+002, 3.040627e+001
1.321013e+002, 2.981920e+001
1.325834e+002, 2.911408e+001
1.330656e+002, 2.853586e+001
1.335477e+002, 2.813259e+001
1.340298e+002, 2.780622e+001
1.345119e+002, 2.752200e+001
1.349940e+002, 2.725991e+001
1.354761e+002, 2.696526e+001
1.359583e+002, 2.651152e+001
1.364404e+002, 2.565254e+001
1.369225e+002, 2.493764e+001
1.374046e+002, 2.451295e+001
1.378867e+002, 2.422410e+001
1.383688e+002, 2.385860e+001
1.388510e+002, 2.331181e+001
1.393331e+002, 2.263273e+001
1.398152e+002, 2.197984e+001
1.402973e+002, 2.131776e+001
1.407794e+002, 2.071662e+001
1.412615e+002, 2.020301e+001
1.417437e+002, 1.977566e+001
1.422258e+002, 1.942902e+001
1.427079e+002, 1.921396e+001
1.431900e+002, 1.905578e+001
1.436721e+002, 1.879750e+001
1.441542e+002, 1.839920e+001
1.446364e+002, 1.793826e+001
1.451185e+002, 1.746322e+001
1.456006e+002, 1.696239e+001
1.460827e+002, 1.652018e+001
1.465648e+002, 1.612661e+001
1.470469e+002, 1.583045e+001
1.475291e+002, 1.573154e+001
1.480112e+002, 1.593517e+001
1.484933e+002, 1.628308e+001
1.489754e+002, 1.642064e+001
1.494575e+002, 1.628653e+001
1.499396e+002, 1.601952e+001
1.504218e+002, 1.555580e+001
1.509039e+002, 1.503624e+001
1.513860e+002, 1.465775e+001
1.518681e+002, 1.455267e+001
1.523502e+002, 1.468589e+001
1.528323e+002, 1.475496e+001
1.533145e+002, 1.474923e+001
1.537966e+002, 1.467778e+001
1.542787e+002, 1.453241e+001
1.547608e+002, 1.432068e+001
1.552429e+002, 1.404081e+001
1.557250e+002, 1.367248e+001
1.562072e+002, 1.319869e+001
1.566893e+002, 1.291894e+001
1.571714e+002, 1.297241e+001
1.576535e+002, 1.304898e+001
1.581356e+002, 1.304834e+001
1.586177e+002, 1.295600e+001
1.590999e+002, 1.276740e+001
1.595820e+002, 1.243564e+001
1.600641e+002, 1.191362e+001
1.605462e+002, 1.173532e+001
1.610283e+002, 1.223757e+001
1.615104e+002, 1.283746e+001
1.619926e+002, 1.302855e+001
1.624747e+002, 1.274888e+001
1.629568e+002, 1.242847e+001
1.634389e+002, 1.268880e+001
1.639210e+002, 1.348118e+001
1.644031e+002, 1.369902e+001
1.648853e+002, 1.257581e+001
1.653674e+002, 1.093559e+001
1.658495e+002, 9.994534e+000
1.663316e+002, 9.986873e+000
1.668137e+002, 1.052269e+001
1.672958e+002, 1.158316e+001
1.677780e+002, 1.298944e+001
1.682601e+002, 1.392863e+001
1.687422e+002, 1.377347e+001
1.692243e+002, 1.277333e+001
1.697064e+002, 1.191021e+001
1.701885e+002, 1.124200e+001
1.706707e+002, 1.081436e+001
1.711528e+002, 1.063456e+001
1.716349e+002, 1.068393e+001
1.721170e+002, 1.088245e+001
1.725991e+002, 1.127555e+001
1.730812e+002, 1.188476e+001
1.735634e+002, 1.222662e+001
1.740455e+002, 1.194341e+001
1.745276e+002, 1.163832e+001
1.750097e+002, 1.163759e+001
1.754918e+002, 1.189805e+001
1.759739e+002, 1.211580e+001
1.764561e+002, 1.182826e+001
1.769382e+002, 1.066437e+001
1.774203e+002, 1.028465e+001
1.779024e+002, 1.164647e+001
1.783845e+002, 1.296194e+001
1.788666e+002, 1.297769e+001
1.793488e+002, 1.170688e+001
1.798309e+002, 1.027606e+001
1.803130e+002, 1.034389e+001
1.807951e+002, 1.316724e+001
1.812772e+002, 1.462174e+001
1.817593e+002, 1.392459e+001
1.822415e+002, 1.256043e+001
1.827236e+002, 1.153437e+001
1.832057e+002, 1.110798e+001
1.836878e+002, 1.098754e+001
1.841699e+002, 1.071596e+001
1.846520e+002, 1.003253e+001
1.851342e+002, 9.765371e+000
1.856163e+002, 1.037040e+001
1.860984e+002, 1.121403e+001
1.865805e+002, 1.153683e+001
1.870626e+002, 1.108998e+001
1.875447e+002, 1.037218e+001
1.880269e+002, 1.029300e+001
1.885090e+002, 1.103591e+001
1.889911e+002, 1.155057e+001
1.894732e+002, 1.147698e+001
1.899553e+002, 1.104396e+001
1.904374e+002, 1.060312e+001
1.909196e+002, 1.020113e+001
1.914017e+002, 9.938135e+000
1.918838e+002, 1.003014e+001
1.923659e+002, 1.050256e+001
1.928480e+002, 1.088830e+001
1.933301e+002, 1.099703e+001
1.938123e+002, 1.085061e+001
1.942944e+002, 1.048028e+001
1.947765e+002, 9.690448e+000
1.952586e+002, 8.935950e+000
1.957407e+002, 8.749624e+000
1.962228e+002, 9.142374e+000
1.967050e+002, 9.516883e+000
1.971871e+002, 9.357245e+000
1.976692e+002, 8.692736e+000
1.981513e+002, 8.183229e+000
1.986334e+002, 7.920990e+000
1.991155e+002, 7.913113e+000
1.995977e+002, 8.261922e+000
2.000798e+002, 8.946010e+000
2.005619e+002, 9.643026e+000
2.010440e+002, 1.003615e+001
2.015261e+002, 1.008960e+001
2.020082e+002, 1.008705e+001
2.024904e+002, 9.997994e+000
2.029725e+002, 9.905713e+000
2.034546e+002, 9.902413e+000
2.039367e+002, 9.975970e+000
2.044188e+002, 9.986814e+000
2.049009e+002, 9.710466e+000
2.053831e+002, 8.988189e+000
2.058652e+002, 8.471447e+000
2.063473e+002, 8.199730e+000
2.068294e+002, 8.102012e+000
2.073115e+002, 8.256846e+000
2.077936e+002, 8.620627e+000
2.082758e+002, 8.970408e+000
2.087579e+002, 8.951051e+000
2.092400e+002, 8.243502e+000
2.097221e+002, 7.873977e+000
2.102042e+002, 7.997525e+000
2.106863e+002, 8.285883e+000
2.111685e+002, 8.538692e+000
2.116506e+002, 8.707413e+000
2.121327e+002, 8.857467e+000
2.126148e+002, 9.115200e+000
2.130969e+002, 9.749308e+000
2.135790e+002, 9.851052e+000
2.140612e+002, 8.845317e+000
2.145433e+002, 7.700981e+000
2.150254e+002, 7.249565e+000
2.155075e+002, 7.667382e+000
2.159896e+002, 8.442007e+000
2.164717e+002, 8.855279e+000
2.169539e+002, 8.725907e+000
2.174360e+002, 8.622508e+000
2.179181e+002, 8.479205e+000
2.184002e+002, 8.402541e+000
2.188823e+002, 8.608506e+000
2.193644e+002, 9.152520e+000
2.198466e+002, 9.653338e+000
2.203287e+002, 9.494353e+000
2.208108e+002, 8.512789e+000
2.212929e+002, 7.814374e+000
2.217750e+002, 7.702927e+000
2.222571e+002, 7.892664e+000
2.227393e+002, 8.060931e+000
2.232214e+002, 8.148211e+000
2.237035e+002, 8.167888e+000
2.241856e+002, 8.038855e+000
2.246677e+002, 7.769344e+000
2.251498e+002, 7.741292e+000
2.256320e+002, 8.395827e+000
2.261141e+002, 9.270351e+000
2.265962e+002, 9.512843e+000
2.270783e+002, 8.834438e+000
2.275604e+002, 7.965230e+000
2.280425e+002, 7.723882e+000
2.285247e+002, 7.958282e+000
2.290068e+002, 8.043670e+000
2.294889e+002, 7.635089e+000
2.299710e+002, 6.920122e+000
2.304531e+002, 6.238991e+000
2.309352e+002, 5.489249e+000
2.314174e+002, 5.089874e+000
2.318995e+002, 5.673024e+000
2.323816e+002, 6.886998e+000
2.328637e+002, 7.754570e+000
2.333458e+002, 7.570618e+000
2.338279e+002, 6.653226e+000
2.343101e+002, 5.998945e+000
2.347922e+002, 5.595695e+000
2.352743e+002, 5.567131e+000
2.357564e+002, 6.239040e+000
2.362385e+002, 7.282106e+000
2.367206e+002, 8.014695e+000
2.372028e+002, 7.881438e+000
2.376849e+002, 7.115686e+000
2.381670e+002, 6.739725e+000
2.386491e+002, 6.997830e+000
2.391312e+002, 7.306344e+000
2.396133e+002, 7.543412e+000
2.400955e+002, 7.647514e+000
2.405776e+002, 7.539518e+000
2.410597e+002, 7.207059e+000
2.415418e+002, 6.615541e+000
2.420239e+002, 5.492730e+000
2.425060e+002, 2.815126e+000
2.429882e+002, 1.072608e+000
2.434703e+002, 1.328226e+000
2.439524e+002, 2.805347e+000
2.444345e+002, 4.446803e+000
2.449166e+002, 5.708723e+000
2.453987e+002, 6.596851e+000
2.458809e+002, 7.098551e+000
2.463630e+002, 6.981742e+000
2.468451e+002, 6.731174e+000
2.473272e+002, 6.269037e+000
2.478093e+002, 5.789099e+000
2.482914e+002, 5.584488e+000
2.487736e+002, 5.838178e+000
2.492557e+002, 6.385295e+000
2.497378e+002, 6.538557e+000
2.502199e+002, 5.756993e+000
2.507020e+002, 5.241854e+000
2.511841e+002, 5.334386e+000
2.516663e+002, 5.711602e+000
2.521484e+002, 6.004096e+000
2.526305e+002, 6.035063e+000
2.531126e+002, 5.858016e+000
2.535947e+002, 5.634493e+000
2.540768e+002, 5.139345e+000
2.545590e+002, 4.889128e+000
2.550411e+002, 5.078776e+000
2.555232e+002, 5.462028e+000
2.560053e+002, 5.766616e+000
2.564874e+002, 5.876780e+000
2.569695e+002, 5.875773e+000
2.574517e+002, 5.965418e+000
2.579338e+002, 6.415243e+000
2.584159e+002, 6.622509e+000
2.588980e+002, 6.502296e+000
2.593801e+002, 6.173106e+000
2.598622e+002, 5.653018e+000
2.603444e+002, 4.960208e+000
2.608265e+002, 4.317914e+000
2.613086e+002, 4.165748e+000
2.617907e+002, 5.066875e+000
2.622728e+002, 5.579139e+000
2.627549e+002, 5.434636e+000
2.632371e+002, 5.016021e+000
2.637192e+002, 4.608458e+000
2.642013e+002, 4.301455e+000
2.646834e+002, 4.207975e+000
2.651655e+002, 4.560339e+000
2.656476e+002, 5.752394e+000
2.661298e+002, 6.390115e+000
2.666119e+002, 5.919051e+000
2.670940e+002, 5.174932e+000
2.675761e+002, 5.065444e+000
2.680582e+002, 5.743216e+000
2.685403e+002, 6.464940e+000
2.690225e+002, 6.262835e+000
2.695046e+002, 4.795662e+000
2.699867e+002, 4.007253e+000
2.704688e+002, 4.566818e+000
2.709509e+002, 5.435280e+000
2.714330e+002, 5.616086e+000
2.719152e+002, 5.019743e+000
2.723973e+002, 4.424025e+000
2.728794e+002, 4.687439e+000
2.733615e+002, 5.882165e+000
2.738436e+002, 6.401857e+000
2.743257e+002, 5.562946e+000
2.748079e+002, 4.505548e+000
2.752900e+002, 4.253882e+000
2.757721e+002, 4.810120e+000
2.762542e+002, 5.294891e+000
2.767363e+002, 4.944097e+000
2.772184e+002, 3.880908e+000
2.777006e+002, 3.336203e+000
2.781827e+002, 3.663579e+000
2.786648e+002, 4.236610e+000
2.791469e+002, 4.675294e+000
2.796290e+002, 4.979764e+000
2.801111e+002, 5.246990e+000
2.805933e+002, 5.582475e+000
2.810754e+002, 5.892275e+000
2.815575e+002, 5.924834e+000
2.820396e+002, 5.537064e+000
2.825217e+002, 5.051350e+000
2.830038e+002, 4.475023e+000
2.834860e+002, 3.890740e+000
2.839681e+002, 3.773277e+000
2.844502e+002, 4.510288e+000
2.849323e+002, 5.719487e+000
2.854144e+002, 6.654618e+000
2.858965e+002, 7.467294e+000
2.863787e+002, 7.694301e+000
2.868608e+002, 6.492887e+000
2.873429e+002, 4.354228e+000
2.878250e+002, 3.172089e+000
2.883071e+002, 3.931024e+000
2.887892e+002, 5.426074e+000
2.892714e+002, 5.887895e+000
2.897535e+002, 5.247923e+000
2.902356e+002, 4.401551e+000
2.907177e+002, 3.454309e+000
2.911998e+002, 2.603935e+000
2.916819e+002, 2.492093e+000
2.921641e+002, 3.532244e+000
2.926462e+002, 4.815176e+000
2.931283e+002, 5.324626e+000
2.936104e+002, 5.150914e+000
2.940925e+002, 4.841916e+000
2.945746e+002, 4.565963e+000
2.950568e+002, 4.307907e+000
2.955389e+002, 3.994210e+000
2.960210e+002, 3.556660e+000
2.965031e+002, 3.244197e+000
2.969852e+002, 3.437387e+000
2.974673e+002, 3.955092e+000
2.979495e+002, 4.299409e+000
2.984316e+002, 4.115070e+000
2.989137e+002, 3.738963e+000
2.993958e+002, 3.738845e+000
2.998779e+002, 4.212625e+000
3.003600e+002, 4.645508e+000
3.008422e+002, 4.616958e+000
3.013243e+002, 4.322274e+000
3.018064e+002, 4.082263e+000
3.022885e+002, 3.998688e+000
3.027706e+002, 3.964177e+000
3.032527e+002, 3.813004e+000
3.037349e+002, 3.528138e+000
3.042170e+002, 3.355865e+000
3.046991e+002, 3.363885e+000
3.051812e+002, 3.594034e+000
3.056633e+002, 4.172052e+000
3.061454e+002, 5.279614e+000
3.066276e+002, 6.322703e+000
3.071097e+002, 6.817151e+000
3.075918e+002, 6.775007e+000
3.080739e+002, 6.355895e+000
3.085560e+002, 5.299606e+000
3.090381e+002, 4.159341e+000
3.095203e+002, 3.561610e+000
3.100024e+002, 3.553465e+000
3.104845e+002, 3.737242e+000
3.109666e+002, 3.922267e+000
3.114487e+002, 4.095952e+000
3.119308e+002, 4.161418e+000
3.124130e+002, 3.981510e+000
3.128951e+002, 3.868028e+000
3.133772e+002, 4.292198e+000
3.138593e+002, 5.141849e+000
3.143414e+002, 5.619743e+000
3.148235e+002, 4.983402e+000
3.153057e+002, 3.695989e+000
3.157878e+002, 2.977605e+000
3.162699e+002, 3.057641e+000
3.167520e+002, 3.409431e+000
3.172341e+002, 3.875026e+000
3.177162e+002, 4.323334e+000
3.181984e+002, 4.404982e+000
3.186805e+002, 3.539524e+000
3.191626e+002, 2.442736e+000
3.196447e+002, 2.434176e+000
3.201268e+002, 3.756568e+000
3.206089e+002, 4.949991e+000
3.210911e+002, 4.960816e+000
3.215732e+002, 4.387175e+000
3.220553e+002, 4.023986e+000
3.225374e+002, 4.067739e+000
3.230195e+002, 4.299529e+000
3.235016e+002, 4.586740e+000
3.239838e+002, 4.933464e+000
3.244659e+002, 5.064497e+000
3.249480e+002, 4.708137e+000
3.254301e+002, 4.192853e+000
3.259122e+002, 3.936084e+000
3.263943e+002, 3.993600e+000
3.268765e+002, 4.119483e+000
3.273586e+002, 4.091658e+000
3.278407e+002, 3.958161e+000
3.283228e+002, 4.024340e+000
3.288049e+002, 4.500976e+000
3.292870e+002, 4.998939e+000
3.297692e+002, 5.100602e+000
3.302513e+002, 4.838025e+000
3.307334e+002, 4.527219e+000
3.312155e+002, 4.420324e+000
3.316976e+002, 4.365531e+000
3.321797e+002, 3.874354e+000
3.326619e+002, 2.674345e+000
3.331440e+002, 1.663277e+000
3.336261e+002, 1.793558e+000
3.341082e+002, 2.692534e+000
3.345903e+002, 3.554370e+000
3.350724e+002, 4.272865e+000
3.355546e+002, 4.755124e+000
3.360367e+002, 4.863072e+000
3.365188e+002, 4.585806e+000
3.370009e+002, 3.997935e+000
3.374830e+002, 2.606354e+000
3.379651e+002, 1.116316e+000
3.384473e+002, 9.627440e-001
3.389294e+002, 3.125496e+000
3.394115e+002, 5.347494e+000
3.398936e+002, 5.551076e+000
3.403757e+002, 4.007540e+000
3.408578e+002, 2.747370e+000
3.413400e+002, 2.522549e+000
3.418221e+002, 2.964839e+000
3.423042e+002, 3.555052e+000
3.427863e+002, 4.382003e+000
3.432684e+002, 4.906458e+000
3.437505e+002, 4.583808e+000
3.442327e+002, 3.772696e+000
3.447148e+002, 3.374956e+000
3.451969e+002, 3.656610e+000
3.456790e+002, 4.180161e+000
3.461611e+002, 4.546342e+000
3.466432e+002, 4.770729e+000
3.471254e+002, 4.754257e+000
3.476075e+002, 4.160474e+000
3.480896e+002, 3.461665e+000
3.485717e+002, 3.395365e+000
3.490538e+002, 4.050022e+000
3.495359e+002, 4.573149e+000
3.500181e+002, 4.180799e+000
3.505002e+002, 3.105614e+000
3.509823e+002, 2.477066e+000
3.514644e+002, 2.604426e+000
3.519465e+002, 2.985423e+000
3.524286e+002, 3.376638e+000
3.529108e+002, 3.760302e+000
3.533929e+002, 4.077814e+000
3.538750e+002, 4.332373e+000
3.543571e+002, 4.461771e+000
3.548392e+002, 4.298329e+000
3.553214e+002, 3.723100e+000
3.558035e+002, 3.172947e+000
3.562856e+002, 2.664839e+000
3.567677e+002, 2.312605e+000
3.572498e+002, 2.411874e+000
3.577319e+002, 3.100375e+000
3.582141e+002, 3.968529e+000
3.586962e+002, 4.512357e+000
3.591783e+002, 4.742664e+000
3.596604e+002, 4.593462e+000
3.601425e+002, 3.549094e+000
3.606246e+002, 2.432338e+000
3.611068e+002, 2.138362e+000
3.615889e+002, 2.702076e+000
3.620710e+002, 3.370389e+000
3.625531e+002, 3.511245e+000
3.630352e+002, 3.125042e+000
3.635173e+002, 2.874984e+000
3.639995e+002, 2.653116e+000
3.644816e+002, 2.654440e+000
3.649637e+002, 3.241054e+000
3.654458e+002, 4.144714e+000
3.659279e+002, 4.674094e+000
3.664100e+002, 4.442989e+000
3.668922e+002, 3.657384e+000
3.673743e+002, 2.973596e+000
3.678564e+002, 2.292633e+000
3.683385e+002, 1.839921e+000
3.688206e+002, 1.689345e+000
3.693027e+002, 1.763657e+000
3.697849e+002, 2.078434e+000
3.702670e+002, 2.615428e+000
3.707491e+002, 3.116608e+000
3.712312e+002, 3.199132e+000
3.717133e+002, 2.660309e+000
3.721954e+002, 2.298167e+000
3.726776e+002, 2.163302e+000
3.731597e+002, 2.147224e+000
3.736418e+002, 2.169142e+000
3.741239e+002, 2.240952e+000
3.746060e+002, 2.464973e+000
3.750881e+002, 2.967437e+000
3.755703e+002, 3.728240e+000
3.760524e+002, 4.106476e+000
3.765345e+002, 3.889214e+000
3.770166e+002, 3.547512e+000
3.774987e+002, 2.754052e+000
3.779808e+002, 2.011737e+000
3.784630e+002, 2.153349e+000
3.789451e+002, 3.569484e+000
3.794272e+002, 5.681415e+000
3.799093e+002, 7.129362e+000
3.803914e+002, 7.710093e+000
3.808735e+002, 7.891309e+000
3.813557e+002, 7.579427e+000
3.818378e+002, 7.007849e+000
3.823199e+002, 6.275282e+000
3.828020e+002, 5.433618e+000
3.832841e+002, 4.564975e+000
3.837662e+002, 3.715733e+000
3.842484e+002, 2.833135e+000
3.847305e+002, 2.323609e+000
3.852126e+002, 2.409727e+000
3.856947e+002, 2.677290e+000
3.861768e+002, 3.203855e+000
3.866589e+002, 3.805197e+000
3.871411e+002, 4.124086e+000
3.876232e+002, 3.885892e+000
3.881053e+002, 3.303952e+000
3.885874e+002, 3.193863e+000
3.890695e+002, 3.921631e+000
3.895516e+002, 4.431512e+000
3.900338e+002, 4.313941e+000
3.905159e+002, 3.993493e+000
3.909980e+002, 3.902905e+000
3.914801e+002, 4.158175e+000
3.919622e+002, 4.433273e+000
3.924443e+002, 4.229731e+000
3.929265e+002, 3.467852e+000
3.934086e+002, 3.006221e+000
3.938907e+002, 3.182109e+000
3.943728e+002, 3.480630e+000
3.948549e+002, 3.730091e+000
3.953370e+002, 3.871015e+000
3.958192e+002, 3.748188e+000
3.963013e+002, 3.016820e+000
3.967834e+002, 1.949911e+000
3.972655e+002, 1.573567e+000
3.977476e+002, 2.215149e+000
3.982297e+002, 2.698780e+000
3.987119e+002, 1.940043e+000
3.991940e+002, 7.922842e-001
3.996761e+002, 4.497593e-001
4.001582e+002, 1.459864e+000
4.006403e+002, 2.796167e+000
4.011224e+002, 3.441049e+000
4.016046e+002, 3.429497e+000
4.020867e+002, 3.241426e+000
4.025688e+002, 2.843660e+000
4.030509e+002, 2.531763e+000
4.035330e+002, 2.828352e+000
4.040151e+002, 3.761131e+000
4.044973e+002, 4.243680e+000
4.049794e+002, 3.198866e+000
4.054615e+002, 1.563419e+000
4.059436e+002, 1.151297e+000
4.064257e+002, 2.298586e+000
4.069078e+002, 3.640965e+000
4.073900e+002, 4.101707e+000
4.078721e+002, 3.790554e+000
4.083542e+002, 3.436229e+000
4.088363e+002, 2.872234e+000
4.093184e+002, 2.469579e+000
4.098005e+002, 2.515877e+000
4.102827e+002, 2.938187e+000
4.107648e+002, 3.573242e+000
4.112469e+002, 4.461829e+000
4.117290e+002, 5.298201e+000
4.122111e+002, 5.225077e+000
4.126932e+002, 3.685677e+000
4.131754e+002, 2.757929e+000
4.136575e+002, 3.282279e+000
4.141396e+002, 4.330342e+000
4.146217e+002, 5.030735e+000
4.151038e+002, 5.204704e+000
4.155859e+002, 4.960056e+000
4.160681e+002, 4.322748e+000
4.165502e+002, 3.222884e+000
4.170323e+002, 2.545610e+000
4.175144e+002, 2.370994e+000
4.179965e+002, 2.456116e+000
4.184786e+002, 3.024160e+000
4.189608e+002, 3.745123e+000
4.194429e+002, 3.949555e+000
4.199250e+002, 3.266533e+000
4.204071e+002, 2.073776e+000
4.208892e+002, 1.428266e+000
4.213713e+002, 1.810351e+000
4.218535e+002, 2.045496e+000
4.223356e+002, 1.929998e+000
4.228177e+002, 1.780849e+000
4.232998e+002, 1.885309e+000
4.237819e+002, 2.251976e+000
4.242640e+002, 2.644037e+000
4.247462e+002, 2.804321e+000
4.252283e+002, 2.713282e+000
4.257104e+002, 2.692313e+000
4.261925e+002, 2.953418e+000
4.266746e+002, 3.047162e+000
4.271567e+002, 2.690122e+000
4.276389e+002, 2.118098e+000
4.281210e+002, 1.679063e+000
4.286031e+002, 1.530952e+000
4.290852e+002, 1.630268e+000
4.295673e+002, 1.921511e+000
4.300494e+002, 2.451675e+000
4.305316e+002, 3.004433e+000
4.310137e+002, 3.904194e+000
4.314958e+002, 4.537736e+000
4.319779e+002, 4.260948e+000
4.324600e+002, 3.123432e+000
4.329421e+002, 2.065586e+000
4.334243e+002, 1.874101e+000
4.339064e+002, 2.372241e+000
4.343885e+002, 2.776790e+000
4.348706e+002, 2.994724e+000
4.353527e+002, 3.255363e+000
4.358348e+002, 4.067594e+000
4.363170e+002, 4.970906e+000
4.367991e+002, 5.059286e+000
4.372812e+002, 3.614777e+000
4.377633e+002, 1.985394e+000
4.382454e+002, 1.563693e+000
4.387275e+002, 2.177456e+000
4.392097e+002, 2.606675e+000
4.396918e+002, 2.336631e+000
4.401739e+002, 1.845902e+000
4.406560e+002, 1.964652e+000
4.411381e+002, 2.760059e+000
4.416202e+002, 3.236332e+000
4.421024e+002, 2.764390e+000
4.425845e+002, 2.022470e+000
4.430666e+002, 1.748204e+000
4.435487e+002, 2.011891e+000
4.440308e+002, 2.633296e+000
4.445129e+002, 3.636473e+000
4.449951e+002, 4.902704e+000
4.454772e+002, 5.382150e+000
4.459593e+002, 4.499585e+000
4.464414e+002, 3.622327e+000
4.469235e+002, 3.079274e+000
4.474056e+002, 2.825177e+000
4.478878e+002, 2.862763e+000
4.483699e+002, 3.183082e+000
4.488520e+002, 3.546901e+000
4.493341e+002, 3.566984e+000
4.498162e+002, 3.049662e+000
4.502983e+002, 2.733476e+000
4.507805e+002, 2.866682e+000
4.512626e+002, 2.942912e+000
4.517447e+002, 2.522765e+000
4.522268e+002, 1.807932e+000
4.527089e+002, 1.386989e+000
4.531910e+002, 1.696062e+000
4.536732e+002, 2.520576e+000
4.541553e+002, 2.907502e+000
4.546374e+002, 2.337517e+000
4.551195e+002, 2.229825e+000
4.556016e+002, 3.344192e+000
4.560837e+002, 4.610260e+000
4.565659e+002, 5.036394e+000
4.570480e+002, 4.483999e+000
4.575301e+002, 3.666493e+000
4.580122e+002, 3.365072e+000
4.584943e+002, 3.564568e+000
4.589764e+002, 3.478486e+000
4.594586e+002, 2.853018e+000
4.599407e+002, 2.285950e+000
4.604228e+002, 2.088847e+000
4.609049e+002, 2.155563e+000
4.613870e+002, 2.319507e+000
4.618691e+002, 2.574295e+000
4.623513e+002, 2.817352e+000
4.628334e+002, 2.896704e+000
4.633155e+002, 2.819032e+000
4.637976e+002, 2.755383e+000
4.642797e+002, 2.737368e+000
4.647618e+002, 2.783613e+000
4.652440e+002, 2.947326e+000
4.657261e+002, 3.232488e+000
4.662082e+002, 3.453846e+000
4.666903e+002, 3.481876e+000
4.671724e+002, 3.449505e+000
4.676545e+002, 3.610396e+000
4.681367e+002, 3.957387e+000
4.686188e+002, 4.062566e+000
4.691009e+002, 3.533520e+000
4.695830e+002, 2.557421e+000
4.700651e+002, 2.077543e+000
4.705472e+002, 2.605797e+000
4.710294e+002, 2.916323e+000
4.715115e+002, 2.412993e+000
4.719936e+002, 1.639538e+000
4.724757e+002, 1.379271e+000
4.729578e+002, 1.801036e+000
4.734399e+002, 2.315018e+000
4.739221e+002, 2.137582e+000
4.744042e+002, 1.017267e+000
4.748863e+002, 6.851245e-001
4.753684e+002, 1.848629e+000
4.758505e+002, 2.951712e+000
4.763326e+002, 3.394247e+000
4.768148e+002, 3.385801e+000
4.772969e+002, 3.327831e+000
4.777790e+002, 3.413189e+000
4.782611e+002, 3.574777e+000
4.787432e+002, 3.651291e+000
4.792253e+002, 3.568015e+000
4.797075e+002, 3.612674e+000
4.801896e+002, 4.033438e+000
4.806717e+002, 4.410754e+000
4.811538e+002, 4.555831e+000
4.816359e+002, 4.448846e+000
4.821180e+002, 4.107070e+000
4.826002e+002, 3.364107e+000
4.830823e+002, 2.451248e+000
4.835644e+002, 2.119905e+000
4.840465e+002, 2.567658e+000
4.845286e+002, 2.873867e+000
4.850107e+002, 2.428671e+000
4.854929e+002, 1.726856e+000
4.859750e+002, 1.320934e+000
4.864571e+002, 1.273692e+000
4.869392e+002, 1.496473e+000
4.874213e+002, 2.198234e+000
4.879034e+002, 3.096244e+000
4.883856e+002, 3.522992e+000
4.888677e+002, 3.346846e+000
4.893498e+002, 2.921813e+000
4.898319e+002, 2.470311e+000
4.903140e+002, 2.014153e+000
4.907961e+002, 1.732723e+000
4.912783e+002, 1.801047e+000
4.917604e+002, 1.855103e+000
4.922425e+002, 1.616031e+000
4.927246e+002, 1.266012e+000
4.932067e+002, 1.249035e+000
4.936888e+002, 1.722147e+000
4.941710e+002, 2.226298e+000
4.946531e+002, 1.977612e+000
4.951352e+002, 5.023588e-001
4.956173e+002, -2.098765e-001
4.960994e+002, 3.529471e-001
4.965815e+002, 1.065928e+000
4.970637e+002, 1.348513e+000
4.975458e+002, 1.353784e+000
4.980279e+002, 1.576699e+000
4.985100e+002, 2.333698e+000
4.989921e+002, 3.282411e+000
4.994742e+002, 3.472427e+000
4.999564e+002, 2.468819e+000
5.004385e+002, 1.807623e+000
5.009206e+002, 2.130458e+000
5.014027e+002, 2.519955e+000
5.018848e+002, 2.280721e+000
5.023669e+002, 1.504288e+000
5.028491e+002, 9.096922e-001
5.033312e+002, 1.049260e+000
5.038133e+002, 1.713588e+000
5.042954e+002, 2.399071e+000
5.047775e+002, 3.138226e+000
5.052596e+002, 3.734895e+000
5.057418e+002, 4.113418e+000
5.062239e+002, 4.269880e+000
5.067060e+002, 4.177608e+000
5.071881e+002, 3.774809e+000
5.076702e+002, 3.375939e+000
5.081523e+002, 3.191387e+000
5.086345e+002, 3.095644e+000
5.091166e+002, 2.772555e+000
5.095987e+002, 2.172903e+000
5.100808e+002, 1.827423e+000
5.105629e+002, 2.305395e+000
5.110450e+002, 3.488683e+000
5.115272e+002, 3.998865e+000
5.120093e+002, 3.544523e+000
5.124914e+002, 2.864520e+000
5.129735e+002, 1.717234e+000
5.134556e+002, 6.519433e-001
5.139377e+002, 6.371199e-001
5.144199e+002, 1.831186e+000
5.149020e+002, 3.132891e+000
5.153841e+002, 3.026402e+000
5.158662e+002, 1.174416e+000
5.163483e+002, 2.324962e-001
5.168304e+002, 1.105170e+000
5.173126e+002, 1.959283e+000
5.177947e+002, 2.157094e+000
5.182768e+002, 2.056837e+000
5.187589e+002, 2.343930e+000
5.192410e+002, 3.321069e+000
5.197231e+002, 4.286873e+000
5.202053e+002, 4.061776e+000
5.206874e+002, 2.540607e+000
5.211695e+002, 1.342098e+000
5.216516e+002, 6.406673e-001
5.221337e+002, 3.794147e-001
5.226158e+002, 6.856954e-001
5.230980e+002, 1.367061e+000
5.235801e+002, 1.879288e+000
5.240622e+002, 2.116468e+000
5.245443e+002, 2.016698e+000
5.250264e+002, 1.156179e+000
5.255085e+002, -2.609796e-001
5.259907e+002, -8.696298e-001
5.264728e+002, 3.479434e-003
5.269549e+002, 1.443300e+000
5.274370e+002, 2.099835e+000
5.279191e+002, 1.877323e+000
5.284012e+002, 1.585783e+000
5.288834e+002, 1.025864e+000
5.293655e+002, 6.589199e-001
5.298476e+002, 9.003586e-001
5.303297e+002, 1.618235e+000
5.308118e+002, 2.467872e+000
5.312939e+002, 3.292603e+000
5.317761e+002, 3.954905e+000
5.322582e+002, 4.059213e+000
5.327403e+002, 3.097285e+000
5.332224e+002, 2.509374e+000
5.337045e+002, 2.583954e+000
5.341866e+002, 2.758548e+000
5.346688e+002, 2.626243e+000
5.351509e+002, 2.282858e+000
5.356330e+002, 2.131478e+000
5.361151e+002, 2.500329e+000
5.365972e+002, 3.153649e+000
5.370793e+002, 3.471723e+000
5.375615e+002, 3.418072e+000
5.380436e+002, 3.156604e+000
5.385257e+002, 2.374919e+000
5.390078e+002, 1.690095e+000
5.394899e+002, 1.776932e+000
5.399720e+002, 2.607003e+000
5.404542e+002, 3.313318e+000
5.409363e+002, 3.294066e+000
5.414184e+002, 2.990945e+000
5.419005e+002, 3.160739e+000
5.423826e+002, 3.790107e+000
5.428647e+002, 4.085575e+000
5.433469e+002, 3.514881e+000
5.438290e+002, 2.466226e+000
5.443111e+002, 1.959598e+000
5.447932e+002, 2.183431e+000
5.452753e+002, 2.414338e+000
5.457574e+002, 2.751913e+000
5.462396e+002, 2.914807e+000
5.467217e+002, 2.450666e+000
5.472038e+002, 1.511334e+000
5.476859e+002, 7.819327e-001
5.481680e+002, 7.503626e-001
5.486501e+002, 1.294791e+000
5.491323e+002, 1.908109e+000
5.496144e+002, 2.817396e+000
5.500965e+002, 3.379073e+000
5.505786e+002, 3.422084e+000
5.510607e+002, 3.224833e+000
5.515428e+002, 2.853965e+000
5.520250e+002, 2.399052e+000
5.525071e+002, 2.116806e+000
5.529892e+002, 2.246420e+000
5.534713e+002, 2.668895e+000
5.539534e+002, 3.126376e+000
5.544355e+002, 3.691335e+000
5.549177e+002, 3.881821e+000
5.553998e+002, 3.163007e+000
5.558819e+002, 2.217149e+000
5.563640e+002, 2.047364e+000
5.568461e+002, 2.779502e+000
5.573282e+002, 3.361959e+000
5.578104e+002, 3.238433e+000
5.582925e+002, 2.838074e+000
5.587746e+002, 2.658275e+000
5.592567e+002, 2.715620e+000
5.597388e+002, 2.854458e+000
5.602209e+002, 3.044411e+000
5.607031e+002, 3.148917e+000
5.611852e+002, 2.726974e+000
5.616673e+002, 6.889870e-001
5.621494e+002, -3.222465e-001
5.626315e+002, 5.683946e-001
5.631136e+002, 1.840813e+000
5.635958e+002, 2.426861e+000
5.640779e+002, 2.335331e+000
5.645600e+002, 2.103103e+000
5.650421e+002, 2.098627e+000
5.655242e+002, 2.255077e+000
5.660063e+002, 2.337567e+000
5.664885e+002, 2.295204e+000
5.669706e+002, 2.325886e+000
5.674527e+002, 2.532340e+000
5.679348e+002, 2.787924e+000
5.684169e+002, 2.998049e+000
5.688990e+002, 3.167548e+000
5.693812e+002, 3.379639e+000
5.698633e+002, 3.965613e+000
5.703454e+002, 4.466140e+000
5.708275e+002, 3.944344e+000
5.713096e+002, 2.489057e+000
5.717917e+002, 1.443831e+000
5.722739e+002, 1.415980e+000
5.727560e+002, 2.022918e+000
5.732381e+002, 2.703621e+000
5.737202e+002, 3.634784e+000
5.742023e+002, 3.969008e+000
5.746844e+002, 2.822610e+000
5.751666e+002, 1.753611e+000
5.756487e+002, 2.160460e+000
5.761308e+002, 3.549582e+000
5.766129e+002, 4.431165e+000
5.770950e+002, 4.009259e+000
5.775771e+002, 2.892531e+000
5.780593e+002, 2.498558e+000
5.785414e+002, 3.283227e+000
5.790235e+002, 3.544932e+000
5.795056e+002, 2.599539e+000
5.799877e+002, 1.672409e+000
5.804698e+002, 1.384236e+000
5.809520e+002, 1.544930e+000
5.814341e+002, 1.615456e+000
5.819162e+002, 1.280485e+000
5.823983e+002, 9.099629e-001
5.828804e+002, 1.149927e+000
5.833625e+002, 1.918469e+000
5.838447e+002, 2.323613e+000
5.843268e+002, 2.140197e+000
5.848089e+002, 1.575226e+000
5.852910e+002, 5.637548e-001
5.857731e+002, -7.961995e-001
5.862552e+002, -1.430125e+000
5.867374e+002, -6.688074e-001
5.872195e+002, 2.386422e-001
5.877016e+002, 8.343827e-001
5.881837e+002, 1.085575e+000
5.886658e+002, 7.340812e-001
5.891479e+002, -2.389379e-001
5.896301e+002, -1.007334e+000
5.901122e+002, -3.546705e-001
5.905943e+002, 2.017171e+000
5.910764e+002, 2.916797e+000
5.915585e+002, 4.889967e-001
5.920406e+002, -1.269997e+000
5.925228e+002, -1.166505e+000
5.930049e+002, -1.082905e-002
5.934870e+002, 1.425316e+000
5.939691e+002, 2.915521e+000
5.944512e+002, 4.077443e+000
5.949333e+002, 4.566111e+000
5.954155e+002, 4.427231e+000
5.958976e+002, 3.605115e+000
5.963797e+002, 1.810454e+000
5.968618e+002, 6.559425e-001
5.973439e+002, 1.490724e+000
5.978260e+002, 3.481288e+000
5.983082e+002, 4.536081e+000
5.987903e+002, 4.417556e+000
5.992724e+002, 3.968390e+000
5.997545e+002, 3.250326e+000
6.002366e+002, 2.464005e+000
6.007188e+002, 1.743619e+000
6.012009e+002, 1.148986e+000
6.016830e+002, 8.463026e-001
6.021651e+002, 9.733362e-001
6.026472e+002, 1.409207e+000
6.031293e+002, 1.706366e+000
6.036115e+002, 1.793133e+000
6.040936e+002, 1.868353e+000
6.045757e+002, 1.826141e+000
6.050578e+002, 1.879940e+000
6.055399e+002, 2.286912e+000
6.060220e+002, 2.920169e+000
6.065042e+002, 3.363746e+000
6.069863e+002, 3.306848e+000
6.074684e+002, 3.053542e+000
6.079505e+002, 3.289132e+000
6.084326e+002, 3.985540e+000
6.089147e+002, 3.872264e+000
6.093969e+002, 2.208737e+000
6.098790e+002, 3.895738e-001
6.103611e+002, 1.261992e-001
6.108432e+002, 1.271188e+000
6.113253e+002, 2.054487e+000
6.118074e+002, 2.190306e+000
6.122896e+002, 2.027452e+000
6.127717e+002, 1.489412e+000
6.132538e+002, 8.500534e-001
6.137359e+002, 6.367873e-001
6.142180e+002, 9.781987e-001
6.147001e+002, 1.403960e+000
6.151823e+002, 1.265803e+000
6.156644e+002, 4.977046e-001
6.161465e+002, 5.882694e-001
6.166286e+002, 2.621010e+000
6.171107e+002, 4.009966e+000
6.175928e+002, 3.762740e+000
6.180750e+002, 2.786547e+000
6.185571e+002, 1.832262e+000
6.190392e+002, 1.080979e+000
6.195213e+002, 7.721714e-001
6.200034e+002, 1.560578e+000
6.204855e+002, 2.806951e+000
6.209677e+002, 2.838715e+000
6.214498e+002, 1.541546e+000
6.219319e+002, 5.267043e-001
6.224140e+002, 6.457565e-001
6.228961e+002, 1.466331e+000
6.233782e+002, 2.146570e+000
6.238604e+002, 2.762393e+000
6.243425e+002, 3.029564e+000
6.248246e+002, 2.542597e+000
6.253067e+002, 2.024941e+000
6.257888e+002, 1.993597e+000
6.262709e+002, 2.336976e+000
6.267531e+002, 2.692691e+000
6.272352e+002, 2.881240e+000
6.277173e+002, 3.002872e+000
6.281994e+002, 3.337279e+000
6.286815e+002, 4.029506e+000
6.291636e+002, 4.096210e+000
6.296458e+002, 2.946875e+000
6.301279e+002, 1.855263e+000
6.306100e+002, 1.379029e+000
6.310921e+002, 1.398996e+000
6.315742e+002, 1.822888e+000
6.320563e+002, 2.854323e+000
6.325385e+002, 3.594433e+000
6.330206e+002, 3.057247e+000
6.335027e+002, 1.855148e+000
6.339848e+002, 1.190375e+000
6.344669e+002, 1.238837e+000
6.349490e+002, 1.630199e+000
6.354312e+002, 2.150530e+000
6.359133e+002, 2.758697e+000
6.363954e+002, 3.265189e+000
6.368775e+002, 3.861251e+000
6.373596e+002, 4.071824e+000
6.378417e+002, 3.391732e+000
6.383239e+002, 2.718756e+000
6.388060e+002, 2.945065e+000
6.392881e+002, 3.792768e+000
6.397702e+002, 4.192448e+000
6.402523e+002, 3.417399e+000
6.407344e+002, 2.064324e+000
6.412166e+002, 1.250458e+000
6.416987e+002, 9.887503e-001
6.421808e+002, 9.132985e-001
6.426629e+002, 9.430427e-001
6.431450e+002, 1.159046e+000
6.436271e+002, 1.852180e+000
6.441093e+002, 2.842176e+000
6.445914e+002, 3.415725e+000
6.450735e+002, 3.155194e+000
6.455556e+002, 2.823187e+000
6.460377e+002, 2.758873e+000
6.465198e+002, 2.846734e+000
6.470020e+002, 2.868983e+000
6.474841e+002, 2.814058e+000
6.479662e+002, 2.952663e+000
6.484483e+002, 3.582818e+000
6.489304e+002, 4.591058e+000
6.494125e+002, 5.204066e+000
6.498947e+002, 5.411878e+000
6.503768e+002, 5.214032e+000
6.508589e+002, 4.032915e+000
6.513410e+002, 2.926620e+000
6.518231e+002, 2.818391e+000
6.523052e+002, 3.557583e+000
6.527874e+002, 4.129735e+000
6.532695e+002, 3.905800e+000
6.537516e+002, 3.379964e+000
6.542337e+002, 3.118892e+000
6.547158e+002, 3.084773e+000
6.551979e+002, 3.096296e+000
6.556801e+002, 3.096538e+000
6.561622e+002, 3.177571e+000
6.566443e+002, 3.514962e+000
6.571264e+002, 4.145881e+000
6.576085e+002, 4.278377e+000
6.580906e+002, 3.273284e+000
6.585728e+002, 2.638906e+000
6.590549e+002, 3.059062e+000
6.595370e+002, 3.826448e+000
6.600191e+002, 4.292239e+000
6.605012e+002, 4.311006e+000
6.609833e+002, 3.942209e+000
6.614655e+002, 2.951789e+000
6.619476e+002, 1.767696e+000
6.624297e+002, 2.058665e+000
6.629118e+002, 4.094862e+000
6.633939e+002, 5.416376e+000
6.638760e+002, 4.900335e+000
6.643582e+002, 3.790927e+000
6.648403e+002, 3.761909e+000
6.653224e+002, 4.700288e+000
6.658045e+002, 4.917754e+000
6.662866e+002, 3.150041e+000
6.667687e+002, 1.637525e+000
6.672509e+002, 1.833460e+000
6.677330e+002, 3.056648e+000
6.682151e+002, 4.377770e+000
6.686972e+002, 5.459257e+000
6.691793e+002, 5.974544e+000
6.696614e+002, 5.434512e+000
6.701436e+002, 3.954719e+000
6.706257e+002, 3.230265e+000
6.711078e+002, 3.524101e+000
6.715899e+002, 4.028115e+000
6.720720e+002, 4.742251e+000
6.725541e+002, 5.429141e+000
6.730363e+002, 5.915853e+000
6.735184e+002, 6.193413e+000
6.740005e+002, 6.326900e+000
6.744826e+002, 6.129519e+000
6.749647e+002, 5.974494e+000
6.754468e+002, 6.502611e+000
6.759290e+002, 7.395065e+000
6.764111e+002, 7.531645e+000
6.768932e+002, 6.548815e+000
6.773753e+002, 5.404135e+000
6.778574e+002, 5.288382e+000
6.783395e+002, 6.262475e+000
6.788217e+002, 6.701701e+000
6.793038e+002, 6.105895e+000
6.797859e+002, 5.595728e+000
6.802680e+002, 5.360320e+000
6.807501e+002, 5.290027e+000
6.812322e+002, 5.302512e+000
6.817144e+002, 5.378601e+000
6.821965e+002, 5.514520e+000
6.826786e+002, 5.803729e+000
6.831607e+002, 6.083745e+000
6.836428e+002, 6.056817e+000
6.841249e+002, 5.749543e+000
6.846071e+002, 5.391775e+000
6.850892e+002, 5.051476e+000
6.855713e+002, 4.670856e+000
6.860534e+002, 4.112298e+000
6.865355e+002, 3.345747e+000
6.870176e+002, 3.038266e+000
6.874998e+002, 3.703950e+000
6.879819e+002, 4.141072e+000
6.884640e+002, 3.818152e+000
6.889461e+002, 3.266298e+000
6.894282e+002, 2.940464e+000
6.899103e+002, 2.950396e+000
6.903925e+002, 3.290389e+000
6.908746e+002, 4.068927e+000
6.913567e+002, 5.062981e+000
6.918388e+002, 5.752760e+000
6.923209e+002, 6.133662e+000
6.928030e+002, 6.354960e+000
6.932852e+002, 6.533832e+000
6.937673e+002, 6.401327e+000
6.942494e+002, 5.323243e+000
6.947315e+002, 3.429712e+000
6.952136e+002, 2.701154e+000
6.956957e+002, 4.606954e+000
6.961779e+002, 5.993662e+000
6.966600e+002, 5.175258e+000
6.971421e+002, 3.630366e+000
6.976242e+002, 3.150616e+000
6.981063e+002, 3.826792e+000
6.985884e+002, 4.397809e+000
6.990706e+002, 3.827060e+000
6.995527e+002, 2.597075e+000
7.000348e+002, 2.097759e+000
7.005169e+002, 2.416884e+000
7.009990e+002, 2.952149e+000
7.014811e+002, 3.732436e+000
7.019633e+002, 4.496340e+000
7.024454e+002, 5.220254e+000
7.029275e+002, 5.778716e+000
7.034096e+002, 5.654154e+000
7.038917e+002, 4.099648e+000
7.043738e+002, 2.785339e+000
7.048560e+002, 2.519250e+000
7.053381e+002, 2.800342e+000
7.058202e+002, 3.150304e+000
7.063023e+002, 3.442255e+000
7.067844e+002, 3.586196e+000
7.072665e+002, 3.502562e+000
7.077487e+002, 3.292779e+000
7.082308e+002, 3.323904e+000
7.087129e+002, 3.758802e+000
7.091950e+002, 3.590533e+000
7.096771e+002, 1.946913e+000
7.101592e+002, 6.855099e-001
7.106414e+002, 1.463050e+000
7.111235e+002, 3.393029e+000
7.116056e+002, 4.569883e+000
7.120877e+002, 4.441807e+000
7.125698e+002, 4.102407e+000
7.130519e+002, 3.901515e+000
7.135341e+002, 3.883583e+000
7.140162e+002, 4.285718e+000
7.144983e+002, 4.970977e+000
7.149804e+002, 5.320496e+000
7.154625e+002, 4.952827e+000
7.159446e+002, 4.256839e+000
7.164268e+002, 4.140782e+000
7.169089e+002, 4.838037e+000
7.173910e+002, 5.033170e+000
7.178731e+002, 4.224257e+000
7.183552e+002, 3.550393e+000
7.188373e+002, 3.709276e+000
7.193195e+002, 4.255080e+000
7.198016e+002, 4.501374e+000
7.202837e+002, 4.273863e+000
7.207658e+002, 4.207029e+000
7.212479e+002, 5.041321e+000
7.217300e+002, 5.879482e+000
7.222122e+002, 5.570460e+000
7.226943e+002, 4.350636e+000
7.231764e+002, 3.188824e+000
7.236585e+002, 2.504256e+000
7.241406e+002, 2.162847e+000
7.246227e+002, 1.943298e+000
7.251049e+002, 1.812996e+000
7.255870e+002, 2.158073e+000
7.260691e+002, 3.472112e+000
7.265512e+002, 4.455725e+000
7.270333e+002, 4.375350e+000
7.275154e+002, 3.941189e+000
7.279976e+002, 3.903489e+000
7.284797e+002, 4.315737e+000
7.289618e+002, 4.558114e+000
7.294439e+002, 4.157861e+000
7.299260e+002, 3.658592e+000
7.304081e+002, 3.637460e+000
7.308903e+002, 3.899791e+000
7.313724e+002, 3.887439e+000
7.318545e+002, 3.458234e+000
7.323366e+002, 3.060855e+000
7.328187e+002, 3.211842e+000
7.333008e+002, 3.846570e+000
7.337830e+002, 4.166966e+000
7.342651e+002, 4.030039e+000
7.347472e+002, 3.888032e+000
7.352293e+002, 3.984359e+000
7.357114e+002, 3.984828e+000
7.361935e+002, 3.518119e+000
7.366757e+002, 2.709283e+000
7.371578e+002, 2.137366e+000
7.376399e+002, 2.130338e+000
7.381220e+002, 2.212460e+000
7.386041e+002, 1.977018e+000
7.390862e+002, 1.660223e+000
7.395684e+002, 1.684078e+000
7.400505e+002, 2.074832e+000
7.405326e+002, 2.541947e+000
7.410147e+002, 2.889396e+000
7.414968e+002, 3.120224e+000
7.419789e+002, 3.205266e+000
7.424611e+002, 3.049881e+000
7.429432e+002, 3.122113e+000
7.434253e+002, 3.797665e+000
7.439074e+002, 4.282864e+000
7.443895e+002, 3.835160e+000
7.448716e+002, 2.972201e+000
7.453538e+002, 2.745106e+000
7.458359e+002, 3.583712e+000
7.463180e+002, 4.177922e+000
7.468001e+002, 3.672385e+000
7.472822e+002, 2.826286e+000
7.477643e+002, 2.482081e+000
7.482465e+002, 2.521427e+000
7.487286e+002, 2.240672e+000
7.492107e+002, 1.319792e+000
7.496928e+002, 3.866699e-001
7.501749e+002, 4.881805e-001
7.506570e+002, 1.689084e+000
7.511392e+002, 2.590702e+000
7.516213e+002, 3.139158e+000
7.521034e+002, 3.527561e+000
7.525855e+002, 4.010149e+000
7.530676e+002, 4.233026e+000
7.535497e+002, 3.563338e+000
7.540319e+002, 1.959764e+000
7.545140e+002, 8.668248e-001
7.549961e+002, 1.022621e+000
7.554782e+002, 1.375305e+000
7.559603e+002, 1.205428e+000
7.564424e+002, 8.541486e-001
7.569246e+002, 8.375303e-001
7.574067e+002, 1.279957e+000
7.578888e+002, 2.083210e+000
7.583709e+002, 3.273160e+000
7.588530e+002, 4.646765e+000
7.593351e+002, 5.508705e+000
7.598173e+002, 5.825232e+000
7.602994e+002, 5.917906e+000
7.607815e+002, 5.895509e+000
7.612636e+002, 5.569204e+000
7.617457e+002, 4.456204e+000
7.622278e+002, 2.848592e+000
7.627100e+002, 2.153465e+000
7.631921e+002, 3.233618e+000
7.636742e+002, 3.937068e+000
7.641563e+002, 3.461834e+000
7.646384e+002, 2.670551e+000
7.651205e+002, 2.138389e+000
7.656027e+002, 1.920771e+000
7.660848e+002, 2.015111e+000
7.665669e+002, 2.444030e+000
7.670490e+002, 2.797054e+000
7.675311e+002, 2.333589e+000
7.680132e+002, 1.258714e+000
7.684954e+002, 7.884083e-001
7.689775e+002, 1.059259e+000
7.694596e+002, 1.378678e+000
7.699417e+002, 1.412351e+000
7.704238e+002, 1.307124e+000
7.709059e+002, 1.284432e+000
7.713881e+002, 1.298115e+000
7.718702e+002, 1.616413e+000
7.723523e+002, 2.529763e+000
7.728344e+002, 3.393438e+000
7.733165e+002, 4.129798e+000
7.737986e+002, 4.612172e+000
7.742808e+002, 4.663997e+000
7.747629e+002, 4.297038e+000
7.752450e+002, 3.751414e+000
7.757271e+002, 3.081707e+000
7.762092e+002, 2.426774e+000
7.766913e+002, 2.110101e+000
7.771735e+002, 2.012220e+000
7.776556e+002, 1.570180e+000
7.781377e+002, 6.396311e-001
7.786198e+002, -3.470659e-001
7.791019e+002, -1.113747e+000
7.795840e+002, -1.559616e+000
7.800662e+002, -1.052740e+000
7.805483e+002, 1.536900e+000
7.810304e+002, 2.924134e+000
7.815125e+002, 1.792047e+000
7.819946e+002, 5.646383e-001
7.824767e+002, 3.464113e-001
7.829589e+002, 8.942086e-001
7.834410e+002, 1.767556e+000
7.839231e+002, 2.983576e+000
7.844052e+002, 3.885361e+000
7.848873e+002, 4.065654e+000
7.853694e+002, 3.725883e+000
7.858516e+002, 2.907891e+000
7.863337e+002, 1.779017e+000
7.868158e+002, 6.617844e-001
7.872979e+002, -3.049844e-001
7.877800e+002, -6.948977e-001
7.882621e+002, 3.289268e-001
7.887443e+002, 2.677782e+000
7.892264e+002, 3.498751e+000
7.897085e+002, 2.139773e+000
7.901906e+002, 1.068146e+000
7.906727e+002, 1.147030e+000
7.911548e+002, 1.653435e+000
7.916370e+002, 1.955330e+000
7.921191e+002, 2.059293e+000
7.926012e+002, 1.978523e+000
7.930833e+002, 1.467369e+000
7.935654e+002, 1.079715e+000
7.940475e+002, 1.256211e+000
7.945297e+002, 1.498616e+000
7.950118e+002, 1.133882e+000
7.954939e+002, 3.127614e-001
7.959760e+002, -2.166860e-001
7.964581e+002, -2.253658e-002
7.969402e+002, 5.201393e-001
7.974224e+002, 9.408752e-001
7.979045e+002, 1.229459e+000
7.983866e+002, 1.110433e+000
7.988687e+002, 4.472911e-001
7.993508e+002, 5.603198e-001
7.998329e+002, 2.515666e+000
8.003151e+002, 5.028360e+000
8.007972e+002, 5.616227e+000
8.012793e+002, 3.669223e+000
8.017614e+002, 2.185347e+000
8.022435e+002, 1.008171e+000
8.027256e+002, 4.312264e-001
8.032078e+002, 9.327034e-001
8.036899e+002, 1.823092e+000
8.041720e+002, 2.457765e+000
8.046541e+002, 2.751666e+000
8.051362e+002, 2.897067e+000
8.056183e+002, 2.908984e+000
8.061005e+002, 2.918240e+000
8.065826e+002, 3.200539e+000
8.070647e+002, 3.554646e+000
8.075468e+002, 3.410872e+000
8.080289e+002, 2.729979e+000
8.085110e+002, 2.149340e+000
8.089932e+002, 2.153726e+000
8.094753e+002, 2.454150e+000
8.099574e+002, 2.191837e+000
8.104395e+002, 1.128984e+000
8.109216e+002, 5.898644e-001
8.114037e+002, 8.575897e-001
8.118859e+002, 1.295525e+000
8.123680e+002, 1.827488e+000
8.128501e+002, 2.225331e+000
8.133322e+002, 2.031428e+000
8.138143e+002, 1.102831e+000
8.142964e+002, 5.019102e-001
8.147786e+002, 8.033209e-001
8.152607e+002, 1.143436e+000
8.157428e+002, 9.476255e-001
8.162249e+002, 5.089118e-001
8.167070e+002, 2.124965e-001
8.171891e+002, 1.607172e-001
8.176713e+002, 3.353253e-001
8.181534e+002, 7.676703e-001
8.186355e+002, 1.349767e+000
8.191176e+002, 2.002063e+000
8.195997e+002, 2.667067e+000
8.200818e+002, 2.804353e+000
8.205640e+002, 2.267384e+000
8.210461e+002, 1.655762e+000
8.215282e+002, 1.384614e+000
8.220103e+002, 1.355593e+000
8.224924e+002, 1.266196e+000
8.229745e+002, 1.024271e+000
8.234567e+002, 9.272330e-001
8.239388e+002, 7.856295e-001
8.244209e+002, 1.003849e+000
8.249030e+002, 2.046814e+000
8.253851e+002, 3.369047e+000
8.258672e+002, 4.380510e+000
8.263494e+002, 4.985385e+000
8.268315e+002, 5.065978e+000
8.273136e+002, 4.247880e+000
8.277957e+002, 3.187347e+000
8.282778e+002, 2.074928e+000
8.287599e+002, 1.245671e+000
8.292421e+002, 1.586596e+000
8.297242e+002, 3.056212e+000
8.302063e+002, 4.343810e+000
8.306884e+002, 4.433526e+000
8.311705e+002, 3.717360e+000
8.316526e+002, 3.065703e+000
8.321348e+002, 2.474772e+000
8.326169e+002, 2.240719e+000
8.330990e+002, 2.576705e+000
8.335811e+002, 2.639128e+000
8.340632e+002, 1.623409e+000
8.345453e+002, 2.370558e-001
8.350275e+002, 1.719559e-001
8.355096e+002, 2.225893e+000
8.359917e+002, 3.205755e+000
8.364738e+002, 2.154975e+000
8.369559e+002, 1.137542e+000
8.374380e+002, 1.139005e+000
8.379202e+002, 1.433207e+000
8.384023e+002, 9.411466e-001
8.388844e+002, -2.886248e-001
8.393665e+002, -9.429638e-001
8.398486e+002, 8.747485e-002
8.403307e+002, 1.496472e+000
8.408129e+002, 2.007763e+000
8.412950e+002, 1.907145e+000
8.417771e+002, 1.726539e+000
8.422592e+002, 1.550764e+000
8.427413e+002, 1.233352e+000
8.432234e+002, 6.635728e-001
8.437056e+002, 3.426322e-002
8.441877e+002, -1.987366e-001
8.446698e+002, 1.587815e-002
8.451519e+002, -9.476564e-002
8.456340e+002, -8.449147e-001
8.461161e+002, -1.048094e+000
8.465983e+002, 1.070809e-001
8.470804e+002, 1.774583e+000
8.475625e+002, 2.880647e+000
8.480446e+002, 3.430673e+000
8.485267e+002, 3.406052e+000
8.490089e+002, 1.894664e+000
8.494910e+002, 9.814051e-001
8.499731e+002, 1.782174e+000
8.504552e+002, 3.013806e+000
8.509373e+002, 3.599731e+000
8.514194e+002, 3.537899e+000
8.519016e+002, 3.310753e+000
8.523837e+002, 3.151851e+000
8.528658e+002, 2.790000e+000
8.533479e+002, 1.538989e+000
8.538300e+002, 1.130809e-001
8.543121e+002, -1.189632e-001
8.547943e+002, 7.567191e-001
8.552764e+002, 1.999955e+000
8.557585e+002, 3.296343e+000
8.562406e+002, 4.189967e+000
8.567227e+002, 3.926278e+000
8.572048e+002, 2.635265e+000
8.576870e+002, 2.124349e+000
8.581691e+002, 2.671197e+000
8.586512e+002, 2.873094e+000
8.591333e+002, 2.159946e+000
8.596154e+002, 1.364217e+000
8.600975e+002, 1.347136e+000
8.605797e+002, 1.911585e+000
8.610618e+002, 1.923061e+000
8.615439e+002, 8.993532e-001
8.620260e+002, 1.424167e-001
8.625081e+002, -3.630671e-002
8.629902e+002, -9.085386e-002
8.634724e+002, -5.881365e-001
8.639545e+002, -1.030828e+000
8.644366e+002, -2.309430e-001
8.649187e+002, 2.040743e+000
8.654008e+002, 3.589967e+000
8.658829e+002, 2.138398e+000
8.663651e+002, -1.243069e-001
8.668472e+002, -6.504967e-001
8.673293e+002, 3.285025e-002
8.678114e+002, 5.999017e-001
8.682935e+002, 7.561820e-001
8.687756e+002, 8.653471e-001
8.692578e+002, 1.212485e+000
8.697399e+002, 1.675169e+000
8.702220e+002, 1.913011e+000
8.707041e+002, 1.908895e+000
8.711862e+002, 2.048133e+000
8.716683e+002, 2.394025e+000
8.721505e+002, 2.808178e+000
8.726326e+002, 3.395185e+000
8.731147e+002, 3.799596e+000
8.735968e+002, 3.289179e+000
8.740789e+002, 1.561890e+000
8.745610e+002, 5.590785e-001
8.750432e+002, 7.272952e-001
8.755253e+002, 1.003751e+000
8.760074e+002, 1.467315e+000
8.764895e+002, 1.692000e+000
8.769716e+002, 1.235733e+000
8.774537e+002, 2.118573e-001
8.779359e+002, -9.734414e-001
8.784180e+002, -2.532379e+000
8.789001e+002, -3.376947e+000
8.793822e+002, -2.216023e+000
8.798643e+002, -4.421886e-001
8.803464e+002, 2.372732e-001
8.808286e+002, 1.299380e-001
8.813107e+002, 5.286356e-001
8.817928e+002, 1.867928e+000
8.822749e+002, 3.308881e+000
8.827570e+002, 3.974325e+000
8.832391e+002, 4.015017e+000
8.837213e+002, 3.870954e+000
8.842034e+002, 3.543215e+000
8.846855e+002, 3.011493e+000
8.851676e+002, 2.255222e+000
8.856497e+002, 1.358147e+000
8.861318e+002, 2.756758e-001
8.866140e+002, -7.791444e-001
8.870961e+002, -1.038583e+000
8.875782e+002, -1.692211e-001
8.880603e+002, 6.526853e-001
8.885424e+002, 1.474975e+000
8.890245e+002, 2.172858e+000
8.895067e+002, 2.908279e+000
8.899888e+002, 3.369155e+000
8.904709e+002, 2.942518e+000
8.909530e+002, 1.625195e+000
8.914351e+002, 8.959978e-001
8.919172e+002, 1.626971e+000
8.923994e+002, 2.291280e+000
8.928815e+002, 2.210921e+000
8.933636e+002, 1.817015e+000
8.938457e+002, 1.425888e+000
8.943278e+002, 1.127017e+000
8.948099e+002, 9.987356e-001
8.952921e+002, 1.085460e+000
8.957742e+002, 1.254788e+000
8.962563e+002, 1.485431e+000
8.967384e+002, 1.661451e+000
8.972205e+002, 1.508482e+000
8.977026e+002, 1.101727e+000
8.981848e+002, 7.230690e-001
8.986669e+002, 4.692197e-001
8.991490e+002, 4.464917e-001
8.996311e+002, 8.350489e-001
9.001132e+002, 1.435085e+000
9.005953e+002, 1.299595e+000
9.010775e+002, 2.980083e-001
9.015596e+002, 1.337433e-001
9.020417e+002, 1.246547e+000
9.025238e+002, 2.613628e+000
9.030059e+002, 3.957604e+000
9.034880e+002, 4.814521e+000
9.039702e+002, 3.935975e+000
9.044523e+002, 3.570491e-001
9.049344e+002, -1.049773e+000
9.054165e+002, 2.159144e+000
9.058986e+002, 4.375623e+000
9.063807e+002, 3.850649e+000
9.068629e+002, 2.246448e+000
9.073450e+002, 5.511528e-001
9.078271e+002, -9.611562e-001
9.083092e+002, -1.622209e+000
9.087913e+002, -8.715165e-001
9.092734e+002, -7.275192e-002
9.097556e+002, 1.053560e-001
9.102377e+002, 1.226706e-001
9.107198e+002, 3.149408e-001
9.112019e+002, 6.917509e-001
9.116840e+002, 1.316545e+000
9.121661e+002, 2.152726e+000
9.126483e+002, 2.727336e+000
9.131304e+002, 2.486452e+000
9.136125e+002, 1.886275e+000
9.140946e+002, 1.635409e+000
9.145767e+002, 1.658981e+000
9.150588e+002, 1.732791e+000
9.155410e+002, 1.814755e+000
9.160231e+002, 1.935509e+000
9.165052e+002, 2.120010e+000
9.169873e+002, 2.326869e+000
9.174694e+002, 2.466359e+000
9.179515e+002, 2.534432e+000
9.184337e+002, 2.693157e+000
9.189158e+002, 3.006064e+000
9.193979e+002, 3.099793e+000
9.198800e+002, 2.769669e+000
9.203621e+002, 2.317268e+000
9.208442e+002, 2.004107e+000
9.213264e+002, 1.843803e+000
9.218085e+002, 2.003156e+000
9.222906e+002, 3.031626e+000
9.227727e+002, 3.477200e+000
9.232548e+002, 2.993186e+000
9.237369e+002, 2.249413e+000
9.242191e+002, 1.226018e+000
9.247012e+002, 2.897789e-001
9.251833e+002, 8.874131e-002
9.256654e+002, 7.271068e-001
9.261475e+002, 1.223296e+000
9.266296e+002, 9.070436e-001
9.271118e+002, 8.247768e-001
9.275939e+002, 2.097860e+000
9.280760e+002, 3.467975e+000
9.285581e+002, 3.259838e+000
9.290402e+002, 1.811767e+000
9.295223e+002, 7.982222e-001
9.300045e+002, 1.001772e+000
9.304866e+002, 1.468886e+000
9.309687e+002, 1.323452e+000
9.314508e+002, 8.903081e-001
9.319329e+002, 4.816150e-001
9.324150e+002, 2.469410e-001
9.328972e+002, 7.834097e-001
9.333793e+002, 2.142705e+000
9.338614e+002, 3.206450e+000
9.343435e+002, 2.915561e+000
9.348256e+002, 1.840215e+000
9.353077e+002, 1.426894e+000
9.357899e+002, 1.618266e+000
9.362720e+002, 1.522022e+000
9.367541e+002, 1.018032e+000
9.372362e+002, 5.044028e-001
9.377183e+002, 1.283122e-001
9.382004e+002, 7.755227e-003
9.386826e+002, 3.852905e-001
9.391647e+002, 1.279264e+000
9.396468e+002, 1.860929e+000
9.401289e+002, 2.092499e+000
9.406110e+002, 2.093133e+000
9.410931e+002, 1.771475e+000
9.415753e+002, 1.365922e+000
9.420574e+002, 9.069486e-001
9.425395e+002, 5.155413e-001
9.430216e+002, 5.656241e-001
9.435037e+002, 1.321961e+000
9.439858e+002, 1.710882e+000
9.444680e+002, 1.444780e+000
9.449501e+002, 1.044698e+000
9.454322e+002, 3.678112e-001
9.459143e+002, -1.078503e-001
9.463964e+002, 4.371589e-001
9.468785e+002, 1.714770e+000
9.473607e+002, 2.187949e+000
9.478428e+002, 8.147113e-001
9.483249e+002, -2.831903e-001
9.488070e+002, 1.411103e-001
9.492891e+002, 1.275386e+000
9.497712e+002, 2.924159e+000
9.502534e+002, 4.505044e+000
9.507355e+002, 4.926588e+000
9.512176e+002, 3.987997e+000
9.516997e+002, 2.582908e+000
9.521818e+002, 9.443396e-001
9.526639e+002, -2.210863e-001
9.531461e+002, 6.957415e-001
9.536282e+002, 2.677339e+000
9.541103e+002, 3.088536e+000
9.545924e+002, 1.901453e+000
9.550745e+002, 1.015809e+000
9.555566e+002, 1.373146e+000
9.560388e+002, 2.272928e+000
9.565209e+002, 2.881712e+000
9.570030e+002, 3.194756e+000
9.574851e+002, 3.087237e+000
9.579672e+002, 2.561739e+000
9.584493e+002, 2.196454e+000
9.589315e+002, 2.132856e+000
9.594136e+002, 2.123240e+000
9.598957e+002, 1.944214e+000
9.603778e+002, 1.772877e+000
9.608599e+002, 2.198021e+000
9.613420e+002, 3.520364e+000
9.618242e+002, 3.803813e+000
9.623063e+002, 2.567896e+000
9.627884e+002, 1.462077e+000
9.632705e+002, 1.007338e+000
9.637526e+002, 9.090587e-001
9.642347e+002, 8.784901e-001
9.647169e+002, 9.386801e-001
9.651990e+002, 1.264594e+000
9.656811e+002, 2.761789e+000
9.661632e+002, 3.117688e+000
9.666453e+002, 9.959112e-001
9.671274e+002, -7.380663e-001
9.676096e+002, -5.144842e-001
9.680917e+002, 5.538928e-001
9.685738e+002, 1.062219e+000
9.690559e+002, 9.265186e-001
9.695380e+002, 8.478919e-001
9.700201e+002, 7.905386e-001
9.705023e+002, 1.091112e+000
9.709844e+002, 2.498252e+000
9.714665e+002, 3.741409e+000
9.719486e+002, 3.454573e+000
9.724307e+002, 2.308511e+000
9.729128e+002, 1.838113e+000
9.733950e+002, 2.431917e+000
9.738771e+002, 2.976545e+000
9.743592e+002, 2.602697e+000
9.748413e+002, 2.109053e+000
9.753234e+002, 2.230046e+000
9.758055e+002, 2.666052e+000
9.762877e+002, 3.092751e+000
9.767698e+002, 3.383212e+000
9.772519e+002, 3.299282e+000
9.777340e+002, 2.715719e+000
9.782161e+002, 2.116548e+000
9.786982e+002, 2.053170e+000
9.791804e+002, 2.318855e+000
9.796625e+002, 2.783242e+000
9.801446e+002, 3.226148e+000
9.806267e+002, 2.615879e+000
9.811088e+002, 9.178726e-001
9.815909e+002, -1.669307e-001
9.820731e+002, 6.128893e-001
9.825552e+002, 2.177535e+000
9.830373e+002, 2.734080e+000
9.835194e+002, 2.317605e+000
9.840015e+002, 7.132732e-001
9.844836e+002, -2.067249e+000
9.849658e+002, -3.168571e+000
9.854479e+002, -1.542184e+000
9.859300e+002, 6.187326e-001
9.864121e+002, 1.285270e+000
9.868942e+002, 8.905312e-001
9.873763e+002, 9.615042e-001
9.878585e+002, 1.551639e+000
9.883406e+002, 2.329677e+000
9.888227e+002, 3.415086e+000
9.893048e+002, 4.247707e+000
9.897869e+002, 4.658417e+000
9.902690e+002, 4.570140e+000
9.907512e+002, 3.731380e+000
9.912333e+002, 2.240872e+000
9.917154e+002, 1.403570e+000
9.921975e+002, 1.743757e+000
9.926796e+002, 1.598479e+000
9.931617e+002, 2.881589e-001
9.936439e+002, -7.270042e-001
9.941260e+002, -3.790000e-001
9.946081e+002, 4.373135e-001
9.950902e+002, 1.508485e-001
9.955723e+002, -1.320387e+000
9.960544e+002, -1.480004e+000
9.965366e+002, 1.323417e+000
9.970187e+002, 3.210373e+000
9.975008e+002, 3.075138e+000
9.979829e+002, 2.344558e+000
9.984650e+002, 1.620966e+000
9.989471e+002, 1.012704e+000
9.994293e+002, 6.621983e-001
9.999114e+002, 5.984058e-001
1.000393e+003, 5.145328e-001
1.000876e+003, 1.699402e-001
1.001358e+003, -1.095399e-002
1.001840e+003, 1.475131e-001
1.002322e+003, 5.493192e-001
1.002804e+003, 1.472457e+000
1.003286e+003, 2.480706e+000
1.003768e+003, 2.473444e+000
1.004250e+003, 1.077362e+000
1.004733e+003, 3.888728e-002
1.005215e+003, 8.310488e-001
1.005697e+003, 1.752013e+000
1.006179e+003, 1.345723e+000
1.006661e+003, 4.220917e-001
1.007143e+003, 9.039898e-003
1.007625e+003, 1.400015e-001
1.008107e+003, 4.226229e-001
1.008589e+003, 7.099054e-001
1.009072e+003, 9.076508e-001
1.009554e+003, 9.531257e-001
1.010036e+003, 8.516771e-001
1.010518e+003, 3.825224e-001
1.011000e+003, -1.463972e-001
1.011482e+003, 5.368843e-002
1.011964e+003, 9.035388e-001
1.012446e+003, 1.395846e+000
1.012929e+003, 9.490834e-001
1.013411e+003, 2.719289e-001
1.013893e+003, 1.516401e-001
1.014375e+003, 4.447756e-001
1.014857e+003, 1.114954e+000
1.015339e+003, 1.932513e+000
1.015821e+003, 2.002120e+000
1.016303e+003, 1.230486e+000
1.016785e+003, 6.196802e-001
1.017268e+003, 8.791941e-001
1.017750e+003, 1.496191e+000
1.018232e+003, 1.660076e+000
1.018714e+003, 1.455511e+000
1.019196e+003, 1.142997e+000
1.019678e+003, 7.700535e-001
1.020160e+003, 6.868303e-001
1.020642e+003, 9.871438e-001
1.021125e+003, 1.318491e+000
1.021607e+003, 1.402228e+000
1.022089e+003, 1.317129e+000
1.022571e+003, 1.189412e+000
1.023053e+003, 1.030216e+000
1.023535e+003, 1.110757e+000
1.024017e+003, 1.451184e+000
1.024499e+003, 1.835353e+000
1.024981e+003, 2.247698e+000
1.025464e+003, 2.258248e+000
1.025946e+003, 1.371027e+000
1.026428e+003, -2.745860e-002
1.026910e+003, -7.494990e-001
1.027392e+003, -7.699108e-001
1.027874e+003, -1.610165e-001
1.028356e+003, 1.354247e+000
1.028838e+003, 2.062087e+000
1.029321e+003, 1.174557e+000
1.029803e+003, -1.728441e-001
1.030285e+003, -9.435537e-001
1.030767e+003, -1.201632e+000
1.031249e+003, -1.240419e+000
1.031731e+003, -1.075165e+000
1.032213e+003, -5.232711e-001
1.032695e+003, 8.493256e-001
1.033177e+003, 1.403736e+000
1.033660e+003, 5.682907e-003
1.034142e+003, -1.544964e+000
1.034624e+003, -1.158649e+000
1.035106e+003, 7.365679e-001
1.035588e+003, 1.390989e+000
1.036070e+003, -4.314027e-002
1.036552e+003, -6.529429e-001
1.037034e+003, 1.054184e-001
1.037516e+003, 8.405445e-001
1.037999e+003, 9.434699e-001
1.038481e+003, 8.925764e-001
1.038963e+003, 1.352609e+000
1.039445e+003, 2.179509e+000
1.039927e+003, 2.227404e+000
1.040409e+003, 4.588614e-001
1.040891e+003, -2.486714e-001
1.041373e+003, 1.010244e+000
1.041855e+003, 2.191544e+000
1.042338e+003, 2.684962e+000
1.042820e+003, 2.641741e+000
1.043302e+003, 1.809201e+000
1.043784e+003, 4.070939e-001
1.044266e+003, 1.107968e-001
1.044748e+003, 2.223958e+000
1.045230e+003, 3.329297e+000
1.045712e+003, 2.501155e+000
1.046195e+003, 1.537482e+000
1.046677e+003, 1.052178e+000
1.047159e+003, 8.544756e-001
1.047641e+003, 7.451931e-001
1.048123e+003, 7.175680e-001
1.048605e+003, 7.996446e-001
1.049087e+003, 1.057524e+000
1.049569e+003, 1.311061e+000
1.050052e+003, 1.525190e+000
1.050534e+003, 1.739963e+000
1.051016e+003, 2.034559e+000
1.051498e+003, 2.296511e+000
1.051980e+003, 2.414662e+000
1.052462e+003, 2.383492e+000
1.052944e+003, 2.214607e+000
1.053426e+003, 1.728535e+000
1.053908e+003, 1.474360e+000
1.054391e+003, 1.894122e+000
1.054873e+003, 2.207725e+000
1.055355e+003, 1.802136e+000
1.055837e+003, 1.229773e+000
1.056319e+003, 1.183354e+000
1.056801e+003, 1.606923e+000
1.057283e+003, 1.925707e+000
1.057765e+003, 2.034721e+000
1.058248e+003, 1.960079e+000
1.058730e+003, 1.394715e+000
1.059212e+003, 1.005280e+000
1.059694e+003, 1.252126e+000
1.060176e+003, 1.814882e+000
1.060658e+003, 2.421036e+000
1.061140e+003, 2.983914e+000
1.061622e+003, 3.383756e+000
1.062104e+003, 3.676594e+000
1.062587e+003, 3.545546e+000
1.063069e+003, 2.504144e+000
1.063551e+003, 1.429639e+000
1.064033e+003, 9.730853e-001
1.064515e+003, 6.638902e-001
1.064997e+003, -3.431251e-001
1.065479e+003, -1.756730e+000
1.065961e+003, -2.238402e+000
1.066443e+003, -1.110664e+000
1.066926e+003, -8.820716e-002
1.067408e+003, -3.743350e-002
1.067890e+003, -1.031680e-001
1.068372e+003, 2.680603e-001
1.068854e+003, 7.716596e-001
1.069336e+003, 1.034817e+000
1.069818e+003, 1.083584e+000
1.070300e+003, 1.193110e+000
1.070782e+003, 1.508208e+000
1.071265e+003, 1.558312e+000
1.071747e+003, 6.612469e-001
1.072229e+003, -1.262605e-002
1.072711e+003, 4.941624e-001
1.073193e+003, 1.404572e+000
1.073675e+003, 1.933173e+000
1.074157e+003, 2.071651e+000
1.074639e+003, 2.147754e+000
1.075122e+003, 2.290765e+000
1.075604e+003, 2.063518e+000
1.076086e+003, 8.316418e-001
1.076568e+003, -3.126608e-001
1.077050e+003, -7.510332e-001
1.077532e+003, -7.624059e-001
1.078014e+003, -6.202758e-001
1.078496e+003, -3.205222e-001
1.078979e+003, 3.011189e-001
1.079461e+003, 1.306566e+000
1.079943e+003, 2.230385e+000
1.080425e+003, 2.822024e+000
1.080907e+003, 3.312720e+000
1.081389e+003, 4.135299e+000
1.081871e+003, 4.651736e+000
1.082353e+003, 3.879715e+000
1.082835e+003, 2.424020e+000
1.083318e+003, 1.731397e+000
1.083800e+003, 2.116446e+000
1.084282e+003, 2.265385e+000
1.084764e+003, 1.154121e+000
1.085246e+003, 2.567417e-001
1.085728e+003, 6.708151e-001
1.086210e+003, 1.280376e+000
1.086692e+003, 8.295609e-001
1.087175e+003, -3.055822e-002
1.087657e+003, 1.993959e-001
1.088139e+003, 1.680548e+000
1.088621e+003, 2.625107e+000
1.089103e+003, 1.870748e+000
1.089585e+003, 1.073762e+000
1.090067e+003, 7.849073e-001
1.090549e+003, 8.864246e-001
1.091031e+003, 1.672449e+000
1.091514e+003, 2.585419e+000
1.091996e+003, 2.715634e+000
1.092478e+003, 2.045535e+000
1.092960e+003, 1.514104e+000
1.093442e+003, 1.656901e+000
1.093924e+003, 1.567243e+000
1.094406e+003, 3.208455e-001
1.094888e+003, -6.358478e-001
1.095370e+003, -2.859044e-003
1.095853e+003, 1.248908e+000
1.096335e+003, 1.993760e+000
1.096817e+003, 2.109457e+000
1.097299e+003, 1.748796e+000
1.097781e+003, 6.532328e-001
1.098263e+003, -1.430013e-001
1.098745e+003, 2.050164e-001
1.099227e+003, 3.233498e-001
1.099709e+003, -1.290483e+000
1.100192e+003, -2.905416e+000
1.100674e+003, -2.072345e+000
1.101156e+003, 4.082959e-001
1.101638e+003, 1.276703e+000
1.102120e+003, -6.750924e-001
1.102602e+003, -1.969330e+000
1.103084e+003, -1.483764e+000
1.103566e+003, -5.455952e-001
1.104049e+003, 6.167343e-001
1.104531e+003, 1.751202e+000
1.105013e+003, 2.931338e+000
1.105495e+003, 3.869643e+000
1.105977e+003, 3.770210e+000
1.106459e+003, 2.309933e+000
1.106941e+003, 1.400069e+000
1.107423e+003, 1.940918e+000
1.107906e+003, 2.254187e+000
1.108388e+003, 1.575269e+000
1.108870e+003, 8.609011e-001
1.109352e+003, 8.679387e-001
1.109834e+003, 1.214994e+000
1.110316e+003, 1.198337e+000
1.110798e+003, 7.605255e-001
1.111280e+003, 3.767947e-001
1.111762e+003, -1.936812e-001
1.112245e+003, -2.901087e-001
1.112727e+003, 3.471007e-001
1.113209e+003, 1.268869e+000
1.113691e+003, 2.981997e+000
1.114173e+003, 4.400949e+000
1.114655e+003, 3.579304e+000
1.115137e+003, 7.856184e-001
1.115619e+003, -2.541153e-001
1.116102e+003, 2.477215e+000
1.116584e+003, 3.348532e+000
1.117066e+003, 5.046838e-001
1.117548e+003, -1.511964e+000
1.118030e+003, -1.009056e-001
1.118512e+003, 1.615725e+000
1.118994e+003, 4.268876e-002
1.119476e+003, -3.622390e+000
1.119958e+003, -4.382730e+000
1.120441e+003, -9.463718e-001
1.120923e+003, 1.250952e+000
1.121405e+003, 1.685299e+000
1.121887e+003, 2.038180e+000
1.122369e+003, 2.914787e+000
1.122851e+003, 3.443124e+000
1.123333e+003, 2.760737e+000
1.123815e+003, 1.513386e+000
1.124297e+003, 1.223485e+000
1.124780e+003, 2.024533e+000
1.125262e+003, 1.996053e+000
1.125744e+003, 8.292732e-001
1.126226e+003, 2.841837e-003
1.126708e+003, -1.429546e-001
1.127190e+003, -2.440597e-001
1.127672e+003, -7.018312e-001
1.128154e+003, -1.170403e+000
1.128636e+003, -1.125555e+000
1.129119e+003, -6.248971e-001
1.129601e+003, -1.640198e-001
1.130083e+003, 2.455725e-001
1.130565e+003, 8.940058e-001
1.131047e+003, 1.896524e+000
1.131529e+003, 2.153262e+000
1.132011e+003, 1.088184e+000
1.132493e+003, 1.635459e-001
1.132976e+003, 1.049060e+000
1.133458e+003, 2.805989e+000
1.133940e+003, 2.431794e+000
1.134422e+003, 1.560443e-001
1.134904e+003, -1.150486e+000
1.135386e+003, -1.374086e+000
1.135868e+003, -7.734173e-001
1.136350e+003, 5.516059e-001
1.136833e+003, 1.359271e+000
1.137315e+003, 7.000172e-001
1.137797e+003, -4.948347e-001
1.138279e+003, -5.784390e-001
1.138761e+003, 8.923233e-002
1.139243e+003, 2.330312e-001
1.139725e+003, -1.862646e-002
1.140207e+003, -8.360891e-003
1.140689e+003, 3.030106e-001
1.141172e+003, 2.861431e-001
1.141654e+003, -3.490790e-001
1.142136e+003, -8.094937e-001
1.142618e+003, 5.383742e-002
1.143100e+003, 1.289321e+000
1.143582e+003, 9.059346e-001
1.144064e+003, -1.661637e-001
1.144546e+003, 2.723031e-001
1.145029e+003, 1.859329e+000
1.145511e+003, 2.753316e+000
1.145993e+003, 2.487791e+000
1.146475e+003, 2.164252e+000
1.146957e+003, 2.620595e+000
1.147439e+003, 3.086607e+000
1.147921e+003, 2.682423e+000
1.148403e+003, 1.959077e+000
1.148885e+003, 1.411105e+000
1.149368e+003, 1.129679e+000
1.149850e+003, 1.351562e+000
1.150332e+003, 1.935713e+000
1.150814e+003, 2.294277e+000
1.151296e+003, 2.189346e+000
1.151778e+003, 1.803917e+000
1.152260e+003, 8.605900e-001
1.152742e+003, 1.243459e-001
1.153224e+003, 6.431512e-001
1.153707e+003, 1.204419e+000
1.154189e+003, -3.860027e-002
1.154671e+003, -2.159829e+000
1.155153e+003, -2.728818e+000
1.155635e+003, -1.243214e+000
1.156117e+003, 1.910751e-001
1.156599e+003, 1.284094e+000
1.157081e+003, 1.697501e+000
1.157563e+003, 4.182165e-001
1.158046e+003, -5.801095e-001
1.158528e+003, 6.587707e-001
1.159010e+003, 2.444539e+000
1.159492e+003, 2.199862e+000
1.159974e+003, 1.229209e-001
1.160456e+003, -1.002877e+000
1.160938e+003, -3.384584e-001
1.161420e+003, 7.839059e-002
1.161903e+003, -3.777831e-002
1.162385e+003, -9.901874e-002
1.162867e+003, 4.697757e-001
1.163349e+003, 6.217356e-001
1.163831e+003, -1.013645e+000
1.164313e+003, -3.340154e+000
1.164795e+003, -3.489672e+000
1.165277e+003, -1.077470e+000
1.165760e+003, 2.300172e-001
1.166242e+003, 8.538394e-002
1.166724e+003, -9.537806e-002
1.167206e+003, -1.762831e-001
1.167688e+003, 5.941949e-003
1.168170e+003, 6.017275e-001
1.168652e+003, 1.332708e+000
1.169134e+003, 1.888655e+000
1.169616e+003, 2.226352e+000
1.170099e+003, 1.991144e+000
1.170581e+003, 1.170232e+000
1.171063e+003, 8.262145e-001
1.171545e+003, 1.024007e+000
1.172027e+003, 1.907496e+000
1.172509e+003, 3.543659e+000
1.172991e+003, 4.636482e+000
1.173473e+003, 4.159081e+000
1.173956e+003, 2.822107e+000
1.174438e+003, 1.491596e+000
1.174920e+003, 3.981851e-001
1.175402e+003, 6.827552e-001
1.175884e+003, 1.870190e+000
1.176366e+003, 2.173013e+000
1.176848e+003, 1.476692e+000
1.177330e+003, 7.318944e-001
1.177813e+003, 3.555779e-001
1.178295e+003, 2.226311e-001
1.178777e+003, 2.944942e-001
1.179259e+003, 4.370371e-001
1.179741e+003, 4.944010e-001
1.180223e+003, 5.072992e-001
1.180705e+003, 6.284144e-001
1.181187e+003, 7.176996e-001
1.181669e+003, 2.264250e-001
1.182151e+003, -7.060616e-001
1.182634e+003, -8.114739e-001
1.183116e+003, 8.288487e-001
1.183598e+003, 2.065956e+000
1.184080e+003, 1.249205e+000
1.184562e+003, 5.766976e-002
1.185044e+003, -7.598833e-001
1.185526e+003, -1.067067e+000
1.186008e+003, -4.548935e-001
1.186490e+003, 6.487142e-001
1.186973e+003, 1.256868e+000
1.187455e+003, 1.181518e+000
1.187937e+003, 1.099325e+000
1.188419e+003, 1.403219e+000
1.188901e+003, 1.321395e+000
1.189383e+003, 3.408574e-001
1.189865e+003, -6.339139e-001
1.190347e+003, -1.153959e+000
1.190830e+003, -1.435191e+000
1.191312e+003, -1.829806e+000
1.191794e+003, -2.190700e+000
1.192276e+003, -1.676905e+000
1.192758e+003, 3.745128e-001
1.193240e+003, 9.313623e-001
1.193722e+003, -6.406291e-001
1.194204e+003, -1.789215e+000
1.194687e+003, -1.810824e+000
1.195169e+003, -1.722874e+000
1.195651e+003, -2.242227e+000
1.196133e+003, -2.794780e+000
1.196615e+003, -2.357028e+000
1.197097e+003, -1.167528e+000
1.197579e+003, -7.746071e-001
1.198061e+003, -1.123805e+000
1.198543e+003, -1.231920e+000
1.199026e+003, -1.000678e+000
1.199508e+003, -3.356589e-001
1.199990e+003, 7.570881e-001
1.200472e+003, 1.589601e+000
1.200954e+003, 1.581029e+000
1.201436e+003, 1.152258e+000
1.201918e+003, 8.315653e-001
1.202400e+003, 6.131588e-001
1.202883e+003, 6.685066e-001
1.203365e+003, 7.514766e-001
1.203847e+003, 1.745937e-001
1.204329e+003, -9.460998e-001
1.204811e+003, -2.035718e+000
1.205293e+003, -2.846083e+000
1.205775e+003, -2.872870e+000
1.206257e+003, -1.172262e+000
1.206740e+003, 6.007246e-001
1.207222e+003, 1.287646e+000
1.207704e+003, 1.466128e+000
1.208186e+003, 1.342578e+000
1.208668e+003, 1.255194e+000
1.209150e+003, 1.885324e+000
1.209632e+003, 3.016702e+000
1.210114e+003, 3.324018e+000
1.210596e+003, 2.180522e+000
1.211078e+003, 1.316853e+000
1.211561e+003, 1.544932e+000
1.212043e+003, 1.439949e+000
1.212525e+003, -3.317251e-001
1.213007e+003, -1.570424e+000
1.213489e+003, -2.533296e-001
1.213971e+003, 1.989370e+000
1.214453e+003, 2.578212e+000
1.214935e+003, 1.612149e+000
1.215417e+003, 8.910697e-001
1.215900e+003, 4.102406e-001
1.216382e+003, 2.501515e-001
1.216864e+003, 5.276430e-001
1.217346e+003, 6.190347e-001
1.217828e+003, 3.018599e-001
1.218310e+003, -1.342380e-001
1.218792e+003, -5.128970e-001
1.219274e+003, -7.092112e-001
1.219757e+003, -4.381489e-001
1.220239e+003, 2.039488e-001
1.220721e+003, 8.144238e-001
1.221203e+003, 1.377019e+000
1.221685e+003, 1.829503e+000
1.222167e+003, 2.148689e+000
1.222649e+003, 2.294740e+000
1.223131e+003, 2.243825e+000
1.223614e+003, 1.856738e+000
1.224096e+003, 8.700069e-001
1.224578e+003, -8.227135e-003
1.225060e+003, 2.940118e-001
1.225542e+003, 8.818923e-001
1.226024e+003, 4.600359e-001
1.226506e+003, -2.861533e-001
1.226988e+003, -1.014663e-001
1.227470e+003, 8.143297e-001
1.227953e+003, 1.478690e+000
1.228435e+003, 1.622223e+000
1.228917e+003, 1.383960e+000
1.229399e+003, 2.024347e-001
1.229881e+003, -4.659171e-001
1.230363e+003, 4.990701e-001
1.230845e+003, 1.373650e+000
1.231327e+003, 8.834223e-001
1.231810e+003, -5.279757e-002
1.232292e+003, -2.781591e-001
1.232774e+003, 2.280285e-002
1.233256e+003, 4.532934e-002
1.233738e+003, -3.588076e-001
1.234220e+003, -3.591631e-001
1.234702e+003, 2.508379e-001
1.235184e+003, 5.790548e-001
1.235667e+003, 4.180024e-001
1.236149e+003, 1.063535e-001
1.236631e+003, -2.219100e-001
1.237113e+003, -4.398362e-001
1.237595e+003, -3.994764e-001
1.238077e+003, -1.212247e-001
1.238559e+003, 6.866074e-001
1.239041e+003, 1.698047e+000
1.239523e+003, 6.527356e-001
1.240005e+003, -1.891405e+000
1.240488e+003, -2.643073e+000
1.240970e+003, -1.172349e+000
1.241452e+003, 6.153671e-001
1.241934e+003, 1.796563e+000
1.242416e+003, 2.366400e+000
1.242898e+003, 1.902370e+000
1.243380e+003, 1.314218e+000
1.243862e+003, 1.623609e+000
1.244344e+003, 2.215030e+000
1.244827e+003, 2.411292e+000
1.245309e+003, 2.361800e+000
1.245791e+003, 2.594830e+000
1.246273e+003, 2.986351e+000
1.246755e+003, 2.525455e+000
1.247237e+003, 5.228176e-001
1.247719e+003, -8.286790e-001
1.248201e+003, -8.473698e-001
1.248684e+003, -4.232391e-001
1.249166e+003, 8.181744e-001
1.249648e+003, 1.687503e+000
1.250130e+003, 1.246807e+000
1.250612e+003, 3.455168e-001
1.251094e+003, 2.026446e-001
1.251576e+003, 6.214072e-001
1.252058e+003, 1.429107e-001
1.252541e+003, -1.536535e+000
1.253023e+003, -1.633812e+000
1.253505e+003, 1.170897e-001
1.253987e+003, 1.029410e+000
1.254469e+003, 4.678658e-001
1.254951e+003, -4.883281e-001
1.255433e+003, -1.250821e+000
1.255915e+003, -1.524231e+000
1.256397e+003, -6.861643e-001
1.256880e+003, 5.163962e-001
1.257362e+003, 3.600201e-001
1.257844e+003, -3.850641e-001
1.258326e+003, -1.862396e-001
1.258808e+003, 7.507742e-001
1.259290e+003, 1.860517e+000
1.259772e+003, 2.868264e+000
1.260254e+003, 3.263575e+000
1.260737e+003, 2.739257e+000
1.261219e+003, 2.393211e+000
1.261701e+003, 3.651768e+000
1.262183e+003, 4.093598e+000
1.262665e+003, 1.578556e+000
1.263147e+003, -1.157806e+000
1.263629e+003, -2.242382e+000
1.264111e+003, -2.234420e+000
1.264594e+003, -1.968358e+000
1.265076e+003, -1.446314e+000
1.265558e+003, -3.792136e-001
1.266040e+003, 1.753255e+000
1.266522e+003, 2.353527e+000
1.267004e+003, 6.949882e-001
1.267486e+003, 2.084964e-001
1.267968e+003, 1.817495e+000
1.268450e+003, 3.373349e+000
1.268932e+003, 3.813127e+000
1.269415e+003, 3.468298e+000
1.269897e+003, 2.526919e+000
1.270379e+003, 1.496884e+000
1.270861e+003, 1.720555e+000
1.271343e+003, 2.828094e+000
1.271825e+003, 4.121617e+000
1.272307e+003, 5.200581e+000
1.272789e+003, 4.633695e+000
1.273271e+003, 2.725291e+000
1.273754e+003, 1.650651e+000
1.274236e+003, 2.196862e+000
1.274718e+003, 2.781668e+000
1.275200e+003, 2.090204e+000
1.275682e+003, 1.567810e+000
1.276164e+003, 2.479856e+000
1.276646e+003, 3.412993e+000
1.277128e+003, 3.151398e+000
1.277611e+003, 2.500682e+000
1.278093e+003, 2.479974e+000
1.278575e+003, 2.910082e+000
1.279057e+003, 2.992333e+000
1.279539e+003, 2.641358e+000
1.280021e+003, 2.473757e+000
1.280503e+003, 2.660354e+000
1.280985e+003, 2.466408e+000
1.281468e+003, 1.611148e+000
1.281950e+003, 1.252073e+000
1.282432e+003, 1.922310e+000
1.282914e+003, 2.551996e+000
1.283396e+003, 2.189520e+000
1.283878e+003, 1.509890e+000
1.284360e+003, 1.878000e+000
1.284842e+003, 2.892285e+000
1.285324e+003, 3.418015e+000
##END=



