##NAMES=Tilasite
##RRUFFID=R050246
##IDEAL CHEMISTRY=CaMgAs^5+^O_4_F
##LOCALITY=Langban, Filipstad, Varmland, Sweden
##OWNER=RRUFF
##SOURCE=Marcus Origlieri
##DESCRIPTION=Reddish-brown granular
##STATUS=The identification of this mineral has been confirmed by X-ray diffraction and chemical analysis
##URL=rruff.info/R050246
##MEASURED CHEMISTRY=Ca_1.02_Mg_0.98_(As_1.00_O_4_)F_1.00_
8.975323e+001, 0.000000e+000
9.023535e+001, 6.313176e+002
9.071747e+001, 6.271719e+002
9.119958e+001, 6.233378e+002
9.168170e+001, 6.314666e+002
9.216382e+001, 6.371785e+002
9.264594e+001, 6.381251e+002
9.312805e+001, 6.363383e+002
9.361017e+001, 6.342094e+002
9.409229e+001, 6.319650e+002
9.457440e+001, 6.305369e+002
9.505651e+001, 6.272221e+002
9.553863e+001, 6.208595e+002
9.602074e+001, 6.140508e+002
9.650286e+001, 6.092522e+002
9.698498e+001, 6.071042e+002
9.746709e+001, 6.056736e+002
9.794921e+001, 6.039977e+002
9.843133e+001, 6.013810e+002
9.891344e+001, 5.995399e+002
9.939556e+001, 5.987349e+002
9.987768e+001, 5.988242e+002
1.003598e+002, 5.996459e+002
1.008419e+002, 6.010985e+002
1.013240e+002, 6.032823e+002
1.018061e+002, 6.060212e+002
1.022883e+002, 6.088837e+002
1.027704e+002, 6.124738e+002
1.032525e+002, 6.172083e+002
1.037346e+002, 6.230202e+002
1.042167e+002, 6.301871e+002
1.046988e+002, 6.388849e+002
1.051810e+002, 6.487979e+002
1.056631e+002, 6.598028e+002
1.061452e+002, 6.725627e+002
1.066273e+002, 6.864996e+002
1.071094e+002, 6.991028e+002
1.075915e+002, 7.081581e+002
1.080737e+002, 7.186546e+002
1.085558e+002, 7.323093e+002
1.090379e+002, 7.489120e+002
1.095200e+002, 7.675607e+002
1.100021e+002, 7.873607e+002
1.104842e+002, 8.078763e+002
1.109664e+002, 8.315860e+002
1.114485e+002, 8.570899e+002
1.119306e+002, 8.864838e+002
1.124127e+002, 9.206385e+002
1.128948e+002, 9.597028e+002
1.133769e+002, 1.003945e+003
1.138591e+002, 1.053252e+003
1.143412e+002, 1.109071e+003
1.148233e+002, 1.169803e+003
1.153054e+002, 1.239021e+003
1.157875e+002, 1.311471e+003
1.162696e+002, 1.388820e+003
1.167517e+002, 1.473287e+003
1.172339e+002, 1.550119e+003
1.177160e+002, 1.579523e+003
1.181981e+002, 1.559797e+003
1.186802e+002, 1.513330e+003
1.191623e+002, 1.430010e+003
1.196444e+002, 1.322021e+003
1.201266e+002, 1.221329e+003
1.206087e+002, 1.140432e+003
1.210908e+002, 1.079352e+003
1.215729e+002, 1.030452e+003
1.220550e+002, 9.958435e+002
1.225371e+002, 9.696896e+002
1.230193e+002, 9.492971e+002
1.235014e+002, 9.352067e+002
1.239835e+002, 9.218322e+002
1.244656e+002, 9.054011e+002
1.249477e+002, 8.888372e+002
1.254298e+002, 8.750807e+002
1.259120e+002, 8.658341e+002
1.263941e+002, 8.592955e+002
1.268762e+002, 8.513287e+002
1.273583e+002, 8.401010e+002
1.278404e+002, 8.306102e+002
1.283225e+002, 8.253472e+002
1.288047e+002, 8.221915e+002
1.292868e+002, 8.183414e+002
1.297689e+002, 8.119319e+002
1.302510e+002, 8.031656e+002
1.307331e+002, 7.949973e+002
1.312152e+002, 7.863453e+002
1.316974e+002, 7.793572e+002
1.321795e+002, 7.757758e+002
1.326616e+002, 7.745414e+002
1.331437e+002, 7.732327e+002
1.336258e+002, 7.696950e+002
1.341079e+002, 7.635064e+002
1.345901e+002, 7.574945e+002
1.350722e+002, 7.504927e+002
1.355543e+002, 7.444952e+002
1.360364e+002, 7.410287e+002
1.365185e+002, 7.400847e+002
1.370006e+002, 7.402079e+002
1.374828e+002, 7.398437e+002
1.379649e+002, 7.388486e+002
1.384470e+002, 7.380983e+002
1.389291e+002, 7.377822e+002
1.394112e+002, 7.376800e+002
1.398933e+002, 7.374746e+002
1.403755e+002, 7.370441e+002
1.408576e+002, 7.367271e+002
1.413397e+002, 7.369285e+002
1.418218e+002, 7.375728e+002
1.423039e+002, 7.386733e+002
1.427860e+002, 7.398282e+002
1.432681e+002, 7.413457e+002
1.437503e+002, 7.445497e+002
1.442324e+002, 7.507863e+002
1.447145e+002, 7.576558e+002
1.451966e+002, 7.628615e+002
1.456787e+002, 7.663727e+002
1.461608e+002, 7.697134e+002
1.466430e+002, 7.739664e+002
1.471251e+002, 7.791367e+002
1.476072e+002, 7.852579e+002
1.480893e+002, 7.920311e+002
1.485714e+002, 8.001214e+002
1.490535e+002, 8.102186e+002
1.495357e+002, 8.223867e+002
1.500178e+002, 8.360430e+002
1.504999e+002, 8.501302e+002
1.509820e+002, 8.643644e+002
1.514641e+002, 8.801154e+002
1.519462e+002, 8.979899e+002
1.524284e+002, 9.168548e+002
1.529105e+002, 9.367589e+002
1.533926e+002, 9.574827e+002
1.538747e+002, 9.777214e+002
1.543568e+002, 9.942973e+002
1.548389e+002, 1.011822e+003
1.553211e+002, 1.018501e+003
1.558032e+002, 1.011570e+003
1.562853e+002, 9.944039e+002
1.567674e+002, 9.701144e+002
1.572495e+002, 9.400067e+002
1.577316e+002, 9.050170e+002
1.582138e+002, 8.688178e+002
1.586959e+002, 8.294421e+002
1.591780e+002, 7.911730e+002
1.596601e+002, 7.536461e+002
1.601422e+002, 7.179622e+002
1.606243e+002, 6.866044e+002
1.611065e+002, 6.614045e+002
1.615886e+002, 6.419376e+002
1.620707e+002, 6.249839e+002
1.625528e+002, 6.113103e+002
1.630349e+002, 5.991767e+002
1.635170e+002, 5.874022e+002
1.639991e+002, 5.760987e+002
1.644813e+002, 5.667559e+002
1.649634e+002, 5.611767e+002
1.654455e+002, 5.581620e+002
1.659276e+002, 5.547087e+002
1.664097e+002, 5.505046e+002
1.668918e+002, 5.457198e+002
1.673740e+002, 5.401857e+002
1.678561e+002, 5.336026e+002
1.683382e+002, 5.277398e+002
1.688203e+002, 5.238253e+002
1.693024e+002, 5.212186e+002
1.697845e+002, 5.193851e+002
1.702667e+002, 5.184470e+002
1.707488e+002, 5.179884e+002
1.712309e+002, 5.169296e+002
1.717130e+002, 5.146593e+002
1.721951e+002, 5.129509e+002
1.726772e+002, 5.130007e+002
1.731594e+002, 5.138513e+002
1.736415e+002, 5.140141e+002
1.741236e+002, 5.122912e+002
1.746057e+002, 5.092054e+002
1.750878e+002, 5.080048e+002
1.755699e+002, 5.101186e+002
1.760521e+002, 5.127411e+002
1.765342e+002, 5.149763e+002
1.770163e+002, 5.171628e+002
1.774984e+002, 5.199743e+002
1.779805e+002, 5.239690e+002
1.784626e+002, 5.291666e+002
1.789448e+002, 5.343630e+002
1.794269e+002, 5.394048e+002
1.799090e+002, 5.446002e+002
1.803911e+002, 5.493150e+002
1.808732e+002, 5.541500e+002
1.813553e+002, 5.604668e+002
1.818375e+002, 5.695842e+002
1.823196e+002, 5.818478e+002
1.828017e+002, 5.936601e+002
1.832838e+002, 6.060822e+002
1.837659e+002, 6.172736e+002
1.842480e+002, 6.268914e+002
1.847301e+002, 6.346074e+002
1.852123e+002, 6.396018e+002
1.856944e+002, 6.410826e+002
1.861765e+002, 6.385531e+002
1.866586e+002, 6.332977e+002
1.871407e+002, 6.235933e+002
1.876228e+002, 6.125710e+002
1.881050e+002, 6.017987e+002
1.885871e+002, 5.916053e+002
1.890692e+002, 5.828555e+002
1.895513e+002, 5.765908e+002
1.900334e+002, 5.728844e+002
1.905155e+002, 5.704202e+002
1.909977e+002, 5.694306e+002
1.914798e+002, 5.694834e+002
1.919619e+002, 5.704953e+002
1.924440e+002, 5.726933e+002
1.929261e+002, 5.746212e+002
1.934082e+002, 5.743267e+002
1.938904e+002, 5.724722e+002
1.943725e+002, 5.709680e+002
1.948546e+002, 5.699573e+002
1.953367e+002, 5.697521e+002
1.958188e+002, 5.711309e+002
1.963009e+002, 5.745652e+002
1.967831e+002, 5.787582e+002
1.972652e+002, 5.826317e+002
1.977473e+002, 5.864247e+002
1.982294e+002, 5.907448e+002
1.987115e+002, 5.965153e+002
1.991936e+002, 6.032522e+002
1.996758e+002, 6.087219e+002
2.001579e+002, 6.121868e+002
2.006400e+002, 6.152782e+002
2.011221e+002, 6.184064e+002
2.016042e+002, 6.218181e+002
2.020863e+002, 6.260443e+002
2.025685e+002, 6.314872e+002
2.030506e+002, 6.381220e+002
2.035327e+002, 6.454725e+002
2.040148e+002, 6.544636e+002
2.044969e+002, 6.631974e+002
2.049790e+002, 6.708265e+002
2.054612e+002, 6.775579e+002
2.059433e+002, 6.840029e+002
2.064254e+002, 6.904208e+002
2.069075e+002, 6.967529e+002
2.073896e+002, 7.041874e+002
2.078717e+002, 7.143542e+002
2.083539e+002, 7.242014e+002
2.088360e+002, 7.322610e+002
2.093181e+002, 7.390391e+002
2.098002e+002, 7.460696e+002
2.102823e+002, 7.548124e+002
2.107644e+002, 7.654530e+002
2.112466e+002, 7.757242e+002
2.117287e+002, 7.853967e+002
2.122108e+002, 7.949338e+002
2.126929e+002, 8.043451e+002
2.131750e+002, 8.137494e+002
2.136571e+002, 8.235303e+002
2.141393e+002, 8.340807e+002
2.146214e+002, 8.455803e+002
2.151035e+002, 8.567156e+002
2.155856e+002, 8.680380e+002
2.160677e+002, 8.786568e+002
2.165498e+002, 8.880255e+002
2.170320e+002, 8.962186e+002
2.175141e+002, 9.038577e+002
2.179962e+002, 9.113953e+002
2.184783e+002, 9.188058e+002
2.189604e+002, 9.263447e+002
2.194425e+002, 9.345399e+002
2.199247e+002, 9.424578e+002
2.204068e+002, 9.495657e+002
2.208889e+002, 9.558405e+002
2.213710e+002, 9.614449e+002
2.218531e+002, 9.662339e+002
2.223352e+002, 9.701833e+002
2.228174e+002, 9.754897e+002
2.232995e+002, 9.839240e+002
2.237816e+002, 9.924182e+002
2.242637e+002, 9.979430e+002
2.247458e+002, 1.000525e+003
2.252279e+002, 1.003574e+003
2.257100e+002, 1.010244e+003
2.261922e+002, 1.020110e+003
2.266743e+002, 1.029031e+003
2.271564e+002, 1.034870e+003
2.276385e+002, 1.040824e+003
2.281206e+002, 1.049836e+003
2.286027e+002, 1.062069e+003
2.290849e+002, 1.075755e+003
2.295670e+002, 1.088977e+003
2.300491e+002, 1.102732e+003
2.305312e+002, 1.119878e+003
2.310133e+002, 1.142458e+003
2.314954e+002, 1.167745e+003
2.319776e+002, 1.192029e+003
2.324597e+002, 1.214784e+003
2.329418e+002, 1.240172e+003
2.334239e+002, 1.271911e+003
2.339060e+002, 1.308083e+003
2.343881e+002, 1.346339e+003
2.348703e+002, 1.386253e+003
2.353524e+002, 1.427882e+003
2.358345e+002, 1.472895e+003
2.363166e+002, 1.523075e+003
2.367987e+002, 1.570235e+003
2.372808e+002, 1.612013e+003
2.377630e+002, 1.648011e+003
2.382451e+002, 1.677260e+003
2.387272e+002, 1.699893e+003
2.392093e+002, 1.714973e+003
2.396914e+002, 1.721447e+003
2.401735e+002, 1.719982e+003
2.406557e+002, 1.707195e+003
2.411378e+002, 1.678569e+003
2.416199e+002, 1.639963e+003
2.421020e+002, 1.595171e+003
2.425841e+002, 1.544988e+003
2.430662e+002, 1.491044e+003
2.435484e+002, 1.435305e+003
2.440305e+002, 1.376435e+003
2.445126e+002, 1.319737e+003
2.449947e+002, 1.265708e+003
2.454768e+002, 1.214854e+003
2.459589e+002, 1.167796e+003
2.464410e+002, 1.124671e+003
2.469232e+002, 1.085496e+003
2.474053e+002, 1.049651e+003
2.478874e+002, 1.017147e+003
2.483695e+002, 9.886127e+002
2.488516e+002, 9.637988e+002
2.493337e+002, 9.426211e+002
2.498159e+002, 9.256314e+002
2.502980e+002, 9.129008e+002
2.507801e+002, 9.032718e+002
2.512622e+002, 8.945102e+002
2.517443e+002, 8.855457e+002
2.522264e+002, 8.803209e+002
2.527086e+002, 8.786874e+002
2.531907e+002, 8.804752e+002
2.536728e+002, 8.859808e+002
2.541549e+002, 8.951406e+002
2.546370e+002, 9.070902e+002
2.551191e+002, 9.206324e+002
2.556013e+002, 9.355992e+002
2.560834e+002, 9.527399e+002
2.565655e+002, 9.738031e+002
2.570476e+002, 9.953312e+002
2.575297e+002, 1.015945e+003
2.580118e+002, 1.034965e+003
2.584940e+002, 1.051807e+003
2.589761e+002, 1.066118e+003
2.594582e+002, 1.079791e+003
2.599403e+002, 1.085178e+003
2.604224e+002, 1.081178e+003
2.609045e+002, 1.071758e+003
2.613867e+002, 1.058067e+003
2.618688e+002, 1.040915e+003
2.623509e+002, 1.021878e+003
2.628330e+002, 1.002344e+003
2.633151e+002, 9.815032e+002
2.637972e+002, 9.633822e+002
2.642794e+002, 9.478431e+002
2.647615e+002, 9.345619e+002
2.652436e+002, 9.236049e+002
2.657257e+002, 9.148795e+002
2.662078e+002, 9.080596e+002
2.666899e+002, 9.028302e+002
2.671721e+002, 8.991711e+002
2.676542e+002, 8.978160e+002
2.681363e+002, 9.006068e+002
2.686184e+002, 9.035317e+002
2.691005e+002, 9.040114e+002
2.695826e+002, 9.026171e+002
2.700648e+002, 9.020180e+002
2.705469e+002, 9.046221e+002
2.710290e+002, 9.105837e+002
2.715111e+002, 9.147065e+002
2.719932e+002, 9.158309e+002
2.724753e+002, 9.166707e+002
2.729575e+002, 9.178361e+002
2.734396e+002, 9.195936e+002
2.739217e+002, 9.224373e+002
2.744038e+002, 9.268221e+002
2.748859e+002, 9.326130e+002
2.753680e+002, 9.380482e+002
2.758501e+002, 9.430765e+002
2.763322e+002, 9.479213e+002
2.768144e+002, 9.526422e+002
2.772965e+002, 9.572593e+002
2.777786e+002, 9.617625e+002
2.782607e+002, 9.661357e+002
2.787428e+002, 9.704069e+002
2.792249e+002, 9.747418e+002
2.797071e+002, 9.787806e+002
2.801892e+002, 9.832883e+002
2.806713e+002, 9.882845e+002
2.811534e+002, 9.939017e+002
2.816355e+002, 1.000798e+003
2.821176e+002, 1.009520e+003
2.825998e+002, 1.018827e+003
2.830819e+002, 1.025114e+003
2.835640e+002, 1.027124e+003
2.840461e+002, 1.029120e+003
2.845282e+002, 1.032121e+003
2.850103e+002, 1.035586e+003
2.854925e+002, 1.038506e+003
2.859746e+002, 1.040460e+003
2.864567e+002, 1.042410e+003
2.869388e+002, 1.046379e+003
2.874209e+002, 1.053325e+003
2.879030e+002, 1.058839e+003
2.883852e+002, 1.060932e+003
2.888673e+002, 1.061721e+003
2.893494e+002, 1.064285e+003
2.898315e+002, 1.069416e+003
2.903136e+002, 1.074260e+003
2.907957e+002, 1.074452e+003
2.912779e+002, 1.068982e+003
2.917600e+002, 1.066983e+003
2.922421e+002, 1.072384e+003
2.927242e+002, 1.079945e+003
2.932063e+002, 1.085247e+003
2.936884e+002, 1.087677e+003
2.941706e+002, 1.087194e+003
2.946527e+002, 1.082647e+003
2.951348e+002, 1.074026e+003
2.956169e+002, 1.068287e+003
2.960990e+002, 1.067307e+003
2.965811e+002, 1.068114e+003
2.970633e+002, 1.068954e+003
2.975454e+002, 1.069635e+003
2.980275e+002, 1.069664e+003
2.985096e+002, 1.068346e+003
2.989917e+002, 1.066036e+003
2.994738e+002, 1.064974e+003
2.999560e+002, 1.067389e+003
3.004381e+002, 1.069025e+003
3.009202e+002, 1.066252e+003
3.014023e+002, 1.060079e+003
3.018844e+002, 1.055326e+003
3.023665e+002, 1.054987e+003
3.028487e+002, 1.057455e+003
3.033308e+002, 1.057646e+003
3.038129e+002, 1.054047e+003
3.042950e+002, 1.050848e+003
3.047771e+002, 1.050445e+003
3.052592e+002, 1.051904e+003
3.057414e+002, 1.052782e+003
3.062235e+002, 1.052087e+003
3.067056e+002, 1.050521e+003
3.071877e+002, 1.049432e+003
3.076698e+002, 1.048900e+003
3.081519e+002, 1.048378e+003
3.086341e+002, 1.047635e+003
3.091162e+002, 1.046801e+003
3.095983e+002, 1.046179e+003
3.100804e+002, 1.045898e+003
3.105625e+002, 1.045608e+003
3.110446e+002, 1.044592e+003
3.115268e+002, 1.042768e+003
3.120089e+002, 1.041765e+003
3.124910e+002, 1.041331e+003
3.129731e+002, 1.042149e+003
3.134552e+002, 1.045354e+003
3.139373e+002, 1.051158e+003
3.144195e+002, 1.058087e+003
3.149016e+002, 1.065173e+003
3.153837e+002, 1.072374e+003
3.158658e+002, 1.079020e+003
3.163479e+002, 1.083726e+003
3.168300e+002, 1.088796e+003
3.173121e+002, 1.096202e+003
3.177943e+002, 1.105961e+003
3.182764e+002, 1.116629e+003
3.187585e+002, 1.126700e+003
3.192406e+002, 1.137149e+003
3.197227e+002, 1.151572e+003
3.202048e+002, 1.171178e+003
3.206870e+002, 1.193455e+003
3.211691e+002, 1.216986e+003
3.216512e+002, 1.241986e+003
3.221333e+002, 1.269645e+003
3.226154e+002, 1.300346e+003
3.230975e+002, 1.334131e+003
3.235797e+002, 1.370178e+003
3.240618e+002, 1.408188e+003
3.245439e+002, 1.448633e+003
3.250260e+002, 1.492014e+003
3.255081e+002, 1.537957e+003
3.259902e+002, 1.586701e+003
3.264724e+002, 1.638818e+003
3.269545e+002, 1.692255e+003
3.274366e+002, 1.745265e+003
3.279187e+002, 1.799287e+003
3.284008e+002, 1.845979e+003
3.288829e+002, 1.887303e+003
3.293651e+002, 1.918637e+003
3.298472e+002, 1.934159e+003
3.303293e+002, 1.932851e+003
3.308114e+002, 1.918322e+003
3.312935e+002, 1.892750e+003
3.317756e+002, 1.854965e+003
3.322578e+002, 1.810714e+003
3.327399e+002, 1.753133e+003
3.332220e+002, 1.694744e+003
3.337041e+002, 1.642347e+003
3.341862e+002, 1.597102e+003
3.346683e+002, 1.559740e+003
3.351505e+002, 1.531617e+003
3.356326e+002, 1.512411e+003
3.361147e+002, 1.497438e+003
3.365968e+002, 1.487012e+003
3.370789e+002, 1.479714e+003
3.375610e+002, 1.474996e+003
3.380432e+002, 1.472923e+003
3.385253e+002, 1.473870e+003
3.390074e+002, 1.478124e+003
3.394895e+002, 1.485189e+003
3.399716e+002, 1.493803e+003
3.404537e+002, 1.502037e+003
3.409359e+002, 1.514778e+003
3.414180e+002, 1.535709e+003
3.419001e+002, 1.560709e+003
3.423822e+002, 1.584056e+003
3.428643e+002, 1.604021e+003
3.433464e+002, 1.623580e+003
3.438286e+002, 1.646905e+003
3.443107e+002, 1.675652e+003
3.447928e+002, 1.703879e+003
3.452749e+002, 1.729298e+003
3.457570e+002, 1.755538e+003
3.462391e+002, 1.785873e+003
3.467213e+002, 1.820099e+003
3.472034e+002, 1.855891e+003
3.476855e+002, 1.890855e+003
3.481676e+002, 1.925061e+003
3.486497e+002, 1.959659e+003
3.491318e+002, 1.993772e+003
3.496140e+002, 2.029052e+003
3.500961e+002, 2.066821e+003
3.505782e+002, 2.106060e+003
3.510603e+002, 2.144474e+003
3.515424e+002, 2.180371e+003
3.520245e+002, 2.214660e+003
3.525067e+002, 2.251763e+003
3.529888e+002, 2.294514e+003
3.534709e+002, 2.336452e+003
3.539530e+002, 2.376685e+003
3.544351e+002, 2.415671e+003
3.549172e+002, 2.454502e+003
3.553994e+002, 2.493450e+003
3.558815e+002, 2.531355e+003
3.563636e+002, 2.566556e+003
3.568457e+002, 2.598203e+003
3.573278e+002, 2.628395e+003
3.578099e+002, 2.657458e+003
3.582920e+002, 2.685005e+003
3.587741e+002, 2.711640e+003
3.592563e+002, 2.736882e+003
3.597384e+002, 2.758352e+003
3.602205e+002, 2.773714e+003
3.607026e+002, 2.782583e+003
3.611847e+002, 2.788727e+003
3.616668e+002, 2.796360e+003
3.621490e+002, 2.797200e+003
3.626311e+002, 2.787248e+003
3.631132e+002, 2.768436e+003
3.635953e+002, 2.744839e+003
3.640774e+002, 2.718937e+003
3.645595e+002, 2.690053e+003
3.650417e+002, 2.655067e+003
3.655238e+002, 2.609214e+003
3.660059e+002, 2.563374e+003
3.664880e+002, 2.519111e+003
3.669701e+002, 2.475506e+003
3.674522e+002, 2.431318e+003
3.679344e+002, 2.386407e+003
3.684165e+002, 2.341667e+003
3.688986e+002, 2.298132e+003
3.693807e+002, 2.255492e+003
3.698628e+002, 2.215284e+003
3.703449e+002, 2.177677e+003
3.708271e+002, 2.142138e+003
3.713092e+002, 2.107636e+003
3.717913e+002, 2.074671e+003
3.722734e+002, 2.044310e+003
3.727555e+002, 2.017789e+003
3.732376e+002, 1.995105e+003
3.737198e+002, 1.974409e+003
3.742019e+002, 1.955072e+003
3.746840e+002, 1.938891e+003
3.751661e+002, 1.926845e+003
3.756482e+002, 1.917969e+003
3.761303e+002, 1.910737e+003
3.766125e+002, 1.904147e+003
3.770946e+002, 1.899270e+003
3.775767e+002, 1.898351e+003
3.780588e+002, 1.901474e+003
3.785409e+002, 1.908471e+003
3.790230e+002, 1.918574e+003
3.795052e+002, 1.932877e+003
3.799873e+002, 1.952533e+003
3.804694e+002, 1.977772e+003
3.809515e+002, 2.008186e+003
3.814336e+002, 2.043488e+003
3.819157e+002, 2.083712e+003
3.823979e+002, 2.127703e+003
3.828800e+002, 2.174585e+003
3.833621e+002, 2.226746e+003
3.838442e+002, 2.285095e+003
3.843263e+002, 2.349105e+003
3.848084e+002, 2.418516e+003
3.852906e+002, 2.493133e+003
3.857727e+002, 2.572412e+003
3.862548e+002, 2.656843e+003
3.867369e+002, 2.747593e+003
3.872190e+002, 2.838423e+003
3.877011e+002, 2.929651e+003
3.881833e+002, 3.017928e+003
3.886654e+002, 3.098994e+003
3.891475e+002, 3.175075e+003
3.896296e+002, 3.238210e+003
3.901117e+002, 3.285202e+003
3.905938e+002, 3.315067e+003
3.910760e+002, 3.318068e+003
3.915581e+002, 3.289096e+003
3.920402e+002, 3.232594e+003
3.925223e+002, 3.154413e+003
3.930044e+002, 3.054563e+003
3.934865e+002, 2.944694e+003
3.939687e+002, 2.824407e+003
3.944508e+002, 2.698641e+003
3.949329e+002, 2.575262e+003
3.954150e+002, 2.454043e+003
3.958971e+002, 2.337943e+003
3.963792e+002, 2.227560e+003
3.968614e+002, 2.124045e+003
3.973435e+002, 2.031212e+003
3.978256e+002, 1.951055e+003
3.983077e+002, 1.879052e+003
3.987898e+002, 1.812992e+003
3.992719e+002, 1.752559e+003
3.997540e+002, 1.697197e+003
4.002361e+002, 1.646888e+003
4.007183e+002, 1.601099e+003
4.012004e+002, 1.559372e+003
4.016825e+002, 1.521252e+003
4.021646e+002, 1.487036e+003
4.026467e+002, 1.457267e+003
4.031288e+002, 1.431192e+003
4.036110e+002, 1.408974e+003
4.040931e+002, 1.390504e+003
4.045752e+002, 1.373464e+003
4.050573e+002, 1.355012e+003
4.055394e+002, 1.334539e+003
4.060215e+002, 1.316554e+003
4.065037e+002, 1.301716e+003
4.069858e+002, 1.288454e+003
4.074679e+002, 1.276020e+003
4.079500e+002, 1.264471e+003
4.084321e+002, 1.254279e+003
4.089142e+002, 1.245732e+003
4.093964e+002, 1.238479e+003
4.098785e+002, 1.230681e+003
4.103606e+002, 1.220147e+003
4.108427e+002, 1.212059e+003
4.113248e+002, 1.208744e+003
4.118069e+002, 1.206967e+003
4.122891e+002, 1.203345e+003
4.127712e+002, 1.197131e+003
4.132533e+002, 1.190433e+003
4.137354e+002, 1.186251e+003
4.142175e+002, 1.185383e+003
4.146996e+002, 1.183769e+003
4.151818e+002, 1.180643e+003
4.156639e+002, 1.177471e+003
4.161460e+002, 1.174501e+003
4.166281e+002, 1.171935e+003
4.171102e+002, 1.170038e+003
4.175923e+002, 1.168807e+003
4.180745e+002, 1.168507e+003
4.185566e+002, 1.170479e+003
4.190387e+002, 1.176310e+003
4.195208e+002, 1.180849e+003
4.200029e+002, 1.182144e+003
4.204850e+002, 1.181707e+003
4.209672e+002, 1.180509e+003
4.214493e+002, 1.178746e+003
4.219314e+002, 1.177124e+003
4.224135e+002, 1.176547e+003
4.228956e+002, 1.176954e+003
4.233777e+002, 1.176966e+003
4.238599e+002, 1.175878e+003
4.243420e+002, 1.175076e+003
4.248241e+002, 1.176002e+003
4.253062e+002, 1.178166e+003
4.257883e+002, 1.179777e+003
4.262704e+002, 1.179009e+003
4.267526e+002, 1.177750e+003
4.272347e+002, 1.178675e+003
4.277168e+002, 1.181836e+003
4.281989e+002, 1.186697e+003
4.286810e+002, 1.193473e+003
4.291631e+002, 1.201630e+003
4.296453e+002, 1.209475e+003
4.301274e+002, 1.216226e+003
4.306095e+002, 1.224455e+003
4.310916e+002, 1.235929e+003
4.315737e+002, 1.249655e+003
4.320558e+002, 1.263812e+003
4.325380e+002, 1.277892e+003
4.330201e+002, 1.292282e+003
4.335022e+002, 1.307718e+003
4.339843e+002, 1.324431e+003
4.344664e+002, 1.339685e+003
4.349485e+002, 1.356228e+003
4.354307e+002, 1.368863e+003
4.359128e+002, 1.374795e+003
4.363949e+002, 1.373838e+003
4.368770e+002, 1.365942e+003
4.373591e+002, 1.350787e+003
4.378412e+002, 1.329295e+003
4.383234e+002, 1.305136e+003
4.388055e+002, 1.275496e+003
4.392876e+002, 1.246677e+003
4.397697e+002, 1.218998e+003
4.402518e+002, 1.192478e+003
4.407339e+002, 1.167032e+003
4.412160e+002, 1.142869e+003
4.416982e+002, 1.120475e+003
4.421803e+002, 1.100522e+003
4.426624e+002, 1.082934e+003
4.431445e+002, 1.068058e+003
4.436266e+002, 1.056463e+003
4.441087e+002, 1.047115e+003
4.445909e+002, 1.040207e+003
4.450730e+002, 1.035349e+003
4.455551e+002, 1.031990e+003
4.460372e+002, 1.029926e+003
4.465193e+002, 1.029051e+003
4.470014e+002, 1.029112e+003
4.474836e+002, 1.030050e+003
4.479657e+002, 1.032119e+003
4.484478e+002, 1.035067e+003
4.489299e+002, 1.039430e+003
4.494120e+002, 1.045893e+003
4.498941e+002, 1.054363e+003
4.503763e+002, 1.063854e+003
4.508584e+002, 1.073026e+003
4.513405e+002, 1.082478e+003
4.518226e+002, 1.094415e+003
4.523047e+002, 1.108594e+003
4.527868e+002, 1.125827e+003
4.532690e+002, 1.147141e+003
4.537511e+002, 1.171718e+003
4.542332e+002, 1.198839e+003
4.547153e+002, 1.227933e+003
4.551974e+002, 1.260152e+003
4.556795e+002, 1.295521e+003
4.561617e+002, 1.334547e+003
4.566438e+002, 1.380262e+003
4.571259e+002, 1.433932e+003
4.576080e+002, 1.493920e+003
4.580901e+002, 1.558192e+003
4.585722e+002, 1.626113e+003
4.590544e+002, 1.701917e+003
4.595365e+002, 1.787259e+003
4.600186e+002, 1.879935e+003
4.605007e+002, 1.979685e+003
4.609828e+002, 2.085606e+003
4.614649e+002, 2.195535e+003
4.619471e+002, 2.311178e+003
4.624292e+002, 2.427614e+003
4.629113e+002, 2.526519e+003
4.633934e+002, 2.611536e+003
4.638755e+002, 2.675847e+003
4.643576e+002, 2.720572e+003
4.648398e+002, 2.743691e+003
4.653219e+002, 2.742216e+003
4.658040e+002, 2.716057e+003
4.662861e+002, 2.668577e+003
4.667682e+002, 2.603551e+003
4.672503e+002, 2.520405e+003
4.677325e+002, 2.418972e+003
4.682146e+002, 2.282523e+003
4.686967e+002, 2.145094e+003
4.691788e+002, 2.010469e+003
4.696609e+002, 1.882250e+003
4.701430e+002, 1.765078e+003
4.706252e+002, 1.660857e+003
4.711073e+002, 1.568815e+003
4.715894e+002, 1.488239e+003
4.720715e+002, 1.420076e+003
4.725536e+002, 1.359736e+003
4.730357e+002, 1.309055e+003
4.735179e+002, 1.264953e+003
4.740000e+002, 1.226393e+003
4.744821e+002, 1.193255e+003
4.749642e+002, 1.164518e+003
4.754463e+002, 1.140227e+003
4.759284e+002, 1.119969e+003
4.764106e+002, 1.103013e+003
4.768927e+002, 1.089709e+003
4.773748e+002, 1.077964e+003
4.778569e+002, 1.067051e+003
4.783390e+002, 1.057111e+003
4.788211e+002, 1.048414e+003
4.793033e+002, 1.041234e+003
4.797854e+002, 1.034374e+003
4.802675e+002, 1.025668e+003
4.807496e+002, 1.017278e+003
4.812317e+002, 1.014096e+003
4.817138e+002, 1.017171e+003
4.821959e+002, 1.021124e+003
4.826780e+002, 1.020978e+003
4.831602e+002, 1.016784e+003
4.836423e+002, 1.014408e+003
4.841244e+002, 1.014465e+003
4.846065e+002, 1.015543e+003
4.850886e+002, 1.016232e+003
4.855707e+002, 1.017740e+003
4.860529e+002, 1.022638e+003
4.865350e+002, 1.031868e+003
4.870171e+002, 1.043180e+003
4.874992e+002, 1.052640e+003
4.879813e+002, 1.058735e+003
4.884634e+002, 1.067412e+003
4.889456e+002, 1.079052e+003
4.894277e+002, 1.092414e+003
4.899098e+002, 1.106693e+003
4.903919e+002, 1.122174e+003
4.908740e+002, 1.139415e+003
4.913561e+002, 1.158556e+003
4.918383e+002, 1.180065e+003
4.923204e+002, 1.205580e+003
4.928025e+002, 1.236118e+003
4.932846e+002, 1.267694e+003
4.937667e+002, 1.297994e+003
4.942488e+002, 1.329964e+003
4.947310e+002, 1.365500e+003
4.952131e+002, 1.404691e+003
4.956952e+002, 1.447108e+003
4.961773e+002, 1.494692e+003
4.966594e+002, 1.544805e+003
4.971415e+002, 1.591264e+003
4.976237e+002, 1.634982e+003
4.981058e+002, 1.670352e+003
4.985879e+002, 1.695187e+003
4.990700e+002, 1.708840e+003
4.995521e+002, 1.711421e+003
5.000342e+002, 1.702287e+003
5.005164e+002, 1.683710e+003
5.009985e+002, 1.654137e+003
5.014806e+002, 1.616507e+003
5.019627e+002, 1.574219e+003
5.024448e+002, 1.527987e+003
5.029269e+002, 1.481319e+003
5.034091e+002, 1.437223e+003
5.038912e+002, 1.395491e+003
5.043733e+002, 1.357568e+003
5.048554e+002, 1.322068e+003
5.053375e+002, 1.291426e+003
5.058196e+002, 1.267688e+003
5.063018e+002, 1.248981e+003
5.067839e+002, 1.232998e+003
5.072660e+002, 1.218829e+003
5.077481e+002, 1.206463e+003
5.082302e+002, 1.195993e+003
5.087123e+002, 1.187511e+003
5.091945e+002, 1.180570e+003
5.096766e+002, 1.176923e+003
5.101587e+002, 1.173087e+003
5.106408e+002, 1.167084e+003
5.111229e+002, 1.159991e+003
5.116050e+002, 1.154031e+003
5.120872e+002, 1.150416e+003
5.125693e+002, 1.148092e+003
5.130514e+002, 1.145041e+003
5.135335e+002, 1.141059e+003
5.140156e+002, 1.137904e+003
5.144977e+002, 1.136692e+003
5.149799e+002, 1.135679e+003
5.154620e+002, 1.133818e+003
5.159441e+002, 1.131024e+003
5.164262e+002, 1.126901e+003
5.169083e+002, 1.119184e+003
5.173904e+002, 1.111225e+003
5.178726e+002, 1.108525e+003
5.183547e+002, 1.110659e+003
5.188368e+002, 1.111065e+003
5.193189e+002, 1.106335e+003
5.198010e+002, 1.098378e+003
5.202831e+002, 1.091333e+003
5.207653e+002, 1.085008e+003
5.212474e+002, 1.079757e+003
5.217295e+002, 1.076935e+003
5.222116e+002, 1.074337e+003
5.226937e+002, 1.069585e+003
5.231758e+002, 1.062967e+003
5.236580e+002, 1.056737e+003
5.241401e+002, 1.052591e+003
5.246222e+002, 1.050154e+003
5.251043e+002, 1.047419e+003
5.255864e+002, 1.044640e+003
5.260685e+002, 1.041167e+003
5.265507e+002, 1.036249e+003
5.270328e+002, 1.031126e+003
5.275149e+002, 1.027110e+003
5.279970e+002, 1.024151e+003
5.284791e+002, 1.020873e+003
5.289612e+002, 1.015646e+003
5.294434e+002, 1.008986e+003
5.299255e+002, 1.004409e+003
5.304076e+002, 1.003359e+003
5.308897e+002, 1.001064e+003
5.313718e+002, 9.929349e+002
5.318539e+002, 9.837346e+002
5.323361e+002, 9.786920e+002
5.328182e+002, 9.790309e+002
5.333003e+002, 9.804542e+002
5.337824e+002, 9.808168e+002
5.342645e+002, 9.801302e+002
5.347466e+002, 9.780389e+002
5.352288e+002, 9.743824e+002
5.357109e+002, 9.708490e+002
5.361930e+002, 9.687404e+002
5.366751e+002, 9.678764e+002
5.371572e+002, 9.669718e+002
5.376393e+002, 9.656429e+002
5.381215e+002, 9.647343e+002
5.386036e+002, 9.647208e+002
5.390857e+002, 9.651450e+002
5.395678e+002, 9.656351e+002
5.400499e+002, 9.660234e+002
5.405320e+002, 9.659919e+002
5.410142e+002, 9.652451e+002
5.414963e+002, 9.637846e+002
5.419784e+002, 9.613679e+002
5.424604e+002, 9.556778e+002
5.429426e+002, 9.518589e+002
5.434247e+002, 9.526343e+002
5.439068e+002, 9.549996e+002
5.443889e+002, 9.552418e+002
5.448710e+002, 9.524566e+002
5.453531e+002, 9.493043e+002
5.458353e+002, 9.486219e+002
5.463174e+002, 9.502714e+002
5.467995e+002, 9.530192e+002
5.472816e+002, 9.578665e+002
5.477637e+002, 9.615364e+002
5.482458e+002, 9.604427e+002
5.487280e+002, 9.571257e+002
5.492101e+002, 9.557925e+002
5.496922e+002, 9.579943e+002
5.501743e+002, 9.604326e+002
5.506564e+002, 9.609258e+002
5.511385e+002, 9.601937e+002
5.516207e+002, 9.598486e+002
5.521028e+002, 9.602452e+002
5.525849e+002, 9.603445e+002
5.530670e+002, 9.588660e+002
5.535491e+002, 9.558029e+002
5.540313e+002, 9.548845e+002
5.545134e+002, 9.580494e+002
5.549955e+002, 9.607130e+002
5.554776e+002, 9.618842e+002
5.559597e+002, 9.617505e+002
5.564418e+002, 9.602000e+002
5.569240e+002, 9.573827e+002
5.574061e+002, 9.543800e+002
5.578882e+002, 9.525378e+002
5.583703e+002, 9.519279e+002
5.588524e+002, 9.505648e+002
5.593345e+002, 9.473398e+002
5.598167e+002, 9.449872e+002
5.602988e+002, 9.459372e+002
5.607809e+002, 9.474835e+002
5.612630e+002, 9.459197e+002
5.617451e+002, 9.400891e+002
5.622272e+002, 9.335873e+002
5.627094e+002, 9.300314e+002
5.631915e+002, 9.283665e+002
5.636736e+002, 9.243914e+002
5.641557e+002, 9.169260e+002
5.646378e+002, 9.107797e+002
5.651199e+002, 9.105111e+002
5.656021e+002, 9.144453e+002
5.660842e+002, 9.148187e+002
5.665663e+002, 9.091725e+002
5.670484e+002, 9.035176e+002
5.675305e+002, 8.998458e+002
5.680126e+002, 8.973340e+002
5.684948e+002, 8.951975e+002
5.689769e+002, 8.931849e+002
5.694590e+002, 8.909055e+002
5.699411e+002, 8.880065e+002
5.704232e+002, 8.845049e+002
5.709053e+002, 8.808978e+002
5.713875e+002, 8.767722e+002
5.718696e+002, 8.731024e+002
5.723517e+002, 8.699794e+002
5.728338e+002, 8.673748e+002
5.733159e+002, 8.653191e+002
5.737980e+002, 8.637754e+002
5.742802e+002, 8.625663e+002
5.747623e+002, 8.618284e+002
5.752444e+002, 8.613309e+002
5.757265e+002, 8.599626e+002
5.762086e+002, 8.574866e+002
5.766907e+002, 8.551188e+002
5.771729e+002, 8.533132e+002
5.776550e+002, 8.520695e+002
5.781371e+002, 8.511482e+002
5.786192e+002, 8.503395e+002
5.791013e+002, 8.507946e+002
5.795834e+002, 8.546278e+002
5.800656e+002, 8.589607e+002
5.805477e+002, 8.601472e+002
5.810298e+002, 8.582673e+002
5.815119e+002, 8.556926e+002
5.819940e+002, 8.536179e+002
5.824761e+002, 8.525441e+002
5.829583e+002, 8.542672e+002
5.834404e+002, 8.623262e+002
5.839225e+002, 8.678121e+002
5.844046e+002, 8.691833e+002
5.848867e+002, 8.692714e+002
5.853688e+002, 8.692460e+002
5.858510e+002, 8.695876e+002
5.863331e+002, 8.708182e+002
5.868152e+002, 8.732372e+002
5.872973e+002, 8.767905e+002
5.877794e+002, 8.819001e+002
5.882615e+002, 8.890381e+002
5.887437e+002, 8.944583e+002
5.892258e+002, 8.965876e+002
5.897079e+002, 8.974106e+002
5.901900e+002, 8.978297e+002
5.906721e+002, 8.982072e+002
5.911542e+002, 9.011091e+002
5.916364e+002, 9.103788e+002
5.921185e+002, 9.198937e+002
5.926006e+002, 9.231380e+002
5.930827e+002, 9.221645e+002
5.935648e+002, 9.235059e+002
5.940469e+002, 9.296263e+002
5.945291e+002, 9.377010e+002
5.950112e+002, 9.438333e+002
5.954933e+002, 9.475428e+002
5.959754e+002, 9.515219e+002
5.964575e+002, 9.566639e+002
5.969396e+002, 9.610643e+002
5.974218e+002, 9.628625e+002
5.979039e+002, 9.639510e+002
5.983860e+002, 9.670039e+002
5.988681e+002, 9.729348e+002
5.993502e+002, 9.805720e+002
5.998323e+002, 9.894760e+002
6.003145e+002, 9.995352e+002
6.007966e+002, 1.006289e+003
6.012787e+002, 1.007800e+003
6.017608e+002, 1.009641e+003
6.022429e+002, 1.014842e+003
6.027250e+002, 1.022463e+003
6.032072e+002, 1.031808e+003
6.036893e+002, 1.044216e+003
6.041714e+002, 1.054200e+003
6.046535e+002, 1.056532e+003
6.051356e+002, 1.055858e+003
6.056177e+002, 1.059235e+003
6.060999e+002, 1.067253e+003
6.065820e+002, 1.076207e+003
6.070641e+002, 1.083538e+003
6.075462e+002, 1.089495e+003
6.080283e+002, 1.095291e+003
6.085104e+002, 1.101337e+003
6.089926e+002, 1.106558e+003
6.094747e+002, 1.109895e+003
6.099568e+002, 1.113255e+003
6.104389e+002, 1.117779e+003
6.109210e+002, 1.123567e+003
6.114031e+002, 1.130574e+003
6.118853e+002, 1.139406e+003
6.123674e+002, 1.148406e+003
6.128495e+002, 1.153505e+003
6.133316e+002, 1.154306e+003
6.138137e+002, 1.156340e+003
6.142958e+002, 1.161878e+003
6.147780e+002, 1.167882e+003
6.152601e+002, 1.170779e+003
6.157422e+002, 1.171178e+003
6.162243e+002, 1.172766e+003
6.167064e+002, 1.177434e+003
6.171885e+002, 1.182374e+003
6.176707e+002, 1.185488e+003
6.181528e+002, 1.187617e+003
6.186349e+002, 1.190720e+003
6.191170e+002, 1.195341e+003
6.195991e+002, 1.200166e+003
6.200812e+002, 1.203615e+003
6.205634e+002, 1.205604e+003
6.210455e+002, 1.207617e+003
6.215276e+002, 1.210101e+003
6.220097e+002, 1.212027e+003
6.224918e+002, 1.212990e+003
6.229739e+002, 1.213402e+003
6.234561e+002, 1.213758e+003
6.239382e+002, 1.214120e+003
6.244203e+002, 1.213991e+003
6.249023e+002, 1.212435e+003
6.253845e+002, 1.210156e+003
6.258666e+002, 1.209098e+003
6.263487e+002, 1.209362e+003
6.268308e+002, 1.210316e+003
6.273129e+002, 1.212337e+003
6.277950e+002, 1.214253e+003
6.282772e+002, 1.213400e+003
6.287593e+002, 1.209171e+003
6.292414e+002, 1.205708e+003
6.297235e+002, 1.205094e+003
6.302056e+002, 1.204107e+003
6.306877e+002, 1.199362e+003
6.311699e+002, 1.192484e+003
6.316520e+002, 1.187742e+003
6.321341e+002, 1.187121e+003
6.326162e+002, 1.188343e+003
6.330983e+002, 1.187605e+003
6.335804e+002, 1.184572e+003
6.340626e+002, 1.181316e+003
6.345447e+002, 1.178458e+003
6.350268e+002, 1.174565e+003
6.355089e+002, 1.168227e+003
6.359910e+002, 1.160838e+003
6.364731e+002, 1.154526e+003
6.369553e+002, 1.149915e+003
6.374374e+002, 1.145963e+003
6.379195e+002, 1.142281e+003
6.384016e+002, 1.138679e+003
6.388837e+002, 1.134748e+003
6.393658e+002, 1.130455e+003
6.398480e+002, 1.125862e+003
6.403301e+002, 1.120910e+003
6.408122e+002, 1.115795e+003
6.412943e+002, 1.111158e+003
6.417764e+002, 1.108137e+003
6.422585e+002, 1.103882e+003
6.427407e+002, 1.097702e+003
6.432228e+002, 1.090914e+003
6.437049e+002, 1.083493e+003
6.441870e+002, 1.076190e+003
6.446691e+002, 1.070736e+003
6.451512e+002, 1.068356e+003
6.456334e+002, 1.066880e+003
6.461155e+002, 1.062363e+003
6.465976e+002, 1.054841e+003
6.470797e+002, 1.048664e+003
6.475618e+002, 1.044983e+003
6.480439e+002, 1.041742e+003
6.485261e+002, 1.037761e+003
6.490082e+002, 1.032971e+003
6.494903e+002, 1.027237e+003
6.499724e+002, 1.020222e+003
6.504545e+002, 1.012774e+003
6.509366e+002, 1.004599e+003
6.514188e+002, 9.965352e+002
6.519009e+002, 9.895720e+002
6.523830e+002, 9.838372e+002
6.528651e+002, 9.791714e+002
6.533472e+002, 9.756108e+002
6.538293e+002, 9.726949e+002
6.543115e+002, 9.686741e+002
6.547936e+002, 9.633710e+002
6.552757e+002, 9.573956e+002
6.557578e+002, 9.494271e+002
6.562399e+002, 9.420038e+002
6.567220e+002, 9.365087e+002
6.572042e+002, 9.327376e+002
6.576863e+002, 9.300557e+002
6.581684e+002, 9.291075e+002
6.586505e+002, 9.277151e+002
6.591326e+002, 9.232164e+002
6.596147e+002, 9.166514e+002
6.600969e+002, 9.108111e+002
6.605790e+002, 9.063113e+002
6.610611e+002, 9.025189e+002
6.615432e+002, 8.989451e+002
6.620253e+002, 8.955671e+002
6.625074e+002, 8.921910e+002
6.629896e+002, 8.890953e+002
6.634717e+002, 8.856342e+002
6.639538e+002, 8.822782e+002
6.644359e+002, 8.781227e+002
6.649180e+002, 8.713068e+002
6.654001e+002, 8.627960e+002
6.658823e+002, 8.562880e+002
6.663644e+002, 8.546956e+002
6.668465e+002, 8.552842e+002
6.673286e+002, 8.525267e+002
6.678107e+002, 8.465610e+002
6.682928e+002, 8.425932e+002
6.687750e+002, 8.425042e+002
6.692571e+002, 8.429441e+002
6.697392e+002, 8.403650e+002
6.702213e+002, 8.351877e+002
6.707034e+002, 8.319843e+002
6.711855e+002, 8.334669e+002
6.716677e+002, 8.336740e+002
6.721498e+002, 8.294257e+002
6.726319e+002, 8.237203e+002
6.731140e+002, 8.199767e+002
6.735961e+002, 8.184098e+002
6.740782e+002, 8.169230e+002
6.745604e+002, 8.139080e+002
6.750425e+002, 8.097754e+002
6.755246e+002, 8.054171e+002
6.760067e+002, 8.002435e+002
6.764888e+002, 7.976789e+002
6.769709e+002, 8.005768e+002
6.774531e+002, 8.038309e+002
6.779352e+002, 8.032792e+002
6.784173e+002, 7.997196e+002
6.788994e+002, 7.959200e+002
6.793815e+002, 7.924522e+002
6.798636e+002, 7.889746e+002
6.803458e+002, 7.846390e+002
6.808279e+002, 7.804177e+002
6.813100e+002, 7.783516e+002
6.817921e+002, 7.785048e+002
6.822742e+002, 7.784835e+002
6.827563e+002, 7.763368e+002
6.832385e+002, 7.723688e+002
6.837206e+002, 7.679203e+002
6.842027e+002, 7.623004e+002
6.846848e+002, 7.577197e+002
6.851669e+002, 7.552946e+002
6.856490e+002, 7.532956e+002
6.861312e+002, 7.507942e+002
6.866133e+002, 7.478975e+002
6.870954e+002, 7.450416e+002
6.875775e+002, 7.422640e+002
6.880596e+002, 7.398212e+002
6.885417e+002, 7.380315e+002
6.890239e+002, 7.367466e+002
6.895060e+002, 7.358243e+002
6.899881e+002, 7.352097e+002
6.904702e+002, 7.342960e+002
6.909523e+002, 7.326503e+002
6.914344e+002, 7.302733e+002
6.919166e+002, 7.270794e+002
6.923987e+002, 7.222562e+002
6.928808e+002, 7.179019e+002
6.933629e+002, 7.139823e+002
6.938450e+002, 7.106676e+002
6.943271e+002, 7.084023e+002
6.948093e+002, 7.067924e+002
6.952914e+002, 7.046417e+002
6.957735e+002, 7.009310e+002
6.962556e+002, 6.980392e+002
6.967377e+002, 6.997900e+002
6.972198e+002, 7.046547e+002
6.977020e+002, 7.073168e+002
6.981841e+002, 7.069409e+002
6.986662e+002, 7.045798e+002
6.991483e+002, 7.004559e+002
6.996304e+002, 6.952230e+002
7.001125e+002, 6.914424e+002
7.005947e+002, 6.902556e+002
7.010768e+002, 6.888461e+002
7.015589e+002, 6.865440e+002
7.020410e+002, 6.846101e+002
7.025231e+002, 6.834934e+002
7.030052e+002, 6.834153e+002
7.034874e+002, 6.849892e+002
7.039695e+002, 6.886402e+002
7.044516e+002, 6.924733e+002
7.049337e+002, 6.943303e+002
7.054158e+002, 6.943441e+002
7.058979e+002, 6.926948e+002
7.063801e+002, 6.890812e+002
7.068622e+002, 6.859992e+002
7.073442e+002, 6.848545e+002
7.078264e+002, 6.852311e+002
7.083085e+002, 6.861080e+002
7.087906e+002, 6.873680e+002
7.092727e+002, 6.893698e+002
7.097548e+002, 6.929647e+002
7.102369e+002, 6.965085e+002
7.107191e+002, 6.988922e+002
7.112012e+002, 7.005522e+002
7.116833e+002, 7.026164e+002
7.121654e+002, 7.054706e+002
7.126475e+002, 7.077640e+002
7.131296e+002, 7.069777e+002
7.136118e+002, 7.040118e+002
7.140939e+002, 7.042805e+002
7.145760e+002, 7.084252e+002
7.150581e+002, 7.127823e+002
7.155402e+002, 7.159803e+002
7.160223e+002, 7.181505e+002
7.165045e+002, 7.190941e+002
7.169866e+002, 7.183728e+002
7.174687e+002, 7.191287e+002
7.179508e+002, 7.225688e+002
7.184329e+002, 7.265367e+002
7.189150e+002, 7.302589e+002
7.193972e+002, 7.336965e+002
7.198793e+002, 7.371320e+002
7.203614e+002, 7.405198e+002
7.208435e+002, 7.430924e+002
7.213256e+002, 7.437273e+002
7.218077e+002, 7.430139e+002
7.222899e+002, 7.432404e+002
7.227720e+002, 7.444518e+002
7.232541e+002, 7.463330e+002
7.237362e+002, 7.491982e+002
7.242183e+002, 7.520696e+002
7.247004e+002, 7.536550e+002
7.251826e+002, 7.539933e+002
7.256647e+002, 7.545133e+002
7.261468e+002, 7.563021e+002
7.266289e+002, 7.570850e+002
7.271110e+002, 7.541444e+002
7.275931e+002, 7.508887e+002
7.280753e+002, 7.520290e+002
7.285574e+002, 7.573806e+002
7.290395e+002, 7.625481e+002
7.295216e+002, 7.645153e+002
7.300037e+002, 7.638393e+002
7.304858e+002, 7.612151e+002
7.309680e+002, 7.565562e+002
7.314501e+002, 7.525616e+002
7.319322e+002, 7.498217e+002
7.324143e+002, 7.476758e+002
7.328964e+002, 7.456779e+002
7.333785e+002, 7.438394e+002
7.338607e+002, 7.421978e+002
7.343428e+002, 7.414728e+002
7.348249e+002, 7.398468e+002
7.353070e+002, 7.364642e+002
7.357891e+002, 7.324174e+002
7.362712e+002, 7.282751e+002
7.367534e+002, 7.242697e+002
7.372355e+002, 7.208427e+002
7.377176e+002, 7.182595e+002
7.381997e+002, 7.155675e+002
7.386818e+002, 7.108163e+002
7.391639e+002, 7.043474e+002
7.396461e+002, 6.996188e+002
7.401282e+002, 6.972744e+002
7.406103e+002, 6.951049e+002
7.410924e+002, 6.921392e+002
7.415745e+002, 6.884092e+002
7.420566e+002, 6.837869e+002
7.425388e+002, 6.778366e+002
7.430209e+002, 6.725616e+002
7.435030e+002, 6.686650e+002
7.439851e+002, 6.649211e+002
7.444672e+002, 6.603583e+002
7.449493e+002, 6.556463e+002
7.454315e+002, 6.522330e+002
7.459136e+002, 6.503737e+002
7.463957e+002, 6.481490e+002
7.468778e+002, 6.431103e+002
7.473599e+002, 6.363773e+002
7.478420e+002, 6.316699e+002
7.483242e+002, 6.290366e+002
7.488063e+002, 6.261867e+002
7.492884e+002, 6.224431e+002
7.497705e+002, 6.179168e+002
7.502526e+002, 6.120680e+002
7.507347e+002, 6.047045e+002
7.512169e+002, 6.007687e+002
7.516990e+002, 6.037806e+002
7.521811e+002, 6.053626e+002
7.526632e+002, 6.024306e+002
7.531453e+002, 5.981960e+002
7.536274e+002, 5.959193e+002
7.541096e+002, 5.953475e+002
7.545917e+002, 5.937912e+002
7.550738e+002, 5.894564e+002
7.555559e+002, 5.839729e+002
7.560380e+002, 5.789311e+002
7.565201e+002, 5.746111e+002
7.570023e+002, 5.731639e+002
7.574844e+002, 5.751836e+002
7.579665e+002, 5.758761e+002
7.584486e+002, 5.712315e+002
7.589307e+002, 5.632908e+002
7.594128e+002, 5.590019e+002
7.598950e+002, 5.615198e+002
7.603771e+002, 5.619650e+002
7.608592e+002, 5.578133e+002
7.613413e+002, 5.543796e+002
7.618234e+002, 5.553132e+002
7.623055e+002, 5.582249e+002
7.627877e+002, 5.590885e+002
7.632698e+002, 5.567449e+002
7.637519e+002, 5.536373e+002
7.642340e+002, 5.510800e+002
7.647161e+002, 5.491602e+002
7.651982e+002, 5.482566e+002
7.656804e+002, 5.482021e+002
7.661625e+002, 5.482881e+002
7.666446e+002, 5.482891e+002
7.671267e+002, 5.476657e+002
7.676088e+002, 5.454667e+002
7.680909e+002, 5.415480e+002
7.685731e+002, 5.394431e+002
7.690552e+002, 5.403528e+002
7.695373e+002, 5.411180e+002
7.700194e+002, 5.412272e+002
7.705015e+002, 5.407987e+002
7.709836e+002, 5.395986e+002
7.714658e+002, 5.378428e+002
7.719479e+002, 5.365015e+002
7.724300e+002, 5.359581e+002
7.729121e+002, 5.358668e+002
7.733942e+002, 5.363646e+002
7.738763e+002, 5.370020e+002
7.743585e+002, 5.370443e+002
7.748406e+002, 5.364424e+002
7.753227e+002, 5.355264e+002
7.758048e+002, 5.344470e+002
7.762869e+002, 5.335053e+002
7.767690e+002, 5.335126e+002
7.772512e+002, 5.346328e+002
7.777333e+002, 5.357525e+002
7.782154e+002, 5.373694e+002
7.786975e+002, 5.379048e+002
7.791796e+002, 5.351637e+002
7.796617e+002, 5.313688e+002
7.801439e+002, 5.306528e+002
7.806260e+002, 5.339880e+002
7.811081e+002, 5.360732e+002
7.815902e+002, 5.344282e+002
7.820723e+002, 5.323328e+002
7.825544e+002, 5.319300e+002
7.830366e+002, 5.325195e+002
7.835187e+002, 5.327245e+002
7.840008e+002, 5.322104e+002
7.844829e+002, 5.317248e+002
7.849650e+002, 5.323370e+002
7.854471e+002, 5.332677e+002
7.859293e+002, 5.314734e+002
7.864114e+002, 5.268937e+002
7.868935e+002, 5.243110e+002
7.873756e+002, 5.253397e+002
7.878577e+002, 5.273854e+002
7.883398e+002, 5.281163e+002
7.888220e+002, 5.277266e+002
7.893040e+002, 5.278344e+002
7.897861e+002, 5.288350e+002
7.902682e+002, 5.297495e+002
7.907504e+002, 5.301147e+002
7.912325e+002, 5.307399e+002
7.917146e+002, 5.323517e+002
7.921967e+002, 5.345976e+002
7.926788e+002, 5.368324e+002
7.931609e+002, 5.388832e+002
7.936431e+002, 5.403043e+002
7.941252e+002, 5.399295e+002
7.946073e+002, 5.389745e+002
7.950894e+002, 5.401155e+002
7.955715e+002, 5.431412e+002
7.960536e+002, 5.457407e+002
7.965358e+002, 5.469990e+002
7.970179e+002, 5.470429e+002
7.975000e+002, 5.457937e+002
7.979821e+002, 5.431338e+002
7.984642e+002, 5.418159e+002
7.989464e+002, 5.416434e+002
7.994285e+002, 5.431608e+002
7.999106e+002, 5.483109e+002
8.003927e+002, 5.537932e+002
8.008748e+002, 5.568212e+002
8.013569e+002, 5.578547e+002
8.018391e+002, 5.594486e+002
8.023212e+002, 5.624775e+002
8.028033e+002, 5.658997e+002
8.032854e+002, 5.686855e+002
8.037675e+002, 5.718597e+002
8.042496e+002, 5.769697e+002
8.047318e+002, 5.836935e+002
8.052139e+002, 5.906274e+002
8.056960e+002, 5.969962e+002
8.061781e+002, 6.028206e+002
8.066602e+002, 6.077013e+002
8.071423e+002, 6.117900e+002
8.076245e+002, 6.171828e+002
8.081066e+002, 6.241559e+002
8.085887e+002, 6.313689e+002
8.090708e+002, 6.373975e+002
8.095529e+002, 6.444496e+002
8.100350e+002, 6.562639e+002
8.105172e+002, 6.737560e+002
8.109993e+002, 6.902614e+002
8.114814e+002, 7.041451e+002
8.119635e+002, 7.190467e+002
8.124456e+002, 7.344346e+002
8.129277e+002, 7.523259e+002
8.134099e+002, 7.746874e+002
8.138920e+002, 8.012868e+002
8.143741e+002, 8.303080e+002
8.148562e+002, 8.608494e+002
8.153383e+002, 8.933397e+002
8.158204e+002, 9.280643e+002
8.163026e+002, 9.647607e+002
8.167847e+002, 1.003584e+003
8.172668e+002, 1.044186e+003
8.177489e+002, 1.084358e+003
8.182310e+002, 1.123015e+003
8.187131e+002, 1.159488e+003
8.191953e+002, 1.193270e+003
8.196774e+002, 1.225423e+003
8.201595e+002, 1.247698e+003
8.206416e+002, 1.256365e+003
8.211237e+002, 1.262344e+003
8.216058e+002, 1.266226e+003
8.220880e+002, 1.271840e+003
8.225701e+002, 1.282508e+003
8.230522e+002, 1.298341e+003
8.235343e+002, 1.320401e+003
8.240164e+002, 1.349464e+003
8.244985e+002, 1.384016e+003
8.249807e+002, 1.422345e+003
8.254628e+002, 1.466703e+003
8.259449e+002, 1.521368e+003
8.264270e+002, 1.584720e+003
8.269091e+002, 1.650531e+003
8.273912e+002, 1.716184e+003
8.278734e+002, 1.780143e+003
8.283555e+002, 1.844349e+003
8.288376e+002, 1.905539e+003
8.293197e+002, 1.951114e+003
8.298018e+002, 1.979785e+003
8.302839e+002, 1.990410e+003
8.307661e+002, 1.981627e+003
8.312482e+002, 1.955824e+003
8.317303e+002, 1.914929e+003
8.322124e+002, 1.856593e+003
8.326945e+002, 1.801392e+003
8.331766e+002, 1.742674e+003
8.336588e+002, 1.697716e+003
8.341409e+002, 1.670634e+003
8.346230e+002, 1.657894e+003
8.351051e+002, 1.655109e+003
8.355872e+002, 1.663551e+003
8.360693e+002, 1.689596e+003
8.365515e+002, 1.737359e+003
8.370336e+002, 1.799516e+003
8.375157e+002, 1.869168e+003
8.379978e+002, 1.953342e+003
8.384799e+002, 2.058010e+003
8.389620e+002, 2.185063e+003
8.394442e+002, 2.335309e+003
8.399263e+002, 2.508754e+003
8.404084e+002, 2.710829e+003
8.408905e+002, 2.940110e+003
8.413726e+002, 3.201139e+003
8.418547e+002, 3.514787e+003
8.423369e+002, 3.878483e+003
8.428190e+002, 4.310682e+003
8.433011e+002, 4.810824e+003
8.437832e+002, 5.391112e+003
8.442653e+002, 6.055019e+003
8.447474e+002, 6.804577e+003
8.452296e+002, 7.683960e+003
8.457117e+002, 8.683768e+003
8.461938e+002, 9.829097e+003
8.466759e+002, 1.113793e+004
8.471580e+002, 1.257577e+004
8.476401e+002, 1.422294e+004
8.481223e+002, 1.597025e+004
8.486044e+002, 1.765911e+004
8.490865e+002, 1.933480e+004
8.495686e+002, 2.056184e+004
8.500507e+002, 2.122384e+004
8.505328e+002, 2.123145e+004
8.510150e+002, 2.034409e+004
8.514971e+002, 1.876103e+004
8.519792e+002, 1.680989e+004
8.524613e+002, 1.465355e+004
8.529434e+002, 1.252097e+004
8.534255e+002, 1.062897e+004
8.539077e+002, 8.976704e+003
8.543898e+002, 7.604376e+003
8.548719e+002, 6.509158e+003
8.553540e+002, 5.602775e+003
8.558361e+002, 4.884407e+003
8.563182e+002, 4.300976e+003
8.568004e+002, 3.830761e+003
8.572825e+002, 3.458512e+003
8.577646e+002, 3.133038e+003
8.582467e+002, 2.861114e+003
8.587288e+002, 2.624534e+003
8.592109e+002, 2.431050e+003
8.596931e+002, 2.262883e+003
8.601752e+002, 2.115088e+003
8.606573e+002, 1.987854e+003
8.611394e+002, 1.884423e+003
8.616215e+002, 1.804051e+003
8.621036e+002, 1.733421e+003
8.625858e+002, 1.666127e+003
8.630679e+002, 1.606896e+003
8.635500e+002, 1.558615e+003
8.640321e+002, 1.520719e+003
8.645142e+002, 1.493133e+003
8.649963e+002, 1.475361e+003
8.654785e+002, 1.467008e+003
8.659606e+002, 1.467902e+003
8.664427e+002, 1.477098e+003
8.669248e+002, 1.491548e+003
8.674069e+002, 1.512612e+003
8.678890e+002, 1.548403e+003
8.683712e+002, 1.599471e+003
8.688533e+002, 1.660237e+003
8.693354e+002, 1.727325e+003
8.698175e+002, 1.807782e+003
8.702996e+002, 1.910547e+003
8.707817e+002, 2.035875e+003
8.712639e+002, 2.172873e+003
8.717459e+002, 2.320794e+003
8.722280e+002, 2.481760e+003
8.727101e+002, 2.681966e+003
8.731923e+002, 2.869891e+003
8.736744e+002, 3.034706e+003
8.741565e+002, 3.159998e+003
8.746386e+002, 3.212352e+003
8.751207e+002, 3.185070e+003
8.756028e+002, 3.085949e+003
8.760850e+002, 2.887858e+003
8.765671e+002, 2.647837e+003
8.770492e+002, 2.381718e+003
8.775313e+002, 2.113691e+003
8.780134e+002, 1.873809e+003
8.784955e+002, 1.670401e+003
8.789777e+002, 1.496351e+003
8.794598e+002, 1.348524e+003
8.799419e+002, 1.224474e+003
8.804240e+002, 1.122386e+003
8.809061e+002, 1.040146e+003
8.813882e+002, 9.727745e+002
8.818704e+002, 9.188649e+002
8.823525e+002, 8.722429e+002
8.828346e+002, 8.293453e+002
8.833167e+002, 7.910568e+002
8.837988e+002, 7.601529e+002
8.842809e+002, 7.374971e+002
8.847631e+002, 7.153367e+002
8.852452e+002, 6.935782e+002
8.857273e+002, 6.724142e+002
8.862094e+002, 6.511035e+002
8.866915e+002, 6.311627e+002
8.871736e+002, 6.143179e+002
8.876558e+002, 6.004889e+002
8.881379e+002, 5.875051e+002
8.886200e+002, 5.741728e+002
8.891021e+002, 5.633029e+002
8.895842e+002, 5.571486e+002
8.900663e+002, 5.518874e+002
8.905485e+002, 5.453965e+002
8.910306e+002, 5.376711e+002
8.915127e+002, 5.287851e+002
8.919948e+002, 5.186083e+002
8.924769e+002, 5.095448e+002
8.929590e+002, 5.037612e+002
8.934412e+002, 4.993056e+002
8.939233e+002, 4.942964e+002
8.944054e+002, 4.889559e+002
8.948875e+002, 4.842409e+002
8.953696e+002, 4.801679e+002
8.958517e+002, 4.751966e+002
8.963339e+002, 4.679275e+002
8.968160e+002, 4.600710e+002
8.972981e+002, 4.552569e+002
8.977802e+002, 4.532486e+002
8.982623e+002, 4.519312e+002
8.987444e+002, 4.512877e+002
8.992266e+002, 4.490172e+002
8.997087e+002, 4.436312e+002
9.001908e+002, 4.371535e+002
9.006729e+002, 4.326402e+002
9.011550e+002, 4.302030e+002
9.016371e+002, 4.271450e+002
9.021193e+002, 4.225764e+002
9.026014e+002, 4.190273e+002
9.030835e+002, 4.179313e+002
9.035656e+002, 4.170516e+002
9.040477e+002, 4.152926e+002
9.045298e+002, 4.125461e+002
9.050120e+002, 4.083453e+002
9.054941e+002, 4.018355e+002
9.059762e+002, 3.962284e+002
9.064583e+002, 3.915602e+002
9.069404e+002, 3.888290e+002
9.074225e+002, 3.903617e+002
9.079047e+002, 3.933508e+002
9.083868e+002, 3.935575e+002
9.088689e+002, 3.907304e+002
9.093510e+002, 3.885723e+002
9.098331e+002, 3.896143e+002
9.103152e+002, 3.916876e+002
9.107974e+002, 3.933621e+002
9.112795e+002, 3.941660e+002
9.117616e+002, 3.925596e+002
9.122437e+002, 3.890121e+002
9.127258e+002, 3.861874e+002
9.132079e+002, 3.853495e+002
9.136901e+002, 3.851791e+002
9.141722e+002, 3.836421e+002
9.146543e+002, 3.811799e+002
9.151364e+002, 3.803609e+002
9.156185e+002, 3.812178e+002
9.161006e+002, 3.831162e+002
9.165828e+002, 3.862667e+002
9.170649e+002, 3.887441e+002
9.175470e+002, 3.888379e+002
9.180291e+002, 3.871239e+002
9.185112e+002, 3.856284e+002
9.189933e+002, 3.840497e+002
9.194755e+002, 3.835370e+002
9.199576e+002, 3.856263e+002
9.204397e+002, 3.865746e+002
9.209218e+002, 3.833134e+002
9.214039e+002, 3.792097e+002
9.218860e+002, 3.782411e+002
9.223682e+002, 3.803203e+002
9.228503e+002, 3.818194e+002
9.233324e+002, 3.828568e+002
9.238145e+002, 3.824271e+002
9.242966e+002, 3.767560e+002
9.247787e+002, 3.726205e+002
9.252609e+002, 3.784186e+002
9.257430e+002, 3.891725e+002
9.262251e+002, 3.936374e+002
9.267072e+002, 3.883876e+002
9.271893e+002, 3.815689e+002
9.276714e+002, 3.778602e+002
9.281536e+002, 3.757998e+002
9.286357e+002, 3.744245e+002
9.291178e+002, 3.733654e+002
9.295999e+002, 3.716563e+002
9.300820e+002, 3.694290e+002
9.305641e+002, 3.683472e+002
9.310463e+002, 3.696124e+002
9.315284e+002, 3.717245e+002
9.320105e+002, 3.722380e+002
9.324926e+002, 3.715472e+002
9.329747e+002, 3.712819e+002
9.334568e+002, 3.715114e+002
9.339390e+002, 3.716520e+002
9.344211e+002, 3.714380e+002
9.349032e+002, 3.716950e+002
9.353853e+002, 3.735695e+002
9.358674e+002, 3.765538e+002
9.363495e+002, 3.774395e+002
9.368317e+002, 3.756366e+002
9.373138e+002, 3.741519e+002
9.377959e+002, 3.727863e+002
9.382780e+002, 3.730168e+002
9.387601e+002, 3.762328e+002
9.392422e+002, 3.810980e+002
9.397244e+002, 3.853300e+002
9.402065e+002, 3.888538e+002
9.406886e+002, 3.921212e+002
9.411707e+002, 3.955407e+002
9.416528e+002, 3.981621e+002
9.421349e+002, 3.996117e+002
9.426171e+002, 4.003751e+002
9.430992e+002, 4.007770e+002
9.435813e+002, 4.007878e+002
9.440634e+002, 4.004370e+002
9.445455e+002, 4.000679e+002
9.450276e+002, 3.980335e+002
9.455098e+002, 3.915261e+002
9.459919e+002, 3.855107e+002
9.464740e+002, 3.842267e+002
9.469561e+002, 3.849884e+002
9.474382e+002, 3.840071e+002
9.479203e+002, 3.809499e+002
9.484025e+002, 3.777569e+002
9.488846e+002, 3.751882e+002
9.493667e+002, 3.735597e+002
9.498488e+002, 3.733909e+002
9.503309e+002, 3.742154e+002
9.508130e+002, 3.754763e+002
9.512952e+002, 3.770480e+002
9.517773e+002, 3.788933e+002
9.522594e+002, 3.809541e+002
9.527415e+002, 3.828904e+002
9.532236e+002, 3.846660e+002
9.537057e+002, 3.857324e+002
9.541878e+002, 3.838446e+002
9.546699e+002, 3.796984e+002
9.551520e+002, 3.783700e+002
9.556342e+002, 3.805592e+002
9.561163e+002, 3.825126e+002
9.565984e+002, 3.821614e+002
9.570805e+002, 3.808419e+002
9.575626e+002, 3.808852e+002
9.580447e+002, 3.822369e+002
9.585269e+002, 3.814363e+002
9.590090e+002, 3.777847e+002
9.594911e+002, 3.750153e+002
9.599732e+002, 3.741749e+002
9.604553e+002, 3.738456e+002
9.609374e+002, 3.730644e+002
9.614196e+002, 3.719660e+002
9.619017e+002, 3.708818e+002
9.623838e+002, 3.696083e+002
9.628659e+002, 3.689703e+002
9.633480e+002, 3.692097e+002
9.638301e+002, 3.697627e+002
9.643123e+002, 3.707823e+002
9.647944e+002, 3.717907e+002
9.652765e+002, 3.723593e+002
9.657586e+002, 3.725482e+002
9.662407e+002, 3.727177e+002
9.667228e+002, 3.732026e+002
9.672050e+002, 3.730800e+002
9.676871e+002, 3.707666e+002
9.681692e+002, 3.692938e+002
9.686513e+002, 3.708843e+002
9.691334e+002, 3.741017e+002
9.696155e+002, 3.773829e+002
9.700977e+002, 3.803163e+002
9.705798e+002, 3.823214e+002
9.710619e+002, 3.828082e+002
9.715440e+002, 3.828383e+002
9.720261e+002, 3.832619e+002
9.725082e+002, 3.834293e+002
9.729904e+002, 3.820892e+002
9.734725e+002, 3.800334e+002
9.739546e+002, 3.792160e+002
9.744367e+002, 3.801421e+002
9.749188e+002, 3.814393e+002
9.754009e+002, 3.824529e+002
9.758831e+002, 3.827592e+002
9.763652e+002, 3.805870e+002
9.768473e+002, 3.776658e+002
9.773294e+002, 3.781329e+002
9.778115e+002, 3.819121e+002
9.782936e+002, 3.862833e+002
9.787758e+002, 3.899604e+002
9.792579e+002, 3.920370e+002
9.797400e+002, 3.905209e+002
9.802221e+002, 3.868156e+002
9.807042e+002, 3.858386e+002
9.811863e+002, 3.872856e+002
9.816685e+002, 3.886648e+002
9.821506e+002, 3.894823e+002
9.826327e+002, 3.905520e+002
9.831148e+002, 3.924393e+002
9.835969e+002, 3.947162e+002
9.840790e+002, 3.967550e+002
9.845612e+002, 3.985624e+002
9.850433e+002, 3.986737e+002
9.855254e+002, 3.965381e+002
9.860075e+002, 3.963388e+002
9.864896e+002, 3.999261e+002
9.869717e+002, 4.031232e+002
9.874539e+002, 4.019383e+002
9.879360e+002, 3.983246e+002
9.884181e+002, 3.988588e+002
9.889002e+002, 4.057510e+002
9.893823e+002, 4.087403e+002
9.898644e+002, 4.055641e+002
9.903466e+002, 4.028294e+002
9.908287e+002, 4.027559e+002
9.913108e+002, 4.037552e+002
9.917929e+002, 4.045309e+002
9.922750e+002, 4.050856e+002
9.927571e+002, 4.053881e+002
9.932393e+002, 4.046763e+002
9.937214e+002, 4.050884e+002
9.942035e+002, 4.078053e+002
9.946856e+002, 4.102855e+002
9.951677e+002, 4.115791e+002
9.956498e+002, 4.121274e+002
9.961320e+002, 4.122254e+002
9.966141e+002, 4.119810e+002
9.970962e+002, 4.118707e+002
9.975783e+002, 4.114039e+002
9.980604e+002, 4.120409e+002
9.985425e+002, 4.148199e+002
9.990247e+002, 4.181055e+002
9.995068e+002, 4.217367e+002
9.999889e+002, 4.247414e+002
1.000471e+003, 4.253141e+002
1.000953e+003, 4.235706e+002
1.001435e+003, 4.224938e+002
1.001917e+003, 4.231341e+002
1.002399e+003, 4.249955e+002
1.002882e+003, 4.292235e+002
1.003364e+003, 4.333149e+002
1.003846e+003, 4.349334e+002
1.004328e+003, 4.345873e+002
1.004810e+003, 4.330013e+002
1.005292e+003, 4.306974e+002
1.005774e+003, 4.300390e+002
1.006256e+003, 4.336083e+002
1.006739e+003, 4.379825e+002
1.007221e+003, 4.399191e+002
1.007703e+003, 4.406578e+002
1.008185e+003, 4.420644e+002
1.008667e+003, 4.438968e+002
1.009149e+003, 4.445809e+002
1.009631e+003, 4.436938e+002
1.010113e+003, 4.431758e+002
1.010595e+003, 4.449059e+002
1.011078e+003, 4.477930e+002
1.011560e+003, 4.503488e+002
1.012042e+003, 4.527251e+002
1.012524e+003, 4.553125e+002
1.013006e+003, 4.581104e+002
1.013488e+003, 4.607896e+002
1.013970e+003, 4.632269e+002
1.014452e+003, 4.658812e+002
1.014935e+003, 4.694921e+002
1.015417e+003, 4.735312e+002
1.015899e+003, 4.768490e+002
1.016381e+003, 4.794209e+002
1.016863e+003, 4.807959e+002
1.017345e+003, 4.810283e+002
1.017827e+003, 4.812541e+002
1.018309e+003, 4.820211e+002
1.018791e+003, 4.837445e+002
1.019274e+003, 4.874085e+002
1.019756e+003, 4.924049e+002
1.020238e+003, 4.955742e+002
1.020720e+003, 4.969901e+002
1.021202e+003, 4.989834e+002
1.021684e+003, 5.019968e+002
1.022166e+003, 5.048454e+002
1.022648e+003, 5.067708e+002
1.023130e+003, 5.085438e+002
1.023613e+003, 5.115089e+002
1.024095e+003, 5.155787e+002
1.024577e+003, 5.193816e+002
1.025059e+003, 5.230164e+002
1.025541e+003, 5.251873e+002
1.026023e+003, 5.253329e+002
1.026505e+003, 5.252685e+002
1.026987e+003, 5.257683e+002
1.027469e+003, 5.275969e+002
1.027952e+003, 5.326809e+002
1.028434e+003, 5.413211e+002
1.028916e+003, 5.462628e+002
1.029398e+003, 5.464495e+002
1.029880e+003, 5.465361e+002
1.030362e+003, 5.469122e+002
1.030844e+003, 5.486044e+002
1.031326e+003, 5.529156e+002
1.031809e+003, 5.582869e+002
1.032291e+003, 5.613258e+002
1.032773e+003, 5.615354e+002
1.033255e+003, 5.636833e+002
1.033737e+003, 5.686885e+002
1.034219e+003, 5.737382e+002
1.034701e+003, 5.789441e+002
1.035183e+003, 5.830692e+002
1.035666e+003, 5.844082e+002
1.036148e+003, 5.845976e+002
1.036630e+003, 5.872272e+002
1.037112e+003, 5.928554e+002
1.037594e+003, 5.977349e+002
1.038076e+003, 6.009891e+002
1.038558e+003, 6.048434e+002
1.039040e+003, 6.101353e+002
1.039522e+003, 6.155949e+002
1.040005e+003, 6.208723e+002
1.040487e+003, 6.255946e+002
1.040969e+003, 6.285918e+002
1.041451e+003, 6.292401e+002
1.041933e+003, 6.315030e+002
1.042415e+003, 6.373007e+002
1.042897e+003, 6.421456e+002
1.043379e+003, 6.441384e+002
1.043861e+003, 6.460146e+002
1.044344e+003, 6.500006e+002
1.044826e+003, 6.549684e+002
1.045308e+003, 6.584769e+002
1.045790e+003, 6.600837e+002
1.046272e+003, 6.622885e+002
1.046754e+003, 6.652490e+002
1.047236e+003, 6.689969e+002
1.047718e+003, 6.745914e+002
1.048201e+003, 6.799447e+002
1.048683e+003, 6.834482e+002
1.049165e+003, 6.857638e+002
1.049647e+003, 6.878806e+002
1.050129e+003, 6.897207e+002
1.050611e+003, 6.934695e+002
1.051093e+003, 7.016448e+002
1.051575e+003, 7.088834e+002
1.052057e+003, 7.120621e+002
1.052540e+003, 7.152228e+002
1.053022e+003, 7.219594e+002
1.053504e+003, 7.305536e+002
1.053986e+003, 7.375556e+002
1.054468e+003, 7.424644e+002
1.054950e+003, 7.473884e+002
1.055432e+003, 7.533152e+002
1.055914e+003, 7.587643e+002
1.056396e+003, 7.624018e+002
1.056879e+003, 7.661849e+002
1.057361e+003, 7.717489e+002
1.057843e+003, 7.784128e+002
1.058325e+003, 7.851012e+002
1.058807e+003, 7.916154e+002
1.059289e+003, 7.974877e+002
1.059771e+003, 8.027051e+002
1.060253e+003, 8.070774e+002
1.060736e+003, 8.082041e+002
1.061218e+003, 8.107563e+002
1.061700e+003, 8.194552e+002
1.062182e+003, 8.315612e+002
1.062664e+003, 8.428371e+002
1.063146e+003, 8.524451e+002
1.063628e+003, 8.601352e+002
1.064110e+003, 8.633743e+002
1.064593e+003, 8.682128e+002
1.065075e+003, 8.790168e+002
1.065557e+003, 8.905131e+002
1.066039e+003, 8.985732e+002
1.066521e+003, 9.046458e+002
1.067003e+003, 9.108710e+002
1.067485e+003, 9.177563e+002
1.067967e+003, 9.258430e+002
1.068449e+003, 9.350948e+002
1.068932e+003, 9.459968e+002
1.069414e+003, 9.615639e+002
1.069896e+003, 9.760286e+002
1.070378e+003, 9.835475e+002
1.070860e+003, 9.880724e+002
1.071342e+003, 9.947695e+002
1.071824e+003, 1.004633e+003
1.072306e+003, 1.017885e+003
1.072788e+003, 1.037043e+003
1.073271e+003, 1.053913e+003
1.073753e+003, 1.062445e+003
1.074235e+003, 1.069636e+003
1.074717e+003, 1.080752e+003
1.075199e+003, 1.093515e+003
1.075681e+003, 1.103319e+003
1.076163e+003, 1.111146e+003
1.076645e+003, 1.124025e+003
1.077127e+003, 1.146468e+003
1.077610e+003, 1.167428e+003
1.078092e+003, 1.180478e+003
1.078574e+003, 1.191836e+003
1.079056e+003, 1.205228e+003
1.079538e+003, 1.219786e+003
1.080020e+003, 1.234116e+003
1.080502e+003, 1.248422e+003
1.080984e+003, 1.264408e+003
1.081467e+003, 1.283260e+003
1.081949e+003, 1.300218e+003
1.082431e+003, 1.309879e+003
1.082913e+003, 1.320898e+003
1.083395e+003, 1.340265e+003
1.083877e+003, 1.362369e+003
1.084359e+003, 1.381056e+003
1.084841e+003, 1.396977e+003
1.085323e+003, 1.413322e+003
1.085806e+003, 1.430620e+003
1.086288e+003, 1.450943e+003
1.086770e+003, 1.478820e+003
1.087252e+003, 1.505374e+003
1.087734e+003, 1.525649e+003
1.088216e+003, 1.543077e+003
1.088698e+003, 1.559767e+003
1.089180e+003, 1.576623e+003
1.089662e+003, 1.594505e+003
1.090145e+003, 1.613732e+003
1.090627e+003, 1.633580e+003
1.091109e+003, 1.652465e+003
1.091591e+003, 1.673849e+003
1.092073e+003, 1.699956e+003
1.092555e+003, 1.728444e+003
1.093037e+003, 1.759801e+003
1.093519e+003, 1.790868e+003
1.094002e+003, 1.816175e+003
1.094484e+003, 1.835295e+003
1.094966e+003, 1.854402e+003
1.095448e+003, 1.873480e+003
1.095930e+003, 1.895600e+003
1.096412e+003, 1.925002e+003
1.096894e+003, 1.954238e+003
1.097376e+003, 1.975518e+003
1.097859e+003, 1.995879e+003
1.098341e+003, 2.026698e+003
1.098823e+003, 2.067012e+003
1.099305e+003, 2.104063e+003
1.099787e+003, 2.133862e+003
1.100269e+003, 2.162485e+003
1.100751e+003, 2.190353e+003
1.101233e+003, 2.218561e+003
1.101715e+003, 2.247680e+003
1.102198e+003, 2.277556e+003
1.102680e+003, 2.307683e+003
1.103162e+003, 2.338300e+003
1.103644e+003, 2.370249e+003
1.104126e+003, 2.403792e+003
1.104608e+003, 2.438553e+003
1.105090e+003, 2.472683e+003
1.105572e+003, 2.510259e+003
1.106054e+003, 2.556871e+003
1.106537e+003, 2.603776e+003
1.107019e+003, 2.643264e+003
1.107501e+003, 2.677921e+003
1.107983e+003, 2.713805e+003
1.108465e+003, 2.750870e+003
1.108947e+003, 2.792497e+003
1.109429e+003, 2.844064e+003
1.109911e+003, 2.893023e+003
1.110394e+003, 2.933872e+003
1.110876e+003, 2.974288e+003
1.111358e+003, 3.017559e+003
1.111840e+003, 3.064191e+003
1.112322e+003, 3.115260e+003
1.112804e+003, 3.170809e+003
1.113286e+003, 3.227165e+003
1.113768e+003, 3.285121e+003
1.114250e+003, 3.342161e+003
1.114733e+003, 3.395634e+003
1.115215e+003, 3.451340e+003
1.115697e+003, 3.512552e+003
1.116179e+003, 3.576449e+003
1.116661e+003, 3.639081e+003
1.117143e+003, 3.701250e+003
1.117625e+003, 3.769055e+003
1.118107e+003, 3.843913e+003
1.118589e+003, 3.920354e+003
1.119072e+003, 3.998716e+003
1.119554e+003, 4.077778e+003
1.120036e+003, 4.157674e+003
1.120518e+003, 4.237790e+003
1.121000e+003, 4.316912e+003
1.121482e+003, 4.397060e+003
1.121964e+003, 4.483924e+003
1.122446e+003, 4.578519e+003
1.122929e+003, 4.672967e+003
1.123411e+003, 4.765716e+003
1.123893e+003, 4.865529e+003
1.124375e+003, 4.976345e+003
1.124857e+003, 5.088392e+003
1.125339e+003, 5.195524e+003
1.125821e+003, 5.299556e+003
1.126303e+003, 5.401386e+003
1.126786e+003, 5.501688e+003
1.127268e+003, 5.615644e+003
1.127750e+003, 5.744895e+003
1.128232e+003, 5.866187e+003
1.128714e+003, 5.974177e+003
1.129196e+003, 6.086205e+003
1.129678e+003, 6.209446e+003
1.130160e+003, 6.340497e+003
1.130642e+003, 6.476047e+003
1.131125e+003, 6.615170e+003
1.131607e+003, 6.751431e+003
1.132089e+003, 6.885649e+003
1.132571e+003, 7.032758e+003
1.133053e+003, 7.194394e+003
1.133535e+003, 7.359295e+003
1.134017e+003, 7.524182e+003
1.134499e+003, 7.688753e+003
1.134981e+003, 7.852441e+003
1.135464e+003, 8.017432e+003
1.135946e+003, 8.186170e+003
1.136428e+003, 8.359756e+003
1.136910e+003, 8.542530e+003
1.137392e+003, 8.734168e+003
1.137874e+003, 8.933225e+003
1.138356e+003, 9.139551e+003
1.138838e+003, 9.352632e+003
1.139321e+003, 9.573282e+003
1.139803e+003, 9.794615e+003
1.140285e+003, 1.000800e+004
1.140767e+003, 1.022188e+004
1.141249e+003, 1.045345e+004
1.141731e+003, 1.069825e+004
1.142213e+003, 1.094678e+004
1.142695e+003, 1.119814e+004
1.143177e+003, 1.145405e+004
1.143660e+003, 1.171567e+004
1.144142e+003, 1.198661e+004
1.144624e+003, 1.227235e+004
1.145106e+003, 1.256519e+004
1.145588e+003, 1.285852e+004
1.146070e+003, 1.315393e+004
1.146552e+003, 1.345379e+004
1.147034e+003, 1.375718e+004
1.147516e+003, 1.406570e+004
1.147999e+003, 1.437679e+004
1.148481e+003, 1.467678e+004
1.148963e+003, 1.495902e+004
1.149445e+003, 1.524144e+004
1.149927e+003, 1.554086e+004
1.150409e+003, 1.583858e+004
1.150891e+003, 1.612847e+004
1.151373e+003, 1.640343e+004
1.151856e+003, 1.665029e+004
1.152338e+003, 1.687735e+004
1.152820e+003, 1.710887e+004
1.153302e+003, 1.734974e+004
1.153784e+003, 1.756752e+004
1.154266e+003, 1.774055e+004
1.154748e+003, 1.790558e+004
1.155230e+003, 1.808190e+004
1.155713e+003, 1.824599e+004
1.156195e+003, 1.838981e+004
1.156677e+003, 1.850927e+004
1.157159e+003, 1.859865e+004
1.157641e+003, 1.866012e+004
1.158123e+003, 1.870746e+004
1.158605e+003, 1.874110e+004
1.159087e+003, 1.876396e+004
1.159569e+003, 1.878412e+004
1.160052e+003, 1.878276e+004
1.160534e+003, 1.874994e+004
1.161016e+003, 1.869965e+004
1.161498e+003, 1.863864e+004
1.161980e+003, 1.856972e+004
1.162462e+003, 1.850165e+004
1.162944e+003, 1.843692e+004
1.163426e+003, 1.834285e+004
1.163908e+003, 1.821018e+004
1.164391e+003, 1.807552e+004
1.164873e+003, 1.794595e+004
1.165355e+003, 1.780951e+004
1.165837e+003, 1.766025e+004
1.166319e+003, 1.750077e+004
1.166801e+003, 1.733365e+004
1.167283e+003, 1.715889e+004
1.167765e+003, 1.697277e+004
1.168247e+003, 1.677496e+004
1.168730e+003, 1.657577e+004
1.169212e+003, 1.637656e+004
1.169694e+003, 1.616568e+004
1.170176e+003, 1.594057e+004
1.170658e+003, 1.571850e+004
1.171140e+003, 1.551158e+004
1.171622e+003, 1.531211e+004
1.172104e+003, 1.510844e+004
1.172587e+003, 1.490148e+004
1.173069e+003, 1.469476e+004
1.173551e+003, 1.448592e+004
1.174033e+003, 1.425771e+004
1.174515e+003, 1.401465e+004
1.174997e+003, 1.379099e+004
1.175479e+003, 1.359719e+004
1.175961e+003, 1.340895e+004
1.176443e+003, 1.320434e+004
1.176926e+003, 1.299604e+004
1.177408e+003, 1.280128e+004
1.177890e+003, 1.261185e+004
1.178372e+003, 1.241562e+004
1.178854e+003, 1.221525e+004
1.179336e+003, 1.201597e+004
1.179818e+003, 1.181840e+004
1.180300e+003, 1.162614e+004
1.180782e+003, 1.144116e+004
1.181265e+003, 1.125807e+004
1.181747e+003, 1.107430e+004
1.182229e+003, 1.089199e+004
1.182711e+003, 1.070942e+004
1.183193e+003, 1.053296e+004
1.183675e+003, 1.037511e+004
1.184157e+003, 1.022544e+004
1.184639e+003, 1.006142e+004
1.185122e+003, 9.880866e+003
1.185604e+003, 9.706047e+003
1.186086e+003, 9.541621e+003
1.186568e+003, 9.382823e+003
1.187050e+003, 9.230560e+003
1.187532e+003, 9.081342e+003
1.188014e+003, 8.933287e+003
1.188496e+003, 8.788536e+003
1.188979e+003, 8.650310e+003
1.189461e+003, 8.517004e+003
1.189943e+003, 8.387855e+003
1.190425e+003, 8.264107e+003
1.190907e+003, 8.138032e+003
1.191389e+003, 8.009379e+003
1.191871e+003, 7.879278e+003
1.192353e+003, 7.745188e+003
1.192835e+003, 7.619153e+003
1.193318e+003, 7.508553e+003
1.193800e+003, 7.405558e+003
1.194282e+003, 7.302105e+003
1.194764e+003, 7.197678e+003
1.195246e+003, 7.088782e+003
1.195728e+003, 6.976015e+003
1.196210e+003, 6.878452e+003
1.196692e+003, 6.796554e+003
1.197174e+003, 6.710036e+003
1.197657e+003, 6.614493e+003
1.198139e+003, 6.519219e+003
1.198621e+003, 6.429812e+003
1.199103e+003, 6.346937e+003
1.199585e+003, 6.274075e+003
1.200067e+003, 6.207111e+003
1.200549e+003, 6.138205e+003
1.201031e+003, 6.067537e+003
1.201514e+003, 5.992308e+003
1.201996e+003, 5.915597e+003
1.202478e+003, 5.846105e+003
1.202960e+003, 5.785881e+003
1.203442e+003, 5.732936e+003
1.203924e+003, 5.689834e+003
1.204406e+003, 5.642049e+003
1.204888e+003, 5.573344e+003
1.205370e+003, 5.501497e+003
1.205853e+003, 5.441146e+003
1.206335e+003, 5.387012e+003
1.206817e+003, 5.330259e+003
1.207299e+003, 5.273332e+003
1.207781e+003, 5.225828e+003
1.208263e+003, 5.190450e+003
1.208745e+003, 5.152710e+003
1.209227e+003, 5.105006e+003
1.209709e+003, 5.061150e+003
1.210192e+003, 5.026550e+003
1.210674e+003, 4.992827e+003
1.211156e+003, 4.955187e+003
1.211638e+003, 4.916849e+003
1.212120e+003, 4.881412e+003
1.212602e+003, 4.847838e+003
1.213084e+003, 4.812498e+003
1.213566e+003, 4.774342e+003
1.214049e+003, 4.740023e+003
1.214531e+003, 4.710989e+003
1.215013e+003, 4.679865e+003
1.215495e+003, 4.644959e+003
1.215977e+003, 4.608990e+003
1.216459e+003, 4.573126e+003
1.216941e+003, 4.539341e+003
1.217423e+003, 4.510504e+003
1.217906e+003, 4.485062e+003
1.218388e+003, 4.458746e+003
1.218870e+003, 4.431655e+003
1.219352e+003, 4.404013e+003
1.219834e+003, 4.375722e+003
1.220316e+003, 4.345318e+003
1.220798e+003, 4.313307e+003
1.221280e+003, 4.285382e+003
1.221762e+003, 4.264632e+003
1.222245e+003, 4.245125e+003
1.222727e+003, 4.218108e+003
1.223209e+003, 4.191893e+003
1.223691e+003, 4.179204e+003
1.224173e+003, 4.170599e+003
1.224655e+003, 4.155576e+003
1.225137e+003, 4.134092e+003
1.225619e+003, 4.107111e+003
1.226101e+003, 4.076066e+003
1.226584e+003, 4.045573e+003
1.227066e+003, 4.017901e+003
1.227548e+003, 3.989650e+003
1.228030e+003, 3.956475e+003
1.228512e+003, 3.926968e+003
1.228994e+003, 3.906808e+003
1.229476e+003, 3.889715e+003
1.229958e+003, 3.873309e+003
1.230441e+003, 3.855235e+003
1.230923e+003, 3.830770e+003
1.231405e+003, 3.800091e+003
1.231887e+003, 3.772923e+003
1.232369e+003, 3.752203e+003
1.232851e+003, 3.724764e+003
1.233333e+003, 3.686192e+003
1.233815e+003, 3.654714e+003
1.234297e+003, 3.636877e+003
1.234780e+003, 3.622982e+003
1.235262e+003, 3.606817e+003
1.235744e+003, 3.586575e+003
1.236226e+003, 3.557888e+003
1.236708e+003, 3.523144e+003
1.237190e+003, 3.491497e+003
1.237672e+003, 3.462695e+003
1.238154e+003, 3.434812e+003
1.238636e+003, 3.407836e+003
1.239119e+003, 3.382820e+003
1.239601e+003, 3.359728e+003
1.240083e+003, 3.335368e+003
1.240565e+003, 3.307046e+003
1.241047e+003, 3.280379e+003
1.241529e+003, 3.262669e+003
1.242011e+003, 3.247230e+003
1.242493e+003, 3.226813e+003
1.242975e+003, 3.205055e+003
1.243458e+003, 3.186988e+003
1.243940e+003, 3.171262e+003
1.244422e+003, 3.154436e+003
1.244904e+003, 3.135825e+003
1.245386e+003, 3.116216e+003
1.245868e+003, 3.093294e+003
1.246350e+003, 3.074198e+003
1.246832e+003, 3.062359e+003
1.247315e+003, 3.051438e+003
1.247797e+003, 3.040008e+003
1.248279e+003, 3.027730e+003
1.248761e+003, 3.013051e+003
1.249243e+003, 2.998583e+003
1.249725e+003, 2.989048e+003
1.250207e+003, 2.984266e+003
1.250689e+003, 2.982495e+003
1.251172e+003, 2.984628e+003
1.251654e+003, 2.977990e+003
1.252136e+003, 2.961167e+003
1.252618e+003, 2.947501e+003
1.253100e+003, 2.940983e+003
1.253582e+003, 2.936492e+003
1.254064e+003, 2.930534e+003
1.254546e+003, 2.925047e+003
1.255028e+003, 2.922649e+003
1.255510e+003, 2.922765e+003
1.255993e+003, 2.927194e+003
1.256475e+003, 2.931762e+003
1.256957e+003, 2.926684e+003
1.257439e+003, 2.915329e+003
1.257921e+003, 2.907691e+003
1.258403e+003, 2.905337e+003
1.258885e+003, 2.902067e+003
1.259367e+003, 2.894258e+003
1.259850e+003, 2.889253e+003
1.260332e+003, 2.894329e+003
1.260814e+003, 2.897928e+003
1.261296e+003, 2.890251e+003
1.261778e+003, 2.883394e+003
1.262260e+003, 2.887627e+003
1.262742e+003, 2.898355e+003
1.263224e+003, 2.910170e+003
1.263707e+003, 2.921887e+003
1.264189e+003, 2.922783e+003
1.264671e+003, 2.907552e+003
1.265153e+003, 2.899935e+003
1.265635e+003, 2.901791e+003
1.266117e+003, 2.903569e+003
1.266599e+003, 2.903106e+003
1.267081e+003, 2.902894e+003
1.267563e+003, 2.904501e+003
1.268046e+003, 2.905144e+003
1.268528e+003, 2.900725e+003
1.269010e+003, 2.894401e+003
1.269492e+003, 2.892345e+003
1.269974e+003, 2.894667e+003
1.270456e+003, 2.904277e+003
1.270938e+003, 2.917851e+003
1.271420e+003, 2.927102e+003
1.271902e+003, 2.930968e+003
1.272385e+003, 2.931459e+003
1.272867e+003, 2.929324e+003
1.273349e+003, 2.928997e+003
1.273831e+003, 2.935514e+003
1.274313e+003, 2.941184e+003
1.274795e+003, 2.939451e+003
1.275277e+003, 2.938711e+003
1.275759e+003, 2.947090e+003
1.276242e+003, 2.957546e+003
1.276724e+003, 2.961521e+003
1.277206e+003, 2.960667e+003
1.277688e+003, 2.961452e+003
1.278170e+003, 2.964148e+003
1.278652e+003, 2.965984e+003
1.279134e+003, 2.966433e+003
1.279616e+003, 2.967423e+003
1.280099e+003, 2.968372e+003
1.280581e+003, 2.975309e+003
1.281063e+003, 2.991349e+003
1.281545e+003, 3.004723e+003
1.282027e+003, 3.005620e+003
1.282509e+003, 3.001738e+003
1.282991e+003, 3.005955e+003
1.283473e+003, 3.015286e+003
1.283955e+003, 3.023988e+003
##END=



