##NAMES=Tilasite
##RRUFFID=R050246
##IDEAL CHEMISTRY=CaMgAs^5+^O_4_F
##LOCALITY=Langban, Filipstad, Varmland, Sweden
##OWNER=RRUFF
##SOURCE=Marcus Origlieri
##DESCRIPTION=Reddish-brown granular
##STATUS=The identification of this mineral has been confirmed by X-ray diffraction and chemical analysis
##URL=rruff.info/R050246
##MEASURED CHEMISTRY=Ca_1.02_Mg_0.98_(As_1.00_O_4_)F_1.00_
8.936163e+001, 0.000000e+000
8.984375e+001, 5.073686e+001
9.032587e+001, 5.144828e+001
9.080798e+001, 5.159155e+001
9.129010e+001, 5.097407e+001
9.177222e+001, 5.001105e+001
9.225433e+001, 4.898398e+001
9.273645e+001, 4.792633e+001
9.321857e+001, 4.727306e+001
9.370068e+001, 4.803686e+001
9.418280e+001, 4.965683e+001
9.466492e+001, 5.023887e+001
9.514703e+001, 4.845094e+001
9.562915e+001, 4.532428e+001
9.611127e+001, 4.396943e+001
9.659338e+001, 4.464735e+001
9.707550e+001, 4.583643e+001
9.755762e+001, 4.547329e+001
9.803973e+001, 4.351979e+001
9.852185e+001, 4.195232e+001
9.900397e+001, 4.194474e+001
9.948608e+001, 4.355099e+001
9.996820e+001, 4.404871e+001
1.004503e+002, 4.308669e+001
1.009324e+002, 4.141293e+001
1.014146e+002, 4.065227e+001
1.018967e+002, 4.108651e+001
1.023788e+002, 4.160994e+001
1.028609e+002, 4.165659e+001
1.033430e+002, 4.113456e+001
1.038251e+002, 4.037647e+001
1.043073e+002, 3.915638e+001
1.047894e+002, 3.768121e+001
1.052715e+002, 3.713077e+001
1.057536e+002, 3.822385e+001
1.062357e+002, 3.944442e+001
1.067178e+002, 3.970476e+001
1.072000e+002, 3.814580e+001
1.076821e+002, 3.687374e+001
1.081642e+002, 3.629682e+001
1.086463e+002, 3.648696e+001
1.091284e+002, 3.637056e+001
1.096105e+002, 3.572370e+001
1.100927e+002, 3.486562e+001
1.105748e+002, 3.410035e+001
1.110569e+002, 3.327565e+001
1.115390e+002, 3.269142e+001
1.120211e+002, 3.250537e+001
1.125032e+002, 3.286812e+001
1.129854e+002, 3.308201e+001
1.134675e+002, 3.303704e+001
1.139496e+002, 3.279256e+001
1.144317e+002, 3.243205e+001
1.149138e+002, 3.170193e+001
1.153959e+002, 3.106351e+001
1.158781e+002, 3.078041e+001
1.163602e+002, 3.111240e+001
1.168423e+002, 3.132963e+001
1.173244e+002, 3.103964e+001
1.178065e+002, 3.042387e+001
1.182886e+002, 2.994392e+001
1.187708e+002, 2.983082e+001
1.192529e+002, 2.991164e+001
1.197350e+002, 3.010903e+001
1.202171e+002, 3.083345e+001
1.206992e+002, 3.114933e+001
1.211813e+002, 2.992371e+001
1.216635e+002, 2.747619e+001
1.221456e+002, 2.560436e+001
1.226277e+002, 2.617075e+001
1.231098e+002, 2.781199e+001
1.235919e+002, 2.871971e+001
1.240740e+002, 2.767771e+001
1.245562e+002, 2.596291e+001
1.250383e+002, 2.483657e+001
1.255204e+002, 2.428959e+001
1.260025e+002, 2.408652e+001
1.264846e+002, 2.413012e+001
1.269667e+002, 2.437292e+001
1.274489e+002, 2.469628e+001
1.279310e+002, 2.519782e+001
1.284131e+002, 2.572142e+001
1.288952e+002, 2.593012e+001
1.293773e+002, 2.578381e+001
1.298594e+002, 2.547308e+001
1.303416e+002, 2.511162e+001
1.308237e+002, 2.473247e+001
1.313058e+002, 2.455216e+001
1.317879e+002, 2.454940e+001
1.322700e+002, 2.479662e+001
1.327521e+002, 2.580037e+001
1.332343e+002, 2.785139e+001
1.337164e+002, 3.023511e+001
1.341985e+002, 3.197326e+001
1.346806e+002, 3.309936e+001
1.351627e+002, 3.313175e+001
1.356448e+002, 3.110376e+001
1.361270e+002, 2.696118e+001
1.366091e+002, 2.402908e+001
1.370912e+002, 2.293445e+001
1.375733e+002, 2.322212e+001
1.380554e+002, 2.336031e+001
1.385375e+002, 2.333614e+001
1.390197e+002, 2.319904e+001
1.395018e+002, 2.298013e+001
1.399839e+002, 2.267929e+001
1.404660e+002, 2.230274e+001
1.409481e+002, 2.182880e+001
1.414302e+002, 2.126814e+001
1.419124e+002, 2.069049e+001
1.423945e+002, 1.996509e+001
1.428766e+002, 1.940305e+001
1.433587e+002, 1.939048e+001
1.438408e+002, 2.027799e+001
1.443229e+002, 2.099905e+001
1.448051e+002, 2.131491e+001
1.452872e+002, 2.118708e+001
1.457693e+002, 2.095149e+001
1.462514e+002, 2.057685e+001
1.467335e+002, 2.011221e+001
1.472156e+002, 1.959078e+001
1.476978e+002, 1.877985e+001
1.481799e+002, 1.820849e+001
1.486620e+002, 1.806480e+001
1.491441e+002, 1.857219e+001
1.496262e+002, 1.890259e+001
1.501083e+002, 1.891375e+001
1.505905e+002, 1.876684e+001
1.510726e+002, 1.874423e+001
1.515547e+002, 1.910629e+001
1.520368e+002, 1.936835e+001
1.525189e+002, 1.934173e+001
1.530010e+002, 1.865951e+001
1.534832e+002, 1.832522e+001
1.539653e+002, 1.867743e+001
1.544474e+002, 1.943654e+001
1.549295e+002, 1.993155e+001
1.554116e+002, 1.992775e+001
1.558937e+002, 1.975247e+001
1.563759e+002, 1.952323e+001
1.568580e+002, 1.890425e+001
1.573401e+002, 1.870773e+001
1.578222e+002, 1.958057e+001
1.583043e+002, 2.114052e+001
1.587864e+002, 2.197877e+001
1.592686e+002, 2.090323e+001
1.597507e+002, 1.945888e+001
1.602328e+002, 1.863265e+001
1.607149e+002, 1.908555e+001
1.611970e+002, 1.975512e+001
1.616791e+002, 2.038026e+001
1.621613e+002, 2.095434e+001
1.626434e+002, 2.149381e+001
1.631255e+002, 2.152277e+001
1.636076e+002, 2.171969e+001
1.640897e+002, 2.268884e+001
1.645718e+002, 2.552934e+001
1.650540e+002, 2.843968e+001
1.655361e+002, 3.054965e+001
1.660182e+002, 3.187444e+001
1.665003e+002, 3.284090e+001
1.669824e+002, 3.326241e+001
1.674645e+002, 3.358288e+001
1.679467e+002, 3.434142e+001
1.684288e+002, 3.574604e+001
1.689109e+002, 3.766259e+001
1.693930e+002, 4.025368e+001
1.698751e+002, 4.356942e+001
1.703572e+002, 4.665898e+001
1.708394e+002, 4.872523e+001
1.713215e+002, 5.017210e+001
1.718036e+002, 5.165213e+001
1.722857e+002, 5.366571e+001
1.727678e+002, 5.575550e+001
1.732499e+002, 5.730417e+001
1.737321e+002, 5.819213e+001
1.742142e+002, 5.925970e+001
1.746963e+002, 6.159215e+001
1.751784e+002, 6.471080e+001
1.756605e+002, 6.749315e+001
1.761426e+002, 6.873781e+001
1.766248e+002, 6.949594e+001
1.771069e+002, 7.136658e+001
1.775890e+002, 7.470439e+001
1.780711e+002, 7.827957e+001
1.785532e+002, 8.062514e+001
1.790353e+002, 8.205526e+001
1.795175e+002, 8.360402e+001
1.799996e+002, 8.578041e+001
1.804817e+002, 8.849069e+001
1.809638e+002, 9.169522e+001
1.814459e+002, 9.552116e+001
1.819280e+002, 9.950695e+001
1.824102e+002, 1.029430e+002
1.828923e+002, 1.058953e+002
1.833744e+002, 1.091979e+002
1.838565e+002, 1.134822e+002
1.843386e+002, 1.185262e+002
1.848207e+002, 1.237465e+002
1.853029e+002, 1.294286e+002
1.857850e+002, 1.346745e+002
1.862671e+002, 1.380660e+002
1.867492e+002, 1.396186e+002
1.872313e+002, 1.401227e+002
1.877134e+002, 1.394046e+002
1.881956e+002, 1.378528e+002
1.886777e+002, 1.374404e+002
1.891598e+002, 1.387285e+002
1.896419e+002, 1.410225e+002
1.901240e+002, 1.427055e+002
1.906061e+002, 1.437560e+002
1.910883e+002, 1.451634e+002
1.915704e+002, 1.483590e+002
1.920525e+002, 1.530715e+002
1.925346e+002, 1.562066e+002
1.930167e+002, 1.568398e+002
1.934988e+002, 1.557148e+002
1.939810e+002, 1.544942e+002
1.944631e+002, 1.530362e+002
1.949452e+002, 1.521964e+002
1.954273e+002, 1.524395e+002
1.959094e+002, 1.537246e+002
1.963915e+002, 1.541477e+002
1.968737e+002, 1.529815e+002
1.973558e+002, 1.508625e+002
1.978379e+002, 1.502580e+002
1.983200e+002, 1.514535e+002
1.988021e+002, 1.528198e+002
1.992842e+002, 1.527378e+002
1.997664e+002, 1.511360e+002
2.002485e+002, 1.498518e+002
2.007306e+002, 1.492959e+002
2.012127e+002, 1.493517e+002
2.016948e+002, 1.493547e+002
2.021769e+002, 1.492608e+002
2.026591e+002, 1.492565e+002
2.031412e+002, 1.496479e+002
2.036233e+002, 1.505400e+002
2.041054e+002, 1.510453e+002
2.045875e+002, 1.508226e+002
2.050696e+002, 1.499860e+002
2.055518e+002, 1.495354e+002
2.060339e+002, 1.494516e+002
2.065160e+002, 1.497623e+002
2.069981e+002, 1.506437e+002
2.074802e+002, 1.522531e+002
2.079623e+002, 1.536345e+002
2.084445e+002, 1.545085e+002
2.089266e+002, 1.549019e+002
2.094087e+002, 1.553536e+002
2.098908e+002, 1.558400e+002
2.103729e+002, 1.564220e+002
2.108550e+002, 1.571303e+002
2.113372e+002, 1.578999e+002
2.118193e+002, 1.590123e+002
2.123014e+002, 1.607409e+002
2.127835e+002, 1.630754e+002
2.132656e+002, 1.646009e+002
2.137477e+002, 1.650349e+002
2.142299e+002, 1.650718e+002
2.147120e+002, 1.655036e+002
2.151941e+002, 1.664143e+002
2.156762e+002, 1.674693e+002
2.161583e+002, 1.685304e+002
2.166404e+002, 1.695589e+002
2.171226e+002, 1.711651e+002
2.176047e+002, 1.737190e+002
2.180868e+002, 1.764097e+002
2.185689e+002, 1.781622e+002
2.190510e+002, 1.784444e+002
2.195331e+002, 1.790562e+002
2.200153e+002, 1.804141e+002
2.204974e+002, 1.825414e+002
2.209795e+002, 1.852332e+002
2.214616e+002, 1.885560e+002
2.219437e+002, 1.923907e+002
2.224258e+002, 1.968304e+002
2.229080e+002, 2.024065e+002
2.233901e+002, 2.073578e+002
2.238722e+002, 2.107481e+002
2.243543e+002, 2.122452e+002
2.248364e+002, 2.154581e+002
2.253185e+002, 2.210194e+002
2.258007e+002, 2.276447e+002
2.262828e+002, 2.337855e+002
2.267649e+002, 2.390285e+002
2.272470e+002, 2.444963e+002
2.277291e+002, 2.502578e+002
2.282112e+002, 2.563177e+002
2.286934e+002, 2.632438e+002
2.291755e+002, 2.713260e+002
2.296576e+002, 2.800101e+002
2.301397e+002, 2.883600e+002
2.306218e+002, 2.959936e+002
2.311039e+002, 3.041840e+002
2.315861e+002, 3.130213e+002
2.320682e+002, 3.225385e+002
2.325503e+002, 3.333737e+002
2.330324e+002, 3.458748e+002
2.335145e+002, 3.593481e+002
2.339966e+002, 3.729859e+002
2.344788e+002, 3.859679e+002
2.349609e+002, 4.005037e+002
2.354430e+002, 4.178033e+002
2.359251e+002, 4.385843e+002
2.364072e+002, 4.571162e+002
2.368893e+002, 4.728915e+002
2.373715e+002, 4.868602e+002
2.378536e+002, 5.003545e+002
2.383357e+002, 5.148290e+002
2.388178e+002, 5.265699e+002
2.392999e+002, 5.349764e+002
2.397820e+002, 5.401376e+002
2.402642e+002, 5.407333e+002
2.407463e+002, 5.360077e+002
2.412284e+002, 5.273533e+002
2.417105e+002, 5.162947e+002
2.421926e+002, 5.024209e+002
2.426747e+002, 4.869142e+002
2.431569e+002, 4.698640e+002
2.436390e+002, 4.510016e+002
2.441211e+002, 4.321525e+002
2.446032e+002, 4.126845e+002
2.450853e+002, 3.936387e+002
2.455674e+002, 3.761806e+002
2.460496e+002, 3.603022e+002
2.465317e+002, 3.459834e+002
2.470138e+002, 3.331540e+002
2.474959e+002, 3.217854e+002
2.479780e+002, 3.117917e+002
2.484601e+002, 3.031709e+002
2.489423e+002, 2.958275e+002
2.494244e+002, 2.897226e+002
2.499065e+002, 2.851241e+002
2.503886e+002, 2.812373e+002
2.508707e+002, 2.778885e+002
2.513528e+002, 2.750986e+002
2.518350e+002, 2.729228e+002
2.523171e+002, 2.712122e+002
2.527992e+002, 2.702907e+002
2.532813e+002, 2.705361e+002
2.537634e+002, 2.721297e+002
2.542455e+002, 2.744951e+002
2.547277e+002, 2.777247e+002
2.552098e+002, 2.818488e+002
2.556919e+002, 2.855998e+002
2.561740e+002, 2.887019e+002
2.566561e+002, 2.917604e+002
2.571382e+002, 2.954287e+002
2.576204e+002, 3.002541e+002
2.581025e+002, 3.044415e+002
2.585846e+002, 3.076975e+002
2.590667e+002, 3.100397e+002
2.595488e+002, 3.115317e+002
2.600309e+002, 3.125287e+002
2.605131e+002, 3.121352e+002
2.609952e+002, 3.092856e+002
2.614773e+002, 3.031060e+002
2.619594e+002, 2.969297e+002
2.624415e+002, 2.915913e+002
2.629236e+002, 2.868646e+002
2.634058e+002, 2.808039e+002
2.638879e+002, 2.728725e+002
2.643700e+002, 2.644200e+002
2.648521e+002, 2.561112e+002
2.653342e+002, 2.477817e+002
2.658163e+002, 2.403747e+002
2.662985e+002, 2.340747e+002
2.667806e+002, 2.288638e+002
2.672627e+002, 2.246618e+002
2.677448e+002, 2.218270e+002
2.682269e+002, 2.193000e+002
2.687090e+002, 2.162118e+002
2.691912e+002, 2.122696e+002
2.696733e+002, 2.089189e+002
2.701554e+002, 2.064785e+002
2.706375e+002, 2.047079e+002
2.711196e+002, 2.027650e+002
2.716017e+002, 2.006327e+002
2.720839e+002, 1.983793e+002
2.725660e+002, 1.959959e+002
2.730481e+002, 1.933892e+002
2.735302e+002, 1.912000e+002
2.740123e+002, 1.895116e+002
2.744944e+002, 1.882455e+002
2.749766e+002, 1.872362e+002
2.754587e+002, 1.865719e+002
2.759408e+002, 1.858372e+002
2.764229e+002, 1.846749e+002
2.769050e+002, 1.830154e+002
2.773871e+002, 1.817105e+002
2.778693e+002, 1.807492e+002
2.783514e+002, 1.802541e+002
2.788335e+002, 1.807775e+002
2.793156e+002, 1.825400e+002
2.797977e+002, 1.840463e+002
2.802798e+002, 1.844904e+002
2.807620e+002, 1.838674e+002
2.812441e+002, 1.826697e+002
2.817262e+002, 1.807500e+002
2.822083e+002, 1.785680e+002
2.826904e+002, 1.769547e+002
2.831725e+002, 1.759374e+002
2.836547e+002, 1.750715e+002
2.841368e+002, 1.742588e+002
2.846189e+002, 1.734778e+002
2.851010e+002, 1.722544e+002
2.855831e+002, 1.704280e+002
2.860652e+002, 1.685818e+002
2.865474e+002, 1.675901e+002
2.870295e+002, 1.674413e+002
2.875116e+002, 1.675936e+002
2.879937e+002, 1.680873e+002
2.884758e+002, 1.687789e+002
2.889579e+002, 1.687800e+002
2.894401e+002, 1.680452e+002
2.899222e+002, 1.668941e+002
2.904043e+002, 1.654279e+002
2.908864e+002, 1.637346e+002
2.913685e+002, 1.625284e+002
2.918506e+002, 1.622520e+002
2.923328e+002, 1.626485e+002
2.928149e+002, 1.630882e+002
2.932970e+002, 1.635922e+002
2.937791e+002, 1.639180e+002
2.942612e+002, 1.637628e+002
2.947433e+002, 1.632003e+002
2.952255e+002, 1.624866e+002
2.957076e+002, 1.614788e+002
2.961897e+002, 1.605036e+002
2.966718e+002, 1.604397e+002
2.971539e+002, 1.612616e+002
2.976360e+002, 1.620397e+002
2.981182e+002, 1.617724e+002
2.986003e+002, 1.608398e+002
2.990824e+002, 1.602133e+002
2.995645e+002, 1.603060e+002
3.000466e+002, 1.606608e+002
3.005287e+002, 1.606130e+002
3.010109e+002, 1.602088e+002
3.014930e+002, 1.597684e+002
3.019751e+002, 1.592356e+002
3.024572e+002, 1.588769e+002
3.029393e+002, 1.592809e+002
3.034214e+002, 1.609399e+002
3.039036e+002, 1.627303e+002
3.043857e+002, 1.632199e+002
3.048678e+002, 1.627335e+002
3.053499e+002, 1.624676e+002
3.058320e+002, 1.634157e+002
3.063141e+002, 1.648958e+002
3.067963e+002, 1.660911e+002
3.072784e+002, 1.668625e+002
3.077605e+002, 1.673923e+002
3.082426e+002, 1.675008e+002
3.087247e+002, 1.674557e+002
3.092068e+002, 1.679005e+002
3.096890e+002, 1.693630e+002
3.101711e+002, 1.713401e+002
3.106532e+002, 1.734479e+002
3.111353e+002, 1.756585e+002
3.116174e+002, 1.778578e+002
3.120995e+002, 1.799151e+002
3.125817e+002, 1.818899e+002
3.130638e+002, 1.839081e+002
3.135459e+002, 1.854792e+002
3.140280e+002, 1.875353e+002
3.145101e+002, 1.909131e+002
3.149922e+002, 1.957308e+002
3.154744e+002, 2.005001e+002
3.159565e+002, 2.045116e+002
3.164386e+002, 2.080763e+002
3.169207e+002, 2.114982e+002
3.174028e+002, 2.142678e+002
3.178849e+002, 2.175165e+002
3.183671e+002, 2.219133e+002
3.188492e+002, 2.274468e+002
3.193313e+002, 2.329301e+002
3.198134e+002, 2.374807e+002
3.202955e+002, 2.421027e+002
3.207776e+002, 2.475372e+002
3.212598e+002, 2.539988e+002
3.217419e+002, 2.612747e+002
3.222240e+002, 2.692647e+002
3.227061e+002, 2.780019e+002
3.231882e+002, 2.876720e+002
3.236703e+002, 2.984551e+002
3.241525e+002, 3.101223e+002
3.246346e+002, 3.224318e+002
3.251167e+002, 3.354659e+002
3.255988e+002, 3.491125e+002
3.260809e+002, 3.637418e+002
3.265630e+002, 3.790143e+002
3.270452e+002, 3.940606e+002
3.275273e+002, 4.098603e+002
3.280094e+002, 4.243612e+002
3.284915e+002, 4.372138e+002
3.289736e+002, 4.495303e+002
3.294557e+002, 4.574800e+002
3.299379e+002, 4.610660e+002
3.304200e+002, 4.602691e+002
3.309021e+002, 4.550360e+002
3.313842e+002, 4.444614e+002
3.318663e+002, 4.305826e+002
3.323484e+002, 4.131544e+002
3.328306e+002, 3.919135e+002
3.333127e+002, 3.707577e+002
3.337948e+002, 3.487878e+002
3.342769e+002, 3.276290e+002
3.347590e+002, 3.092568e+002
3.352411e+002, 2.936937e+002
3.357233e+002, 2.806300e+002
3.362054e+002, 2.706913e+002
3.366875e+002, 2.635997e+002
3.371696e+002, 2.560040e+002
3.376517e+002, 2.473845e+002
3.381339e+002, 2.392911e+002
3.386160e+002, 2.332535e+002
3.390981e+002, 2.295701e+002
3.395802e+002, 2.262705e+002
3.400623e+002, 2.231291e+002
3.405444e+002, 2.201611e+002
3.410266e+002, 2.176367e+002
3.415087e+002, 2.155681e+002
3.419908e+002, 2.136941e+002
3.424729e+002, 2.116546e+002
3.429550e+002, 2.094680e+002
3.434371e+002, 2.081547e+002
3.439193e+002, 2.079959e+002
3.444014e+002, 2.083825e+002
3.448835e+002, 2.081991e+002
3.453656e+002, 2.074507e+002
3.458477e+002, 2.067541e+002
3.463298e+002, 2.062776e+002
3.468120e+002, 2.060773e+002
3.472941e+002, 2.065471e+002
3.477762e+002, 2.077942e+002
3.482583e+002, 2.092151e+002
3.487404e+002, 2.100949e+002
3.492225e+002, 2.105291e+002
3.497047e+002, 2.109017e+002
3.501868e+002, 2.110912e+002
3.506689e+002, 2.114279e+002
3.511510e+002, 2.126604e+002
3.516331e+002, 2.147697e+002
3.521152e+002, 2.170499e+002
3.525974e+002, 2.186930e+002
3.530795e+002, 2.201154e+002
3.535616e+002, 2.221548e+002
3.540437e+002, 2.254189e+002
3.545258e+002, 2.288902e+002
3.550079e+002, 2.313316e+002
3.554901e+002, 2.329934e+002
3.559722e+002, 2.350408e+002
3.564543e+002, 2.383280e+002
3.569364e+002, 2.422962e+002
3.574185e+002, 2.464578e+002
3.579006e+002, 2.507757e+002
3.583828e+002, 2.551187e+002
3.588649e+002, 2.595024e+002
3.593470e+002, 2.638785e+002
3.598291e+002, 2.681849e+002
3.603112e+002, 2.726821e+002
3.607933e+002, 2.768813e+002
3.612755e+002, 2.805043e+002
3.617576e+002, 2.834864e+002
3.622397e+002, 2.861604e+002
3.627218e+002, 2.896403e+002
3.632039e+002, 2.925256e+002
3.636860e+002, 2.932540e+002
3.641682e+002, 2.898708e+002
3.646503e+002, 2.857539e+002
3.651324e+002, 2.818522e+002
3.656145e+002, 2.781576e+002
3.660966e+002, 2.744584e+002
3.665787e+002, 2.707567e+002
3.670609e+002, 2.670187e+002
3.675430e+002, 2.632233e+002
3.680251e+002, 2.584901e+002
3.685072e+002, 2.547212e+002
3.689893e+002, 2.523459e+002
3.694714e+002, 2.510868e+002
3.699536e+002, 2.501246e+002
3.704357e+002, 2.489337e+002
3.709178e+002, 2.485964e+002
3.713999e+002, 2.495226e+002
3.718820e+002, 2.517862e+002
3.723641e+002, 2.551735e+002
3.728463e+002, 2.599224e+002
3.733284e+002, 2.655951e+002
3.738105e+002, 2.715199e+002
3.742926e+002, 2.774599e+002
3.747747e+002, 2.841913e+002
3.752568e+002, 2.917808e+002
3.757390e+002, 3.002585e+002
3.762211e+002, 3.109635e+002
3.767032e+002, 3.248921e+002
3.771853e+002, 3.391964e+002
3.776674e+002, 3.511349e+002
3.781495e+002, 3.604150e+002
3.786317e+002, 3.702381e+002
3.791138e+002, 3.811797e+002
3.795959e+002, 3.931544e+002
3.800780e+002, 4.063239e+002
3.805601e+002, 4.206503e+002
3.810422e+002, 4.359958e+002
3.815244e+002, 4.520815e+002
3.820065e+002, 4.691307e+002
3.824886e+002, 4.873648e+002
3.829707e+002, 5.068676e+002
3.834528e+002, 5.278874e+002
3.839349e+002, 5.515275e+002
3.844171e+002, 5.775757e+002
3.848992e+002, 6.044398e+002
3.853813e+002, 6.320728e+002
3.858634e+002, 6.601543e+002
3.863455e+002, 6.890485e+002
3.868276e+002, 7.186794e+002
3.873098e+002, 7.478970e+002
3.877919e+002, 7.768123e+002
3.882740e+002, 8.048212e+002
3.887561e+002, 8.308036e+002
3.892382e+002, 8.565392e+002
3.897203e+002, 8.783333e+002
3.902025e+002, 8.936686e+002
3.906846e+002, 9.023746e+002
3.911667e+002, 9.038843e+002
3.916488e+002, 8.974951e+002
3.921309e+002, 8.838507e+002
3.926130e+002, 8.630245e+002
3.930952e+002, 8.341846e+002
3.935773e+002, 8.007740e+002
3.940594e+002, 7.618222e+002
3.945415e+002, 7.197429e+002
3.950236e+002, 6.790058e+002
3.955057e+002, 6.408399e+002
3.959879e+002, 6.044008e+002
3.964700e+002, 5.690798e+002
3.969521e+002, 5.345868e+002
3.974342e+002, 5.028801e+002
3.979163e+002, 4.743452e+002
3.983984e+002, 4.486830e+002
3.988806e+002, 4.256195e+002
3.993627e+002, 4.061399e+002
3.998448e+002, 3.881347e+002
4.003269e+002, 3.713213e+002
4.008090e+002, 3.556981e+002
4.012911e+002, 3.418928e+002
4.017733e+002, 3.304395e+002
4.022554e+002, 3.200285e+002
4.027375e+002, 3.099031e+002
4.032196e+002, 2.995573e+002
4.037017e+002, 2.907999e+002
4.041838e+002, 2.840642e+002
4.046660e+002, 2.786689e+002
4.051481e+002, 2.735149e+002
4.056302e+002, 2.685287e+002
4.061123e+002, 2.639589e+002
4.065944e+002, 2.600239e+002
4.070765e+002, 2.566697e+002
4.075587e+002, 2.529612e+002
4.080408e+002, 2.487224e+002
4.085229e+002, 2.447116e+002
4.090050e+002, 2.419228e+002
4.094871e+002, 2.402737e+002
4.099692e+002, 2.383611e+002
4.104514e+002, 2.356685e+002
4.109335e+002, 2.327456e+002
4.114156e+002, 2.309132e+002
4.118977e+002, 2.300933e+002
4.123798e+002, 2.291945e+002
4.128619e+002, 2.272051e+002
4.133441e+002, 2.246984e+002
4.138262e+002, 2.227992e+002
4.143083e+002, 2.216876e+002
4.147904e+002, 2.208976e+002
4.152725e+002, 2.199814e+002
4.157546e+002, 2.190411e+002
4.162368e+002, 2.182646e+002
4.167189e+002, 2.179346e+002
4.172010e+002, 2.176743e+002
4.176831e+002, 2.169653e+002
4.181652e+002, 2.158656e+002
4.186473e+002, 2.152686e+002
4.191295e+002, 2.161703e+002
4.196116e+002, 2.175435e+002
4.200937e+002, 2.184296e+002
4.205758e+002, 2.180774e+002
4.210579e+002, 2.179814e+002
4.215400e+002, 2.186642e+002
4.220222e+002, 2.199600e+002
4.225043e+002, 2.214782e+002
4.229864e+002, 2.230168e+002
4.234685e+002, 2.248477e+002
4.239506e+002, 2.271903e+002
4.244327e+002, 2.302711e+002
4.249149e+002, 2.330917e+002
4.253970e+002, 2.351464e+002
4.258791e+002, 2.371761e+002
4.263612e+002, 2.399432e+002
4.268433e+002, 2.436046e+002
4.273254e+002, 2.477077e+002
4.278076e+002, 2.520134e+002
4.282897e+002, 2.566677e+002
4.287718e+002, 2.625785e+002
4.292539e+002, 2.700620e+002
4.297360e+002, 2.779872e+002
4.302181e+002, 2.853946e+002
4.307003e+002, 2.920186e+002
4.311824e+002, 3.000249e+002
4.316645e+002, 3.098072e+002
4.321466e+002, 3.204453e+002
4.326287e+002, 3.304120e+002
4.331108e+002, 3.396250e+002
4.335930e+002, 3.482777e+002
4.340751e+002, 3.565237e+002
4.345572e+002, 3.642499e+002
4.350393e+002, 3.714230e+002
4.355214e+002, 3.780584e+002
4.360035e+002, 3.830385e+002
4.364857e+002, 3.858315e+002
4.369678e+002, 3.861263e+002
4.374499e+002, 3.830711e+002
4.379320e+002, 3.760524e+002
4.384141e+002, 3.664763e+002
4.388962e+002, 3.548507e+002
4.393784e+002, 3.417491e+002
4.398605e+002, 3.288619e+002
4.403426e+002, 3.166228e+002
4.408247e+002, 3.053018e+002
4.413068e+002, 2.948609e+002
4.417889e+002, 2.853691e+002
4.422711e+002, 2.770998e+002
4.427532e+002, 2.702804e+002
4.432353e+002, 2.647384e+002
4.437174e+002, 2.602950e+002
4.441995e+002, 2.570773e+002
4.446816e+002, 2.547674e+002
4.451638e+002, 2.532760e+002
4.456459e+002, 2.526127e+002
4.461280e+002, 2.527508e+002
4.466101e+002, 2.537816e+002
4.470922e+002, 2.555362e+002
4.475743e+002, 2.578724e+002
4.480565e+002, 2.603632e+002
4.485386e+002, 2.644610e+002
4.490207e+002, 2.709101e+002
4.495028e+002, 2.784776e+002
4.499849e+002, 2.853524e+002
4.504670e+002, 2.908828e+002
4.509492e+002, 2.973235e+002
4.514313e+002, 3.052202e+002
4.519134e+002, 3.144418e+002
4.523955e+002, 3.238182e+002
4.528776e+002, 3.330434e+002
4.533597e+002, 3.428714e+002
4.538419e+002, 3.537574e+002
4.543240e+002, 3.656099e+002
4.548061e+002, 3.784336e+002
4.552882e+002, 3.920397e+002
4.557703e+002, 4.068168e+002
4.562524e+002, 4.229008e+002
4.567346e+002, 4.405449e+002
4.572167e+002, 4.597294e+002
4.576988e+002, 4.807300e+002
4.581809e+002, 5.034245e+002
4.586630e+002, 5.279200e+002
4.591451e+002, 5.540413e+002
4.596273e+002, 5.825379e+002
4.601094e+002, 6.142035e+002
4.605915e+002, 6.481932e+002
4.610736e+002, 6.836465e+002
4.615557e+002, 7.217098e+002
4.620378e+002, 7.590908e+002
4.625200e+002, 7.960123e+002
4.630021e+002, 8.308193e+002
4.634842e+002, 8.595000e+002
4.639663e+002, 8.826034e+002
4.644484e+002, 8.976195e+002
4.649305e+002, 9.027499e+002
4.654127e+002, 8.979289e+002
4.658948e+002, 8.853602e+002
4.663769e+002, 8.639716e+002
4.668590e+002, 8.359148e+002
4.673411e+002, 8.028283e+002
4.678232e+002, 7.626541e+002
4.683054e+002, 7.193725e+002
4.687875e+002, 6.713165e+002
4.692696e+002, 6.209739e+002
4.697517e+002, 5.738118e+002
4.702338e+002, 5.294406e+002
4.707159e+002, 4.895868e+002
4.711981e+002, 4.551791e+002
4.716802e+002, 4.263189e+002
4.721623e+002, 4.001017e+002
4.726444e+002, 3.767632e+002
4.731265e+002, 3.562348e+002
4.736086e+002, 3.390768e+002
4.740908e+002, 3.252692e+002
4.745729e+002, 3.137842e+002
4.750550e+002, 3.047650e+002
4.755371e+002, 2.974600e+002
4.760192e+002, 2.903876e+002
4.765013e+002, 2.836324e+002
4.769835e+002, 2.780984e+002
4.774656e+002, 2.749380e+002
4.779477e+002, 2.730254e+002
4.784298e+002, 2.703618e+002
4.789119e+002, 2.668312e+002
4.793940e+002, 2.637215e+002
4.798762e+002, 2.621332e+002
4.803583e+002, 2.615507e+002
4.808404e+002, 2.612593e+002
4.813225e+002, 2.607704e+002
4.818046e+002, 2.609045e+002
4.822867e+002, 2.624192e+002
4.827689e+002, 2.649124e+002
4.832510e+002, 2.673446e+002
4.837331e+002, 2.688421e+002
4.842152e+002, 2.706819e+002
4.846973e+002, 2.735386e+002
4.851794e+002, 2.776790e+002
4.856616e+002, 2.817597e+002
4.861437e+002, 2.850356e+002
4.866258e+002, 2.885941e+002
4.871079e+002, 2.933676e+002
4.875900e+002, 3.001823e+002
4.880721e+002, 3.067772e+002
4.885543e+002, 3.127419e+002
4.890364e+002, 3.184113e+002
4.895185e+002, 3.247042e+002
4.900006e+002, 3.316269e+002
4.904827e+002, 3.389514e+002
4.909648e+002, 3.462525e+002
4.914470e+002, 3.536195e+002
4.919291e+002, 3.624739e+002
4.924112e+002, 3.728082e+002
4.928933e+002, 3.844799e+002
4.933754e+002, 3.979308e+002
4.938575e+002, 4.127783e+002
4.943397e+002, 4.269897e+002
4.948218e+002, 4.395978e+002
4.953039e+002, 4.521500e+002
4.957860e+002, 4.668118e+002
4.962681e+002, 4.831101e+002
4.967502e+002, 4.993514e+002
4.972324e+002, 5.165620e+002
4.977145e+002, 5.322705e+002
4.981966e+002, 5.446133e+002
4.986787e+002, 5.535861e+002
4.991608e+002, 5.585491e+002
4.996429e+002, 5.608103e+002
5.001251e+002, 5.581208e+002
5.006072e+002, 5.483951e+002
5.010893e+002, 5.281684e+002
5.015714e+002, 5.051161e+002
5.020535e+002, 4.788302e+002
5.025356e+002, 4.508281e+002
5.030178e+002, 4.244410e+002
5.034999e+002, 3.990803e+002
5.039820e+002, 3.758168e+002
5.044641e+002, 3.552452e+002
5.049462e+002, 3.373885e+002
5.054283e+002, 3.208962e+002
5.059105e+002, 3.056990e+002
5.063926e+002, 2.921723e+002
5.068747e+002, 2.808060e+002
5.073568e+002, 2.718496e+002
5.078389e+002, 2.634767e+002
5.083210e+002, 2.555111e+002
5.088032e+002, 2.483632e+002
5.092853e+002, 2.431776e+002
5.097674e+002, 2.398470e+002
5.102495e+002, 2.366245e+002
5.107316e+002, 2.324575e+002
5.112137e+002, 2.280255e+002
5.116959e+002, 2.248668e+002
5.121780e+002, 2.229367e+002
5.126601e+002, 2.213281e+002
5.131422e+002, 2.194676e+002
5.136243e+002, 2.175085e+002
5.141064e+002, 2.155978e+002
5.145886e+002, 2.137017e+002
5.150707e+002, 2.120794e+002
5.155528e+002, 2.108586e+002
5.160349e+002, 2.100292e+002
5.165170e+002, 2.095546e+002
5.169991e+002, 2.100585e+002
5.174813e+002, 2.102807e+002
5.179634e+002, 2.095251e+002
5.184455e+002, 2.079534e+002
5.189276e+002, 2.069153e+002
5.194097e+002, 2.070101e+002
5.198918e+002, 2.072958e+002
5.203740e+002, 2.074051e+002
5.208561e+002, 2.072631e+002
5.213382e+002, 2.071864e+002
5.218203e+002, 2.071831e+002
5.223024e+002, 2.072285e+002
5.227845e+002, 2.073875e+002
5.232667e+002, 2.077529e+002
5.237488e+002, 2.076360e+002
5.242309e+002, 2.067361e+002
5.247130e+002, 2.054224e+002
5.251951e+002, 2.045786e+002
5.256772e+002, 2.041985e+002
5.261594e+002, 2.040744e+002
5.266415e+002, 2.041875e+002
5.271236e+002, 2.044533e+002
5.276057e+002, 2.048338e+002
5.280878e+002, 2.053362e+002
5.285699e+002, 2.054366e+002
5.290521e+002, 2.042782e+002
5.295342e+002, 2.026025e+002
5.300163e+002, 2.014087e+002
5.304984e+002, 2.011544e+002
5.309805e+002, 2.010881e+002
5.314626e+002, 2.011062e+002
5.319448e+002, 2.009953e+002
5.324269e+002, 2.003442e+002
5.329090e+002, 1.981194e+002
5.333911e+002, 1.962169e+002
5.338732e+002, 1.954599e+002
5.343553e+002, 1.959269e+002
5.348375e+002, 1.959985e+002
5.353196e+002, 1.951727e+002
5.358017e+002, 1.943979e+002
5.362838e+002, 1.943335e+002
5.367659e+002, 1.956199e+002
5.372480e+002, 1.957022e+002
5.377302e+002, 1.941849e+002
5.382123e+002, 1.919754e+002
5.386944e+002, 1.902928e+002
5.391765e+002, 1.891210e+002
5.396586e+002, 1.886104e+002
5.401407e+002, 1.891205e+002
5.406229e+002, 1.900468e+002
5.411050e+002, 1.897646e+002
5.415871e+002, 1.883903e+002
5.420692e+002, 1.870685e+002
5.425513e+002, 1.869476e+002
5.430334e+002, 1.871620e+002
5.435156e+002, 1.860810e+002
5.439977e+002, 1.835364e+002
5.444798e+002, 1.813693e+002
5.449619e+002, 1.813518e+002
5.454440e+002, 1.822283e+002
5.459261e+002, 1.826159e+002
5.464083e+002, 1.818157e+002
5.468904e+002, 1.809498e+002
5.473725e+002, 1.804517e+002
5.478546e+002, 1.801463e+002
5.483367e+002, 1.796521e+002
5.488188e+002, 1.783640e+002
5.493010e+002, 1.774637e+002
5.497831e+002, 1.773237e+002
5.502652e+002, 1.779322e+002
5.507473e+002, 1.785336e+002
5.512294e+002, 1.792061e+002
5.517115e+002, 1.797407e+002
5.521937e+002, 1.801167e+002
5.526758e+002, 1.803935e+002
5.531579e+002, 1.797703e+002
5.536400e+002, 1.779322e+002
5.541221e+002, 1.759829e+002
5.546042e+002, 1.757167e+002
5.550864e+002, 1.768340e+002
5.555685e+002, 1.773863e+002
5.560506e+002, 1.764366e+002
5.565327e+002, 1.750907e+002
5.570148e+002, 1.751575e+002
5.574969e+002, 1.762657e+002
5.579791e+002, 1.770239e+002
5.584612e+002, 1.762261e+002
5.589433e+002, 1.750245e+002
5.594254e+002, 1.743677e+002
5.599075e+002, 1.743244e+002
5.603896e+002, 1.743423e+002
5.608718e+002, 1.739218e+002
5.613539e+002, 1.736446e+002
5.618360e+002, 1.739859e+002
5.623181e+002, 1.759645e+002
5.628002e+002, 1.771131e+002
5.632823e+002, 1.769952e+002
5.637645e+002, 1.761345e+002
5.642466e+002, 1.752540e+002
5.647287e+002, 1.742336e+002
5.652108e+002, 1.734933e+002
5.656929e+002, 1.731572e+002
5.661750e+002, 1.731743e+002
5.666572e+002, 1.733621e+002
5.671393e+002, 1.737484e+002
5.676214e+002, 1.740907e+002
5.681035e+002, 1.741216e+002
5.685856e+002, 1.739726e+002
5.690677e+002, 1.742382e+002
5.695499e+002, 1.749585e+002
5.700320e+002, 1.757064e+002
5.705141e+002, 1.761300e+002
5.709962e+002, 1.762945e+002
5.714783e+002, 1.762853e+002
5.719604e+002, 1.760552e+002
5.724426e+002, 1.757996e+002
5.729247e+002, 1.757264e+002
5.734068e+002, 1.757035e+002
5.738889e+002, 1.754926e+002
5.743710e+002, 1.748217e+002
5.748531e+002, 1.741507e+002
5.753353e+002, 1.734605e+002
5.758174e+002, 1.728063e+002
5.762995e+002, 1.728090e+002
5.767816e+002, 1.741783e+002
5.772637e+002, 1.753799e+002
5.777458e+002, 1.756626e+002
5.782280e+002, 1.747912e+002
5.787101e+002, 1.742377e+002
5.791922e+002, 1.740503e+002
5.796743e+002, 1.740736e+002
5.801564e+002, 1.741317e+002
5.806385e+002, 1.742311e+002
5.811207e+002, 1.745475e+002
5.816028e+002, 1.751539e+002
5.820849e+002, 1.758884e+002
5.825670e+002, 1.766036e+002
5.830491e+002, 1.772532e+002
5.835313e+002, 1.777221e+002
5.840134e+002, 1.777989e+002
5.844955e+002, 1.777737e+002
5.849776e+002, 1.779706e+002
5.854597e+002, 1.783340e+002
5.859418e+002, 1.785427e+002
5.864240e+002, 1.781236e+002
5.869061e+002, 1.777518e+002
5.873882e+002, 1.778452e+002
5.878703e+002, 1.785503e+002
5.883524e+002, 1.793257e+002
5.888345e+002, 1.803727e+002
5.893167e+002, 1.812900e+002
5.897988e+002, 1.817681e+002
5.902809e+002, 1.817564e+002
5.907630e+002, 1.813579e+002
5.912451e+002, 1.803739e+002
5.917272e+002, 1.792147e+002
5.922094e+002, 1.786805e+002
5.926915e+002, 1.788038e+002
5.931736e+002, 1.791386e+002
5.936557e+002, 1.797186e+002
5.941378e+002, 1.802902e+002
5.946199e+002, 1.799905e+002
5.951021e+002, 1.789491e+002
5.955842e+002, 1.782026e+002
5.960663e+002, 1.789196e+002
5.965484e+002, 1.800429e+002
5.970305e+002, 1.802522e+002
5.975126e+002, 1.794147e+002
5.979948e+002, 1.785198e+002
5.984769e+002, 1.781562e+002
5.989590e+002, 1.779669e+002
5.994411e+002, 1.776223e+002
5.999232e+002, 1.767800e+002
6.004053e+002, 1.762414e+002
6.008875e+002, 1.764698e+002
6.013696e+002, 1.769505e+002
6.018517e+002, 1.769236e+002
6.023338e+002, 1.759734e+002
6.028159e+002, 1.753742e+002
6.032980e+002, 1.755512e+002
6.037802e+002, 1.761855e+002
6.042623e+002, 1.758409e+002
6.047444e+002, 1.743330e+002
6.052265e+002, 1.734383e+002
6.057086e+002, 1.748697e+002
6.061907e+002, 1.776540e+002
6.066729e+002, 1.780825e+002
6.071550e+002, 1.761985e+002
6.076371e+002, 1.741420e+002
6.081192e+002, 1.736128e+002
6.086013e+002, 1.739502e+002
6.090834e+002, 1.743136e+002
6.095656e+002, 1.745309e+002
6.100477e+002, 1.749196e+002
6.105298e+002, 1.761709e+002
6.110119e+002, 1.774771e+002
6.114940e+002, 1.779421e+002
6.119761e+002, 1.763872e+002
6.124583e+002, 1.751365e+002
6.129404e+002, 1.744627e+002
6.134225e+002, 1.743240e+002
6.139046e+002, 1.747399e+002
6.143867e+002, 1.761214e+002
6.148688e+002, 1.771735e+002
6.153510e+002, 1.774343e+002
6.158331e+002, 1.770417e+002
6.163152e+002, 1.769659e+002
6.167973e+002, 1.772589e+002
6.172794e+002, 1.773347e+002
6.177615e+002, 1.763602e+002
6.182437e+002, 1.748835e+002
6.187258e+002, 1.747042e+002
6.192079e+002, 1.759625e+002
6.196900e+002, 1.771174e+002
6.201721e+002, 1.764740e+002
6.206542e+002, 1.751113e+002
6.211364e+002, 1.744643e+002
6.216185e+002, 1.752425e+002
6.221006e+002, 1.758890e+002
6.225827e+002, 1.753674e+002
6.230648e+002, 1.744148e+002
6.235469e+002, 1.740607e+002
6.240291e+002, 1.751070e+002
6.245112e+002, 1.760303e+002
6.249933e+002, 1.766853e+002
6.254754e+002, 1.770711e+002
6.259575e+002, 1.771192e+002
6.264396e+002, 1.767116e+002
6.269218e+002, 1.763281e+002
6.274039e+002, 1.761989e+002
6.278860e+002, 1.762582e+002
6.283681e+002, 1.758942e+002
6.288502e+002, 1.750717e+002
6.293323e+002, 1.747334e+002
6.298145e+002, 1.762965e+002
6.302966e+002, 1.786582e+002
6.307787e+002, 1.795487e+002
6.312608e+002, 1.786636e+002
6.317429e+002, 1.775188e+002
6.322250e+002, 1.771742e+002
6.327072e+002, 1.771972e+002
6.331893e+002, 1.771103e+002
6.336714e+002, 1.766933e+002
6.341535e+002, 1.763342e+002
6.346356e+002, 1.761942e+002
6.351177e+002, 1.761562e+002
6.355999e+002, 1.760096e+002
6.360820e+002, 1.754585e+002
6.365641e+002, 1.752897e+002
6.370462e+002, 1.757729e+002
6.375283e+002, 1.766882e+002
6.380104e+002, 1.772879e+002
6.384926e+002, 1.775318e+002
6.389747e+002, 1.777579e+002
6.394568e+002, 1.782045e+002
6.399389e+002, 1.787439e+002
6.404210e+002, 1.788674e+002
6.409031e+002, 1.785997e+002
6.413853e+002, 1.783155e+002
6.418674e+002, 1.781806e+002
6.423495e+002, 1.782376e+002
6.428316e+002, 1.787525e+002
6.433137e+002, 1.798508e+002
6.437958e+002, 1.803857e+002
6.442780e+002, 1.791746e+002
6.447601e+002, 1.774810e+002
6.452422e+002, 1.764190e+002
6.457243e+002, 1.765238e+002
6.462064e+002, 1.767419e+002
6.466885e+002, 1.770516e+002
6.471707e+002, 1.774094e+002
6.476528e+002, 1.777472e+002
6.481349e+002, 1.780467e+002
6.486170e+002, 1.784108e+002
6.490991e+002, 1.789373e+002
6.495812e+002, 1.794613e+002
6.500634e+002, 1.795230e+002
6.505455e+002, 1.791566e+002
6.510276e+002, 1.788453e+002
6.515097e+002, 1.787730e+002
6.519918e+002, 1.789129e+002
6.524739e+002, 1.794260e+002
6.529561e+002, 1.801943e+002
6.534382e+002, 1.806291e+002
6.539203e+002, 1.800303e+002
6.544024e+002, 1.792386e+002
6.548845e+002, 1.787756e+002
6.553666e+002, 1.787011e+002
6.558488e+002, 1.788886e+002
6.563309e+002, 1.796524e+002
6.568130e+002, 1.804088e+002
6.572951e+002, 1.807822e+002
6.577772e+002, 1.805660e+002
6.582593e+002, 1.805336e+002
6.587415e+002, 1.807439e+002
6.592236e+002, 1.810442e+002
6.597057e+002, 1.813227e+002
6.601878e+002, 1.815751e+002
6.606699e+002, 1.814962e+002
6.611520e+002, 1.808726e+002
6.616342e+002, 1.803087e+002
6.621163e+002, 1.809990e+002
6.625984e+002, 1.824592e+002
6.630805e+002, 1.833837e+002
6.635626e+002, 1.824200e+002
6.640447e+002, 1.815876e+002
6.645269e+002, 1.828364e+002
6.650090e+002, 1.854131e+002
6.654911e+002, 1.871448e+002
6.659732e+002, 1.866354e+002
6.664553e+002, 1.858832e+002
6.669374e+002, 1.856601e+002
6.674196e+002, 1.859224e+002
6.679017e+002, 1.857852e+002
6.683838e+002, 1.849212e+002
6.688659e+002, 1.842783e+002
6.693480e+002, 1.844669e+002
6.698301e+002, 1.854719e+002
6.703123e+002, 1.859757e+002
6.707944e+002, 1.859054e+002
6.712765e+002, 1.859058e+002
6.717586e+002, 1.866494e+002
6.722407e+002, 1.878766e+002
6.727228e+002, 1.890860e+002
6.732050e+002, 1.902678e+002
6.736871e+002, 1.910970e+002
6.741692e+002, 1.910767e+002
6.746513e+002, 1.906817e+002
6.751334e+002, 1.904780e+002
6.756155e+002, 1.908766e+002
6.760977e+002, 1.910625e+002
6.765798e+002, 1.906396e+002
6.770619e+002, 1.899649e+002
6.775440e+002, 1.895755e+002
6.780261e+002, 1.895951e+002
6.785082e+002, 1.896125e+002
6.789904e+002, 1.894074e+002
6.794725e+002, 1.892692e+002
6.799546e+002, 1.902241e+002
6.804367e+002, 1.922723e+002
6.809188e+002, 1.939458e+002
6.814009e+002, 1.945021e+002
6.818831e+002, 1.943600e+002
6.823652e+002, 1.941670e+002
6.828473e+002, 1.939281e+002
6.833294e+002, 1.936726e+002
6.838115e+002, 1.930606e+002
6.842936e+002, 1.927110e+002
6.847758e+002, 1.933794e+002
6.852579e+002, 1.950860e+002
6.857400e+002, 1.961502e+002
6.862221e+002, 1.954194e+002
6.867042e+002, 1.945196e+002
6.871863e+002, 1.942533e+002
6.876685e+002, 1.947055e+002
6.881506e+002, 1.955166e+002
6.886327e+002, 1.968822e+002
6.891148e+002, 1.982308e+002
6.895969e+002, 1.990340e+002
6.900790e+002, 1.993212e+002
6.905612e+002, 1.994064e+002
6.910433e+002, 1.992619e+002
6.915254e+002, 1.992004e+002
6.920075e+002, 1.996588e+002
6.924896e+002, 2.004420e+002
6.929717e+002, 2.012362e+002
6.934539e+002, 2.021148e+002
6.939360e+002, 2.026586e+002
6.944181e+002, 2.023210e+002
6.949002e+002, 2.015632e+002
6.953823e+002, 2.010994e+002
6.958644e+002, 2.013471e+002
6.963466e+002, 2.016010e+002
6.968287e+002, 2.018243e+002
6.973108e+002, 2.019796e+002
6.977929e+002, 2.019492e+002
6.982750e+002, 2.017114e+002
6.987571e+002, 2.013723e+002
6.992393e+002, 2.008768e+002
6.997214e+002, 2.003595e+002
7.002035e+002, 2.003108e+002
7.006856e+002, 2.006826e+002
7.011677e+002, 2.010594e+002
7.016498e+002, 2.010775e+002
7.021320e+002, 2.010426e+002
7.026141e+002, 2.013553e+002
7.030962e+002, 2.019843e+002
7.035783e+002, 2.025718e+002
7.040604e+002, 2.031122e+002
7.045425e+002, 2.034322e+002
7.050247e+002, 2.033303e+002
7.055068e+002, 2.026648e+002
7.059889e+002, 2.022823e+002
7.064710e+002, 2.021749e+002
7.069531e+002, 2.023633e+002
7.074352e+002, 2.030171e+002
7.079174e+002, 2.042238e+002
7.083995e+002, 2.048281e+002
7.088816e+002, 2.047518e+002
7.093637e+002, 2.043665e+002
7.098458e+002, 2.038991e+002
7.103279e+002, 2.034394e+002
7.108101e+002, 2.032402e+002
7.112922e+002, 2.034032e+002
7.117743e+002, 2.035945e+002
7.122564e+002, 2.034877e+002
7.127385e+002, 2.032974e+002
7.132206e+002, 2.032845e+002
7.137028e+002, 2.037003e+002
7.141849e+002, 2.040493e+002
7.146670e+002, 2.043063e+002
7.151491e+002, 2.044186e+002
7.156312e+002, 2.042980e+002
7.161133e+002, 2.039126e+002
7.165955e+002, 2.033242e+002
7.170776e+002, 2.023796e+002
7.175597e+002, 2.014337e+002
7.180418e+002, 2.014768e+002
7.185239e+002, 2.023923e+002
7.190060e+002, 2.030305e+002
7.194882e+002, 2.027856e+002
7.199703e+002, 2.022021e+002
7.204524e+002, 2.018542e+002
7.209345e+002, 2.017167e+002
7.214166e+002, 2.017085e+002
7.218987e+002, 2.020195e+002
7.223809e+002, 2.022348e+002
7.228630e+002, 2.019871e+002
7.233451e+002, 2.013672e+002
7.238272e+002, 2.012074e+002
7.243093e+002, 2.019029e+002
7.247914e+002, 2.025211e+002
7.252736e+002, 2.027118e+002
7.257557e+002, 2.025087e+002
7.262378e+002, 2.022443e+002
7.267199e+002, 2.018936e+002
7.272020e+002, 2.017001e+002
7.276841e+002, 2.020296e+002
7.281663e+002, 2.025855e+002
7.286484e+002, 2.025576e+002
7.291305e+002, 2.019507e+002
7.296126e+002, 2.015418e+002
7.300947e+002, 2.021728e+002
7.305768e+002, 2.030067e+002
7.310590e+002, 2.032388e+002
7.315411e+002, 2.025617e+002
7.320232e+002, 2.023854e+002
7.325053e+002, 2.034984e+002
7.329874e+002, 2.047472e+002
7.334695e+002, 2.054590e+002
7.339517e+002, 2.055264e+002
7.344338e+002, 2.053658e+002
7.349159e+002, 2.049298e+002
7.353980e+002, 2.043956e+002
7.358801e+002, 2.038843e+002
7.363622e+002, 2.034257e+002
7.368444e+002, 2.031278e+002
7.373265e+002, 2.029981e+002
7.378086e+002, 2.030918e+002
7.382907e+002, 2.037897e+002
7.387728e+002, 2.046228e+002
7.392549e+002, 2.049339e+002
7.397371e+002, 2.041280e+002
7.402192e+002, 2.035189e+002
7.407013e+002, 2.034896e+002
7.411834e+002, 2.038614e+002
7.416655e+002, 2.044361e+002
7.421476e+002, 2.054915e+002
7.426298e+002, 2.060251e+002
7.431119e+002, 2.057613e+002
7.435940e+002, 2.051235e+002
7.440761e+002, 2.048306e+002
7.445582e+002, 2.048652e+002
7.450403e+002, 2.050890e+002
7.455225e+002, 2.055704e+002
7.460046e+002, 2.060248e+002
7.464867e+002, 2.058674e+002
7.469688e+002, 2.054285e+002
7.474509e+002, 2.054251e+002
7.479330e+002, 2.067309e+002
7.484152e+002, 2.079195e+002
7.488973e+002, 2.083851e+002
7.493794e+002, 2.082942e+002
7.498615e+002, 2.082224e+002
7.503436e+002, 2.082226e+002
7.508257e+002, 2.081931e+002
7.513079e+002, 2.081020e+002
7.517900e+002, 2.079715e+002
7.522721e+002, 2.077871e+002
7.527542e+002, 2.075496e+002
7.532363e+002, 2.076392e+002
7.537184e+002, 2.084753e+002
7.542006e+002, 2.096005e+002
7.546827e+002, 2.103284e+002
7.551648e+002, 2.107134e+002
7.556469e+002, 2.109486e+002
7.561290e+002, 2.109880e+002
7.566111e+002, 2.110417e+002
7.570933e+002, 2.112565e+002
7.575754e+002, 2.116209e+002
7.580575e+002, 2.119156e+002
7.585396e+002, 2.121987e+002
7.590217e+002, 2.122841e+002
7.595038e+002, 2.119211e+002
7.599860e+002, 2.112079e+002
7.604681e+002, 2.114495e+002
7.609502e+002, 2.127271e+002
7.614323e+002, 2.139766e+002
7.619144e+002, 2.144159e+002
7.623965e+002, 2.143750e+002
7.628787e+002, 2.144291e+002
7.633608e+002, 2.145885e+002
7.638429e+002, 2.147328e+002
7.643250e+002, 2.144818e+002
7.648071e+002, 2.144282e+002
7.652892e+002, 2.151223e+002
7.657714e+002, 2.167514e+002
7.662535e+002, 2.179834e+002
7.667356e+002, 2.186368e+002
7.672177e+002, 2.190325e+002
7.676998e+002, 2.193681e+002
7.681819e+002, 2.196632e+002
7.686641e+002, 2.195002e+002
7.691462e+002, 2.188139e+002
7.696283e+002, 2.181839e+002
7.701104e+002, 2.180428e+002
7.705925e+002, 2.183189e+002
7.710746e+002, 2.189946e+002
7.715568e+002, 2.200825e+002
7.720389e+002, 2.210794e+002
7.725210e+002, 2.214814e+002
7.730031e+002, 2.217902e+002
7.734852e+002, 2.224511e+002
7.739673e+002, 2.237101e+002
7.744495e+002, 2.246992e+002
7.749316e+002, 2.253678e+002
7.754137e+002, 2.257835e+002
7.758958e+002, 2.258646e+002
7.763779e+002, 2.255503e+002
7.768600e+002, 2.258253e+002
7.773422e+002, 2.268120e+002
7.778243e+002, 2.278489e+002
7.783064e+002, 2.281558e+002
7.787885e+002, 2.280703e+002
7.792706e+002, 2.282226e+002
7.797527e+002, 2.287287e+002
7.802349e+002, 2.293826e+002
7.807170e+002, 2.299565e+002
7.811991e+002, 2.306827e+002
7.816812e+002, 2.318305e+002
7.821633e+002, 2.340468e+002
7.826454e+002, 2.354207e+002
7.831276e+002, 2.355898e+002
7.836097e+002, 2.353525e+002
7.840918e+002, 2.353366e+002
7.845739e+002, 2.355315e+002
7.850560e+002, 2.365095e+002
7.855381e+002, 2.384339e+002
7.860203e+002, 2.405107e+002
7.865024e+002, 2.418219e+002
7.869845e+002, 2.426760e+002
7.874666e+002, 2.436873e+002
7.879487e+002, 2.451360e+002
7.884308e+002, 2.462776e+002
7.889130e+002, 2.463337e+002
7.893951e+002, 2.461343e+002
7.898772e+002, 2.465536e+002
7.903593e+002, 2.479536e+002
7.908414e+002, 2.494397e+002
7.913235e+002, 2.510739e+002
7.918057e+002, 2.526794e+002
7.922878e+002, 2.538384e+002
7.927699e+002, 2.546189e+002
7.932520e+002, 2.560971e+002
7.937341e+002, 2.586364e+002
7.942162e+002, 2.609714e+002
7.946984e+002, 2.614365e+002
7.951805e+002, 2.608975e+002
7.956626e+002, 2.606650e+002
7.961447e+002, 2.609692e+002
7.966268e+002, 2.618238e+002
7.971089e+002, 2.636714e+002
7.975911e+002, 2.658638e+002
7.980732e+002, 2.676156e+002
7.985553e+002, 2.684326e+002
7.990374e+002, 2.700879e+002
7.995195e+002, 2.729604e+002
8.000016e+002, 2.761620e+002
8.004838e+002, 2.785476e+002
8.009659e+002, 2.802599e+002
8.014480e+002, 2.822154e+002
8.019301e+002, 2.846432e+002
8.024122e+002, 2.870738e+002
8.028943e+002, 2.886080e+002
8.033765e+002, 2.900094e+002
8.038586e+002, 2.923691e+002
8.043407e+002, 2.966469e+002
8.048228e+002, 3.006228e+002
8.053049e+002, 3.032892e+002
8.057870e+002, 3.058006e+002
8.062692e+002, 3.093886e+002
8.067513e+002, 3.143810e+002
8.072334e+002, 3.190844e+002
8.077155e+002, 3.231763e+002
8.081976e+002, 3.273053e+002
8.086797e+002, 3.322394e+002
8.091619e+002, 3.378743e+002
8.096440e+002, 3.438030e+002
8.101261e+002, 3.497748e+002
8.106082e+002, 3.566946e+002
8.110903e+002, 3.655843e+002
8.115724e+002, 3.755389e+002
8.120546e+002, 3.854801e+002
8.125367e+002, 3.939008e+002
8.130188e+002, 4.046051e+002
8.135009e+002, 4.186210e+002
8.139830e+002, 4.340957e+002
8.144651e+002, 4.486894e+002
8.149473e+002, 4.624001e+002
8.154294e+002, 4.775909e+002
8.159115e+002, 4.948068e+002
8.163936e+002, 5.125192e+002
8.168757e+002, 5.288537e+002
8.173578e+002, 5.444401e+002
8.178400e+002, 5.610611e+002
8.183221e+002, 5.799238e+002
8.188042e+002, 5.970538e+002
8.192863e+002, 6.108969e+002
8.197684e+002, 6.218969e+002
8.202505e+002, 6.302314e+002
8.207327e+002, 6.352656e+002
8.212148e+002, 6.390853e+002
8.216969e+002, 6.412921e+002
8.221790e+002, 6.429869e+002
8.226611e+002, 6.445784e+002
8.231432e+002, 6.464147e+002
8.236254e+002, 6.507057e+002
8.241075e+002, 6.577531e+002
8.245896e+002, 6.667573e+002
8.250717e+002, 6.765496e+002
8.255538e+002, 6.880540e+002
8.260359e+002, 7.024833e+002
8.265181e+002, 7.207218e+002
8.270002e+002, 7.394407e+002
8.274823e+002, 7.584425e+002
8.279644e+002, 7.774022e+002
8.284465e+002, 7.968639e+002
8.289286e+002, 8.175912e+002
8.294108e+002, 8.349492e+002
8.298929e+002, 8.492330e+002
8.303750e+002, 8.584424e+002
8.308571e+002, 8.599941e+002
8.313392e+002, 8.552957e+002
8.318214e+002, 8.460579e+002
8.323035e+002, 8.323835e+002
8.327856e+002, 8.188420e+002
8.332677e+002, 8.053389e+002
8.337498e+002, 7.953271e+002
8.342319e+002, 7.910344e+002
8.347141e+002, 7.927648e+002
8.351962e+002, 8.012556e+002
8.356783e+002, 8.152031e+002
8.361604e+002, 8.380105e+002
8.366425e+002, 8.716433e+002
8.371246e+002, 9.160373e+002
8.376068e+002, 9.714706e+002
8.380889e+002, 1.037975e+003
8.385710e+002, 1.110466e+003
8.390531e+002, 1.189094e+003
8.395352e+002, 1.269126e+003
8.400173e+002, 1.339873e+003
8.404995e+002, 1.401897e+003
8.409816e+002, 1.481138e+003
8.414637e+002, 1.588055e+003
8.419458e+002, 1.713460e+003
8.424279e+002, 1.853029e+003
8.429100e+002, 2.006802e+003
8.433922e+002, 2.175287e+003
8.438743e+002, 2.356915e+003
8.443564e+002, 2.561748e+003
8.448385e+002, 2.791359e+003
8.453206e+002, 3.050762e+003
8.458027e+002, 3.344835e+003
8.462849e+002, 3.675151e+003
8.467670e+002, 4.045509e+003
8.472491e+002, 4.472702e+003
8.477312e+002, 4.926949e+003
8.482133e+002, 5.410615e+003
8.486954e+002, 5.916789e+003
8.491776e+002, 6.388720e+003
8.496597e+002, 6.888506e+003
8.501418e+002, 7.240745e+003
8.506239e+002, 7.398229e+003
8.511060e+002, 7.358787e+003
8.515881e+002, 7.073667e+003
8.520703e+002, 6.558587e+003
8.525524e+002, 5.940877e+003
8.530345e+002, 5.202237e+003
8.535166e+002, 4.472991e+003
8.539987e+002, 3.854601e+003
8.544808e+002, 3.335165e+003
8.549630e+002, 2.882813e+003
8.554451e+002, 2.504575e+003
8.559272e+002, 2.184281e+003
8.564093e+002, 1.922007e+003
8.568914e+002, 1.712369e+003
8.573735e+002, 1.535686e+003
8.578557e+002, 1.392502e+003
8.583378e+002, 1.270663e+003
8.588199e+002, 1.167475e+003
8.593020e+002, 1.080226e+003
8.597841e+002, 1.009167e+003
8.602662e+002, 9.510938e+002
8.607484e+002, 9.010055e+002
8.612305e+002, 8.582889e+002
8.617126e+002, 8.215076e+002
8.621947e+002, 7.907427e+002
8.626768e+002, 7.660516e+002
8.631589e+002, 7.473702e+002
8.636411e+002, 7.353585e+002
8.641232e+002, 7.273533e+002
8.646053e+002, 7.235850e+002
8.650874e+002, 7.226152e+002
8.655695e+002, 7.221347e+002
8.660516e+002, 7.228630e+002
8.665338e+002, 7.268661e+002
8.670159e+002, 7.344767e+002
8.674980e+002, 7.458035e+002
8.679801e+002, 7.622019e+002
8.684622e+002, 7.817419e+002
8.689443e+002, 8.022584e+002
8.694265e+002, 8.211923e+002
8.699086e+002, 8.476888e+002
8.703907e+002, 8.825039e+002
8.708728e+002, 9.235901e+002
8.713549e+002, 9.691819e+002
8.718370e+002, 1.019490e+003
8.723192e+002, 1.075406e+003
8.728013e+002, 1.137773e+003
8.732834e+002, 1.199747e+003
8.737655e+002, 1.266401e+003
8.742476e+002, 1.323132e+003
8.747297e+002, 1.358479e+003
8.752119e+002, 1.371751e+003
8.756940e+002, 1.354486e+003
8.761761e+002, 1.293545e+003
8.766582e+002, 1.211589e+003
8.771403e+002, 1.111012e+003
8.776224e+002, 9.939545e+002
8.781046e+002, 8.882783e+002
8.785867e+002, 7.943109e+002
8.790688e+002, 7.116703e+002
8.795509e+002, 6.432357e+002
8.800330e+002, 5.862176e+002
8.805151e+002, 5.386790e+002
8.809973e+002, 4.998144e+002
8.814794e+002, 4.666089e+002
8.819615e+002, 4.392338e+002
8.824436e+002, 4.158466e+002
8.829257e+002, 3.963615e+002
8.834078e+002, 3.803612e+002
8.838900e+002, 3.661817e+002
8.843721e+002, 3.538539e+002
8.848542e+002, 3.432613e+002
8.853363e+002, 3.346335e+002
8.858184e+002, 3.272827e+002
8.863005e+002, 3.199992e+002
8.867827e+002, 3.129901e+002
8.872648e+002, 3.069069e+002
8.877469e+002, 3.023156e+002
8.882290e+002, 2.981999e+002
8.887111e+002, 2.941455e+002
8.891932e+002, 2.903145e+002
8.896754e+002, 2.869492e+002
8.901575e+002, 2.843361e+002
8.906396e+002, 2.814834e+002
8.911217e+002, 2.782782e+002
8.916038e+002, 2.749630e+002
8.920859e+002, 2.716104e+002
8.925681e+002, 2.683719e+002
8.930502e+002, 2.658371e+002
8.935323e+002, 2.642209e+002
8.940144e+002, 2.625700e+002
8.944965e+002, 2.600471e+002
8.949786e+002, 2.573520e+002
8.954608e+002, 2.549771e+002
8.959429e+002, 2.529062e+002
8.964250e+002, 2.517040e+002
8.969071e+002, 2.518813e+002
8.973892e+002, 2.519177e+002
8.978713e+002, 2.505613e+002
8.983535e+002, 2.480900e+002
8.988356e+002, 2.462160e+002
8.993177e+002, 2.449215e+002
8.997998e+002, 2.437700e+002
9.002819e+002, 2.423171e+002
9.007640e+002, 2.410054e+002
9.012462e+002, 2.402490e+002
9.017283e+002, 2.400113e+002
9.022104e+002, 2.397127e+002
9.026925e+002, 2.395352e+002
9.031746e+002, 2.388677e+002
9.036567e+002, 2.372898e+002
9.041389e+002, 2.352267e+002
9.046210e+002, 2.341186e+002
9.051031e+002, 2.338638e+002
9.055852e+002, 2.335042e+002
9.060673e+002, 2.326172e+002
9.065494e+002, 2.315057e+002
9.070316e+002, 2.301384e+002
9.075137e+002, 2.288099e+002
9.079958e+002, 2.280258e+002
9.084779e+002, 2.284029e+002
9.089600e+002, 2.287000e+002
9.094421e+002, 2.288183e+002
9.099243e+002, 2.287973e+002
9.104064e+002, 2.286402e+002
9.108885e+002, 2.283600e+002
9.113706e+002, 2.282258e+002
9.118527e+002, 2.283132e+002
9.123348e+002, 2.283235e+002
9.128170e+002, 2.280552e+002
9.132991e+002, 2.275057e+002
9.137812e+002, 2.264266e+002
9.142633e+002, 2.243656e+002
9.147454e+002, 2.236505e+002
9.152275e+002, 2.258270e+002
9.157097e+002, 2.279690e+002
9.161918e+002, 2.281516e+002
9.166739e+002, 2.264190e+002
9.171560e+002, 2.258076e+002
9.176381e+002, 2.263296e+002
9.181202e+002, 2.270248e+002
9.186024e+002, 2.272945e+002
9.190845e+002, 2.273412e+002
9.195666e+002, 2.273563e+002
9.200487e+002, 2.273416e+002
9.205308e+002, 2.272667e+002
9.210129e+002, 2.273968e+002
9.214951e+002, 2.270780e+002
9.219772e+002, 2.258680e+002
9.224593e+002, 2.242135e+002
9.229414e+002, 2.235066e+002
9.234235e+002, 2.237373e+002
9.239056e+002, 2.242201e+002
9.243878e+002, 2.248472e+002
9.248699e+002, 2.254023e+002
9.253520e+002, 2.257482e+002
9.258341e+002, 2.258283e+002
9.263162e+002, 2.255491e+002
9.267983e+002, 2.245162e+002
9.272805e+002, 2.236870e+002
9.277626e+002, 2.232632e+002
9.282447e+002, 2.229789e+002
9.287268e+002, 2.224807e+002
9.292089e+002, 2.217688e+002
9.296910e+002, 2.216423e+002
9.301732e+002, 2.222107e+002
9.306553e+002, 2.227983e+002
9.311374e+002, 2.228715e+002
9.316195e+002, 2.225794e+002
9.321016e+002, 2.217997e+002
9.325837e+002, 2.204856e+002
9.330659e+002, 2.201082e+002
9.335480e+002, 2.223050e+002
9.340301e+002, 2.239320e+002
9.345122e+002, 2.234300e+002
9.349943e+002, 2.212325e+002
9.354764e+002, 2.203991e+002
9.359586e+002, 2.208931e+002
9.364407e+002, 2.217266e+002
9.369228e+002, 2.226694e+002
9.374049e+002, 2.234587e+002
9.378870e+002, 2.236113e+002
9.383691e+002, 2.234180e+002
9.388513e+002, 2.235469e+002
9.393334e+002, 2.246852e+002
9.398155e+002, 2.254555e+002
9.402976e+002, 2.254029e+002
9.407797e+002, 2.251883e+002
9.412618e+002, 2.261407e+002
9.417440e+002, 2.281225e+002
9.422261e+002, 2.291296e+002
9.427082e+002, 2.287464e+002
9.431903e+002, 2.278508e+002
9.436724e+002, 2.271513e+002
9.441545e+002, 2.264723e+002
9.446367e+002, 2.255902e+002
9.451188e+002, 2.243898e+002
9.456009e+002, 2.233318e+002
9.460830e+002, 2.225965e+002
9.465651e+002, 2.217615e+002
9.470472e+002, 2.204520e+002
9.475294e+002, 2.187576e+002
9.480115e+002, 2.175529e+002
9.484936e+002, 2.168248e+002
9.489757e+002, 2.165278e+002
9.494578e+002, 2.174558e+002
9.499399e+002, 2.180844e+002
9.504221e+002, 2.165825e+002
9.509042e+002, 2.136621e+002
9.513863e+002, 2.122782e+002
9.518684e+002, 2.138289e+002
9.523505e+002, 2.147595e+002
9.528326e+002, 2.143165e+002
9.533148e+002, 2.131187e+002
9.537969e+002, 2.121716e+002
9.542790e+002, 2.114689e+002
9.547611e+002, 2.109962e+002
9.552432e+002, 2.107953e+002
9.557253e+002, 2.106761e+002
9.562075e+002, 2.104094e+002
9.566896e+002, 2.102091e+002
9.571717e+002, 2.103585e+002
9.576538e+002, 2.111319e+002
9.581359e+002, 2.113186e+002
9.586180e+002, 2.106535e+002
9.591002e+002, 2.100491e+002
9.595823e+002, 2.103792e+002
9.600644e+002, 2.112714e+002
9.605465e+002, 2.115627e+002
9.610286e+002, 2.112900e+002
9.615107e+002, 2.109226e+002
9.619929e+002, 2.105852e+002
9.624750e+002, 2.103621e+002
9.629571e+002, 2.105137e+002
9.634392e+002, 2.108264e+002
9.639213e+002, 2.104045e+002
9.644034e+002, 2.089091e+002
9.648856e+002, 2.081469e+002
9.653677e+002, 2.087968e+002
9.658498e+002, 2.098809e+002
9.663319e+002, 2.096497e+002
9.668140e+002, 2.087049e+002
9.672961e+002, 2.083553e+002
9.677783e+002, 2.091913e+002
9.682604e+002, 2.099827e+002
9.687425e+002, 2.103494e+002
9.692246e+002, 2.104152e+002
9.697067e+002, 2.102451e+002
9.701888e+002, 2.097966e+002
9.706710e+002, 2.094145e+002
9.711531e+002, 2.090947e+002
9.716352e+002, 2.088977e+002
9.721173e+002, 2.087996e+002
9.725994e+002, 2.088953e+002
9.730815e+002, 2.097422e+002
9.735637e+002, 2.110658e+002
9.740458e+002, 2.113365e+002
9.745279e+002, 2.086103e+002
9.750100e+002, 2.065317e+002
9.754921e+002, 2.061662e+002
9.759742e+002, 2.069055e+002
9.764564e+002, 2.072935e+002
9.769385e+002, 2.073543e+002
9.774206e+002, 2.074317e+002
9.779027e+002, 2.076116e+002
9.783848e+002, 2.078580e+002
9.788669e+002, 2.082975e+002
9.793491e+002, 2.087121e+002
9.798312e+002, 2.087881e+002
9.803133e+002, 2.081836e+002
9.807954e+002, 2.080619e+002
9.812775e+002, 2.088061e+002
9.817596e+002, 2.094259e+002
9.822418e+002, 2.089839e+002
9.827239e+002, 2.077629e+002
9.832060e+002, 2.073322e+002
9.836881e+002, 2.076314e+002
9.841702e+002, 2.080701e+002
9.846523e+002, 2.084729e+002
9.851345e+002, 2.087174e+002
9.856166e+002, 2.084723e+002
9.860987e+002, 2.079985e+002
9.865808e+002, 2.082534e+002
9.870629e+002, 2.095461e+002
9.875450e+002, 2.106113e+002
9.880272e+002, 2.112349e+002
9.885093e+002, 2.114658e+002
9.889914e+002, 2.112777e+002
9.894735e+002, 2.107760e+002
9.899556e+002, 2.101144e+002
9.904377e+002, 2.092497e+002
9.909199e+002, 2.085746e+002
9.914020e+002, 2.082508e+002
9.918841e+002, 2.081913e+002
9.923662e+002, 2.083105e+002
9.928483e+002, 2.086023e+002
9.933304e+002, 2.093572e+002
9.938126e+002, 2.106179e+002
9.942947e+002, 2.115988e+002
9.947768e+002, 2.116690e+002
9.952589e+002, 2.112859e+002
9.957410e+002, 2.108119e+002
9.962231e+002, 2.103382e+002
9.967053e+002, 2.101010e+002
9.971874e+002, 2.103930e+002
9.976695e+002, 2.106352e+002
9.981516e+002, 2.107549e+002
9.986337e+002, 2.107821e+002
9.991158e+002, 2.108087e+002
9.995980e+002, 2.108031e+002
1.000080e+003, 2.104948e+002
1.000562e+003, 2.098043e+002
1.001044e+003, 2.091551e+002
1.001526e+003, 2.088210e+002
1.002009e+003, 2.086992e+002
1.002491e+003, 2.087824e+002
1.002973e+003, 2.091023e+002
1.003455e+003, 2.091831e+002
1.003937e+003, 2.089518e+002
1.004419e+003, 2.087275e+002
1.004901e+003, 2.087118e+002
1.005383e+003, 2.087495e+002
1.005865e+003, 2.085858e+002
1.006348e+003, 2.081913e+002
1.006830e+003, 2.074737e+002
1.007312e+003, 2.057299e+002
1.007794e+003, 2.044804e+002
1.008276e+003, 2.043401e+002
1.008758e+003, 2.048267e+002
1.009240e+003, 2.056167e+002
1.009722e+003, 2.067847e+002
1.010205e+003, 2.073888e+002
1.010687e+003, 2.073506e+002
1.011169e+003, 2.069706e+002
1.011651e+003, 2.061304e+002
1.012133e+003, 2.053566e+002
1.012615e+003, 2.053472e+002
1.013097e+003, 2.061007e+002
1.013579e+003, 2.066372e+002
1.014061e+003, 2.066471e+002
1.014544e+003, 2.066918e+002
1.015026e+003, 2.069885e+002
1.015508e+003, 2.073653e+002
1.015990e+003, 2.074147e+002
1.016472e+003, 2.071736e+002
1.016954e+003, 2.067460e+002
1.017436e+003, 2.060151e+002
1.017918e+003, 2.054763e+002
1.018401e+003, 2.058820e+002
1.018883e+003, 2.063440e+002
1.019365e+003, 2.058422e+002
1.019847e+003, 2.039980e+002
1.020329e+003, 2.030526e+002
1.020811e+003, 2.031123e+002
1.021293e+003, 2.034977e+002
1.021775e+003, 2.038379e+002
1.022257e+003, 2.041305e+002
1.022740e+003, 2.043746e+002
1.023222e+003, 2.045716e+002
1.023704e+003, 2.047268e+002
1.024186e+003, 2.047725e+002
1.024668e+003, 2.048568e+002
1.025150e+003, 2.049605e+002
1.025632e+003, 2.051568e+002
1.026114e+003, 2.057710e+002
1.026596e+003, 2.066894e+002
1.027079e+003, 2.069115e+002
1.027561e+003, 2.062287e+002
1.028043e+003, 2.052456e+002
1.028525e+003, 2.039978e+002
1.029007e+003, 2.029943e+002
1.029489e+003, 2.027981e+002
1.029971e+003, 2.035020e+002
1.030453e+003, 2.040790e+002
1.030936e+003, 2.044995e+002
1.031418e+003, 2.049279e+002
1.031900e+003, 2.055769e+002
1.032382e+003, 2.061275e+002
1.032864e+003, 2.057404e+002
1.033346e+003, 2.047593e+002
1.033828e+003, 2.040007e+002
1.034310e+003, 2.037505e+002
1.034792e+003, 2.037731e+002
1.035275e+003, 2.041975e+002
1.035757e+003, 2.047084e+002
1.036239e+003, 2.050169e+002
1.036721e+003, 2.051216e+002
1.037203e+003, 2.054265e+002
1.037685e+003, 2.059385e+002
1.038167e+003, 2.062527e+002
1.038649e+003, 2.059478e+002
1.039132e+003, 2.054284e+002
1.039614e+003, 2.048590e+002
1.040096e+003, 2.043361e+002
1.040578e+003, 2.042315e+002
1.041060e+003, 2.046894e+002
1.041542e+003, 2.052328e+002
1.042024e+003, 2.058590e+002
1.042506e+003, 2.063354e+002
1.042989e+003, 2.061956e+002
1.043471e+003, 2.056725e+002
1.043953e+003, 2.052183e+002
1.044435e+003, 2.048887e+002
1.044917e+003, 2.047699e+002
1.045399e+003, 2.051000e+002
1.045881e+003, 2.054366e+002
1.046363e+003, 2.055254e+002
1.046845e+003, 2.054148e+002
1.047328e+003, 2.056073e+002
1.047810e+003, 2.060695e+002
1.048292e+003, 2.061561e+002
1.048774e+003, 2.052863e+002
1.049256e+003, 2.043306e+002
1.049738e+003, 2.037741e+002
1.050220e+003, 2.036647e+002
1.050702e+003, 2.041495e+002
1.051184e+003, 2.056300e+002
1.051667e+003, 2.067401e+002
1.052149e+003, 2.075038e+002
1.052631e+003, 2.077248e+002
1.053113e+003, 2.068353e+002
1.053595e+003, 2.054445e+002
1.054077e+003, 2.047149e+002
1.054559e+003, 2.046436e+002
1.055041e+003, 2.048233e+002
1.055523e+003, 2.053864e+002
1.056006e+003, 2.058239e+002
1.056488e+003, 2.060797e+002
1.056970e+003, 2.060831e+002
1.057452e+003, 2.054983e+002
1.057934e+003, 2.044260e+002
1.058416e+003, 2.037734e+002
1.058898e+003, 2.037201e+002
1.059380e+003, 2.040792e+002
1.059863e+003, 2.051873e+002
1.060345e+003, 2.062757e+002
1.060827e+003, 2.065239e+002
1.061309e+003, 2.058670e+002
1.061791e+003, 2.058234e+002
1.062273e+003, 2.065718e+002
1.062755e+003, 2.070586e+002
1.063237e+003, 2.066911e+002
1.063719e+003, 2.059754e+002
1.064202e+003, 2.055112e+002
1.064684e+003, 2.053219e+002
1.065166e+003, 2.054881e+002
1.065648e+003, 2.065847e+002
1.066130e+003, 2.070151e+002
1.066612e+003, 2.063626e+002
1.067094e+003, 2.054383e+002
1.067576e+003, 2.047093e+002
1.068059e+003, 2.042484e+002
1.068541e+003, 2.048050e+002
1.069023e+003, 2.062351e+002
1.069505e+003, 2.073230e+002
1.069987e+003, 2.070032e+002
1.070469e+003, 2.065086e+002
1.070951e+003, 2.066046e+002
1.071433e+003, 2.069181e+002
1.071916e+003, 2.065138e+002
1.072398e+003, 2.051832e+002
1.072880e+003, 2.053057e+002
1.073362e+003, 2.074294e+002
1.073844e+003, 2.095115e+002
1.074326e+003, 2.091352e+002
1.074808e+003, 2.078428e+002
1.075290e+003, 2.071743e+002
1.075772e+003, 2.072925e+002
1.076255e+003, 2.077537e+002
1.076737e+003, 2.089470e+002
1.077219e+003, 2.093750e+002
1.077701e+003, 2.082461e+002
1.078183e+003, 2.065287e+002
1.078665e+003, 2.061723e+002
1.079147e+003, 2.067247e+002
1.079629e+003, 2.071454e+002
1.080111e+003, 2.071247e+002
1.080594e+003, 2.070546e+002
1.081076e+003, 2.069009e+002
1.081558e+003, 2.069116e+002
1.082040e+003, 2.073819e+002
1.082522e+003, 2.082124e+002
1.083004e+003, 2.081075e+002
1.083486e+003, 2.071959e+002
1.083968e+003, 2.067261e+002
1.084450e+003, 2.077777e+002
1.084933e+003, 2.090523e+002
1.085415e+003, 2.098892e+002
1.085897e+003, 2.103401e+002
1.086379e+003, 2.105793e+002
1.086861e+003, 2.107005e+002
1.087343e+003, 2.100340e+002
1.087825e+003, 2.083707e+002
1.088307e+003, 2.071278e+002
1.088790e+003, 2.079789e+002
1.089272e+003, 2.096643e+002
1.089754e+003, 2.109583e+002
1.090236e+003, 2.117424e+002
1.090718e+003, 2.117386e+002
1.091200e+003, 2.103265e+002
1.091682e+003, 2.091941e+002
1.092164e+003, 2.086634e+002
1.092646e+003, 2.084583e+002
1.093129e+003, 2.082154e+002
1.093611e+003, 2.079523e+002
1.094093e+003, 2.076617e+002
1.094575e+003, 2.073277e+002
1.095057e+003, 2.071953e+002
1.095539e+003, 2.076902e+002
1.096021e+003, 2.080564e+002
1.096503e+003, 2.079151e+002
1.096986e+003, 2.074143e+002
1.097468e+003, 2.070710e+002
1.097950e+003, 2.068830e+002
1.098432e+003, 2.068214e+002
1.098914e+003, 2.068379e+002
1.099396e+003, 2.070817e+002
1.099878e+003, 2.078582e+002
1.100360e+003, 2.087896e+002
1.100843e+003, 2.095859e+002
1.101325e+003, 2.102979e+002
1.101807e+003, 2.102683e+002
1.102289e+003, 2.094312e+002
1.102771e+003, 2.085678e+002
1.103253e+003, 2.081442e+002
1.103735e+003, 2.079094e+002
1.104217e+003, 2.075731e+002
1.104699e+003, 2.072145e+002
1.105182e+003, 2.069723e+002
1.105664e+003, 2.066592e+002
1.106146e+003, 2.069792e+002
1.106628e+003, 2.082114e+002
1.107110e+003, 2.093884e+002
1.107592e+003, 2.096533e+002
1.108074e+003, 2.092453e+002
1.108556e+003, 2.084188e+002
1.109038e+003, 2.073232e+002
1.109521e+003, 2.066173e+002
1.110003e+003, 2.067060e+002
1.110485e+003, 2.070405e+002
1.110967e+003, 2.075814e+002
1.111449e+003, 2.081937e+002
1.111931e+003, 2.087883e+002
1.112413e+003, 2.092941e+002
1.112895e+003, 2.092654e+002
1.113377e+003, 2.086411e+002
1.113860e+003, 2.081286e+002
1.114342e+003, 2.083026e+002
1.114824e+003, 2.085621e+002
1.115306e+003, 2.085163e+002
1.115788e+003, 2.083071e+002
1.116270e+003, 2.084925e+002
1.116752e+003, 2.090641e+002
1.117234e+003, 2.093916e+002
1.117717e+003, 2.092473e+002
1.118199e+003, 2.091083e+002
1.118681e+003, 2.095761e+002
1.119163e+003, 2.101265e+002
1.119645e+003, 2.101501e+002
1.120127e+003, 2.095883e+002
1.120609e+003, 2.095294e+002
1.121091e+003, 2.100677e+002
1.121573e+003, 2.104855e+002
1.122056e+003, 2.103878e+002
1.122538e+003, 2.101635e+002
1.123020e+003, 2.102632e+002
1.123502e+003, 2.105971e+002
1.123984e+003, 2.110830e+002
1.124466e+003, 2.120728e+002
1.124948e+003, 2.121620e+002
1.125430e+003, 2.109391e+002
1.125913e+003, 2.098578e+002
1.126395e+003, 2.100215e+002
1.126877e+003, 2.109527e+002
1.127359e+003, 2.118730e+002
1.127841e+003, 2.126432e+002
1.128323e+003, 2.128544e+002
1.128805e+003, 2.116938e+002
1.129287e+003, 2.109210e+002
1.129770e+003, 2.109166e+002
1.130252e+003, 2.111171e+002
1.130734e+003, 2.109292e+002
1.131216e+003, 2.104713e+002
1.131698e+003, 2.102411e+002
1.132180e+003, 2.102286e+002
1.132662e+003, 2.102229e+002
1.133144e+003, 2.098333e+002
1.133626e+003, 2.097880e+002
1.134109e+003, 2.107528e+002
1.134591e+003, 2.118795e+002
1.135073e+003, 2.115350e+002
1.135555e+003, 2.099107e+002
1.136037e+003, 2.095283e+002
1.136519e+003, 2.107031e+002
1.137001e+003, 2.118436e+002
1.137483e+003, 2.119990e+002
1.137965e+003, 2.115722e+002
1.138448e+003, 2.103024e+002
1.138930e+003, 2.087015e+002
1.139412e+003, 2.084992e+002
1.139894e+003, 2.097832e+002
1.140376e+003, 2.106933e+002
1.140858e+003, 2.107862e+002
1.141340e+003, 2.107409e+002
1.141822e+003, 2.115195e+002
1.142304e+003, 2.122207e+002
1.142787e+003, 2.117759e+002
1.143269e+003, 2.101491e+002
1.143751e+003, 2.092576e+002
1.144233e+003, 2.092076e+002
1.144715e+003, 2.092762e+002
1.145197e+003, 2.090824e+002
1.145679e+003, 2.092136e+002
1.146161e+003, 2.111320e+002
1.146644e+003, 2.134865e+002
1.147126e+003, 2.143843e+002
1.147608e+003, 2.129592e+002
1.148090e+003, 2.120910e+002
1.148572e+003, 2.119055e+002
1.149054e+003, 2.120647e+002
1.149536e+003, 2.126364e+002
1.150018e+003, 2.131882e+002
1.150500e+003, 2.125290e+002
1.150983e+003, 2.113733e+002
1.151465e+003, 2.112133e+002
1.151947e+003, 2.133702e+002
1.152429e+003, 2.146006e+002
1.152911e+003, 2.145288e+002
1.153393e+003, 2.138832e+002
1.153875e+003, 2.129449e+002
1.154357e+003, 2.118935e+002
1.154840e+003, 2.111199e+002
1.155322e+003, 2.106466e+002
1.155804e+003, 2.105764e+002
1.156286e+003, 2.113323e+002
1.156768e+003, 2.119442e+002
1.157250e+003, 2.122259e+002
1.157732e+003, 2.123981e+002
1.158214e+003, 2.127051e+002
1.158697e+003, 2.130795e+002
1.159179e+003, 2.132494e+002
1.159661e+003, 2.132101e+002
1.160143e+003, 2.129779e+002
1.160625e+003, 2.118326e+002
1.161107e+003, 2.114779e+002
1.161589e+003, 2.129807e+002
1.162071e+003, 2.149285e+002
1.162553e+003, 2.153938e+002
1.163036e+003, 2.146059e+002
1.163518e+003, 2.140504e+002
1.164000e+003, 2.138598e+002
1.164482e+003, 2.143635e+002
1.164964e+003, 2.172617e+002
1.165446e+003, 2.192065e+002
1.165928e+003, 2.177586e+002
1.166410e+003, 2.148165e+002
1.166892e+003, 2.140340e+002
1.167375e+003, 2.152268e+002
1.167857e+003, 2.157100e+002
1.168339e+003, 2.151105e+002
1.168821e+003, 2.143531e+002
1.169303e+003, 2.138859e+002
1.169785e+003, 2.136889e+002
1.170267e+003, 2.139203e+002
1.170749e+003, 2.143758e+002
1.171231e+003, 2.143804e+002
1.171714e+003, 2.139379e+002
1.172196e+003, 2.140997e+002
1.172678e+003, 2.151813e+002
1.173160e+003, 2.162196e+002
1.173642e+003, 2.162985e+002
1.174124e+003, 2.160701e+002
1.174606e+003, 2.160459e+002
1.175088e+003, 2.162037e+002
1.175571e+003, 2.163541e+002
1.176053e+003, 2.165124e+002
1.176535e+003, 2.163191e+002
1.177017e+003, 2.155201e+002
1.177499e+003, 2.148738e+002
1.177981e+003, 2.152454e+002
1.178463e+003, 2.160311e+002
1.178945e+003, 2.167774e+002
1.179427e+003, 2.174441e+002
1.179910e+003, 2.174940e+002
1.180392e+003, 2.168570e+002
1.180874e+003, 2.162822e+002
1.181356e+003, 2.160338e+002
1.181838e+003, 2.159891e+002
1.182320e+003, 2.160336e+002
1.182802e+003, 2.161971e+002
1.183284e+003, 2.165953e+002
1.183767e+003, 2.173028e+002
1.184249e+003, 2.175936e+002
1.184731e+003, 2.174048e+002
1.185213e+003, 2.172554e+002
1.185695e+003, 2.174358e+002
1.186177e+003, 2.177083e+002
1.186659e+003, 2.177961e+002
1.187141e+003, 2.178001e+002
1.187624e+003, 2.178819e+002
1.188106e+003, 2.181315e+002
1.188588e+003, 2.181277e+002
1.189070e+003, 2.177923e+002
1.189552e+003, 2.176807e+002
1.190034e+003, 2.183695e+002
1.190516e+003, 2.191800e+002
1.190998e+003, 2.190515e+002
1.191480e+003, 2.185072e+002
1.191963e+003, 2.185333e+002
1.192445e+003, 2.199837e+002
1.192927e+003, 2.198747e+002
1.193409e+003, 2.177636e+002
1.193891e+003, 2.161076e+002
1.194373e+003, 2.170957e+002
1.194855e+003, 2.191178e+002
1.195337e+003, 2.203068e+002
1.195819e+003, 2.208361e+002
1.196302e+003, 2.210472e+002
1.196784e+003, 2.208112e+002
1.197266e+003, 2.207009e+002
1.197748e+003, 2.207178e+002
1.198230e+003, 2.208953e+002
1.198712e+003, 2.216390e+002
1.199194e+003, 2.222915e+002
1.199676e+003, 2.216511e+002
1.200158e+003, 2.201972e+002
1.200641e+003, 2.192845e+002
1.201123e+003, 2.194380e+002
1.201605e+003, 2.193467e+002
1.202087e+003, 2.188330e+002
1.202569e+003, 2.185298e+002
1.203051e+003, 2.193911e+002
1.203533e+003, 2.205429e+002
1.204015e+003, 2.207789e+002
1.204498e+003, 2.202778e+002
1.204980e+003, 2.197741e+002
1.205462e+003, 2.191825e+002
1.205944e+003, 2.191074e+002
1.206426e+003, 2.196934e+002
1.206908e+003, 2.204282e+002
1.207390e+003, 2.209256e+002
1.207872e+003, 2.211881e+002
1.208354e+003, 2.209748e+002
1.208837e+003, 2.204776e+002
1.209319e+003, 2.206536e+002
1.209801e+003, 2.220919e+002
1.210283e+003, 2.227877e+002
1.210765e+003, 2.223326e+002
1.211247e+003, 2.217789e+002
1.211729e+003, 2.224702e+002
1.212211e+003, 2.235477e+002
1.212694e+003, 2.237104e+002
1.213176e+003, 2.231362e+002
1.213658e+003, 2.234070e+002
1.214140e+003, 2.253503e+002
1.214622e+003, 2.258633e+002
1.215104e+003, 2.242198e+002
1.215586e+003, 2.222800e+002
1.216068e+003, 2.221655e+002
1.216551e+003, 2.228251e+002
1.217033e+003, 2.230128e+002
1.217515e+003, 2.227214e+002
1.217997e+003, 2.225720e+002
1.218479e+003, 2.225641e+002
1.218961e+003, 2.228877e+002
1.219443e+003, 2.236557e+002
1.219925e+003, 2.244222e+002
1.220407e+003, 2.247920e+002
1.220890e+003, 2.248086e+002
1.221372e+003, 2.238870e+002
1.221854e+003, 2.223763e+002
1.222336e+003, 2.235618e+002
1.222818e+003, 2.287635e+002
1.223300e+003, 2.313386e+002
1.223782e+003, 2.296198e+002
1.224264e+003, 2.267258e+002
1.224746e+003, 2.258780e+002
1.225229e+003, 2.258215e+002
1.225711e+003, 2.250923e+002
1.226193e+003, 2.237338e+002
1.226675e+003, 2.234443e+002
1.227157e+003, 2.245445e+002
1.227639e+003, 2.249029e+002
1.228121e+003, 2.238942e+002
1.228603e+003, 2.228754e+002
1.229085e+003, 2.233486e+002
1.229568e+003, 2.244642e+002
1.230050e+003, 2.257277e+002
1.230532e+003, 2.269487e+002
1.231014e+003, 2.270370e+002
1.231496e+003, 2.258439e+002
1.231978e+003, 2.248002e+002
1.232460e+003, 2.242101e+002
1.232942e+003, 2.239529e+002
1.233425e+003, 2.239165e+002
1.233907e+003, 2.241472e+002
1.234389e+003, 2.248761e+002
1.234871e+003, 2.259640e+002
1.235353e+003, 2.266066e+002
1.235835e+003, 2.267930e+002
1.236317e+003, 2.265470e+002
1.236799e+003, 2.257048e+002
1.237281e+003, 2.253752e+002
1.237764e+003, 2.273818e+002
1.238246e+003, 2.295297e+002
1.238728e+003, 2.298131e+002
1.239210e+003, 2.286856e+002
1.239692e+003, 2.279391e+002
1.240174e+003, 2.275739e+002
1.240656e+003, 2.272857e+002
1.241138e+003, 2.269769e+002
1.241621e+003, 2.269113e+002
1.242103e+003, 2.277575e+002
1.242585e+003, 2.284418e+002
1.243067e+003, 2.280486e+002
1.243549e+003, 2.269688e+002
1.244031e+003, 2.267008e+002
1.244513e+003, 2.271353e+002
1.244995e+003, 2.273753e+002
1.245478e+003, 2.271460e+002
1.245960e+003, 2.271238e+002
1.246442e+003, 2.282709e+002
1.246924e+003, 2.291100e+002
1.247406e+003, 2.286359e+002
1.247888e+003, 2.274289e+002
1.248370e+003, 2.274955e+002
1.248852e+003, 2.284740e+002
1.249334e+003, 2.286394e+002
1.249817e+003, 2.274095e+002
1.250299e+003, 2.267230e+002
1.250781e+003, 2.279497e+002
1.251263e+003, 2.294946e+002
1.251745e+003, 2.310023e+002
1.252227e+003, 2.321170e+002
1.252709e+003, 2.314252e+002
1.253191e+003, 2.296572e+002
1.253673e+003, 2.290822e+002
1.254156e+003, 2.303427e+002
1.254638e+003, 2.312829e+002
1.255120e+003, 2.309291e+002
1.255602e+003, 2.305133e+002
1.256084e+003, 2.301503e+002
1.256566e+003, 2.303654e+002
1.257048e+003, 2.327802e+002
1.257530e+003, 2.364090e+002
1.258012e+003, 2.395421e+002
1.258495e+003, 2.420361e+002
1.258977e+003, 2.422026e+002
1.259459e+003, 2.387380e+002
1.259941e+003, 2.357253e+002
1.260423e+003, 2.345712e+002
1.260905e+003, 2.342591e+002
1.261387e+003, 2.333424e+002
1.261869e+003, 2.321223e+002
1.262352e+003, 2.308257e+002
1.262834e+003, 2.294620e+002
1.263316e+003, 2.293410e+002
1.263798e+003, 2.309802e+002
1.264280e+003, 2.320954e+002
1.264762e+003, 2.319661e+002
1.265244e+003, 2.312095e+002
1.265726e+003, 2.299075e+002
1.266208e+003, 2.288394e+002
1.266691e+003, 2.291432e+002
1.267173e+003, 2.308804e+002
1.267655e+003, 2.319436e+002
1.268137e+003, 2.322720e+002
1.268619e+003, 2.324671e+002
1.269101e+003, 2.326793e+002
1.269583e+003, 2.328159e+002
1.270065e+003, 2.328034e+002
1.270548e+003, 2.326635e+002
1.271030e+003, 2.322500e+002
1.271512e+003, 2.317110e+002
1.271994e+003, 2.318301e+002
1.272476e+003, 2.325882e+002
1.272958e+003, 2.329838e+002
1.273440e+003, 2.327406e+002
1.273922e+003, 2.325387e+002
1.274405e+003, 2.328814e+002
1.274887e+003, 2.334359e+002
1.275369e+003, 2.342530e+002
1.275851e+003, 2.349993e+002
1.276333e+003, 2.343435e+002
1.276815e+003, 2.326792e+002
1.277297e+003, 2.322138e+002
1.277779e+003, 2.334464e+002
1.278261e+003, 2.344608e+002
1.278744e+003, 2.338529e+002
1.279226e+003, 2.333369e+002
1.279708e+003, 2.335728e+002
1.280190e+003, 2.342005e+002
1.280672e+003, 2.347810e+002
1.281154e+003, 2.351413e+002
1.281636e+003, 2.345188e+002
1.282118e+003, 2.328079e+002
1.282600e+003, 2.320778e+002
1.283083e+003, 2.337064e+002
1.283565e+003, 2.350704e+002
1.284047e+003, 2.356299e+002
1.284529e+003, 2.355900e+002
1.285011e+003, 2.350230e+002
1.285493e+003, 2.341714e+002
1.285975e+003, 2.332433e+002
1.286457e+003, 2.323203e+002
1.286939e+003, 2.320981e+002
1.287422e+003, 2.327673e+002
1.287904e+003, 2.336292e+002
1.288386e+003, 2.346536e+002
1.288868e+003, 2.353644e+002
1.289350e+003, 2.349185e+002
1.289832e+003, 2.341577e+002
1.290314e+003, 2.338533e+002
1.290796e+003, 2.340346e+002
1.291279e+003, 2.344806e+002
1.291761e+003, 2.352277e+002
1.292243e+003, 2.359812e+002
1.292725e+003, 2.367507e+002
1.293207e+003, 2.366861e+002
1.293689e+003, 2.336908e+002
1.294171e+003, 2.310419e+002
1.294653e+003, 2.315917e+002
1.295135e+003, 2.337104e+002
1.295618e+003, 2.348062e+002
1.296100e+003, 2.349641e+002
1.296582e+003, 2.349082e+002
1.297064e+003, 2.347490e+002
1.297546e+003, 2.347437e+002
1.298028e+003, 2.350807e+002
1.298510e+003, 2.354576e+002
1.298992e+003, 2.358330e+002
1.299475e+003, 2.361617e+002
1.299957e+003, 2.363757e+002
1.300439e+003, 2.365013e+002
1.300921e+003, 2.365788e+002
1.301403e+003, 2.366199e+002
1.301885e+003, 2.366118e+002
##END=



