##NAMES=Tin
##RRUFFID=R060756
##IDEAL CHEMISTRY=Sn
##LOCALITY=Aberfoil river, near Oban, New South Wales, Australia
##OWNER=RRUFF
##SOURCE=Michael Scott
##DESCRIPTION=Tin-white metallic water-worn grains
##STATUS=The identification of this mineral is confirmed by single-crystal X-ray diffraction and chemical analysis.
##URL=rruff.info/R060756
##MEASURED CHEMISTRY=Sn
159.133, 3080.225
159.615, 3070.995
160.097, 3076.973
160.579, 3092.442
161.061, 3123.461
161.543, 3161.499
162.025, 3193.090
162.508, 3214.893
162.990, 3229.706
163.472, 3236.136
163.954, 3233.237
164.436, 3240.170
164.918, 3273.612
165.400, 3320.387
165.882, 3352.083
166.365, 3358.709
166.847, 3356.165
167.329, 3363.585
167.811, 3380.534
168.293, 3398.482
168.775, 3418.940
169.257, 3438.023
169.739, 3443.412
170.221, 3427.671
170.704, 3406.057
171.186, 3395.468
171.668, 3395.498
172.150, 3396.818
172.632, 3395.862
173.114, 3392.835
173.596, 3389.176
174.078, 3387.799
174.561, 3381.395
175.043, 3357.411
175.525, 3316.989
176.007, 3286.732
176.489, 3290.502
176.971, 3318.777
177.453, 3330.565
177.935, 3308.868
178.417, 3282.572
178.900, 3279.789
179.382, 3298.504
179.864, 3316.783
180.346, 3320.702
180.828, 3312.737
181.310, 3304.049
181.792, 3292.527
182.274, 3285.911
182.757, 3292.893
183.239, 3311.621
183.721, 3327.508
184.203, 3329.496
184.685, 3319.875
185.167, 3311.430
185.649, 3304.605
186.131, 3300.849
186.613, 3302.350
187.096, 3308.112
187.578, 3312.569
188.060, 3311.511
188.542, 3305.706
189.024, 3299.237
189.506, 3288.862
189.988, 3283.095
190.470, 3293.649
190.952, 3315.561
191.435, 3327.517
191.917, 3304.341
192.399, 3254.108
192.881, 3229.041
193.363, 3245.611
193.845, 3271.335
194.327, 3289.900
194.809, 3301.121
195.292, 3305.227
195.774, 3297.803
196.256, 3281.572
196.738, 3272.240
197.220, 3269.769
197.702, 3276.027
198.184, 3296.547
198.666, 3326.049
199.148, 3350.513
199.631, 3360.588
200.113, 3358.135
200.595, 3351.893
201.077, 3338.532
201.559, 3326.409
202.041, 3319.932
202.523, 3317.731
203.005, 3317.083
203.488, 3318.851
203.970, 3321.046
204.452, 3313.347
204.934, 3283.899
205.416, 3264.741
205.898, 3279.087
206.380, 3312.051
206.862, 3337.026
207.344, 3336.759
207.827, 3319.166
208.309, 3308.702
208.791, 3309.135
209.273, 3309.704
209.755, 3306.029
210.237, 3299.338
210.719, 3291.268
211.201, 3282.105
211.684, 3272.340
212.166, 3262.337
212.648, 3249.999
213.130, 3242.432
213.612, 3245.904
214.094, 3254.291
214.576, 3260.387
215.058, 3261.203
215.540, 3258.372
216.023, 3254.628
216.505, 3249.698
216.987, 3244.756
217.469, 3239.481
217.951, 3234.744
218.433, 3232.057
218.915, 3232.672
219.397, 3233.724
219.880, 3229.384
220.362, 3217.184
220.844, 3209.263
221.326, 3214.722
221.808, 3224.138
222.290, 3230.052
222.772, 3230.537
223.254, 3227.487
223.736, 3222.039
224.219, 3213.486
224.701, 3207.064
225.183, 3204.609
225.665, 3204.852
226.147, 3207.594
226.629, 3212.992
227.111, 3218.864
227.593, 3223.865
228.076, 3228.033
228.558, 3229.124
229.040, 3225.596
229.522, 3219.172
230.004, 3210.245
230.486, 3198.849
230.968, 3188.280
231.450, 3181.040
231.932, 3177.051
232.415, 3175.881
232.897, 3181.626
233.379, 3185.466
233.861, 3179.390
234.343, 3163.979
234.825, 3148.249
235.307, 3134.923
235.789, 3125.268
236.271, 3126.536
236.754, 3146.107
237.236, 3167.144
237.718, 3178.705
238.200, 3181.369
238.682, 3176.774
239.164, 3160.191
239.646, 3137.125
240.128, 3121.314
240.611, 3114.189
241.093, 3113.499
241.575, 3122.405
242.057, 3136.849
242.539, 3146.104
243.021, 3144.709
243.503, 3136.460
243.985, 3125.454
244.467, 3110.492
244.950, 3098.961
245.432, 3096.516
245.914, 3101.228
246.396, 3110.542
246.878, 3132.156
247.360, 3152.192
247.842, 3153.443
248.324, 3135.423
248.807, 3113.935
249.289, 3093.387
249.771, 3076.803
250.253, 3069.849
250.735, 3079.995
251.217, 3090.874
251.699, 3087.551
252.181, 3072.384
252.663, 3061.741
253.146, 3063.685
253.628, 3073.816
254.110, 3083.126
254.592, 3093.909
255.074, 3098.952
255.556, 3088.309
256.038, 3068.519
256.520, 3059.324
257.003, 3070.315
257.485, 3088.785
257.967, 3093.056
258.449, 3083.423
258.931, 3066.014
259.413, 3032.062
259.895, 2994.428
260.377, 2974.944
260.859, 2980.123
261.341, 2994.462
261.824, 2998.237
262.306, 2989.400
262.788, 2983.678
263.270, 2985.343
263.752, 2989.354
264.234, 2989.639
264.716, 2985.729
265.198, 2983.623
265.681, 2989.606
266.163, 3004.978
266.645, 3017.251
267.127, 3028.567
267.609, 3035.218
268.091, 3033.683
268.573, 3024.963
269.055, 3012.641
269.538, 2998.151
270.020, 2981.998
270.502, 2974.362
270.984, 2980.722
271.466, 2987.732
271.948, 2992.221
272.430, 2994.036
272.912, 2992.802
273.394, 2987.993
273.877, 2981.075
274.359, 2977.537
274.841, 2977.540
275.323, 2980.932
275.805, 2993.248
276.287, 3006.741
276.769, 3010.979
277.251, 3002.395
277.733, 2988.419
278.216, 2983.035
278.698, 2990.769
279.180, 3000.403
279.662, 3018.578
280.144, 3033.989
280.626, 3035.982
281.108, 3024.169
281.590, 3008.501
282.073, 3001.407
282.555, 3006.368
283.037, 3005.473
283.519, 2986.344
284.001, 2972.812
284.483, 2982.356
284.965, 3008.154
285.447, 3028.574
285.930, 3024.398
286.412, 2997.266
286.894, 2976.485
287.376, 2966.949
287.858, 2958.527
288.340, 2947.685
288.822, 2936.124
289.304, 2926.639
289.786, 2920.725
290.268, 2917.778
290.751, 2916.177
291.233, 2915.560
291.715, 2917.405
292.197, 2921.677
292.679, 2928.635
293.161, 2940.897
293.643, 2960.245
294.125, 2977.453
294.608, 2979.047
295.090, 2963.392
295.572, 2948.177
296.054, 2934.315
296.536, 2924.993
297.018, 2922.992
297.500, 2928.440
297.982, 2937.612
298.465, 2950.457
298.947, 2965.502
299.429, 2975.138
299.911, 2975.755
300.393, 2975.352
300.875, 2982.749
301.357, 2995.750
301.839, 3004.653
302.321, 3003.794
302.804, 2997.711
303.286, 2990.306
303.768, 2981.025
304.250, 2979.077
304.732, 2997.186
305.214, 3027.968
305.696, 3044.506
306.178, 3031.913
306.660, 3016.052
307.143, 3016.584
307.625, 3029.618
308.107, 3038.312
308.589, 3033.033
309.071, 3020.228
309.553, 3019.352
310.035, 3041.314
310.517, 3053.430
311.000, 3036.355
311.482, 3007.496
311.964, 2993.361
312.446, 3001.841
312.928, 3020.025
313.410, 3029.310
313.892, 3024.930
314.374, 3023.175
314.857, 3024.929
315.339, 3028.647
315.821, 3036.583
316.303, 3046.827
316.785, 3051.467
317.267, 3042.566
317.749, 3019.314
318.231, 2999.317
318.713, 2975.724
319.195, 2962.292
319.678, 2972.396
320.160, 2994.496
320.642, 3007.779
321.124, 3000.059
321.606, 2978.402
322.088, 2966.082
322.570, 2966.889
323.052, 2971.675
323.535, 2983.863
324.017, 2996.186
324.499, 3000.453
324.981, 2994.931
325.463, 2987.697
325.945, 2990.256
326.427, 3004.520
326.909, 3017.431
327.392, 3028.722
327.874, 3037.327
328.356, 3039.801
328.838, 3037.982
329.320, 3039.488
329.802, 3057.669
330.284, 3084.980
330.766, 3085.928
331.248, 3046.222
331.731, 3011.149
332.213, 3013.716
332.695, 3037.417
333.177, 3055.728
333.659, 3058.273
334.141, 3055.293
334.623, 3060.112
335.105, 3072.192
335.587, 3077.034
336.070, 3065.285
336.552, 3045.303
337.034, 3033.009
337.516, 3030.967
337.998, 3028.646
338.480, 3016.674
338.962, 3002.255
339.444, 3000.773
339.927, 3017.009
340.409, 3038.723
340.891, 3051.647
341.373, 3053.872
341.855, 3056.707
342.337, 3063.122
342.819, 3068.239
343.301, 3066.619
343.784, 3059.632
344.266, 3054.385
344.748, 3056.242
345.230, 3064.438
345.712, 3070.896
346.194, 3076.628
346.676, 3079.556
347.158, 3075.721
347.640, 3069.972
348.122, 3070.019
348.605, 3078.735
349.087, 3090.127
349.569, 3092.475
350.051, 3081.478
350.533, 3070.365
351.015, 3056.558
351.497, 3045.153
351.979, 3039.700
352.462, 3040.096
352.944, 3043.934
353.426, 3051.055
353.908, 3060.973
354.390, 3062.991
354.872, 3045.995
355.354, 3037.782
355.836, 3058.363
356.319, 3092.568
356.801, 3115.034
357.283, 3112.773
357.765, 3098.803
358.247, 3091.507
358.729, 3091.410
359.211, 3091.386
359.693, 3089.440
360.175, 3085.956
360.658, 3082.183
361.140, 3078.627
361.622, 3072.160
362.104, 3055.790
362.586, 3036.163
363.068, 3029.250
363.550, 3039.525
364.032, 3052.470
364.514, 3050.427
364.997, 3033.006
365.479, 3032.868
365.961, 3071.292
366.443, 3110.687
366.925, 3125.965
367.407, 3120.508
367.889, 3108.129
368.371, 3095.482
368.853, 3083.848
369.336, 3078.080
369.818, 3080.418
370.300, 3086.022
370.782, 3100.074
371.264, 3114.335
371.746, 3119.998
372.228, 3115.359
372.711, 3105.644
373.193, 3095.515
373.675, 3082.127
374.157, 3081.560
374.639, 3111.928
375.121, 3138.046
375.603, 3144.399
376.085, 3136.263
376.567, 3127.421
377.049, 3126.111
377.532, 3129.493
378.014, 3129.174
378.496, 3123.064
378.978, 3119.348
379.460, 3125.927
379.942, 3133.684
380.424, 3132.781
380.906, 3120.447
381.389, 3108.773
381.871, 3110.587
382.353, 3121.707
382.835, 3124.447
383.317, 3113.455
383.799, 3099.251
384.281, 3091.036
384.763, 3088.327
385.246, 3090.431
385.728, 3104.499
386.210, 3117.865
386.692, 3110.807
387.174, 3079.714
387.656, 3117.797
388.138, 3139.088
388.620, 3144.490
389.102, 3086.411
389.585, 3110.303
390.067, 3101.346
390.549, 3091.041
391.031, 3108.383
391.513, 3107.401
391.995, 3105.836
392.477, 3108.351
392.959, 3121.550
393.441, 3147.790
393.924, 3169.460
394.406, 3188.434
394.888, 3200.474
395.370, 3200.960
395.852, 3193.823
396.334, 3185.127
396.816, 3177.286
397.298, 3171.713
397.780, 3173.018
398.263, 3183.876
398.745, 3191.137
399.227, 3189.736
399.709, 3184.091
400.191, 3174.965
400.673, 3162.524
401.155, 3155.512
401.638, 3121.039
402.120, 3163.849
402.602, 3187.899
403.084, 3194.198
403.566, 3129.577
404.048, 3156.534
404.530, 3146.791
405.012, 3135.542
405.494, 3155.181
405.977, 3156.481
406.459, 3163.775
406.941, 3174.125
407.423, 3180.100
407.905, 3178.585
408.387, 3173.233
408.869, 3169.979
409.351, 3165.576
409.833, 3171.422
410.316, 3200.599
410.798, 3228.750
411.280, 3240.645
411.762, 3236.671
412.244, 3224.006
412.726, 3205.895
413.208, 3184.582
413.690, 3175.253
414.172, 3184.038
414.655, 3194.947
415.137, 3207.651
415.619, 3218.485
416.101, 3222.722
416.583, 3219.017
417.065, 3213.787
417.547, 3214.062
418.029, 3219.037
418.512, 3221.510
418.994, 3219.701
419.476, 3216.857
419.958, 3212.552
420.440, 3208.653
420.922, 3212.913
421.404, 3236.469
421.886, 3261.438
422.368, 3272.966
422.851, 3272.846
423.333, 3268.673
423.815, 3263.461
424.297, 3256.914
424.779, 3247.834
425.261, 3231.397
425.743, 3222.238
426.225, 3224.261
426.708, 3231.723
427.190, 3243.888
427.672, 3258.142
428.154, 3266.646
428.636, 3261.927
429.118, 3245.509
429.600, 3235.087
430.082, 3234.438
430.565, 3234.787
431.047, 3231.910
431.529, 3230.190
432.011, 3236.708
432.493, 3253.305
432.975, 3268.766
433.457, 3267.735
433.939, 3251.760
434.421, 3242.030
434.904, 3242.073
435.386, 3246.817
435.868, 3257.213
436.350, 3269.817
436.832, 3273.620
437.314, 3255.394
437.796, 3235.884
438.278, 3235.920
438.760, 3250.456
439.243, 3258.615
439.725, 3250.812
440.207, 3236.064
440.689, 3230.977
441.171, 3239.440
441.653, 3249.503
442.135, 3266.342
442.617, 3280.384
443.099, 3282.238
443.582, 3274.305
444.064, 3267.167
444.546, 3268.953
445.028, 3277.088
445.510, 3277.757
445.992, 3262.875
446.474, 3254.940
446.957, 3260.303
447.439, 3271.990
447.921, 3287.376
448.403, 3305.110
448.885, 3317.210
449.367, 3311.444
449.849, 3293.279
450.331, 3288.354
450.813, 3302.897
451.296, 3316.147
451.778, 3313.521
452.260, 3299.329
452.742, 3284.397
453.224, 3265.235
453.706, 3251.567
454.188, 3252.885
454.670, 3262.704
455.152, 3265.995
455.635, 3258.273
456.117, 3252.637
456.599, 3268.390
457.081, 3315.440
457.563, 3335.947
458.045, 3308.278
458.527, 3280.667
459.009, 3273.991
459.491, 3281.262
459.974, 3288.415
460.456, 3288.702
460.938, 3285.004
461.420, 3282.628
461.902, 3281.837
462.384, 3280.874
462.866, 3276.316
463.348, 3274.726
463.831, 3282.866
464.313, 3298.506
464.795, 3311.297
465.277, 3315.516
465.759, 3314.640
466.241, 3312.525
466.723, 3309.277
467.205, 3305.680
467.687, 3301.235
468.170, 3297.669
468.652, 3300.100
469.134, 3313.430
469.616, 3318.905
470.098, 3303.466
470.580, 3286.502
471.062, 3287.650
471.544, 3304.719
472.026, 3320.258
472.509, 3321.118
472.991, 3309.890
473.473, 3300.608
473.955, 3291.493
474.437, 3287.538
474.919, 3291.010
475.401, 3298.129
475.883, 3308.316
476.366, 3320.468
476.848, 3328.149
477.330, 3322.446
477.812, 3307.940
478.294, 3300.969
478.776, 3303.309
479.258, 3308.015
479.740, 3314.344
480.223, 3319.191
480.705, 3314.681
481.187, 3293.250
481.669, 3276.489
482.151, 3275.470
482.633, 3283.079
483.115, 3289.326
483.597, 3292.608
484.079, 3299.010
484.561, 3315.772
485.044, 3342.857
485.526, 3358.837
486.008, 3352.522
486.490, 3347.246
486.972, 3346.030
487.454, 3348.348
487.936, 3354.663
488.418, 3364.776
488.901, 3374.439
489.383, 3378.823
489.865, 3378.259
490.347, 3376.450
490.829, 3372.859
491.311, 3369.562
491.793, 3367.765
492.275, 3367.239
492.758, 3367.825
493.240, 3370.643
493.722, 3372.828
494.204, 3373.394
494.686, 3372.076
495.168, 3367.674
495.650, 3360.003
496.132, 3351.293
496.614, 3343.093
497.097, 3334.606
497.579, 3335.640
498.061, 3363.124
498.543, 3380.144
499.025, 3364.202
499.507, 3337.045
499.989, 3330.015
500.471, 3352.902
500.953, 3382.317
501.436, 3388.819
501.918, 3372.791
502.400, 3355.987
502.882, 3334.081
503.364, 3322.132
503.846, 3341.415
504.328, 3376.800
504.810, 3396.330
505.293, 3385.870
505.775, 3371.281
506.257, 3370.007
506.739, 3375.601
507.221, 3373.311
507.703, 3359.557
508.185, 3345.641
508.667, 3344.752
509.150, 3358.506
509.632, 3366.279
510.114, 3359.242
510.596, 3356.816
511.078, 3371.509
511.560, 3390.542
512.042, 3395.076
512.524, 3379.822
513.006, 3361.737
513.489, 3363.538
513.971, 3383.451
514.453, 3392.984
514.935, 3385.519
515.417, 3378.279
515.899, 3384.066
516.381, 3397.625
516.863, 3408.923
517.346, 3418.248
517.828, 3422.461
518.310, 3418.541
518.792, 3408.843
519.274, 3393.905
519.756, 3374.728
520.238, 3361.217
520.720, 3364.274
521.202, 3383.721
521.685, 3397.704
522.167, 3400.100
522.649, 3403.980
523.131, 3418.026
523.613, 3430.890
524.095, 3426.601
524.577, 3403.344
525.059, 3382.175
525.541, 3390.430
526.024, 3418.405
526.506, 3418.902
526.988, 3382.267
527.470, 3354.635
527.952, 3369.780
528.434, 3408.722
528.916, 3421.923
529.398, 3394.444
529.880, 3374.648
530.363, 3387.101
530.845, 3408.766
531.327, 3413.042
531.809, 3399.491
532.291, 3386.161
532.773, 3387.083
533.255, 3399.168
533.737, 3407.223
534.219, 3411.811
534.702, 3411.019
535.184, 3398.658
535.666, 3385.583
536.148, 3379.682
536.630, 3381.125
537.112, 3385.088
537.594, 3382.717
538.076, 3383.637
538.559, 3359.904
539.041, 3395.855
539.523, 3417.318
540.005, 3425.071
540.487, 3378.056
540.969, 3400.804
541.451, 3416.798
541.933, 3428.274
542.416, 3436.067
542.898, 3436.545
543.380, 3420.977
543.862, 3397.019
544.344, 3380.770
544.826, 3380.579
545.308, 3390.357
545.790, 3400.788
546.273, 3412.911
546.755, 3417.691
547.237, 3406.252
547.719, 3397.522
548.201, 3409.034
548.683, 3433.207
549.165, 3448.635
549.647, 3444.959
550.129, 3437.083
550.612, 3434.650
551.094, 3435.703
551.576, 3436.415
552.058, 3435.779
552.540, 3434.048
553.022, 3431.395
553.504, 3427.791
553.986, 3424.013
554.468, 3420.482
554.951, 3416.265
555.433, 3406.850
555.915, 3399.021
556.397, 3403.601
556.879, 3421.605
557.361, 3436.011
557.843, 3424.635
558.325, 3398.725
558.807, 3396.411
559.290, 3421.877
559.772, 3443.146
560.254, 3441.085
560.736, 3425.948
561.218, 3423.204
561.700, 3437.312
562.182, 3450.133
562.664, 3460.240
563.146, 3466.974
563.629, 3469.417
564.111, 3467.880
564.593, 3463.348
565.075, 3439.740
565.557, 3466.069
566.039, 3480.276
566.521, 3483.012
567.003, 3439.924
567.486, 3456.010
567.968, 3448.381
568.450, 3439.779
568.932, 3464.193
569.414, 3427.770
569.896, 3451.660
570.378, 3451.474
570.860, 3462.307
571.343, 3444.351
571.825, 3457.803
572.307, 3480.208
572.789, 3496.654
573.271, 3489.838
573.753, 3459.411
574.235, 3434.709
574.717, 3406.659
575.200, 3397.751
575.682, 3430.339
576.164, 3472.220
576.646, 3489.676
577.128, 3478.422
577.610, 3463.857
578.092, 3466.821
578.574, 3477.950
579.056, 3476.638
579.539, 3462.766
580.021, 3451.555
580.503, 3450.186
580.985, 3455.111
581.467, 3460.070
581.949, 3467.192
582.431, 3468.625
582.913, 3458.118
583.395, 3447.946
583.878, 3444.549
584.360, 3446.511
584.842, 3451.674
585.324, 3459.486
585.806, 3464.462
586.288, 3456.102
586.770, 3435.305
587.252, 3420.628
587.734, 3415.184
588.217, 3412.661
588.699, 3407.923
589.181, 3402.969
589.663, 3404.346
590.145, 3418.792
590.627, 3428.936
591.109, 3424.293
591.591, 3416.084
592.073, 3415.617
592.556, 3423.774
593.038, 3437.082
593.520, 3454.668
594.002, 3472.220
594.484, 3473.796
594.966, 3455.102
595.448, 3435.816
595.930, 3414.905
596.413, 3399.352
596.895, 3397.175
597.377, 3405.567
597.859, 3410.678
598.341, 3402.671
598.823, 3396.019
599.305, 3400.662
599.787, 3413.782
600.269, 3433.333
600.752, 3457.868
601.234, 3477.766
601.716, 3482.416
602.198, 3472.120
602.680, 3460.144
603.162, 3443.003
603.644, 3430.223
604.127, 3421.397
604.609, 3419.224
605.091, 3430.918
605.573, 3455.557
606.055, 3473.437
606.537, 3471.449
607.019, 3458.882
607.501, 3441.899
607.983, 3423.363
608.466, 3416.453
608.948, 3427.243
609.430, 3444.013
609.912, 3448.525
610.394, 3437.280
610.876, 3430.684
611.358, 3434.242
611.840, 3436.193
612.322, 3429.660
612.805, 3421.339
613.287, 3421.727
613.769, 3433.377
614.251, 3442.935
614.733, 3437.930
615.215, 3424.236
615.697, 3411.388
616.179, 3400.376
616.661, 3396.445
617.144, 3402.948
617.626, 3417.013
618.108, 3433.826
618.590, 3461.740
619.072, 3471.726
619.554, 3447.966
620.036, 3424.156
620.518, 3417.620
621.000, 3421.301
621.483, 3420.595
621.965, 3409.664
622.447, 3400.090
622.929, 3406.436
623.411, 3423.828
623.893, 3439.164
624.375, 3451.913
624.857, 3450.038
625.340, 3418.948
625.822, 3374.436
626.304, 3363.965
626.786, 3428.312
627.268, 3457.335
627.750, 3412.217
628.232, 3365.967
628.714, 3369.105
629.196, 3404.896
629.679, 3428.675
630.161, 3418.788
630.643, 3399.013
631.125, 3400.536
631.607, 3418.769
632.089, 3431.452
632.571, 3436.271
633.054, 3431.192
633.536, 3409.559
634.018, 3378.555
634.500, 3367.445
634.982, 3395.576
635.464, 3413.096
635.946, 3407.355
636.428, 3397.882
636.910, 3397.672
637.393, 3405.288
637.875, 3413.528
638.357, 3418.965
638.839, 3422.471
639.321, 3425.876
639.803, 3428.685
640.285, 3426.873
640.767, 3419.129
641.250, 3409.989
641.732, 3401.279
642.214, 3394.005
642.696, 3393.461
643.178, 3407.570
643.660, 3416.752
644.142, 3414.228
644.624, 3410.638
645.106, 3416.126
645.589, 3427.492
646.071, 3434.060
646.553, 3430.116
647.035, 3419.688
647.517, 3404.317
647.999, 3386.129
648.481, 3380.067
648.963, 3390.332
649.445, 3402.057
649.928, 3404.087
650.410, 3398.367
650.892, 3394.972
651.374, 3391.427
651.856, 3393.610
652.338, 3409.505
652.820, 3424.746
653.302, 3429.567
653.784, 3424.857
654.267, 3414.656
654.749, 3398.921
655.231, 3384.748
655.713, 3382.401
656.195, 3389.721
656.677, 3398.324
657.159, 3407.282
657.641, 3413.579
658.123, 3413.511
658.606, 3409.724
659.088, 3413.787
659.570, 3443.557
660.052, 3455.243
660.534, 3431.169
661.016, 3404.723
661.498, 3400.602
661.981, 3410.750
662.463, 3411.915
662.945, 3392.459
663.427, 3367.374
663.909, 3348.729
664.391, 3337.124
664.873, 3337.402
665.355, 3350.042
665.837, 3360.275
666.320, 3356.398
666.802, 3345.560
667.284, 3352.534
667.766, 3400.153
668.248, 3422.783
668.730, 3393.962
669.212, 3367.285
669.694, 3375.557
670.177, 3403.634
670.659, 3418.246
671.141, 3406.340
671.623, 3390.272
672.105, 3387.240
672.587, 3391.304
673.069, 3392.395
673.551, 3389.727
674.033, 3385.814
674.516, 3381.703
674.998, 3378.883
675.480, 3381.137
675.962, 3389.960
676.444, 3399.473
676.926, 3412.981
677.408, 3422.977
677.890, 3426.357
678.372, 3424.373
678.855, 3417.263
679.337, 3403.224
679.819, 3393.779
680.301, 3399.248
680.783, 3408.975
681.265, 3410.787
681.747, 3406.187
682.229, 3403.230
682.711, 3405.560
683.194, 3409.026
683.676, 3406.296
684.158, 3396.651
684.640, 3391.366
685.122, 3393.173
685.604, 3393.089
686.086, 3384.480
686.568, 3373.420
687.050, 3369.215
687.533, 3372.995
688.015, 3376.277
688.497, 3375.722
688.979, 3375.509
689.461, 3378.959
689.943, 3384.439
690.425, 3390.090
690.907, 3394.934
691.390, 3396.070
691.872, 3387.249
692.354, 3372.287
692.836, 3371.278
693.318, 3386.302
693.800, 3392.250
694.282, 3375.896
694.764, 3355.398
695.247, 3354.617
695.729, 3376.164
696.211, 3393.044
696.693, 3407.706
697.175, 3414.784
697.657, 3404.955
698.139, 3391.810
698.621, 3391.123
699.104, 3402.585
699.586, 3411.714
700.068, 3407.110
700.550, 3397.471
701.032, 3397.171
701.514, 3403.251
701.996, 3401.919
702.478, 3389.722
702.960, 3376.987
703.443, 3373.681
703.925, 3377.676
704.407, 3373.572
704.889, 3353.839
705.371, 3339.932
705.853, 3335.528
706.335, 3336.197
706.817, 3343.783
707.299, 3354.391
707.782, 3357.502
708.264, 3346.958
708.746, 3335.000
709.228, 3328.748
709.710, 3325.751
710.192, 3322.256
710.674, 3318.554
711.156, 3318.448
711.638, 3324.409
712.121, 3332.734
712.603, 3335.660
713.085, 3332.526
713.567, 3332.010
714.049, 3335.326
714.531, 3339.540
715.013, 3344.381
715.495, 3348.471
715.977, 3348.507
716.460, 3342.715
716.942, 3339.311
717.424, 3337.535
717.906, 3340.374
718.388, 3354.376
718.870, 3372.357
719.352, 3383.286
719.834, 3384.131
720.317, 3379.667
720.799, 3374.570
721.281, 3367.271
721.763, 3350.156
722.245, 3324.848
722.727, 3309.515
723.209, 3310.889
723.691, 3321.775
724.174, 3335.024
724.656, 3350.761
725.138, 3361.074
725.620, 3364.354
726.102, 3364.361
726.584, 3357.448
727.066, 3351.254
727.548, 3354.727
728.031, 3365.201
728.513, 3368.542
728.995, 3353.091
729.477, 3338.448
729.959, 3340.271
730.441, 3349.590
730.923, 3353.476
731.405, 3350.821
731.887, 3346.775
732.370, 3344.214
732.852, 3344.292
733.334, 3352.345
733.816, 3368.992
734.298, 3375.041
734.780, 3367.377
735.262, 3351.721
735.744, 3325.237
736.226, 3296.175
736.709, 3286.183
737.191, 3302.994
737.673, 3317.644
738.155, 3327.471
738.637, 3335.914
739.119, 3345.711
739.601, 3354.736
740.083, 3359.430
740.565, 3359.001
741.048, 3356.749
741.530, 3352.054
742.012, 3348.883
742.494, 3357.393
742.976, 3373.323
743.458, 3383.209
743.940, 3382.786
744.422, 3358.487
744.904, 3378.312
745.387, 3387.424
745.869, 3386.403
746.351, 3344.891
746.833, 3355.664
747.315, 3350.315
747.797, 3365.006
748.279, 3357.668
748.761, 3334.925
749.244, 3322.745
749.726, 3331.243
750.208, 3339.558
750.690, 3343.167
751.172, 3342.958
751.654, 3336.329
752.136, 3326.764
752.618, 3323.395
753.101, 3330.932
753.583, 3340.531
754.065, 3341.028
754.547, 3335.783
755.029, 3334.716
755.511, 3338.183
755.993, 3341.448
756.475, 3342.778
756.958, 3340.683
757.440, 3331.405
757.922, 3313.040
758.404, 3304.582
758.886, 3312.123
759.368, 3319.448
759.850, 3319.889
760.332, 3319.515
760.814, 3325.575
761.297, 3337.274
761.779, 3343.276
762.261, 3336.872
762.743, 3328.891
763.225, 3322.114
763.707, 3317.913
764.189, 3320.814
764.671, 3328.389
765.153, 3330.402
765.636, 3319.866
766.118, 3303.944
766.600, 3293.422
767.082, 3286.818
767.564, 3276.708
768.046, 3262.250
768.528, 3250.622
769.010, 3245.162
769.492, 3247.089
769.975, 3261.259
770.457, 3295.161
770.939, 3310.260
771.421, 3288.689
771.903, 3274.170
772.385, 3291.392
772.867, 3317.236
773.349, 3325.329
773.831, 3314.185
774.314, 3306.245
774.796, 3313.040
775.278, 3318.009
775.760, 3311.335
776.242, 3298.452
776.724, 3283.282
777.206, 3268.546
777.688, 3259.928
778.171, 3261.578
778.653, 3270.159
779.135, 3282.850
779.617, 3298.366
780.099, 3312.822
780.581, 3325.640
781.063, 3329.627
781.545, 3318.831
782.028, 3301.244
782.510, 3295.288
782.992, 3303.940
783.474, 3312.442
783.956, 3324.667
784.438, 3330.195
784.920, 3317.037
785.402, 3299.468
785.885, 3295.705
786.367, 3306.827
786.849, 3316.464
787.331, 3320.013
787.813, 3323.238
788.295, 3329.644
788.777, 3336.350
789.259, 3341.240
789.741, 3343.288
790.224, 3340.038
790.706, 3327.650
791.188, 3314.859
791.670, 3313.479
792.152, 3319.348
792.634, 3322.230
793.116, 3321.174
793.598, 3321.015
794.080, 3325.132
794.563, 3327.355
795.045, 3312.378
795.527, 3277.153
796.009, 3260.488
796.491, 3270.434
796.973, 3274.998
797.455, 3256.828
797.937, 3232.592
798.419, 3226.418
798.902, 3240.813
799.384, 3243.028
799.866, 3215.155
800.348, 3198.289
800.830, 3211.042
801.312, 3231.370
801.794, 3242.760
802.276, 3244.803
802.758, 3242.296
803.241, 3234.023
803.723, 3229.375
804.205, 3237.803
804.687, 3252.156
805.169, 3266.431
805.651, 3277.827
806.133, 3278.801
806.615, 3266.310
807.098, 3252.101
807.580, 3253.866
808.062, 3267.593
808.544, 3268.619
809.026, 3256.441
809.508, 3258.207
809.990, 3285.813
810.472, 3316.588
810.955, 3327.169
811.437, 3319.191
811.919, 3310.220
812.401, 3296.854
812.883, 3289.374
813.365, 3295.457
813.847, 3300.913
814.329, 3294.717
814.812, 3282.712
815.294, 3278.296
815.776, 3285.638
816.258, 3291.990
816.740, 3292.207
817.222, 3292.147
817.704, 3296.076
818.186, 3302.093
818.668, 3309.317
819.151, 3316.437
819.633, 3316.001
820.115, 3295.530
820.597, 3271.116
821.079, 3265.430
821.561, 3272.481
822.043, 3277.421
822.525, 3277.621
823.007, 3277.932
823.490, 3282.267
823.972, 3286.435
824.454, 3278.050
824.936, 3256.802
825.418, 3248.442
825.900, 3257.614
826.382, 3264.846
826.864, 3258.520
827.346, 3249.301
827.829, 3255.123
828.311, 3278.871
828.793, 3296.088
829.275, 3306.275
829.757, 3310.184
830.239, 3305.745
830.721, 3297.135
831.203, 3284.880
831.685, 3270.899
832.168, 3262.148
832.650, 3261.636
833.132, 3263.648
833.614, 3269.547
834.096, 3274.089
834.578, 3268.838
835.060, 3259.677
835.542, 3261.473
836.024, 3278.762
836.507, 3293.871
836.989, 3290.042
837.471, 3276.245
837.953, 3262.096
838.435, 3249.695
838.917, 3245.269
839.399, 3249.864
839.881, 3258.422
840.364, 3268.251
840.846, 3275.493
841.328, 3265.572
841.810, 3238.450
842.292, 3226.063
842.774, 3234.056
843.256, 3244.998
843.738, 3250.054
844.221, 3251.472
844.703, 3253.128
845.185, 3254.821
845.667, 3257.713
846.149, 3260.519
846.631, 3266.509
847.113, 3284.859
847.595, 3300.020
848.078, 3294.571
848.560, 3272.632
849.042, 3258.931
849.524, 3262.954
850.006, 3266.370
850.488, 3268.105
850.970, 3264.471
851.452, 3244.258
851.934, 3219.103
852.417, 3214.440
852.899, 3237.812
853.381, 3258.498
853.863, 3253.429
854.345, 3238.678
854.827, 3223.411
855.309, 3213.605
855.791, 3225.211
856.273, 3257.151
856.756, 3285.098
857.238, 3291.496
857.720, 3285.306
858.202, 3280.512
858.684, 3276.757
859.166, 3272.254
859.648, 3266.901
860.130, 3263.354
860.612, 3263.550
861.095, 3261.333
861.577, 3244.000
862.059, 3212.082
862.541, 3205.510
863.023, 3232.512
863.505, 3253.300
863.987, 3258.151
864.469, 3253.368
864.951, 3241.034
865.434, 3223.687
865.916, 3214.630
866.398, 3221.929
866.880, 3223.973
867.362, 3214.625
867.844, 3207.218
868.326, 3206.889
868.808, 3211.950
869.291, 3221.825
869.773, 3236.606
870.255, 3247.218
870.737, 3244.993
871.219, 3245.966
871.701, 3269.173
872.183, 3289.930
872.665, 3274.349
873.148, 3233.332
873.630, 3210.336
874.112, 3226.430
874.594, 3246.753
875.076, 3241.438
875.558, 3227.948
876.040, 3230.251
876.522, 3242.410
877.005, 3244.793
877.487, 3233.050
877.969, 3223.468
878.451, 3232.829
878.933, 3249.862
879.415, 3250.476
879.897, 3238.964
880.379, 3233.633
880.861, 3236.910
881.344, 3241.613
881.826, 3243.746
882.308, 3244.347
882.790, 3245.456
883.272, 3247.090
883.754, 3245.543
884.236, 3239.798
884.718, 3238.450
885.200, 3246.059
885.683, 3253.263
886.165, 3250.271
886.647, 3239.143
887.129, 3231.777
887.611, 3227.628
888.093, 3228.996
888.575, 3244.132
889.057, 3253.179
889.539, 3238.772
890.022, 3216.562
890.504, 3212.760
890.986, 3230.163
891.468, 3241.031
891.950, 3239.873
892.432, 3236.889
892.914, 3225.824
893.396, 3221.505
893.878, 3243.892
894.361, 3282.257
894.843, 3306.352
895.325, 3307.090
895.807, 3298.115
896.289, 3271.592
896.771, 3250.924
897.253, 3261.880
897.735, 3285.664
898.218, 3292.002
898.700, 3277.046
899.182, 3259.386
899.664, 3247.548
900.146, 3240.803
900.628, 3239.701
901.110, 3242.504
901.592, 3248.798
902.075, 3256.529
902.557, 3259.651
903.039, 3255.792
903.521, 3250.876
904.003, 3251.186
904.485, 3255.183
904.967, 3264.162
905.449, 3274.283
905.932, 3265.136
906.414, 3234.499
906.896, 3206.616
907.378, 3198.738
907.860, 3203.894
908.342, 3210.786
908.824, 3218.866
909.306, 3220.525
909.788, 3215.173
910.271, 3205.497
910.753, 3190.396
911.235, 3182.183
911.717, 3196.437
912.199, 3228.286
912.681, 3246.579
913.163, 3248.738
913.645, 3249.083
914.127, 3251.926
914.610, 3244.687
915.092, 3212.287
915.574, 3175.141
916.056, 3172.043
916.538, 3210.530
917.020, 3226.677
917.502, 3202.386
917.984, 3186.224
918.466, 3195.442
918.949, 3207.822
919.431, 3207.731
919.913, 3198.149
920.395, 3187.225
920.877, 3174.927
921.359, 3162.031
921.841, 3138.149
922.323, 3126.262
922.805, 3142.132
923.288, 3169.776
923.770, 3197.406
924.252, 3221.752
924.734, 3233.774
925.216, 3225.199
925.698, 3213.867
926.180, 3200.385
926.662, 3191.457
927.145, 3196.060
927.627, 3207.068
928.109, 3209.783
928.591, 3202.094
929.073, 3202.915
929.555, 3235.468
930.037, 3264.473
930.519, 3263.521
931.002, 3247.109
931.484, 3224.956
931.966, 3204.157
932.448, 3198.332
932.930, 3213.224
933.412, 3232.382
933.894, 3249.311
934.376, 3257.486
934.859, 3240.932
935.341, 3212.703
935.823, 3196.006
936.305, 3195.560
936.787, 3209.119
937.269, 3237.937
937.751, 3266.351
938.233, 3275.502
938.715, 3269.792
939.198, 3253.905
939.680, 3231.839
940.162, 3216.554
940.644, 3211.505
941.126, 3210.012
941.608, 3206.656
942.090, 3202.572
942.572, 3200.562
943.054, 3199.954
943.537, 3195.008
944.019, 3186.350
944.501, 3190.809
944.983, 3216.064
945.465, 3238.514
945.947, 3226.001
946.429, 3189.342
946.911, 3176.074
947.393, 3185.541
947.876, 3188.314
948.358, 3179.464
948.840, 3170.258
949.322, 3166.897
949.804, 3167.112
950.286, 3166.209
950.768, 3164.442
951.250, 3175.724
951.732, 3204.163
952.215, 3215.101
952.697, 3196.556
953.179, 3176.077
953.661, 3174.990
954.143, 3183.793
954.625, 3176.387
955.107, 3146.744
955.589, 3138.330
956.072, 3160.322
956.554, 3174.906
957.036, 3165.816
957.518, 3156.750
958.000, 3172.993
958.482, 3206.208
958.964, 3218.545
959.446, 3200.346
959.929, 3186.690
960.411, 3176.694
960.893, 3174.111
961.375, 3184.868
961.857, 3198.726
962.339, 3204.406
962.821, 3202.442
963.303, 3200.024
963.786, 3198.670
964.268, 3193.862
964.750, 3180.286
965.232, 3169.642
965.714, 3166.104
966.196, 3169.042
966.678, 3180.165
967.160, 3200.064
967.642, 3212.808
968.125, 3214.669
968.607, 3214.632
969.089, 3216.598
969.571, 3213.770
970.053, 3197.293
970.535, 3175.753
971.017, 3164.066
971.499, 3164.048
971.981, 3163.534
972.464, 3158.054
972.946, 3156.568
973.428, 3167.681
973.910, 3177.172
974.392, 3171.131
974.874, 3157.254
975.356, 3152.984
975.838, 3161.857
976.320, 3170.955
976.803, 3178.360
977.285, 3185.086
977.767, 3194.874
978.249, 3201.123
978.731, 3193.486
979.213, 3178.300
979.695, 3173.506
980.177, 3184.413
980.659, 3196.958
981.142, 3217.255
981.624, 3226.635
982.106, 3207.149
982.588, 3179.947
983.070, 3164.413
983.552, 3160.451
984.034, 3160.099
984.516, 3160.458
984.999, 3167.595
985.481, 3194.944
985.963, 3216.563
986.445, 3218.661
986.927, 3206.769
987.409, 3179.642
987.891, 3144.269
988.373, 3125.894
988.856, 3138.971
989.338, 3152.018
989.820, 3154.298
990.302, 3151.074
990.784, 3141.110
991.266, 3130.507
991.748, 3129.824
992.230, 3137.095
992.713, 3135.023
993.195, 3109.258
993.677, 3091.546
994.159, 3100.745
994.641, 3117.686
995.123, 3133.453
995.605, 3145.519
996.087, 3146.933
996.569, 3140.269
997.052, 3146.651
997.534, 3187.905
998.016, 3218.000
998.498, 3201.374
998.980, 3178.865
999.462, 3187.923
999.944, 3209.314
1000.426, 3205.606
1000.908, 3175.407
1001.391, 3160.093
1001.873, 3191.712
1002.355, 3216.246
1002.837, 3199.166
1003.319, 3173.429
1003.801, 3162.277
1004.283, 3162.833
1004.765, 3171.028
1005.247, 3184.280
1005.730, 3189.977
1006.212, 3180.580
1006.694, 3166.008
1007.176, 3135.383
1007.658, 3116.345
1008.140, 3149.834
1008.622, 3203.080
1009.104, 3216.221
1009.587, 3182.142
1010.069, 3151.408
1010.551, 3141.489
1011.033, 3144.117
1011.515, 3169.373
1011.997, 3192.510
1012.479, 3191.143
1012.961, 3174.396
1013.443, 3156.568
1013.926, 3141.110
1014.408, 3134.056
1014.890, 3141.629
1015.372, 3152.659
1015.854, 3168.113
1016.336, 3179.688
1016.818, 3180.448
1017.300, 3172.882
1017.783, 3158.112
1018.265, 3137.472
1018.747, 3126.376
1019.229, 3141.369
1019.711, 3151.464
1020.193, 3141.810
1020.675, 3126.541
1021.157, 3111.655
1021.639, 3100.474
1022.122, 3098.815
1022.604, 3106.863
1023.086, 3112.177
1023.568, 3110.896
1024.050, 3106.750
1024.532, 3100.829
1025.014, 3092.527
1025.496, 3074.104
1025.979, 3056.761
1026.461, 3061.887
1026.943, 3090.612
1027.425, 3108.852
1027.907, 3099.337
1028.389, 3092.276
1028.871, 3091.536
1029.353, 3098.918
1029.835, 3125.438
1030.318, 3155.291
1030.800, 3162.757
1031.282, 3146.998
1031.764, 3138.695
1032.246, 3155.270
1032.728, 3160.472
1033.210, 3134.612
1033.692, 3111.416
1034.175, 3112.326
1034.657, 3123.861
1035.139, 3127.985
1035.621, 3124.236
1036.103, 3120.784
1036.585, 3115.293
1037.067, 3114.622
1037.549, 3123.370
1038.031, 3132.286
1038.514, 3141.843
1038.996, 3146.450
1039.478, 3132.904
1039.960, 3103.921
1040.442, 3098.317
1040.924, 3140.192
1041.406, 3161.464
1041.888, 3147.608
1042.370, 3131.436
1042.853, 3120.153
1043.335, 3118.008
1043.817, 3133.646
1044.299, 3163.421
1044.781, 3182.798
1045.263, 3194.561
1045.745, 3186.410
1046.227, 3142.902
1046.710, 3112.808
1047.192, 3117.943
1047.674, 3135.594
1048.156, 3145.399
1048.638, 3148.452
1049.120, 3149.242
1049.602, 3147.910
1050.084, 3143.623
1050.567, 3135.649
1051.049, 3126.602
1051.531, 3115.749
1052.013, 3108.615
1052.495, 3109.753
1052.977, 3118.529
1053.459, 3137.633
1053.941, 3170.016
1054.423, 3171.111
1054.906, 3135.811
1055.388, 3114.063
1055.870, 3120.323
1056.352, 3134.748
1056.834, 3143.748
1057.316, 3147.203
1057.798, 3142.601
1058.280, 3130.953
1058.762, 3128.082
1059.245, 3133.375
1059.727, 3131.859
1060.209, 3120.573
1060.691, 3112.403
1061.173, 3115.459
1061.655, 3124.539
1062.137, 3135.399
1062.619, 3144.905
1063.102, 3137.902
1063.584, 3118.618
1064.066, 3105.490
1064.548, 3101.014
1065.030, 3099.027
1065.512, 3096.496
1065.994, 3094.216
1066.476, 3092.562
1066.958, 3092.172
1067.441, 3096.465
1067.923, 3102.177
1068.405, 3100.886
1068.887, 3093.472
1069.369, 3086.461
1069.851, 3082.397
1070.333, 3080.933
1070.815, 3083.848
1071.297, 3086.461
1071.780, 3081.336
1072.262, 3074.148
1072.744, 3073.680
1073.226, 3077.682
1073.708, 3079.789
1074.190, 3078.318
1074.672, 3074.646
1075.154, 3066.057
1075.637, 3061.896
1076.119, 3073.059
1076.601, 3087.032
1077.083, 3091.468
1077.565, 3091.491
1078.047, 3097.071
1078.529, 3108.231
1079.011, 3115.975
1079.493, 3117.589
1079.976, 3114.806
1080.458, 3100.514
1080.940, 3091.001
1081.422, 3101.197
1081.904, 3116.336
1082.386, 3120.373
1082.868, 3114.579
1083.350, 3108.101
1083.833, 3101.032
1084.315, 3096.590
1084.797, 3093.933
1085.279, 3095.664
1085.761, 3112.100
1086.243, 3123.691
1086.725, 3109.045
1087.207, 3082.292
1087.689, 3077.106
1088.172, 3098.384
1088.654, 3109.843
1089.136, 3107.649
1089.618, 3104.601
1090.100, 3102.558
1090.582, 3100.039
1091.064, 3095.520
1091.546, 3091.254
1092.028, 3090.907
1092.511, 3094.073
1092.993, 3097.060
1093.475, 3100.149
1093.957, 3098.420
1094.439, 3090.160
1094.921, 3090.216
1095.403, 3105.691
1095.885, 3124.321
1096.368, 3134.940
1096.850, 3135.976
1097.332, 3115.759
1097.814, 3080.837
1098.296, 3070.665
1098.778, 3084.781
1099.260, 3106.416
1099.742, 3129.152
1100.224, 3140.281
1100.707, 3129.203
1101.189, 3110.310
1101.671, 3099.108
1102.153, 3096.349
1102.635, 3111.922
1103.117, 3134.281
1103.599, 3136.297
1104.081, 3117.474
1104.563, 3093.866
1105.046, 3071.777
1105.528, 3059.025
1106.010, 3067.471
1106.492, 3081.369
1106.974, 3087.580
1107.456, 3091.329
1107.938, 3098.116
1108.420, 3108.001
1108.903, 3123.584
1109.385, 3144.663
1109.867, 3150.194
1110.349, 3117.195
1110.831, 3088.514
1111.313, 3082.512
1111.795, 3080.793
1112.277, 3069.367
1112.760, 3056.670
1113.242, 3055.568
1113.724, 3065.454
1114.206, 3074.127
1114.688, 3083.135
1115.170, 3086.166
1115.652, 3074.095
1116.134, 3071.832
1116.616, 3094.210
1117.099, 3117.897
1117.581, 3124.771
1118.063, 3118.284
1118.545, 3105.307
1119.027, 3084.508
1119.509, 3072.754
1119.991, 3070.426
1120.473, 3076.878
1120.955, 3093.544
1121.438, 3106.961
1121.920, 3109.513
1122.402, 3106.631
1122.884, 3105.952
1123.366, 3105.484
1123.848, 3097.338
1124.330, 3083.006
1124.812, 3067.217
1125.295, 3052.244
1125.777, 3047.771
1126.259, 3056.181
1126.741, 3066.213
1127.223, 3069.094
1127.705, 3070.002
1128.187, 3076.244
1128.669, 3083.750
1129.151, 3087.498
1129.634, 3087.727
1130.116, 3082.757
1130.598, 3075.175
1131.080, 3076.155
1131.562, 3092.448
1132.044, 3101.229
1132.526, 3081.019
1133.008, 3061.544
1133.490, 3061.518
1133.973, 3068.341
1134.455, 3068.591
1134.937, 3067.530
1135.419, 3080.704
1135.901, 3110.738
1136.383, 3126.736
1136.865, 3119.261
1137.347, 3106.810
1137.830, 3080.134
1138.312, 3065.123
1138.794, 3077.512
1139.276, 3099.509
1139.758, 3118.212
1140.240, 3128.794
1140.722, 3105.488
1141.204, 3036.468
1141.687, 3016.332
1142.169, 3051.457
1142.651, 3089.492
1143.133, 3119.201
1143.615, 3137.086
1144.097, 3140.708
1144.579, 3132.597
1145.061, 3111.804
1145.543, 3085.426
1146.026, 3075.146
1146.508, 3077.555
1146.990, 3084.711
1147.472, 3093.422
1147.954, 3096.813
1148.436, 3092.792
1148.918, 3084.556
1149.400, 3073.079
1149.882, 3061.324
1150.365, 3046.269
1150.847, 3037.869
1151.329, 3053.820
1151.811, 3078.912
1152.293, 3087.706
1152.775, 3083.195
1153.257, 3090.991
1153.739, 3122.964
1154.222, 3141.793
1154.704, 3131.952
1155.186, 3114.354
1155.668, 3086.709
1156.150, 3062.573
1156.632, 3046.941
1157.114, 3043.283
1157.596, 3063.386
1158.078, 3104.839
1158.561, 3115.506
1159.043, 3081.415
1159.525, 3068.994
1160.007, 3087.726
1160.489, 3102.826
1160.971, 3103.112
1161.453, 3093.812
1161.935, 3077.696
1162.417, 3060.560
1162.900, 3055.465
1163.382, 3059.528
1163.864, 3057.334
1164.346, 3052.070
1164.828, 3062.696
1165.310, 3086.240
1165.792, 3090.725
1166.274, 3064.436
1166.757, 3039.820
1167.239, 3047.730
1167.721, 3061.222
1168.203, 3050.594
1168.685, 3035.100
1169.167, 3042.006
1169.649, 3055.059
1170.131, 3037.003
1170.614, 2994.750
1171.096, 2983.507
1171.578, 3029.778
1172.060, 3065.721
1172.542, 3080.668
1173.024, 3076.741
1173.506, 3028.982
1173.988, 2991.182
1174.470, 3002.871
1174.953, 3038.727
1175.435, 3061.309
1175.917, 3070.619
1176.399, 3062.193
1176.881, 3030.066
1177.363, 3024.451
1177.845, 3052.282
1178.327, 3067.179
1178.809, 3053.834
1179.292, 3033.001
1179.774, 3019.780
1180.256, 3012.976
1180.738, 3013.726
1181.220, 3017.860
1181.702, 3016.635
1182.184, 3010.422
1182.666, 2996.746
1183.149, 2979.517
1183.631, 2972.539
1184.113, 2979.318
1184.595, 2984.084
1185.077, 2971.418
1185.559, 2964.674
1186.041, 2981.096
1186.523, 3003.812
1187.005, 3032.179
1187.488, 3051.795
1187.970, 3039.521
1188.452, 3004.091
1188.934, 2981.797
1189.416, 2974.935
1189.898, 2980.505
1190.380, 3009.517
1190.862, 3023.301
1191.344, 3009.637
1191.827, 2998.953
1192.309, 3007.129
1192.791, 3021.218
1193.273, 3027.111
1193.755, 3025.554
1194.237, 3013.202
1194.719, 2995.158
1195.201, 3006.080
1195.684, 3037.585
1196.166, 3040.094
1196.648, 3010.336
1197.130, 2992.882
1197.612, 3009.991
1198.094, 3028.766
1198.576, 3013.003
1199.058, 2996.679
1199.541, 3015.880
1200.023, 3041.583
1200.505, 3039.607
1200.987, 3026.301
1201.469, 3041.077
1201.951, 3078.991
1202.433, 3075.867
1202.915, 2983.918
1203.397, 2942.617
1203.880, 2995.533
1204.362, 3028.883
1204.844, 3009.324
1205.326, 2983.804
1205.808, 2980.683
1206.290, 2986.485
1206.772, 2981.402
1207.254, 2968.370
1207.736, 2958.282
1208.219, 2952.264
1208.701, 2963.030
1209.183, 2987.898
1209.665, 3006.938
1210.147, 3015.382
1210.629, 3020.935
1211.111, 3028.439
1211.593, 3028.830
1212.076, 3002.123
1212.558, 2977.423
1213.040, 2983.776
1213.522, 3004.023
1214.004, 3028.008
1214.486, 3047.587
1214.968, 3048.580
1215.450, 3031.595
1215.932, 3019.645
1216.415, 3016.000
1216.897, 3018.328
1217.379, 3033.622
1217.861, 3040.495
1218.343, 3031.127
1218.825, 3018.880
1219.307, 3011.897
1219.789, 3007.190
1220.271, 2999.454
1220.754, 2991.088
1221.236, 2992.824
1221.718, 3002.995
1222.200, 3018.140
1222.682, 3033.873
1223.164, 3028.257
1223.646, 3001.558
1224.128, 2986.755
1224.611, 3001.914
1225.093, 3022.046
1225.575, 3033.501
1226.057, 3035.825
1226.539, 3020.744
1227.021, 3004.149
1227.503, 2998.817
1227.985, 3002.379
1228.468, 3015.305
1228.950, 3034.422
1229.432, 3032.583
1229.914, 2995.462
1230.396, 2978.715
1230.878, 2986.873
1231.360, 3002.947
1231.842, 3026.873
1232.324, 3040.140
1232.807, 3031.765
1233.289, 3014.813
1233.771, 3003.629
1234.253, 2997.466
1234.735, 2997.024
1235.217, 2999.271
1235.699, 3000.239
1236.181, 2996.736
1236.663, 2978.603
1237.146, 2949.080
1237.628, 2924.195
1238.110, 2909.381
1238.592, 2905.423
1239.074, 2914.428
1239.556, 2932.062
1240.038, 2975.478
1240.520, 3005.302
1241.003, 2977.976
1241.485, 2945.498
1241.967, 2964.558
1242.449, 3014.177
1242.931, 3029.521
1243.413, 3008.685
1243.895, 3006.447
1244.377, 3022.929
1244.859, 3024.622
1245.342, 3008.440
1245.824, 2998.177
1246.306, 3002.525
1246.788, 3009.377
1247.270, 3010.366
1247.752, 3006.494
1248.234, 2991.481
1248.716, 2979.721
1249.198, 2992.732
1249.681, 3012.356
1250.163, 3020.155
1250.645, 3014.561
1251.127, 2989.358
1251.609, 2944.102
1252.091, 2932.184
1252.573, 2985.440
1253.055, 3012.736
1253.538, 3001.570
1254.020, 2993.539
1254.502, 2999.975
1254.984, 3011.691
1255.466, 3024.057
1255.948, 3031.476
1256.430, 3024.090
1256.912, 3008.435
1257.395, 2995.263
1257.877, 2988.948
1258.359, 3008.784
1258.841, 3040.962
1259.323, 3047.103
1259.805, 3028.112
1260.287, 3019.940
1260.769, 3036.616
1261.251, 3049.502
1261.734, 3043.756
1262.216, 3038.073
1262.698, 3039.350
1263.180, 3040.031
1263.662, 3033.865
1264.144, 3029.840
1264.626, 3038.282
1265.108, 3052.935
1265.590, 3057.638
1266.073, 3053.261
1266.555, 3047.944
1267.037, 3043.022
##END=



