##NAMES=Tinticite
##RRUFFID=R070682
##IDEAL CHEMISTRY=Fe^3+^_3_(PO_4_)_2_(OH)_3_&#183;3H_2_O
##LOCALITY=Tintic Standard mine, East Tintic District, East Tintic Mountainsts, Utah County, Utah, USA
##OWNER=RRUFF
##SOURCE=Michael Scott
##DESCRIPTION=Clay-like white fine-grained massive, associated with jarosite, from type find
##STATUS=The identification of this mineral has been confirmed by X-ray diffraction and chemical analysis
##URL=rruff.info/R070682
##MEASURED CHEMISTRY=(Fe^3+^_5.06_Al_0.04_)_Σ=5.09_((P_0.825_S_0.175_)_Σ=1_O_4_)_4_(OH)_4_·6.96H_2_O; OH estimated by charge balance; H_2_O by difference
184.1647, 836.6605
184.6468, 834.9084
185.1289, 831.5247
185.6111, 832.1176
186.0932, 836.6561
186.5753, 844.2098
187.0574, 857.4871
187.5395, 874.4305
188.0216, 885.8970
188.5037, 890.0925
188.9859, 887.2117
189.4680, 873.3962
189.9501, 847.4713
190.4322, 823.4588
190.9143, 817.4443
191.3964, 828.1033
191.8786, 840.1937
192.3607, 850.2866
192.8428, 857.9669
193.3249, 859.9735
193.8070, 855.1537
194.2891, 848.5353
194.7713, 845.3317
195.2534, 845.4644
195.7355, 850.5846
196.2176, 867.4167
196.6997, 894.5825
197.1818, 902.6085
197.6640, 885.7998
198.1461, 859.0512
198.6282, 849.6565
199.1103, 859.6396
199.5924, 872.6733
200.0745, 881.1838
200.5567, 884.9496
201.0388, 884.6190
201.5209, 877.7762
202.0030, 868.7111
202.4851, 871.3030
202.9672, 888.7648
203.4494, 905.9144
203.9315, 909.8538
204.4136, 897.6334
204.8957, 893.2295
205.3778, 903.2174
205.8599, 923.3055
206.3421, 931.1348
206.8242, 923.4617
207.3063, 911.3804
207.7884, 904.8345
208.2705, 905.4250
208.7526, 904.8052
209.2348, 900.8393
209.7169, 893.7536
210.1990, 887.6171
210.6811, 881.3829
211.1632, 877.7282
211.6453, 881.8952
212.1275, 898.7905
212.6096, 908.3508
213.0917, 902.0288
213.5738, 877.6827
214.0559, 863.5552
214.5380, 862.3726
215.0202, 868.5497
215.5023, 875.0439
215.9844, 884.4880
216.4665, 887.8644
216.9486, 879.5092
217.4307, 854.6851
217.9129, 839.0551
218.3950, 835.8439
218.8771, 839.9293
219.3592, 840.5656
219.8413, 836.5837
220.3234, 831.3057
220.8056, 826.2107
221.2877, 821.5567
221.7698, 815.8513
222.2519, 807.0980
222.7340, 797.5764
223.2161, 795.8489
223.6983, 807.7343
224.1804, 818.3638
224.6625, 817.6256
225.1446, 797.4209
225.6267, 785.5062
226.1088, 786.2180
226.5910, 797.3711
227.0731, 806.1301
227.5552, 811.7832
228.0373, 815.8527
228.5194, 819.9094
229.0015, 826.3683
229.4836, 827.1482
229.9658, 818.2549
230.4479, 800.5045
230.9300, 785.9637
231.4121, 794.0095
231.8942, 798.5559
232.3763, 799.7910
232.8585, 787.7970
233.3406, 792.8857
233.8227, 791.1284
234.3048, 789.0903
234.7869, 796.5833
235.2690, 786.5134
235.7512, 793.8553
236.2333, 794.2466
236.7154, 797.8191
237.1975, 794.5033
237.6796, 791.8962
238.1617, 798.5404
238.6439, 801.0345
239.1260, 797.3049
239.6081, 790.9275
240.0902, 786.7241
240.5723, 785.2694
241.0544, 778.4862
241.5366, 787.5059
242.0187, 793.0261
242.5008, 795.2348
242.9829, 784.2145
243.4650, 790.2769
243.9471, 789.4933
244.4293, 788.4292
244.9114, 796.8959
245.3935, 787.7997
245.8756, 796.1152
246.3577, 797.4803
246.8398, 802.0264
247.3220, 799.6846
247.8041, 799.4700
248.2862, 806.1459
248.7683, 809.0065
249.2504, 805.8714
249.7325, 810.6198
250.2147, 801.2832
250.6968, 808.9523
251.1789, 819.9644
251.6610, 827.2995
252.1431, 831.0496
252.6252, 831.0120
253.1074, 825.3071
253.5895, 806.9731
254.0716, 800.8840
254.5537, 814.4047
255.0358, 840.5835
255.5179, 852.1982
256.0001, 841.8741
256.4822, 828.2236
256.9643, 822.1010
257.4464, 826.8256
257.9285, 830.8095
258.4106, 833.1533
258.8928, 834.0504
259.3749, 834.1764
259.8570, 832.5344
260.3391, 831.6656
260.8212, 834.6618
261.3033, 845.4951
261.7855, 848.2725
262.2676, 837.1276
262.7497, 815.5083
263.2318, 806.5307
263.7139, 815.9962
264.1960, 828.5983
264.6782, 832.7302
265.1603, 826.3005
265.6424, 817.0872
266.1245, 803.8433
266.6066, 787.9800
267.0887, 781.0773
267.5709, 785.8811
268.0530, 794.7766
268.5351, 801.7644
269.0172, 806.9970
269.4993, 809.6623
269.9814, 808.9418
270.4636, 805.2128
270.9457, 802.7883
271.4278, 802.4440
271.9099, 801.8414
272.3920, 797.8006
272.8741, 788.9969
273.3563, 783.2232
273.8384, 783.8275
274.3205, 789.7545
274.8026, 788.1929
275.2847, 775.8536
275.7668, 763.8407
276.2490, 767.2173
276.7311, 789.3659
277.2132, 804.6998
277.6953, 805.4875
278.1774, 793.1454
278.6595, 778.0898
279.1417, 757.7849
279.6238, 741.7910
280.1059, 744.9962
280.5880, 769.5552
281.0701, 787.8265
281.5522, 790.2719
282.0344, 779.0305
282.5165, 766.6249
282.9986, 751.9169
283.4807, 740.0172
283.9628, 738.9489
284.4449, 748.8625
284.9271, 757.5249
285.4092, 761.9495
285.8913, 761.9915
286.3734, 755.1274
286.8555, 739.8766
287.3376, 724.1558
287.8198, 717.9833
288.3019, 720.8929
288.7840, 724.7580
289.2661, 726.6281
289.7482, 727.1177
290.2303, 729.7005
290.7124, 734.9316
291.1945, 738.8502
291.6767, 735.9676
292.1588, 727.0689
292.6409, 717.7120
293.1230, 709.4092
293.6051, 702.2859
294.0872, 696.4465
294.5694, 691.6381
295.0515, 689.6971
295.5336, 694.9840
296.0157, 705.7140
296.4978, 714.0365
296.9799, 716.3880
297.4621, 714.3394
297.9442, 709.9471
298.4263, 702.8835
298.9084, 697.2305
299.3905, 699.3027
299.8727, 706.5471
300.3548, 711.6418
300.8369, 709.9284
301.3190, 704.7066
301.8011, 700.0118
302.2832, 695.7369
302.7654, 694.0102
303.2475, 700.4264
303.7296, 710.8508
304.2117, 716.4797
304.6938, 707.7948
305.1759, 695.0495
305.6581, 691.8480
306.1402, 698.6259
306.6223, 705.2252
307.1044, 701.0421
307.5865, 691.4901
308.0686, 685.8206
308.5508, 691.8881
309.0329, 700.8802
309.5150, 705.3057
309.9971, 705.0466
310.4792, 702.8248
310.9613, 697.9706
311.4435, 692.8215
311.9256, 690.6301
312.4077, 694.5915
312.8898, 700.4678
313.3719, 707.3640
313.8540, 715.1785
314.3362, 718.5013
314.8183, 709.3066
315.3004, 695.8132
315.7825, 687.3651
316.2646, 691.3401
316.7467, 697.4734
317.2289, 701.6754
317.7110, 703.7928
318.1931, 704.3549
318.6752, 701.0652
319.1573, 697.3546
319.6394, 696.4866
320.1216, 702.6749
320.6037, 708.6552
321.0858, 712.1923
321.5679, 713.2207
322.0500, 713.3203
322.5321, 713.0083
323.0143, 711.8514
323.4964, 709.5048
323.9785, 699.5834
324.4606, 695.0579
324.9427, 702.7829
325.4248, 722.2376
325.9070, 733.6133
326.3891, 726.2427
326.8712, 715.2671
327.3533, 711.0355
327.8354, 725.5451
328.3175, 733.9670
328.7997, 729.2497
329.2818, 712.9018
329.7639, 705.9852
330.2460, 717.9504
330.7281, 731.7254
331.2102, 736.1400
331.6924, 721.4000
332.1745, 712.6696
332.6566, 713.6237
333.1387, 722.8364
333.6208, 731.6198
334.1029, 742.1271
334.5851, 749.2753
335.0672, 748.3978
335.5493, 733.3335
336.0314, 725.9941
336.5135, 730.7516
336.9956, 744.0729
337.4778, 753.0013
337.9599, 756.9159
338.4420, 757.6249
338.9241, 755.4835
339.4062, 749.8369
339.8883, 745.0724
340.3705, 742.0337
340.8526, 739.6642
341.3347, 734.2795
341.8168, 724.9024
342.2989, 717.2203
342.7810, 714.7191
343.2632, 717.3830
343.7453, 722.3710
344.2274, 730.8287
344.7095, 739.3182
345.1916, 741.7182
345.6737, 737.9131
346.1559, 730.7159
346.6380, 718.1187
347.1201, 702.3887
347.6022, 694.2338
348.0843, 695.1469
348.5664, 701.1442
349.0486, 711.0132
349.5307, 723.1797
350.0128, 728.2444
350.4949, 714.2829
350.9770, 691.3362
351.4591, 682.0148
351.9413, 688.8339
352.4234, 698.3031
352.9055, 695.3933
353.3876, 684.0024
353.8697, 674.3492
354.3518, 669.8134
354.8340, 669.8189
355.3161, 676.8521
355.7982, 691.4636
356.2803, 701.5847
356.7624, 692.4127
357.2445, 673.7953
357.7267, 661.1906
358.2088, 664.8903
358.6909, 673.3102
359.1730, 680.3181
359.6551, 685.6916
360.1372, 687.6473
360.6194, 684.6426
361.1015, 677.9747
361.5836, 668.9196
362.0657, 649.1961
362.5478, 635.4831
363.0299, 638.3480
363.5121, 655.7186
363.9942, 668.7172
364.4763, 667.5762
364.9584, 662.3467
365.4405, 660.0107
365.9226, 664.0505
366.4048, 668.7106
366.8869, 675.8301
367.3690, 683.8909
367.8511, 685.1458
368.3332, 672.0648
368.8153, 657.1136
369.2975, 646.0638
369.7796, 635.5754
370.2617, 634.1272
370.7438, 650.1082
371.2259, 674.8940
371.7080, 683.4133
372.1901, 662.7698
372.6722, 642.5681
373.1544, 635.4221
373.6365, 647.8947
374.1186, 655.6824
374.6007, 658.3936
375.0828, 656.8646
375.5649, 651.5842
376.0471, 640.3977
376.5292, 631.4135
377.0113, 628.4174
377.4934, 631.8195
377.9755, 633.8841
378.4576, 634.1904
378.9398, 634.0912
379.4219, 635.9490
379.9040, 639.9698
380.3861, 642.6407
380.8682, 643.2669
381.3503, 641.6357
381.8325, 634.8546
382.3146, 622.1434
382.7967, 610.8907
383.2788, 609.4034
383.7609, 616.2531
384.2430, 625.9143
384.7252, 640.7531
385.2073, 654.4147
385.6894, 650.8474
386.1715, 631.4553
386.6536, 614.4391
387.1357, 617.8262
387.6179, 632.3481
388.1000, 642.0071
388.5821, 641.7313
389.0642, 637.5112
389.5463, 633.4496
390.0284, 629.8404
390.5106, 627.8096
390.9927, 631.6551
391.4748, 635.3969
391.9569, 632.3431
392.4390, 617.6884
392.9211, 605.5278
393.4033, 606.6614
393.8854, 615.4384
394.3675, 620.5230
394.8496, 615.3365
395.3317, 607.4998
395.8138, 599.6802
396.2960, 591.3685
396.7781, 586.4465
397.2602, 586.3091
397.7423, 589.8818
398.2244, 595.7667
398.7065, 609.3886
399.1887, 619.6828
399.6708, 623.3111
400.1529, 619.6285
400.6350, 615.7958
401.1171, 612.8321
401.5992, 608.9747
402.0814, 601.9698
402.5635, 585.7208
403.0456, 577.6437
403.5277, 582.3860
404.0098, 598.0035
404.4919, 611.7637
404.9741, 625.2923
405.4562, 633.9185
405.9383, 632.4496
406.4204, 618.8543
406.9025, 608.3724
407.3846, 602.2530
407.8668, 600.2136
408.3489, 603.6163
408.8310, 613.1696
409.3131, 620.2798
409.7952, 618.8722
410.2773, 610.2268
410.7595, 601.5306
411.2416, 592.5894
411.7237, 585.5195
412.2058, 584.2869
412.6879, 587.8516
413.1700, 591.4527
413.6522, 590.5925
414.1343, 589.1727
414.6164, 594.5266
415.0985, 606.9963
415.5806, 620.0572
416.0627, 629.6707
416.5449, 636.1692
417.0270, 640.2047
417.5091, 638.7913
417.9912, 637.7180
418.4733, 645.4240
418.9554, 659.3655
419.4376, 664.1356
419.9197, 638.3854
420.4018, 607.9208
420.8839, 593.9023
421.3660, 612.2894
421.8481, 630.4979
422.3303, 639.4855
422.8124, 641.3438
423.2945, 642.0645
423.7766, 639.5820
424.2587, 638.8394
424.7408, 642.9158
425.2230, 657.5441
425.7051, 663.8854
426.1872, 652.6141
426.6693, 636.8257
427.1514, 635.9267
427.6335, 664.1593
428.1157, 684.5765
428.5978, 685.2191
429.0799, 665.2800
429.5620, 653.6300
430.0441, 652.1956
430.5262, 656.1499
431.0084, 662.9811
431.4905, 674.0430
431.9726, 679.2352
432.4547, 675.2796
432.9368, 665.0193
433.4189, 656.4645
433.9011, 649.6246
434.3832, 645.2966
434.8653, 645.4929
435.3474, 649.0596
435.8295, 650.5447
436.3116, 648.6922
436.7938, 646.1757
437.2759, 647.5054
437.7580, 651.5469
438.2401, 654.1718
438.7222, 651.2588
439.2043, 646.6507
439.6865, 646.3419
440.1686, 651.1655
440.6507, 653.5479
441.1328, 642.6849
441.6149, 627.4856
442.0970, 619.8503
442.5792, 636.3689
443.0613, 650.4730
443.5434, 644.7149
444.0255, 621.5728
444.5076, 605.2908
444.9897, 610.5275
445.4719, 620.9194
445.9540, 625.7955
446.4361, 619.1083
446.9182, 612.8191
447.4003, 606.7299
447.8824, 601.7915
448.3646, 600.7799
448.8467, 609.4872
449.3288, 615.3527
449.8109, 612.8751
450.2930, 598.7011
450.7751, 590.0413
451.2573, 587.9578
451.7394, 590.0979
452.2215, 595.2643
452.7036, 605.6831
453.1857, 608.9789
453.6678, 598.1778
454.1500, 577.4978
454.6320, 571.0212
455.1142, 580.2774
455.5963, 592.4317
456.0784, 597.1495
456.5605, 595.3586
457.0426, 591.4145
457.5247, 585.5948
458.0069, 578.8604
458.4890, 569.5110
458.9711, 559.3137
459.4532, 555.6740
459.9353, 571.6809
460.4174, 592.8421
460.8996, 599.0627
461.3817, 586.5024
461.8638, 573.4931
462.3459, 574.5776
462.8280, 582.4649
463.3102, 587.0042
463.7923, 581.3587
464.2744, 574.4799
464.7565, 570.9392
465.2386, 570.5015
465.7207, 567.9028
466.2029, 555.1808
466.6850, 544.2499
467.1671, 542.4359
467.6492, 561.8013
468.1313, 576.4085
468.6134, 585.6699
469.0956, 589.8630
469.5777, 588.5264
470.0598, 575.8992
470.5419, 566.9587
471.0240, 568.4115
471.5061, 582.0724
471.9883, 592.0983
472.4704, 597.7513
472.9525, 600.9020
473.4346, 603.9656
473.9167, 607.0607
474.3988, 607.5756
474.8810, 603.0970
475.3631, 596.5959
475.8452, 596.9175
476.3273, 604.0121
476.8094, 613.0437
477.2915, 623.6785
477.7737, 633.2053
478.2558, 634.0893
478.7379, 622.7244
479.2200, 610.1670
479.7021, 606.9971
480.1842, 610.9673
480.6664, 616.9178
481.1485, 626.9664
481.6306, 634.6700
482.1127, 633.1140
482.5948, 621.4370
483.0769, 613.1997
483.5591, 616.1580
484.0412, 623.8139
484.5233, 630.4144
485.0054, 639.8948
485.4875, 642.3376
485.9696, 631.2044
486.4518, 610.0805
486.9339, 596.5367
487.4160, 595.3118
487.8981, 596.4969
488.3802, 596.3218
488.8623, 594.4837
489.3445, 592.3682
489.8266, 590.2432
490.3087, 587.5001
490.7908, 582.0118
491.2729, 572.6615
491.7550, 567.8779
492.2372, 570.8964
492.7193, 580.1918
493.2014, 590.6830
493.6835, 602.6561
494.1656, 612.3905
494.6477, 615.3678
495.1299, 613.8629
495.6120, 614.6799
496.0941, 620.4675
496.5762, 625.1838
497.0583, 620.0296
497.5404, 608.5214
498.0226, 599.6945
498.5047, 598.9247
498.9868, 601.7216
499.4689, 605.9821
499.9510, 611.6986
500.4331, 615.4235
500.9153, 616.5172
501.3974, 614.6130
501.8795, 609.3724
502.3616, 593.0781
502.8437, 582.2452
503.3258, 582.7312
503.8080, 591.4202
504.2901, 595.3686
504.7722, 590.5191
505.2543, 586.0606
505.7364, 586.0863
506.2185, 592.0292
506.7007, 596.0477
507.1828, 598.3800
507.6649, 598.4737
508.1470, 595.3425
508.6291, 588.7937
509.1112, 580.5427
509.5934, 569.3159
510.0755, 557.5237
510.5576, 553.5468
511.0397, 557.1388
511.5218, 559.9258
512.0039, 552.2082
512.4860, 540.1915
512.9681, 522.8465
513.4503, 540.6613
513.9324, 550.4279
514.4145, 552.5782
514.8966, 524.3018
515.3787, 535.3152
515.8608, 530.5832
516.3430, 525.2053
516.8251, 541.7488
517.3072, 517.8978
517.7893, 534.0936
518.2714, 534.3035
518.7535, 541.8298
519.2357, 533.5129
519.7178, 530.0897
520.1999, 542.5144
520.6820, 546.1639
521.1641, 536.0234
521.6462, 544.0148
522.1284, 519.6103
522.6105, 523.6337
523.0926, 539.9222
523.5747, 530.5783
524.0568, 538.8593
524.5389, 540.4278
525.0211, 511.4906
525.5032, 535.6058
525.9853, 536.7775
526.4674, 514.3915
526.9495, 536.6888
527.4316, 517.5506
527.9138, 513.2021
528.3959, 519.9843
528.8780, 515.1633
529.3601, 528.6359
529.8422, 524.4850
530.3243, 518.7596
530.8065, 519.9055
531.2886, 501.5798
531.7707, 519.3782
532.2528, 507.4757
532.7349, 505.7064
533.2170, 523.1749
533.6992, 533.5704
534.1813, 526.3619
534.6634, 507.3561
535.1455, 496.1920
535.6276, 498.6375
536.1097, 502.5583
536.5919, 503.5670
537.0740, 500.8566
537.5561, 501.3220
538.0382, 505.7503
538.5203, 511.9756
539.0024, 520.2311
539.4846, 531.0722
539.9667, 532.0372
540.4488, 517.6927
540.9309, 496.0276
541.4130, 481.6670
541.8951, 474.3631
542.3773, 473.1065
542.8594, 484.0304
543.3415, 497.9984
543.8236, 499.2158
544.3057, 485.8361
544.7878, 472.7274
545.2700, 467.9128
545.7521, 470.1573
546.2342, 478.1327
546.7163, 502.7489
547.1984, 520.7774
547.6805, 520.9783
548.1627, 507.7277
548.6448, 496.2293
549.1269, 488.2424
549.6090, 482.8515
550.0911, 479.6082
550.5732, 478.2116
551.0554, 480.8532
551.5375, 489.9634
552.0196, 500.0930
552.5017, 506.2179
552.9838, 508.2406
553.4659, 506.2923
553.9481, 498.5632
554.4302, 488.8523
554.9123, 487.3390
555.3944, 493.6051
555.8765, 499.3459
556.3586, 499.9754
556.8408, 496.9081
557.3229, 491.5783
557.8050, 483.9213
558.2871, 477.3163
558.7692, 471.5249
559.2513, 469.2888
559.7335, 474.8117
560.2156, 501.1831
560.6977, 520.0317
561.1798, 512.2057
561.6619, 487.7895
562.1440, 474.0687
562.6262, 486.7074
563.1083, 500.9172
563.5904, 509.1740
564.0725, 511.4170
564.5546, 508.0705
565.0367, 494.4147
565.5189, 481.2039
566.0010, 478.4608
566.4831, 488.0699
566.9652, 498.1971
567.4473, 509.8170
567.9294, 517.8630
568.4116, 507.1352
568.8937, 479.6371
569.3758, 460.1467
569.8579, 469.9659
570.3400, 492.0226
570.8221, 494.0145
571.3043, 476.4478
571.7864, 460.5238
572.2685, 463.1685
572.7506, 474.3816
573.2327, 484.4118
573.7148, 493.1561
574.1970, 496.6135
574.6791, 487.4865
575.1612, 472.9620
575.6433, 465.9832
576.1254, 475.4301
576.6075, 485.1622
577.0897, 493.5533
577.5718, 500.4165
578.0539, 497.7562
578.5360, 480.4694
579.0181, 462.8884
579.5002, 454.6211
579.9824, 456.0419
580.4645, 460.8967
580.9466, 470.0463
581.4287, 479.3626
581.9108, 484.0415
582.3929, 484.1486
582.8751, 479.4578
583.3572, 464.7919
583.8393, 450.0190
584.3214, 449.8247
584.8035, 461.4487
585.2856, 472.0126
585.7678, 474.5306
586.2499, 473.2131
586.7320, 470.2857
587.2141, 465.2042
587.6962, 462.3855
588.1783, 465.1118
588.6605, 469.6493
589.1426, 472.0847
589.6247, 469.9513
590.1068, 469.5000
590.5889, 473.1069
591.0710, 478.3698
591.5532, 476.9997
592.0353, 466.8764
592.5174, 458.1018
592.9995, 456.3969
593.4816, 460.4572
593.9637, 459.0721
594.4459, 451.5050
594.9280, 446.4590
595.4101, 455.6268
595.8922, 472.5306
596.3743, 484.6431
596.8564, 489.9825
597.3386, 488.4023
597.8207, 472.5067
598.3028, 450.3448
598.7849, 437.1894
599.2670, 446.9412
599.7491, 458.5478
600.2313, 463.6131
600.7134, 462.1479
601.1955, 462.1364
601.6776, 467.4111
602.1597, 471.0787
602.6418, 468.7540
603.1240, 457.1013
603.6061, 451.6251
604.0882, 454.0401
604.5703, 459.7396
605.0524, 463.4487
605.5345, 465.1499
606.0167, 465.2501
606.4988, 462.8226
606.9809, 460.1225
607.4630, 464.2435
607.9451, 472.8276
608.4272, 475.0036
608.9094, 454.1781
609.3915, 430.3805
609.8736, 426.2080
610.3557, 443.7900
610.8378, 456.8632
611.3199, 447.0393
611.8021, 432.1197
612.2842, 426.2996
612.7663, 439.9364
613.2484, 451.1599
613.7305, 458.9496
614.2126, 463.8871
614.6948, 466.7630
615.1769, 467.1180
615.6590, 466.7309
616.1411, 466.0564
616.6232, 465.0013
617.1053, 462.4736
617.5875, 458.3156
618.0696, 455.6519
618.5517, 459.1934
619.0338, 465.3894
619.5159, 465.2148
619.9980, 457.3659
620.4802, 449.4616
620.9623, 449.1067
621.4444, 451.7741
621.9265, 451.4243
622.4086, 441.6795
622.8907, 434.5900
623.3729, 436.6491
623.8550, 444.3134
624.3371, 448.5774
624.8192, 446.3199
625.3013, 443.2655
625.7834, 440.7305
626.2656, 438.7080
626.7477, 436.2970
627.2298, 433.3409
627.7119, 430.3910
628.1940, 426.7413
628.6761, 422.7806
629.1583, 423.7080
629.6404, 430.6232
630.1225, 439.3532
630.6046, 447.9194
631.0867, 454.7165
631.5688, 455.9551
632.0510, 446.9543
632.5331, 436.1893
633.0152, 427.6787
633.4973, 421.8917
633.9794, 420.3837
634.4615, 431.3122
634.9437, 439.3878
635.4258, 436.4928
635.9079, 420.7845
636.3900, 410.6406
636.8721, 405.9246
637.3542, 406.8038
637.8364, 415.9946
638.3185, 435.8505
638.8006, 445.7088
639.2827, 442.2208
639.7648, 434.2496
640.2469, 435.9892
640.7291, 444.8151
641.2112, 447.0439
641.6933, 433.7173
642.1754, 417.6066
642.6575, 415.1429
643.1396, 422.6945
643.6218, 428.6553
644.1039, 426.5216
644.5860, 421.9599
645.0681, 416.5203
645.5502, 410.0979
646.0323, 408.6634
646.5145, 418.8283
646.9966, 429.7023
647.4787, 435.4429
647.9608, 435.6168
648.4429, 431.0190
648.9250, 419.0115
649.4072, 406.2502
649.8893, 402.4673
650.3714, 407.3091
650.8535, 413.4889
651.3356, 420.5363
651.8177, 426.0536
652.2999, 425.4458
652.7820, 419.7603
653.2641, 413.0372
653.7462, 404.4944
654.2283, 397.9554
654.7104, 397.2038
655.1926, 402.3055
655.6747, 407.0687
656.1568, 410.9990
656.6389, 412.9658
657.1210, 411.6945
657.6031, 404.7229
658.0853, 401.2315
658.5674, 403.4047
659.0495, 406.4742
659.5316, 403.0075
660.0137, 391.9729
660.4958, 387.0790
660.9779, 392.6440
661.4600, 403.1298
661.9421, 409.8335
662.4243, 413.0707
662.9064, 414.1918
663.3885, 413.4963
663.8706, 411.2534
664.3527, 407.6533
664.8348, 402.7251
665.3170, 396.4559
665.7991, 382.9063
666.2812, 372.5784
666.7633, 373.2831
667.2454, 392.6453
667.7275, 402.0321
668.2097, 394.2231
668.6918, 383.7053
669.1739, 386.2875
669.6560, 405.3871
670.1381, 415.2197
670.6202, 411.4695
671.1024, 399.7071
671.5845, 385.4058
672.0666, 369.9640
672.5487, 361.3450
673.0308, 367.4392
673.5129, 377.1727
673.9951, 376.2422
674.4772, 367.9921
674.9593, 365.6868
675.4414, 385.3000
675.9235, 404.2060
676.4056, 408.3441
676.8878, 394.1785
677.3699, 385.8863
677.8520, 390.1832
678.3341, 394.3489
678.8162, 388.4576
679.2983, 368.7206
679.7805, 358.1194
680.2626, 359.3209
680.7447, 365.5549
681.2268, 369.1330
681.7089, 370.3163
682.1910, 369.8214
682.6732, 366.6829
683.1553, 363.9693
683.6374, 365.8808
684.1195, 370.8087
684.6016, 374.9332
685.0837, 376.0487
685.5659, 376.4716
686.0480, 377.3971
686.5301, 378.7545
687.0122, 378.8964
687.4943, 376.5256
687.9764, 374.4645
688.4586, 374.4854
688.9407, 377.0399
689.4228, 376.0627
689.9049, 370.6915
690.3870, 364.9244
690.8691, 362.5293
691.3513, 362.9131
691.8334, 364.1530
692.3155, 366.2882
692.7976, 367.9212
693.2797, 366.4777
693.7618, 363.9244
694.2440, 363.3765
694.7261, 371.8295
695.2082, 376.0717
695.6903, 365.9106
696.1724, 347.7962
696.6545, 341.0607
697.1367, 353.0285
697.6188, 366.5640
698.1009, 379.3740
698.5830, 390.4757
699.0651, 389.8662
699.5472, 375.7236
700.0294, 362.1664
700.5115, 358.9258
700.9936, 362.8670
701.4757, 366.0894
701.9578, 368.2787
702.4399, 369.5738
702.9221, 370.9534
703.4042, 371.0594
703.8863, 367.4401
704.3684, 355.7015
704.8505, 349.6967
705.3326, 360.6440
705.8148, 376.1436
706.2969, 380.4371
706.7790, 365.1963
707.2611, 355.6431
707.7432, 356.3383
708.2253, 362.9581
708.7075, 367.0997
709.1896, 368.7383
709.6717, 366.9119
710.1538, 357.8708
710.6359, 347.6324
711.1180, 349.8736
711.6002, 361.7414
712.0823, 370.1573
712.5644, 363.2187
713.0465, 353.6004
713.5286, 351.2407
714.0107, 357.5629
714.4929, 359.1387
714.9750, 345.0787
715.4571, 332.5669
715.9392, 331.8128
716.4213, 348.2859
716.9034, 355.7528
717.3856, 352.3425
717.8677, 344.4694
718.3498, 337.1096
718.8319, 330.8632
719.3140, 329.2767
719.7961, 333.4369
720.2783, 341.0894
720.7604, 353.1439
721.2425, 366.4461
721.7246, 375.0676
722.2067, 378.4866
722.6888, 375.1620
723.1710, 357.7007
723.6531, 332.3409
724.1352, 320.0211
724.6173, 329.0302
725.0994, 339.1653
725.5815, 345.5866
726.0637, 348.6116
726.5458, 350.0275
727.0279, 349.8338
727.5100, 347.9009
727.9921, 341.7739
728.4742, 334.3500
728.9564, 332.1400
729.4385, 335.2992
729.9206, 341.4137
730.4027, 352.7576
730.8848, 363.7887
731.3669, 369.7036
731.8491, 369.0765
732.3312, 365.4125
732.8133, 354.0508
733.2954, 343.3350
733.7775, 341.0734
734.2596, 350.9070
734.7418, 357.0259
735.2239, 357.6569
735.7060, 355.0862
736.1881, 351.5123
736.6702, 347.4431
737.1523, 346.0991
737.6345, 350.2250
738.1166, 354.8355
738.5987, 354.3019
739.0808, 350.1480
739.5629, 345.9721
740.0450, 340.9052
740.5272, 338.3940
741.0093, 342.1119
741.4914, 350.8138
741.9735, 353.5093
742.4556, 345.2712
742.9377, 340.0727
743.4199, 345.1231
743.9020, 358.9658
744.3841, 366.8051
744.8662, 368.5512
745.3483, 365.8436
745.8304, 357.5010
746.3126, 346.4894
746.7947, 335.9042
747.2768, 325.6927
747.7589, 322.2097
748.2410, 338.1096
748.7231, 356.8085
749.2053, 363.8109
749.6874, 349.2896
750.1695, 338.3902
750.6516, 332.1277
751.1337, 329.6346
751.6158, 330.2664
752.0980, 334.1210
752.5801, 341.2041
753.0622, 353.0179
753.5443, 364.2231
754.0264, 365.5951
754.5085, 359.5201
754.9907, 352.5744
755.4728, 345.2458
755.9549, 340.3066
756.4370, 341.6226
756.9191, 346.8469
757.4012, 350.3465
757.8834, 351.3277
758.3655, 349.5160
758.8476, 342.4550
759.3297, 332.3577
759.8118, 331.6530
760.2939, 343.4348
760.7761, 351.9979
761.2582, 346.9109
761.7403, 333.7379
762.2224, 331.6781
762.7045, 339.8252
763.1866, 348.9827
763.6688, 355.4955
764.1509, 358.3376
764.6330, 354.5877
765.1151, 343.5386
765.5972, 335.8991
766.0793, 338.1906
766.5615, 342.0429
767.0436, 341.8598
767.5257, 335.0475
768.0078, 335.5683
768.4899, 346.6388
768.9720, 357.2256
769.4542, 354.2201
769.9363, 340.7296
770.4184, 332.7828
770.9005, 333.6314
771.3826, 334.4532
771.8647, 321.5925
772.3469, 305.2334
772.8290, 300.2031
773.3111, 321.5715
773.7932, 337.3258
774.2753, 333.3372
774.7574, 321.1244
775.2396, 318.9110
775.7217, 334.1818
776.2038, 338.5254
776.6859, 322.5594
777.1680, 299.0147
777.6501, 297.2973
778.1323, 314.2711
778.6144, 329.2780
779.0965, 331.9324
779.5786, 331.0511
780.0607, 339.0881
780.5428, 351.6436
781.0250, 355.6688
781.5071, 336.1112
781.9892, 317.5931
782.4713, 310.3958
782.9534, 312.6635
783.4355, 314.2230
783.9177, 315.3655
784.3998, 314.8706
784.8819, 310.1204
785.3640, 303.2993
785.8461, 307.6310
786.3282, 322.3767
786.8104, 333.7939
787.2925, 327.5192
787.7746, 315.9411
788.2567, 312.1033
788.7388, 317.0388
789.2209, 322.6877
789.7031, 329.0373
790.1852, 332.9050
790.6673, 331.9393
791.1494, 324.8539
791.6315, 319.3705
792.1136, 315.2097
792.5958, 313.5885
793.0779, 317.9622
793.5600, 326.4892
794.0421, 329.0769
794.5242, 324.4115
795.0063, 317.6349
795.4885, 311.6458
795.9706, 306.9809
796.4527, 304.3583
796.9348, 303.8512
797.4169, 305.4743
797.8990, 311.8741
798.3812, 318.8646
798.8633, 321.4667
799.3454, 316.9346
799.8275, 318.8643
800.3096, 331.2395
800.7917, 344.4029
801.2739, 342.3678
801.7560, 328.7830
802.2381, 316.5555
802.7202, 309.0620
803.2023, 304.5377
803.6844, 303.1267
804.1666, 303.2343
804.6487, 302.2982
805.1308, 294.8618
805.6129, 292.5188
806.0950, 300.0881
806.5771, 312.3866
807.0593, 318.6880
807.5414, 318.4713
808.0235, 315.2258
808.5056, 308.4030
808.9877, 301.0163
809.4698, 298.9377
809.9520, 301.3305
810.4341, 305.2964
810.9162, 311.3936
811.3983, 316.7328
811.8804, 319.1887
812.3625, 319.3311
812.8447, 319.4319
813.3268, 320.4651
813.8089, 320.4836
814.2910, 317.6636
814.7731, 313.4812
815.2552, 316.9763
815.7374, 328.6877
816.2195, 337.1428
816.7016, 333.5410
817.1837, 324.2407
817.6658, 319.9365
818.1479, 319.8841
818.6301, 319.5890
819.1122, 316.0114
819.5943, 312.2621
820.0764, 310.5310
820.5585, 310.9269
821.0406, 309.0402
821.5228, 302.3559
822.0049, 298.1055
822.4870, 301.4420
822.9691, 310.9062
823.4512, 314.0054
823.9333, 310.8155
824.4154, 306.2625
824.8975, 300.7762
825.3796, 297.6288
825.8618, 302.8518
826.3439, 316.8692
826.8260, 327.2172
827.3081, 330.0208
827.7902, 327.3250
828.2723, 318.2501
828.7545, 300.7686
829.2366, 295.7182
829.7187, 306.7191
830.2008, 318.4792
830.6829, 317.0065
831.1650, 306.9057
831.6472, 303.2730
832.1293, 307.1266
832.6114, 311.2180
833.0935, 308.2924
833.5756, 304.4829
834.0577, 306.1278
834.5399, 316.9863
835.0220, 321.5896
835.5041, 313.9485
835.9862, 305.4913
836.4683, 305.8671
836.9504, 316.2451
837.4326, 317.3380
837.9147, 307.3257
838.3968, 296.1395
838.8789, 291.2428
839.3610, 292.3656
839.8431, 301.1174
840.3253, 319.5890
840.8074, 334.8769
841.2895, 341.2236
841.7716, 341.3157
842.2537, 336.3572
842.7358, 322.0665
843.2180, 315.2039
843.7001, 317.9537
844.1822, 323.5833
844.6643, 325.5179
845.1464, 324.2693
845.6285, 322.1255
846.1107, 319.1665
846.5928, 316.8181
847.0749, 316.2965
847.5570, 317.0808
848.0391, 318.7146
848.5212, 321.7185
849.0034, 324.2286
849.4855, 326.4547
849.9676, 327.7607
850.4497, 327.7469
850.9318, 326.5210
851.4139, 322.1863
851.8961, 313.6564
852.3782, 305.8026
852.8603, 306.3098
853.3424, 310.9056
853.8245, 310.7843
854.3066, 301.6070
854.7888, 295.5865
855.2709, 302.2686
855.7530, 313.0190
856.2351, 318.5008
856.7172, 315.1931
857.1993, 314.4469
857.6815, 318.0221
858.1636, 321.2714
858.6457, 316.0649
859.1278, 305.0596
859.6099, 301.7446
860.0920, 309.5831
860.5742, 319.3875
861.0563, 326.5779
861.5384, 329.9669
862.0205, 327.8760
862.5026, 315.4970
862.9847, 305.8187
863.4669, 300.1960
863.9490, 297.2527
864.4311, 295.4942
864.9132, 294.8817
865.3953, 296.7518
865.8774, 301.7802
866.3596, 306.8219
866.8417, 307.5989
867.3238, 306.2457
867.8059, 306.6946
868.2880, 311.1112
868.7701, 313.5587
869.2523, 308.6931
869.7344, 302.6920
870.2165, 301.9223
870.6986, 309.0239
871.1807, 313.9146
871.6628, 316.2923
872.1450, 316.2971
872.6271, 311.5925
873.1092, 304.6166
873.5913, 303.2648
874.0734, 309.5648
874.5555, 317.3605
875.0377, 327.3668
875.5198, 333.8460
876.0019, 330.1875
876.4840, 303.2002
876.9661, 291.3694
877.4482, 300.5184
877.9304, 316.3415
878.4125, 325.7980
878.8946, 329.3093
879.3767, 331.9575
879.8588, 334.2964
880.3409, 335.1309
880.8231, 332.7186
881.3052, 328.5237
881.7873, 323.4799
882.2694, 316.3100
882.7515, 313.4437
883.2336, 317.9067
883.7158, 325.4156
884.1979, 334.5934
884.6800, 346.4707
885.1621, 350.5683
885.6442, 345.7415
886.1263, 338.9640
886.6085, 339.1530
887.0906, 340.7480
887.5727, 333.1662
888.0548, 314.0105
888.5369, 298.0882
889.0190, 289.1167
889.5012, 288.3610
889.9833, 299.6234
890.4654, 327.2850
890.9475, 337.0821
891.4296, 324.3457
891.9117, 311.1009
892.3939, 319.9982
892.8760, 340.9187
893.3581, 345.7026
893.8402, 333.0206
894.3223, 320.3661
894.8044, 319.8992
895.2866, 321.9718
895.7687, 318.5422
896.2508, 307.4571
896.7329, 306.4148
897.2150, 321.2144
897.6971, 333.7604
898.1793, 329.9887
898.6614, 314.6845
899.1435, 313.3348
899.6256, 324.9774
900.1077, 336.6785
900.5898, 338.6591
901.0720, 337.9298
901.5541, 339.9850
902.0362, 344.9937
902.5183, 348.6679
903.0004, 349.7501
903.4825, 350.7584
903.9647, 352.5080
904.4468, 354.9417
904.9289, 358.6968
905.4110, 363.5559
905.8931, 365.6287
906.3752, 360.1508
906.8574, 352.7364
907.3395, 349.2087
907.8216, 348.6187
908.3037, 346.9847
908.7858, 341.2797
909.2679, 336.6065
909.7501, 333.5690
910.2322, 332.5418
910.7143, 336.1959
911.1964, 344.6183
911.6785, 350.3494
912.1606, 349.6873
912.6428, 345.8630
913.1249, 342.4619
913.6070, 339.2423
914.0891, 335.6680
914.5712, 329.0635
915.0533, 325.1028
915.5355, 324.3316
916.0176, 327.2395
916.4997, 336.5289
916.9818, 353.0993
917.4639, 366.7454
917.9460, 375.7960
918.4282, 379.4189
918.9103, 372.5839
919.3924, 360.2080
919.8745, 351.5761
920.3566, 350.6924
920.8387, 352.2502
921.3209, 357.5800
921.8030, 362.8473
922.2851, 363.2868
922.7672, 357.6175
923.2493, 352.9906
923.7314, 349.6547
924.2136, 348.9380
924.6957, 354.5784
925.1778, 363.4089
925.6599, 369.8642
926.1420, 372.9646
926.6241, 373.2107
927.1063, 365.3596
927.5884, 358.7646
928.0705, 362.2321
928.5526, 380.0780
929.0347, 388.8839
929.5168, 387.4367
929.9990, 381.7473
930.4811, 373.2807
930.9632, 365.3882
931.4453, 367.5854
931.9274, 380.4164
932.4095, 388.9604
932.8917, 380.3173
933.3738, 369.5458
933.8559, 365.5854
934.3380, 368.5560
934.8201, 374.0648
935.3022, 383.7892
935.7844, 389.2626
936.2665, 380.7025
936.7486, 366.1384
937.2307, 367.2791
937.7128, 380.9956
938.1949, 391.8368
938.6771, 390.5562
939.1592, 385.4690
939.6413, 377.1114
940.1234, 367.9143
940.6055, 368.6657
941.0876, 383.4359
941.5698, 392.5131
942.0519, 387.5795
942.5340, 376.4356
943.0161, 373.4017
943.4982, 376.9826
943.9803, 383.3149
944.4625, 394.5963
944.9446, 403.8490
945.4267, 409.1571
945.9088, 410.1619
946.3909, 405.4254
946.8730, 391.4621
947.3552, 385.1664
947.8373, 390.5791
948.3194, 399.2045
948.8015, 398.4783
949.2836, 392.2265
949.7657, 388.8137
950.2479, 390.5451
950.7300, 393.8537
951.2121, 398.0095
951.6942, 402.4702
952.1763, 407.2842
952.6584, 414.0093
953.1406, 414.4971
953.6227, 407.3783
954.1048, 399.7097
954.5869, 398.3699
955.0690, 400.7732
955.5511, 402.7802
956.0333, 404.0152
956.5154, 403.3832
956.9975, 398.3942
957.4796, 393.1321
957.9617, 388.7774
958.4438, 385.5556
958.9260, 388.7635
959.4081, 399.5380
959.8902, 409.4680
960.3723, 413.9798
960.8544, 414.8954
961.3365, 414.8194
961.8187, 413.8759
962.3008, 412.4872
962.7829, 407.7827
963.2650, 406.2639
963.7471, 412.7085
964.2292, 422.9336
964.7114, 426.7420
965.1935, 423.2455
965.6756, 421.5505
966.1577, 424.3311
966.6398, 428.8455
967.1219, 433.3971
967.6041, 436.6479
968.0862, 435.9343
968.5683, 424.6805
969.0504, 419.3631
969.5325, 427.3402
970.0146, 439.1448
970.4968, 446.0915
970.9789, 447.8918
971.4610, 450.5231
971.9431, 454.7414
972.4252, 456.6480
972.9073, 447.3907
973.3895, 436.8221
973.8716, 438.2793
974.3537, 455.2702
974.8358, 466.1034
975.3179, 461.8293
975.8000, 457.0273
976.2822, 458.6659
976.7643, 465.8896
977.2464, 470.9659
977.7285, 473.9718
978.2106, 475.7372
978.6927, 473.8190
979.1749, 473.3806
979.6570, 481.6619
980.1391, 495.7747
980.6212, 503.5335
981.1033, 496.3356
981.5854, 495.5665
982.0676, 508.7226
982.5497, 526.7622
983.0318, 527.2681
983.5139, 514.6830
983.9960, 509.4596
984.4781, 520.4836
984.9603, 534.4141
985.4424, 544.6289
985.9245, 551.3278
986.4066, 554.3131
986.8887, 551.6310
987.3708, 550.0232
987.8530, 549.3947
988.3351, 550.2428
988.8172, 555.0770
989.2993, 561.4538
989.7814, 561.2358
990.2635, 553.6951
990.7456, 549.4939
991.2277, 558.9713
991.7098, 569.5947
992.1920, 573.5067
992.6741, 571.0284
993.1562, 569.5397
993.6383, 568.9943
994.1204, 569.8003
994.6025, 573.3941
995.0847, 577.4753
995.5668, 577.9065
996.0489, 575.5392
996.5310, 572.7866
997.0131, 567.3005
997.4952, 565.8211
997.9774, 572.1427
998.4595, 581.8154
998.9416, 587.8734
999.4237, 590.2333
999.9058, 588.8541
1000.388, 583.1233
1000.870, 575.9633
1001.352, 568.6503
1001.834, 562.4936
1002.316, 559.0940
1002.799, 559.4010
1003.281, 560.8864
1003.763, 563.9452
1004.245, 567.0267
1004.727, 570.3073
1005.209, 573.0683
1005.691, 567.7532
1006.173, 554.9944
1006.655, 546.0200
1007.138, 553.2310
1007.620, 562.2314
1008.102, 562.8813
1008.584, 556.0529
1009.066, 552.1963
1009.548, 552.9905
1010.030, 551.6892
1010.512, 544.4843
1010.995, 537.0756
1011.477, 543.5785
1011.959, 558.3243
1012.441, 566.6696
1012.923, 559.7287
1013.405, 552.3267
1013.887, 550.0499
1014.369, 549.7799
1014.851, 546.9473
1015.334, 539.9720
1015.816, 545.2041
1016.298, 565.2704
1016.780, 583.4686
1017.262, 582.0009
1017.744, 571.2386
1018.226, 561.5263
1018.708, 553.8714
1019.190, 551.8609
1019.673, 560.7378
1020.155, 568.8616
1020.637, 571.4136
1021.119, 570.2693
1021.601, 574.6445
1022.083, 583.2288
1022.565, 587.2677
1023.047, 579.5969
1023.530, 569.6951
1024.012, 561.6738
1024.494, 556.2803
1024.976, 555.7418
1025.458, 564.4841
1025.940, 564.5506
1026.422, 551.5798
1026.904, 537.6268
1027.386, 539.9915
1027.869, 551.5561
1028.351, 557.8771
1028.833, 556.8113
1029.315, 551.8919
1029.797, 539.4344
1030.279, 528.5467
1030.761, 524.5237
1031.243, 526.8571
1031.726, 526.4370
1032.208, 523.1933
1032.690, 521.9165
1033.172, 530.2956
1033.654, 537.6507
1034.136, 527.7875
1034.618, 508.6522
1035.100, 500.7894
1035.583, 522.3455
1036.065, 531.8382
1036.547, 520.7547
1037.029, 502.3942
1037.511, 496.5524
1037.993, 499.9665
1038.475, 501.0108
1038.957, 497.1566
1039.439, 494.6901
1039.922, 499.2506
1040.404, 505.1729
1040.886, 508.8192
1041.368, 510.1801
1041.850, 506.7313
1042.332, 497.3565
1042.814, 491.7426
1043.296, 502.6577
1043.778, 515.9937
1044.261, 507.8273
1044.743, 485.4754
1045.225, 470.8636
1045.707, 478.4514
1046.189, 484.1303
1046.671, 483.6782
1047.153, 480.1458
1047.635, 478.3848
1048.118, 478.0224
1048.600, 475.9616
1049.082, 470.7715
1049.564, 469.5185
1050.046, 483.0945
1050.528, 498.8109
1051.010, 504.4902
1051.492, 498.6521
1051.974, 496.3822
1052.457, 498.4440
1052.939, 500.6377
1053.421, 500.8791
1053.903, 499.4558
1054.385, 496.0897
1054.867, 491.4213
1055.349, 487.3682
1055.831, 485.2427
1056.313, 483.1678
1056.796, 481.8865
1057.278, 479.4377
1057.760, 470.3779
1058.242, 456.1329
1058.724, 449.5451
1059.206, 453.4717
1059.688, 459.7212
1060.170, 463.8171
1060.653, 466.1798
1061.135, 466.5070
1061.617, 464.5114
1062.099, 465.0022
1062.581, 468.9757
1063.063, 471.0098
1063.545, 467.4072
1064.027, 460.6843
1064.510, 454.2409
1064.992, 448.4717
1065.474, 444.5379
1065.956, 443.2669
1066.438, 443.5080
1066.920, 445.1452
1067.402, 447.8721
1067.884, 452.8636
1068.366, 459.2740
1068.849, 459.3463
1069.331, 451.7105
1069.813, 442.4060
1070.295, 432.7758
1070.777, 425.6474
1071.259, 422.9590
1071.741, 424.7551
1072.223, 433.3998
1072.705, 451.3723
1073.188, 463.1679
1073.670, 458.6894
1074.152, 447.5690
1074.634, 444.1033
1075.116, 445.6215
1075.598, 446.6183
1076.080, 443.1527
1076.562, 442.4704
1077.044, 447.2771
1077.527, 452.2342
1078.009, 451.1885
1078.491, 445.1563
1078.973, 438.3683
1079.455, 431.1476
1079.937, 428.1552
1080.419, 438.2637
1080.901, 448.2249
1081.384, 448.7722
1081.866, 441.8370
1082.348, 436.2003
1082.830, 431.7365
1083.312, 429.5705
1083.794, 430.7160
1084.276, 433.0288
1084.758, 432.3416
1085.240, 431.5625
1085.723, 435.5494
1086.205, 451.6364
1086.687, 459.4609
1087.169, 456.0873
1087.651, 449.1501
1088.133, 441.2283
1088.615, 435.0544
1089.097, 442.4429
1089.579, 461.5918
1090.062, 477.2622
1090.544, 478.4635
1091.026, 478.0782
1091.508, 482.7792
1091.990, 488.8158
1092.472, 486.5908
1092.954, 476.3110
1093.436, 467.6616
1093.919, 463.0438
1094.401, 459.1232
1094.883, 450.5748
1095.365, 442.5645
1095.847, 440.7795
1096.329, 446.5463
1096.811, 455.2798
1097.293, 468.8563
1097.776, 478.0544
1098.258, 476.2474
1098.740, 467.6124
1099.222, 456.8315
1099.704, 445.7112
1100.186, 439.0833
1100.668, 441.0146
1101.150, 444.9510
1101.632, 451.7874
1102.115, 457.6604
1102.597, 455.6252
1103.079, 447.8188
1103.561, 447.5802
1104.043, 456.4727
1104.525, 458.9116
1105.007, 431.4321
1105.489, 407.5366
1105.971, 412.1107
1106.454, 438.5455
1106.936, 451.6071
1107.418, 450.9367
1107.900, 447.2865
1108.382, 442.6452
1108.864, 440.0786
1109.346, 445.6008
1109.828, 454.0919
1110.311, 458.4598
1110.793, 457.5481
1111.275, 451.9197
1111.757, 439.5050
1112.239, 428.5876
1112.721, 427.7102
1113.203, 431.7295
1113.685, 430.1795
1114.167, 424.0470
1114.650, 418.9683
1115.132, 414.9271
1115.614, 415.7116
1116.096, 424.7847
1116.578, 435.8221
1117.060, 437.0319
1117.542, 430.3853
1118.024, 424.6617
1118.506, 421.1417
1118.989, 419.5219
1119.471, 424.0224
1119.953, 426.1958
1120.435, 419.2828
1120.917, 404.3107
1121.399, 394.5695
1121.881, 390.1602
1122.363, 387.0371
1122.846, 382.3426
1123.328, 379.7595
1123.810, 384.9080
1124.292, 393.6542
1124.774, 399.4196
1125.256, 401.3888
1125.738, 400.7415
1126.220, 396.9084
1126.703, 392.9037
1127.185, 392.8352
1127.667, 393.3965
1128.149, 387.0634
1128.631, 375.5182
1129.113, 370.4186
1129.595, 380.6644
1130.077, 389.0950
1130.559, 392.2903
1131.042, 392.6694
1131.524, 395.1343
1132.006, 398.2386
1132.488, 397.1006
1132.970, 390.0777
1133.452, 383.5938
1133.934, 379.8942
1134.416, 378.1940
1134.898, 377.5800
1135.381, 378.4471
1135.863, 385.7892
1136.345, 398.3576
1136.827, 406.6374
1137.309, 405.4919
1137.791, 399.8374
1138.273, 388.8045
1138.755, 377.1212
1139.238, 370.6529
1139.720, 370.0618
1140.202, 371.5532
1140.684, 375.1054
1141.166, 379.8506
1141.648, 389.3802
1142.130, 396.4062
1142.612, 390.6956
1143.094, 375.2689
1143.577, 367.0789
1144.059, 367.9055
1144.541, 374.0699
1145.023, 387.0054
1145.505, 398.7926
1145.987, 398.0446
1146.469, 389.2611
1146.951, 376.6952
1147.433, 359.5601
1147.916, 353.0797
1148.398, 365.4359
1148.880, 375.8593
1149.362, 374.1030
1149.844, 365.9033
1150.326, 367.8444
1150.808, 375.9249
1151.290, 378.5057
1151.773, 365.0068
1152.255, 357.2608
1152.737, 364.1164
1153.219, 375.0943
1153.701, 383.6812
1154.183, 389.6570
1154.665, 388.1790
1155.147, 380.1049
1155.630, 373.8086
1156.112, 377.5453
1156.594, 380.6243
1157.076, 374.3374
1157.558, 365.6223
1158.040, 368.0226
1158.522, 381.4720
1159.004, 386.4713
1159.486, 379.6588
1159.969, 372.2842
1160.451, 375.9720
1160.933, 380.8853
1161.415, 376.5507
1161.897, 364.7397
1162.379, 364.5341
1162.861, 377.9015
1163.343, 384.4510
1163.825, 374.8972
1164.308, 362.1642
1164.790, 362.5932
1165.272, 367.9755
1165.754, 367.2646
1166.236, 356.5427
1166.718, 348.2668
1167.200, 341.5858
1167.682, 341.1783
1168.165, 354.1565
1168.647, 372.2740
1169.129, 383.4769
1169.611, 389.0847
1170.093, 391.8392
1170.575, 391.5790
1171.057, 389.9144
1171.539, 387.6204
1172.021, 382.2470
1172.504, 366.2328
1172.986, 347.1991
1173.468, 342.9899
1173.950, 352.6152
1174.432, 359.7629
1174.914, 356.0354
1175.396, 352.5507
1175.878, 350.3395
1176.360, 351.1259
1176.843, 361.8307
1177.325, 377.5264
1177.807, 383.5092
1178.289, 375.8492
1178.771, 369.2737
1179.253, 372.4816
1179.735, 375.4619
1180.217, 374.1283
1180.700, 369.2753
1181.182, 345.0995
1181.664, 362.9177
1182.146, 372.6872
1182.628, 374.8406
1183.110, 346.5673
1183.592, 357.5839
1184.074, 352.8549
1184.557, 347.4790
1185.039, 364.0256
1185.521, 340.1776
1186.003, 356.3765
1186.485, 356.5895
1186.967, 364.1187
1187.449, 355.8052
1187.931, 352.3849
1188.413, 364.8127
1188.896, 368.4641
1189.378, 365.3553
1189.860, 367.4351
1190.342, 359.5945
1190.824, 352.1201
1191.306, 352.5001
1191.788, 356.2174
1192.270, 362.7413
1192.752, 369.7841
1193.235, 369.6821
1193.717, 361.5954
1194.199, 356.8484
1194.681, 357.8384
1195.163, 361.1800
1195.645, 366.5919
1196.127, 370.7752
1196.609, 370.0310
1197.092, 364.4275
1197.574, 358.1964
1198.056, 350.8523
1198.538, 346.9796
1199.020, 348.5882
1199.502, 353.2780
1199.984, 361.3131
1200.466, 369.3021
1200.948, 372.1783
1201.431, 367.9350
1201.913, 367.6071
1202.395, 372.2324
1202.877, 374.1172
1203.359, 365.4192
1203.841, 354.8608
1204.323, 353.8000
1204.805, 358.2674
1205.287, 359.8640
1205.770, 353.6545
1206.252, 356.1152
1206.734, 369.8457
1207.216, 381.9937
1207.698, 380.3119
1208.180, 371.6378
1208.662, 360.6301
1209.144, 349.7385
1209.627, 349.1948
1210.109, 366.4789
1210.591, 375.2774
1211.073, 370.7995
1211.555, 362.6531
1212.037, 362.1914
1212.519, 364.5814
1213.001, 362.4652
1213.484, 355.5329
1213.966, 351.4542
1214.448, 351.1104
1214.930, 353.2511
1215.412, 358.7830
1215.894, 363.8694
1216.376, 361.6543
1216.858, 355.7417
1217.340, 351.6137
1217.823, 350.7119
1218.305, 347.3016
1218.787, 339.0418
1219.269, 333.2591
1219.751, 332.8958
1220.233, 336.8787
1220.715, 347.7131
1221.197, 360.1469
1221.679, 363.3224
1222.162, 346.6109
1222.644, 343.0661
1223.126, 359.0212
1223.608, 374.9072
1224.090, 377.7340
1224.572, 372.9404
1225.054, 370.2894
1225.536, 368.2310
1226.019, 363.1093
1226.501, 342.2474
1226.983, 339.4434
1227.465, 362.0579
1227.947, 385.5935
1228.429, 388.9133
1228.911, 379.0903
1229.393, 362.1827
1229.875, 342.3564
1230.358, 335.2711
1230.840, 356.3054
1231.322, 370.3457
1231.804, 372.7855
1232.286, 370.2185
1232.768, 369.0474
1233.250, 368.5802
1233.732, 367.3542
1234.214, 365.4419
1234.697, 365.0962
1235.179, 366.8276
1235.661, 370.2460
1236.143, 376.6490
1236.625, 381.4068
1237.107, 375.9564
1237.589, 365.4386
1238.071, 357.0756
1238.553, 351.7990
1239.036, 351.9971
1239.518, 360.1400
1240.000, 366.5344
1240.482, 367.0077
1240.964, 366.0928
1241.446, 374.9612
1241.928, 385.7508
1242.410, 384.3389
1242.893, 363.0962
1243.375, 353.9887
1243.857, 361.8173
1244.339, 371.0026
1244.821, 375.3275
1245.303, 375.4789
1245.785, 370.6888
1246.267, 363.0641
1246.750, 355.8320
1247.232, 348.0335
1247.714, 346.1605
1248.196, 351.7168
1248.678, 357.4456
1249.160, 356.4683
1249.642, 354.6898
1250.124, 362.2545
1250.606, 374.8976
1251.089, 383.5662
1251.571, 387.1008
1252.053, 385.7962
1252.535, 378.8546
1253.017, 370.9200
1253.499, 363.2318
1253.981, 358.3771
1254.463, 362.2066
1254.945, 371.0595
1255.428, 373.0954
1255.910, 363.2410
1256.392, 364.9848
1256.874, 382.2354
1257.356, 396.8132
1257.838, 386.8612
1258.320, 370.9763
1258.802, 367.4052
1259.285, 373.9487
1259.767, 376.4452
1260.249, 374.2538
1260.731, 369.1319
1261.213, 360.4066
1261.695, 355.4880
1262.177, 366.3309
1262.659, 379.8608
1263.141, 385.4100
1263.624, 383.3625
1264.106, 376.1166
1264.588, 362.8970
1265.070, 361.3645
1265.552, 377.6471
1266.034, 393.3223
1266.516, 391.2858
1266.998, 383.6451
1267.480, 379.6736
1267.963, 378.8133
1268.445, 377.5200
1268.927, 375.7595
1269.409, 371.9521
1269.891, 363.9701
1270.373, 359.9416
1270.855, 371.8244
1271.337, 383.9654
1271.820, 385.3787
1272.302, 377.3719
1272.784, 364.5276
1273.266, 348.6226
1273.748, 341.0805
1274.230, 348.9247
1274.712, 358.8537
1275.194, 369.0064
1275.677, 373.9118
1276.159, 366.3036
1276.641, 350.6226
1277.123, 353.9620
1277.605, 372.2904
1278.087, 388.5431
1278.569, 396.8087
1279.051, 400.1673
1279.533, 398.4221
1280.016, 393.7002
1280.498, 384.2217
1280.980, 373.3730
1281.462, 378.2381
1281.944, 393.4685
1282.426, 401.2078
1282.908, 384.7431
1283.390, 375.4181
1283.872, 378.6366
1284.355, 384.7252
1284.837, 386.4524
1285.319, 384.6527
1285.801, 377.8367
1286.283, 368.9073
1286.765, 367.6126
1287.247, 385.2404
1287.729, 395.2126
1288.212, 395.0641
1288.694, 390.2324
1289.176, 383.3192
1289.658, 376.6011
1290.140, 374.1169
1290.622, 374.6662
1291.104, 372.1874
1291.586, 363.0001
1292.068, 362.8824
1292.551, 375.1316
1293.033, 386.5045
1293.515, 381.6427
1293.997, 372.5582
1294.479, 369.8008
1294.961, 373.1978
1295.443, 379.0496
1295.925, 388.2250
1296.407, 391.8868
1296.890, 388.4877
1297.372, 384.2848
1297.854, 385.0948
##END=



