##NAMES=Tinzenite
##RRUFFID=R050251
##IDEAL CHEMISTRY=Ca_2_Mn^2+^_4_Al_4_[B_2_Si_8_O_30_](OH)_2_
##LOCALITY=Tinzen, Sursass Valley, Switzerland
##OWNER=RRUFF
##SOURCE=Marcus Origlieri
##DESCRIPTION=Aggregate of yellowish orange prismatic crystals associated with quartz
##STATUS=The identification of this mineral has been confirmed by X-ray diffraction and chemical analysis
##URL=rruff.info/R050251
##MEASURED CHEMISTRY=(Ca_2.96_Mn_2.84_Fe^2+^_0.14_Mg_0.06_)_Î£=6_Al_4.00_[B_2.00_Si_8.00_O_30_](OH)_2_; H_2_O assumed ideal from stoichiometry; B_2_O_3_ estimated by difference
93.12335, 0.0000000E+00
93.60547, 20.04768
94.08759, 19.58371
94.56970, 19.82813
95.05182, 20.66511
95.53394, 21.71009
96.01605, 22.83270
96.49817, 24.07536
96.98029, 25.56215
97.46240, 27.30120
97.94452, 29.28175
98.42664, 31.48333
98.90875, 33.91497
99.39087, 36.52054
99.87299, 39.18869
100.3551, 41.90822
100.8372, 45.01455
101.3193, 48.36194
101.8015, 52.25987
102.2836, 57.30729
102.7657, 63.75135
103.2478, 70.70348
103.7299, 77.96416
104.2120, 86.19396
104.6942, 92.79638
105.1763, 97.41032
105.6584, 100.4103
106.1405, 103.4425
106.6226, 107.1253
107.1047, 110.0707
107.5869, 111.3212
108.0690, 109.3326
108.5511, 107.9637
109.0332, 107.5453
109.5153, 108.0604
109.9974, 109.0039
110.4795, 110.5714
110.9617, 112.4746
111.4438, 114.5056
111.9259, 116.4613
112.4080, 118.7740
112.8901, 121.6421
113.3722, 125.1557
113.8544, 128.5788
114.3365, 131.2678
114.8186, 133.9931
115.3007, 137.5955
115.7828, 143.6937
116.2649, 149.5069
116.7471, 153.8323
117.2292, 156.4131
117.7113, 158.5495
118.1934, 160.1053
118.6755, 161.5797
119.1576, 163.7712
119.6398, 167.6582
120.1219, 172.0024
120.6040, 175.8298
121.0861, 178.6992
121.5682, 181.8492
122.0503, 186.0429
122.5325, 191.1186
123.0146, 196.6363
123.4967, 203.4313
123.9788, 210.1165
124.4609, 215.0529
124.9430, 216.9270
125.4252, 218.1715
125.9073, 221.1591
126.3894, 225.6938
126.8715, 230.6140
127.3536, 235.2969
127.8357, 239.7307
128.3179, 243.9793
128.8000, 247.8352
129.2821, 251.6297
129.7642, 256.0390
130.2463, 261.0641
130.7284, 265.9835
131.2106, 269.9987
131.6927, 273.2665
132.1748, 276.5185
132.6569, 279.5826
133.1390, 282.6301
133.6211, 285.9071
134.1033, 289.3238
134.5854, 293.6792
135.0675, 298.2590
135.5496, 303.0787
136.0317, 308.4984
136.5138, 314.8770
136.9960, 322.1317
137.4781, 329.3008
137.9602, 336.6674
138.4423, 343.5649
138.9244, 349.2617
139.4065, 353.8900
139.8887, 356.9527
140.3708, 358.6562
140.8529, 359.3950
141.3350, 356.3807
141.8171, 348.4844
142.2992, 337.7406
142.7814, 328.7479
143.2635, 321.6779
143.7456, 315.7418
144.2277, 310.6905
144.7098, 307.1565
145.1919, 302.9252
145.6741, 297.6223
146.1562, 291.6226
146.6383, 286.5818
147.1204, 283.1294
147.6025, 279.8377
148.0846, 275.8678
148.5668, 270.4641
149.0489, 265.5655
149.5310, 261.1659
150.0131, 257.3138
150.4952, 254.4704
150.9773, 252.9310
151.4595, 252.1887
151.9416, 251.9555
152.4237, 252.3135
152.9058, 253.0570
153.3879, 253.8115
153.8700, 254.6194
154.3522, 256.9023
154.8343, 262.6476
155.3164, 268.8749
155.7985, 273.4175
156.2806, 274.0119
156.7627, 275.0142
157.2449, 277.9252
157.7270, 282.8376
158.2091, 286.4906
158.6912, 288.3333
159.1733, 288.6416
159.6554, 287.6943
160.1376, 284.9937
160.6197, 281.5666
161.1018, 277.2628
161.5839, 271.9168
162.0660, 267.6561
162.5481, 266.1729
163.0303, 265.9052
163.5124, 264.9668
163.9945, 260.8373
164.4766, 257.3125
164.9587, 256.8590
165.4408, 260.1371
165.9230, 263.3412
166.4051, 264.0265
166.8872, 263.5340
167.3693, 263.9371
167.8514, 267.0240
168.3335, 270.7517
168.8157, 273.7686
169.2978, 275.9340
169.7799, 277.3855
170.2620, 278.1534
170.7441, 278.2886
171.2262, 277.8752
171.7084, 277.0442
172.1905, 275.6453
172.6726, 273.3618
173.1547, 269.9180
173.6368, 266.3360
174.1189, 263.7256
174.6011, 261.7148
175.0832, 259.3045
175.5653, 255.4089
176.0474, 250.9767
176.5295, 247.3213
177.0116, 244.7949
177.4938, 242.6561
177.9759, 240.0805
178.4580, 237.1657
178.9401, 234.4189
179.4222, 231.9331
179.9043, 229.8253
180.3865, 228.3638
180.8686, 227.6235
181.3507, 227.4373
181.8328, 227.7483
182.3149, 228.5052
182.7970, 229.3546
183.2792, 230.3564
183.7613, 231.2939
184.2434, 231.3704
184.7255, 229.9628
185.2076, 228.3493
185.6897, 228.8490
186.1718, 231.3827
186.6540, 234.4094
187.1361, 236.9419
187.6182, 239.0571
188.1003, 240.8839
188.5824, 242.2612
189.0645, 243.5882
189.5467, 245.7079
190.0288, 248.6424
190.5109, 252.0791
190.9930, 256.1356
191.4751, 260.6669
191.9572, 264.5471
192.4394, 267.4640
192.9215, 269.7032
193.4036, 271.9462
193.8857, 274.1958
194.3678, 276.6542
194.8499, 279.8894
195.3321, 283.8201
195.8142, 286.5917
196.2963, 287.3544
196.7784, 286.8658
197.2605, 287.9183
197.7426, 290.7483
198.2248, 293.8092
198.7069, 295.4108
199.1890, 295.4948
199.6711, 296.1680
200.1532, 297.8815
200.6353, 300.4977
201.1175, 303.6135
201.5996, 307.3237
202.0817, 311.1360
202.5638, 314.6792
203.0459, 317.9252
203.5280, 320.8483
204.0102, 323.4380
204.4923, 325.6974
204.9744, 327.6120
205.4565, 329.1371
205.9386, 330.4443
206.4207, 331.8959
206.9029, 333.6849
207.3850, 334.4717
207.8671, 333.8287
208.3492, 331.8949
208.8313, 329.8505
209.3134, 327.7301
209.7956, 325.4363
210.2777, 322.9128
210.7598, 320.2263
211.2419, 317.0874
211.7240, 313.2935
212.2061, 308.9105
212.6883, 304.7372
213.1704, 300.7510
213.6525, 296.9923
214.1346, 293.6679
214.6167, 291.0047
215.0988, 287.9672
215.5810, 284.3428
216.0631, 280.1719
216.5452, 275.3549
217.0273, 269.2935
217.5094, 263.4688
217.9915, 259.5398
218.4737, 258.3337
218.9558, 256.6717
219.4379, 253.9240
219.9200, 250.1335
220.4021, 246.3131
220.8842, 242.1557
221.3664, 238.4314
221.8485, 236.0029
222.3306, 235.3762
222.8127, 234.7814
223.2948, 234.0077
223.7769, 233.0396
224.2591, 231.6310
224.7412, 229.1862
225.2233, 227.0439
225.7054, 226.5650
226.1875, 228.8592
226.6696, 230.2950
227.1518, 229.7893
227.6339, 227.5063
228.1160, 226.9848
228.5981, 229.1863
229.0802, 231.9515
229.5623, 233.3548
230.0445, 232.4255
230.5266, 232.2330
231.0087, 233.5024
231.4908, 236.1044
231.9729, 238.0300
232.4550, 238.9630
232.9372, 239.6002
233.4193, 240.4228
233.9014, 241.3359
234.3835, 242.6190
234.8656, 244.3452
235.3477, 246.4771
235.8299, 248.8496
236.3120, 251.7081
236.7941, 254.5463
237.2762, 256.9321
237.7583, 258.4194
238.2404, 260.3677
238.7226, 263.0211
239.2047, 266.3171
239.6868, 269.5879
240.1689, 272.8008
240.6510, 276.0602
241.1331, 279.5106
241.6153, 283.5099
242.0974, 286.9370
242.5795, 289.6279
243.0616, 291.6379
243.5437, 293.1914
244.0258, 294.0220
244.5080, 294.7656
244.9901, 295.8777
245.4722, 297.7735
245.9543, 299.1415
246.4364, 299.7545
246.9185, 299.7597
247.4007, 299.8192
247.8828, 300.0302
248.3649, 300.1653
248.8470, 300.0026
249.3291, 299.1053
249.8112, 299.0111
250.2934, 300.3513
250.7755, 302.4957
251.2576, 303.1082
251.7397, 301.2713
252.2218, 299.3114
252.7039, 298.4663
253.1861, 299.2639
253.6682, 299.8325
254.1503, 300.0849
254.6324, 300.0865
255.1145, 299.8882
255.5966, 298.9989
256.0788, 298.7626
256.5609, 300.0621
257.0430, 303.9344
257.5251, 306.3373
258.0072, 306.5473
258.4893, 305.6361
258.9715, 306.0731
259.4536, 308.4439
259.9357, 311.0486
260.4178, 313.2474
260.8999, 314.8762
261.3820, 316.6551
261.8642, 318.6317
262.3463, 320.7173
262.8284, 322.7993
263.3105, 324.8521
263.7926, 326.9436
264.2747, 329.2598
264.7569, 332.0134
265.2390, 333.7563
265.7211, 334.3778
266.2032, 334.1434
266.6853, 333.1807
267.1674, 331.0087
267.6496, 329.5524
268.1317, 329.6185
268.6138, 331.3028
269.0959, 332.8223
269.5780, 334.2124
270.0602, 335.3905
270.5423, 336.1811
271.0244, 336.4970
271.5065, 336.7803
271.9886, 337.2262
272.4707, 337.8065
272.9529, 337.9764
273.4350, 337.7953
273.9171, 337.0695
274.3992, 335.4735
274.8813, 332.8839
275.3634, 330.0946
275.8456, 327.2550
276.3277, 324.3610
276.8098, 321.2484
277.2919, 317.7338
277.7740, 314.5562
278.2561, 312.4125
278.7382, 311.3599
279.2203, 310.7919
279.7025, 310.7491
280.1846, 311.0649
280.6667, 311.0393
281.1488, 310.5807
281.6309, 310.2391
282.1130, 310.2708
282.5952, 310.6711
283.0773, 312.0218
283.5594, 314.6931
284.0415, 318.0799
284.5236, 320.4223
285.0057, 321.6255
285.4879, 323.0114
285.9700, 325.6158
286.4521, 329.3281
286.9342, 332.8814
287.4163, 336.2098
287.8984, 339.2333
288.3806, 341.4673
288.8627, 342.9354
289.3448, 344.7697
289.8269, 347.8925
290.3090, 352.0536
290.7911, 355.6621
291.2733, 358.5069
291.7554, 361.3053
292.2375, 365.0199
292.7196, 369.6319
293.2017, 374.6518
293.6838, 380.0783
294.1660, 385.7781
294.6481, 391.3480
295.1302, 396.7183
295.6123, 402.0449
296.0944, 407.6007
296.5765, 413.2744
297.0587, 418.6817
297.5408, 423.6407
298.0229, 428.2990
298.5050, 433.1493
298.9871, 438.2289
299.4692, 442.5592
299.9514, 444.6753
300.4335, 445.2639
300.9156, 445.8858
301.3977, 446.9846
301.8798, 448.4381
302.3619, 450.2067
302.8441, 452.2697
303.3262, 454.2377
303.8083, 455.7816
304.2904, 457.0567
304.7725, 458.5161
305.2546, 460.7789
305.7368, 462.4792
306.2189, 461.9819
306.7010, 459.6048
307.1831, 456.5616
307.6652, 454.1094
308.1473, 451.2193
308.6295, 446.4737
309.1116, 439.0267
309.5937, 431.1415
310.0758, 424.5267
310.5579, 418.7782
311.0400, 413.1134
311.5222, 406.5616
312.0043, 400.2138
312.4864, 395.1637
312.9685, 391.5938
313.4506, 388.7607
313.9327, 385.9289
314.4149, 383.5833
314.8970, 382.4472
315.3791, 383.9549
315.8612, 385.8636
316.3433, 386.5091
316.8254, 385.7206
317.3076, 385.8857
317.7897, 388.7118
318.2718, 392.7251
318.7539, 396.4705
319.2360, 399.9508
319.7181, 402.6459
320.2003, 404.1561
320.6824, 404.5695
321.1645, 404.6521
321.6466, 404.7466
322.1287, 404.5224
322.6108, 403.7538
323.0930, 402.0594
323.5751, 400.2054
324.0572, 398.5837
324.5393, 396.9862
325.0214, 394.5908
325.5035, 390.1430
325.9857, 385.7462
326.4678, 382.3657
326.9499, 380.4833
327.4320, 378.9067
327.9141, 377.7645
328.3962, 376.8713
328.8784, 375.8192
329.3605, 374.4621
329.8426, 373.0898
330.3247, 371.5927
330.8068, 369.5641
331.2889, 368.8193
331.7711, 370.0623
332.2532, 372.2070
332.7353, 373.9474
333.2174, 374.9171
333.6995, 376.0706
334.1816, 377.4275
334.6638, 378.9760
335.1459, 381.6734
335.6280, 386.2621
336.1101, 391.0569
336.5922, 394.5302
337.0743, 396.2932
337.5565, 397.8984
338.0386, 399.6268
338.5207, 401.3460
339.0028, 402.3325
339.4849, 402.1172
339.9670, 402.3396
340.4492, 404.4884
340.9313, 408.9420
341.4134, 411.8612
341.8955, 412.6552
342.3776, 412.2027
342.8597, 412.1642
343.3419, 412.5756
343.8240, 413.1342
344.3061, 413.7745
344.7882, 414.4783
345.2703, 414.8801
345.7524, 414.8218
346.2346, 415.0613
346.7167, 416.8372
347.1988, 420.0239
347.6809, 423.0879
348.1630, 425.5149
348.6451, 427.4328
349.1273, 429.4441
349.6094, 431.5573
350.0915, 432.7569
350.5736, 432.0357
351.0557, 429.6579
351.5378, 426.3644
352.0200, 422.5265
352.5021, 417.5840
352.9842, 410.6833
353.4663, 401.8792
353.9484, 391.7751
354.4305, 379.4818
354.9127, 366.6089
355.3948, 355.3163
355.8769, 346.2356
356.3590, 337.9181
356.8411, 328.3671
357.3232, 318.5737
357.8054, 310.6013
358.2875, 306.6973
358.7696, 304.1429
359.2517, 300.8871
359.7338, 296.7494
360.2159, 292.7428
360.6981, 289.2173
361.1802, 286.2376
361.6623, 283.8979
362.1444, 282.5689
362.6265, 281.5580
363.1086, 280.8167
363.5908, 280.2523
364.0729, 279.2882
364.5550, 276.8830
365.0371, 274.5656
365.5192, 273.3358
366.0013, 273.8837
366.4835, 274.7711
366.9656, 275.8443
367.4477, 277.0814
367.9298, 278.4202
368.4119, 280.0969
368.8940, 281.6656
369.3762, 282.9418
369.8583, 283.7692
370.3404, 284.7674
370.8225, 285.9080
371.3046, 287.2373
371.7867, 288.8323
372.2689, 290.8588
372.7510, 292.8802
373.2331, 294.8907
373.7152, 296.8887
374.1973, 298.4632
374.6794, 299.1520
375.1616, 300.0969
375.6437, 302.2789
376.1258, 306.1831
376.6079, 309.6706
377.0900, 312.3270
377.5721, 314.5597
378.0543, 317.5199
378.5364, 321.3000
379.0185, 325.3099
379.5006, 329.2962
379.9827, 333.2941
380.4648, 336.9001
380.9470, 339.9484
381.4291, 343.0583
381.9112, 347.1587
382.3933, 352.1712
382.8754, 357.5336
383.3575, 363.1651
383.8397, 368.9386
384.3218, 374.4360
384.8039, 379.6581
385.2860, 384.4519
385.7681, 389.1222
386.2502, 393.2947
386.7324, 395.9602
387.2145, 396.5292
387.6966, 396.2250
388.1787, 396.4453
388.6608, 397.0394
389.1429, 397.4655
389.6251, 397.7731
390.1072, 397.5711
390.5893, 396.2463
391.0714, 393.5938
391.5535, 390.7773
392.0356, 388.6045
392.5178, 386.8008
392.9999, 384.9294
393.4820, 382.5813
393.9641, 380.3515
394.4462, 378.6317
394.9283, 377.3960
395.4105, 376.1963
395.8926, 374.9571
396.3747, 373.6446
396.8568, 372.2225
397.3389, 370.4500
397.8210, 368.8687
398.3032, 367.6787
398.7853, 366.7408
399.2674, 365.7072
399.7495, 363.8982
400.2316, 362.5555
400.7137, 362.2511
401.1959, 363.4161
401.6780, 364.0152
402.1601, 363.9508
402.6422, 363.3796
403.1243, 362.3385
403.6064, 360.1348
404.0885, 358.8666
404.5706, 359.2125
405.0528, 360.9249
405.5349, 361.9148
406.0170, 361.6363
406.4991, 361.9194
406.9812, 364.1126
407.4633, 368.4008
407.9455, 372.9901
408.4276, 377.7443
408.9097, 382.7879
409.3918, 389.0058
409.8739, 396.4283
410.3560, 402.8968
410.8382, 406.8781
411.3203, 409.0587
411.8024, 412.5181
412.2845, 417.4157
412.7666, 422.1029
413.2487, 425.3264
413.7309, 427.1987
414.2130, 427.9967
414.6951, 427.7970
415.1772, 426.5819
415.6593, 423.7560
416.1414, 419.6831
416.6236, 415.9704
417.1057, 414.3208
417.5878, 413.1391
418.0699, 410.5582
418.5520, 405.9901
419.0341, 401.7820
419.5163, 399.8961
419.9984, 399.0887
420.4805, 397.6325
420.9626, 393.8327
421.4447, 390.2301
421.9268, 388.0280
422.4090, 387.1346
422.8911, 386.3504
423.3732, 385.5437
423.8553, 384.6071
424.3374, 383.4554
424.8195, 382.0293
425.3017, 380.4804
425.7838, 378.5072
426.2659, 376.4348
426.7480, 374.9251
427.2301, 374.2450
427.7122, 373.7675
428.1944, 373.4151
428.6765, 373.2388
429.1586, 372.5922
429.6407, 371.1423
430.1228, 369.6893
430.6049, 368.9762
431.0871, 369.1316
431.5692, 369.5578
432.0513, 370.3169
432.5334, 371.1895
433.0155, 371.6028
433.4977, 371.5624
433.9798, 371.0468
434.4619, 369.6385
434.9440, 367.5992
435.4261, 366.4518
435.9082, 366.2642
436.3904, 366.8307
436.8725, 368.3080
437.3546, 370.4060
437.8367, 372.1302
438.3188, 372.9280
438.8009, 373.3767
439.2831, 374.0493
439.7652, 374.9848
440.2473, 376.3715
440.7294, 379.1584
441.2115, 382.0621
441.6936, 383.5727
442.1758, 383.0760
442.6579, 382.4452
443.1400, 383.3995
443.6221, 384.7718
444.1042, 384.8213
444.5863, 382.4515
445.0685, 379.1234
445.5506, 375.2170
446.0327, 370.7645
446.5148, 366.0172
446.9969, 360.5242
447.4790, 355.1408
447.9612, 350.3766
448.4433, 346.6216
448.9254, 343.0157
449.4075, 339.3306
449.8896, 335.8891
450.3717, 333.3994
450.8539, 332.2909
451.3360, 331.4171
451.8181, 330.5323
452.3002, 329.6339
452.7823, 328.4391
453.2644, 326.7970
453.7466, 325.1926
454.2287, 324.0914
454.7108, 323.5140
455.1929, 322.9936
455.6750, 322.6535
456.1571, 322.0199
456.6393, 319.6876
457.1214, 315.8073
457.6035, 312.5277
458.0856, 311.4893
458.5677, 311.7228
459.0498, 310.8661
459.5320, 308.8253
460.0141, 307.0758
460.4962, 307.0665
460.9783, 308.1463
461.4604, 309.3121
461.9425, 310.3227
462.4247, 311.2630
462.9068, 312.0488
463.3889, 312.7900
463.8710, 313.7666
464.3531, 315.1794
464.8352, 316.7891
465.3174, 318.3513
465.7995, 319.7515
466.2816, 321.6942
466.7637, 325.0435
467.2458, 328.6494
467.7279, 331.4972
468.2101, 332.1883
468.6922, 333.6956
469.1743, 336.7823
469.6564, 340.8852
470.1385, 344.1175
470.6206, 346.1699
471.1028, 347.7908
471.5849, 349.1694
472.0670, 350.2427
472.5491, 351.6114
473.0312, 353.2958
473.5133, 355.2866
473.9955, 357.5099
474.4776, 359.9535
474.9597, 362.9998
475.4418, 366.8158
475.9239, 371.2017
476.4060, 375.5624
476.8882, 379.9499
477.3703, 384.7987
477.8524, 390.5948
478.3345, 396.9783
478.8166, 403.4164
479.2987, 409.9070
479.7809, 416.0325
480.2630, 421.1996
480.7451, 425.7690
481.2272, 430.2728
481.7093, 435.3752
482.1914, 439.8628
482.6736, 443.3194
483.1557, 445.6029
483.6378, 446.2290
484.1199, 445.0379
484.6020, 442.1155
485.0841, 437.3105
485.5663, 430.4447
486.0484, 422.6997
486.5305, 413.6845
487.0126, 404.1442
487.4947, 394.6255
487.9768, 385.0110
488.4590, 375.9112
488.9411, 367.1258
489.4232, 358.9691
489.9053, 352.2646
490.3874, 347.2723
490.8695, 343.0523
491.3517, 339.1438
491.8338, 335.5197
492.3159, 332.8282
492.7980, 331.1378
493.2801, 329.9429
493.7622, 328.6675
494.2444, 327.3877
494.7265, 326.7305
495.2086, 327.0081
495.6907, 327.6054
496.1728, 327.3825
496.6549, 326.6252
497.1371, 326.3702
497.6192, 327.6733
498.1013, 329.4801
498.5834, 330.5499
499.0655, 330.8470
499.5476, 331.3696
500.0298, 333.0019
500.5119, 334.9847
500.9940, 336.6007
501.4761, 337.4908
501.9582, 338.3207
502.4403, 339.5580
502.9225, 340.8364
503.4046, 341.3985
503.8867, 340.0533
504.3688, 339.1185
504.8509, 339.5866
505.3330, 341.5284
505.8152, 341.7647
506.2973, 339.4911
506.7794, 336.6054
507.2615, 334.4933
507.7436, 333.4271
508.2257, 331.7550
508.7079, 329.3279
509.1900, 326.3476
509.6721, 322.8728
510.1542, 318.9396
510.6363, 315.5256
511.1184, 313.3906
511.6006, 311.8184
512.0826, 308.8054
512.5648, 304.5072
513.0469, 300.6923
513.5290, 298.9656
514.0111, 298.3603
514.4932, 297.5840
514.9753, 296.4439
515.4575, 295.1865
515.9396, 293.7548
516.4217, 292.3646
516.9038, 291.2995
517.3859, 291.2305
517.8680, 290.9132
518.3502, 289.5408
518.8323, 287.4483
519.3144, 286.0677
519.7965, 286.2550
520.2786, 286.6603
520.7607, 286.6451
521.2429, 285.9142
521.7250, 286.1709
522.2071, 288.0032
522.6892, 290.1585
523.1713, 291.3751
523.6534, 291.3861
524.1356, 291.5576
524.6177, 292.0649
525.0998, 292.8331
525.5819, 293.7673
526.0640, 294.8672
526.5461, 295.8612
527.0283, 296.3110
527.5104, 296.6105
527.9925, 298.0315
528.4746, 300.5543
528.9567, 302.9621
529.4388, 304.1740
529.9210, 304.7579
530.4031, 305.4272
530.8852, 306.2705
531.3673, 307.4169
531.8494, 309.2403
532.3315, 311.3818
532.8137, 313.2565
533.2958, 314.3426
533.7779, 315.4938
534.2600, 317.0189
534.7421, 318.8792
535.2242, 320.8042
535.7064, 323.0992
536.1885, 325.0786
536.6706, 326.2835
537.1527, 326.2999
537.6348, 327.2572
538.1169, 329.6935
538.5991, 332.2994
539.0812, 333.3030
539.5633, 332.4632
540.0454, 332.4854
540.5275, 334.1198
541.0096, 336.5331
541.4918, 338.1380
541.9739, 338.9692
542.4560, 339.4215
542.9381, 339.3331
543.4202, 339.1412
543.9023, 339.6478
544.3845, 340.8246
544.8666, 342.1097
545.3487, 343.0684
545.8308, 343.9294
546.3129, 344.9640
546.7950, 346.3407
547.2772, 347.5707
547.7593, 348.2757
548.2414, 348.7576
548.7235, 349.4367
549.2056, 350.9562
549.6877, 352.0490
550.1699, 352.4569
550.6520, 352.2405
551.1341, 351.6211
551.6162, 350.2538
552.0983, 349.0472
552.5804, 348.3970
553.0626, 348.3330
553.5447, 348.5417
554.0268, 349.0410
554.5089, 349.7704
554.9910, 350.6938
555.4731, 351.7906
555.9553, 353.1130
556.4374, 354.7991
556.9195, 356.3818
557.4016, 356.8141
557.8837, 356.5474
558.3658, 356.9135
558.8480, 359.1797
559.3301, 361.8719
559.8122, 363.6845
560.2943, 364.7325
560.7764, 365.7934
561.2585, 367.0540
561.7407, 368.5734
562.2228, 370.5138
562.7049, 373.2504
563.1870, 375.3434
563.6691, 375.6400
564.1512, 375.7935
564.6334, 377.3454
565.1155, 381.1572
565.5976, 384.6517
566.0797, 387.5264
566.5618, 389.9897
567.0439, 392.4961
567.5261, 395.1023
568.0082, 397.4776
568.4903, 399.2964
568.9724, 400.7916
569.4545, 402.8314
569.9366, 405.4359
570.4188, 408.0708
570.9009, 410.6173
571.3830, 412.9130
571.8651, 414.6602
572.3472, 415.8362
572.8293, 416.5356
573.3115, 416.4739
573.7936, 416.1169
574.2757, 416.0309
574.7578, 416.5166
575.2399, 417.1591
575.7220, 417.7396
576.2042, 418.3842
576.6863, 419.4678
577.1684, 421.6682
577.6505, 423.5504
578.1326, 424.6241
578.6147, 424.8815
579.0969, 425.4127
579.5790, 426.1255
580.0611, 427.3003
580.5432, 429.2670
581.0253, 432.0035
581.5074, 434.6400
581.9896, 437.0968
582.4717, 439.5511
582.9538, 442.3314
583.4359, 445.2711
583.9180, 447.8200
584.4001, 449.4923
584.8823, 451.2276
585.3644, 454.7797
585.8465, 459.1949
586.3286, 462.0409
586.8107, 461.1898
587.2928, 459.4735
587.7750, 458.5269
588.2571, 458.3459
588.7392, 457.1134
589.2213, 454.0591
589.7034, 450.1696
590.1855, 445.8881
590.6677, 441.1641
591.1498, 436.3089
591.6319, 431.3090
592.1140, 426.1844
592.5961, 420.8601
593.0782, 415.2793
593.5604, 410.0436
594.0425, 405.2461
594.5246, 400.8174
595.0067, 396.3895
595.4888, 392.0244
595.9709, 388.0548
596.4531, 384.9603
596.9352, 382.1361
597.4173, 378.5524
597.8994, 374.4727
598.3815, 370.9677
598.8636, 368.5518
599.3458, 366.9979
599.8279, 366.4237
600.3100, 367.1014
600.7921, 367.2901
601.2742, 366.0364
601.7563, 364.4940
602.2385, 363.6103
602.7206, 363.9018
603.2027, 363.8768
603.6848, 363.3971
604.1669, 362.6514
604.6490, 362.0180
605.1312, 361.5470
605.6133, 360.7616
606.0954, 359.5338
606.5775, 357.9174
607.0596, 355.8504
607.5417, 353.4125
608.0239, 351.3192
608.5060, 350.1242
608.9881, 349.4714
609.4702, 349.1494
609.9523, 349.1100
610.4344, 348.6733
610.9166, 347.3153
611.3987, 345.4707
611.8808, 343.4610
612.3629, 341.2696
612.8450, 339.0508
613.3271, 336.3500
613.8093, 333.8664
614.2914, 332.3429
614.7735, 332.3628
615.2556, 332.1923
615.7377, 331.6744
616.2198, 330.8368
616.7020, 329.6208
617.1841, 327.9638
617.6662, 326.6007
618.1483, 326.0509
618.6304, 325.8913
619.1125, 325.0888
619.5947, 323.6631
620.0768, 321.8358
620.5589, 318.9279
621.0410, 316.1339
621.5231, 315.3596
622.0052, 316.8177
622.4874, 317.6642
622.9695, 315.7279
623.4516, 312.9595
623.9337, 310.9204
624.4158, 310.0686
624.8979, 309.6181
625.3801, 309.8424
625.8622, 310.2289
626.3443, 310.1558
626.8264, 309.4665
627.3085, 308.6431
627.7906, 307.6012
628.2728, 306.5874
628.7549, 306.5025
629.2370, 307.3560
629.7191, 307.7443
630.2012, 306.5593
630.6833, 304.7495
631.1655, 304.3387
631.6476, 305.1730
632.1297, 306.1159
632.6118, 306.3401
633.0939, 306.3936
633.5760, 306.8905
634.0582, 307.9653
634.5403, 308.7085
635.0224, 308.3471
635.5045, 307.8184
635.9866, 307.8519
636.4688, 308.9021
636.9509, 309.8262
637.4330, 310.4180
637.9151, 311.0492
638.3972, 312.3762
638.8793, 314.6361
639.3615, 316.1588
639.8436, 316.3482
640.3257, 315.9766
640.8078, 316.8210
641.2899, 318.6964
641.7720, 320.3622
642.2542, 321.1382
642.7363, 321.4614
643.2184, 321.9012
643.7005, 322.3991
644.1826, 322.6451
644.6647, 322.2167
645.1469, 321.7060
645.6290, 321.5197
646.1111, 321.7545
646.5932, 321.8512
647.0753, 322.0266
647.5574, 321.7988
648.0396, 320.7588
648.5217, 318.3087
649.0038, 316.7627
649.4859, 316.3813
649.9680, 316.3758
650.4501, 315.8077
650.9323, 314.6977
651.4144, 313.4095
651.8965, 311.8574
652.3786, 310.5307
652.8607, 310.4009
653.3428, 311.0762
653.8250, 311.6181
654.3071, 312.0136
654.7892, 311.7792
655.2713, 309.8553
655.7534, 306.9082
656.2355, 305.1736
656.7177, 306.4621
657.1998, 307.9780
657.6819, 308.7747
658.1640, 308.8472
658.6461, 308.7827
659.1282, 308.3813
659.6104, 308.2003
660.0925, 308.6494
660.5746, 309.7418
661.0567, 310.6499
661.5388, 311.3527
662.0209, 311.9837
662.5031, 312.4128
662.9852, 312.8951
663.4673, 314.1346
663.9494, 316.4077
664.4315, 318.8032
664.9136, 320.5356
665.3958, 322.0143
665.8779, 323.7643
666.3600, 326.0619
666.8421, 328.5155
667.3242, 331.0007
667.8063, 333.6128
668.2885, 336.5316
668.7706, 340.1407
669.2527, 343.3483
669.7348, 345.6632
670.2169, 347.4794
670.6990, 350.2084
671.1812, 353.8923
671.6633, 357.8859
672.1454, 361.7101
672.6275, 365.6390
673.1096, 370.6958
673.5917, 376.7690
674.0739, 382.9006
674.5560, 388.6118
675.0381, 393.9030
675.5202, 398.6371
676.0023, 402.7198
676.4844, 406.8711
676.9666, 411.5179
677.4487, 416.2226
677.9308, 420.6505
678.4129, 424.8558
678.8950, 428.7773
679.3771, 432.5598
679.8593, 435.8422
680.3414, 438.2362
680.8235, 439.7866
681.3056, 440.0400
681.7877, 438.7992
682.2698, 436.6205
682.7520, 434.1003
683.2341, 431.2796
683.7162, 428.4605
684.1983, 426.3325
684.6804, 423.4298
685.1625, 418.0101
685.6447, 410.9666
686.1268, 404.4073
686.6089, 399.1593
687.0910, 394.2077
687.5731, 389.1227
688.0552, 384.0074
688.5374, 379.5905
689.0195, 376.1604
689.5016, 372.7061
689.9837, 368.6418
690.4658, 364.0936
690.9479, 360.4462
691.4301, 357.7083
691.9122, 355.5262
692.3943, 353.8354
692.8764, 352.4141
693.3585, 350.6997
693.8406, 348.6525
694.3228, 347.0897
694.8049, 346.6739
695.2870, 346.9233
695.7691, 347.5193
696.2512, 348.6937
696.7333, 349.4632
697.2155, 349.3968
697.6976, 349.0814
698.1797, 348.8861
698.6618, 348.5034
699.1439, 349.3000
699.6260, 351.5584
700.1082, 354.6781
700.5903, 357.9438
701.0724, 361.3169
701.5545, 364.4134
702.0366, 366.7450
702.5187, 369.5220
703.0009, 374.5922
703.4830, 381.1407
703.9651, 387.4170
704.4472, 391.9502
704.9293, 396.8224
705.4114, 402.8652
705.8936, 409.9955
706.3757, 417.7118
706.8578, 426.1147
707.3399, 434.9526
707.8220, 444.3038
708.3041, 454.0973
708.7863, 463.7088
709.2684, 472.9055
709.7505, 482.9752
710.2325, 495.2258
710.7147, 508.8625
711.1968, 521.1791
711.6789, 532.2580
712.1610, 543.8343
712.6431, 556.9411
713.1252, 571.1473
713.6074, 586.6693
714.0895, 603.8412
714.5716, 620.0305
715.0537, 634.3323
715.5358, 647.8896
716.0179, 661.3995
716.5001, 675.2885
716.9822, 688.0611
717.4643, 699.5585
717.9464, 710.4482
718.4285, 721.7026
718.9106, 733.1351
719.3928, 742.7955
719.8749, 750.6262
720.3570, 756.1937
720.8391, 758.5101
721.3212, 758.4464
721.8033, 757.6353
722.2855, 757.2204
722.7676, 754.8785
723.2497, 749.3844
723.7318, 741.3510
724.2139, 731.5458
724.6960, 719.7016
725.1782, 706.6878
725.6603, 692.4459
726.1424, 676.9520
726.6245, 660.1091
727.1066, 641.5504
727.5887, 622.9752
728.0709, 604.8503
728.5530, 587.0032
729.0351, 569.4520
729.5172, 552.1405
729.9993, 535.2601
730.4814, 518.6380
730.9636, 502.4951
731.4457, 486.9760
731.9278, 472.1868
732.4099, 458.5186
732.8920, 446.1034
733.3741, 434.8701
733.8563, 424.7803
734.3384, 415.9116
734.8205, 408.2463
735.3026, 401.9868
735.7847, 396.2713
736.2668, 390.5584
736.7490, 385.0011
737.2311, 380.3491
737.7132, 376.6198
738.1953, 373.4374
738.6774, 370.7843
739.1595, 368.3995
739.6417, 366.0973
740.1238, 363.8633
740.6059, 361.4144
741.0880, 358.1481
741.5701, 355.0162
742.0522, 352.6987
742.5344, 351.4617
743.0165, 349.8319
743.4986, 347.4525
743.9807, 345.3330
744.4628, 344.5380
744.9449, 344.9720
745.4271, 344.9076
745.9092, 344.1815
746.3913, 343.3112
746.8734, 342.5959
747.3555, 342.1417
747.8376, 342.2521
748.3198, 343.2215
748.8019, 343.8881
749.2840, 343.1860
749.7661, 342.1492
750.2482, 341.8537
750.7303, 343.2815
751.2125, 343.9604
751.6946, 343.4790
752.1767, 342.6663
752.6588, 342.5438
753.1409, 343.1199
753.6230, 344.3721
754.1052, 346.5174
754.5873, 348.7310
755.0694, 349.8631
755.5515, 350.2564
756.0336, 350.6623
756.5157, 351.3253
756.9979, 352.0654
757.4800, 352.8159
757.9621, 353.5766
758.4442, 354.3295
758.9263, 354.9858
759.4084, 355.7762
759.8906, 356.8196
760.3727, 357.9642
760.8548, 358.8142
761.3369, 359.3336
761.8190, 360.0742
762.3011, 361.3020
762.7833, 362.6895
763.2654, 363.4968
763.7475, 363.9510
764.2296, 364.7436
764.7117, 366.7388
765.1938, 368.6326
765.6760, 369.5381
766.1581, 369.7408
766.6402, 370.1201
767.1223, 371.2421
767.6044, 372.0119
768.0865, 372.1246
768.5687, 371.7185
769.0508, 371.3606
769.5329, 371.0607
770.0150, 370.6917
770.4971, 370.1683
770.9792, 369.5573
771.4614, 369.2988
771.9435, 369.1742
772.4256, 368.2303
772.9077, 365.0974
773.3898, 361.7256
773.8719, 359.4059
774.3541, 358.0435
774.8362, 356.5146
775.3183, 354.1559
775.8004, 352.2617
776.2825, 351.4729
776.7646, 351.5968
777.2468, 350.9582
777.7289, 349.4980
778.2110, 347.9014
778.6931, 346.3274
779.1752, 344.9730
779.6573, 344.5499
780.1395, 344.8992
780.6216, 344.8615
781.1037, 342.8680
781.5858, 340.9938
782.0679, 341.0795
782.5500, 343.2374
783.0322, 343.7779
783.5143, 341.2841
783.9964, 338.7139
784.4785, 337.2791
784.9606, 336.9390
785.4427, 336.7741
785.9249, 336.8141
786.4070, 336.6919
786.8891, 335.9024
787.3712, 334.8739
787.8533, 334.6317
788.3354, 335.1082
788.8176, 335.1379
789.2997, 332.9803
789.7818, 331.0302
790.2639, 331.1655
790.7460, 333.8934
791.2281, 335.4792
791.7103, 335.3459
792.1924, 334.8159
792.6745, 334.5695
793.1566, 334.5881
793.6387, 334.3256
794.1208, 333.7486
794.6030, 333.4843
795.0851, 334.2076
795.5672, 335.4486
796.0493, 336.6287
796.5314, 337.7118
797.0135, 338.6283
797.4957, 339.4926
797.9778, 340.0765
798.4599, 340.2379
798.9420, 339.9912
799.4241, 339.1868
799.9063, 337.4789
800.3884, 335.9522
800.8705, 335.0648
801.3526, 334.8842
801.8347, 336.4317
802.3168, 339.7268
802.7990, 342.7040
803.2811, 343.2687
803.7632, 342.9152
804.2453, 343.4085
804.7274, 344.9570
805.2095, 345.9894
805.6917, 345.3921
806.1738, 344.6446
806.6559, 344.6133
807.1380, 345.3976
807.6201, 345.9108
808.1022, 346.0353
808.5844, 346.2949
809.0665, 347.2225
809.5486, 348.5956
810.0307, 349.5947
810.5128, 350.2021
810.9949, 350.8477
811.4771, 352.1423
811.9592, 353.3892
812.4413, 353.9435
812.9234, 353.6862
813.4055, 353.4322
813.8876, 353.2261
814.3698, 353.1504
814.8519, 353.3227
815.3340, 353.7571
815.8161, 353.7317
816.2982, 353.1712
816.7803, 352.8006
817.2625, 353.3912
817.7446, 354.4576
818.2267, 355.1331
818.7088, 355.3843
819.1909, 355.4015
819.6730, 355.1958
820.1552, 354.8598
820.6373, 354.2288
821.1194, 353.2066
821.6015, 353.2846
822.0836, 354.9799
822.5657, 356.7782
823.0479, 357.8327
823.5300, 358.2644
824.0121, 359.2264
824.4942, 360.7006
824.9763, 361.7254
825.4584, 361.0264
825.9406, 359.9503
826.4227, 360.0909
826.9048, 361.3936
827.3869, 362.4344
827.8690, 362.2693
828.3511, 362.2106
828.8333, 362.9161
829.3154, 364.3204
829.7975, 365.4116
830.2796, 366.2325
830.7617, 366.4955
831.2438, 365.6338
831.7260, 364.2494
832.2081, 363.8680
832.6902, 364.4010
833.1723, 365.3156
833.6544, 366.6259
834.1365, 367.9299
834.6187, 369.0064
835.1008, 369.8622
835.5829, 370.5353
836.0650, 370.9879
836.5471, 371.3643
837.0292, 371.7336
837.5114, 372.0557
837.9935, 372.0929
838.4756, 371.8633
838.9577, 371.7291
839.4398, 371.6255
839.9219, 371.9195
840.4041, 373.5761
840.8862, 376.0758
841.3683, 377.7661
841.8504, 377.3067
842.3325, 376.7534
842.8146, 376.8358
843.2968, 377.3152
843.7789, 377.4699
844.2610, 377.1319
844.7431, 377.2144
845.2252, 378.1180
845.7073, 379.3707
846.1895, 380.0811
846.6716, 380.3493
847.1537, 380.5091
847.6358, 380.6973
848.1179, 380.7977
848.6000, 380.4878
849.0822, 380.0760
849.5643, 380.2084
850.0464, 381.3768
850.5285, 382.3871
851.0106, 383.2377
851.4927, 383.7288
851.9749, 383.3607
852.4570, 382.2113
852.9391, 380.9286
853.4212, 379.4140
853.9033, 378.5745
854.3854, 379.8639
854.8676, 382.2990
855.3497, 384.4529
855.8318, 385.9069
856.3139, 387.0941
856.7960, 388.0278
857.2781, 388.7773
857.7603, 389.3769
858.2424, 389.7939
858.7245, 390.1988
859.2066, 390.6171
859.6887, 390.9431
860.1708, 390.6805
860.6530, 390.3254
861.1351, 390.9496
861.6172, 392.8785
862.0993, 395.0420
862.5814, 397.5360
863.0635, 399.6225
863.5457, 400.5225
864.0278, 399.7821
864.5099, 399.5034
864.9920, 399.5833
865.4741, 400.3913
865.9562, 402.8366
866.4384, 406.3525
866.9205, 408.1996
867.4026, 408.2936
867.8847, 408.1858
868.3668, 409.1111
868.8489, 410.2257
869.3311, 410.8354
869.8132, 410.8603
870.2953, 410.7994
870.7774, 410.2468
871.2595, 410.3167
871.7416, 411.7339
872.2238, 414.2731
872.7059, 416.2419
873.1880, 417.6620
873.6701, 418.6606
874.1522, 418.7401
874.6343, 418.8524
875.1165, 420.3255
875.5986, 422.8492
876.0807, 425.0497
876.5628, 426.0034
877.0449, 427.0927
877.5270, 428.8875
878.0092, 431.0641
878.4913, 432.3663
878.9734, 432.5971
879.4555, 433.6434
879.9376, 436.4724
880.4197, 439.9197
880.9019, 441.9028
881.3840, 443.0590
881.8661, 444.8779
882.3482, 449.0423
882.8303, 452.7141
883.3124, 454.1566
883.7946, 454.8575
884.2767, 457.2582
884.7588, 462.0928
885.2409, 466.1300
885.7230, 468.7136
886.2051, 470.9972
886.6873, 474.6260
887.1694, 479.2025
887.6515, 483.9738
888.1336, 489.0110
888.6157, 493.2285
889.0978, 494.8031
889.5800, 495.8738
890.0621, 498.6639
890.5442, 504.4013
891.0263, 508.5855
891.5084, 510.6959
891.9905, 512.3082
892.4727, 514.8870
892.9548, 518.1038
893.4369, 520.5579
893.9190, 522.2022
894.4011, 523.4086
894.8832, 524.6036
895.3654, 525.4000
895.8475, 525.1848
896.3296, 523.8787
896.8117, 523.4548
897.2938, 524.7994
897.7759, 525.6736
898.2581, 524.8375
898.7402, 522.8261
899.2223, 522.6011
899.7044, 523.9279
900.1865, 524.4514
900.6686, 522.0697
901.1508, 519.0045
901.6329, 517.3528
902.1150, 516.6101
902.5971, 515.3475
903.0792, 512.4562
903.5613, 510.0626
904.0435, 508.7427
904.5256, 507.8853
905.0077, 506.1222
905.4898, 503.4760
905.9719, 501.1369
906.4540, 499.5442
906.9362, 497.8752
907.4183, 495.1562
907.9004, 491.8683
908.3825, 488.5496
908.8646, 484.6928
909.3467, 482.1778
909.8289, 481.9748
910.3110, 482.3627
910.7931, 482.0707
911.2752, 481.1104
911.7573, 478.9113
912.2394, 475.3558
912.7216, 471.4810
913.2037, 467.7781
913.6858, 464.5811
914.1679, 462.6187
914.6500, 461.9727
915.1321, 461.1633
915.6143, 459.4640
916.0964, 457.7877
916.5785, 456.5936
917.0606, 455.8142
917.5427, 454.5231
918.0248, 452.6909
918.5070, 451.0684
918.9891, 450.2267
919.4712, 449.6882
919.9533, 448.5160
920.4354, 447.0764
920.9175, 446.4510
921.3997, 448.1712
921.8818, 449.3582
922.3639, 449.1304
922.8460, 448.0512
923.3281, 446.9886
923.8102, 445.8840
924.2924, 445.5552
924.7745, 446.2911
925.2566, 447.4733
925.7387, 448.9795
926.2208, 450.2104
926.7029, 449.9501
927.1851, 447.0177
927.6672, 445.0594
928.1493, 446.0745
928.6314, 447.7159
929.1135, 448.2540
929.5956, 447.3984
930.0778, 447.8342
930.5599, 449.7178
931.0420, 451.4068
931.5241, 451.0417
932.0062, 449.9211
932.4883, 449.8746
932.9705, 450.9049
933.4526, 451.9081
933.9347, 452.0641
934.4168, 452.6341
934.8989, 454.3470
935.3810, 456.8477
935.8632, 458.1278
936.3453, 458.1445
936.8274, 458.2434
937.3095, 458.8391
937.7916, 459.9222
938.2737, 461.6312
938.7559, 463.7916
939.2380, 466.0359
939.7201, 468.4609
940.2022, 470.5912
940.6843, 471.7964
941.1664, 473.0969
941.6486, 476.0912
942.1307, 480.9116
942.6128, 484.1336
943.0949, 485.2614
943.5770, 486.1379
944.0591, 488.9451
944.5413, 492.3672
945.0234, 494.6523
945.5055, 495.3664
945.9876, 496.8018
946.4697, 500.1719
946.9518, 503.6578
947.4340, 506.3930
947.9161, 508.5187
948.3982, 511.3489
948.8803, 514.8759
949.3624, 518.6738
949.8445, 523.0311
950.3267, 527.1385
950.8088, 529.7512
951.2909, 531.4268
951.7730, 533.5838
952.2551, 536.8348
952.7372, 540.3165
953.2194, 544.0760
953.7015, 547.8334
954.1836, 550.8021
954.6657, 553.1338
955.1478, 556.6474
955.6299, 561.9005
956.1121, 567.2737
956.5942, 571.4310
957.0763, 574.8848
957.5583, 578.0149
958.0405, 580.5878
958.5226, 584.1708
959.0047, 589.7098
959.4868, 594.7039
959.9689, 597.4549
960.4510, 598.2667
960.9332, 598.7210
961.4153, 598.8406
961.8974, 598.7795
962.3795, 598.1527
962.8616, 597.8298
963.3438, 598.6868
963.8259, 600.3761
964.3080, 601.4797
964.7901, 601.7800
965.2722, 601.8575
965.7543, 601.6839
966.2365, 601.5959
966.7186, 602.1546
967.2007, 603.2782
967.6828, 604.9041
968.1649, 607.2912
968.6470, 609.1750
969.1292, 608.3420
969.6113, 607.7010
970.0934, 610.2216
970.5755, 617.0429
971.0576, 621.5778
971.5397, 623.4453
972.0219, 624.8436
972.5040, 626.6385
972.9861, 629.4222
973.4682, 635.2530
973.9503, 643.5378
974.4324, 650.7873
974.9146, 654.2393
975.3967, 657.7504
975.8788, 663.0002
976.3609, 669.3267
976.8430, 675.1145
977.3251, 680.2603
977.8073, 685.3997
978.2894, 690.7372
978.7715, 695.8223
979.2536, 699.7778
979.7357, 703.3113
980.2178, 707.5979
980.7000, 713.3133
981.1821, 718.6376
981.6642, 724.0452
982.1463, 728.2244
982.6284, 729.8262
983.1105, 728.9659
983.5927, 729.3069
984.0748, 730.8132
984.5569, 732.0339
985.0390, 731.6063
985.5211, 730.8142
986.0032, 730.9549
986.4854, 731.7385
986.9675, 731.5673
987.4496, 729.7321
987.9317, 728.0200
988.4138, 726.7273
988.8959, 725.8093
989.3781, 725.7103
989.8602, 725.9666
990.3423, 724.6736
990.8244, 720.7975
991.3065, 717.5612
991.7886, 717.4775
992.2708, 718.5332
992.7529, 718.9088
993.2350, 718.3859
993.7171, 718.3069
994.1992, 718.8356
994.6813, 719.0760
995.1635, 718.1786
995.6456, 716.7199
996.1277, 715.8970
996.6098, 715.4986
997.0919, 714.5756
997.5740, 713.6002
998.0562, 710.9205
998.5383, 705.7115
999.0204, 698.8538
999.5025, 691.6930
999.9846, 684.3395
1000.467, 677.1703
1000.949, 670.3203
1001.431, 663.7299
1001.913, 657.5443
1002.395, 651.5125
1002.877, 645.1834
1003.359, 638.5052
1003.842, 631.9726
1004.324, 625.5026
1004.806, 619.4583
1005.288, 613.9899
1005.770, 609.1395
1006.252, 605.5816
1006.734, 603.0750
1007.216, 600.6064
1007.698, 597.6817
1008.181, 594.5239
1008.663, 591.1423
1009.145, 587.5898
1009.627, 583.9915
1010.109, 580.3538
1010.591, 576.5022
1011.073, 572.4392
1011.555, 568.2807
1012.038, 564.0477
1012.520, 559.9588
1013.002, 556.3730
1013.484, 553.3747
1013.966, 550.4734
1014.448, 548.1209
1014.930, 545.1451
1015.412, 540.7075
1015.894, 535.3241
1016.377, 532.0076
1016.859, 530.6072
1017.341, 528.6071
1017.823, 524.6689
1018.305, 520.2075
1018.787, 516.1082
1019.269, 512.4066
1019.751, 509.1675
1020.234, 506.2864
1020.716, 504.0941
1021.198, 502.7101
1021.680, 501.7156
1022.162, 500.9111
1022.644, 500.1627
1023.126, 498.9214
1023.608, 497.2440
1024.090, 496.0301
1024.573, 496.3293
1025.055, 496.6035
1025.537, 496.1501
1026.019, 495.1185
1026.501, 493.7644
1026.983, 492.0429
1027.465, 490.7550
1027.947, 490.2697
1028.430, 489.8028
1028.912, 488.0072
1029.394, 485.8745
1029.876, 484.7414
1030.358, 485.2118
1030.840, 485.6252
1031.322, 485.8084
1031.804, 485.9972
1032.286, 486.6274
1032.769, 487.3707
1033.251, 486.3488
1033.733, 483.8931
1034.215, 481.8820
1034.697, 481.5044
1035.179, 481.5827
1035.661, 481.6693
1036.143, 481.7755
1036.625, 482.0073
1037.108, 482.4739
1037.590, 482.3985
1038.072, 481.6227
1038.554, 480.6958
1039.036, 480.1152
1039.518, 479.7999
1040.000, 479.7822
1040.482, 480.0760
1040.965, 480.0114
1041.447, 478.7087
1041.929, 478.1771
1042.411, 479.4376
1042.893, 481.7218
1043.375, 482.5055
1043.857, 482.1240
1044.339, 482.1713
1044.822, 483.4221
1045.304, 484.7561
1045.786, 485.7054
1046.268, 486.2384
1046.750, 486.2728
1047.232, 485.6666
1047.714, 485.1357
1048.196, 484.6308
1048.678, 484.5241
1049.161, 485.2501
1049.643, 486.4398
1050.125, 487.6759
1050.607, 488.9577
1051.089, 490.3405
1051.571, 492.4532
1052.053, 493.7949
1052.535, 494.0025
1053.017, 493.5693
1053.500, 492.8502
1053.982, 492.1119
1054.464, 492.7804
1054.946, 495.2260
1055.428, 497.4849
1055.910, 498.3002
1056.392, 498.5145
1056.874, 498.6341
1057.357, 498.6792
1057.839, 498.5172
1058.321, 498.1116
1058.803, 497.8868
1059.285, 498.1900
1059.767, 498.4838
1060.249, 497.8297
1060.731, 496.7778
1061.214, 496.2511
1061.696, 497.2681
1062.178, 497.2490
1062.660, 495.6150
1063.142, 493.8389
1063.624, 493.2048
1064.106, 493.3829
1064.588, 493.1669
1065.070, 492.5830
1065.552, 491.9883
1066.035, 491.7211
1066.517, 491.3053
1066.999, 490.4660
1067.481, 489.3596
1067.963, 488.0564
1068.445, 486.5225
1068.927, 485.9301
1069.409, 486.5631
1069.892, 487.4773
1070.374, 488.0604
1070.856, 488.2828
1071.338, 487.9607
1071.820, 487.0451
1072.302, 486.5315
1072.784, 486.3848
1073.266, 486.8546
1073.749, 488.2300
1074.231, 490.0152
1074.713, 491.3427
1075.195, 492.3588
1075.677, 493.5029
1076.159, 495.3875
1076.641, 496.2933
1077.123, 494.9037
1077.605, 493.2379
1078.088, 492.5577
1078.570, 492.8347
1079.052, 494.1479
1079.534, 496.3889
1080.016, 498.3806
1080.498, 499.2256
1080.980, 499.8160
1081.462, 500.6331
1081.944, 501.6152
1082.427, 502.6819
1082.909, 504.0283
1083.391, 504.4127
1083.873, 503.5663
1084.355, 502.5574
1084.837, 502.4806
1085.319, 502.8812
1085.801, 503.4073
1086.283, 503.9893
1086.766, 503.8875
1087.248, 502.6429
1087.730, 501.3678
1088.212, 500.3136
1088.694, 499.4443
1089.176, 498.7992
1089.658, 498.2819
1090.140, 497.6674
1090.623, 496.9316
1091.105, 495.9762
1091.587, 494.1187
1092.069, 492.6721
1092.551, 492.6334
1093.033, 493.8091
1093.515, 494.0858
1093.997, 493.5151
1094.479, 492.7393
1094.962, 491.7660
1095.444, 491.0900
1095.926, 491.3009
1096.408, 491.9446
1096.890, 492.3259
1097.372, 492.3088
1097.854, 492.4202
1098.336, 492.7042
1098.818, 492.9253
1099.301, 492.9869
1099.783, 492.8126
1100.265, 492.0970
1100.747, 491.0154
1101.229, 490.3130
1101.711, 490.2047
1102.193, 490.4554
1102.675, 491.1137
1103.158, 491.9823
1103.640, 492.8583
1104.122, 493.7159
1104.604, 494.5352
1105.086, 495.3232
1105.568, 495.8796
1106.050, 496.1378
1106.532, 496.0776
1107.015, 495.5385
1107.497, 494.7550
1107.979, 494.6038
1108.461, 494.9998
1108.943, 495.3436
1109.425, 495.5093
1109.907, 495.4355
1110.389, 494.8434
1110.871, 494.1642
1111.354, 493.8912
1111.836, 494.0852
1112.318, 493.5922
1112.800, 492.3314
1113.282, 491.4307
1113.764, 491.9322
1114.246, 492.5732
1114.728, 491.7029
1115.210, 490.0349
1115.693, 488.8228
1116.175, 488.1411
1116.657, 488.3080
1117.139, 489.6197
1117.621, 490.8495
1118.103, 490.6143
1118.585, 489.7505
1119.067, 490.0986
1119.550, 491.3149
1120.032, 491.6117
1120.514, 488.9615
1120.996, 487.3637
1121.478, 487.8408
1121.960, 489.0665
1122.442, 488.9442
1122.924, 487.9899
1123.406, 488.1357
1123.889, 489.5842
1124.371, 490.9145
1124.853, 491.6943
1125.335, 491.7596
1125.817, 490.7464
1126.299, 489.1693
1126.781, 488.7408
1127.263, 489.3036
1127.745, 489.0417
1128.228, 487.2148
1128.710, 485.8203
1129.192, 486.7047
1129.674, 488.4385
1130.156, 489.9928
1130.638, 491.3223
1131.120, 492.2058
1131.602, 492.6532
1132.085, 492.4243
1132.567, 491.0181
1133.049, 489.5850
1133.531, 489.3290
1134.013, 489.7801
1134.495, 490.3363
1134.977, 490.9660
1135.459, 491.5421
1135.942, 492.0889
1136.424, 492.5112
1136.906, 492.7005
1137.388, 492.7719
1137.870, 492.9810
1138.352, 493.2201
1138.834, 493.2160
1139.316, 492.4852
1139.798, 492.1845
1140.281, 492.5753
1140.763, 492.9759
1141.245, 492.3983
1141.727, 491.4292
1142.209, 491.7552
1142.691, 493.1817
1143.173, 494.1079
1143.655, 493.3417
1144.137, 492.6054
1144.620, 492.0853
1145.102, 492.0267
1145.584, 493.3294
1146.066, 495.4644
1146.548, 496.0161
1147.030, 494.6895
1147.512, 493.8127
1147.994, 495.3533
1148.477, 496.9710
1148.959, 497.7408
1149.441, 497.7779
1149.923, 497.1010
1150.405, 495.8533
1150.887, 495.3124
1151.369, 495.8463
1151.851, 496.7474
1152.333, 497.7895
1152.816, 498.7606
1153.298, 499.3797
1153.780, 499.7221
1154.262, 500.7813
1154.744, 502.5524
1155.226, 503.3061
1155.708, 502.0261
1156.190, 500.3342
1156.672, 499.1041
1157.155, 498.5905
1157.637, 499.4876
1158.119, 502.0865
1158.601, 503.0393
1159.083, 502.1783
1159.565, 501.2842
1160.047, 501.1969
1160.529, 501.6823
1161.012, 503.0550
1161.494, 504.6333
1161.976, 505.1482
1162.458, 503.4987
1162.940, 503.3308
1163.422, 504.9416
1163.904, 506.6673
1164.386, 507.0498
1164.869, 506.9327
1165.351, 507.7326
1165.833, 509.0315
1166.315, 509.5603
1166.797, 508.3908
1167.279, 507.6578
1167.761, 507.4696
1168.243, 507.7501
1168.725, 508.9891
1169.208, 510.3682
1169.690, 509.9442
1170.172, 508.1062
1170.654, 507.3157
1171.136, 509.5167
1171.618, 510.9350
1172.100, 510.8056
1172.582, 510.2060
1173.064, 510.7720
1173.547, 511.9166
1174.029, 512.2447
1174.511, 511.6692
1174.993, 511.3652
1175.475, 511.9956
1175.957, 512.6657
1176.439, 513.2283
1176.921, 513.6263
1177.404, 513.5732
1177.886, 513.2913
1178.368, 513.4720
1178.850, 514.2714
1179.332, 514.9709
1179.814, 515.1920
1180.296, 515.3531
1180.778, 515.6140
1181.260, 515.7996
1181.743, 516.1147
1182.225, 516.2452
1182.707, 516.4683
1183.189, 516.7643
1183.671, 517.4508
1184.153, 519.6614
1184.635, 521.1910
1185.117, 520.5317
1185.599, 518.4247
1186.082, 518.1959
1186.564, 519.5325
1187.046, 521.0875
1187.528, 522.7472
1188.010, 523.6984
1188.492, 522.5266
1188.974, 521.4337
1189.456, 522.2346
1189.939, 524.5546
1190.421, 524.7231
1190.903, 523.0981
1191.385, 522.0500
1191.867, 523.1882
1192.349, 524.3145
1192.831, 524.1136
1193.313, 523.6122
1193.796, 523.7665
1194.278, 524.5695
1194.760, 524.9810
1195.242, 525.0221
1195.724, 524.9098
1196.206, 524.5861
1196.688, 524.3448
1197.170, 524.0188
1197.652, 524.0795
1198.135, 525.3293
1198.617, 527.8084
1199.099, 529.0926
1199.581, 529.1500
1200.063, 528.6118
1200.545, 526.9381
1201.027, 525.8094
1201.509, 526.9309
1201.991, 528.7788
1202.474, 528.8400
1202.956, 527.0901
1203.438, 526.9771
1203.920, 528.6771
1204.402, 530.5446
1204.884, 532.2540
1205.366, 532.9426
1205.848, 531.0815
1206.331, 528.2074
1206.813, 527.1058
1207.295, 527.7559
1207.777, 528.7581
1208.259, 529.9677
1208.741, 531.2390
1209.223, 532.6400
1209.705, 533.8706
1210.188, 534.6437
1210.670, 535.0960
1211.152, 535.3457
1211.634, 535.4005
1212.116, 536.0858
1212.598, 537.6005
1213.080, 538.5514
1213.562, 537.0558
1214.044, 535.4356
1214.526, 535.3683
1215.009, 536.3608
1215.491, 537.2272
1215.973, 537.9597
1216.455, 538.2904
1216.937, 538.0884
1217.419, 538.1367
1217.901, 539.5678
1218.383, 540.9166
1218.866, 541.0033
1219.348, 540.2532
1219.830, 540.2120
1220.312, 540.8210
1220.794, 540.8912
1221.276, 540.0134
1221.758, 539.3856
1222.240, 540.1381
1222.723, 541.1754
1223.205, 541.7210
1223.687, 541.9197
1224.169, 542.6190
1224.651, 543.7264
1225.133, 544.0715
1225.615, 543.0688
1226.097, 542.4812
1226.579, 544.0139
1227.062, 545.8342
1227.544, 546.6719
1228.026, 546.7505
1228.508, 547.5064
1228.990, 548.7363
1229.472, 548.8982
1229.954, 547.0399
1230.436, 545.6531
1230.918, 546.6257
1231.401, 548.1382
1231.883, 548.9767
1232.365, 549.3026
1232.847, 550.0828
1233.329, 551.2203
1233.811, 552.2752
1234.293, 553.2484
1234.775, 553.7117
1235.258, 552.8290
1235.740, 552.0076
1236.222, 552.2365
1236.704, 551.8958
1237.186, 551.8844
1237.668, 552.5626
1238.150, 552.4523
1238.632, 553.6382
1239.115, 554.8123
1239.597, 555.6530
1240.079, 556.1404
1240.561, 556.1402
1241.043, 555.8011
1241.525, 555.6732
1242.007, 555.7404
1242.489, 555.9160
1242.971, 555.9398
1243.453, 556.6057
1243.936, 558.7653
1244.418, 560.5585
1244.900, 560.5516
1245.382, 559.3652
1245.864, 558.9276
1246.346, 559.0660
1246.828, 559.2626
1247.310, 559.1466
1247.793, 559.4899
1248.275, 560.6525
1248.757, 561.6780
1249.239, 561.5861
1249.721, 561.0573
1250.203, 561.8816
1250.685, 563.6536
1251.167, 565.4360
1251.650, 567.3252
1252.132, 568.4753
1252.614, 568.8207
1253.096, 568.6126
1253.578, 567.6153
1254.060, 566.4549
1254.542, 566.4327
1255.024, 567.0803
1255.506, 567.3695
1255.989, 566.5846
1256.471, 566.3541
1256.953, 566.7490
1257.435, 567.3797
1257.917, 567.8866
1258.399, 568.5132
1258.881, 569.7716
1259.363, 571.3387
1259.845, 572.5459
1260.328, 573.3090
1260.810, 573.7844
1261.292, 573.9434
1261.774, 574.0814
1262.256, 574.6428
1262.738, 575.0602
1263.220, 574.2789
1263.702, 573.1791
1264.185, 573.4101
1264.667, 575.3405
1265.149, 577.0280
1265.631, 578.4579
1266.113, 578.9547
1266.595, 576.8284
1267.077, 574.9098
1267.559, 575.8506
1268.042, 574.7778
1268.524, 574.9134
1269.006, 575.8577
1269.488, 575.9700
1269.970, 578.1246
1270.452, 580.0405
1270.934, 579.7704
1271.416, 579.6500
1271.898, 581.5219
1272.380, 583.5703
1272.863, 583.6697
1273.345, 582.1450
1273.827, 582.2386
1274.309, 583.7672
1274.791, 585.1442
1275.273, 585.6894
1275.755, 585.7485
1276.237, 585.0853
1276.720, 584.4792
1277.202, 584.8836
1277.684, 585.9022
1278.166, 585.8238
1278.648, 585.0397
1279.130, 585.1829
1279.612, 588.4224
1280.094, 590.2150
1280.577, 589.7860
1281.059, 588.6625
1281.541, 587.7116
1282.023, 587.2211
1282.505, 587.9882
1282.987, 589.6680
1283.469, 591.3064
1283.951, 593.3499
1284.433, 593.7519
1284.916, 592.0936
1285.398, 590.3091
1285.880, 589.7590
1286.362, 590.0305
1286.844, 590.8162
1287.326, 591.9855
1287.808, 593.4444
1288.290, 595.6301
1288.772, 595.8580
1289.255, 593.9207
1289.737, 592.7335
1290.219, 595.7394
1290.701, 598.8115
1291.183, 598.5432
1291.665, 596.5369
1292.147, 595.1458
1292.629, 594.3685
1293.112, 594.2383
1293.594, 594.7464
1294.076, 595.8063
1294.558, 598.4699
1295.040, 600.3199
1295.522, 599.1770
1296.004, 597.5864
1296.486, 597.7593
1296.969, 599.4636
1297.451, 601.5029
1297.933, 603.6796
1298.415, 605.1625
1298.897, 605.3100
1299.379, 605.0389
1299.861, 604.1841
1300.343, 603.6640
1300.825, 604.4432
1301.307, 605.8421
1301.790, 606.1461
1302.272, 605.8152
1302.754, 606.0349
1303.236, 608.0544
1303.718, 608.8873
1304.200, 608.2015
1304.682, 607.0644
1305.164, 605.7587
##END=



