##NAMES=Tiragalloite
##RRUFFID=R130101
##IDEAL CHEMISTRY=Mn^2+^_4_As^5+^Si_3_O_12_(OH)
##LOCALITY=Molinello mine, Near Lavagna, Geona, Graveglia Valley, Italy
##OWNER=RRUFF
##SOURCE=Rock Currier
##DESCRIPTION=Orange granular filling a crack
##STATUS=The identification of this mineral has been confirmed only by single crystal X-ray diffraction.
##URL=rruff.info/R130101
8.975323e+001, 0.000000e+000
9.023535e+001, 3.792366e+002
9.071747e+001, 3.772514e+002
9.119958e+001, 3.750950e+002
9.168170e+001, 3.799176e+002
9.216382e+001, 3.827985e+002
9.264594e+001, 3.822573e+002
9.312805e+001, 3.795169e+002
9.361017e+001, 3.760048e+002
9.409229e+001, 3.716997e+002
9.457440e+001, 3.659435e+002
9.505651e+001, 3.604725e+002
9.553863e+001, 3.551914e+002
9.602074e+001, 3.504993e+002
9.650286e+001, 3.469865e+002
9.698498e+001, 3.446916e+002
9.746709e+001, 3.424450e+002
9.794921e+001, 3.392912e+002
9.843133e+001, 3.341883e+002
9.891344e+001, 3.296966e+002
9.939556e+001, 3.264225e+002
9.987768e+001, 3.241331e+002
1.003598e+002, 3.223448e+002
1.008419e+002, 3.207363e+002
1.013240e+002, 3.194543e+002
1.018061e+002, 3.187564e+002
1.022883e+002, 3.187587e+002
1.027704e+002, 3.191989e+002
1.032525e+002, 3.199856e+002
1.037346e+002, 3.212018e+002
1.042167e+002, 3.222678e+002
1.046988e+002, 3.226562e+002
1.051810e+002, 3.225722e+002
1.056631e+002, 3.222628e+002
1.061452e+002, 3.217579e+002
1.066273e+002, 3.210888e+002
1.071094e+002, 3.204385e+002
1.075915e+002, 3.200865e+002
1.080737e+002, 3.193393e+002
1.085558e+002, 3.177168e+002
1.090379e+002, 3.154601e+002
1.095200e+002, 3.131703e+002
1.100021e+002, 3.113867e+002
1.104842e+002, 3.102148e+002
1.109664e+002, 3.090426e+002
1.114485e+002, 3.075454e+002
1.119306e+002, 3.062958e+002
1.124127e+002, 3.055888e+002
1.128948e+002, 3.054559e+002
1.133769e+002, 3.057234e+002
1.138591e+002, 3.061626e+002
1.143412e+002, 3.069437e+002
1.148233e+002, 3.076005e+002
1.153054e+002, 3.080877e+002
1.157875e+002, 3.084772e+002
1.162696e+002, 3.088119e+002
1.167517e+002, 3.091013e+002
1.172339e+002, 3.093849e+002
1.177160e+002, 3.097194e+002
1.181981e+002, 3.098724e+002
1.186802e+002, 3.104638e+002
1.191623e+002, 3.118862e+002
1.196444e+002, 3.139150e+002
1.201266e+002, 3.160351e+002
1.206087e+002, 3.182679e+002
1.210908e+002, 3.201765e+002
1.215729e+002, 3.210628e+002
1.220550e+002, 3.204952e+002
1.225371e+002, 3.196432e+002
1.230193e+002, 3.195539e+002
1.235014e+002, 3.203108e+002
1.239835e+002, 3.211060e+002
1.244656e+002, 3.210958e+002
1.249477e+002, 3.210926e+002
1.254298e+002, 3.220440e+002
1.259120e+002, 3.246031e+002
1.263941e+002, 3.278824e+002
1.268762e+002, 3.298319e+002
1.273583e+002, 3.298965e+002
1.278404e+002, 3.294314e+002
1.283225e+002, 3.288044e+002
1.288047e+002, 3.280205e+002
1.292868e+002, 3.270486e+002
1.297689e+002, 3.258300e+002
1.302510e+002, 3.243957e+002
1.307331e+002, 3.231972e+002
1.312152e+002, 3.223379e+002
1.316974e+002, 3.216266e+002
1.321795e+002, 3.210726e+002
1.326616e+002, 3.206406e+002
1.331437e+002, 3.202736e+002
1.336258e+002, 3.199186e+002
1.341079e+002, 3.195668e+002
1.345901e+002, 3.192977e+002
1.350722e+002, 3.195254e+002
1.355543e+002, 3.195047e+002
1.360364e+002, 3.185896e+002
1.365185e+002, 3.168085e+002
1.370006e+002, 3.149111e+002
1.374828e+002, 3.137977e+002
1.379649e+002, 3.136622e+002
1.384470e+002, 3.133953e+002
1.389291e+002, 3.130801e+002
1.394112e+002, 3.125498e+002
1.398933e+002, 3.114779e+002
1.403755e+002, 3.096947e+002
1.408576e+002, 3.077711e+002
1.413397e+002, 3.066191e+002
1.418218e+002, 3.061752e+002
1.423039e+002, 3.054606e+002
1.427860e+002, 3.039610e+002
1.432681e+002, 3.018414e+002
1.437503e+002, 2.996489e+002
1.442324e+002, 2.973182e+002
1.447145e+002, 2.951823e+002
1.451966e+002, 2.934989e+002
1.456787e+002, 2.922725e+002
1.461608e+002, 2.912538e+002
1.466430e+002, 2.902510e+002
1.471251e+002, 2.892560e+002
1.476072e+002, 2.883381e+002
1.480893e+002, 2.876726e+002
1.485714e+002, 2.869764e+002
1.490535e+002, 2.860717e+002
1.495357e+002, 2.849295e+002
1.500178e+002, 2.836581e+002
1.504999e+002, 2.824305e+002
1.509820e+002, 2.812744e+002
1.514641e+002, 2.800776e+002
1.519462e+002, 2.788076e+002
1.524284e+002, 2.775114e+002
1.529105e+002, 2.762446e+002
1.533926e+002, 2.750304e+002
1.538747e+002, 2.737990e+002
1.543568e+002, 2.723670e+002
1.548389e+002, 2.701617e+002
1.553211e+002, 2.684763e+002
1.558032e+002, 2.675973e+002
1.562853e+002, 2.671927e+002
1.567674e+002, 2.669348e+002
1.572495e+002, 2.666742e+002
1.577316e+002, 2.663723e+002
1.582138e+002, 2.658471e+002
1.586959e+002, 2.649441e+002
1.591780e+002, 2.640266e+002
1.596601e+002, 2.629197e+002
1.601422e+002, 2.618404e+002
1.606243e+002, 2.613657e+002
1.611065e+002, 2.619854e+002
1.615886e+002, 2.633857e+002
1.620707e+002, 2.640978e+002
1.625528e+002, 2.636608e+002
1.630349e+002, 2.630449e+002
1.635170e+002, 2.627260e+002
1.639991e+002, 2.626932e+002
1.644813e+002, 2.628908e+002
1.649634e+002, 2.635849e+002
1.654455e+002, 2.644005e+002
1.659276e+002, 2.645034e+002
1.664097e+002, 2.634183e+002
1.668918e+002, 2.618904e+002
1.673740e+002, 2.607102e+002
1.678561e+002, 2.599090e+002
1.683382e+002, 2.593161e+002
1.688203e+002, 2.588855e+002
1.693024e+002, 2.585923e+002
1.697845e+002, 2.584313e+002
1.702667e+002, 2.584073e+002
1.707488e+002, 2.585121e+002
1.712309e+002, 2.587595e+002
1.717130e+002, 2.592691e+002
1.721951e+002, 2.596989e+002
1.726772e+002, 2.598062e+002
1.731594e+002, 2.597858e+002
1.736415e+002, 2.599131e+002
1.741236e+002, 2.603521e+002
1.746057e+002, 2.610706e+002
1.750878e+002, 2.618886e+002
1.755699e+002, 2.631375e+002
1.760521e+002, 2.640943e+002
1.765342e+002, 2.645726e+002
1.770163e+002, 2.646335e+002
1.774984e+002, 2.643700e+002
1.779805e+002, 2.638095e+002
1.784626e+002, 2.629475e+002
1.789448e+002, 2.622359e+002
1.794269e+002, 2.615986e+002
1.799090e+002, 2.611794e+002
1.803911e+002, 2.612040e+002
1.808732e+002, 2.615179e+002
1.813553e+002, 2.617352e+002
1.818375e+002, 2.614887e+002
1.823196e+002, 2.606889e+002
1.828017e+002, 2.603263e+002
1.832838e+002, 2.608574e+002
1.837659e+002, 2.613177e+002
1.842480e+002, 2.611357e+002
1.847301e+002, 2.603665e+002
1.852123e+002, 2.595100e+002
1.856944e+002, 2.590339e+002
1.861765e+002, 2.590063e+002
1.866586e+002, 2.588698e+002
1.871407e+002, 2.584740e+002
1.876228e+002, 2.580804e+002
1.881050e+002, 2.578356e+002
1.885871e+002, 2.577633e+002
1.890692e+002, 2.579090e+002
1.895513e+002, 2.584402e+002
1.900334e+002, 2.593363e+002
1.905155e+002, 2.599619e+002
1.909977e+002, 2.599705e+002
1.914798e+002, 2.598026e+002
1.919619e+002, 2.600473e+002
1.924440e+002, 2.608528e+002
1.929261e+002, 2.616429e+002
1.934082e+002, 2.617237e+002
1.938904e+002, 2.613021e+002
1.943725e+002, 2.609546e+002
1.948546e+002, 2.608847e+002
1.953367e+002, 2.610017e+002
1.958188e+002, 2.611639e+002
1.963009e+002, 2.614276e+002
1.967831e+002, 2.615821e+002
1.972652e+002, 2.613396e+002
1.977473e+002, 2.608532e+002
1.982294e+002, 2.605300e+002
1.987115e+002, 2.607496e+002
1.991936e+002, 2.613475e+002
1.996758e+002, 2.615750e+002
2.001579e+002, 2.611264e+002
2.006400e+002, 2.607016e+002
2.011221e+002, 2.608196e+002
2.016042e+002, 2.612735e+002
2.020863e+002, 2.615363e+002
2.025685e+002, 2.610524e+002
2.030506e+002, 2.598934e+002
2.035327e+002, 2.593592e+002
2.040148e+002, 2.602581e+002
2.044969e+002, 2.609671e+002
2.049790e+002, 2.607925e+002
2.054612e+002, 2.599201e+002
2.059433e+002, 2.588720e+002
2.064254e+002, 2.580745e+002
2.069075e+002, 2.575460e+002
2.073896e+002, 2.568976e+002
2.078717e+002, 2.557404e+002
2.083539e+002, 2.548167e+002
2.088360e+002, 2.544507e+002
2.093181e+002, 2.545490e+002
2.098002e+002, 2.548241e+002
2.102823e+002, 2.550423e+002
2.107644e+002, 2.552050e+002
2.112466e+002, 2.552876e+002
2.117287e+002, 2.551293e+002
2.122108e+002, 2.550483e+002
2.126929e+002, 2.552239e+002
2.131750e+002, 2.556088e+002
2.136571e+002, 2.560184e+002
2.141393e+002, 2.562746e+002
2.146214e+002, 2.563394e+002
2.151035e+002, 2.565324e+002
2.155856e+002, 2.572020e+002
2.160677e+002, 2.576719e+002
2.165498e+002, 2.575080e+002
2.170320e+002, 2.567795e+002
2.175141e+002, 2.558949e+002
2.179962e+002, 2.552034e+002
2.184783e+002, 2.547253e+002
2.189604e+002, 2.543834e+002
2.194425e+002, 2.543945e+002
2.199247e+002, 2.543491e+002
2.204068e+002, 2.540269e+002
2.208889e+002, 2.534110e+002
2.213710e+002, 2.525374e+002
2.218531e+002, 2.513284e+002
2.223352e+002, 2.497741e+002
2.228174e+002, 2.487318e+002
2.232995e+002, 2.486678e+002
2.237816e+002, 2.487655e+002
2.242637e+002, 2.483140e+002
2.247458e+002, 2.473029e+002
2.252279e+002, 2.463823e+002
2.257100e+002, 2.461342e+002
2.261922e+002, 2.464956e+002
2.266743e+002, 2.467490e+002
2.271564e+002, 2.466944e+002
2.276385e+002, 2.466132e+002
2.281206e+002, 2.468332e+002
2.286027e+002, 2.473802e+002
2.290849e+002, 2.478711e+002
2.295670e+002, 2.479822e+002
2.300491e+002, 2.478150e+002
2.305312e+002, 2.476558e+002
2.310133e+002, 2.476398e+002
2.314954e+002, 2.476025e+002
2.319776e+002, 2.473278e+002
2.324597e+002, 2.467883e+002
2.329418e+002, 2.462030e+002
2.334239e+002, 2.455852e+002
2.339060e+002, 2.450342e+002
2.343881e+002, 2.447392e+002
2.348703e+002, 2.448520e+002
2.353524e+002, 2.451530e+002
2.358345e+002, 2.453802e+002
2.363166e+002, 2.455459e+002
2.367987e+002, 2.455856e+002
2.372808e+002, 2.454097e+002
2.377630e+002, 2.451052e+002
2.382451e+002, 2.447284e+002
2.387272e+002, 2.442426e+002
2.392093e+002, 2.437693e+002
2.396914e+002, 2.435582e+002
2.401735e+002, 2.437226e+002
2.406557e+002, 2.437813e+002
2.411378e+002, 2.435877e+002
2.416199e+002, 2.431887e+002
2.421020e+002, 2.425201e+002
2.425841e+002, 2.414826e+002
2.430662e+002, 2.404170e+002
2.435484e+002, 2.399623e+002
2.440305e+002, 2.403379e+002
2.445126e+002, 2.407412e+002
2.449947e+002, 2.409447e+002
2.454768e+002, 2.410813e+002
2.459589e+002, 2.412444e+002
2.464410e+002, 2.414635e+002
2.469232e+002, 2.417495e+002
2.474053e+002, 2.422127e+002
2.478874e+002, 2.431260e+002
2.483695e+002, 2.435222e+002
2.488516e+002, 2.427508e+002
2.493337e+002, 2.417467e+002
2.498159e+002, 2.412563e+002
2.502980e+002, 2.415000e+002
2.507801e+002, 2.421081e+002
2.512622e+002, 2.424560e+002
2.517443e+002, 2.423787e+002
2.522264e+002, 2.424074e+002
2.527086e+002, 2.427314e+002
2.531907e+002, 2.430706e+002
2.536728e+002, 2.431608e+002
2.541549e+002, 2.429611e+002
2.546370e+002, 2.427165e+002
2.551191e+002, 2.428171e+002
2.556013e+002, 2.434358e+002
2.560834e+002, 2.440475e+002
2.565655e+002, 2.447024e+002
2.570476e+002, 2.453064e+002
2.575297e+002, 2.458216e+002
2.580118e+002, 2.462299e+002
2.584940e+002, 2.465133e+002
2.589761e+002, 2.466300e+002
2.594582e+002, 2.464893e+002
2.599403e+002, 2.464077e+002
2.604224e+002, 2.462139e+002
2.609045e+002, 2.461907e+002
2.613867e+002, 2.466351e+002
2.618688e+002, 2.475069e+002
2.623509e+002, 2.484436e+002
2.628330e+002, 2.490537e+002
2.633151e+002, 2.493249e+002
2.637972e+002, 2.492523e+002
2.642794e+002, 2.484852e+002
2.647615e+002, 2.477374e+002
2.652436e+002, 2.473720e+002
2.657257e+002, 2.474134e+002
2.662078e+002, 2.477151e+002
2.666899e+002, 2.481572e+002
2.671721e+002, 2.487646e+002
2.676542e+002, 2.493527e+002
2.681363e+002, 2.498976e+002
2.686184e+002, 2.504483e+002
2.691005e+002, 2.509815e+002
2.695826e+002, 2.515278e+002
2.700648e+002, 2.522096e+002
2.705469e+002, 2.531858e+002
2.710290e+002, 2.544769e+002
2.715111e+002, 2.551884e+002
2.719932e+002, 2.547838e+002
2.724753e+002, 2.544546e+002
2.729575e+002, 2.547368e+002
2.734396e+002, 2.555203e+002
2.739217e+002, 2.564312e+002
2.744038e+002, 2.572321e+002
2.748859e+002, 2.579324e+002
2.753680e+002, 2.586233e+002
2.758501e+002, 2.595160e+002
2.763322e+002, 2.601854e+002
2.768144e+002, 2.602320e+002
2.772965e+002, 2.599429e+002
2.777786e+002, 2.600268e+002
2.782607e+002, 2.609492e+002
2.787428e+002, 2.624181e+002
2.792249e+002, 2.631468e+002
2.797071e+002, 2.625207e+002
2.801892e+002, 2.620403e+002
2.806713e+002, 2.622549e+002
2.811534e+002, 2.628463e+002
2.816355e+002, 2.632181e+002
2.821176e+002, 2.630875e+002
2.825998e+002, 2.626818e+002
2.830819e+002, 2.625929e+002
2.835640e+002, 2.629223e+002
2.840461e+002, 2.633117e+002
2.845282e+002, 2.637117e+002
2.850103e+002, 2.641245e+002
2.854925e+002, 2.645638e+002
2.859746e+002, 2.650399e+002
2.864567e+002, 2.655178e+002
2.869388e+002, 2.659561e+002
2.874209e+002, 2.663893e+002
2.879030e+002, 2.666768e+002
2.883852e+002, 2.667076e+002
2.888673e+002, 2.666132e+002
2.893494e+002, 2.665161e+002
2.898315e+002, 2.664394e+002
2.903136e+002, 2.664456e+002
2.907957e+002, 2.666889e+002
2.912779e+002, 2.672321e+002
2.917600e+002, 2.674635e+002
2.922421e+002, 2.670670e+002
2.927242e+002, 2.664743e+002
2.932063e+002, 2.660809e+002
2.936884e+002, 2.659373e+002
2.941706e+002, 2.659439e+002
2.946527e+002, 2.660892e+002
2.951348e+002, 2.663607e+002
2.956169e+002, 2.663454e+002
2.960990e+002, 2.655302e+002
2.965811e+002, 2.647844e+002
2.970633e+002, 2.650603e+002
2.975454e+002, 2.662779e+002
2.980275e+002, 2.672062e+002
2.985096e+002, 2.668404e+002
2.989917e+002, 2.654003e+002
2.994738e+002, 2.645558e+002
2.999560e+002, 2.645135e+002
3.004381e+002, 2.648646e+002
3.009202e+002, 2.656732e+002
3.014023e+002, 2.667823e+002
3.018844e+002, 2.674636e+002
3.023665e+002, 2.672042e+002
3.028487e+002, 2.663431e+002
3.033308e+002, 2.659362e+002
3.038129e+002, 2.661647e+002
3.042950e+002, 2.664886e+002
3.047771e+002, 2.666565e+002
3.052592e+002, 2.667352e+002
3.057414e+002, 2.669305e+002
3.062235e+002, 2.673672e+002
3.067056e+002, 2.678668e+002
3.071877e+002, 2.680549e+002
3.076698e+002, 2.678864e+002
3.081519e+002, 2.676927e+002
3.086341e+002, 2.674575e+002
3.091162e+002, 2.672910e+002
3.095983e+002, 2.674570e+002
3.100804e+002, 2.680745e+002
3.105625e+002, 2.688014e+002
3.110446e+002, 2.690814e+002
3.115268e+002, 2.688842e+002
3.120089e+002, 2.690073e+002
3.124910e+002, 2.698586e+002
3.129731e+002, 2.709940e+002
3.134552e+002, 2.719606e+002
3.139373e+002, 2.726961e+002
3.144195e+002, 2.731581e+002
3.149016e+002, 2.731550e+002
3.153837e+002, 2.727373e+002
3.158658e+002, 2.726765e+002
3.163479e+002, 2.731397e+002
3.168300e+002, 2.739077e+002
3.173121e+002, 2.749797e+002
3.177943e+002, 2.763085e+002
3.182764e+002, 2.774198e+002
3.187585e+002, 2.780067e+002
3.192406e+002, 2.780831e+002
3.197227e+002, 2.779606e+002
3.202048e+002, 2.774510e+002
3.206870e+002, 2.769375e+002
3.211691e+002, 2.768108e+002
3.216512e+002, 2.769036e+002
3.221333e+002, 2.765463e+002
3.226154e+002, 2.752964e+002
3.230975e+002, 2.735652e+002
3.235797e+002, 2.724170e+002
3.240618e+002, 2.719219e+002
3.245439e+002, 2.716987e+002
3.250260e+002, 2.718011e+002
3.255081e+002, 2.720574e+002
3.259902e+002, 2.721362e+002
3.264724e+002, 2.719226e+002
3.269545e+002, 2.715420e+002
3.274366e+002, 2.711570e+002
3.279187e+002, 2.707562e+002
3.284008e+002, 2.704064e+002
3.288829e+002, 2.702820e+002
3.293651e+002, 2.701399e+002
3.298472e+002, 2.695988e+002
3.303293e+002, 2.685921e+002
3.308114e+002, 2.675711e+002
3.312935e+002, 2.669986e+002
3.317756e+002, 2.669199e+002
3.322578e+002, 2.668015e+002
3.327399e+002, 2.666637e+002
3.332220e+002, 2.664532e+002
3.337041e+002, 2.660406e+002
3.341862e+002, 2.654685e+002
3.346683e+002, 2.650176e+002
3.351505e+002, 2.649157e+002
3.356326e+002, 2.651102e+002
3.361147e+002, 2.651750e+002
3.365968e+002, 2.651166e+002
3.370789e+002, 2.649441e+002
3.375610e+002, 2.645513e+002
3.380432e+002, 2.640438e+002
3.385253e+002, 2.637067e+002
3.390074e+002, 2.637062e+002
3.394895e+002, 2.638772e+002
3.399716e+002, 2.637413e+002
3.404537e+002, 2.630206e+002
3.409359e+002, 2.625432e+002
3.414180e+002, 2.626424e+002
3.419001e+002, 2.630075e+002
3.423822e+002, 2.632753e+002
3.428643e+002, 2.633419e+002
3.433464e+002, 2.632343e+002
3.438286e+002, 2.629656e+002
3.443107e+002, 2.624428e+002
3.447928e+002, 2.620263e+002
3.452749e+002, 2.615510e+002
3.457570e+002, 2.613010e+002
3.462391e+002, 2.616598e+002
3.467213e+002, 2.625676e+002
3.472034e+002, 2.634853e+002
3.476855e+002, 2.639104e+002
3.481676e+002, 2.638132e+002
3.486497e+002, 2.638402e+002
3.491318e+002, 2.641285e+002
3.496140e+002, 2.643836e+002
3.500961e+002, 2.644922e+002
3.505782e+002, 2.644683e+002
3.510603e+002, 2.643050e+002
3.515424e+002, 2.639603e+002
3.520245e+002, 2.635571e+002
3.525067e+002, 2.636397e+002
3.529888e+002, 2.647314e+002
3.534709e+002, 2.656566e+002
3.539530e+002, 2.661991e+002
3.544351e+002, 2.665296e+002
3.549172e+002, 2.669136e+002
3.553994e+002, 2.674317e+002
3.558815e+002, 2.678494e+002
3.563636e+002, 2.677486e+002
3.568457e+002, 2.667784e+002
3.573278e+002, 2.659705e+002
3.578099e+002, 2.653785e+002
3.582920e+002, 2.648886e+002
3.587741e+002, 2.644496e+002
3.592563e+002, 2.640412e+002
3.597384e+002, 2.636563e+002
3.602205e+002, 2.632954e+002
3.607026e+002, 2.629704e+002
3.611847e+002, 2.625476e+002
3.616668e+002, 2.618258e+002
3.621490e+002, 2.612220e+002
3.626311e+002, 2.610213e+002
3.631132e+002, 2.610298e+002
3.635953e+002, 2.608744e+002
3.640774e+002, 2.603198e+002
3.645595e+002, 2.594538e+002
3.650417e+002, 2.586397e+002
3.655238e+002, 2.577918e+002
3.660059e+002, 2.571349e+002
3.664880e+002, 2.566802e+002
3.669701e+002, 2.564234e+002
3.674522e+002, 2.564821e+002
3.679344e+002, 2.568587e+002
3.684165e+002, 2.572271e+002
3.688986e+002, 2.570350e+002
3.693807e+002, 2.560468e+002
3.698628e+002, 2.551313e+002
3.703449e+002, 2.541284e+002
3.708271e+002, 2.533546e+002
3.713092e+002, 2.531724e+002
3.717913e+002, 2.534499e+002
3.722734e+002, 2.536228e+002
3.727555e+002, 2.531217e+002
3.732376e+002, 2.519768e+002
3.737198e+002, 2.511279e+002
3.742019e+002, 2.506980e+002
3.746840e+002, 2.504474e+002
3.751661e+002, 2.505208e+002
3.756482e+002, 2.506602e+002
3.761303e+002, 2.504472e+002
3.766125e+002, 2.496230e+002
3.770946e+002, 2.484607e+002
3.775767e+002, 2.475354e+002
3.780588e+002, 2.468531e+002
3.785409e+002, 2.463972e+002
3.790230e+002, 2.463546e+002
3.795052e+002, 2.464150e+002
3.799873e+002, 2.463313e+002
3.804694e+002, 2.460550e+002
3.809515e+002, 2.457384e+002
3.814336e+002, 2.455241e+002
3.819157e+002, 2.454099e+002
3.823979e+002, 2.453397e+002
3.828800e+002, 2.453188e+002
3.833621e+002, 2.453278e+002
3.838442e+002, 2.453724e+002
3.843263e+002, 2.454366e+002
3.848084e+002, 2.454673e+002
3.852906e+002, 2.453410e+002
3.857727e+002, 2.451768e+002
3.862548e+002, 2.452675e+002
3.867369e+002, 2.456596e+002
3.872190e+002, 2.461412e+002
3.877011e+002, 2.467521e+002
3.881833e+002, 2.473350e+002
3.886654e+002, 2.475947e+002
3.891475e+002, 2.472718e+002
3.896296e+002, 2.469902e+002
3.901117e+002, 2.473870e+002
3.905938e+002, 2.483823e+002
3.910760e+002, 2.493569e+002
3.915581e+002, 2.501765e+002
3.920402e+002, 2.508020e+002
3.925223e+002, 2.511557e+002
3.930044e+002, 2.512262e+002
3.934865e+002, 2.512825e+002
3.939687e+002, 2.515117e+002
3.944508e+002, 2.517660e+002
3.949329e+002, 2.518000e+002
3.954150e+002, 2.515710e+002
3.958971e+002, 2.511940e+002
3.963792e+002, 2.506647e+002
3.968614e+002, 2.500285e+002
3.973435e+002, 2.497063e+002
3.978256e+002, 2.499217e+002
3.983077e+002, 2.502709e+002
3.987898e+002, 2.506575e+002
3.992719e+002, 2.509888e+002
3.997540e+002, 2.509431e+002
4.002361e+002, 2.503126e+002
4.007183e+002, 2.492754e+002
4.012004e+002, 2.483286e+002
4.016825e+002, 2.473711e+002
4.021646e+002, 2.466527e+002
4.026467e+002, 2.464376e+002
4.031288e+002, 2.463837e+002
4.036110e+002, 2.460528e+002
4.040931e+002, 2.453613e+002
4.045752e+002, 2.446163e+002
4.050573e+002, 2.441995e+002
4.055394e+002, 2.442229e+002
4.060215e+002, 2.440300e+002
4.065037e+002, 2.434993e+002
4.069858e+002, 2.429013e+002
4.074679e+002, 2.422636e+002
4.079500e+002, 2.416640e+002
4.084321e+002, 2.413161e+002
4.089142e+002, 2.413972e+002
4.093964e+002, 2.417169e+002
4.098785e+002, 2.413866e+002
4.103606e+002, 2.395758e+002
4.108427e+002, 2.381711e+002
4.113248e+002, 2.376280e+002
4.118069e+002, 2.373853e+002
4.122891e+002, 2.369024e+002
4.127712e+002, 2.360406e+002
4.132533e+002, 2.350296e+002
4.137354e+002, 2.341238e+002
4.142175e+002, 2.332614e+002
4.146996e+002, 2.327418e+002
4.151818e+002, 2.330190e+002
4.156639e+002, 2.332264e+002
4.161460e+002, 2.331496e+002
4.166281e+002, 2.327300e+002
4.171102e+002, 2.318667e+002
4.175923e+002, 2.303545e+002
4.180745e+002, 2.284784e+002
4.185566e+002, 2.272877e+002
4.190387e+002, 2.272222e+002
4.195208e+002, 2.268767e+002
4.200029e+002, 2.255128e+002
4.204850e+002, 2.238613e+002
4.209672e+002, 2.226429e+002
4.214493e+002, 2.220410e+002
4.219314e+002, 2.215482e+002
4.224135e+002, 2.204893e+002
4.228956e+002, 2.189170e+002
4.233777e+002, 2.179370e+002
4.238599e+002, 2.180818e+002
4.243420e+002, 2.183537e+002
4.248241e+002, 2.179942e+002
4.253062e+002, 2.171211e+002
4.257883e+002, 2.161431e+002
4.262704e+002, 2.150735e+002
4.267526e+002, 2.140673e+002
4.272347e+002, 2.134466e+002
4.277168e+002, 2.132347e+002
4.281989e+002, 2.129342e+002
4.286810e+002, 2.121292e+002
4.291631e+002, 2.111552e+002
4.296453e+002, 2.107589e+002
4.301274e+002, 2.111922e+002
4.306095e+002, 2.116345e+002
4.310916e+002, 2.116364e+002
4.315737e+002, 2.113667e+002
4.320558e+002, 2.111918e+002
4.325380e+002, 2.112202e+002
4.330201e+002, 2.112134e+002
4.335022e+002, 2.107958e+002
4.339843e+002, 2.098683e+002
4.344664e+002, 2.094598e+002
4.349485e+002, 2.100327e+002
4.354307e+002, 2.107681e+002
4.359128e+002, 2.112003e+002
4.363949e+002, 2.113291e+002
4.368770e+002, 2.112393e+002
4.373591e+002, 2.109366e+002
4.378412e+002, 2.105400e+002
4.383234e+002, 2.105136e+002
4.388055e+002, 2.110895e+002
4.392876e+002, 2.117517e+002
4.397697e+002, 2.126892e+002
4.402518e+002, 2.135733e+002
4.407339e+002, 2.140315e+002
4.412160e+002, 2.140212e+002
4.416982e+002, 2.138270e+002
4.421803e+002, 2.137214e+002
4.426624e+002, 2.136593e+002
4.431445e+002, 2.140224e+002
4.436266e+002, 2.152598e+002
4.441087e+002, 2.164626e+002
4.445909e+002, 2.172791e+002
4.450730e+002, 2.178820e+002
4.455551e+002, 2.186469e+002
4.460372e+002, 2.197910e+002
4.465193e+002, 2.210311e+002
4.470014e+002, 2.216790e+002
4.474836e+002, 2.215043e+002
4.479657e+002, 2.214223e+002
4.484478e+002, 2.216777e+002
4.489299e+002, 2.220232e+002
4.494120e+002, 2.222770e+002
4.498941e+002, 2.224457e+002
4.503763e+002, 2.227077e+002
4.508584e+002, 2.232107e+002
4.513405e+002, 2.239219e+002
4.518226e+002, 2.247039e+002
4.523047e+002, 2.255667e+002
4.527868e+002, 2.264581e+002
4.532690e+002, 2.275011e+002
4.537511e+002, 2.285139e+002
4.542332e+002, 2.291711e+002
4.547153e+002, 2.292408e+002
4.551974e+002, 2.292536e+002
4.556795e+002, 2.296050e+002
4.561617e+002, 2.302638e+002
4.566438e+002, 2.310901e+002
4.571259e+002, 2.320260e+002
4.576080e+002, 2.331636e+002
4.580901e+002, 2.347897e+002
4.585722e+002, 2.369077e+002
4.590544e+002, 2.387111e+002
4.595365e+002, 2.397001e+002
4.600186e+002, 2.405688e+002
4.605007e+002, 2.420410e+002
4.609828e+002, 2.440312e+002
4.614649e+002, 2.459068e+002
4.619471e+002, 2.473350e+002
4.624292e+002, 2.483101e+002
4.629113e+002, 2.488129e+002
4.633934e+002, 2.490046e+002
4.638755e+002, 2.485578e+002
4.643576e+002, 2.470356e+002
4.648398e+002, 2.450659e+002
4.653219e+002, 2.433220e+002
4.658040e+002, 2.419097e+002
4.662861e+002, 2.404620e+002
4.667682e+002, 2.385590e+002
4.672503e+002, 2.361267e+002
4.677325e+002, 2.337895e+002
4.682146e+002, 2.312536e+002
4.686967e+002, 2.291342e+002
4.691788e+002, 2.277242e+002
4.696609e+002, 2.268124e+002
4.701430e+002, 2.261653e+002
4.706252e+002, 2.256925e+002
4.711073e+002, 2.252456e+002
4.715894e+002, 2.244919e+002
4.720715e+002, 2.233013e+002
4.725536e+002, 2.223850e+002
4.730357e+002, 2.219429e+002
4.735179e+002, 2.217446e+002
4.740000e+002, 2.217629e+002
4.744821e+002, 2.219382e+002
4.749642e+002, 2.220865e+002
4.754463e+002, 2.221966e+002
4.759284e+002, 2.221727e+002
4.764106e+002, 2.216513e+002
4.768927e+002, 2.205083e+002
4.773748e+002, 2.196897e+002
4.778569e+002, 2.199684e+002
4.783390e+002, 2.206553e+002
4.788211e+002, 2.206309e+002
4.793033e+002, 2.196896e+002
4.797854e+002, 2.186328e+002
4.802675e+002, 2.177351e+002
4.807496e+002, 2.170226e+002
4.812317e+002, 2.166185e+002
4.817138e+002, 2.165574e+002
4.821959e+002, 2.165202e+002
4.826780e+002, 2.162651e+002
4.831602e+002, 2.157727e+002
4.836423e+002, 2.150060e+002
4.841244e+002, 2.136875e+002
4.846065e+002, 2.124156e+002
4.850886e+002, 2.113387e+002
4.855707e+002, 2.104885e+002
4.860529e+002, 2.099165e+002
4.865350e+002, 2.096381e+002
4.870171e+002, 2.096076e+002
4.874992e+002, 2.098062e+002
4.879813e+002, 2.105235e+002
4.884634e+002, 2.106534e+002
4.889456e+002, 2.094241e+002
4.894277e+002, 2.084437e+002
4.899098e+002, 2.087297e+002
4.903919e+002, 2.098935e+002
4.908740e+002, 2.110097e+002
4.913561e+002, 2.115643e+002
4.918383e+002, 2.115770e+002
4.923204e+002, 2.109771e+002
4.928025e+002, 2.094341e+002
4.932846e+002, 2.081993e+002
4.937667e+002, 2.078886e+002
4.942488e+002, 2.077262e+002
4.947310e+002, 2.071212e+002
4.952131e+002, 2.060881e+002
4.956952e+002, 2.051711e+002
4.961773e+002, 2.048065e+002
4.966594e+002, 2.048433e+002
4.971415e+002, 2.048845e+002
4.976237e+002, 2.049158e+002
4.981058e+002, 2.049807e+002
4.985879e+002, 2.051161e+002
4.990700e+002, 2.052981e+002
4.995521e+002, 2.054775e+002
5.000342e+002, 2.056496e+002
5.005164e+002, 2.058251e+002
5.009985e+002, 2.059262e+002
5.014806e+002, 2.060570e+002
5.019627e+002, 2.064397e+002
5.024448e+002, 2.071211e+002
5.029269e+002, 2.079140e+002
5.034091e+002, 2.086830e+002
5.038912e+002, 2.094333e+002
5.043733e+002, 2.099186e+002
5.048554e+002, 2.100206e+002
5.053375e+002, 2.100243e+002
5.058196e+002, 2.100427e+002
5.063018e+002, 2.100248e+002
5.067839e+002, 2.098730e+002
5.072660e+002, 2.095552e+002
5.077481e+002, 2.091412e+002
5.082302e+002, 2.087238e+002
5.087123e+002, 2.082723e+002
5.091945e+002, 2.079277e+002
5.096766e+002, 2.079565e+002
5.101587e+002, 2.078251e+002
5.106408e+002, 2.072604e+002
5.111229e+002, 2.063927e+002
5.116050e+002, 2.054341e+002
5.120872e+002, 2.044366e+002
5.125693e+002, 2.035726e+002
5.130514e+002, 2.032456e+002
5.135335e+002, 2.035424e+002
5.140156e+002, 2.036919e+002
5.144977e+002, 2.034179e+002
5.149799e+002, 2.030513e+002
5.154620e+002, 2.029295e+002
5.159441e+002, 2.030017e+002
5.164262e+002, 2.029168e+002
5.169083e+002, 2.023462e+002
5.173904e+002, 2.016407e+002
5.178726e+002, 2.012187e+002
5.183547e+002, 2.010812e+002
5.188368e+002, 2.011781e+002
5.193189e+002, 2.015919e+002
5.198010e+002, 2.021003e+002
5.202831e+002, 2.021336e+002
5.207653e+002, 2.015120e+002
5.212474e+002, 2.010475e+002
5.217295e+002, 2.010671e+002
5.222116e+002, 2.011649e+002
5.226937e+002, 2.009640e+002
5.231758e+002, 2.004734e+002
5.236580e+002, 1.999348e+002
5.241401e+002, 1.995212e+002
5.246222e+002, 1.992094e+002
5.251043e+002, 1.988658e+002
5.255864e+002, 1.984385e+002
5.260685e+002, 1.980601e+002
5.265507e+002, 1.976517e+002
5.270328e+002, 1.973536e+002
5.275149e+002, 1.973554e+002
5.279970e+002, 1.976290e+002
5.284791e+002, 1.979107e+002
5.289612e+002, 1.979880e+002
5.294434e+002, 1.978760e+002
5.299255e+002, 1.976390e+002
5.304076e+002, 1.972160e+002
5.308897e+002, 1.968134e+002
5.313718e+002, 1.964601e+002
5.318539e+002, 1.962041e+002
5.323361e+002, 1.961513e+002
5.328182e+002, 1.963535e+002
5.333003e+002, 1.965087e+002
5.337824e+002, 1.963161e+002
5.342645e+002, 1.959562e+002
5.347466e+002, 1.958457e+002
5.352288e+002, 1.960519e+002
5.357109e+002, 1.963044e+002
5.361930e+002, 1.963686e+002
5.366751e+002, 1.963040e+002
5.371572e+002, 1.964661e+002
5.376393e+002, 1.970181e+002
5.381215e+002, 1.975747e+002
5.386036e+002, 1.980687e+002
5.390857e+002, 1.984900e+002
5.395678e+002, 1.987609e+002
5.400499e+002, 1.988955e+002
5.405320e+002, 1.991066e+002
5.410142e+002, 1.996478e+002
5.414963e+002, 2.005342e+002
5.419784e+002, 2.012128e+002
5.424604e+002, 2.015866e+002
5.429426e+002, 2.018441e+002
5.434247e+002, 2.018943e+002
5.439068e+002, 2.019078e+002
5.443889e+002, 2.021308e+002
5.448710e+002, 2.026137e+002
5.453531e+002, 2.030627e+002
5.458353e+002, 2.031389e+002
5.463174e+002, 2.028664e+002
5.467995e+002, 2.025492e+002
5.472816e+002, 2.022547e+002
5.477637e+002, 2.018083e+002
5.482458e+002, 2.009137e+002
5.487280e+002, 1.998341e+002
5.492101e+002, 1.990257e+002
5.496922e+002, 1.987331e+002
5.501743e+002, 1.983640e+002
5.506564e+002, 1.974059e+002
5.511385e+002, 1.961275e+002
5.516207e+002, 1.950929e+002
5.521028e+002, 1.944224e+002
5.525849e+002, 1.939051e+002
5.530670e+002, 1.933770e+002
5.535491e+002, 1.928362e+002
5.540313e+002, 1.921747e+002
5.545134e+002, 1.913687e+002
5.549955e+002, 1.904934e+002
5.554776e+002, 1.893187e+002
5.559597e+002, 1.881941e+002
5.564418e+002, 1.875904e+002
5.569240e+002, 1.876044e+002
5.574061e+002, 1.879494e+002
5.578882e+002, 1.883894e+002
5.583703e+002, 1.889405e+002
5.588524e+002, 1.890472e+002
5.593345e+002, 1.884296e+002
5.598167e+002, 1.877461e+002
5.602988e+002, 1.872456e+002
5.607809e+002, 1.867983e+002
5.612630e+002, 1.861692e+002
5.617451e+002, 1.852703e+002
5.622272e+002, 1.845254e+002
5.627094e+002, 1.844360e+002
5.631915e+002, 1.848068e+002
5.636736e+002, 1.849787e+002
5.641557e+002, 1.848545e+002
5.646378e+002, 1.846322e+002
5.651199e+002, 1.843832e+002
5.656021e+002, 1.841571e+002
5.660842e+002, 1.841380e+002
5.665663e+002, 1.845757e+002
5.670484e+002, 1.848663e+002
5.675305e+002, 1.846640e+002
5.680126e+002, 1.842699e+002
5.684948e+002, 1.840898e+002
5.689769e+002, 1.841777e+002
5.694590e+002, 1.842619e+002
5.699411e+002, 1.840512e+002
5.704232e+002, 1.835797e+002
5.709053e+002, 1.835237e+002
5.713875e+002, 1.844591e+002
5.718696e+002, 1.850345e+002
5.723517e+002, 1.848687e+002
5.728338e+002, 1.843788e+002
5.733159e+002, 1.838786e+002
5.737980e+002, 1.834512e+002
5.742802e+002, 1.831341e+002
5.747623e+002, 1.830144e+002
5.752444e+002, 1.830385e+002
5.757265e+002, 1.829976e+002
5.762086e+002, 1.828992e+002
5.766907e+002, 1.826938e+002
5.771729e+002, 1.822307e+002
5.776550e+002, 1.817238e+002
5.781371e+002, 1.815120e+002
5.786192e+002, 1.816409e+002
5.791013e+002, 1.818849e+002
5.795834e+002, 1.823052e+002
5.800656e+002, 1.827099e+002
5.805477e+002, 1.828316e+002
5.810298e+002, 1.826894e+002
5.815119e+002, 1.825260e+002
5.819940e+002, 1.824832e+002
5.824761e+002, 1.825545e+002
5.829583e+002, 1.827194e+002
5.834404e+002, 1.830125e+002
5.839225e+002, 1.833537e+002
5.844046e+002, 1.838484e+002
5.848867e+002, 1.842978e+002
5.853688e+002, 1.845693e+002
5.858510e+002, 1.846746e+002
5.863331e+002, 1.846935e+002
5.868152e+002, 1.846690e+002
5.872973e+002, 1.846012e+002
5.877794e+002, 1.844791e+002
5.882615e+002, 1.842928e+002
5.887437e+002, 1.841165e+002
5.892258e+002, 1.839661e+002
5.897079e+002, 1.838338e+002
5.901900e+002, 1.837123e+002
5.906721e+002, 1.836023e+002
5.911542e+002, 1.835072e+002
5.916364e+002, 1.834467e+002
5.921185e+002, 1.833884e+002
5.926006e+002, 1.832621e+002
5.930827e+002, 1.831145e+002
5.935648e+002, 1.831418e+002
5.940469e+002, 1.834356e+002
5.945291e+002, 1.837022e+002
5.950112e+002, 1.834541e+002
5.954933e+002, 1.824243e+002
5.959754e+002, 1.821257e+002
5.964575e+002, 1.833341e+002
5.969396e+002, 1.843021e+002
5.974218e+002, 1.841766e+002
5.979039e+002, 1.835161e+002
5.983860e+002, 1.831638e+002
5.988681e+002, 1.834032e+002
5.993502e+002, 1.838524e+002
5.998323e+002, 1.840041e+002
6.003145e+002, 1.838766e+002
6.007966e+002, 1.840489e+002
6.012787e+002, 1.847421e+002
6.017608e+002, 1.853092e+002
6.022429e+002, 1.851891e+002
6.027250e+002, 1.847601e+002
6.032072e+002, 1.846152e+002
6.036893e+002, 1.849214e+002
6.041714e+002, 1.852154e+002
6.046535e+002, 1.853337e+002
6.051356e+002, 1.852649e+002
6.056177e+002, 1.847894e+002
6.060999e+002, 1.839710e+002
6.065820e+002, 1.835416e+002
6.070641e+002, 1.841015e+002
6.075462e+002, 1.853960e+002
6.080283e+002, 1.862762e+002
6.085104e+002, 1.863945e+002
6.089926e+002, 1.865728e+002
6.094747e+002, 1.869329e+002
6.099568e+002, 1.872893e+002
6.104389e+002, 1.874944e+002
6.109210e+002, 1.875708e+002
6.114031e+002, 1.876264e+002
6.118853e+002, 1.876961e+002
6.123674e+002, 1.878419e+002
6.128495e+002, 1.881807e+002
6.133316e+002, 1.887142e+002
6.138137e+002, 1.895023e+002
6.142958e+002, 1.908084e+002
6.147780e+002, 1.920503e+002
6.152601e+002, 1.925169e+002
6.157422e+002, 1.923468e+002
6.162243e+002, 1.923479e+002
6.167064e+002, 1.927275e+002
6.171885e+002, 1.932811e+002
6.176707e+002, 1.940090e+002
6.181528e+002, 1.947915e+002
6.186349e+002, 1.952986e+002
6.191170e+002, 1.954498e+002
6.195991e+002, 1.957010e+002
6.200812e+002, 1.966577e+002
6.205634e+002, 1.984010e+002
6.210455e+002, 1.996627e+002
6.215276e+002, 1.999633e+002
6.220097e+002, 2.003561e+002
6.224918e+002, 2.010517e+002
6.229739e+002, 2.019435e+002
6.234561e+002, 2.029058e+002
6.239382e+002, 2.039145e+002
6.244203e+002, 2.050557e+002
6.249023e+002, 2.064415e+002
6.253845e+002, 2.080022e+002
6.258666e+002, 2.095652e+002
6.263487e+002, 2.111344e+002
6.268308e+002, 2.126507e+002
6.273129e+002, 2.140938e+002
6.277950e+002, 2.154716e+002
6.282772e+002, 2.167372e+002
6.287593e+002, 2.177705e+002
6.292414e+002, 2.192106e+002
6.297235e+002, 2.213964e+002
6.302056e+002, 2.238026e+002
6.306877e+002, 2.261074e+002
6.311699e+002, 2.283388e+002
6.316520e+002, 2.306325e+002
6.321341e+002, 2.330400e+002
6.326162e+002, 2.355732e+002
6.330983e+002, 2.383625e+002
6.335804e+002, 2.415966e+002
6.340626e+002, 2.441334e+002
6.345447e+002, 2.453102e+002
6.350268e+002, 2.466179e+002
6.355089e+002, 2.486582e+002
6.359910e+002, 2.512413e+002
6.364731e+002, 2.541223e+002
6.369553e+002, 2.572711e+002
6.374374e+002, 2.605400e+002
6.379195e+002, 2.637473e+002
6.384016e+002, 2.669981e+002
6.388837e+002, 2.706706e+002
6.393658e+002, 2.747654e+002
6.398480e+002, 2.786554e+002
6.403301e+002, 2.818765e+002
6.408122e+002, 2.846469e+002
6.412943e+002, 2.877360e+002
6.417764e+002, 2.915810e+002
6.422585e+002, 2.950785e+002
6.427407e+002, 2.982921e+002
6.432228e+002, 3.010958e+002
6.437049e+002, 3.032238e+002
6.441870e+002, 3.048900e+002
6.446691e+002, 3.067315e+002
6.451512e+002, 3.091767e+002
6.456334e+002, 3.114588e+002
6.461155e+002, 3.122079e+002
6.465976e+002, 3.114360e+002
6.470797e+002, 3.104359e+002
6.475618e+002, 3.093652e+002
6.480439e+002, 3.081706e+002
6.485261e+002, 3.068192e+002
6.490082e+002, 3.053080e+002
6.494903e+002, 3.036516e+002
6.499724e+002, 3.017019e+002
6.504545e+002, 2.998401e+002
6.509366e+002, 2.980703e+002
6.514188e+002, 2.965538e+002
6.519009e+002, 2.954667e+002
6.523830e+002, 2.948421e+002
6.528651e+002, 2.946766e+002
6.533472e+002, 2.949794e+002
6.538293e+002, 2.957097e+002
6.543115e+002, 2.967373e+002
6.547936e+002, 2.980814e+002
6.552757e+002, 2.996667e+002
6.557578e+002, 3.018690e+002
6.562399e+002, 3.039791e+002
6.567220e+002, 3.054302e+002
6.572042e+002, 3.064493e+002
6.576863e+002, 3.077986e+002
6.581684e+002, 3.100935e+002
6.586505e+002, 3.123059e+002
6.591326e+002, 3.135955e+002
6.596147e+002, 3.140219e+002
6.600969e+002, 3.137545e+002
6.605790e+002, 3.128278e+002
6.610611e+002, 3.112202e+002
6.615432e+002, 3.088599e+002
6.620253e+002, 3.057815e+002
6.625074e+002, 3.024106e+002
6.629896e+002, 2.992811e+002
6.634717e+002, 2.951254e+002
6.639538e+002, 2.892028e+002
6.644359e+002, 2.826775e+002
6.649180e+002, 2.762462e+002
6.654001e+002, 2.700641e+002
6.658823e+002, 2.641875e+002
6.663644e+002, 2.586776e+002
6.668465e+002, 2.533791e+002
6.673286e+002, 2.477829e+002
6.678107e+002, 2.419150e+002
6.682928e+002, 2.367043e+002
6.687750e+002, 2.324241e+002
6.692571e+002, 2.287509e+002
6.697392e+002, 2.255632e+002
6.702213e+002, 2.228195e+002
6.707034e+002, 2.201091e+002
6.711855e+002, 2.171952e+002
6.716677e+002, 2.145968e+002
6.721498e+002, 2.128294e+002
6.726319e+002, 2.112773e+002
6.731140e+002, 2.090713e+002
6.735961e+002, 2.062696e+002
6.740782e+002, 2.037982e+002
6.745604e+002, 2.024316e+002
6.750425e+002, 2.017789e+002
6.755246e+002, 2.004581e+002
6.760067e+002, 1.982290e+002
6.764888e+002, 1.964089e+002
6.769709e+002, 1.953549e+002
6.774531e+002, 1.946753e+002
6.779352e+002, 1.942057e+002
6.784173e+002, 1.938547e+002
6.788994e+002, 1.932752e+002
6.793815e+002, 1.920746e+002
6.798636e+002, 1.910321e+002
6.803458e+002, 1.908185e+002
6.808279e+002, 1.909790e+002
6.813100e+002, 1.907973e+002
6.817921e+002, 1.901580e+002
6.822742e+002, 1.893415e+002
6.827563e+002, 1.885608e+002
6.832385e+002, 1.878113e+002
6.837206e+002, 1.870389e+002
6.842027e+002, 1.861030e+002
6.846848e+002, 1.854527e+002
6.851669e+002, 1.853154e+002
6.856490e+002, 1.853374e+002
6.861312e+002, 1.854306e+002
6.866133e+002, 1.855207e+002
6.870954e+002, 1.854068e+002
6.875775e+002, 1.848500e+002
6.880596e+002, 1.843586e+002
6.885417e+002, 1.845186e+002
6.890239e+002, 1.850677e+002
6.895060e+002, 1.854001e+002
6.899881e+002, 1.854080e+002
6.904702e+002, 1.852776e+002
6.909523e+002, 1.851324e+002
6.914344e+002, 1.849883e+002
6.919166e+002, 1.849290e+002
6.923987e+002, 1.851008e+002
6.928808e+002, 1.851202e+002
6.933629e+002, 1.848767e+002
6.938450e+002, 1.845718e+002
6.943271e+002, 1.842375e+002
6.948093e+002, 1.839467e+002
6.952914e+002, 1.838439e+002
6.957735e+002, 1.840037e+002
6.962556e+002, 1.843320e+002
6.967377e+002, 1.849427e+002
6.972198e+002, 1.856498e+002
6.977020e+002, 1.856907e+002
6.981841e+002, 1.849108e+002
6.986662e+002, 1.840500e+002
6.991483e+002, 1.836262e+002
6.996304e+002, 1.835218e+002
7.001125e+002, 1.832970e+002
7.005947e+002, 1.829416e+002
7.010768e+002, 1.824777e+002
7.015589e+002, 1.817230e+002
7.020410e+002, 1.810319e+002
7.025231e+002, 1.806863e+002
7.030052e+002, 1.805678e+002
7.034874e+002, 1.803737e+002
7.039695e+002, 1.799661e+002
7.044516e+002, 1.795455e+002
7.049337e+002, 1.794277e+002
7.054158e+002, 1.795319e+002
7.058979e+002, 1.794324e+002
7.063801e+002, 1.790628e+002
7.068622e+002, 1.786778e+002
7.073442e+002, 1.784213e+002
7.078264e+002, 1.782478e+002
7.083085e+002, 1.780320e+002
7.087906e+002, 1.777030e+002
7.092727e+002, 1.775087e+002
7.097548e+002, 1.775721e+002
7.102369e+002, 1.776670e+002
7.107191e+002, 1.776950e+002
7.112012e+002, 1.776478e+002
7.116833e+002, 1.775308e+002
7.121654e+002, 1.773454e+002
7.126475e+002, 1.771006e+002
7.131296e+002, 1.767486e+002
7.136118e+002, 1.763318e+002
7.140939e+002, 1.760971e+002
7.145760e+002, 1.760780e+002
7.150581e+002, 1.761025e+002
7.155402e+002, 1.761620e+002
7.160223e+002, 1.761549e+002
7.165045e+002, 1.758531e+002
7.169866e+002, 1.751916e+002
7.174687e+002, 1.746685e+002
7.179508e+002, 1.744469e+002
7.184329e+002, 1.742439e+002
7.189150e+002, 1.739631e+002
7.193972e+002, 1.735933e+002
7.198793e+002, 1.730396e+002
7.203614e+002, 1.723240e+002
7.208435e+002, 1.717634e+002
7.213256e+002, 1.717892e+002
7.218077e+002, 1.721936e+002
7.222899e+002, 1.720366e+002
7.227720e+002, 1.712071e+002
7.232541e+002, 1.707596e+002
7.237362e+002, 1.711789e+002
7.242183e+002, 1.718899e+002
7.247004e+002, 1.722801e+002
7.251826e+002, 1.723547e+002
7.256647e+002, 1.722331e+002
7.261468e+002, 1.716327e+002
7.266289e+002, 1.711852e+002
7.271110e+002, 1.712063e+002
7.275931e+002, 1.714488e+002
7.280753e+002, 1.716747e+002
7.285574e+002, 1.718282e+002
7.290395e+002, 1.719219e+002
7.295216e+002, 1.719536e+002
7.300037e+002, 1.719527e+002
7.304858e+002, 1.720372e+002
7.309680e+002, 1.722172e+002
7.314501e+002, 1.721368e+002
7.319322e+002, 1.716185e+002
7.324143e+002, 1.710780e+002
7.328964e+002, 1.708500e+002
7.333785e+002, 1.708932e+002
7.338607e+002, 1.709472e+002
7.343428e+002, 1.710248e+002
7.348249e+002, 1.710917e+002
7.353070e+002, 1.711682e+002
7.357891e+002, 1.712090e+002
7.362712e+002, 1.710906e+002
7.367534e+002, 1.709053e+002
7.372355e+002, 1.709200e+002
7.377176e+002, 1.712808e+002
7.381997e+002, 1.717628e+002
7.386818e+002, 1.721206e+002
7.391639e+002, 1.723338e+002
7.396461e+002, 1.720977e+002
7.401282e+002, 1.712536e+002
7.406103e+002, 1.705960e+002
7.410924e+002, 1.706626e+002
7.415745e+002, 1.711315e+002
7.420566e+002, 1.712860e+002
7.425388e+002, 1.710423e+002
7.430209e+002, 1.708114e+002
7.435030e+002, 1.705085e+002
7.439851e+002, 1.703484e+002
7.444672e+002, 1.706091e+002
7.449493e+002, 1.710249e+002
7.454315e+002, 1.711087e+002
7.459136e+002, 1.707605e+002
7.463957e+002, 1.704713e+002
7.468778e+002, 1.708805e+002
7.473599e+002, 1.716906e+002
7.478420e+002, 1.718912e+002
7.483242e+002, 1.714643e+002
7.488063e+002, 1.712028e+002
7.492884e+002, 1.714350e+002
7.497705e+002, 1.717666e+002
7.502526e+002, 1.716878e+002
7.507347e+002, 1.711611e+002
7.512169e+002, 1.709548e+002
7.516990e+002, 1.713853e+002
7.521811e+002, 1.716972e+002
7.526632e+002, 1.715896e+002
7.531453e+002, 1.713930e+002
7.536274e+002, 1.714570e+002
7.541096e+002, 1.717429e+002
7.545917e+002, 1.719288e+002
7.550738e+002, 1.717913e+002
7.555559e+002, 1.715583e+002
7.560380e+002, 1.715109e+002
7.565201e+002, 1.716407e+002
7.570023e+002, 1.719755e+002
7.574844e+002, 1.725394e+002
7.579665e+002, 1.729951e+002
7.584486e+002, 1.730541e+002
7.589307e+002, 1.728737e+002
7.594128e+002, 1.729850e+002
7.598950e+002, 1.735385e+002
7.603771e+002, 1.741191e+002
7.608592e+002, 1.749371e+002
7.613413e+002, 1.755564e+002
7.618234e+002, 1.755075e+002
7.623055e+002, 1.752166e+002
7.627877e+002, 1.753916e+002
7.632698e+002, 1.762388e+002
7.637519e+002, 1.772473e+002
7.642340e+002, 1.780376e+002
7.647161e+002, 1.787512e+002
7.651982e+002, 1.797769e+002
7.656804e+002, 1.810007e+002
7.661625e+002, 1.816367e+002
7.666446e+002, 1.813510e+002
7.671267e+002, 1.808093e+002
7.676088e+002, 1.808570e+002
7.680909e+002, 1.815073e+002
7.685731e+002, 1.824673e+002
7.690552e+002, 1.839932e+002
7.695373e+002, 1.854174e+002
7.700194e+002, 1.867322e+002
7.705015e+002, 1.877905e+002
7.709836e+002, 1.882845e+002
7.714658e+002, 1.883464e+002
7.719479e+002, 1.886337e+002
7.724300e+002, 1.894530e+002
7.729121e+002, 1.904582e+002
7.733942e+002, 1.914807e+002
7.738763e+002, 1.924997e+002
7.743585e+002, 1.934019e+002
7.748406e+002, 1.942310e+002
7.753227e+002, 1.953171e+002
7.758048e+002, 1.969220e+002
7.762869e+002, 1.987427e+002
7.767690e+002, 2.000096e+002
7.772512e+002, 2.006278e+002
7.777333e+002, 2.013620e+002
7.782154e+002, 2.023217e+002
7.786975e+002, 2.032922e+002
7.791796e+002, 2.042269e+002
7.796617e+002, 2.050653e+002
7.801439e+002, 2.056370e+002
7.806260e+002, 2.058460e+002
7.811081e+002, 2.062652e+002
7.815902e+002, 2.074387e+002
7.820723e+002, 2.084561e+002
7.825544e+002, 2.085610e+002
7.830366e+002, 2.081663e+002
7.835187e+002, 2.080211e+002
7.840008e+002, 2.082987e+002
7.844829e+002, 2.085753e+002
7.849650e+002, 2.084181e+002
7.854471e+002, 2.079883e+002
7.859293e+002, 2.077531e+002
7.864114e+002, 2.077143e+002
7.868935e+002, 2.078235e+002
7.873756e+002, 2.081132e+002
7.878577e+002, 2.084169e+002
7.883398e+002, 2.085810e+002
7.888220e+002, 2.086208e+002
7.893040e+002, 2.086550e+002
7.897861e+002, 2.088230e+002
7.902682e+002, 2.087885e+002
7.907504e+002, 2.083728e+002
7.912325e+002, 2.078916e+002
7.917146e+002, 2.074118e+002
7.921967e+002, 2.070542e+002
7.926788e+002, 2.070144e+002
7.931609e+002, 2.073707e+002
7.936431e+002, 2.079909e+002
7.941252e+002, 2.089254e+002
7.946073e+002, 2.099761e+002
7.950894e+002, 2.107319e+002
7.955715e+002, 2.112125e+002
7.960536e+002, 2.116765e+002
7.965358e+002, 2.122290e+002
7.970179e+002, 2.128537e+002
7.975000e+002, 2.135713e+002
7.979821e+002, 2.144030e+002
7.984642e+002, 2.148291e+002
7.989464e+002, 2.145757e+002
7.994285e+002, 2.144145e+002
7.999106e+002, 2.145874e+002
8.003927e+002, 2.148809e+002
8.008748e+002, 2.152896e+002
8.013569e+002, 2.157197e+002
8.018391e+002, 2.157599e+002
8.023212e+002, 2.151975e+002
8.028033e+002, 2.143852e+002
8.032854e+002, 2.134036e+002
8.037675e+002, 2.123423e+002
8.042496e+002, 2.112531e+002
8.047318e+002, 2.101872e+002
8.052139e+002, 2.092578e+002
8.056960e+002, 2.085405e+002
8.061781e+002, 2.079015e+002
8.066602e+002, 2.071180e+002
8.071423e+002, 2.062029e+002
8.076245e+002, 2.053832e+002
8.081066e+002, 2.047002e+002
8.085887e+002, 2.039019e+002
8.090708e+002, 2.027837e+002
8.095529e+002, 2.016226e+002
8.100350e+002, 2.008395e+002
8.105172e+002, 2.004856e+002
8.109993e+002, 2.002155e+002
8.114814e+002, 2.000196e+002
8.119635e+002, 1.999190e+002
8.124456e+002, 1.999035e+002
8.129277e+002, 1.999987e+002
8.134099e+002, 2.004249e+002
8.138920e+002, 2.010233e+002
8.143741e+002, 2.011352e+002
8.148562e+002, 2.001931e+002
8.153383e+002, 1.991528e+002
8.158204e+002, 1.990866e+002
8.163026e+002, 1.996612e+002
8.167847e+002, 2.000522e+002
8.172668e+002, 2.002222e+002
8.177489e+002, 2.008872e+002
8.182310e+002, 2.025206e+002
8.187131e+002, 2.044904e+002
8.191953e+002, 2.054773e+002
8.196774e+002, 2.052460e+002
8.201595e+002, 2.055069e+002
8.206416e+002, 2.063099e+002
8.211237e+002, 2.075271e+002
8.216058e+002, 2.095404e+002
8.220880e+002, 2.116409e+002
8.225701e+002, 2.128976e+002
8.230522e+002, 2.133430e+002
8.235343e+002, 2.141087e+002
8.240164e+002, 2.154995e+002
8.244985e+002, 2.171494e+002
8.249807e+002, 2.190777e+002
8.254628e+002, 2.210742e+002
8.259449e+002, 2.228649e+002
8.264270e+002, 2.244814e+002
8.269091e+002, 2.261590e+002
8.273912e+002, 2.280388e+002
8.278734e+002, 2.300372e+002
8.283555e+002, 2.320090e+002
8.288376e+002, 2.339975e+002
8.293197e+002, 2.362208e+002
8.298018e+002, 2.386865e+002
8.302839e+002, 2.412772e+002
8.307661e+002, 2.440403e+002
8.312482e+002, 2.465467e+002
8.317303e+002, 2.480462e+002
8.322124e+002, 2.483752e+002
8.326945e+002, 2.488414e+002
8.331766e+002, 2.496277e+002
8.336588e+002, 2.502793e+002
8.341409e+002, 2.508937e+002
8.346230e+002, 2.511832e+002
8.351051e+002, 2.508004e+002
8.355872e+002, 2.498447e+002
8.360693e+002, 2.488555e+002
8.365515e+002, 2.481075e+002
8.370336e+002, 2.471802e+002
8.375157e+002, 2.455937e+002
8.379978e+002, 2.438667e+002
8.384799e+002, 2.426653e+002
8.389620e+002, 2.419034e+002
8.394442e+002, 2.410238e+002
8.399263e+002, 2.397631e+002
8.404084e+002, 2.385498e+002
8.408905e+002, 2.380441e+002
8.413726e+002, 2.381326e+002
8.418547e+002, 2.383157e+002
8.423369e+002, 2.386257e+002
8.428190e+002, 2.382254e+002
8.433011e+002, 2.365538e+002
8.437832e+002, 2.348155e+002
8.442653e+002, 2.345078e+002
8.447474e+002, 2.355860e+002
8.452296e+002, 2.361832e+002
8.457117e+002, 2.356090e+002
8.461938e+002, 2.355654e+002
8.466759e+002, 2.363315e+002
8.471580e+002, 2.375273e+002
8.476401e+002, 2.391944e+002
8.481223e+002, 2.410590e+002
8.486044e+002, 2.424619e+002
8.490865e+002, 2.430396e+002
8.495686e+002, 2.440362e+002
8.500507e+002, 2.464438e+002
8.505328e+002, 2.493507e+002
8.510150e+002, 2.519826e+002
8.514971e+002, 2.543301e+002
8.519792e+002, 2.564974e+002
8.524613e+002, 2.585215e+002
8.529434e+002, 2.604648e+002
8.534255e+002, 2.621986e+002
8.539077e+002, 2.640288e+002
8.543898e+002, 2.670539e+002
8.548719e+002, 2.712776e+002
8.553540e+002, 2.754525e+002
8.558361e+002, 2.793405e+002
8.563182e+002, 2.829916e+002
8.568004e+002, 2.862602e+002
8.572825e+002, 2.894179e+002
8.577646e+002, 2.934360e+002
8.582467e+002, 2.990433e+002
8.587288e+002, 3.038960e+002
8.592109e+002, 3.075746e+002
8.596931e+002, 3.110081e+002
8.601752e+002, 3.142885e+002
8.606573e+002, 3.176505e+002
8.611394e+002, 3.215762e+002
8.616215e+002, 3.260573e+002
8.621036e+002, 3.299857e+002
8.625858e+002, 3.329713e+002
8.630679e+002, 3.352573e+002
8.635500e+002, 3.368732e+002
8.640321e+002, 3.379640e+002
8.645142e+002, 3.385706e+002
8.649963e+002, 3.388208e+002
8.654785e+002, 3.391613e+002
8.659606e+002, 3.399146e+002
8.664427e+002, 3.404030e+002
8.669248e+002, 3.393781e+002
8.674069e+002, 3.371137e+002
8.678890e+002, 3.351785e+002
8.683712e+002, 3.336905e+002
8.688533e+002, 3.315757e+002
8.693354e+002, 3.283345e+002
8.698175e+002, 3.244064e+002
8.702996e+002, 3.203291e+002
8.707817e+002, 3.160911e+002
8.712639e+002, 3.121476e+002
8.717459e+002, 3.087031e+002
8.722280e+002, 3.051917e+002
8.727101e+002, 3.013026e+002
8.731923e+002, 2.975589e+002
8.736744e+002, 2.942943e+002
8.741565e+002, 2.914312e+002
8.746386e+002, 2.886531e+002
8.751207e+002, 2.857892e+002
8.756028e+002, 2.834523e+002
8.760850e+002, 2.825120e+002
8.765671e+002, 2.815604e+002
8.770492e+002, 2.792943e+002
8.775313e+002, 2.763778e+002
8.780134e+002, 2.740264e+002
8.784955e+002, 2.725013e+002
8.789777e+002, 2.711599e+002
8.794598e+002, 2.693846e+002
8.799419e+002, 2.676491e+002
8.804240e+002, 2.668507e+002
8.809061e+002, 2.667673e+002
8.813882e+002, 2.666371e+002
8.818704e+002, 2.663301e+002
8.823525e+002, 2.658731e+002
8.828346e+002, 2.652479e+002
8.833167e+002, 2.646432e+002
8.837988e+002, 2.645717e+002
8.842809e+002, 2.651936e+002
8.847631e+002, 2.650730e+002
8.852452e+002, 2.638740e+002
8.857273e+002, 2.627632e+002
8.862094e+002, 2.622316e+002
8.866915e+002, 2.618640e+002
8.871736e+002, 2.609402e+002
8.876558e+002, 2.595609e+002
8.881379e+002, 2.592432e+002
8.886200e+002, 2.606751e+002
8.891021e+002, 2.622561e+002
8.895842e+002, 2.639013e+002
8.900663e+002, 2.654386e+002
8.905485e+002, 2.665998e+002
8.910306e+002, 2.676055e+002
8.915127e+002, 2.688933e+002
8.919948e+002, 2.706003e+002
8.924769e+002, 2.723924e+002
8.929590e+002, 2.738015e+002
8.934412e+002, 2.754099e+002
8.939233e+002, 2.781474e+002
8.944054e+002, 2.814786e+002
8.948875e+002, 2.841274e+002
8.953696e+002, 2.859151e+002
8.958517e+002, 2.877361e+002
8.963339e+002, 2.902296e+002
8.968160e+002, 2.931934e+002
8.972981e+002, 2.965504e+002
8.977802e+002, 3.001510e+002
8.982623e+002, 3.025463e+002
8.987444e+002, 3.035541e+002
8.992266e+002, 3.039322e+002
8.997087e+002, 3.040771e+002
9.001908e+002, 3.036499e+002
9.006729e+002, 3.021035e+002
9.011550e+002, 2.994010e+002
9.016371e+002, 2.964104e+002
9.021193e+002, 2.933550e+002
9.026014e+002, 2.895625e+002
9.030835e+002, 2.845947e+002
9.035656e+002, 2.791363e+002
9.040477e+002, 2.734370e+002
9.045298e+002, 2.676493e+002
9.050120e+002, 2.622293e+002
9.054941e+002, 2.572877e+002
9.059762e+002, 2.525941e+002
9.064583e+002, 2.480806e+002
9.069404e+002, 2.438410e+002
9.074225e+002, 2.401548e+002
9.079047e+002, 2.367153e+002
9.083868e+002, 2.329657e+002
9.088689e+002, 2.289291e+002
9.093510e+002, 2.252543e+002
9.098331e+002, 2.223977e+002
9.103152e+002, 2.199808e+002
9.107974e+002, 2.176229e+002
9.112795e+002, 2.154099e+002
9.117616e+002, 2.135446e+002
9.122437e+002, 2.120115e+002
9.127258e+002, 2.106589e+002
9.132079e+002, 2.094165e+002
9.136901e+002, 2.081474e+002
9.141722e+002, 2.065994e+002
9.146543e+002, 2.048544e+002
9.151364e+002, 2.033172e+002
9.156185e+002, 2.019843e+002
9.161006e+002, 2.009749e+002
9.165828e+002, 2.004082e+002
9.170649e+002, 1.997092e+002
9.175470e+002, 1.983681e+002
9.180291e+002, 1.965388e+002
9.185112e+002, 1.947780e+002
9.189933e+002, 1.931222e+002
9.194755e+002, 1.913964e+002
9.199576e+002, 1.894058e+002
9.204397e+002, 1.876302e+002
9.209218e+002, 1.863997e+002
9.214039e+002, 1.853901e+002
9.218860e+002, 1.842144e+002
9.223682e+002, 1.828858e+002
9.228503e+002, 1.818342e+002
9.233324e+002, 1.814924e+002
9.238145e+002, 1.809295e+002
9.242966e+002, 1.796699e+002
9.247787e+002, 1.782860e+002
9.252609e+002, 1.772070e+002
9.257430e+002, 1.763709e+002
9.262251e+002, 1.755257e+002
9.267072e+002, 1.745906e+002
9.271893e+002, 1.738799e+002
9.276714e+002, 1.736845e+002
9.281536e+002, 1.737409e+002
9.286357e+002, 1.738482e+002
9.291178e+002, 1.739804e+002
9.295999e+002, 1.741562e+002
9.300820e+002, 1.743411e+002
9.305641e+002, 1.743935e+002
9.310463e+002, 1.742337e+002
9.315284e+002, 1.738405e+002
9.320105e+002, 1.729176e+002
9.324926e+002, 1.717212e+002
9.329747e+002, 1.714663e+002
9.334568e+002, 1.721595e+002
9.339390e+002, 1.727783e+002
9.344211e+002, 1.729439e+002
9.349032e+002, 1.728855e+002
9.353853e+002, 1.727974e+002
9.358674e+002, 1.727370e+002
9.363495e+002, 1.731442e+002
9.368317e+002, 1.742498e+002
9.373138e+002, 1.747551e+002
9.377959e+002, 1.742303e+002
9.382780e+002, 1.737292e+002
9.387601e+002, 1.738851e+002
9.392422e+002, 1.743681e+002
9.397244e+002, 1.745477e+002
9.402065e+002, 1.743070e+002
9.406886e+002, 1.744424e+002
9.411707e+002, 1.751775e+002
9.416528e+002, 1.759647e+002
9.421349e+002, 1.764791e+002
9.426171e+002, 1.772093e+002
9.430992e+002, 1.787694e+002
9.435813e+002, 1.808038e+002
9.440634e+002, 1.822989e+002
9.445455e+002, 1.828586e+002
9.450276e+002, 1.836627e+002
9.455098e+002, 1.853732e+002
9.459919e+002, 1.872136e+002
9.464740e+002, 1.886185e+002
9.469561e+002, 1.898514e+002
9.474382e+002, 1.912728e+002
9.479203e+002, 1.929322e+002
9.484025e+002, 1.947221e+002
9.488846e+002, 1.966075e+002
9.493667e+002, 1.985477e+002
9.498488e+002, 2.004041e+002
9.503309e+002, 2.023575e+002
9.508130e+002, 2.048270e+002
9.512952e+002, 2.076689e+002
9.517773e+002, 2.102887e+002
9.522594e+002, 2.125193e+002
9.527415e+002, 2.148957e+002
9.532236e+002, 2.179561e+002
9.537057e+002, 2.215196e+002
9.541878e+002, 2.252128e+002
9.546699e+002, 2.290280e+002
9.551520e+002, 2.329975e+002
9.556342e+002, 2.371448e+002
9.561163e+002, 2.410193e+002
9.565984e+002, 2.443960e+002
9.570805e+002, 2.474177e+002
9.575626e+002, 2.503763e+002
9.580447e+002, 2.532753e+002
9.585269e+002, 2.551674e+002
9.590090e+002, 2.560814e+002
9.594911e+002, 2.558794e+002
9.599732e+002, 2.544755e+002
9.604553e+002, 2.520559e+002
9.609374e+002, 2.485519e+002
9.614196e+002, 2.442720e+002
9.619017e+002, 2.400709e+002
9.623838e+002, 2.359827e+002
9.628659e+002, 2.318717e+002
9.633480e+002, 2.275443e+002
9.638301e+002, 2.234721e+002
9.643123e+002, 2.195492e+002
9.647944e+002, 2.161145e+002
9.652765e+002, 2.135626e+002
9.657586e+002, 2.117662e+002
9.662407e+002, 2.101160e+002
9.667228e+002, 2.083957e+002
9.672050e+002, 2.070929e+002
9.676871e+002, 2.064507e+002
9.681692e+002, 2.061034e+002
9.686513e+002, 2.058573e+002
9.691334e+002, 2.057752e+002
9.696155e+002, 2.059680e+002
9.700977e+002, 2.064408e+002
9.705798e+002, 2.071194e+002
9.710619e+002, 2.081359e+002
9.715440e+002, 2.090839e+002
9.720261e+002, 2.098468e+002
9.725082e+002, 2.103050e+002
9.729904e+002, 2.103835e+002
9.734725e+002, 2.100307e+002
9.739546e+002, 2.091255e+002
9.744367e+002, 2.076544e+002
9.749188e+002, 2.058273e+002
9.754009e+002, 2.037436e+002
9.758831e+002, 2.014752e+002
9.763652e+002, 1.991242e+002
9.768473e+002, 1.966614e+002
9.773294e+002, 1.938844e+002
9.778115e+002, 1.908629e+002
9.782936e+002, 1.880861e+002
9.787758e+002, 1.857697e+002
9.792579e+002, 1.837033e+002
9.797400e+002, 1.815819e+002
9.802221e+002, 1.795044e+002
9.807042e+002, 1.779064e+002
9.811863e+002, 1.767472e+002
9.816685e+002, 1.756841e+002
9.821506e+002, 1.746548e+002
9.826327e+002, 1.736892e+002
9.831148e+002, 1.728170e+002
9.835969e+002, 1.719951e+002
9.840790e+002, 1.710852e+002
9.845612e+002, 1.700856e+002
9.850433e+002, 1.695434e+002
9.855254e+002, 1.695536e+002
9.860075e+002, 1.694056e+002
9.864896e+002, 1.687946e+002
9.869717e+002, 1.683844e+002
9.874539e+002, 1.688174e+002
9.879360e+002, 1.697667e+002
9.884181e+002, 1.701914e+002
9.889002e+002, 1.699332e+002
9.893823e+002, 1.696804e+002
9.898644e+002, 1.693116e+002
9.903466e+002, 1.691867e+002
9.908287e+002, 1.695001e+002
9.913108e+002, 1.700150e+002
9.917929e+002, 1.705779e+002
9.922750e+002, 1.711606e+002
9.927571e+002, 1.715781e+002
9.932393e+002, 1.715894e+002
9.937214e+002, 1.718706e+002
9.942035e+002, 1.726815e+002
9.946856e+002, 1.734695e+002
9.951677e+002, 1.739899e+002
9.956498e+002, 1.744031e+002
9.961320e+002, 1.749392e+002
9.966141e+002, 1.755636e+002
9.970962e+002, 1.759442e+002
9.975783e+002, 1.758592e+002
9.980604e+002, 1.757882e+002
9.985425e+002, 1.757616e+002
9.990247e+002, 1.758760e+002
9.995068e+002, 1.764070e+002
9.999889e+002, 1.770027e+002
1.000471e+003, 1.771069e+002
1.000953e+003, 1.766959e+002
1.001435e+003, 1.763167e+002
1.001917e+003, 1.762307e+002
1.002399e+003, 1.761716e+002
1.002882e+003, 1.760397e+002
1.003364e+003, 1.758301e+002
1.003846e+003, 1.755167e+002
1.004328e+003, 1.751282e+002
1.004810e+003, 1.747628e+002
1.005292e+003, 1.744200e+002
1.005774e+003, 1.738641e+002
1.006256e+003, 1.727447e+002
1.006739e+003, 1.716183e+002
1.007221e+003, 1.709635e+002
1.007703e+003, 1.706593e+002
1.008185e+003, 1.708674e+002
1.008667e+003, 1.712390e+002
1.009149e+003, 1.707369e+002
1.009631e+003, 1.690729e+002
1.010113e+003, 1.673642e+002
1.010595e+003, 1.665659e+002
1.011078e+003, 1.663294e+002
1.011560e+003, 1.663172e+002
1.012042e+003, 1.664033e+002
1.012524e+003, 1.662178e+002
1.013006e+003, 1.658025e+002
1.013488e+003, 1.656261e+002
1.013970e+003, 1.658820e+002
1.014452e+003, 1.660808e+002
1.014935e+003, 1.656013e+002
1.015417e+003, 1.647140e+002
1.015899e+003, 1.640926e+002
1.016381e+003, 1.636802e+002
1.016863e+003, 1.631315e+002
1.017345e+003, 1.624397e+002
1.017827e+003, 1.621871e+002
1.018309e+003, 1.627025e+002
1.018791e+003, 1.632875e+002
1.019274e+003, 1.628835e+002
1.019756e+003, 1.617464e+002
1.020238e+003, 1.611604e+002
1.020720e+003, 1.611046e+002
1.021202e+003, 1.608857e+002
1.021684e+003, 1.603651e+002
1.022166e+003, 1.600896e+002
1.022648e+003, 1.604176e+002
1.023130e+003, 1.609456e+002
1.023613e+003, 1.610051e+002
1.024095e+003, 1.606281e+002
1.024577e+003, 1.603726e+002
1.025059e+003, 1.602593e+002
1.025541e+003, 1.601028e+002
1.026023e+003, 1.598810e+002
1.026505e+003, 1.595102e+002
1.026987e+003, 1.588511e+002
1.027469e+003, 1.582092e+002
1.027952e+003, 1.582450e+002
1.028434e+003, 1.590110e+002
1.028916e+003, 1.590965e+002
1.029398e+003, 1.583427e+002
1.029880e+003, 1.574236e+002
1.030362e+003, 1.563245e+002
1.030844e+003, 1.554209e+002
1.031326e+003, 1.550193e+002
1.031809e+003, 1.549079e+002
1.032291e+003, 1.546551e+002
1.032773e+003, 1.542397e+002
1.033255e+003, 1.538791e+002
1.033737e+003, 1.535752e+002
1.034219e+003, 1.533286e+002
1.034701e+003, 1.531608e+002
1.035183e+003, 1.530258e+002
1.035666e+003, 1.529601e+002
1.036148e+003, 1.528680e+002
1.036630e+003, 1.525136e+002
1.037112e+003, 1.518187e+002
1.037594e+003, 1.512964e+002
1.038076e+003, 1.509793e+002
1.038558e+003, 1.507839e+002
1.039040e+003, 1.506607e+002
1.039522e+003, 1.506919e+002
1.040005e+003, 1.511049e+002
1.040487e+003, 1.516547e+002
1.040969e+003, 1.517808e+002
1.041451e+003, 1.513735e+002
1.041933e+003, 1.511252e+002
1.042415e+003, 1.509784e+002
1.042897e+003, 1.510907e+002
1.043379e+003, 1.520316e+002
1.043861e+003, 1.527041e+002
1.044344e+003, 1.520096e+002
1.044826e+003, 1.506771e+002
1.045308e+003, 1.502041e+002
1.045790e+003, 1.508311e+002
1.046272e+003, 1.512782e+002
1.046754e+003, 1.514575e+002
1.047236e+003, 1.513801e+002
1.047718e+003, 1.507369e+002
1.048201e+003, 1.501430e+002
1.048683e+003, 1.501210e+002
1.049165e+003, 1.504107e+002
1.049647e+003, 1.504688e+002
1.050129e+003, 1.502059e+002
1.050611e+003, 1.500687e+002
1.051093e+003, 1.502067e+002
1.051575e+003, 1.503914e+002
1.052057e+003, 1.505116e+002
1.052540e+003, 1.506943e+002
1.053022e+003, 1.512557e+002
1.053504e+003, 1.518584e+002
1.053986e+003, 1.517568e+002
1.054468e+003, 1.508228e+002
1.054950e+003, 1.502573e+002
1.055432e+003, 1.507080e+002
1.055914e+003, 1.511279e+002
1.056396e+003, 1.510727e+002
1.056879e+003, 1.509427e+002
1.057361e+003, 1.510540e+002
1.057843e+003, 1.513022e+002
1.058325e+003, 1.514759e+002
1.058807e+003, 1.515427e+002
1.059289e+003, 1.515946e+002
1.059771e+003, 1.518149e+002
1.060253e+003, 1.518194e+002
1.060736e+003, 1.513986e+002
1.061218e+003, 1.507715e+002
1.061700e+003, 1.498485e+002
1.062182e+003, 1.489518e+002
1.062664e+003, 1.485941e+002
1.063146e+003, 1.488353e+002
1.063628e+003, 1.492856e+002
1.064110e+003, 1.502425e+002
1.064593e+003, 1.507622e+002
1.065075e+003, 1.499943e+002
1.065557e+003, 1.491014e+002
1.066039e+003, 1.490044e+002
1.066521e+003, 1.493687e+002
1.067003e+003, 1.496258e+002
1.067485e+003, 1.496856e+002
1.067967e+003, 1.497174e+002
1.068449e+003, 1.497500e+002
1.068932e+003, 1.498255e+002
1.069414e+003, 1.498384e+002
1.069896e+003, 1.500270e+002
1.070378e+003, 1.507535e+002
1.070860e+003, 1.516660e+002
1.071342e+003, 1.522351e+002
1.071824e+003, 1.524429e+002
1.072306e+003, 1.527384e+002
1.072788e+003, 1.534694e+002
1.073271e+003, 1.538852e+002
1.073753e+003, 1.529908e+002
1.074235e+003, 1.523299e+002
1.074717e+003, 1.534125e+002
1.075199e+003, 1.551672e+002
1.075681e+003, 1.560742e+002
1.076163e+003, 1.561410e+002
1.076645e+003, 1.564265e+002
1.077127e+003, 1.573426e+002
1.077610e+003, 1.583513e+002
1.078092e+003, 1.591696e+002
1.078574e+003, 1.600381e+002
1.079056e+003, 1.612744e+002
1.079538e+003, 1.625529e+002
1.080020e+003, 1.634125e+002
1.080502e+003, 1.639451e+002
1.080984e+003, 1.646325e+002
1.081467e+003, 1.656563e+002
1.081949e+003, 1.666577e+002
1.082431e+003, 1.675172e+002
1.082913e+003, 1.682631e+002
1.083395e+003, 1.688978e+002
1.083877e+003, 1.694353e+002
1.084359e+003, 1.699133e+002
1.084841e+003, 1.703013e+002
1.085323e+003, 1.705059e+002
1.085806e+003, 1.704884e+002
1.086288e+003, 1.704176e+002
1.086770e+003, 1.706383e+002
1.087252e+003, 1.704831e+002
1.087734e+003, 1.695638e+002
1.088216e+003, 1.681402e+002
1.088698e+003, 1.662405e+002
1.089180e+003, 1.641092e+002
1.089662e+003, 1.621149e+002
1.090145e+003, 1.603181e+002
1.090627e+003, 1.589341e+002
1.091109e+003, 1.583178e+002
1.091591e+003, 1.577521e+002
1.092073e+003, 1.568980e+002
1.092555e+003, 1.560064e+002
1.093037e+003, 1.554507e+002
1.093519e+003, 1.549283e+002
1.094002e+003, 1.537703e+002
1.094484e+003, 1.519581e+002
1.094966e+003, 1.505184e+002
1.095448e+003, 1.500449e+002
1.095930e+003, 1.495969e+002
1.096412e+003, 1.487547e+002
1.096894e+003, 1.479649e+002
1.097376e+003, 1.475382e+002
1.097859e+003, 1.473137e+002
1.098341e+003, 1.470700e+002
1.098823e+003, 1.467922e+002
1.099305e+003, 1.465627e+002
1.099787e+003, 1.463960e+002
1.100269e+003, 1.462876e+002
1.100751e+003, 1.463867e+002
1.101233e+003, 1.463659e+002
1.101715e+003, 1.459643e+002
1.102198e+003, 1.454381e+002
1.102680e+003, 1.450877e+002
1.103162e+003, 1.448631e+002
1.103644e+003, 1.444888e+002
1.104126e+003, 1.438468e+002
1.104608e+003, 1.433045e+002
1.105090e+003, 1.427993e+002
1.105572e+003, 1.425728e+002
1.106054e+003, 1.429567e+002
1.106537e+003, 1.434229e+002
1.107019e+003, 1.435085e+002
1.107501e+003, 1.433535e+002
1.107983e+003, 1.433233e+002
1.108465e+003, 1.434488e+002
1.108947e+003, 1.436746e+002
1.109429e+003, 1.443444e+002
1.109911e+003, 1.446160e+002
1.110394e+003, 1.439789e+002
1.110876e+003, 1.432558e+002
1.111358e+003, 1.427875e+002
1.111840e+003, 1.426188e+002
1.112322e+003, 1.429756e+002
1.112804e+003, 1.439077e+002
1.113286e+003, 1.442861e+002
1.113768e+003, 1.436887e+002
1.114250e+003, 1.432345e+002
1.114733e+003, 1.430251e+002
1.115215e+003, 1.429330e+002
1.115697e+003, 1.429186e+002
1.116179e+003, 1.429853e+002
1.116661e+003, 1.431695e+002
1.117143e+003, 1.434479e+002
1.117625e+003, 1.436449e+002
1.118107e+003, 1.437575e+002
1.118589e+003, 1.438006e+002
1.119072e+003, 1.438014e+002
1.119554e+003, 1.436586e+002
1.120036e+003, 1.431930e+002
1.120518e+003, 1.428261e+002
1.121000e+003, 1.429969e+002
1.121482e+003, 1.434859e+002
1.121964e+003, 1.436277e+002
1.122446e+003, 1.433453e+002
1.122929e+003, 1.431592e+002
1.123411e+003, 1.430316e+002
1.123893e+003, 1.431743e+002
1.124375e+003, 1.437664e+002
1.124857e+003, 1.442138e+002
1.125339e+003, 1.441006e+002
1.125821e+003, 1.436921e+002
1.126303e+003, 1.434006e+002
1.126786e+003, 1.432356e+002
1.127268e+003, 1.434780e+002
1.127750e+003, 1.442154e+002
1.128232e+003, 1.445099e+002
1.128714e+003, 1.441865e+002
1.129196e+003, 1.437930e+002
1.129678e+003, 1.435548e+002
1.130160e+003, 1.435070e+002
1.130642e+003, 1.437549e+002
1.131125e+003, 1.441283e+002
1.131607e+003, 1.439628e+002
1.132089e+003, 1.432942e+002
1.132571e+003, 1.426206e+002
1.133053e+003, 1.419861e+002
1.133535e+003, 1.420770e+002
1.134017e+003, 1.431001e+002
1.134499e+003, 1.439905e+002
1.134981e+003, 1.439008e+002
1.135464e+003, 1.432978e+002
1.135946e+003, 1.429643e+002
1.136428e+003, 1.428487e+002
1.136910e+003, 1.427814e+002
1.137392e+003, 1.427484e+002
1.137874e+003, 1.426557e+002
1.138356e+003, 1.425177e+002
1.138838e+003, 1.426060e+002
1.139321e+003, 1.430614e+002
1.139803e+003, 1.434979e+002
1.140285e+003, 1.433937e+002
1.140767e+003, 1.430712e+002
1.141249e+003, 1.431803e+002
1.141731e+003, 1.435108e+002
1.142213e+003, 1.436291e+002
1.142695e+003, 1.435146e+002
1.143177e+003, 1.432529e+002
1.143660e+003, 1.428957e+002
1.144142e+003, 1.425865e+002
1.144624e+003, 1.424385e+002
1.145106e+003, 1.423499e+002
1.145588e+003, 1.421085e+002
1.146070e+003, 1.419507e+002
1.146552e+003, 1.423126e+002
1.147034e+003, 1.429237e+002
1.147516e+003, 1.432361e+002
1.147999e+003, 1.432352e+002
1.148481e+003, 1.433293e+002
1.148963e+003, 1.437159e+002
1.149445e+003, 1.440591e+002
1.149927e+003, 1.441995e+002
1.150409e+003, 1.441592e+002
1.150891e+003, 1.438617e+002
1.151373e+003, 1.434663e+002
1.151856e+003, 1.430063e+002
1.152338e+003, 1.426291e+002
1.152820e+003, 1.426778e+002
1.153302e+003, 1.432205e+002
1.153784e+003, 1.436575e+002
1.154266e+003, 1.437009e+002
1.154748e+003, 1.437325e+002
1.155230e+003, 1.439146e+002
1.155713e+003, 1.440834e+002
1.156195e+003, 1.441380e+002
1.156677e+003, 1.441199e+002
1.157159e+003, 1.440423e+002
1.157641e+003, 1.439356e+002
1.158123e+003, 1.439837e+002
1.158605e+003, 1.444254e+002
1.159087e+003, 1.445495e+002
1.159569e+003, 1.439899e+002
1.160052e+003, 1.435516e+002
1.160534e+003, 1.434314e+002
1.161016e+003, 1.435215e+002
1.161498e+003, 1.438159e+002
1.161980e+003, 1.442274e+002
1.162462e+003, 1.445958e+002
1.162944e+003, 1.449429e+002
1.163426e+003, 1.450006e+002
1.163908e+003, 1.446635e+002
1.164391e+003, 1.443082e+002
1.164873e+003, 1.438874e+002
1.165355e+003, 1.437722e+002
1.165837e+003, 1.442454e+002
1.166319e+003, 1.448144e+002
1.166801e+003, 1.448685e+002
1.167283e+003, 1.445607e+002
1.167765e+003, 1.445794e+002
1.168247e+003, 1.449449e+002
1.168730e+003, 1.449525e+002
1.169212e+003, 1.445624e+002
1.169694e+003, 1.441729e+002
1.170176e+003, 1.438895e+002
1.170658e+003, 1.437982e+002
1.171140e+003, 1.439738e+002
1.171622e+003, 1.442654e+002
1.172104e+003, 1.444240e+002
1.172587e+003, 1.445023e+002
1.173069e+003, 1.447165e+002
1.173551e+003, 1.450071e+002
1.174033e+003, 1.451594e+002
1.174515e+003, 1.451505e+002
1.174997e+003, 1.449986e+002
1.175479e+003, 1.447249e+002
1.175961e+003, 1.445040e+002
1.176443e+003, 1.445270e+002
1.176926e+003, 1.445635e+002
1.177408e+003, 1.441134e+002
1.177890e+003, 1.436518e+002
1.178372e+003, 1.441611e+002
1.178854e+003, 1.450848e+002
1.179336e+003, 1.451401e+002
1.179818e+003, 1.443465e+002
1.180300e+003, 1.437640e+002
1.180782e+003, 1.438407e+002
1.181265e+003, 1.440811e+002
1.181747e+003, 1.443439e+002
1.182229e+003, 1.444817e+002
1.182711e+003, 1.442030e+002
1.183193e+003, 1.439283e+002
1.183675e+003, 1.442019e+002
1.184157e+003, 1.447230e+002
1.184639e+003, 1.448372e+002
1.185122e+003, 1.444779e+002
1.185604e+003, 1.442568e+002
1.186086e+003, 1.445623e+002
1.186568e+003, 1.446104e+002
1.187050e+003, 1.439626e+002
1.187532e+003, 1.434159e+002
1.188014e+003, 1.432287e+002
1.188496e+003, 1.433659e+002
1.188979e+003, 1.439488e+002
1.189461e+003, 1.447783e+002
1.189943e+003, 1.452798e+002
1.190425e+003, 1.454393e+002
1.190907e+003, 1.453028e+002
1.191389e+003, 1.446304e+002
1.191871e+003, 1.444055e+002
1.192353e+003, 1.450232e+002
1.192835e+003, 1.453433e+002
1.193318e+003, 1.446740e+002
1.193800e+003, 1.437833e+002
1.194282e+003, 1.435829e+002
1.194764e+003, 1.439798e+002
1.195246e+003, 1.447529e+002
1.195728e+003, 1.458722e+002
1.196210e+003, 1.464932e+002
1.196692e+003, 1.465874e+002
1.197174e+003, 1.464614e+002
1.197657e+003, 1.461953e+002
1.198139e+003, 1.456945e+002
1.198621e+003, 1.448737e+002
1.199103e+003, 1.441794e+002
1.199585e+003, 1.443622e+002
1.200067e+003, 1.449678e+002
1.200549e+003, 1.450870e+002
1.201031e+003, 1.449152e+002
1.201514e+003, 1.448925e+002
1.201996e+003, 1.449929e+002
1.202478e+003, 1.449080e+002
1.202960e+003, 1.446099e+002
1.203442e+003, 1.445517e+002
1.203924e+003, 1.451017e+002
1.204406e+003, 1.456511e+002
1.204888e+003, 1.458040e+002
1.205370e+003, 1.456974e+002
1.205853e+003, 1.451420e+002
1.206335e+003, 1.446214e+002
1.206817e+003, 1.448870e+002
1.207299e+003, 1.456382e+002
1.207781e+003, 1.459832e+002
1.208263e+003, 1.457366e+002
1.208745e+003, 1.452864e+002
1.209227e+003, 1.442669e+002
1.209709e+003, 1.437414e+002
1.210192e+003, 1.442717e+002
1.210674e+003, 1.449350e+002
1.211156e+003, 1.453069e+002
1.211638e+003, 1.455629e+002
1.212120e+003, 1.459251e+002
1.212602e+003, 1.463110e+002
1.213084e+003, 1.463864e+002
1.213566e+003, 1.460767e+002
1.214049e+003, 1.458203e+002
1.214531e+003, 1.456157e+002
1.215013e+003, 1.454698e+002
1.215495e+003, 1.453851e+002
1.215977e+003, 1.453408e+002
1.216459e+003, 1.453114e+002
1.216941e+003, 1.454177e+002
1.217423e+003, 1.458689e+002
1.217906e+003, 1.464718e+002
1.218388e+003, 1.466074e+002
1.218870e+003, 1.463452e+002
1.219352e+003, 1.459213e+002
1.219834e+003, 1.454248e+002
1.220316e+003, 1.452621e+002
1.220798e+003, 1.454694e+002
1.221280e+003, 1.456318e+002
1.221762e+003, 1.455233e+002
1.222245e+003, 1.453575e+002
1.222727e+003, 1.452832e+002
1.223209e+003, 1.453307e+002
1.223691e+003, 1.456733e+002
1.224173e+003, 1.460524e+002
1.224655e+003, 1.460305e+002
1.225137e+003, 1.458132e+002
1.225619e+003, 1.459115e+002
1.226101e+003, 1.463378e+002
1.226584e+003, 1.466048e+002
1.227066e+003, 1.465728e+002
1.227548e+003, 1.462838e+002
1.228030e+003, 1.454906e+002
1.228512e+003, 1.447911e+002
1.228994e+003, 1.443870e+002
1.229476e+003, 1.442238e+002
1.229958e+003, 1.444394e+002
1.230441e+003, 1.447692e+002
1.230923e+003, 1.446730e+002
1.231405e+003, 1.441739e+002
1.231887e+003, 1.441081e+002
1.232369e+003, 1.446211e+002
1.232851e+003, 1.451502e+002
1.233333e+003, 1.457454e+002
1.233815e+003, 1.460386e+002
1.234297e+003, 1.458264e+002
1.234780e+003, 1.457385e+002
1.235262e+003, 1.462859e+002
1.235744e+003, 1.469941e+002
1.236226e+003, 1.469965e+002
1.236708e+003, 1.464893e+002
1.237190e+003, 1.463535e+002
1.237672e+003, 1.464666e+002
1.238154e+003, 1.462453e+002
1.238636e+003, 1.456985e+002
1.239119e+003, 1.450694e+002
1.239601e+003, 1.444980e+002
1.240083e+003, 1.443903e+002
1.240565e+003, 1.450991e+002
1.241047e+003, 1.458560e+002
1.241529e+003, 1.458171e+002
1.242011e+003, 1.455817e+002
1.242493e+003, 1.456899e+002
1.242975e+003, 1.459937e+002
1.243458e+003, 1.465498e+002
1.243940e+003, 1.470362e+002
1.244422e+003, 1.466201e+002
1.244904e+003, 1.452857e+002
1.245386e+003, 1.446224e+002
1.245868e+003, 1.455853e+002
1.246350e+003, 1.462400e+002
1.246832e+003, 1.459666e+002
1.247315e+003, 1.457389e+002
1.247797e+003, 1.460412e+002
1.248279e+003, 1.462806e+002
1.248761e+003, 1.457729e+002
1.249243e+003, 1.452131e+002
1.249725e+003, 1.460548e+002
1.250207e+003, 1.481523e+002
1.250689e+003, 1.488999e+002
1.251172e+003, 1.481627e+002
1.251654e+003, 1.474214e+002
1.252136e+003, 1.467715e+002
1.252618e+003, 1.466067e+002
1.253100e+003, 1.470414e+002
1.253582e+003, 1.473509e+002
1.254064e+003, 1.470130e+002
1.254546e+003, 1.465575e+002
1.255028e+003, 1.468105e+002
1.255510e+003, 1.473862e+002
1.255993e+003, 1.475491e+002
1.256475e+003, 1.475007e+002
1.256957e+003, 1.477289e+002
1.257439e+003, 1.480425e+002
1.257921e+003, 1.477259e+002
1.258403e+003, 1.468017e+002
1.258885e+003, 1.463075e+002
1.259367e+003, 1.468381e+002
1.259850e+003, 1.472529e+002
1.260332e+003, 1.469063e+002
1.260814e+003, 1.464727e+002
1.261296e+003, 1.459320e+002
1.261778e+003, 1.457715e+002
1.262260e+003, 1.466473e+002
1.262742e+003, 1.479787e+002
1.263224e+003, 1.489348e+002
1.263707e+003, 1.495034e+002
1.264189e+003, 1.495363e+002
1.264671e+003, 1.487735e+002
1.265153e+003, 1.483875e+002
1.265635e+003, 1.484877e+002
1.266117e+003, 1.484829e+002
1.266599e+003, 1.482165e+002
1.267081e+003, 1.479892e+002
1.267563e+003, 1.479597e+002
1.268046e+003, 1.481404e+002
1.268528e+003, 1.486342e+002
1.269010e+003, 1.491839e+002
1.269492e+003, 1.490661e+002
1.269974e+003, 1.485873e+002
1.270456e+003, 1.485802e+002
1.270938e+003, 1.488849e+002
1.271420e+003, 1.488814e+002
1.271902e+003, 1.485850e+002
1.272385e+003, 1.485794e+002
1.272867e+003, 1.490892e+002
1.273349e+003, 1.494280e+002
1.273831e+003, 1.488128e+002
1.274313e+003, 1.484456e+002
1.274795e+003, 1.494075e+002
1.275277e+003, 1.502746e+002
1.275759e+003, 1.498147e+002
1.276242e+003, 1.489708e+002
1.276724e+003, 1.488996e+002
1.277206e+003, 1.493839e+002
1.277688e+003, 1.495628e+002
1.278170e+003, 1.494013e+002
1.278652e+003, 1.492155e+002
1.279134e+003, 1.489398e+002
1.279616e+003, 1.488983e+002
1.280099e+003, 1.491591e+002
1.280581e+003, 1.494762e+002
1.281063e+003, 1.497639e+002
1.281545e+003, 1.500776e+002
1.282027e+003, 1.504926e+002
1.282509e+003, 1.507961e+002
1.282991e+003, 1.505417e+002
1.283473e+003, 1.499491e+002
1.283955e+003, 1.495209e+002
##END=



