##NAMES=Tochilinite
##RRUFFID=R060887
##IDEAL CHEMISTRY=6(Fe^2+^_0.9_S^2-^)&#183;5[(Mg,Fe^2+^)(OH)_2_]
##LOCALITY=Cornwall, Pennsylvania, USA
##OWNER=RRUFF
##SOURCE=Bob Jenkins
##DESCRIPTION=Black elongated prismatic crystals
##STATUS=The identification of this mineral is not yet confirmed.
##URL=rruff.info/R060887
190.4657, 560.2368
190.9478, 563.5645
191.4299, 564.0114
191.9120, 563.3892
192.3941, 561.0404
192.8762, 559.0280
193.3584, 562.5706
193.8405, 572.0232
194.3226, 581.0856
194.8047, 585.9965
195.2868, 586.8173
195.7689, 584.9164
196.2511, 579.8487
196.7332, 572.6393
197.2153, 565.5059
197.6974, 558.1542
198.1795, 552.3832
198.6616, 549.4359
199.1438, 549.3293
199.6259, 551.7746
200.1080, 557.7892
200.5901, 566.0417
201.0722, 570.8743
201.5543, 571.7421
202.0364, 571.2040
202.5186, 571.5336
203.0007, 572.9998
203.4828, 573.0289
203.9649, 570.1977
204.4470, 565.3259
204.9291, 565.0430
205.4113, 571.2938
205.8934, 577.3516
206.3755, 576.0416
206.8576, 565.6698
207.3397, 555.3399
207.8218, 545.6111
208.3040, 536.8253
208.7861, 536.3373
209.2682, 547.1210
209.7503, 561.0041
210.2324, 569.3863
210.7145, 571.2080
211.1967, 570.8720
211.6788, 568.5082
212.1609, 564.0081
212.6430, 563.0015
213.1251, 566.9872
213.6072, 572.5164
214.0894, 575.4352
214.5715, 574.9753
215.0536, 573.9211
215.5357, 572.9659
216.0178, 572.1114
216.4999, 570.9294
216.9820, 568.6251
217.4642, 566.7703
217.9463, 567.4735
218.4284, 570.8635
218.9105, 576.5221
219.3926, 585.3942
219.8747, 598.6522
220.3569, 607.5027
220.8390, 609.9673
221.3211, 609.5175
221.8032, 611.8851
222.2853, 618.2585
222.7674, 625.1194
223.2496, 631.0807
223.7317, 635.6567
224.2138, 641.8362
224.6959, 651.5246
225.1780, 661.7103
225.6601, 666.5441
226.1423, 662.0817
226.6244, 659.1533
227.1065, 662.0963
227.5886, 673.0106
228.0707, 683.3781
228.5528, 693.4085
229.0350, 702.8889
229.5171, 711.4529
229.9992, 719.8677
230.4813, 726.3474
230.9634, 730.1115
231.4455, 730.6277
231.9276, 729.6920
232.4098, 726.4070
232.8919, 721.9440
233.3740, 719.1943
233.8561, 718.3257
234.3382, 718.8719
234.8203, 720.8506
235.3025, 725.0865
235.7846, 729.1460
236.2667, 734.6222
236.7488, 739.5601
237.2309, 738.0975
237.7130, 726.0601
238.1952, 713.7873
238.6773, 705.8341
239.1594, 703.9819
239.6415, 702.7537
240.1236, 703.1620
240.6057, 704.0169
241.0879, 701.5204
241.5700, 693.2974
242.0521, 685.1684
242.5342, 680.2491
243.0163, 681.7247
243.4984, 679.2599
243.9806, 670.7921
244.4627, 658.5005
244.9448, 649.4271
245.4269, 646.5661
245.9090, 642.6528
246.3911, 633.6662
246.8732, 615.9028
247.3554, 601.0743
247.8375, 589.3043
248.3196, 580.6820
248.8017, 576.2654
249.2838, 579.9369
249.7659, 582.1736
250.2481, 577.5064
250.7302, 561.0021
251.2123, 549.3705
251.6944, 544.8477
252.1765, 545.3007
252.6586, 543.9592
253.1408, 540.3200
253.6229, 535.7255
254.1050, 530.4254
254.5871, 523.3173
255.0692, 518.4189
255.5513, 515.7885
256.0334, 515.4876
256.5156, 518.4230
256.9977, 527.6432
257.4798, 535.0889
257.9619, 535.9572
258.4440, 527.0860
258.9261, 520.3335
259.4083, 516.5667
259.8904, 515.0284
260.3725, 513.5515
260.8546, 512.2599
261.3367, 510.7275
261.8188, 508.9036
262.3010, 507.1137
262.7831, 503.3653
263.2652, 495.2838
263.7473, 486.0764
264.2294, 485.7934
264.7115, 498.2526
265.1937, 511.5272
265.6758, 519.4193
266.1579, 520.9650
266.6400, 520.4086
267.1221, 517.0996
267.6042, 512.2478
268.0864, 508.9032
268.5685, 506.9688
269.0506, 506.7408
269.5327, 508.9692
270.0148, 514.4525
270.4969, 518.2770
270.9791, 519.6714
271.4612, 519.8183
271.9433, 521.6552
272.4254, 525.7361
272.9075, 529.6600
273.3896, 531.8359
273.8718, 531.8499
274.3539, 533.1422
274.8360, 535.9305
275.3181, 539.9530
275.8002, 545.2356
276.2823, 552.2828
276.7645, 558.2495
277.2466, 561.5593
277.7287, 561.9988
278.2108, 561.7206
278.6929, 560.0435
279.1750, 558.7659
279.6572, 562.0553
280.1393, 570.5674
280.6214, 578.7061
281.1035, 582.8185
281.5856, 582.9631
282.0677, 586.5867
282.5499, 594.7074
283.0320, 604.5156
283.5141, 612.3829
283.9962, 618.3924
284.4783, 620.9682
284.9604, 616.7001
285.4425, 606.5889
285.9247, 603.5051
286.4068, 608.8403
286.8889, 617.2772
287.3710, 620.8768
287.8531, 619.8487
288.3352, 619.8669
288.8174, 623.6982
289.2995, 630.7769
289.7816, 638.4564
290.2637, 646.6797
290.7458, 655.0599
291.2279, 663.9806
291.7101, 673.0897
292.1922, 679.7346
292.6743, 681.2893
293.1564, 679.5476
293.6385, 679.7628
294.1206, 682.0637
294.6028, 685.3787
295.0849, 688.8204
295.5670, 692.4019
296.0491, 696.2023
296.5312, 701.2648
297.0133, 706.2549
297.4955, 707.6186
297.9776, 705.2361
298.4597, 702.6791
298.9418, 705.1498
299.4239, 710.2559
299.9060, 711.5166
300.3882, 702.9687
300.8703, 691.5510
301.3524, 688.4595
301.8345, 693.3849
302.3166, 699.3975
302.7987, 701.6314
303.2809, 700.9694
303.7630, 699.1459
304.2451, 697.3080
304.7272, 693.9033
305.2093, 687.0292
305.6914, 676.7676
306.1736, 664.8547
306.6557, 648.9951
307.1378, 632.9999
307.6199, 622.2678
308.1020, 620.7297
308.5841, 621.4989
309.0663, 620.4177
309.5484, 617.2635
310.0305, 611.1437
310.5126, 597.5413
310.9947, 582.5542
311.4768, 573.0307
311.9590, 574.3668
312.4411, 574.5214
312.9232, 564.3575
313.4053, 546.7833
313.8874, 530.5140
314.3695, 516.7410
314.8517, 507.1696
315.3337, 504.0351
315.8159, 510.8739
316.2980, 516.6737
316.7801, 516.6401
317.2622, 512.2234
317.7443, 506.4514
318.2264, 499.5038
318.7086, 492.2620
319.1907, 484.4977
319.6728, 474.9117
320.1549, 468.8896
320.6370, 473.4975
321.1191, 481.5233
321.6013, 482.1891
322.0834, 462.9063
322.5655, 444.6707
323.0476, 435.7698
323.5297, 439.0251
324.0118, 441.2335
324.4940, 439.7080
324.9761, 436.4138
325.4582, 433.5505
325.9403, 428.2906
326.4224, 426.5433
326.9045, 430.9249
327.3867, 442.5391
327.8688, 451.9604
328.3509, 461.8982
328.8330, 467.9765
329.3151, 466.3884
329.7972, 447.8123
330.2794, 433.4740
330.7615, 427.7356
331.2436, 430.2179
331.7257, 429.6056
332.2078, 422.5595
332.6899, 415.7350
333.1721, 414.1148
333.6542, 421.2452
334.1363, 426.7359
334.6184, 430.3746
335.1005, 431.7115
335.5826, 427.5056
336.0648, 413.3295
336.5469, 401.3319
337.0290, 400.2328
337.5111, 414.9253
337.9932, 421.6899
338.4753, 415.1663
338.9575, 402.8129
339.4396, 405.1606
339.9217, 426.7723
340.4038, 446.7035
340.8859, 453.8491
341.3680, 447.3929
341.8502, 439.8813
342.3323, 430.9272
342.8144, 422.5798
343.2965, 419.3375
343.7786, 421.4323
344.2607, 423.0396
344.7429, 420.5329
345.2250, 414.9269
345.7071, 412.8478
346.1892, 414.5266
346.6713, 418.6356
347.1534, 424.7985
347.6355, 432.5729
348.1176, 439.2789
348.5998, 443.6085
349.0819, 446.4261
349.5640, 450.2133
350.0461, 455.0289
350.5282, 458.4763
351.0103, 457.8997
351.4925, 454.4060
351.9746, 450.1479
352.4567, 443.8504
352.9388, 439.1871
353.4209, 442.7445
353.9030, 453.1940
354.3852, 462.7199
354.8673, 466.9959
355.3494, 466.9967
355.8315, 463.2986
356.3136, 454.4096
356.7957, 445.3759
357.2779, 438.6443
357.7600, 434.7209
358.2421, 435.0307
358.7242, 446.1802
359.2063, 458.0691
359.6884, 462.2444
360.1706, 455.5645
360.6527, 448.7271
361.1348, 447.2083
361.6169, 448.6835
362.0990, 449.5576
362.5811, 450.2408
363.0633, 448.6871
363.5454, 442.5488
364.0275, 430.8660
364.5096, 422.1743
364.9917, 422.5591
365.4738, 425.1841
365.9560, 423.4793
366.4381, 406.8935
366.9202, 395.8900
367.4023, 398.6406
367.8844, 414.5623
368.3665, 422.1196
368.8487, 413.1617
369.3308, 400.3757
369.8129, 391.1566
370.2950, 386.5811
370.7771, 384.0961
371.2592, 384.9446
371.7414, 387.8947
372.2235, 388.3250
372.7056, 384.8354
373.1877, 380.7779
373.6698, 377.5358
374.1519, 374.9448
374.6341, 374.4575
375.1162, 378.9164
375.5983, 382.9442
376.0804, 373.3549
376.5625, 344.3830
377.0446, 323.4247
377.5267, 324.1212
378.0089, 345.9667
378.4910, 358.9229
378.9731, 361.6482
379.4552, 359.5710
379.9373, 357.3634
380.4194, 355.0637
380.9016, 356.3923
381.3837, 366.2145
381.8658, 378.7341
382.3479, 373.2666
382.8300, 349.5632
383.3121, 326.4257
383.7943, 321.0569
384.2764, 329.0203
384.7585, 337.8021
385.2406, 345.8616
385.7227, 351.8917
386.2048, 352.0647
386.6870, 347.7872
387.1691, 344.8312
387.6512, 350.3795
388.1333, 357.7805
388.6154, 357.0388
389.0975, 344.9918
389.5797, 333.9771
390.0618, 336.2301
390.5439, 345.9596
391.0260, 353.1693
391.5081, 350.8834
391.9902, 346.7688
392.4724, 346.2702
392.9545, 349.7447
393.4366, 351.4483
393.9187, 346.2435
394.4008, 339.3453
394.8829, 335.4017
395.3651, 339.4629
395.8472, 342.6908
396.3293, 342.0381
396.8114, 338.2021
397.2935, 335.3067
397.7756, 333.3780
398.2578, 333.0607
398.7399, 334.7746
399.2220, 340.7332
399.7041, 345.4251
400.1862, 349.7715
400.6683, 352.6514
401.1505, 351.6099
401.6326, 344.1553
402.1147, 336.1828
402.5968, 329.2292
403.0789, 323.2973
403.5610, 318.0711
404.0432, 312.3644
404.5253, 308.8325
405.0074, 312.0551
405.4895, 324.8500
405.9716, 333.1887
406.4537, 332.3293
406.9359, 324.6536
407.4180, 322.4991
407.9001, 326.7629
408.3822, 332.0674
408.8643, 334.7558
409.3464, 334.9254
409.8285, 333.2232
410.3106, 328.9720
410.7928, 324.4061
411.2749, 323.4875
411.7570, 325.8803
412.2391, 328.9189
412.7212, 332.4659
413.2033, 335.3858
413.6855, 334.2304
414.1676, 328.3333
414.6497, 323.3132
415.1318, 327.2103
415.6139, 335.4583
416.0960, 339.6217
416.5782, 332.2548
417.0603, 322.5620
417.5424, 318.0659
418.0245, 318.2064
418.5066, 318.7043
418.9887, 315.4169
419.4709, 312.5466
419.9530, 314.0107
420.4351, 324.3750
420.9172, 333.1590
421.3993, 336.5344
421.8814, 335.7310
422.3636, 333.5308
422.8457, 327.4234
423.3278, 322.7811
423.8099, 322.0166
424.2920, 326.3427
424.7741, 330.8431
425.2563, 336.6177
425.7384, 341.8341
426.2205, 344.5922
426.7026, 345.5060
427.1847, 342.7813
427.6668, 333.6211
428.1490, 319.3103
428.6311, 313.3174
429.1132, 319.0361
429.5953, 326.9016
430.0774, 330.1241
430.5595, 327.6870
431.0417, 327.5546
431.5238, 331.4340
432.0059, 336.5144
432.4880, 335.6830
432.9701, 328.5359
433.4522, 323.9313
433.9344, 330.1790
434.4165, 343.2959
434.8986, 342.4001
435.3807, 325.9334
435.8628, 309.3115
436.3449, 310.9951
436.8271, 325.4416
437.3092, 337.3535
437.7913, 342.2167
438.2734, 341.9849
438.7555, 335.7759
439.2376, 325.1284
439.7197, 317.6208
440.2018, 320.8937
440.6840, 328.0727
441.1661, 332.5612
441.6482, 332.7209
442.1303, 331.6151
442.6124, 331.0361
443.0945, 330.1666
443.5767, 327.7333
444.0588, 319.3919
444.5409, 313.0305
445.0230, 312.5015
445.5051, 318.3093
445.9872, 323.6882
446.4694, 327.9908
446.9515, 331.2428
447.4336, 333.5255
447.9157, 338.0199
448.3978, 336.8304
448.8799, 324.5623
449.3621, 306.5740
449.8442, 300.7928
450.3263, 313.1035
450.8084, 326.7189
451.2905, 335.3997
451.7726, 338.8924
452.2548, 337.9596
452.7369, 330.8873
453.2190, 322.6893
453.7011, 320.1245
454.1832, 323.4212
454.6653, 326.7673
455.1475, 330.6367
455.6296, 332.2659
456.1117, 313.4985
456.5938, 326.4863
457.0759, 333.4159
457.5580, 334.6127
458.0402, 312.9067
458.5223, 320.7750
459.0044, 315.3770
459.4865, 311.8299
459.9686, 314.8994
460.4507, 321.0921
460.9329, 322.9562
461.4150, 310.9431
461.8971, 297.8916
462.3792, 293.2948
462.8613, 297.2509
463.3434, 302.4184
463.8256, 307.8624
464.3077, 311.7684
464.7898, 312.5414
465.2719, 304.3694
465.7540, 300.0620
466.2361, 304.2465
466.7183, 314.1801
467.2004, 322.4880
467.6825, 331.6154
468.1646, 335.9347
468.6467, 331.3314
469.1288, 314.1086
469.6110, 308.1938
470.0930, 321.2429
470.5752, 336.8220
471.0573, 336.2960
471.5394, 313.5798
472.0215, 297.6414
472.5036, 294.9427
472.9857, 301.6830
473.4679, 305.5711
473.9500, 306.2213
474.4321, 307.6107
474.9142, 314.3269
475.3963, 324.3672
475.8784, 327.1929
476.3606, 321.0495
476.8427, 314.2008
477.3248, 318.3592
477.8069, 329.4227
478.2890, 336.9032
478.7711, 334.3481
479.2533, 328.5534
479.7354, 326.8938
480.2175, 328.4830
480.6996, 328.3322
481.1817, 320.0061
481.6638, 310.8678
482.1460, 307.5262
482.6281, 313.7520
483.1102, 318.8567
483.5923, 317.8133
484.0744, 313.7721
484.5565, 311.3214
485.0387, 313.6139
485.5208, 315.2614
486.0029, 314.5342
486.4850, 311.4660
486.9671, 309.0809
487.4492, 307.2607
487.9314, 306.2881
488.4135, 306.6711
488.8956, 309.4187
489.3777, 310.3573
489.8598, 308.6192
490.3419, 305.7649
490.8241, 305.1339
491.3062, 307.1411
491.7883, 307.9181
492.2704, 304.9813
492.7525, 299.6675
493.2346, 297.9994
493.7168, 300.1356
494.1989, 302.6084
494.6810, 301.2965
495.1631, 298.1474
495.6452, 297.9879
496.1273, 302.5977
496.6095, 308.4630
497.0916, 312.8379
497.5737, 315.6870
498.0558, 316.9160
498.5379, 315.3964
499.0201, 313.0517
499.5022, 309.8700
499.9843, 305.8363
500.4664, 305.6144
500.9485, 317.7198
501.4306, 330.3163
501.9127, 334.4318
502.3948, 318.9912
502.8770, 307.1046
503.3591, 301.6509
503.8412, 300.7350
504.3233, 300.5461
504.8054, 301.9673
505.2875, 302.7096
505.7697, 301.7940
506.2518, 299.1301
506.7339, 297.5225
507.2160, 297.2675
507.6981, 297.3408
508.1802, 296.8340
508.6624, 295.7522
509.1445, 294.3443
509.6266, 292.1769
510.1087, 290.6158
510.5908, 293.7386
511.0729, 300.4542
511.5551, 304.3861
512.0372, 297.9304
512.5193, 288.5788
513.0014, 289.7797
513.4835, 301.4136
513.9656, 309.8153
514.4478, 298.9136
514.9299, 282.7745
515.4120, 277.3366
515.8941, 295.1566
516.3762, 309.6965
516.8583, 305.7318
517.3405, 291.3087
517.8226, 282.5704
518.3047, 289.2515
518.7868, 296.0079
519.2689, 296.3724
519.7510, 289.2737
520.2332, 289.4182
520.7153, 302.1938
521.1974, 316.1597
521.6795, 323.1044
522.1616, 321.3001
522.6437, 318.2987
523.1259, 314.5399
523.6080, 310.0125
524.0901, 303.3481
524.5722, 294.1959
525.0543, 289.2287
525.5364, 293.9033
526.0186, 303.9307
526.5007, 305.0884
526.9828, 297.5724
527.4649, 291.5827
527.9470, 298.5364
528.4291, 311.4465
528.9113, 319.3873
529.3934, 319.4577
529.8755, 316.6460
530.3576, 312.2262
530.8397, 307.7002
531.3218, 305.5219
531.8040, 310.7372
532.2861, 314.6218
532.7682, 311.8523
533.2503, 302.9408
533.7324, 297.5362
534.2145, 300.3747
534.6967, 304.3641
535.1788, 305.7610
535.6609, 301.9842
536.1430, 301.8622
536.6251, 307.4891
537.1072, 314.8140
537.5894, 317.5562
538.0715, 314.6321
538.5536, 312.8683
539.0357, 315.3448
539.5178, 319.5082
539.9999, 315.3094
540.4821, 302.7033
540.9642, 290.8911
541.4463, 286.3291
541.9284, 286.8711
542.4105, 287.5695
542.8926, 287.9377
543.3748, 289.4036
543.8569, 295.0804
544.3390, 302.1689
544.8211, 306.5819
545.3032, 305.4783
545.7853, 303.1758
546.2675, 300.9324
546.7495, 299.0794
547.2316, 298.5985
547.7137, 301.9174
548.1959, 304.7194
548.6780, 305.8694
549.1601, 305.6581
549.6422, 301.0637
550.1243, 285.2148
550.6064, 271.7224
551.0886, 274.3163
551.5707, 301.3770
552.0528, 314.8380
552.5349, 307.1318
553.0170, 288.5610
553.4991, 278.2430
553.9813, 276.1935
554.4634, 281.1176
554.9455, 297.5965
555.4276, 319.1916
555.9097, 328.9893
556.3918, 327.4113
556.8740, 321.3149
557.3561, 312.3076
557.8382, 303.1958
558.3203, 297.9943
558.8024, 298.3160
559.2845, 299.3575
559.7667, 298.9163
560.2488, 297.3320
560.7309, 295.0733
561.2130, 291.3645
561.6951, 287.9527
562.1772, 284.6095
562.6594, 281.6671
563.1415, 281.2042
563.6236, 285.2067
564.1057, 289.1915
564.5878, 290.5618
565.0699, 288.1836
565.5521, 291.6828
566.0342, 303.6628
566.5163, 316.0217
566.9984, 319.4067
567.4805, 314.0925
567.9626, 308.5800
568.4448, 303.8129
568.9269, 300.6989
569.4090, 302.5118
569.8911, 307.7479
570.3732, 310.5440
570.8553, 305.6307
571.3375, 298.1713
571.8196, 291.8550
572.3017, 287.0072
572.7838, 287.0019
573.2659, 301.1152
573.7480, 315.8466
574.2302, 320.4952
574.7123, 307.0953
575.1944, 296.6492
575.6765, 291.8741
576.1586, 292.1594
576.6407, 297.6016
577.1229, 316.3145
577.6050, 325.1609
578.0871, 316.1860
578.5692, 295.2296
579.0513, 287.0479
579.5334, 293.7859
580.0156, 302.7131
580.4977, 307.8056
580.9798, 309.4747
581.4619, 309.3745
581.9440, 307.3802
582.4261, 305.6066
582.9083, 305.2702
583.3904, 306.7213
583.8725, 311.6680
584.3546, 323.2777
584.8367, 331.7318
585.3188, 326.4884
585.8010, 313.6986
586.2831, 304.5420
586.7652, 306.7761
587.2473, 309.4987
587.7294, 309.1263
588.2115, 305.6889
588.6937, 301.1726
589.1758, 291.6512
589.6579, 285.5851
590.1400, 287.9636
590.6221, 301.6539
591.1042, 310.1606
591.5864, 312.6600
592.0685, 311.5273
592.5506, 308.9499
593.0327, 304.9366
593.5148, 298.7003
593.9969, 288.0992
594.4791, 279.0661
594.9612, 284.6295
595.4433, 300.5169
595.9254, 312.1088
596.4075, 309.1613
596.8896, 300.7587
597.3718, 293.2095
597.8539, 286.9517
598.3360, 284.4009
598.8181, 290.0244
599.3002, 297.3369
599.7823, 302.1837
600.2645, 303.3092
600.7466, 304.1753
601.2287, 306.9716
601.7108, 308.3723
602.1929, 303.6617
602.6750, 287.1835
603.1572, 280.2913
603.6393, 289.0522
604.1214, 305.9894
604.6035, 312.8352
605.0856, 309.2094
605.5677, 305.4393
606.0499, 306.9068
606.5320, 311.2033
607.0141, 312.1349
607.4962, 309.9818
607.9783, 308.0621
608.4604, 311.2427
608.9425, 314.6758
609.4246, 312.0045
609.9067, 300.6761
610.3889, 290.7368
610.8710, 287.5518
611.3531, 287.7523
611.8352, 287.8057
612.3173, 285.2939
612.7994, 284.9809
613.2816, 289.0823
613.7637, 295.2722
614.2458, 297.4608
614.7279, 293.6913
615.2100, 291.1471
615.6921, 293.1221
616.1743, 298.4023
616.6564, 297.9920
617.1385, 291.3961
617.6206, 286.7512
618.1027, 292.8503
618.5848, 304.8070
619.0670, 311.6729
619.5491, 312.3226
620.0312, 309.4365
620.5133, 301.3887
620.9954, 292.4072
621.4775, 287.9908
621.9597, 292.6511
622.4418, 297.7823
622.9239, 301.1227
623.4060, 302.8766
623.8881, 303.4622
624.3702, 302.2715
624.8524, 300.6461
625.3345, 298.4251
625.8166, 295.8327
626.2987, 294.4784
626.7808, 294.0387
627.2629, 295.8254
627.7451, 303.1623
628.2272, 314.7425
628.7093, 317.1445
629.1914, 309.5059
629.6735, 300.0900
630.1556, 297.3265
630.6378, 298.3497
631.1199, 298.1692
631.6020, 295.4279
632.0841, 292.1725
632.5662, 289.7906
633.0483, 287.8029
633.5305, 285.4618
634.0126, 279.4999
634.4947, 276.5410
634.9768, 280.6991
635.4589, 289.8769
635.9410, 294.6231
636.4232, 291.9421
636.9053, 289.9106
637.3874, 291.9940
637.8695, 297.9971
638.3516, 301.8496
638.8337, 303.4086
639.3159, 303.7706
639.7980, 303.8028
640.2801, 303.3601
640.7622, 301.3096
641.2443, 297.0990
641.7264, 294.1216
642.2086, 298.0373
642.6907, 304.4746
643.1728, 306.9712
643.6549, 301.2858
644.1370, 294.6393
644.6191, 287.9095
645.1013, 282.4291
645.5834, 280.9371
646.0655, 288.7611
646.5476, 294.8091
647.0297, 295.6523
647.5118, 292.4312
647.9940, 293.9133
648.4761, 301.9861
648.9582, 308.9758
649.4403, 310.0300
649.9224, 305.8742
650.4045, 302.8105
650.8867, 300.8458
651.3688, 299.3972
651.8509, 298.4490
652.3330, 297.5162
652.8151, 295.0486
653.2972, 289.6874
653.7794, 287.0140
654.2615, 295.3257
654.7436, 306.6915
655.2257, 311.2144
655.7078, 297.9308
656.1899, 287.7460
656.6721, 285.5126
657.1542, 288.6760
657.6363, 291.9095
658.1184, 295.4973
658.6005, 298.5327
659.0826, 300.8011
659.5648, 302.2647
660.0469, 302.4127
660.5290, 301.1851
661.0111, 300.0234
661.4932, 299.8461
661.9753, 300.4184
662.4575, 302.0290
662.9396, 304.6938
663.4217, 305.6315
663.9038, 302.6375
664.3859, 297.0881
664.8680, 289.2103
665.3502, 274.9984
665.8323, 268.1622
666.3144, 277.5363
666.7965, 293.6311
667.2786, 305.1691
667.7607, 311.4102
668.2429, 314.1646
668.7250, 312.3901
669.2071, 308.1329
669.6892, 306.8047
670.1713, 308.5999
670.6534, 307.7059
671.1355, 300.4936
671.6176, 290.1735
672.0997, 282.3514
672.5818, 277.1681
673.0640, 275.2379
673.5461, 279.4050
674.0282, 285.2715
674.5103, 289.3447
674.9924, 291.3632
675.4745, 293.1920
675.9567, 296.5505
676.4388, 299.1033
676.9209, 299.2716
677.4030, 296.5816
677.8851, 292.5425
678.3672, 285.4346
678.8494, 279.3802
679.3315, 279.4508
679.8136, 285.8697
680.2957, 293.0000
680.7778, 300.3745
681.2599, 306.8276
681.7421, 311.3480
682.2242, 313.4956
682.7063, 311.6310
683.1884, 299.9109
683.6705, 289.5406
684.1526, 291.0020
684.6348, 300.7234
685.1169, 308.8880
685.5990, 312.6733
686.0811, 313.9294
686.5632, 312.9456
687.0453, 309.8908
687.5275, 305.3704
688.0096, 298.7614
688.4917, 291.8956
688.9738, 284.1836
689.4559, 275.8324
689.9380, 275.3748
690.4202, 283.4196
690.9023, 293.3573
691.3844, 301.5215
691.8665, 306.6728
692.3486, 304.8625
692.8307, 293.8568
693.3129, 284.6668
693.7950, 286.0490
694.2771, 292.9245
694.7592, 299.6457
695.2413, 309.4808
695.7234, 313.0401
696.2056, 303.2552
696.6877, 288.6017
697.1698, 282.6140
697.6519, 289.3119
698.1340, 293.0494
698.6161, 289.2223
699.0983, 281.5059
699.5804, 279.3607
700.0625, 282.5678
700.5446, 288.0544
701.0267, 297.6773
701.5089, 306.7843
701.9910, 307.0023
702.4731, 299.9652
702.9552, 294.5765
703.4373, 297.5147
703.9194, 301.9935
704.4016, 304.5836
704.8837, 305.0756
705.3658, 302.5352
705.8479, 292.7109
706.3300, 284.3433
706.8121, 282.8362
707.2943, 289.8240
707.7764, 295.9629
708.2585, 301.4937
708.7406, 305.5369
709.2227, 308.9565
709.7048, 310.3499
710.1870, 301.5544
710.6691, 277.1961
711.1512, 257.0081
711.6333, 263.7679
712.1154, 284.7244
712.5975, 301.0163
713.0797, 304.2659
713.5618, 305.1105
714.0439, 305.7032
714.5260, 305.9568
715.0081, 305.6883
715.4902, 304.6802
715.9724, 303.6569
716.4545, 303.1684
716.9366, 302.5816
717.4187, 298.5395
717.9008, 290.8923
718.3829, 286.3184
718.8651, 290.3097
719.3472, 298.2832
719.8293, 303.2822
720.3114, 305.2855
720.7935, 304.4429
721.2756, 297.6214
721.7578, 290.4549
722.2399, 286.4333
722.7220, 285.8368
723.2041, 288.2296
723.6862, 298.1092
724.1683, 306.5226
724.6505, 308.0936
725.1326, 301.0416
725.6147, 297.0751
726.0968, 296.9106
726.5789, 297.6973
727.0610, 295.9221
727.5432, 292.6227
728.0253, 291.8522
728.5074, 294.2299
728.9895, 298.7594
729.4716, 307.2723
729.9537, 316.4161
730.4359, 321.5247
730.9180, 320.1615
731.4001, 316.6902
731.8822, 310.6016
732.3643, 303.6097
732.8464, 298.4846
733.3285, 296.4663
733.8106, 293.4068
734.2927, 287.6057
734.7748, 281.4270
735.2570, 280.2477
735.7391, 283.9164
736.2212, 289.7641
736.7033, 298.4393
737.1854, 307.0269
737.6675, 311.8514
738.1497, 313.1224
738.6318, 311.6778
739.1139, 303.2500
739.5960, 296.5499
740.0781, 297.8944
740.5602, 306.5234
741.0424, 311.0946
741.5245, 309.3104
742.0066, 305.6735
742.4887, 301.2659
742.9708, 296.2118
743.4529, 293.3214
743.9351, 292.7678
744.4172, 292.9566
744.8993, 292.6256
745.3814, 292.1970
745.8635, 292.5305
746.3456, 293.6649
746.8278, 295.6021
747.3099, 287.3597
747.7920, 301.3992
748.2741, 309.3805
748.7562, 311.6291
749.2383, 290.9749
749.7205, 299.8950
750.2026, 296.9629
750.6847, 293.5450
751.1668, 306.6274
751.6489, 289.3044
752.1310, 302.1251
752.6132, 302.9131
753.0953, 309.2081
753.5774, 303.5779
754.0595, 301.6311
754.5416, 311.6133
755.0237, 314.9902
755.5059, 307.9874
755.9880, 314.6325
756.4701, 296.8929
756.9522, 300.5512
757.4343, 295.8054
757.9164, 287.1692
758.3986, 279.6078
758.8807, 280.0513
759.3628, 291.7625
759.8449, 300.4096
760.3270, 302.3261
760.8091, 300.2685
761.2913, 300.9335
761.7734, 303.4107
762.2555, 302.4589
762.7376, 292.1190
763.2197, 280.9390
763.7018, 276.8960
764.1840, 278.6885
764.6661, 282.5150
765.1482, 289.8359
765.6303, 295.9640
766.1124, 297.8120
766.5945, 296.6206
767.0767, 299.9626
767.5588, 310.4953
768.0409, 318.2515
768.5230, 318.4605
769.0051, 312.6391
769.4872, 305.2887
769.9694, 296.6678
770.4515, 291.0648
770.9336, 296.0151
771.4157, 302.3687
771.8978, 297.1377
772.3799, 280.8517
772.8621, 272.1699
773.3442, 286.6215
773.8263, 302.8615
774.3084, 309.9453
774.7905, 307.1221
775.2726, 301.7924
775.7548, 292.7038
776.2369, 284.1113
776.7190, 278.9842
777.2011, 277.0189
777.6832, 276.5515
778.1653, 277.5057
778.6475, 280.2610
779.1296, 288.5797
779.6117, 297.0850
780.0938, 298.2950
780.5759, 289.2548
781.0580, 282.9550
781.5402, 286.7072
782.0223, 292.5724
782.5044, 294.5098
782.9865, 290.7207
783.4686, 288.0874
783.9507, 286.9663
784.4329, 286.1973
784.9150, 284.6510
785.3971, 282.3865
785.8792, 278.6939
786.3613, 272.6744
786.8434, 269.9712
787.3256, 281.8560
787.8077, 297.6595
788.2898, 303.3131
788.7719, 287.9391
789.2540, 276.8498
789.7361, 278.4665
790.2183, 286.0799
790.7004, 294.1637
791.1825, 305.5595
791.6646, 306.7768
792.1467, 293.3668
792.6288, 276.2800
793.1110, 271.5658
793.5930, 276.8564
794.0751, 283.2929
794.5573, 289.3720
795.0394, 293.8884
795.5215, 294.8254
796.0036, 293.7122
796.4857, 292.7311
796.9678, 293.4025
797.4500, 293.0522
797.9321, 290.3152
798.4142, 286.9110
798.8963, 285.7697
799.3784, 287.4196
799.8605, 288.9078
800.3427, 290.1748
800.8248, 290.0515
801.3069, 284.4027
801.7890, 275.4428
802.2711, 270.1532
802.7532, 272.8436
803.2354, 277.7705
803.7175, 283.3035
804.1996, 288.1906
804.6817, 289.9690
805.1638, 284.9278
805.6459, 280.5218
806.1281, 276.3252
806.6102, 274.0834
807.0923, 280.1747
807.5744, 295.2997
808.0565, 305.4955
808.5386, 305.2984
809.0208, 299.4580
809.5029, 292.1681
809.9850, 285.2321
810.4671, 283.7270
810.9492, 299.6701
811.4313, 311.3975
811.9135, 304.2613
812.3956, 284.9241
812.8777, 274.6007
813.3598, 278.6976
813.8419, 283.4142
814.3240, 286.8739
814.8062, 288.0322
815.2883, 280.2200
815.7704, 264.6764
816.2525, 257.5529
816.7346, 272.4393
817.2167, 292.5609
817.6989, 297.8256
818.1810, 292.0068
818.6631, 285.9608
819.1452, 284.9799
819.6273, 283.1441
820.1094, 275.7467
820.5916, 265.9114
821.0737, 264.3976
821.5558, 274.1153
822.0379, 282.4429
822.5200, 285.0667
823.0021, 283.8589
823.4843, 282.5630
823.9664, 281.3627
824.4485, 281.0808
824.9306, 284.5822
825.4127, 287.0137
825.8948, 283.8577
826.3770, 276.5325
826.8591, 269.7636
827.3412, 259.9165
827.8233, 256.9536
828.3054, 266.0545
828.7875, 283.1119
829.2697, 292.4807
829.7518, 293.8982
830.2339, 292.0316
830.7160, 287.0263
831.1981, 281.5240
831.6802, 279.7273
832.1624, 281.0929
832.6445, 283.9717
833.1266, 289.7746
833.6087, 294.6872
834.0908, 299.0682
834.5729, 301.2731
835.0551, 294.9092
835.5372, 273.4862
836.0193, 258.2828
836.5014, 256.6359
836.9835, 263.9409
837.4656, 267.7506
837.9478, 268.4189
838.4299, 268.5324
838.9120, 267.4425
839.3941, 268.0433
839.8762, 275.5457
840.3583, 286.9594
840.8405, 294.2787
841.3226, 294.9750
841.8047, 290.8753
842.2868, 279.5053
842.7689, 264.6246
843.2510, 258.0646
843.7332, 260.6702
844.2153, 264.6613
844.6974, 267.5536
845.1795, 270.3788
845.6616, 274.6769
846.1437, 280.3546
846.6259, 287.1339
847.1080, 300.0831
847.5901, 308.6100
848.0722, 305.8141
848.5543, 295.0423
849.0364, 285.0075
849.5186, 273.9984
850.0007, 268.4519
850.4828, 271.4237
850.9649, 278.3682
851.4470, 278.9109
851.9291, 274.1775
852.4113, 270.8495
852.8934, 271.4073
853.3755, 273.8446
853.8576, 277.0882
854.3397, 280.8066
854.8218, 284.4626
855.3040, 288.7826
855.7860, 291.9748
856.2681, 294.7740
856.7502, 295.7233
857.2324, 291.5151
857.7145, 281.7977
858.1966, 271.6708
858.6787, 260.5614
859.1608, 253.6395
859.6429, 262.9530
860.1251, 280.5605
860.6072, 291.3959
861.0893, 287.4351
861.5714, 281.4189
862.0535, 275.5690
862.5356, 271.4952
863.0178, 271.6918
863.4999, 279.3251
863.9820, 281.4918
864.4641, 275.3011
864.9462, 267.3650
865.4283, 268.3815
865.9105, 275.3179
866.3926, 277.5988
866.8747, 271.4102
867.3568, 266.5481
867.8389, 273.3511
868.3210, 283.6523
868.8032, 288.8836
869.2853, 282.1183
869.7674, 280.8835
870.2495, 290.7905
870.7316, 298.6618
871.2137, 286.3264
871.6959, 256.0810
872.1780, 243.5716
872.6601, 253.1503
873.1422, 268.5915
873.6243, 278.8966
874.1064, 284.7743
874.5886, 285.6660
875.0707, 279.6564
875.5528, 277.7165
876.0349, 287.9200
876.5170, 298.0409
876.9991, 300.4881
877.4813, 294.2115
877.9634, 290.4858
878.4455, 289.6948
878.9276, 288.5991
879.4097, 282.0100
879.8918, 274.4975
880.3740, 274.7870
880.8561, 283.0932
881.3382, 290.4780
881.8203, 292.4906
882.3024, 292.5995
882.7845, 292.1259
883.2667, 291.1444
883.7488, 292.0489
884.2309, 295.6093
884.7130, 298.2596
885.1951, 297.8976
885.6772, 295.1895
886.1594, 290.5541
886.6415, 284.6997
887.1236, 281.4996
887.6057, 287.6643
888.0878, 292.9987
888.5699, 289.1057
889.0521, 277.8696
889.5342, 273.4957
890.0163, 279.9146
890.4984, 285.5623
890.9805, 286.5319
891.4626, 284.8958
891.9448, 287.7380
892.4269, 293.8531
892.9090, 296.5193
893.3911, 289.0602
893.8732, 280.9864
894.3553, 279.2658
894.8375, 282.3680
895.3196, 287.0904
895.8017, 295.5731
896.2838, 301.6722
896.7659, 304.1879
897.2480, 304.5184
897.7302, 306.3571
898.2123, 309.1768
898.6944, 306.0331
899.1765, 293.1796
899.6586, 280.3364
900.1407, 278.1057
900.6229, 281.9610
901.1050, 285.8751
901.5871, 288.7304
902.0692, 291.0319
902.5513, 293.7136
903.0334, 295.1651
903.5156, 293.5105
903.9977, 288.6140
904.4798, 282.2100
904.9619, 273.7299
905.4440, 268.9502
905.9261, 279.1342
906.4083, 293.6340
906.8904, 297.0448
907.3725, 284.9919
907.8546, 277.1009
908.3367, 286.7504
908.8188, 295.4167
909.3010, 290.4304
909.7831, 270.5538
910.2652, 266.4459
910.7473, 279.6449
911.2294, 293.5770
911.7115, 296.0321
912.1937, 292.2346
912.6758, 289.3522
913.1579, 287.6221
913.6400, 286.5463
914.1221, 286.9554
914.6042, 286.8298
915.0864, 283.8210
915.5685, 279.3396
916.0506, 282.3339
916.5327, 294.5174
917.0148, 302.8130
917.4969, 301.1511
917.9790, 294.1550
918.4611, 286.9098
918.9432, 280.7411
919.4254, 279.0732
919.9075, 290.3727
920.3896, 298.4244
920.8717, 294.4758
921.3538, 284.7295
921.8359, 278.8351
922.3181, 276.8314
922.8002, 279.1113
923.2823, 287.0285
923.7644, 295.6243
924.2465, 296.5755
924.7286, 293.2166
925.2108, 292.6583
925.6929, 298.2721
926.1750, 301.3089
926.6571, 297.5776
927.1392, 289.6785
927.6213, 278.4569
928.1035, 260.1762
928.5856, 256.2581
929.0677, 269.7388
929.5498, 285.3285
930.0319, 287.9401
930.5140, 283.9028
930.9962, 287.5515
931.4783, 299.5159
931.9604, 308.7395
932.4425, 309.4601
932.9246, 306.1468
933.4067, 299.1424
933.8889, 289.2618
934.3710, 285.5576
934.8531, 289.3052
935.3352, 293.5630
935.8173, 295.0091
936.2994, 294.9037
936.7816, 295.6028
937.2637, 296.8810
937.7458, 298.0009
938.2279, 296.6410
938.7100, 297.2420
939.1921, 305.4421
939.6743, 315.6693
940.1564, 316.4217
940.6385, 305.0164
941.1206, 296.1786
941.6027, 293.0052
942.0848, 291.7271
942.5670, 286.5918
943.0491, 279.4626
943.5312, 273.3672
944.0133, 268.1709
944.4954, 266.8785
944.9775, 273.5934
945.4597, 282.8046
945.9418, 289.9201
946.4239, 294.7255
946.9060, 298.5019
947.3881, 301.3345
947.8702, 302.8136
948.3524, 301.6759
948.8345, 299.3600
949.3166, 299.2086
949.7987, 301.0418
950.2808, 300.0250
950.7629, 289.2762
951.2451, 280.1614
951.7272, 278.7382
952.2093, 283.4205
952.6914, 282.9263
953.1735, 276.3048
953.6556, 274.0804
954.1378, 282.7052
954.6199, 295.5763
955.1020, 306.0166
955.5841, 313.1179
956.0662, 314.8572
956.5483, 306.7620
957.0305, 297.7277
957.5126, 287.2558
957.9947, 278.5125
958.4768, 276.1964
958.9589, 280.4964
959.4410, 287.6211
959.9232, 297.9033
960.4053, 306.6324
960.8874, 307.0768
961.3695, 303.9960
961.8516, 304.7174
962.3337, 312.4970
962.8159, 313.2227
963.2980, 295.4106
963.7801, 280.2691
964.2622, 281.7062
964.7443, 298.2910
965.2264, 301.5670
965.7086, 291.9409
966.1907, 283.5149
966.6728, 287.8300
967.1549, 295.3883
967.6370, 299.4171
968.1191, 299.3634
968.6013, 293.3334
969.0834, 269.7418
969.5655, 258.0462
970.0476, 267.7388
970.5297, 287.8977
971.0118, 294.6502
971.4940, 290.3695
971.9761, 289.8859
972.4582, 299.7025
972.9403, 307.6143
973.4224, 300.5234
973.9045, 288.3269
974.3867, 282.6894
974.8688, 287.2364
975.3509, 293.7909
975.8330, 304.2101
976.3151, 312.2918
976.7972, 310.9614
977.2794, 303.0358
977.7615, 296.4314
978.2436, 291.6628
978.7257, 289.6541
979.2078, 292.4292
979.6899, 296.7572
980.1720, 301.7847
980.6541, 306.9868
981.1362, 310.0463
981.6183, 311.1113
982.1005, 308.7753
982.5826, 300.3064
983.0647, 291.5027
983.5468, 295.9059
984.0289, 308.0212
984.5110, 314.8325
984.9932, 308.8522
985.4753, 301.5036
985.9574, 293.8431
986.4395, 288.0128
986.9216, 286.5175
987.4037, 289.7260
987.8859, 294.4159
988.3680, 300.5671
988.8501, 306.4431
989.3322, 310.7806
989.8143, 313.6971
990.2964, 315.2855
990.7786, 315.5402
991.2607, 314.5916
991.7428, 310.6196
992.2249, 308.0259
992.7070, 309.4550
993.1891, 313.2118
993.6713, 311.1036
994.1534, 303.8708
994.6355, 297.6435
995.1176, 294.8308
995.5997, 294.4710
996.0818, 298.7234
996.5640, 304.1231
997.0461, 304.0145
997.5282, 292.8250
998.0103, 286.1257
998.4924, 285.0112
998.9745, 288.1609
999.4567, 296.8412
999.9388, 308.2954
1000.421, 314.0334
1000.903, 313.0550
1001.385, 309.9796
1001.867, 306.9217
1002.349, 303.0859
1002.831, 296.2378
1003.314, 287.0475
1003.796, 286.1867
1004.278, 294.8818
1004.760, 303.6722
1005.242, 308.8782
1005.724, 311.2347
1006.206, 312.5885
1006.688, 311.9907
1007.171, 307.3730
1007.653, 287.9468
1008.135, 278.4790
1008.617, 287.5907
1009.099, 302.8799
1009.581, 308.3799
1010.063, 304.6908
1010.545, 306.3013
1011.027, 315.0818
1011.510, 322.3026
1011.992, 318.9895
1012.474, 311.7133
1012.956, 305.5307
1013.438, 300.9237
1013.920, 298.8507
1014.402, 300.3618
1014.884, 301.8306
1015.367, 301.5728
1015.849, 300.4641
1016.331, 301.1982
1016.813, 303.1449
1017.295, 304.1020
1017.777, 299.6035
1018.259, 298.4254
1018.741, 308.0405
1019.223, 320.8393
1019.706, 327.5651
1020.188, 327.3736
1020.670, 324.8670
1021.152, 319.9018
1021.634, 315.4260
1022.116, 314.4289
1022.598, 315.5979
1023.080, 317.7318
1023.563, 320.6939
1024.045, 323.2919
1024.527, 326.7047
1025.009, 327.5019
1025.491, 323.1871
1025.973, 316.1538
1026.455, 314.2245
1026.937, 316.9034
1027.419, 321.6927
1027.901, 330.1013
1028.384, 335.9007
1028.866, 331.6229
1029.348, 323.6814
1029.830, 320.8489
1030.312, 326.3813
1030.794, 328.2486
1031.276, 325.5081
1031.758, 322.0755
1032.241, 323.1500
1032.723, 325.2929
1033.205, 320.3407
1033.687, 309.0068
1034.169, 302.0428
1034.651, 311.3188
1035.133, 316.5672
1035.615, 308.1631
1036.098, 292.6551
1036.580, 290.0192
1037.062, 299.3319
1037.544, 309.1808
1038.026, 316.7910
1038.508, 322.5481
1038.990, 326.6201
1039.472, 329.2172
1039.954, 330.4137
1040.437, 329.5996
1040.919, 329.7036
1041.401, 331.5928
1041.883, 331.9554
1042.365, 327.0141
1042.847, 319.2235
1043.329, 312.6739
1043.811, 308.2171
1044.293, 309.5629
1044.776, 328.3594
1045.258, 341.2385
1045.740, 337.3517
1046.222, 324.8603
1046.704, 317.4743
1047.186, 315.2378
1047.668, 317.5002
1048.150, 324.5768
1048.633, 333.5009
1049.115, 346.3804
1049.597, 356.4740
1050.079, 355.2805
1050.561, 338.8806
1051.043, 327.5941
1051.525, 322.5841
1052.007, 320.9738
1052.490, 322.7236
1052.972, 325.9973
1053.454, 325.4119
1053.936, 322.4182
1054.418, 321.4706
1054.900, 327.2961
1055.382, 331.9606
1055.864, 333.6979
1056.346, 332.7879
1056.828, 328.3967
1057.311, 320.4330
1057.793, 315.5710
1058.275, 314.5069
1058.757, 312.9818
1059.239, 302.1824
1059.721, 293.4352
1060.203, 301.1601
1060.685, 324.3539
1061.168, 332.7885
1061.650, 319.6218
1062.132, 308.0693
1062.614, 304.8351
1063.096, 307.1949
1063.578, 312.3412
1064.060, 319.0265
1064.542, 324.9227
1065.025, 330.3438
1065.507, 332.4623
1065.989, 326.7349
1066.471, 320.8596
1066.953, 321.3018
1067.435, 327.7747
1067.917, 312.6768
1068.399, 326.2987
1068.881, 333.8624
1069.364, 335.6929
1069.846, 314.6212
1070.328, 323.1236
1070.810, 319.7740
1071.292, 315.9384
1071.774, 328.6032
1072.256, 310.8627
1072.738, 323.2658
1073.220, 323.6362
1073.703, 329.5132
1074.185, 323.4654
1074.667, 321.1010
1075.149, 330.6656
1075.631, 333.6250
1076.113, 326.2045
1076.595, 332.4321
1077.077, 314.2749
1077.559, 317.5157
1078.042, 329.9882
1078.524, 323.1673
1079.006, 329.6128
1079.488, 331.0058
1079.970, 309.4368
1080.452, 327.8009
1080.934, 328.8954
1081.416, 312.2574
1081.899, 329.2528
1082.381, 315.0595
1082.863, 311.9988
1083.345, 327.9243
1083.827, 334.0824
1084.309, 336.1219
1084.791, 331.1118
1085.273, 321.5832
1085.755, 318.8981
1086.238, 331.7660
1086.720, 335.9070
1087.202, 324.0615
1087.684, 309.2706
1088.166, 316.0633
1088.648, 333.5406
1089.130, 332.7617
1089.612, 306.9724
1090.094, 288.2360
1090.577, 298.8741
1091.059, 310.5471
1091.541, 308.2153
1092.023, 296.1201
1092.505, 297.3864
1092.987, 310.4530
1093.469, 321.3266
1093.951, 323.8318
1094.434, 323.5056
1094.916, 323.2658
1095.398, 322.9791
1095.880, 322.6514
1096.362, 322.8339
1096.844, 320.2181
1097.326, 314.1513
1097.808, 309.5253
1098.291, 312.3569
1098.773, 317.3214
1099.255, 317.2323
1099.737, 313.0374
1100.219, 308.7655
1100.701, 302.5000
1101.183, 301.3767
1101.665, 307.8614
1102.147, 317.0705
1102.630, 322.6926
1103.112, 325.2696
1103.594, 325.7148
1104.076, 324.0334
1104.558, 322.4796
1105.040, 321.8284
1105.522, 321.9366
1106.004, 323.3291
1106.486, 325.2502
1106.969, 324.4162
1107.451, 321.0224
1107.933, 316.2169
1108.415, 308.9874
1108.897, 303.8600
1109.379, 308.4492
1109.861, 314.2746
1110.343, 310.5269
1110.826, 293.9353
1111.308, 288.3094
1111.790, 294.6597
1112.272, 303.5856
1112.754, 312.3582
1113.236, 317.8643
1113.718, 312.0193
1114.200, 300.2523
1114.682, 297.3712
1115.165, 315.6164
1115.647, 322.4775
1116.129, 311.7195
1116.611, 297.9726
1117.093, 297.6794
1117.575, 306.6369
1118.057, 319.1875
1118.539, 334.1720
1119.021, 342.4552
1119.504, 335.5875
1119.986, 327.1804
1120.468, 320.1349
1120.950, 314.7343
1121.432, 312.4226
1121.914, 312.4581
1122.396, 310.7609
1122.878, 305.3994
1123.361, 302.8567
1123.843, 309.1163
1124.325, 317.8700
1124.807, 326.5886
1125.289, 334.5631
1125.771, 329.4080
1126.253, 311.4842
1126.735, 296.6781
1127.218, 292.3053
1127.700, 293.9898
1128.182, 303.5114
1128.664, 314.4200
1129.146, 316.3921
1129.628, 304.3495
1130.110, 299.3855
1130.592, 302.3497
1131.074, 307.8267
1131.557, 313.1398
1132.039, 317.5320
1132.521, 321.0496
1133.003, 322.8666
1133.485, 319.3887
1133.967, 301.9386
1134.449, 295.9688
1134.931, 308.0800
1135.413, 323.8627
1135.896, 322.5623
1136.378, 312.3230
1136.860, 310.3002
1137.342, 318.0334
1137.824, 322.4672
1138.306, 314.1861
1138.788, 308.0738
1139.270, 309.3336
1139.752, 314.4636
1140.235, 314.9608
1140.717, 312.0172
1141.199, 310.2629
1141.681, 311.7144
1142.163, 310.7762
1142.645, 298.9278
1143.127, 289.5691
1143.609, 293.0374
1144.092, 306.9320
1144.574, 309.5099
1145.056, 301.8826
1145.538, 294.5175
1146.020, 291.8298
1146.502, 291.2875
1146.984, 291.8426
1147.466, 293.4289
1147.948, 296.5389
1148.431, 302.2724
1148.913, 302.5276
1149.395, 297.0918
1149.877, 290.0578
1150.359, 280.9440
1150.841, 274.5175
1151.323, 277.0925
1151.805, 285.3264
1152.287, 289.8893
1152.770, 289.1561
1153.252, 288.4296
1153.734, 287.7805
1154.216, 289.1945
1154.698, 297.4458
1155.180, 307.1058
1155.662, 312.3173
1156.144, 312.6486
1156.627, 307.5747
1157.109, 292.4734
1157.591, 284.5641
1158.073, 289.3435
1158.555, 298.9722
1159.037, 303.2601
1159.519, 303.8380
1160.001, 302.7892
1160.484, 300.1007
1160.966, 299.1272
1161.448, 301.0196
1161.930, 303.7912
1162.412, 307.2101
1162.894, 310.5229
1163.376, 313.2953
1163.858, 314.3811
1164.340, 309.9227
1164.823, 295.0489
1165.305, 284.6321
1165.787, 284.0802
1166.269, 287.1726
1166.751, 290.9568
1167.233, 295.3607
1167.715, 300.2893
1168.197, 305.5508
1168.679, 310.1637
1169.162, 315.0296
1169.644, 317.3698
1170.126, 313.9918
1170.608, 309.4520
1171.090, 309.3153
1171.572, 312.8583
1172.054, 306.1097
1172.536, 289.7563
1173.019, 276.7497
1173.501, 274.3935
1173.983, 277.8511
1174.465, 289.2017
1174.947, 302.6301
1175.429, 308.9036
1175.911, 307.9830
1176.393, 311.4283
1176.875, 320.6077
1177.358, 324.5487
1177.840, 305.0773
1178.322, 286.5047
1178.804, 289.8665
1179.286, 307.7657
1179.768, 315.3933
1180.250, 312.0964
1180.732, 312.5660
1181.214, 321.0388
1181.697, 326.0340
1182.179, 312.0629
1182.661, 293.8071
1183.143, 283.7713
1183.625, 282.3156
1184.107, 285.9349
1184.589, 295.1689
1185.071, 304.4939
1185.554, 312.9503
1186.036, 318.6783
1186.518, 317.7356
1187.000, 313.9536
1187.482, 311.3784
1187.964, 310.2856
1188.446, 312.3632
1188.928, 318.5615
1189.411, 321.7366
1189.893, 316.6789
1190.375, 309.5183
1190.857, 309.0414
1191.339, 311.0019
1191.821, 308.0107
1192.303, 294.3523
1192.785, 292.0234
1193.267, 303.3015
1193.750, 314.8959
1194.232, 318.4095
1194.714, 316.7610
1195.196, 311.2987
1195.678, 304.1281
1196.160, 299.9872
1196.642, 299.7073
1197.124, 303.1538
1197.606, 311.6294
1198.089, 318.7536
1198.571, 317.1521
1199.053, 311.9271
1199.535, 309.3299
1200.017, 309.3978
1200.499, 311.5665
1200.981, 318.9631
1201.463, 320.5274
1201.945, 313.5689
1202.428, 305.6846
1202.910, 306.6778
1203.392, 311.1541
1203.874, 311.9567
1204.356, 308.6074
1204.838, 301.1966
1205.320, 283.1523
1205.802, 277.0100
1206.285, 289.8687
1206.767, 307.8039
1207.249, 311.9860
1207.731, 308.7657
1208.213, 308.0669
1208.695, 311.0714
1209.177, 310.5367
1209.659, 300.9258
1210.141, 299.2069
1210.624, 312.5371
1211.106, 330.7904
1211.588, 341.6350
1212.070, 344.9687
1212.552, 338.7103
1213.034, 320.7811
1213.516, 307.3253
1213.998, 299.9038
1214.480, 297.3654
1214.963, 300.7331
1215.445, 306.4164
1215.927, 309.3152
1216.409, 309.3423
1216.891, 305.1083
1217.373, 293.1448
1217.855, 290.2209
1218.337, 302.2082
1218.820, 310.8150
1219.302, 303.6030
1219.784, 290.8180
1220.266, 293.8874
1220.748, 306.2163
1221.230, 315.3358
1221.712, 318.6106
1222.194, 315.3773
1222.677, 302.5635
1223.159, 291.8384
1223.641, 290.0544
1224.123, 295.5477
1224.605, 311.9227
1225.087, 332.0953
1225.569, 340.0336
1226.051, 318.3750
1226.533, 304.2550
1227.016, 298.9692
1227.498, 298.9528
1227.980, 304.5969
1228.462, 311.7296
1228.944, 310.9694
1229.426, 305.8323
1229.908, 306.5864
1230.390, 325.2621
1230.872, 330.2748
1231.355, 316.2169
1231.837, 301.2585
1232.319, 303.5280
1232.801, 314.2505
1233.283, 322.9827
1233.765, 328.9146
1234.247, 330.5783
1234.729, 327.0584
1235.212, 320.3409
1235.694, 309.2342
1236.176, 300.2332
1236.658, 303.4964
1237.140, 310.5049
1237.622, 307.8058
1238.104, 297.7178
1238.586, 297.2651
1239.068, 312.1557
1239.551, 322.0562
1240.033, 323.8754
1240.515, 321.3174
1240.997, 315.0066
1241.479, 308.8974
1241.961, 307.7153
1242.443, 311.3878
1242.925, 317.0798
1243.407, 326.7746
1243.890, 327.4719
1244.372, 314.7362
1244.854, 302.4548
1245.336, 310.3956
1245.818, 323.0944
1246.300, 322.9799
1246.782, 310.6098
1247.264, 307.7531
1247.747, 316.2010
1248.229, 321.4612
1248.711, 319.7032
1249.193, 316.1503
1249.675, 316.5767
1250.157, 317.1664
1250.639, 312.7505
1251.121, 304.3927
1251.604, 302.0793
1252.086, 306.1438
1252.568, 311.5494
1253.050, 317.9843
1253.532, 320.7628
1254.014, 310.0977
1254.496, 298.5010
1254.978, 298.6363
1255.460, 308.2830
1255.943, 310.9831
1256.425, 307.0443
1256.907, 304.4211
1257.389, 305.3849
1257.871, 308.4791
1258.353, 322.7877
1258.835, 328.5837
1259.317, 304.3012
1259.799, 258.3601
1260.281, 254.6845
1260.764, 286.8868
1261.246, 311.7835
1261.728, 314.5181
1262.210, 308.9903
1262.692, 292.9495
1263.174, 281.2130
1263.656, 284.9894
1264.138, 300.2170
1264.621, 306.7951
1265.103, 307.0108
1265.585, 311.0211
1266.067, 326.4462
1266.549, 335.4398
1267.031, 324.9215
1267.513, 314.2979
1267.995, 315.3070
1268.478, 323.9503
1268.960, 327.1636
1269.442, 326.0814
1269.924, 324.0109
1270.406, 321.6122
1270.888, 318.7685
1271.370, 313.0168
1271.852, 311.6404
1272.334, 322.7900
1272.817, 339.0016
1273.299, 343.6858
1273.781, 339.2369
1274.263, 330.5157
1274.745, 311.1582
1275.227, 306.4568
1275.709, 322.2560
1276.191, 336.8834
1276.673, 333.9175
1277.156, 323.7427
1277.638, 322.0611
1278.120, 325.7992
1278.602, 328.7782
1279.084, 328.4524
##END=



