##NAMES=Todorokite
##RRUFFID=R070257
##IDEAL CHEMISTRY=(Na,Ca,K,Ba,Sr)_1-x_(Mn^4+^,Mn^3+^,Mg,Al)_6_O_12_&#183;3-4H_2_O
##LOCALITY=Todoroki mine, Shiribeshi Province, Hokkaido Island, Japan
##OWNER=RRUFF
##SOURCE=Michael Scott
##DESCRIPTION=Black fibrous fine grains
##STATUS=The identification of this mineral is not yet confirmed.
##URL=rruff.info/R070257
151.5903, 390.7457
152.0724, 392.3162
152.5545, 394.5298
153.0366, 396.9085
153.5188, 399.8127
154.0009, 403.9328
154.4830, 409.9692
154.9651, 416.8371
155.4472, 424.5241
155.9293, 436.7711
156.4115, 444.2422
156.8936, 442.9445
157.3757, 434.8893
157.8578, 427.0995
158.3399, 419.3442
158.8221, 413.8083
159.3042, 411.8446
159.7863, 416.9637
160.2684, 422.5929
160.7505, 427.7131
161.2326, 432.1082
161.7148, 433.6935
162.1969, 428.6001
162.6790, 421.4132
163.1611, 416.6209
163.6432, 417.2929
164.1253, 419.4068
164.6075, 421.4070
165.0896, 423.2579
165.5717, 424.1345
166.0538, 421.2658
166.5359, 417.5384
167.0180, 417.0442
167.5002, 425.6299
167.9823, 435.4814
168.4644, 440.6487
168.9465, 440.3908
169.4286, 437.5793
169.9107, 430.9971
170.3929, 423.2772
170.8750, 419.8031
171.3571, 428.1584
171.8392, 440.1134
172.3213, 446.3533
172.8034, 444.5674
173.2856, 440.6458
173.7677, 438.9994
174.2498, 439.4861
174.7319, 441.6161
175.2140, 447.6727
175.6961, 454.5990
176.1783, 457.0962
176.6604, 452.6400
177.1425, 446.2553
177.6246, 445.1163
178.1067, 448.3418
178.5888, 450.1173
179.0710, 442.8885
179.5531, 431.1064
180.0352, 425.2186
180.5173, 429.8971
180.9994, 439.4542
181.4815, 444.7839
181.9637, 446.0260
182.4458, 446.1008
182.9279, 447.3553
183.4100, 449.5005
183.8921, 451.4762
184.3742, 453.0103
184.8564, 454.1716
185.3385, 455.1721
185.8206, 456.0475
186.3027, 456.4344
186.7848, 454.9609
187.2669, 452.0868
187.7491, 451.4041
188.2312, 456.9701
188.7133, 465.8162
189.1954, 465.3572
189.6775, 454.0782
190.1596, 440.2513
190.6418, 434.0199
191.1239, 435.2672
191.6060, 437.5120
192.0881, 437.3151
192.5702, 435.3029
193.0524, 437.8267
193.5345, 445.9867
194.0166, 455.7950
194.4987, 460.5537
194.9808, 459.9386
195.4629, 459.1700
195.9451, 461.9973
196.4272, 468.3088
196.9093, 469.1961
197.3914, 463.0435
197.8735, 453.5675
198.3556, 447.4056
198.8378, 444.7607
199.3199, 444.1853
199.8020, 445.7754
200.2841, 449.7603
200.7662, 452.1248
201.2483, 452.2074
201.7305, 450.9396
202.2126, 450.1977
202.6947, 449.6875
203.1768, 450.8030
203.6589, 455.9852
204.1410, 466.4834
204.6232, 471.3848
205.1053, 468.0956
205.5874, 459.3030
206.0695, 453.9716
206.5516, 452.8459
207.0337, 453.2272
207.5159, 453.3074
207.9980, 452.8745
208.4801, 453.1801
208.9622, 454.5720
209.4443, 456.8155
209.9264, 458.7980
210.4086, 460.5200
210.8907, 461.9853
211.3728, 463.8163
211.8549, 467.2104
212.3370, 466.5681
212.8191, 459.3256
213.3013, 446.7371
213.7834, 439.0379
214.2655, 437.4140
214.7476, 438.7808
215.2297, 440.6876
215.7118, 443.1982
216.1940, 446.2079
216.6761, 450.1020
217.1582, 454.7923
217.6403, 458.2250
218.1224, 461.4261
218.6045, 461.9645
219.0867, 455.7695
219.5688, 437.2758
220.0509, 425.6675
220.5330, 427.4828
221.0151, 443.1552
221.4972, 452.1506
221.9794, 452.2831
222.4615, 448.2815
222.9436, 444.3024
223.4257, 437.9346
223.9078, 436.9669
224.3899, 445.8751
224.8721, 466.3048
225.3542, 475.6515
225.8363, 468.1260
226.3184, 455.0934
226.8005, 450.5566
227.2827, 459.8538
227.7648, 467.4749
228.2469, 468.7457
228.7290, 462.4588
229.2111, 459.6129
229.6932, 463.0726
230.1754, 467.6870
230.6575, 465.9635
231.1396, 452.9602
231.6217, 442.3998
232.1038, 438.4352
232.5859, 442.2839
233.0681, 446.2823
233.5502, 450.5206
234.0323, 454.8262
234.5144, 459.0571
234.9965, 463.3784
235.4786, 467.3215
235.9608, 471.0949
236.4429, 475.1767
236.9250, 476.3917
237.4071, 472.6387
237.8892, 467.3146
238.3713, 466.0208
238.8535, 470.9263
239.3356, 476.2736
239.8177, 480.6587
240.2998, 484.5342
240.7819, 485.5865
241.2640, 482.9898
241.7462, 478.0696
242.2283, 472.4677
242.7104, 463.4194
243.1925, 458.3284
243.6746, 461.1604
244.1567, 476.2615
244.6389, 484.0667
245.1210, 481.4951
245.6031, 473.4842
246.0852, 468.5673
246.5673, 467.4879
247.0494, 468.2572
247.5316, 470.4899
248.0137, 474.7840
248.4958, 478.6539
248.9779, 482.5737
249.4600, 485.7763
249.9421, 486.6303
250.4243, 484.3279
250.9064, 481.1371
251.3885, 477.6926
251.8706, 473.7014
252.3527, 470.3229
252.8348, 467.2850
253.3170, 465.0249
253.7991, 464.9644
254.2812, 469.2169
254.7633, 471.5868
255.2454, 468.6404
255.7275, 457.5649
256.2097, 452.0808
256.6918, 454.4185
257.1739, 460.8717
257.6560, 464.3110
258.1381, 462.8533
258.6202, 462.3188
259.1024, 466.0035
259.5845, 476.2489
260.0666, 480.3285
260.5487, 475.5963
261.0308, 466.6938
261.5129, 462.0685
261.9951, 463.0771
262.4772, 465.2162
262.9593, 466.5187
263.4414, 466.3915
263.9235, 468.6517
264.4056, 474.5516
264.8878, 481.7006
265.3699, 485.4008
265.8520, 484.0052
266.3341, 484.0180
266.8162, 490.0158
267.2983, 504.3435
267.7805, 508.2319
268.2626, 498.1620
268.7447, 481.4914
269.2268, 470.1601
269.7089, 464.4475
270.1910, 463.1328
270.6732, 467.3797
271.1553, 478.1364
271.6374, 484.2940
272.1195, 484.1783
272.6016, 481.9269
273.0837, 485.7222
273.5659, 497.5399
274.0480, 505.3897
274.5301, 502.8399
275.0122, 489.3957
275.4943, 479.7339
275.9764, 473.8534
276.4586, 471.7603
276.9407, 475.5376
277.4228, 486.1828
277.9049, 493.6739
278.3870, 492.6163
278.8691, 483.4829
279.3513, 477.0690
279.8334, 473.5568
280.3155, 472.2974
280.7976, 473.0606
281.2798, 475.9329
281.7619, 478.6620
282.2440, 480.5384
282.7261, 481.5826
283.2082, 481.3326
283.6903, 479.2424
284.1725, 477.8684
284.6546, 481.6487
285.1367, 490.3036
285.6188, 497.3431
286.1009, 500.5625
286.5830, 500.3127
287.0652, 497.4964
287.5473, 491.8533
288.0294, 485.3574
288.5115, 479.1127
288.9936, 473.3882
289.4757, 470.7593
289.9579, 474.5312
290.4400, 481.3967
290.9221, 480.4797
291.4042, 471.1224
291.8863, 462.2002
292.3684, 464.3826
292.8506, 475.2884
293.3327, 484.6703
293.8148, 489.6007
294.2969, 490.9178
294.7790, 489.1153
295.2611, 484.1780
295.7433, 479.7228
296.2254, 480.2089
296.7075, 483.7957
297.1896, 485.1108
297.6717, 481.0457
298.1538, 475.3004
298.6360, 473.9805
299.1181, 476.7489
299.6002, 479.7606
300.0823, 480.6498
300.5644, 479.6418
301.0465, 476.8390
301.5287, 470.6865
302.0108, 464.7424
302.4929, 463.9521
302.9750, 467.5418
303.4571, 471.1201
303.9392, 471.9294
304.4214, 470.8979
304.9035, 469.0010
305.3856, 465.5567
305.8677, 462.8519
306.3498, 463.4951
306.8319, 466.7722
307.3141, 470.1962
307.7962, 472.7943
308.2783, 474.5608
308.7604, 475.1787
309.2425, 473.6856
309.7246, 472.9889
310.2068, 475.3705
310.6889, 480.0613
311.1710, 485.0706
311.6531, 491.8686
312.1352, 497.1445
312.6173, 497.7966
313.0995, 491.9185
313.5816, 485.5597
314.0637, 480.9063
314.5458, 477.7540
315.0279, 475.6630
315.5100, 474.2057
315.9922, 473.9613
316.4743, 475.9514
316.9564, 481.2532
317.4385, 484.7883
317.9206, 484.2384
318.4027, 481.0648
318.8849, 477.3101
319.3670, 472.1892
319.8491, 467.7509
320.3312, 464.6179
320.8133, 462.8024
321.2954, 462.4952
321.7776, 463.7012
322.2597, 466.4246
322.7418, 470.6700
323.2239, 481.3234
323.7060, 488.6238
324.1881, 488.4354
324.6703, 479.8031
325.1524, 474.6771
325.6345, 477.6154
326.1166, 482.4418
326.5987, 484.1964
327.0808, 479.4699
327.5630, 475.6391
328.0451, 473.4098
328.5272, 472.7663
329.0093, 473.4965
329.4914, 477.0966
329.9735, 480.6949
330.4557, 482.2635
330.9378, 479.9066
331.4199, 478.8994
331.9020, 480.4010
332.3841, 483.6895
332.8662, 485.2846
333.3484, 485.0102
333.8305, 483.2854
334.3126, 479.5664
334.7947, 471.9951
335.2768, 468.4490
335.7589, 470.2634
336.2411, 475.8021
336.7232, 481.8774
337.2053, 489.6083
337.6874, 494.4576
338.1695, 492.6465
338.6516, 482.8985
339.1338, 478.2331
339.6159, 480.0805
340.0980, 485.1990
340.5801, 488.4058
341.0622, 489.6245
341.5443, 489.9395
342.0265, 490.4882
342.5086, 490.9160
342.9907, 487.1758
343.4728, 478.6071
343.9549, 468.5782
344.4370, 459.4669
344.9192, 451.7051
345.4013, 449.6005
345.8834, 457.9083
346.3655, 472.1166
346.8476, 479.6468
347.3297, 480.3235
347.8119, 478.9521
348.2940, 478.8823
348.7761, 480.2073
349.2582, 483.6493
349.7403, 492.0789
350.2225, 500.0620
350.7046, 497.6886
351.1867, 486.2214
351.6688, 475.5670
352.1509, 473.1017
352.6331, 475.9253
353.1152, 480.2280
353.5973, 486.5104
354.0794, 491.5297
354.5615, 490.7659
355.0436, 486.0077
355.5258, 482.6992
356.0079, 486.3311
356.4900, 491.3358
356.9721, 492.1205
357.4542, 486.2798
357.9363, 481.4698
358.4185, 484.0434
358.9006, 490.3368
359.3827, 494.0112
359.8648, 489.5806
360.3469, 484.2841
360.8290, 482.1940
361.3112, 484.1403
361.7933, 485.7222
362.2754, 485.9740
362.7575, 484.9883
363.2396, 482.8565
363.7217, 474.8904
364.2039, 470.5128
364.6860, 474.4069
365.1681, 486.7263
365.6502, 495.4186
366.1323, 496.4852
366.6144, 495.1661
367.0966, 495.0602
367.5787, 497.5312
368.0608, 499.7400
368.5429, 502.6700
369.0250, 505.5655
369.5071, 504.2430
369.9893, 494.8405
370.4714, 485.7274
370.9535, 481.2995
371.4356, 484.6460
371.9177, 485.5843
372.3998, 482.8179
372.8820, 478.1664
373.3641, 475.3554
373.8462, 474.0440
374.3283, 475.5384
374.8104, 482.1809
375.2925, 495.0564
375.7747, 499.8491
376.2568, 494.3502
376.7389, 485.2326
377.2210, 481.6077
377.7031, 483.8197
378.1852, 486.5778
378.6674, 488.3094
379.1495, 489.2885
379.6316, 490.7225
380.1137, 492.6094
380.5958, 494.8634
381.0779, 498.5701
381.5601, 503.0074
382.0422, 503.8537
382.5243, 498.3673
383.0064, 491.1738
383.4885, 491.5304
383.9706, 498.3466
384.4528, 503.5597
384.9349, 499.1077
385.4170, 490.1414
385.8991, 485.5890
386.3812, 487.7297
386.8633, 491.1309
387.3455, 491.4647
387.8276, 489.2188
388.3097, 485.4801
388.7918, 477.0123
389.2739, 469.7279
389.7560, 469.9041
390.2382, 478.7134
390.7203, 486.5470
391.2024, 488.1958
391.6845, 486.0290
392.1666, 482.7722
392.6487, 476.9291
393.1309, 472.3955
393.6130, 471.2940
394.0951, 473.3602
394.5772, 475.4618
395.0593, 475.4099
395.5414, 476.0229
396.0236, 479.0755
396.5057, 487.9574
396.9878, 495.5762
397.4699, 503.4665
397.9520, 509.8753
398.4341, 509.0819
398.9163, 491.4464
399.3984, 476.6229
399.8805, 472.5823
400.3626, 484.2131
400.8447, 492.1625
401.3268, 495.6990
401.8090, 496.0795
402.2911, 494.3473
402.7732, 488.6977
403.2553, 485.9026
403.7374, 489.2472
404.2195, 498.1459
404.7017, 501.0412
405.1838, 496.1706
405.6659, 490.0485
406.1480, 489.3943
406.6301, 494.3120
407.1122, 497.1495
407.5944, 496.1229
408.0765, 492.6469
408.5586, 488.8195
409.0407, 484.6752
409.5228, 483.5630
410.0049, 492.3663
410.4871, 506.0191
410.9692, 508.3727
411.4513, 495.5981
411.9334, 480.3784
412.4155, 478.1570
412.8976, 485.3722
413.3798, 491.7356
413.8619, 490.8830
414.3440, 487.8471
414.8261, 488.6107
415.3082, 493.2781
415.7903, 496.8330
416.2725, 494.5224
416.7546, 489.8602
417.2367, 486.7199
417.7188, 485.9116
418.2009, 487.4013
418.6830, 494.4536
419.1652, 504.7239
419.6473, 509.3297
420.1294, 497.2503
420.6115, 484.7143
421.0937, 481.1847
421.5758, 493.3138
422.0579, 502.9344
422.5400, 506.1765
423.0221, 505.8503
423.5042, 506.6419
423.9864, 511.0770
424.4685, 513.9589
424.9506, 513.5505
425.4327, 509.4964
425.9148, 506.8166
426.3969, 505.9435
426.8791, 505.9493
427.3612, 505.7863
427.8433, 504.6999
428.3254, 506.0950
428.8075, 511.6129
429.2896, 519.4887
429.7718, 523.5114
430.2539, 523.3010
430.7360, 521.4157
431.2181, 518.1229
431.7002, 513.7142
432.1823, 513.7752
432.6645, 520.0074
433.1466, 525.9545
433.6287, 519.2955
434.1108, 503.0197
434.5929, 492.1835
435.0750, 496.7325
435.5572, 509.0831
436.0393, 516.5701
436.5214, 519.3194
437.0035, 520.0129
437.4856, 521.1105
437.9677, 521.3410
438.4499, 518.3791
438.9320, 509.1868
439.4141, 500.8429
439.8962, 498.4822
440.3783, 500.9260
440.8604, 505.0685
441.3426, 511.7442
441.8247, 518.0199
442.3068, 522.8915
442.7889, 526.8252
443.2710, 526.5264
443.7531, 512.7797
444.2353, 497.6124
444.7174, 494.0920
445.1995, 522.5366
445.6816, 542.5679
446.1637, 542.2578
446.6458, 524.1559
447.1280, 515.8605
447.6101, 524.2254
448.0922, 534.8620
448.5743, 539.2426
449.0564, 533.2303
449.5385, 533.0797
450.0207, 543.1171
450.5028, 555.6367
450.9849, 553.8978
451.4670, 534.7487
451.9491, 517.3128
452.4312, 508.0985
452.9134, 506.8071
453.3955, 513.1674
453.8776, 528.4342
454.3597, 542.2664
454.8418, 541.1625
455.3239, 528.9641
455.8061, 522.1785
456.2882, 526.4601
456.7703, 534.6697
457.2524, 536.8352
457.7345, 534.0239
458.2166, 530.6015
458.6988, 527.0538
459.1809, 525.3309
459.6630, 528.8098
460.1451, 538.6670
460.6272, 547.6818
461.1093, 552.1453
461.5915, 552.8286
462.0736, 550.5544
462.5557, 540.8051
463.0378, 532.8503
463.5199, 531.5616
464.0020, 536.0002
464.4842, 538.8170
464.9663, 536.7126
465.4484, 533.9014
465.9305, 532.6754
466.4126, 534.6935
466.8947, 535.4492
467.3769, 533.7650
467.8590, 531.3331
468.3411, 530.7511
468.8232, 531.8007
469.3053, 535.4926
469.7874, 544.1049
470.2696, 556.9754
470.7517, 560.0515
471.2338, 550.3641
471.7159, 540.0140
472.1980, 541.2944
472.6801, 553.8643
473.1623, 561.7425
473.6444, 561.5756
474.1265, 558.0412
474.6086, 560.3590
475.0907, 567.3646
475.5728, 571.5262
476.0550, 565.5524
476.5371, 555.3291
477.0192, 550.1412
477.5013, 550.2801
477.9834, 553.6205
478.4655, 562.2032
478.9477, 571.8819
479.4298, 576.8613
479.9119, 571.2337
480.3940, 565.9026
480.8761, 568.2767
481.3582, 575.6797
481.8404, 580.3938
482.3225, 575.0510
482.8046, 570.4521
483.2867, 573.4951
483.7688, 589.5923
484.2509, 596.4960
484.7331, 582.9669
485.2152, 564.2333
485.6973, 554.4849
486.1794, 559.8843
486.6615, 563.7777
487.1436, 563.7154
487.6258, 560.3808
488.1079, 556.1953
488.5900, 549.8549
489.0721, 546.3812
489.5542, 549.7761
490.0363, 560.1172
490.5185, 569.1315
491.0006, 577.0082
491.4827, 581.9659
491.9648, 579.5955
492.4470, 571.2964
492.9291, 564.7115
493.4112, 562.7960
493.8933, 563.8247
494.3754, 565.9081
494.8575, 568.9134
495.3397, 571.8800
495.8218, 574.6210
496.3039, 576.8205
496.7860, 578.4301
497.2681, 579.8628
497.7502, 579.1756
498.2324, 573.7654
498.7145, 566.0665
499.1966, 559.2823
499.6787, 553.8903
500.1608, 550.0925
500.6429, 547.6721
501.1251, 546.7012
501.6072, 548.3057
502.0893, 556.9683
502.5714, 564.3276
503.0535, 565.5787
503.5356, 554.8994
504.0178, 552.7504
504.4999, 563.5621
504.9820, 578.8981
505.4641, 585.2354
505.9462, 580.6357
506.4283, 577.2422
506.9105, 579.5530
507.3926, 585.4949
507.8747, 585.8088
508.3568, 580.1659
508.8389, 574.9468
509.3210, 574.8395
509.8032, 578.7733
510.2853, 585.2169
510.7674, 595.2957
511.2495, 602.2100
511.7316, 594.4349
512.2137, 578.5391
512.6959, 567.9952
513.1780, 572.6079
513.6601, 580.8453
514.1422, 585.4186
514.6243, 586.8086
515.1064, 588.9347
515.5886, 596.7836
516.0707, 603.4317
516.5528, 604.0247
517.0349, 593.8911
517.5170, 586.2346
517.9991, 582.7095
518.4813, 582.2139
518.9634, 583.5786
519.4455, 587.2585
519.9276, 592.2619
520.4097, 600.0261
520.8918, 609.2756
521.3740, 611.4359
521.8561, 604.7166
522.3382, 596.8367
522.8203, 592.4616
523.3024, 591.4919
523.7845, 592.0217
524.2667, 594.3209
524.7488, 596.7192
525.2309, 596.2434
525.7130, 593.9811
526.1951, 593.8628
526.6772, 599.1161
527.1594, 605.3966
527.6415, 607.4333
528.1236, 605.8973
528.6057, 603.7520
529.0878, 600.3356
529.5699, 598.5123
530.0521, 602.0861
530.5342, 613.7827
531.0163, 620.7059
531.4984, 612.5778
531.9805, 600.2828
532.4626, 595.3600
532.9448, 607.5295
533.4269, 617.3021
533.9090, 620.8198
534.3911, 620.1784
534.8732, 624.0833
535.3553, 636.4560
535.8375, 646.0229
536.3196, 645.8945
536.8017, 635.2722
537.2838, 633.2940
537.7659, 642.1097
538.2480, 652.4230
538.7302, 653.4934
539.2123, 646.5736
539.6944, 639.8954
540.1765, 634.5377
540.6586, 631.4841
541.1407, 632.4438
541.6229, 636.9245
542.1050, 643.1185
542.5871, 652.6035
543.0692, 661.7094
543.5513, 667.1119
544.0334, 668.5925
544.5156, 667.7758
544.9977, 662.0112
545.4798, 656.2178
545.9619, 654.4561
546.4440, 660.3411
546.9261, 666.0267
547.4083, 671.5732
547.8904, 676.0336
548.3725, 677.4584
548.8546, 673.5839
549.3367, 670.3688
549.8188, 669.0563
550.3010, 669.6160
550.7831, 672.3431
551.2652, 678.1455
551.7473, 683.0952
552.2294, 682.4116
552.7115, 677.0984
553.1937, 678.1545
553.6758, 687.3672
554.1579, 699.1425
554.6400, 707.0087
555.1221, 711.8872
555.6042, 716.4510
556.0864, 723.9185
556.5685, 729.2753
557.0506, 724.7164
557.5327, 713.0851
558.0148, 705.0315
558.4969, 709.4944
558.9791, 716.3156
559.4612, 718.3055
559.9433, 712.9872
560.4254, 711.8730
560.9075, 723.2125
561.3896, 736.1490
561.8718, 740.9329
562.3539, 729.7966
562.8360, 723.8715
563.3181, 726.4219
563.8002, 734.3262
564.2823, 741.0666
564.7645, 747.1948
565.2466, 749.1740
565.7287, 743.0670
566.2108, 731.4553
566.6929, 728.7478
567.1750, 735.3478
567.6572, 742.2018
568.1393, 739.2307
568.6214, 731.4153
569.1035, 729.8491
569.5856, 737.7976
570.0677, 745.7059
570.5499, 743.4077
571.0320, 736.3439
571.5141, 733.1143
571.9962, 740.6157
572.4783, 748.8113
572.9604, 754.2583
573.4426, 757.0883
573.9247, 758.4465
574.4068, 756.2361
574.8889, 754.6620
575.3710, 755.8432
575.8531, 760.7772
576.3353, 762.8629
576.8174, 760.6091
577.2995, 757.6887
577.7816, 757.4992
578.2637, 760.1909
578.7458, 764.9464
579.2280, 773.2137
579.7101, 780.6245
580.1922, 777.9971
580.6743, 766.7628
581.1564, 755.0063
581.6385, 744.2288
582.1207, 736.2215
582.6028, 733.7228
583.0849, 736.5263
583.5670, 742.7944
584.0491, 758.0969
584.5313, 772.1852
585.0134, 775.5509
585.4955, 762.6161
585.9776, 752.6434
586.4597, 751.6921
586.9418, 755.7728
587.4240, 760.6827
587.9061, 770.4560
588.3882, 774.0726
588.8703, 766.4360
589.3524, 752.9521
589.8345, 750.6405
590.3167, 762.2252
590.7988, 774.6063
591.2809, 781.9498
591.7630, 785.2870
592.2451, 789.4565
592.7272, 794.4901
593.2094, 799.5731
593.6915, 805.8269
594.1736, 811.2840
594.6557, 810.9963
595.1378, 802.7274
595.6199, 794.9246
596.1021, 796.7609
596.5842, 802.3206
597.0663, 803.1677
597.5485, 787.3954
598.0306, 776.0643
598.5127, 779.7594
598.9948, 794.5220
599.4769, 802.8381
599.9590, 798.2684
600.4412, 793.7769
600.9233, 793.8640
601.4054, 798.9115
601.8875, 802.2869
602.3696, 803.4038
602.8517, 804.2297
603.3339, 807.0863
603.8160, 811.6892
604.2981, 813.5447
604.7802, 811.7112
605.2623, 808.5542
605.7444, 805.6759
606.2266, 803.8282
606.7087, 805.2809
607.1908, 814.3907
607.6729, 823.4385
608.1550, 826.2299
608.6371, 823.8937
609.1193, 820.1974
609.6014, 812.5959
610.0835, 807.4807
610.5656, 809.4211
611.0477, 819.9844
611.5298, 827.0223
612.0120, 827.5439
612.4941, 826.9786
612.9762, 829.7408
613.4583, 838.4857
613.9404, 839.7017
614.4225, 829.7119
614.9047, 817.6026
615.3868, 817.1455
615.8689, 827.5759
616.3510, 839.3105
616.8331, 851.3025
617.3152, 860.8582
617.7974, 861.8851
618.2795, 856.3014
618.7616, 851.6526
619.2437, 853.3788
619.7258, 856.6658
620.2079, 859.0469
620.6901, 860.2825
621.1722, 857.8014
621.6543, 842.6279
622.1364, 829.0906
622.6185, 827.7296
623.1006, 847.5433
623.5828, 860.4280
624.0649, 864.0471
624.5470, 862.8792
625.0291, 861.6902
625.5112, 860.2715
625.9933, 859.8556
626.4755, 860.4380
626.9576, 862.4453
627.4397, 867.9345
627.9218, 876.3493
628.4039, 883.4422
628.8860, 886.3495
629.3682, 887.1445
629.8503, 889.3023
630.3324, 892.3879
630.8145, 892.9357
631.2966, 885.3084
631.7787, 876.9391
632.2609, 873.1276
632.7430, 875.2311
633.2251, 879.2427
633.7072, 892.0749
634.1893, 901.6640
634.6714, 896.7479
635.1536, 866.4777
635.6357, 845.9808
636.1178, 840.2399
636.5999, 843.0092
637.0820, 842.9328
637.5641, 839.8043
638.0463, 839.3384
638.5284, 845.0673
639.0105, 853.1246
639.4926, 855.0384
639.9747, 851.7969
640.4568, 849.0964
640.9390, 852.5260
641.4211, 856.6820
641.9032, 856.2749
642.3853, 850.9454
642.8674, 844.6484
643.3495, 836.3477
643.8317, 829.3937
644.3138, 826.7007
644.7959, 835.1313
645.2780, 834.4420
645.7601, 817.7413
646.2422, 797.9894
646.7244, 792.1132
647.2065, 803.8129
647.6886, 810.3046
648.1707, 806.8392
648.6528, 797.2630
649.1349, 788.0099
649.6171, 779.1779
650.0992, 771.1492
650.5813, 761.4786
651.0634, 754.3378
651.5455, 759.8956
652.0276, 774.8846
652.5098, 781.4512
652.9919, 758.3015
653.4740, 732.9109
653.9561, 724.5467
654.4382, 738.7908
654.9203, 747.1342
655.4025, 740.2357
655.8846, 731.1501
656.3667, 729.0795
656.8488, 737.6484
657.3309, 742.8381
657.8130, 745.0033
658.2952, 742.2592
658.7773, 727.5626
659.2594, 702.4086
659.7415, 687.0902
660.2236, 690.0706
660.7057, 699.9742
661.1879, 701.9156
661.6700, 697.5601
662.1521, 691.4772
662.6342, 684.0251
663.1163, 677.1589
663.5984, 671.4356
664.0806, 667.0847
664.5627, 665.5690
665.0448, 673.8571
665.5269, 678.9016
666.0090, 673.7557
666.4911, 656.3931
666.9733, 644.4185
667.4554, 639.0302
667.9375, 636.6556
668.4196, 635.0620
668.9017, 634.1942
669.3839, 632.4956
669.8660, 629.7473
670.3481, 626.5823
670.8302, 624.8117
671.3123, 623.0995
671.7944, 617.9100
672.2766, 604.3724
672.7587, 593.3309
673.2408, 595.5391
673.7229, 604.8629
674.2050, 609.3270
674.6871, 595.2219
675.1693, 587.2548
675.6514, 598.9323
676.1335, 624.2829
676.6156, 629.7262
677.0977, 605.1276
677.5798, 583.7957
678.0620, 582.7243
678.5441, 599.3060
679.0262, 609.1199
679.5083, 612.1762
679.9904, 609.5382
680.4725, 596.1566
680.9547, 579.4563
681.4368, 574.1683
681.9189, 583.1488
682.4010, 592.7787
682.8831, 593.4503
683.3652, 590.3210
683.8474, 588.6892
684.3295, 592.6390
684.8116, 593.4930
685.2937, 587.6085
685.7758, 579.0154
686.2579, 573.4272
686.7401, 573.2821
687.2222, 568.7748
687.7043, 555.6902
688.1864, 539.6337
688.6685, 535.8785
689.1506, 543.6560
689.6328, 550.5936
690.1149, 550.8579
690.5970, 547.2905
691.0791, 542.2582
691.5612, 536.5255
692.0433, 534.0538
692.5255, 541.3635
693.0076, 549.0199
693.4897, 550.5534
693.9718, 544.9530
694.4539, 539.7168
694.9360, 535.7454
695.4182, 532.5137
695.9003, 529.3043
696.3824, 525.2734
696.8645, 525.6164
697.3466, 531.4089
697.8287, 538.7529
698.3109, 545.1047
698.7930, 549.8239
699.2751, 548.6251
699.7572, 539.6421
700.2393, 528.8203
700.7214, 520.2053
701.2036, 514.4678
701.6857, 512.7977
702.1678, 519.2057
702.6499, 525.5643
703.1320, 528.9734
703.6141, 530.1046
704.0963, 530.7361
704.5784, 532.7031
705.0605, 531.4182
705.5426, 523.7436
706.0247, 512.2084
706.5068, 509.6294
706.9890, 517.1586
707.4711, 523.8244
707.9532, 522.8728
708.4353, 517.1217
708.9174, 514.1545
709.3995, 513.6285
709.8817, 512.2809
710.3638, 505.8984
710.8459, 498.9973
711.3280, 496.0194
711.8101, 497.8253
712.2922, 499.6314
712.7744, 499.8120
713.2565, 499.7562
713.7386, 500.5731
714.2207, 503.3158
714.7028, 504.2780
715.1849, 503.5351
715.6671, 500.8857
716.1492, 494.8343
716.6313, 485.8719
717.1134, 478.5272
717.5955, 472.6966
718.0776, 471.7440
718.5598, 486.2519
719.0419, 507.8514
719.5240, 520.1371
720.0061, 511.4466
720.4882, 499.4069
720.9703, 490.4633
721.4525, 484.1320
721.9346, 479.2343
722.4167, 474.4118
722.8988, 472.6031
723.3809, 475.1907
723.8630, 481.1233
724.3452, 486.7258
724.8273, 492.2141
725.3094, 495.7892
725.7915, 497.0410
726.2736, 495.5724
726.7557, 487.6590
727.2379, 474.4733
727.7200, 465.2481
728.2021, 469.6859
728.6842, 477.9685
729.1663, 482.4663
729.6484, 482.4380
730.1306, 480.9086
730.6127, 476.9498
731.0948, 473.2029
731.5769, 471.1894
732.0590, 471.3957
732.5411, 471.2387
733.0233, 470.6429
733.5054, 469.8536
733.9875, 468.1910
734.4696, 466.1320
734.9517, 468.5935
735.4338, 477.1391
735.9160, 484.0954
736.3981, 478.1046
736.8802, 466.6100
737.3623, 461.1896
737.8444, 469.0981
738.3266, 475.3242
738.8087, 472.1185
739.2908, 464.5104
739.7729, 459.9783
740.2551, 461.3960
740.7372, 461.0251
741.2193, 457.0447
741.7014, 451.6026
742.1835, 449.2209
742.6656, 449.9387
743.1478, 451.8236
743.6299, 454.4261
744.1120, 457.6501
744.5941, 461.6401
745.0762, 466.1511
745.5583, 470.5535
746.0405, 478.3044
746.5226, 482.2892
747.0047, 476.6019
747.4868, 462.8326
747.9689, 450.2431
748.4510, 436.5582
748.9332, 428.9005
749.4153, 432.2427
749.8974, 445.0575
750.3795, 448.2771
750.8616, 440.7795
751.3438, 432.4273
751.8259, 429.0981
752.3080, 429.5688
752.7901, 431.6328
753.2722, 435.1158
753.7543, 438.0982
754.2365, 438.8336
754.7186, 438.8635
755.2007, 439.6942
755.6828, 441.8905
756.1649, 442.4872
756.6470, 438.5264
757.1292, 435.0133
757.6113, 436.3232
758.0934, 445.5751
758.5755, 443.5163
759.0576, 426.8894
759.5397, 409.7615
760.0219, 410.2441
760.5040, 422.3947
760.9861, 425.4935
761.4682, 414.2473
761.9503, 405.2271
762.4324, 417.0700
762.9146, 436.1880
763.3967, 446.3463
763.8788, 437.4751
764.3609, 429.4873
764.8430, 425.8306
765.3251, 424.5503
765.8073, 423.4745
766.2894, 422.3417
766.7715, 422.7878
767.2536, 425.7968
767.7357, 429.0462
768.2178, 427.8428
768.7000, 423.2484
769.1821, 419.8000
769.6642, 419.5115
770.1463, 419.9571
770.6284, 417.9479
771.1105, 415.3095
771.5927, 415.5714
772.0748, 425.3826
772.5569, 431.6961
773.0390, 429.8344
773.5211, 422.7303
774.0032, 417.2696
774.4854, 413.3747
774.9675, 411.4891
775.4496, 412.0450
775.9317, 414.4336
776.4138, 418.0840
776.8959, 422.5358
777.3781, 425.4652
777.8602, 425.2963
778.3423, 423.3600
778.8244, 419.9452
779.3065, 415.5184
779.7886, 411.9413
780.2708, 410.0624
780.7529, 408.8722
781.2350, 408.1459
781.7171, 407.8211
782.1992, 407.0546
782.6813, 405.4655
783.1635, 405.0104
783.6456, 407.8459
784.1277, 412.4105
784.6098, 412.4895
785.0919, 408.6483
785.5740, 406.4643
786.0562, 414.7235
786.5383, 422.3918
787.0204, 416.7283
787.5025, 397.1924
787.9846, 385.6360
788.4667, 395.9040
788.9489, 407.0407
789.4310, 410.1972
789.9131, 404.8732
790.3952, 400.3541
790.8773, 396.6506
791.3594, 393.8713
791.8416, 391.8901
792.3237, 390.9592
792.8058, 392.7670
793.2879, 397.3286
793.7700, 400.2948
794.2521, 396.9761
794.7343, 391.9194
795.2164, 388.5262
795.6985, 387.0823
796.1806, 388.1737
796.6627, 395.6784
797.1448, 401.4227
797.6270, 397.9101
798.1091, 382.6777
798.5912, 379.5863
799.0733, 390.3727
799.5554, 404.6957
800.0375, 416.3484
800.5197, 423.3148
801.0018, 419.0811
801.4839, 401.2604
801.9660, 385.3425
802.4481, 381.7119
802.9302, 383.4777
803.4124, 384.9431
803.8945, 384.8457
804.3766, 385.7574
804.8587, 388.5827
805.3408, 391.2215
805.8229, 391.3609
806.3051, 389.0224
806.7872, 387.5440
807.2693, 387.2199
807.7514, 387.6898
808.2335, 389.6622
808.7156, 391.8040
809.1978, 391.6410
809.6799, 387.6267
810.1620, 384.7981
810.6441, 385.6150
811.1262, 388.4332
811.6083, 391.8801
812.0905, 397.6133
812.5726, 399.9117
813.0547, 398.0323
813.5368, 393.9026
814.0189, 388.7036
814.5010, 382.9044
814.9832, 379.1322
815.4653, 377.7688
815.9474, 378.8115
816.4295, 384.9556
816.9116, 392.3646
817.3937, 396.0334
817.8759, 392.5158
818.3580, 389.5458
818.8401, 390.2766
819.3222, 391.1878
819.8043, 388.0340
820.2864, 378.8500
820.7686, 375.4467
821.2507, 380.1606
821.7328, 386.9930
822.2149, 387.1756
822.6970, 383.3706
823.1791, 382.6529
823.6613, 387.4612
824.1434, 392.7138
824.6255, 397.7356
825.1076, 400.1100
825.5897, 397.0647
826.0718, 379.6037
826.5540, 369.0433
827.0361, 367.1149
827.5182, 369.9787
828.0003, 373.9504
828.4824, 378.9749
828.9645, 383.5049
829.4467, 387.8019
829.9288, 389.3654
830.4109, 382.1460
830.8930, 371.3476
831.3751, 364.7322
831.8572, 364.3033
832.3394, 368.3903
832.8215, 382.7539
833.3036, 397.9125
833.7857, 403.3404
834.2678, 395.5566
834.7499, 387.8080
835.2321, 380.6087
835.7142, 374.2820
836.1963, 368.3228
836.6784, 363.4395
837.1605, 363.3905
837.6426, 370.0279
838.1248, 376.3120
838.6069, 374.8081
839.0890, 370.8975
839.5711, 370.7871
840.0532, 379.6956
840.5353, 385.0443
841.0175, 384.5536
841.4996, 381.9124
841.9817, 381.4742
842.4638, 383.4691
842.9459, 381.0498
843.4280, 372.7889
843.9102, 364.1713
844.3923, 359.0677
844.8744, 358.3541
845.3565, 365.4352
845.8386, 384.5235
846.3207, 397.9925
846.8029, 392.8934
847.2850, 382.7378
847.7671, 379.7163
848.2492, 387.8560
848.7313, 392.7751
849.2134, 394.2306
849.6956, 392.9784
850.1777, 388.7067
850.6598, 382.2863
851.1419, 376.8819
851.6240, 372.9423
852.1061, 369.0582
852.5883, 361.9401
853.0704, 355.6797
853.5525, 354.2840
854.0346, 359.9140
854.5167, 366.1102
854.9988, 375.0462
855.4810, 381.1400
855.9631, 379.0930
856.4452, 368.7214
856.9273, 360.7374
857.4094, 355.2818
857.8915, 353.8797
858.3737, 361.6178
858.8558, 372.3500
859.3379, 378.6733
859.8200, 379.6034
860.3021, 376.9682
860.7842, 364.3588
861.2664, 354.7273
861.7485, 356.6469
862.2306, 371.8348
862.7127, 381.0955
863.1948, 383.7735
863.6769, 383.7320
864.1591, 383.8739
864.6412, 383.3248
865.1233, 377.7673
865.6054, 367.7732
866.0875, 362.5832
866.5696, 375.9016
867.0518, 388.8768
867.5339, 386.8134
868.0160, 367.8716
868.4981, 358.8175
868.9802, 364.3260
869.4623, 369.8382
869.9445, 366.9095
870.4266, 358.4861
870.9087, 360.0927
871.3908, 370.7227
871.8729, 379.4821
872.3550, 379.3098
872.8372, 374.9038
873.3193, 367.4960
873.8014, 358.4204
874.2835, 354.4977
874.7656, 363.6418
875.2477, 370.4962
875.7299, 370.6550
876.2120, 365.7525
876.6941, 361.2416
877.1762, 357.1331
877.6583, 355.9271
878.1404, 361.4437
878.6226, 367.6101
879.1047, 363.3651
879.5869, 353.2418
880.0690, 348.7978
880.5511, 363.1755
881.0332, 373.6607
881.5153, 369.6173
881.9974, 358.6969
882.4796, 357.3039
882.9617, 367.6875
883.4438, 374.7141
883.9259, 374.2154
884.4080, 369.9130
884.8901, 366.3193
885.3723, 363.6184
885.8544, 362.1754
886.3365, 361.6352
886.8186, 363.2032
887.3007, 372.0033
887.7828, 381.2448
888.2650, 380.5403
888.7471, 363.2845
889.2292, 354.6013
889.7113, 358.9219
890.1934, 366.8730
890.6755, 364.2863
891.1577, 355.2159
891.6398, 353.4554
892.1219, 363.0346
892.6040, 372.4802
893.0861, 373.5127
893.5682, 370.7503
894.0504, 368.2872
894.5325, 366.3940
895.0146, 365.7318
895.4967, 366.8940
895.9788, 368.1906
896.4609, 367.5883
896.9431, 365.6462
897.4252, 366.9652
897.9073, 371.8372
898.3894, 374.7012
898.8715, 369.4207
899.3536, 361.7383
899.8358, 355.3311
900.3179, 350.3971
900.8000, 351.1304
901.2821, 363.4914
901.7642, 372.9886
902.2463, 371.6186
902.7285, 361.2615
903.2106, 356.7937
903.6927, 357.9872
904.1748, 358.2840
904.6569, 350.9167
905.1390, 342.7365
905.6212, 341.5214
906.1033, 345.8872
906.5854, 349.1794
907.0675, 347.2459
907.5496, 346.9929
908.0317, 351.2171
908.5139, 357.7564
908.9960, 359.2588
909.4781, 355.6891
909.9602, 353.5658
910.4423, 356.0985
910.9244, 359.6678
911.4066, 358.2950
911.8887, 355.0750
912.3708, 355.7156
912.8529, 369.9052
913.3350, 378.0074
913.8171, 373.8276
914.2993, 364.0100
914.7814, 355.5688
915.2635, 348.0688
915.7456, 350.0641
916.2277, 365.2242
916.7098, 379.3727
917.1920, 371.2152
917.6741, 353.2122
918.1562, 344.5480
918.6383, 352.2403
919.1204, 358.2792
919.6025, 355.1418
920.0847, 350.2466
920.5668, 349.1569
921.0489, 353.0896
921.5310, 350.6568
922.0131, 340.9668
922.4952, 332.4173
922.9774, 334.3903
923.4595, 340.5842
923.9416, 340.3636
924.4237, 333.7139
924.9058, 330.0293
925.3879, 335.6967
925.8701, 342.5213
926.3522, 347.6935
926.8343, 351.1361
927.3164, 351.1266
927.7985, 347.0328
928.2806, 345.5192
928.7628, 352.2502
929.2449, 360.8512
929.7270, 360.2824
930.2091, 353.3006
930.6912, 347.3561
931.1733, 346.5448
931.6555, 346.0152
932.1376, 343.1114
932.6197, 340.1443
933.1018, 342.0027
933.5839, 349.7578
934.0660, 353.8092
934.5482, 351.4602
935.0303, 348.0070
935.5124, 352.4154
935.9945, 359.9500
936.4766, 361.8258
936.9587, 353.8806
937.4409, 346.2345
937.9230, 340.1239
938.4051, 337.1425
938.8872, 339.7667
939.3693, 350.0759
939.8514, 352.9938
940.3336, 347.7029
940.8157, 340.7114
941.2978, 336.4672
941.7799, 334.3692
942.2620, 333.9030
942.7441, 334.9361
943.2263, 336.2580
943.7084, 337.2587
944.1905, 338.6300
944.6726, 340.8570
945.1547, 343.7122
945.6368, 345.1381
946.1190, 344.9424
946.6011, 347.2256
947.0832, 357.7149
947.5653, 367.3890
948.0474, 359.5975
948.5295, 341.8487
949.0117, 331.6078
949.4938, 345.2058
949.9759, 353.5536
950.4580, 347.8188
950.9401, 336.7136
951.4222, 333.3619
951.9044, 337.8423
952.3865, 344.5956
952.8686, 353.7060
953.3507, 360.2472
953.8328, 358.2782
954.3149, 350.9413
954.7971, 341.0772
955.2792, 327.5951
955.7613, 318.6047
956.2434, 315.3572
956.7255, 316.7362
957.2076, 324.3779
957.6898, 337.9280
958.1719, 342.2068
958.6540, 337.3877
959.1361, 332.9684
959.6182, 336.2379
960.1003, 342.2928
960.5825, 348.1769
961.0646, 353.2472
961.5467, 354.7514
962.0288, 350.0275
962.5109, 344.8152
962.9930, 339.7309
963.4752, 335.6698
963.9573, 336.0701
964.4394, 340.1288
964.9215, 342.9624
965.4036, 343.0060
965.8857, 341.2072
966.3679, 334.5380
966.8500, 328.0781
967.3321, 328.8578
967.8142, 344.9783
968.2963, 355.4244
968.7784, 359.8101
969.2606, 358.9532
969.7427, 349.6798
970.2248, 335.6782
970.7069, 332.6627
971.1890, 341.6622
971.6711, 348.2659
972.1533, 337.3337
972.6354, 325.5219
973.1175, 326.3259
973.5996, 339.6987
974.0817, 345.1153
974.5638, 340.3409
975.0460, 335.5714
975.5281, 335.5448
976.0102, 337.6975
976.4923, 336.6364
976.9744, 333.1190
977.4565, 329.3712
977.9387, 324.2554
978.4208, 321.5426
978.9029, 324.4313
979.3850, 329.6145
979.8671, 332.9729
980.3492, 334.4847
980.8314, 333.6852
981.3135, 330.0414
981.7956, 326.2415
982.2777, 324.1916
982.7598, 324.3017
983.2419, 328.2882
983.7241, 337.1531
984.2062, 343.3044
984.6883, 343.7052
985.1704, 341.3541
985.6525, 335.8459
986.1346, 328.0369
986.6168, 328.2773
987.0989, 336.3312
987.5810, 344.7940
988.0631, 352.3327
988.5452, 355.8884
989.0273, 348.8038
989.5095, 335.5369
989.9916, 327.7220
990.4737, 334.8840
990.9558, 335.5279
991.4379, 324.4710
991.9200, 309.7586
992.4022, 303.6690
992.8843, 304.9467
993.3664, 308.3386
993.8485, 313.0895
994.3306, 318.4000
994.8127, 324.6944
995.2949, 330.6492
995.7770, 335.0723
996.2591, 337.9135
996.7412, 339.5235
997.2233, 339.9992
997.7054, 338.8508
998.1876, 335.5824
998.6697, 330.5591
999.1518, 321.6712
999.6339, 311.0392
1000.116, 306.9221
1000.598, 321.8753
1001.080, 333.6378
1001.562, 331.4869
1002.044, 322.8037
1002.527, 321.5922
1003.009, 328.6537
1003.491, 330.6987
1003.973, 323.9726
1004.455, 317.3504
1004.937, 322.7279
1005.419, 333.0843
1005.901, 339.6117
1006.384, 340.1147
1006.866, 339.3065
1007.348, 336.8347
1007.830, 334.7559
1008.312, 334.7059
1008.794, 336.1143
1009.276, 334.9119
1009.758, 331.5077
1010.240, 329.2563
1010.723, 332.6873
1011.205, 335.3523
1011.687, 331.2689
1012.169, 323.4564
1012.651, 320.2417
1013.133, 323.1378
1013.615, 326.6221
1014.097, 329.9058
1014.580, 333.4606
1015.062, 340.1091
1015.544, 346.8557
1016.026, 347.2502
1016.508, 339.1823
1016.990, 330.1676
1017.472, 319.7555
1017.954, 312.7486
1018.436, 313.1775
1018.919, 320.5093
1019.401, 321.8524
1019.883, 317.1866
1020.365, 314.0969
1020.847, 317.6002
1021.329, 324.2296
1021.811, 334.8576
1022.293, 345.5921
1022.776, 346.6929
1023.258, 325.8046
1023.740, 312.9532
1024.222, 312.8210
1024.704, 318.7115
1025.186, 320.8505
1025.668, 321.2491
1026.150, 329.5135
1026.632, 348.0879
1027.115, 359.3755
1027.597, 342.3434
1028.079, 323.2293
1028.561, 323.5671
1029.043, 342.1378
1029.525, 342.0875
1030.007, 320.7222
1030.489, 303.1636
1030.972, 302.8620
1031.454, 310.6072
1031.936, 315.6577
1032.418, 318.5214
1032.900, 320.2296
1033.382, 318.4236
1033.864, 320.0351
1034.346, 330.0321
1034.828, 337.9329
1035.311, 327.3171
1035.793, 302.1936
1036.275, 291.0577
1036.757, 296.1663
1037.239, 304.3602
1037.721, 308.4541
1038.203, 310.4297
1038.685, 310.5264
1039.167, 309.2419
1039.650, 310.4639
1040.132, 314.5533
1040.614, 319.8359
1041.096, 326.5611
1041.578, 332.6199
1042.060, 334.7996
1042.542, 333.6632
1043.024, 329.9930
1043.507, 322.0184
1043.989, 315.4188
1044.471, 309.0609
1044.953, 306.6632
1045.435, 314.3247
1045.917, 330.5934
1046.399, 334.4066
1046.881, 325.9213
1047.364, 317.0719
1047.846, 314.2982
1048.328, 315.4251
1048.810, 320.6434
1049.292, 328.7981
1049.774, 335.7773
1050.256, 342.8816
1050.738, 343.2877
1051.220, 334.0756
1051.703, 321.9005
1052.185, 315.5781
1052.667, 313.4226
1053.149, 312.9936
1053.631, 314.1237
1054.113, 315.5195
1054.595, 318.8098
1055.077, 319.8889
1055.559, 315.2302
1056.042, 306.2638
1056.524, 302.9434
1057.006, 304.7881
1057.488, 307.8636
1057.970, 309.6080
1058.452, 312.3476
1058.934, 319.2286
1059.416, 327.6346
1059.899, 332.3509
1060.381, 331.9856
1060.863, 333.5956
1061.345, 338.8476
1061.827, 341.4029
1062.309, 327.7039
1062.791, 310.5846
1063.273, 314.6123
1063.755, 340.9633
1064.238, 354.1560
1064.720, 331.6455
1065.202, 310.9245
1065.684, 302.2546
1066.166, 303.2687
1066.648, 311.6553
1067.130, 324.8441
1067.612, 330.8242
1068.094, 322.6491
1068.577, 313.9071
1069.059, 311.5618
1069.541, 313.5018
1070.023, 318.4284
1070.505, 327.7945
1070.987, 330.2831
1071.469, 325.3036
1071.951, 319.5914
1072.434, 318.2092
1072.916, 318.3330
1073.398, 316.1674
1073.880, 312.5390
1074.362, 310.5231
1074.844, 311.1830
1075.326, 313.1343
1075.808, 317.4258
1076.291, 320.8259
1076.773, 316.6859
1077.255, 308.1609
1077.737, 304.8966
1078.219, 308.5065
1078.701, 312.5911
1079.183, 315.0214
1079.665, 315.8730
1080.147, 315.1000
1080.630, 312.9201
1081.112, 310.6978
1081.594, 308.4099
1082.076, 304.9332
1082.558, 297.9734
1083.040, 293.2687
1083.522, 298.8119
1084.004, 308.4534
1084.486, 313.5899
1084.969, 310.8826
1085.451, 311.3712
1085.933, 316.0633
1086.415, 320.1414
1086.897, 318.4686
1087.379, 314.4446
1087.861, 315.1145
1088.343, 319.1480
1088.826, 320.4132
1089.308, 309.9208
1089.790, 306.3024
1090.272, 316.1825
1090.754, 330.1768
1091.236, 332.0192
1091.718, 324.6707
1092.200, 322.8403
1092.682, 329.2181
1093.165, 333.6591
1093.647, 327.4456
1094.129, 319.3789
1094.611, 315.0685
1095.093, 313.9847
1095.575, 311.3524
1096.057, 307.0065
1096.539, 305.5330
1097.022, 309.9308
1097.504, 315.3188
1097.986, 316.3745
1098.468, 315.4120
1098.950, 315.4102
1099.432, 316.1855
1099.914, 320.8280
1100.396, 331.3622
1100.879, 338.9606
1101.361, 334.6555
1101.843, 324.1673
1102.325, 316.7748
1102.807, 312.8191
1103.289, 313.1717
1103.771, 324.0217
1104.253, 331.3054
1104.735, 332.7874
1105.218, 329.8507
1105.700, 322.3890
1106.182, 311.8338
1106.664, 305.9386
1107.146, 305.5473
1107.628, 305.5867
1108.110, 301.5735
1108.592, 298.4978
1109.074, 300.3073
1109.557, 305.3165
1110.039, 306.0815
1110.521, 302.5330
1111.003, 300.7672
1111.485, 302.7896
1111.967, 306.4620
1112.449, 311.5027
1112.931, 316.0414
1113.414, 317.7377
1113.896, 315.7452
1114.378, 314.1454
1114.860, 312.9381
1115.342, 312.1236
1115.824, 311.7019
1116.306, 311.6730
1116.788, 314.0168
1117.271, 316.5233
1117.753, 314.2511
1118.235, 294.8724
1118.717, 288.0623
1119.199, 300.4319
1119.681, 316.2654
1120.163, 318.9103
1120.645, 312.6743
1121.127, 309.4171
1121.609, 309.6701
1122.092, 312.2631
1122.574, 322.5840
1123.056, 327.3436
1123.538, 318.2786
1124.020, 304.4998
1124.502, 306.9074
1124.984, 323.0154
1125.466, 331.0787
1125.949, 326.4727
1126.431, 319.1021
1126.913, 314.8616
1127.395, 311.2220
1127.877, 305.1782
1128.359, 297.5090
1128.841, 295.3581
1129.323, 298.8629
1129.806, 306.6405
1130.288, 321.2653
1130.770, 333.2906
1131.252, 330.4885
1131.734, 320.4897
1132.216, 312.8350
1132.698, 308.2958
1133.180, 308.2616
1133.662, 314.0723
1134.145, 318.7323
1134.627, 317.4287
1135.109, 312.4858
1135.591, 303.7112
1136.073, 294.4639
1136.555, 293.4775
1137.037, 315.4544
1137.519, 326.8149
1138.001, 322.8567
1138.484, 313.7756
1138.966, 309.1519
1139.448, 307.8575
1139.930, 307.6628
1140.412, 308.3441
1140.894, 309.3563
1141.376, 311.2692
1141.858, 312.3922
1142.341, 311.8832
1142.823, 310.8313
1143.305, 312.8155
1143.787, 316.2899
1144.269, 312.7333
1144.751, 299.8614
1145.233, 289.8011
1145.715, 290.3608
1146.198, 294.9995
1146.680, 300.8308
1147.162, 307.3105
1147.644, 312.6226
1148.126, 316.5598
1148.608, 315.5164
1149.090, 306.0498
1149.572, 297.5274
1150.054, 299.2392
1150.536, 303.6784
1151.019, 302.5060
1151.501, 294.6628
1151.983, 295.4608
1152.465, 305.2639
1152.947, 314.6325
1153.429, 319.4745
1153.911, 320.4789
1154.393, 315.2334
1154.876, 307.4908
1155.358, 304.3588
1155.840, 309.0110
1156.322, 308.5139
1156.804, 301.2106
1157.286, 296.5730
1157.768, 309.2053
1158.250, 324.0060
1158.733, 316.3881
1159.215, 293.4467
1159.697, 284.5161
1160.179, 303.7528
1160.661, 315.1316
1161.143, 313.6954
1161.625, 305.8508
1162.107, 294.1678
1162.589, 283.3532
1163.072, 282.7479
1163.554, 292.4416
1164.036, 302.6811
1164.518, 315.1060
1165.000, 320.3318
1165.482, 313.6879
1165.964, 302.5419
1166.446, 300.9303
1166.928, 305.0888
1167.411, 306.3956
1167.893, 302.8199
1168.375, 299.5917
1168.857, 296.2346
1169.339, 296.7634
1169.821, 305.1242
1170.303, 316.7670
1170.785, 316.2040
1171.268, 307.3790
1171.750, 303.8517
1172.232, 312.7384
1172.714, 319.9536
1173.196, 318.4938
1173.678, 314.8217
1174.160, 312.5849
1174.642, 311.4397
1175.125, 308.3060
1175.607, 303.9239
1176.089, 302.5551
1176.571, 308.7743
1177.053, 315.0230
1177.535, 319.1480
1178.017, 320.7886
1178.499, 318.3259
1178.981, 311.8375
1179.464, 310.4730
1179.946, 314.0237
1180.428, 317.5620
1180.910, 318.6582
1181.392, 318.1786
1181.874, 315.0439
1182.356, 311.3934
1182.838, 311.3551
1183.320, 315.1847
1183.803, 313.6865
1184.285, 305.9576
1184.767, 299.1538
1185.249, 299.5890
1185.731, 301.8410
1186.213, 301.4362
1186.695, 300.0609
1187.177, 304.0678
1187.660, 314.1891
1188.142, 317.6737
1188.624, 311.8667
1189.106, 303.8503
1189.588, 297.2990
1190.070, 293.2538
1190.552, 293.2556
1191.034, 296.8596
1191.516, 301.3552
1191.999, 307.0901
1192.481, 310.1396
1192.963, 308.8778
1193.445, 307.2634
1193.927, 310.5506
1194.409, 314.6038
1194.891, 314.6400
1195.373, 310.2744
1195.855, 307.9000
1196.338, 307.7519
1196.820, 307.6389
1197.302, 307.3611
1197.784, 305.4341
1198.266, 296.1489
1198.748, 286.3977
1199.230, 286.3127
1199.712, 298.8945
1200.195, 307.6307
1200.677, 312.7025
1201.159, 312.1570
1201.641, 299.5482
1202.123, 287.5441
1202.605, 295.9741
1203.087, 313.1254
1203.569, 318.9678
1204.052, 305.8426
1204.534, 298.9830
1205.016, 298.9936
1205.498, 301.3435
1205.980, 304.5204
1206.462, 307.0302
1206.944, 305.9684
1207.426, 303.1083
1207.908, 302.7523
1208.391, 306.3493
1208.873, 309.1753
1209.355, 310.9897
1209.837, 312.4163
1210.319, 315.6420
1210.801, 317.4986
1211.283, 311.3171
1211.765, 300.4017
1212.247, 297.5171
1212.730, 307.2630
1213.212, 312.5591
1213.694, 311.2931
1214.176, 307.0554
1214.658, 299.4980
1215.140, 293.6107
1215.622, 298.0493
1216.104, 310.5157
1216.587, 314.9905
1217.069, 307.3806
1217.551, 303.5044
1218.033, 306.6046
1218.515, 311.0276
1218.997, 308.8424
1219.479, 305.6133
1219.961, 310.4305
1220.443, 322.5301
1220.926, 322.7220
1221.408, 306.1846
1221.890, 294.7416
1222.372, 293.7091
1222.854, 298.5289
1223.336, 308.7739
1223.818, 318.6163
1224.300, 319.7936
1224.782, 310.9871
1225.265, 307.0999
1225.747, 308.8540
1226.229, 313.5685
1226.711, 323.1599
1227.193, 327.8199
1227.675, 305.1388
1228.157, 276.8971
1228.639, 271.7024
1229.122, 295.1083
1229.604, 312.4385
1230.086, 323.9996
1230.568, 327.5206
1231.050, 319.7841
1231.532, 308.5819
1232.014, 300.4261
1232.496, 295.4488
1232.979, 294.1715
1233.461, 296.8297
1233.943, 301.4216
1234.425, 308.7794
1234.907, 308.4594
1235.389, 288.6167
1235.871, 270.2231
1236.353, 279.2572
1236.835, 299.2145
1237.318, 307.6688
1237.800, 302.0847
1238.282, 298.6587
1238.764, 297.4398
1239.246, 297.9533
1239.728, 301.2058
1240.210, 304.4937
1240.692, 305.4427
1241.175, 305.0320
1241.657, 304.6285
1242.139, 304.3498
1242.621, 303.4436
1243.103, 301.8920
1243.585, 300.7466
1244.067, 301.0213
1244.549, 301.4931
1245.031, 301.3003
1245.514, 300.8140
1245.996, 300.0403
1246.478, 298.6666
1246.960, 302.1314
1247.442, 310.2314
1247.924, 317.1093
1248.406, 320.1323
1248.888, 319.5154
1249.370, 312.2343
1249.853, 303.2032
1250.335, 298.9680
1250.817, 299.4029
1251.299, 299.1505
1251.781, 298.1188
1252.263, 298.3646
1252.745, 303.1656
1253.227, 307.1227
1253.710, 306.6078
1254.192, 304.9445
1254.674, 307.8215
1255.156, 313.8850
1255.638, 311.4989
1256.120, 300.8648
1256.602, 292.6393
1257.084, 294.2893
1257.567, 297.5762
1258.049, 300.9039
1258.531, 303.0181
1259.013, 301.2974
1259.495, 296.8839
1259.977, 293.8221
1260.459, 292.3773
1260.941, 291.6066
1261.423, 289.0366
1261.906, 290.7616
1262.388, 300.6920
1262.870, 311.0530
1263.352, 306.7929
1263.834, 295.4080
1264.316, 296.4425
1264.798, 310.3422
1265.280, 319.5892
1265.762, 318.5055
1266.245, 311.3781
1266.727, 295.4622
1267.209, 281.7610
1267.691, 291.3130
1268.173, 310.5009
1268.655, 315.9916
1269.137, 306.5062
1269.619, 297.8731
1270.102, 291.5507
1270.584, 287.6978
1271.066, 286.6524
1271.548, 287.1726
1272.030, 289.3460
1272.512, 291.1266
1272.994, 287.7675
1273.476, 280.0660
1273.958, 282.6510
1274.441, 299.1949
1274.923, 308.5321
1275.405, 304.7848
1275.887, 298.1552
1276.369, 300.4100
1276.851, 304.0297
1277.333, 299.9921
1277.815, 290.0234
1278.297, 287.8984
1278.780, 294.1357
1279.262, 296.3074
1279.744, 290.4385
1280.226, 287.1886
1280.708, 302.4522
1281.190, 316.6889
1281.672, 312.1675
1282.154, 295.7257
1282.637, 292.7702
1283.119, 301.9067
1283.601, 310.5020
1284.083, 316.2750
1284.565, 318.8035
1285.047, 317.5466
1285.529, 312.8358
1286.011, 303.8891
1286.494, 292.7913
1286.976, 284.9251
1287.458, 280.2453
1287.940, 279.0356
1288.422, 281.5577
1288.904, 285.8656
1289.386, 294.5418
1289.868, 300.1482
1290.350, 299.2518
1290.833, 295.2309
1291.315, 293.9562
1291.797, 294.8886
1292.279, 298.3661
1292.761, 305.4557
1293.243, 304.6347
1293.725, 290.2805
1294.207, 281.0913
1294.689, 284.8405
1295.172, 292.5259
1295.654, 289.5344
1296.136, 283.2111
1296.618, 284.9276
1297.100, 297.2856
1297.582, 299.7166
1298.064, 289.9874
1298.546, 285.4678
1299.029, 293.4295
1299.511, 302.4173
1299.993, 298.3139
1300.475, 290.8572
1300.957, 291.0179
1301.439, 297.3478
1301.921, 296.5045
1302.403, 288.8920
1302.885, 287.1085
1303.368, 295.9839
1303.850, 305.3076
1304.332, 311.3941
1304.814, 311.3351
1305.296, 301.5611
1305.778, 286.1808
1306.260, 279.5508
1306.742, 280.1912
1307.224, 282.4176
1307.707, 285.2528
1308.189, 287.3225
1308.671, 285.0545
1309.153, 286.7175
##END=



