##NAMES=Tomichite
##RRUFFID=R070685
##IDEAL CHEMISTRY=V^3+^_4_Ti^4+^_3_As^3+^O_13_(OH)
##LOCALITY=Hemlo mines, Hemlo gold deposit, Marathon, Thunder Bay District, Ontario, Canada
##OWNER=RRUFF
##SOURCE=Michael Scott
##DESCRIPTION=Black massive
##STATUS=The identification of this mineral has been confirmed by single-crystal X-ray diffraction.
##URL=rruff.info/R070685
121.0074, 831.8117
121.4895, 818.8921
121.9717, 788.0650
122.4538, 775.4338
122.9359, 825.3507
123.4180, 899.1473
123.9001, 948.9976
124.3822, 951.7856
124.8644, 931.4696
125.3465, 906.8691
125.8286, 878.1013
126.3107, 854.1833
126.7928, 842.1888
127.2749, 841.1779
127.7571, 849.0757
128.2392, 874.5864
128.7213, 907.0546
129.2034, 922.6628
129.6855, 916.6460
130.1676, 870.2147
130.6498, 906.0493
131.1319, 924.8411
131.6140, 927.5052
132.0961, 865.7379
132.5782, 887.1704
133.0603, 875.2602
133.5425, 861.9822
134.0246, 895.1248
134.5067, 842.7288
134.9888, 875.1353
135.4709, 873.6902
135.9530, 887.7380
136.4352, 868.2367
136.9173, 859.0980
137.3994, 883.5187
137.8815, 889.3574
138.3636, 865.9946
138.8457, 881.0273
139.3279, 827.4588
139.8100, 834.0889
140.2921, 866.6917
140.7742, 845.0157
141.2563, 860.6619
141.7384, 862.0936
142.2206, 798.9268
142.7027, 848.1030
143.1848, 848.6948
143.6669, 796.3403
144.1490, 783.0076
144.6311, 777.1031
145.1133, 778.2504
145.5954, 786.8267
146.0775, 802.2028
146.5596, 831.2109
147.0417, 872.8270
147.5238, 892.7509
148.0060, 880.2724
148.4881, 853.8691
148.9702, 829.8706
149.4523, 804.3286
149.9344, 785.2047
150.4165, 772.5436
150.8987, 763.8380
151.3808, 769.4544
151.8629, 808.5726
152.3450, 858.0724
152.8271, 882.9683
153.3092, 851.8415
153.7914, 821.0670
154.2735, 810.7482
154.7556, 843.3889
155.2377, 861.8927
155.7198, 851.4897
156.2019, 820.7203
156.6841, 795.6321
157.1662, 783.9468
157.6483, 777.3098
158.1304, 771.1086
158.6125, 760.7956
159.0946, 754.3967
159.5768, 757.9469
160.0589, 770.3275
160.5410, 776.2922
161.0231, 760.8879
161.5052, 740.7829
161.9873, 732.2119
162.4695, 754.0334
162.9516, 777.3507
163.4337, 788.5383
163.9158, 785.8479
164.3979, 779.0405
164.8800, 768.8068
165.3622, 757.7173
165.8443, 749.9255
166.3264, 750.2961
166.8085, 752.7241
167.2906, 752.9298
167.7727, 749.8787
168.2549, 745.5340
168.7370, 737.4207
169.2191, 728.1615
169.7012, 725.4253
170.1833, 740.9282
170.6654, 762.3389
171.1476, 776.8098
171.6297, 779.8046
172.1118, 776.1744
172.5939, 766.3530
173.0760, 751.4116
173.5581, 739.3608
174.0403, 737.6530
174.5224, 742.3922
175.0045, 747.2573
175.4866, 749.9051
175.9687, 751.4129
176.4508, 753.7822
176.9330, 757.1909
177.4151, 758.6132
177.8972, 751.9896
178.3793, 740.6061
178.8614, 733.5435
179.3435, 740.5206
179.8257, 753.3284
180.3078, 755.9993
180.7899, 745.5833
181.2720, 732.7850
181.7541, 731.7828
182.2362, 740.6214
182.7184, 748.4684
183.2005, 749.9744
183.6826, 745.6602
184.1647, 734.3425
184.6468, 711.2653
185.1289, 689.0139
185.6111, 695.0522
186.0932, 728.2903
186.5753, 759.8041
187.0574, 764.3870
187.5395, 747.1002
188.0216, 732.2817
188.5037, 726.1418
188.9859, 725.6888
189.4680, 724.1829
189.9501, 721.5983
190.4322, 718.3096
190.9143, 714.1320
191.3964, 709.2169
191.8786, 705.3983
192.3607, 704.6052
192.8428, 705.6376
193.3249, 701.7260
193.8070, 691.6396
194.2891, 680.8727
194.7713, 677.3517
195.2534, 681.2845
195.7355, 685.5389
196.2176, 688.5498
196.6997, 690.1661
197.1818, 684.7469
197.6640, 669.0296
198.1461, 651.8817
198.6282, 652.4707
199.1103, 673.6603
199.5924, 692.5264
200.0745, 694.3855
200.5567, 677.9753
201.0388, 666.1622
201.5209, 660.8780
202.0030, 660.8488
202.4851, 664.8397
202.9672, 674.9644
203.4494, 681.2364
203.9315, 672.7629
204.4136, 645.7238
204.8957, 631.0006
205.3778, 637.0253
205.8599, 658.2378
206.3421, 666.4643
206.8242, 658.7791
207.3063, 645.1980
207.7884, 632.8406
208.2705, 620.6832
208.7526, 614.4257
209.2348, 617.4160
209.7169, 628.9811
210.1990, 633.9342
210.6811, 630.2825
211.1632, 623.1771
211.6453, 618.4457
212.1275, 617.1381
212.6096, 614.8113
213.0917, 608.7908
213.5738, 598.2218
214.0559, 594.7397
214.5380, 600.0620
215.0202, 610.6658
215.5023, 622.2500
215.9844, 636.6780
216.4665, 647.4684
216.9486, 651.6555
217.4307, 647.8026
217.9129, 643.5624
218.3950, 639.1321
218.8771, 634.2242
219.3592, 627.0706
219.8413, 614.0652
220.3234, 605.4857
220.8056, 608.0481
221.2877, 629.5709
221.7698, 640.1237
222.2519, 634.7783
222.7340, 618.8435
223.2161, 609.5650
223.6983, 608.8600
224.1804, 611.9395
224.6625, 617.3130
225.1446, 628.6504
225.6267, 632.8458
226.1088, 624.9899
226.5910, 608.2602
227.0731, 602.5416
227.5552, 614.9548
228.0373, 629.2807
228.5194, 633.5804
229.0015, 623.6469
229.4836, 612.5918
229.9658, 600.4532
230.4479, 587.5081
230.9300, 581.2073
231.4121, 582.9238
231.8942, 589.7432
232.3763, 600.8004
232.8585, 622.9996
233.3406, 635.4982
233.8227, 631.5769
234.3048, 610.0959
234.7869, 593.2275
235.2690, 579.3160
235.7512, 571.2513
236.2333, 573.1606
236.7154, 591.0393
237.1975, 608.4568
237.6796, 592.0499
238.1617, 627.1784
238.6439, 645.2626
239.1260, 647.2202
239.6081, 584.7462
240.0902, 605.4721
240.5723, 592.8552
241.0544, 578.8712
241.5366, 611.3063
242.0187, 558.2036
242.5008, 589.9036
242.9829, 587.7518
243.4650, 601.0930
243.9471, 580.8856
244.4293, 571.0394
244.9114, 594.7535
245.3935, 599.8856
245.8756, 575.8162
246.3577, 590.1423
246.8398, 535.8677
247.3220, 541.7903
247.8041, 573.6866
248.2862, 551.3040
248.7683, 566.2435
249.2504, 566.9686
249.7325, 552.3090
250.2147, 563.5027
250.6968, 562.0605
251.1789, 552.1338
251.6610, 545.4547
252.1431, 542.0565
252.6252, 541.8741
253.1074, 546.2554
253.5895, 560.5570
254.0716, 565.8011
254.5537, 556.8507
255.0358, 538.5347
255.5179, 529.5142
256.0001, 534.1745
256.4822, 541.4904
256.9643, 545.4576
257.4464, 545.5353
257.9285, 543.2073
258.4106, 536.7046
258.8928, 527.6250
259.3749, 524.9763
259.8570, 531.4686
260.3391, 540.0385
260.8212, 545.4897
261.3033, 545.9576
261.7855, 548.9275
262.2676, 557.6278
262.7497, 570.0677
263.2318, 572.1797
263.7139, 557.9405
264.1960, 543.2024
264.6782, 542.4897
265.1603, 563.5737
265.6424, 574.3193
266.1245, 566.3046
266.6066, 542.7075
267.0887, 528.8854
267.5709, 525.9584
268.0530, 530.9857
268.5351, 545.4623
269.0172, 575.5593
269.4993, 591.1079
269.9814, 581.0523
270.4636, 548.8587
270.9457, 533.1770
271.4278, 537.9292
271.9099, 551.0667
272.3920, 562.5248
272.8741, 572.9705
273.3563, 578.3425
273.8384, 575.9913
274.3205, 566.9482
274.8026, 562.4021
275.2847, 563.4739
275.7668, 566.3520
276.2490, 566.9269
276.7311, 564.8067
277.2132, 562.8151
277.6953, 561.1397
278.1774, 559.9864
278.6595, 561.7332
279.1417, 566.6754
279.6238, 573.6786
280.1059, 584.0129
280.5880, 598.5840
281.0701, 605.3640
281.5522, 596.7809
282.0344, 576.1472
282.5165, 567.5782
282.9986, 573.0904
283.4807, 583.6440
283.9628, 588.7965
284.4449, 588.4756
284.9271, 589.0447
285.4092, 593.6467
285.8913, 601.0383
286.3734, 604.3185
286.8555, 602.8442
287.3376, 600.0527
287.8198, 600.1608
288.3019, 602.9909
288.7840, 605.4562
289.2661, 605.8657
289.7482, 604.9701
290.2303, 607.0834
290.7124, 612.9807
291.1945, 617.2419
291.6767, 609.9971
292.1588, 593.3560
292.6409, 582.5479
293.1230, 588.4145
293.6051, 604.2469
294.0872, 608.7183
294.5694, 600.6570
295.0515, 590.9343
295.5336, 593.0023
296.0157, 604.1970
296.4978, 612.9294
296.9799, 613.6202
297.4621, 608.9010
297.9442, 603.2531
298.4263, 596.3869
298.9084, 591.5172
299.3905, 595.3036
299.8727, 604.3540
300.3548, 608.8878
300.8369, 599.2177
301.3190, 584.4257
301.8011, 580.1500
302.2832, 587.0554
302.7654, 594.3830
303.2475, 590.8651
303.7296, 580.5273
304.2117, 572.0087
304.6938, 569.0522
305.1759, 569.8317
305.6581, 574.7403
306.1402, 584.0438
306.6223, 589.4453
307.1044, 580.2897
307.5865, 563.2205
308.0686, 549.6863
308.5508, 545.0908
309.0329, 545.4514
309.5150, 548.5195
309.9971, 554.2954
310.4792, 559.7300
310.9613, 563.9127
311.4435, 566.3246
311.9256, 566.1813
312.4077, 561.1439
312.8898, 555.0108
313.3719, 549.5317
313.8540, 544.8201
314.3362, 542.1740
314.8183, 543.5443
315.3004, 546.9095
315.7825, 549.9589
316.2646, 553.4469
316.7467, 555.1045
317.2289, 552.3232
317.7110, 545.1038
318.1931, 540.2240
318.6752, 541.1907
319.1573, 545.3297
319.6394, 550.1005
320.1216, 557.1583
320.6037, 562.5204
321.0858, 565.0325
321.5679, 564.6454
322.0500, 561.9672
322.5321, 553.7931
323.0143, 545.0956
323.4964, 539.8367
323.9785, 539.8768
324.4606, 542.1704
324.9427, 548.1234
325.4248, 557.5065
325.9070, 562.7112
326.3891, 558.4904
326.8712, 552.4946
327.3533, 549.9528
327.8354, 555.3289
328.3175, 559.4661
328.7997, 561.4415
329.2818, 561.3187
329.7639, 560.1234
330.2460, 556.2673
330.7281, 552.5992
331.2102, 550.9993
331.6924, 553.2946
332.1745, 554.7281
332.6566, 553.6068
333.1387, 550.8372
333.6208, 552.8537
334.1029, 563.1678
334.5851, 573.7077
335.0672, 579.3010
335.5493, 577.8319
336.0314, 576.5182
336.5135, 575.7798
336.9956, 575.5950
337.4778, 576.2522
337.9599, 578.6727
338.4420, 579.9109
338.9241, 576.9196
339.4062, 567.9638
339.8883, 564.6060
340.3705, 569.4267
340.8526, 579.0043
341.3347, 584.3132
341.8168, 584.3406
342.2989, 584.6886
342.7810, 589.2191
343.2632, 597.9734
343.7453, 605.8149
344.2274, 613.5088
344.7095, 618.4030
345.1916, 612.6750
345.6737, 596.0106
346.1559, 582.5769
346.6380, 584.1702
347.1201, 596.5489
347.6022, 597.4957
348.0843, 582.8740
348.5664, 565.7418
349.0486, 566.5026
349.5307, 582.3543
350.0128, 595.7160
350.4949, 595.6514
350.9770, 587.6229
351.4591, 581.9187
351.9413, 578.7917
352.4234, 579.4697
352.9055, 589.1313
353.3876, 604.1257
353.8697, 614.7850
354.3518, 614.5380
354.8340, 609.1021
355.3161, 603.7267
355.7982, 598.4878
356.2803, 595.9055
356.7624, 603.3454
357.2445, 613.7845
357.7267, 616.2007
358.2088, 594.2353
358.6909, 571.9050
359.1730, 568.1683
359.6551, 582.7824
360.1372, 596.7668
360.6194, 599.5100
361.1015, 596.9227
361.5836, 594.9971
362.0657, 594.8268
362.5478, 596.3846
363.0299, 600.2928
363.5121, 606.3040
363.9942, 612.2986
364.4763, 620.2899
364.9584, 626.4827
365.4405, 628.2470
365.9226, 619.8910
366.4048, 612.7897
366.8869, 609.3539
367.3690, 608.9152
367.8511, 608.2631
368.3332, 605.8990
368.8153, 604.1678
369.2975, 604.2997
369.7796, 610.6212
370.2617, 612.7530
370.7438, 607.4017
371.2259, 597.9929
371.7080, 594.4079
372.1901, 601.3755
372.6722, 608.0673
373.1544, 609.7866
373.6365, 603.8283
374.1186, 600.2826
374.6007, 599.6917
375.0828, 601.0294
375.5649, 603.1472
376.0471, 607.4368
376.5292, 608.4787
377.0113, 602.0896
377.4934, 587.2567
377.9755, 580.9446
378.4576, 584.5922
378.9398, 593.3907
379.4219, 603.1102
379.9040, 614.1345
380.3861, 619.7097
380.8682, 614.4701
381.3503, 601.6821
381.8325, 597.5998
382.3146, 603.1667
382.7967, 610.9412
383.2788, 613.3461
383.7609, 611.3522
384.2430, 609.1924
384.7252, 607.6404
385.2073, 607.0134
385.6894, 609.2188
386.1715, 613.9575
386.6536, 616.8535
387.1357, 611.0364
387.6179, 601.7339
388.1000, 598.6805
388.5821, 607.2629
389.0642, 617.9252
389.5463, 621.2904
390.0284, 618.8309
390.5106, 615.6518
390.9927, 615.0007
391.4748, 614.6972
391.9569, 612.1818
392.4390, 605.4277
392.9211, 600.4902
393.4033, 604.3954
393.8854, 612.2346
394.3675, 614.2425
394.8496, 599.3458
395.3317, 583.8402
395.8138, 575.0621
396.2960, 574.4590
396.7781, 578.3523
397.2602, 594.4264
397.7423, 611.9282
398.2244, 617.4004
398.7065, 590.2042
399.1887, 569.8225
399.6708, 569.0483
400.1529, 590.7600
400.6350, 603.9276
401.1171, 602.9476
401.5992, 597.4755
402.0814, 595.9791
402.5635, 602.9998
403.0456, 605.4426
403.5277, 599.6009
404.0098, 587.0803
404.4919, 579.3019
404.9741, 577.4844
405.4562, 578.0845
405.9383, 578.4686
406.4204, 578.1970
406.9025, 581.2261
407.3846, 589.7593
407.8668, 599.9965
408.3489, 602.1885
408.8310, 595.7574
409.3131, 587.4225
409.7952, 578.2322
410.2773, 569.3395
410.7595, 570.3813
411.2416, 583.9064
411.7237, 599.6711
412.2058, 602.7324
412.6879, 595.4894
413.1700, 589.0311
413.6522, 590.2956
414.1343, 594.8944
414.6164, 595.8743
415.0985, 593.0331
415.5806, 588.9311
416.0627, 583.0300
416.5449, 577.7443
417.0270, 576.8633
417.5091, 587.3310
417.9912, 597.8869
418.4733, 600.1818
418.9554, 595.2051
419.4376, 589.1918
419.9197, 581.1586
420.4018, 575.6287
420.8839, 577.1064
421.3660, 596.1566
421.8481, 608.1395
422.3303, 600.7915
422.8124, 580.6114
423.2945, 565.6818
423.7766, 562.6163
424.2587, 562.6144
424.7408, 562.0403
425.2230, 559.2510
425.7051, 559.2870
426.1872, 565.1696
426.6693, 572.6437
427.1514, 575.5848
427.6335, 570.7406
428.1157, 566.5419
428.5978, 565.3149
429.0799, 567.1781
429.5620, 568.2804
430.0441, 568.4742
430.5262, 568.1625
431.0084, 567.7000
431.4905, 567.1051
431.9726, 566.1707
432.4547, 564.4898
432.9368, 562.6591
433.4189, 564.4802
433.9011, 570.5103
434.3832, 572.3745
434.8653, 558.3466
435.3474, 533.6177
435.8295, 522.1141
436.3116, 528.9408
436.7938, 543.7822
437.2759, 556.4292
437.7580, 566.1489
438.2401, 569.9839
438.7222, 561.9394
439.2043, 549.2353
439.6865, 540.0474
440.1686, 534.9036
440.6507, 532.7116
441.1328, 533.3429
441.6149, 536.2844
442.0970, 540.8392
442.5792, 547.7958
443.0613, 555.3659
443.5434, 564.7026
444.0255, 575.0284
444.5076, 580.2275
444.9897, 575.6962
445.4719, 567.0140
445.9540, 557.6235
446.4361, 544.2701
446.9182, 535.2232
447.4003, 534.7723
447.8824, 539.3198
448.3646, 538.9265
448.8467, 527.6382
449.3288, 518.3960
449.8109, 516.2661
450.2930, 523.3788
450.7751, 528.8482
451.2573, 532.4050
451.7394, 534.7110
452.2215, 537.0892
452.7036, 540.3218
453.1857, 539.8565
453.6678, 532.0447
454.1500, 519.5023
454.6320, 518.4656
455.1142, 530.5447
455.5963, 542.5772
456.0784, 541.0753
456.5605, 528.7854
457.0426, 519.9661
457.5247, 517.0403
458.0069, 518.5968
458.4890, 528.0228
458.9711, 542.1535
459.4532, 547.4183
459.9353, 523.9080
460.4174, 492.3460
460.8996, 480.0733
461.3817, 491.6407
461.8638, 507.7240
462.3459, 518.7025
462.8280, 525.1750
463.3102, 527.7808
463.7923, 522.8065
464.2744, 517.6693
464.7565, 515.3323
465.2386, 515.8157
465.7207, 517.8362
466.2029, 526.3894
466.6850, 532.9211
467.1671, 532.1656
467.6492, 510.3523
468.1313, 497.8752
468.6134, 500.8665
469.0956, 513.1881
469.5777, 518.9056
470.0598, 514.9567
470.5419, 509.3256
471.0240, 504.0563
471.5061, 498.7004
471.9883, 498.3000
472.4704, 505.7657
472.9525, 513.0601
473.4346, 507.3399
473.9167, 487.5704
474.3988, 474.9881
474.8810, 477.7593
475.3631, 489.7770
475.8452, 492.9123
476.3273, 487.2734
476.8094, 482.7614
477.2915, 489.5849
477.7737, 502.6892
478.2558, 510.8518
478.7379, 511.4337
479.2200, 509.5833
479.7021, 508.9786
480.1842, 509.7695
480.6664, 512.3079
481.1485, 520.9159
481.6306, 528.2458
482.1127, 528.2472
482.5948, 520.2881
483.0769, 511.7579
483.5591, 504.8016
484.0412, 498.9604
484.5233, 493.8051
485.0054, 487.5523
485.4875, 483.9489
485.9696, 484.2897
486.4518, 488.0184
486.9339, 492.3295
487.4160, 498.6684
487.8981, 503.8771
488.3802, 506.0551
488.8623, 503.2720
489.3445, 504.8652
489.8266, 513.9866
490.3087, 523.6862
490.7908, 523.1285
491.2729, 510.9669
491.7550, 497.1937
492.2372, 482.6095
492.7193, 468.8418
493.2014, 464.2213
493.6835, 468.9511
494.1656, 475.9174
494.6477, 480.6496
495.1299, 483.2264
495.6120, 482.9639
496.0941, 477.9212
496.5762, 474.6324
497.0583, 484.7645
497.5404, 502.5964
498.0226, 513.3765
498.5047, 500.7002
498.9868, 484.9913
499.4689, 483.8017
499.9510, 499.2755
500.4331, 509.7562
500.9153, 499.5847
501.3974, 483.8259
501.8795, 475.6461
502.3616, 488.1930
502.8437, 496.5696
503.3258, 493.9296
503.8080, 483.4718
504.2901, 478.3640
504.7722, 482.1560
505.2543, 486.8514
505.7364, 489.2613
506.2185, 488.7811
506.7007, 489.2650
507.1828, 492.0921
507.6649, 493.7901
508.1470, 487.2381
508.6291, 471.1014
509.1112, 463.2493
509.5934, 472.0511
510.0755, 489.8915
510.5576, 493.6949
511.0397, 483.8291
511.5218, 473.6886
512.0039, 474.7224
512.4860, 481.8750
512.9681, 484.9458
513.4503, 481.5363
513.9324, 478.0490
514.4145, 481.4125
514.8966, 488.4159
515.3787, 493.2634
515.8608, 495.3022
516.3430, 493.0425
516.8251, 481.1031
517.3072, 460.3217
517.7893, 449.3010
518.2714, 463.1113
518.7535, 481.7984
519.2357, 492.6671
519.7178, 484.2066
520.1999, 482.3935
520.6820, 493.2482
521.1641, 508.8072
521.6462, 512.3278
522.1284, 496.9740
522.6105, 484.4800
523.0926, 483.2111
523.5747, 492.5901
524.0568, 495.7036
524.5389, 491.0028
525.0211, 485.9561
525.5032, 488.9745
525.9853, 498.6493
526.4674, 505.7155
526.9495, 508.5579
527.4316, 507.8187
527.9138, 502.3328
528.3959, 493.4830
528.8780, 486.0683
529.3601, 482.1565
529.8422, 481.2599
530.3243, 483.5199
530.8065, 489.0508
531.2886, 495.1203
531.7707, 503.6347
532.2528, 510.3869
532.7349, 511.6574
533.2170, 498.8382
533.6992, 489.1342
534.1813, 486.5510
534.6634, 489.7245
535.1455, 494.3450
535.6276, 504.1112
536.1097, 510.7542
536.5919, 510.4319
537.0740, 501.7248
537.5561, 496.9439
538.0382, 497.8626
538.5203, 499.5234
539.0024, 494.8918
539.4846, 483.3000
539.9667, 478.5463
540.4488, 485.5863
540.9309, 497.9502
541.4130, 500.6941
541.8951, 495.1006
542.3773, 492.1192
542.8594, 503.2693
543.3415, 519.1660
543.8236, 525.2945
544.3057, 520.2913
544.7878, 512.0157
545.2700, 501.2013
545.7521, 492.0178
546.2342, 489.2831
546.7163, 502.9343
547.1984, 514.2712
547.6805, 516.8730
548.1627, 512.1518
548.6448, 505.1385
549.1269, 489.4891
549.6090, 478.3592
550.0911, 477.5687
550.5732, 490.0080
551.0554, 499.6337
551.5375, 506.8232
552.0196, 510.7398
552.5017, 508.9031
552.9838, 499.7212
553.4659, 495.7574
553.9481, 500.8524
554.4302, 510.6131
554.9123, 514.7385
555.3944, 513.4534
555.8765, 511.0367
556.3586, 511.1814
556.8408, 511.4598
557.3229, 505.7297
557.8050, 493.3760
558.2871, 483.2534
558.7692, 486.1125
559.2513, 493.8845
559.7335, 495.9401
560.2156, 481.9246
560.6977, 471.3318
561.1798, 473.9909
561.6619, 486.0535
562.1440, 497.0576
562.6262, 509.2560
563.1083, 515.9303
563.5904, 511.7474
564.0725, 493.7641
564.5546, 488.7776
565.0367, 505.4990
565.5189, 524.0121
566.0010, 524.7986
566.4831, 503.4496
566.9652, 490.7086
567.4473, 491.9517
567.9294, 501.0518
568.4116, 506.9094
568.8937, 509.7648
569.3758, 512.2767
569.8579, 516.3206
570.3400, 520.6821
570.8221, 524.1600
571.3043, 526.6042
571.7864, 525.9549
572.2685, 516.8762
572.7506, 505.7390
573.2327, 499.4128
573.7148, 500.6250
574.1970, 504.2451
574.6791, 509.6277
575.1612, 515.9781
575.6433, 521.6956
576.1254, 530.4281
576.6075, 534.1724
577.0897, 528.4219
577.5718, 513.7007
578.0539, 507.3952
578.5360, 513.1353
579.0181, 520.7008
579.5002, 522.2397
579.9824, 517.0422
580.4645, 518.0543
580.9466, 527.5909
581.4287, 538.9357
581.9108, 543.2048
582.3929, 541.1774
582.8751, 536.1579
583.3572, 526.2158
583.8393, 516.7491
584.3214, 516.2803
584.8035, 522.9973
585.2856, 528.4575
585.7678, 528.4624
586.2499, 525.1104
586.7320, 518.7894
587.2141, 508.2648
587.6962, 500.8622
588.1783, 498.4785
588.6605, 500.1286
589.1426, 505.1607
589.6247, 518.8189
590.1068, 527.4813
590.5889, 527.5938
591.0710, 522.3984
591.5532, 522.1016
592.0353, 527.9975
592.5174, 534.0004
592.9995, 537.9875
593.4816, 539.9221
593.9637, 538.2620
594.4459, 532.5605
594.9280, 528.0312
595.4101, 531.6478
595.8922, 539.5657
596.3743, 543.7645
596.8564, 541.6049
597.3386, 537.8013
597.8207, 535.7057
598.3028, 534.7333
598.7849, 533.8463
599.2670, 529.3743
599.7491, 528.0797
600.2313, 536.5754
600.7134, 554.2188
601.1955, 561.2617
601.6776, 543.8090
602.1597, 527.8157
602.6418, 527.4707
603.1240, 549.6558
603.6061, 563.2659
604.0882, 566.6274
604.5703, 564.1918
605.0524, 560.0835
605.5345, 554.4095
606.0167, 551.2797
606.4988, 552.4141
606.9809, 555.8065
607.4630, 558.4828
607.9451, 560.4577
608.4272, 561.8907
608.9094, 563.2354
609.3915, 563.8541
609.8736, 562.8358
610.3557, 560.0878
610.8378, 557.2726
611.3199, 553.0839
611.8021, 550.2849
612.2842, 551.0520
612.7663, 557.1115
613.2484, 564.9719
613.7305, 577.2709
614.2126, 590.1425
614.6948, 596.6088
615.1769, 595.0134
615.6590, 591.6052
616.1411, 587.4239
616.6232, 582.7875
617.1053, 578.5978
617.5875, 574.7137
618.0696, 573.9173
618.5517, 580.5240
619.0338, 591.2297
619.5159, 598.6751
619.9980, 602.1422
620.4802, 603.9402
620.9623, 606.4926
621.4444, 608.3281
621.9265, 607.3663
622.4086, 598.6847
622.8907, 592.7177
623.3729, 595.3163
623.8550, 603.1931
624.3371, 607.9785
624.8192, 606.3867
625.3013, 604.6041
625.7834, 604.2995
626.2656, 605.4083
626.7477, 605.4894
627.2298, 604.1050
627.7119, 602.8483
628.1940, 601.5583
628.6761, 600.6531
629.1583, 606.6145
629.6404, 621.4651
630.1225, 636.4495
630.6046, 641.3262
631.0867, 639.1702
631.5688, 636.6277
632.0510, 635.6985
632.5331, 635.4290
633.0152, 634.5927
633.4973, 633.8298
633.9794, 634.9745
634.4615, 643.2295
634.9437, 649.2479
635.4258, 648.6074
635.9079, 640.4603
636.3900, 632.6959
636.8721, 625.1154
637.3542, 618.0661
637.8364, 610.4271
638.3185, 600.9326
638.8006, 601.4574
639.2827, 615.3314
639.7648, 632.5043
640.2469, 637.8212
640.7291, 633.7391
641.2112, 632.5046
641.6933, 639.3138
642.1754, 649.1006
642.6575, 658.9150
643.1396, 667.3541
643.6218, 669.5793
644.1039, 655.1339
644.5860, 640.6653
645.0681, 636.0766
645.5502, 642.7637
646.0323, 649.9798
646.5145, 661.8986
646.9966, 669.2243
647.4787, 664.7598
647.9608, 639.3628
648.4429, 628.3459
648.9250, 637.1140
649.4072, 652.5072
649.8893, 654.8436
650.3714, 644.8046
650.8535, 638.7507
651.3356, 642.9470
651.8177, 650.5941
652.2999, 650.6316
652.7820, 644.5235
653.2641, 637.8450
653.7462, 632.3698
654.2283, 628.3453
654.7104, 625.4914
655.1926, 623.8687
655.6747, 625.1142
656.1568, 635.9667
656.6389, 645.2867
657.1210, 645.1157
657.6031, 629.8173
658.0853, 619.1384
658.5674, 613.2103
659.0495, 611.7190
659.5316, 616.3945
660.0137, 628.1553
660.4958, 634.8679
660.9779, 632.9722
661.4600, 626.6864
661.9421, 621.8282
662.4243, 618.7263
662.9064, 618.7889
663.3885, 625.3159
663.8706, 633.4951
664.3527, 640.0359
664.8348, 644.6188
665.3170, 645.8766
665.7991, 637.8033
666.2812, 630.3994
666.7633, 631.0774
667.2454, 646.9202
667.7275, 650.8567
668.2097, 634.1379
668.6918, 614.3007
669.1739, 608.7643
669.6560, 619.8850
670.1381, 630.3657
670.6202, 638.3782
671.1024, 644.4976
671.5845, 650.4301
672.0666, 655.6489
672.5487, 657.2233
673.0308, 652.8888
673.5129, 645.5110
673.9951, 636.6580
674.4772, 627.0194
674.9593, 619.0213
675.4414, 608.6527
675.9235, 604.5472
676.4056, 614.8267
676.8878, 643.1204
677.3699, 661.5035
677.8520, 666.6554
678.3341, 664.4355
678.8162, 657.3276
679.2983, 643.7519
679.7805, 632.5337
680.2626, 623.7286
680.7447, 618.2577
681.2268, 618.4360
681.7089, 623.3536
682.1910, 629.0843
682.6732, 635.7852
683.1553, 640.8495
683.6374, 641.3364
684.1195, 638.0156
684.6016, 632.7958
685.0837, 622.9594
685.5659, 614.7628
686.0480, 610.9202
686.5301, 611.4235
687.0122, 615.0378
687.4943, 626.4166
687.9764, 634.8801
688.4586, 634.6033
688.9407, 624.4464
689.4228, 618.0175
689.9049, 615.2507
690.3870, 616.2949
690.8691, 624.7288
691.3513, 637.7682
691.8334, 643.2053
692.3155, 638.2141
692.7976, 629.9067
693.2797, 621.4563
693.7618, 614.9939
694.2440, 613.8199
694.7261, 628.9188
695.2082, 638.8624
695.6903, 630.6940
696.1724, 611.5210
696.6545, 602.3481
697.1367, 609.3823
697.6188, 618.0983
698.1009, 624.0166
698.5830, 628.0891
699.0651, 640.2377
699.5472, 662.3923
700.0294, 679.7635
700.5115, 681.6098
700.9936, 671.9187
701.4757, 659.1002
701.9578, 643.4016
702.4399, 631.1639
702.9221, 626.1166
703.4042, 627.6984
703.8863, 636.6570
704.3684, 658.1400
704.8505, 674.8608
705.3326, 679.8561
705.8148, 678.3832
706.2969, 676.9727
706.7790, 675.8408
707.2611, 674.3797
707.7432, 672.0548
708.2253, 669.7877
708.7075, 670.0311
709.1896, 672.7883
709.6717, 675.4896
710.1538, 677.7449
710.6359, 678.8924
711.1180, 677.1692
711.6002, 673.0596
712.0823, 668.7712
712.5644, 658.3762
713.0465, 647.2609
713.5286, 659.8519
714.0107, 668.6554
714.4929, 673.8530
714.9750, 665.9703
715.4571, 673.9566
715.9392, 674.9600
716.4213, 675.2501
716.9034, 684.1967
717.3856, 675.9265
717.8677, 683.8386
718.3498, 684.6681
718.8319, 688.0903
719.3140, 684.4891
719.7961, 682.4746
720.2783, 686.5948
720.7604, 686.6268
721.2425, 680.7053
721.7246, 682.6651
722.2067, 686.8483
722.6888, 689.0435
723.1710, 684.3298
723.6531, 676.1016
724.1352, 675.9211
724.6173, 692.0998
725.0994, 703.8515
725.5815, 704.0529
726.0637, 694.7092
726.5458, 689.1926
727.0279, 687.6073
727.5100, 689.0731
727.9921, 696.2090
728.4742, 705.3124
728.9564, 706.5097
729.4385, 699.7144
729.9206, 693.9897
730.4027, 699.2961
730.8848, 706.3475
731.3669, 706.3054
731.8491, 694.5384
732.3312, 685.6924
732.8133, 680.4926
733.2954, 680.7157
733.7775, 690.3478
734.2596, 715.6615
734.7418, 727.9239
735.2239, 721.4326
735.7060, 707.4217
736.1881, 704.5743
736.6702, 710.6583
737.1523, 712.9505
737.6345, 706.6445
738.1166, 696.2581
738.5987, 680.7123
739.0808, 664.7665
739.5629, 659.6782
740.0450, 683.2086
740.5272, 705.0821
741.0093, 711.9496
741.4914, 705.2983
741.9735, 701.5660
742.4556, 701.2508
742.9377, 703.0117
743.4199, 707.6335
743.9020, 714.4410
744.3841, 716.5839
744.8662, 714.0172
745.3483, 707.5145
745.8304, 691.8895
746.3126, 674.9689
746.7947, 672.0206
747.2768, 685.1316
747.7589, 697.5651
748.2410, 698.8646
748.7231, 695.8519
749.2053, 693.8920
749.6874, 692.9872
750.1695, 695.1496
750.6516, 702.2467
751.1337, 710.5976
751.6158, 716.4227
752.0980, 719.5127
752.5801, 721.2268
753.0622, 721.4994
753.5443, 720.9883
754.0264, 721.3901
754.5085, 721.8625
754.9907, 719.7961
755.4728, 711.9175
755.9549, 704.1452
756.4370, 700.2838
756.9191, 699.7132
757.4012, 701.1048
757.8834, 709.4101
758.3655, 713.1804
758.8476, 704.9547
759.3297, 689.5896
759.8118, 693.8962
760.2939, 724.4783
760.7761, 748.2551
761.2582, 746.5102
761.7403, 727.1070
762.2224, 712.7457
762.7045, 703.5422
763.1866, 700.3896
763.6688, 711.7614
764.1509, 724.3965
764.6330, 723.6212
765.1151, 707.2816
765.5972, 695.7306
766.0793, 695.1627
766.5615, 701.0845
767.0436, 712.5446
767.5257, 733.7440
768.0078, 742.8998
768.4899, 737.0567
768.9720, 726.3192
769.4542, 718.4603
769.9363, 713.7729
770.4184, 714.9569
770.9005, 723.5462
771.3826, 732.1176
771.8647, 733.4632
772.3469, 730.4509
772.8290, 727.1025
773.3111, 726.0687
773.7932, 722.3679
774.2753, 708.3567
774.7574, 693.3309
775.2396, 692.0864
775.7217, 711.8030
776.2038, 726.5092
776.6859, 730.9678
777.1680, 729.2654
777.6501, 729.4388
778.1323, 731.1387
778.6144, 731.9275
779.0965, 729.2762
779.5786, 726.8970
780.0607, 731.5472
780.5428, 740.0519
781.0250, 743.0233
781.5071, 729.6661
781.9892, 717.6295
782.4713, 715.4637
782.9534, 721.0759
783.4355, 722.4456
783.9177, 718.3429
784.3998, 712.8896
784.8819, 706.2300
785.3640, 699.6641
785.8461, 701.2745
786.3282, 710.6041
786.8104, 719.0827
787.2925, 721.9574
787.7746, 720.1315
788.2567, 711.8577
788.7388, 697.0894
789.2209, 687.8545
789.7031, 693.8638
790.1852, 702.2558
790.6673, 705.7238
791.1494, 703.5447
791.6315, 699.7809
792.1136, 694.5053
792.5958, 687.6720
793.0779, 678.1014
793.5600, 666.6345
794.0421, 657.2585
794.5242, 649.9747
795.0063, 647.1693
795.4885, 657.2548
795.9706, 670.0709
796.4527, 673.0101
796.9348, 658.9548
797.4169, 645.4792
797.8990, 636.7206
798.3812, 630.5601
798.8633, 625.0182
799.3454, 619.7639
799.8275, 616.6035
800.3096, 615.9885
800.7917, 616.8411
801.2739, 618.2734
801.7560, 619.9344
802.2381, 620.5265
802.7202, 619.6337
803.2023, 617.6958
803.6844, 614.4297
804.1666, 610.5366
804.6487, 607.0803
805.1308, 602.7928
805.6129, 601.2403
806.0950, 606.3945
806.5771, 613.0857
807.0593, 609.0446
807.5414, 592.0424
808.0235, 577.8649
808.5056, 571.4341
808.9877, 569.3564
809.4698, 565.8992
809.9520, 561.2999
810.4341, 556.3929
810.9162, 551.5251
811.3983, 546.5883
811.8804, 540.2119
812.3625, 533.4402
812.8447, 530.4123
813.3268, 535.5914
813.8089, 539.4558
814.2910, 539.2595
814.7731, 535.8690
815.2552, 533.5803
815.7374, 532.5095
816.2195, 530.7636
816.7016, 526.6130
817.1837, 521.5352
817.6658, 517.3960
818.1479, 514.4225
818.6301, 513.4155
819.1122, 520.3382
819.5943, 524.4499
820.0764, 517.4603
820.5585, 498.8204
821.0406, 486.7567
821.5228, 483.2519
822.0049, 482.7247
822.4870, 483.4942
822.9691, 485.1894
823.4512, 484.7682
823.9333, 482.2310
824.4154, 478.4992
824.8975, 470.4469
825.3796, 463.6972
825.8618, 467.0952
826.3439, 481.2416
826.8260, 491.9236
827.3081, 493.8580
827.7902, 491.1168
828.2723, 485.5709
828.7545, 476.8820
829.2366, 467.9273
829.7187, 457.7404
830.2008, 450.6421
830.6829, 451.3270
831.1650, 457.7179
831.6472, 465.0433
832.1293, 473.0268
832.6114, 476.5487
833.0935, 464.6229
833.5756, 451.2097
834.0577, 450.1229
834.5399, 468.9008
835.0220, 477.7458
835.5041, 469.4002
835.9862, 456.6158
836.4683, 447.7504
836.9504, 443.0327
837.4326, 439.4811
837.9147, 437.1528
838.3968, 435.4445
838.8789, 432.8987
839.3610, 430.8991
839.8431, 433.0311
840.3253, 441.2323
840.8074, 445.5429
841.2895, 437.2702
841.7716, 425.5496
842.2537, 417.6057
842.7358, 412.3733
843.2180, 415.7809
843.7001, 432.7436
844.1822, 448.4455
844.6643, 442.0219
845.1464, 419.3537
845.6285, 412.8259
846.1107, 428.7076
846.5928, 445.0684
847.0749, 441.3215
847.5570, 428.4150
848.0391, 418.7113
848.5212, 416.2019
849.0034, 413.2776
849.4855, 406.8633
849.9676, 401.4487
850.4497, 401.9442
850.9318, 409.3077
851.4139, 414.0131
851.8961, 414.7151
852.3782, 415.2049
852.8603, 422.6690
853.3424, 432.3192
853.8245, 434.4482
854.3066, 424.6956
854.7888, 414.6724
855.2709, 409.0737
855.7530, 406.3751
856.2351, 405.1687
856.7172, 405.9136
857.1993, 406.5070
857.6815, 406.3175
858.1636, 407.1247
858.6457, 413.6373
859.1278, 423.6563
859.6099, 425.1610
860.0920, 414.2767
860.5742, 403.9733
861.0563, 407.5590
861.5384, 416.6739
862.0205, 421.8661
862.5026, 419.9902
862.9847, 415.8842
863.4669, 407.6016
863.9490, 399.7386
864.4311, 397.7666
864.9132, 402.2388
865.3953, 403.2073
865.8774, 399.0278
866.3596, 393.9526
866.8417, 391.9201
867.3238, 392.4720
867.8059, 395.5729
868.2880, 403.0660
868.7701, 407.6174
869.2523, 403.2372
869.7344, 396.5376
870.2165, 394.2745
870.6986, 398.5004
871.1807, 401.0707
871.6628, 401.2472
872.1450, 401.0055
872.6271, 402.9372
873.1092, 406.2852
873.5913, 408.8624
874.0734, 410.3227
874.5555, 410.8907
875.0377, 409.8933
875.5198, 408.5067
876.0019, 408.0211
876.4840, 410.3343
876.9661, 409.9130
877.4482, 405.8351
877.9304, 400.3078
878.4125, 394.9323
878.8946, 389.7804
879.3767, 386.1548
879.8588, 384.2433
880.3409, 383.0359
880.8231, 381.9023
881.3052, 380.8099
881.7873, 378.9817
882.2694, 374.6793
882.7515, 375.5000
883.2336, 389.9081
883.7158, 403.5218
884.1979, 405.0401
884.6800, 392.2161
885.1621, 386.3547
885.6442, 388.7770
886.1263, 392.3233
886.6085, 388.2676
887.0906, 381.7055
887.5727, 381.9090
888.0548, 390.8203
888.5369, 397.3039
889.0190, 394.8531
889.5012, 389.3727
889.9833, 384.6090
890.4654, 380.7412
890.9475, 376.6403
891.4296, 371.6233
891.9117, 368.7735
892.3939, 372.7769
892.8760, 380.4718
893.3581, 383.5833
893.8402, 381.6898
894.3223, 378.1528
894.8044, 371.1772
895.2866, 366.3332
895.7687, 370.0907
896.2508, 385.1464
896.7329, 386.8802
897.2150, 368.0831
897.6971, 351.1962
898.1793, 350.4656
898.6614, 362.7104
899.1435, 374.4614
899.6256, 385.3499
900.1077, 391.7392
900.5898, 389.4862
901.0720, 382.9131
901.5541, 372.8969
902.0362, 359.8773
902.5183, 353.7669
903.0004, 358.4700
903.4825, 365.2257
903.9647, 371.9182
904.4468, 377.9901
904.9289, 379.1567
905.4110, 375.6736
905.8931, 372.3811
906.3752, 363.0311
906.8574, 370.4986
907.3395, 374.6244
907.8216, 375.5878
908.3037, 363.9177
908.7858, 368.5612
909.2679, 366.6670
909.7501, 364.5046
910.2322, 371.4443
910.7143, 361.6116
911.1964, 368.4069
911.6785, 368.5647
912.1606, 371.7603
912.6428, 368.3776
913.1249, 367.0269
913.6070, 367.9504
914.0891, 370.1240
914.5712, 373.6182
915.0533, 374.0527
915.5355, 366.4073
916.0176, 356.9964
916.4997, 359.9307
916.9818, 376.8928
917.4639, 389.2966
917.9460, 392.8713
918.4282, 390.3677
918.9103, 380.8867
919.3924, 368.9674
919.8745, 363.4614
920.3566, 371.4810
920.8387, 379.4337
921.3209, 383.5290
921.8030, 385.2122
922.2851, 386.3004
922.7672, 387.2129
923.2493, 384.7429
923.7314, 377.6646
924.2136, 370.4721
924.6957, 370.1332
925.1778, 373.2833
925.6599, 373.1033
926.1420, 366.9416
926.6241, 363.1414
927.1063, 368.5935
927.5884, 375.5789
928.0705, 377.2017
928.5526, 371.3527
929.0347, 369.8952
929.5168, 373.8524
929.9990, 377.9428
930.4811, 376.9206
930.9632, 372.9185
931.4453, 370.0573
931.9274, 368.6805
932.4095, 368.1774
932.8917, 369.9952
933.3738, 371.0734
933.8559, 369.0277
934.3380, 363.8675
934.8201, 359.4973
935.3022, 355.4942
935.7844, 354.1122
936.2665, 359.4905
936.7486, 367.4353
937.2307, 366.0387
937.7128, 357.2778
938.1949, 350.9547
938.6771, 352.6014
939.1592, 357.5928
939.6413, 366.8694
940.1234, 377.9754
940.6055, 380.4108
941.0876, 371.0179
941.5698, 364.9379
942.0519, 368.3004
942.5340, 375.7319
943.0161, 376.6526
943.4982, 372.7901
943.9803, 368.7011
944.4625, 364.7630
944.9446, 362.8322
945.4267, 365.2301
945.9088, 369.6334
946.3909, 371.9941
946.8730, 371.6998
947.3552, 371.6967
947.8373, 372.9249
948.3194, 373.0246
948.8015, 366.3215
949.2836, 356.4161
949.7657, 351.9741
950.2479, 356.9023
950.7300, 360.7073
951.2121, 355.7273
951.6942, 349.4402
952.1763, 348.6731
952.6584, 355.1681
953.1406, 361.5289
953.6227, 368.0116
954.1048, 364.2503
954.5869, 371.6651
955.0690, 375.7380
955.5511, 376.6487
956.0333, 364.9256
956.5154, 369.5164
956.9975, 367.5693
957.4796, 365.3542
957.9617, 372.2410
958.4438, 362.3556
958.9260, 369.0980
959.4081, 369.2029
959.8902, 372.3456
960.3723, 368.9102
960.8544, 377.9091
961.3365, 373.4212
961.8187, 359.9794
962.3008, 348.5740
962.7829, 343.4009
963.2650, 341.8192
963.7471, 343.9051
964.2292, 348.6043
964.7114, 354.6528
965.1935, 362.5741
965.6756, 367.2767
966.1577, 367.3830
966.6398, 364.2480
967.1219, 354.7643
967.6041, 344.5806
968.0862, 344.0002
968.5683, 366.5636
969.0504, 381.1102
969.5325, 377.1297
970.0146, 366.1478
970.4968, 357.2050
970.9789, 350.2258
971.4610, 346.0634
971.9431, 353.8206
972.4252, 358.2360
972.9073, 359.4891
973.3895, 348.1086
973.8716, 353.0417
974.3537, 351.4372
974.8358, 349.5645
975.3179, 356.7937
975.8000, 347.2508
976.2822, 354.3357
976.7643, 354.7831
977.2464, 358.2683
977.7285, 355.1754
978.2106, 354.1142
978.6927, 359.6334
979.1749, 350.4450
979.6570, 355.3922
980.1391, 364.1319
980.6212, 367.2433
981.1033, 358.9153
981.5854, 352.7289
982.0676, 351.0069
982.5497, 353.1734
983.0318, 360.8186
983.5139, 371.9421
983.9960, 376.9767
984.4781, 370.1562
984.9603, 362.9124
985.4424, 365.4368
985.9245, 371.0043
986.4066, 370.4422
986.8887, 356.8969
987.3708, 352.7029
987.8530, 361.2787
988.3351, 370.9848
988.8172, 368.3180
989.2993, 358.2652
989.7814, 353.5167
990.2635, 355.2092
990.7456, 359.6401
991.2277, 370.0757
991.7098, 377.8544
992.1920, 376.3955
992.6741, 366.3317
993.1562, 358.7570
993.6383, 353.4157
994.1204, 352.2347
994.6025, 359.1860
995.0847, 368.4224
995.5668, 369.0020
996.0489, 363.4988
996.5310, 359.2169
997.0131, 359.8330
997.4952, 361.0348
997.9774, 362.2776
998.4595, 363.1215
998.9416, 362.4003
999.4237, 360.1071
999.9058, 358.4781
1000.388, 357.6611
1000.870, 358.7252
1001.352, 366.5079
1001.834, 374.9878
1002.316, 375.5101
1002.799, 360.3997
1003.281, 355.8140
1003.763, 368.8590
1004.245, 383.9697
1004.727, 390.8645
1005.209, 390.2303
1005.691, 386.6097
1006.173, 380.1870
1006.655, 373.1345
1007.138, 364.5444
1007.620, 357.9442
1008.102, 355.3976
1008.584, 357.1287
1009.066, 363.0062
1009.548, 376.1979
1010.030, 384.0759
1010.512, 382.4139
1010.995, 374.5530
1011.477, 363.9613
1011.959, 352.3057
1012.441, 343.7778
1012.923, 338.0862
1013.405, 338.6595
1013.887, 355.5889
1014.369, 373.6932
1014.851, 375.8572
1015.334, 358.9001
1015.816, 351.1904
1016.298, 354.9505
1016.780, 360.6655
1017.262, 358.3004
1017.744, 353.5657
1018.226, 353.6573
1018.708, 359.2456
1019.190, 364.4649
1019.673, 369.1671
1020.155, 371.7458
1020.637, 370.9131
1021.119, 367.7060
1021.601, 366.2286
1022.083, 366.3430
1022.565, 367.0855
1023.047, 363.6354
1023.530, 371.3507
1024.012, 375.7241
1024.494, 376.9351
1024.976, 365.5125
1025.458, 370.4036
1025.940, 368.7569
1026.422, 366.8422
1026.904, 374.0294
1027.386, 364.4443
1027.869, 371.4874
1028.351, 371.8927
1028.833, 375.3358
1029.315, 372.2008
1029.797, 371.0976
1030.279, 376.5746
1030.761, 378.4081
1031.243, 361.8188
1031.726, 369.1790
1032.208, 369.9008
1032.690, 373.6604
1033.172, 370.8419
1033.654, 370.0553
1034.136, 375.8488
1034.618, 377.9989
1035.100, 374.4230
1035.583, 378.3767
1036.065, 368.8783
1036.547, 371.1836
1037.029, 379.5963
1037.511, 374.9757
1037.993, 363.4654
1038.475, 358.1906
1038.957, 361.8944
1039.439, 368.0584
1039.922, 375.1112
1040.404, 381.2576
1040.886, 385.1874
1041.368, 386.8309
1041.850, 388.3792
1042.332, 390.0520
1042.814, 389.8748
1043.296, 384.8805
1043.778, 378.5684
1044.261, 375.3673
1044.743, 374.8222
1045.225, 375.4960
1045.707, 377.8751
1046.189, 380.4009
1046.671, 383.6067
1047.153, 385.9874
1047.635, 384.4927
1048.118, 379.7437
1048.600, 375.3344
1049.082, 372.0202
1049.564, 368.0195
1050.046, 358.4792
1050.528, 350.1715
1051.010, 350.1994
1051.492, 359.4513
1051.974, 367.2533
1052.457, 373.8814
1052.939, 377.5111
1053.421, 375.9299
1053.903, 371.3705
1054.385, 365.4584
1054.867, 359.6685
1055.349, 358.4371
1055.831, 369.4661
1056.313, 377.2352
1056.796, 378.4308
1057.278, 375.5625
1057.760, 371.7910
1058.242, 367.2700
1058.724, 362.9020
1059.206, 358.6574
1059.688, 356.1914
1060.170, 359.0233
1060.653, 362.6169
1061.135, 362.5337
1061.617, 358.0398
1062.099, 354.6380
1062.581, 351.3567
1063.063, 353.6133
1063.545, 369.3868
1064.027, 388.7251
1064.510, 392.7684
1064.992, 385.3673
1065.474, 376.8207
1065.956, 369.1375
1066.438, 362.9323
1066.920, 357.2777
1067.402, 353.8495
1067.884, 356.8221
1068.366, 364.9923
1068.849, 368.2197
1069.331, 364.8957
1069.813, 360.3814
1070.295, 354.6146
1070.777, 352.3770
1071.259, 360.5891
1071.741, 379.0406
1072.223, 386.8031
1072.705, 381.8249
1073.188, 375.9688
1073.670, 374.2411
1074.152, 374.9814
1074.634, 377.0602
1075.116, 379.4759
1075.598, 380.0926
1076.080, 376.8636
1076.562, 373.4936
1077.044, 369.4597
1077.527, 366.5631
1078.009, 368.1010
1078.491, 372.7652
1078.973, 372.7939
1079.455, 367.6489
1079.937, 362.2551
1080.419, 358.7320
1080.901, 357.0305
1081.384, 358.0540
1081.866, 361.0276
1082.348, 362.1596
1082.830, 361.1347
1083.312, 361.4734
1083.794, 365.2303
1084.276, 369.0625
1084.758, 369.1296
1085.240, 366.3685
1085.723, 361.8910
1086.205, 353.4656
1086.687, 348.3476
1087.169, 346.7450
1087.651, 348.3665
1088.133, 355.8335
1088.615, 365.9722
1089.097, 366.6076
1089.579, 359.0975
1090.062, 355.3243
1090.544, 365.7634
1091.026, 376.4520
1091.508, 383.7912
1091.990, 386.7430
1092.472, 380.8767
1092.954, 366.4647
1093.436, 354.9247
1093.919, 348.8324
1094.401, 345.6176
1094.883, 341.7298
1095.365, 340.2703
1095.847, 346.8034
1096.329, 365.0441
1096.811, 369.4561
1097.293, 356.1428
1097.776, 343.5149
1098.258, 341.8625
1098.740, 347.6542
1099.222, 358.1036
1099.704, 370.5363
1100.186, 377.7438
1100.668, 371.9977
1101.150, 367.9684
1101.632, 369.2400
1102.115, 371.1010
1102.597, 365.9867
1103.079, 355.7954
1103.561, 350.8572
1104.043, 352.3281
1104.525, 353.3125
1105.007, 347.0190
1105.489, 341.2929
1105.971, 341.1688
1106.454, 345.7509
1106.936, 351.6649
1107.418, 359.0786
1107.900, 361.9608
1108.382, 355.8383
1108.864, 349.1601
1109.346, 352.1736
1109.828, 359.6287
1110.311, 364.3736
1110.793, 365.3338
1111.275, 363.1283
1111.757, 356.5310
1112.239, 350.4794
1112.721, 349.6943
1113.203, 351.6447
1113.685, 351.0044
1114.167, 348.3853
1114.650, 347.1612
1115.132, 348.9323
1115.614, 352.4539
1116.096, 360.5095
1116.578, 366.7597
1117.060, 354.1272
1117.542, 328.8318
1118.024, 323.6584
1118.506, 346.7357
1118.989, 365.4299
1119.471, 351.8499
1119.953, 334.3412
1120.435, 332.2351
1120.917, 344.0682
1121.399, 350.0635
1121.881, 350.1421
1122.363, 350.3445
1122.846, 355.6604
1123.328, 358.8804
1123.810, 349.1518
1124.292, 334.3788
1124.774, 327.6722
1125.256, 333.1860
1125.738, 338.7470
1126.220, 344.7722
1126.703, 348.3931
1127.185, 345.2974
1127.667, 339.2557
1128.149, 334.7481
1128.631, 332.3400
1129.113, 333.6699
1129.595, 341.8692
1130.077, 350.4172
1130.559, 359.9329
1131.042, 366.5881
1131.524, 360.4698
1132.006, 346.0797
1132.488, 336.7777
1132.970, 335.3419
1133.452, 336.4526
1133.934, 339.5290
1134.416, 342.8926
1134.898, 346.4666
1135.381, 349.6762
1135.863, 347.3497
1136.345, 340.2413
1136.827, 334.1428
1137.309, 329.0424
1137.791, 329.5034
1138.273, 346.6931
1138.755, 366.4800
1139.238, 369.4960
1139.720, 351.0535
1140.202, 340.3817
1140.684, 338.4477
1141.166, 340.0283
1141.648, 343.1971
1142.130, 346.0927
1142.612, 347.5070
1143.094, 347.1191
1143.577, 343.4929
1144.059, 334.3833
1144.541, 329.0976
1145.023, 329.7146
1145.505, 333.8136
1145.987, 341.5485
1146.469, 349.0822
1146.951, 349.5353
1147.433, 340.5930
1147.916, 334.1337
1148.398, 332.3697
1148.880, 331.9782
1149.362, 331.6790
1149.844, 331.7243
1150.326, 332.3562
1150.808, 333.8923
1151.290, 337.5867
1151.773, 348.3828
1152.255, 353.2908
1152.737, 345.9561
1153.219, 334.9700
1153.701, 324.3938
1154.183, 315.0800
1154.665, 319.7990
1155.147, 336.8932
1155.630, 349.6057
1156.112, 343.7342
1156.594, 335.8311
1157.076, 332.1915
1157.558, 332.4906
1158.040, 338.5364
1158.522, 350.2547
1159.004, 355.8334
1159.486, 353.5273
1159.969, 346.7247
1160.451, 331.7821
1160.933, 318.7078
1161.415, 317.7954
1161.897, 327.5010
1162.379, 332.9917
1162.861, 333.8499
1163.343, 334.1958
1163.825, 335.3734
1164.308, 336.5384
1164.790, 337.0117
1165.272, 336.7356
1165.754, 335.2258
1166.236, 331.3801
1166.718, 331.2937
1167.200, 336.3864
1167.682, 339.3450
1168.165, 333.5139
1168.647, 324.3205
1169.129, 318.4022
1169.611, 316.2526
1170.093, 319.4159
1170.575, 335.9128
1171.057, 344.8137
1171.539, 343.2527
1172.021, 338.4338
1172.504, 336.5382
1172.986, 337.0883
1173.468, 339.7043
1173.950, 344.1014
1174.432, 348.1947
1174.914, 351.9446
1175.396, 354.5646
1175.878, 356.6808
1176.360, 356.5179
1176.843, 348.3437
1177.325, 335.6746
1177.807, 328.0784
1178.289, 327.6216
1178.771, 329.7151
1179.253, 336.9612
1179.735, 340.9294
1180.217, 335.7832
1180.700, 325.7227
1181.182, 326.7600
1181.664, 336.6892
1182.146, 346.3334
1182.628, 355.9149
1183.110, 357.4846
1183.592, 337.0054
1184.074, 315.8484
1184.557, 310.9558
1185.039, 321.6624
1185.521, 327.6938
1186.003, 329.7269
1186.485, 334.6077
1186.967, 353.0058
1187.449, 367.8644
1187.931, 368.2665
1188.413, 360.6796
1188.896, 353.2835
1189.378, 345.9547
1189.860, 339.9996
1190.342, 335.4604
1190.824, 333.2530
1191.306, 338.2506
1191.788, 341.8519
1192.270, 332.8328
1192.752, 317.8958
1193.235, 320.8643
1193.717, 343.9073
1194.199, 357.4469
1194.681, 354.8871
1195.163, 347.2346
1195.645, 340.4431
1196.127, 336.5274
1196.609, 339.3595
1197.092, 348.4756
1197.574, 351.7958
1198.056, 348.5744
1198.538, 345.7138
1199.020, 345.3706
1199.502, 346.8801
1199.984, 352.2299
1200.466, 357.5618
1200.948, 357.2406
1201.431, 349.1935
1201.913, 344.0637
1202.395, 342.5079
1202.877, 340.1005
1203.359, 331.0260
1203.841, 322.8967
1204.323, 324.8399
1204.805, 334.3492
1205.287, 347.4003
1205.770, 369.3077
1206.252, 377.9659
1206.734, 370.7673
1207.216, 359.5631
1207.698, 352.7062
1208.180, 348.7997
1208.662, 347.3006
1209.144, 347.4465
1209.627, 346.1950
1210.109, 342.1345
1210.591, 339.2230
1211.073, 337.5388
1211.555, 338.4558
1212.037, 346.5312
1212.519, 356.4583
1213.001, 360.6985
1213.484, 358.8043
1213.966, 356.2996
1214.448, 352.6732
1214.930, 351.5988
1215.412, 354.5337
1215.894, 359.1435
1216.376, 364.1471
1216.858, 367.4490
1217.340, 364.7821
1217.823, 354.1281
1218.305, 347.5698
1218.787, 348.4360
1219.269, 346.1852
1219.751, 333.3963
1220.233, 319.2013
1220.715, 322.0145
1221.197, 334.6985
1221.679, 344.9940
1222.162, 350.3778
1222.644, 351.1426
1223.126, 346.0448
1223.608, 340.0869
1224.090, 335.4930
1224.572, 332.7643
1225.054, 332.5458
1225.536, 335.0311
1226.019, 340.6765
1226.501, 357.1875
1226.983, 363.6305
1227.465, 356.2610
1227.947, 347.3000
1228.429, 348.3514
1228.911, 354.3302
1229.393, 357.1637
1229.875, 356.8656
1230.358, 354.4831
1230.840, 345.1494
1231.322, 344.1250
1231.804, 356.0182
1232.286, 368.4904
1232.768, 364.4210
1233.250, 352.7587
1233.732, 348.1296
1234.214, 351.0445
1234.697, 353.3794
1235.179, 354.2848
1235.661, 353.1108
1236.143, 349.1901
1236.625, 344.3927
1237.107, 338.5196
1237.589, 334.7760
1238.071, 340.6160
1238.553, 357.7455
1239.036, 368.0959
1239.518, 368.9722
1240.000, 365.4481
1240.482, 357.1337
1240.964, 349.1068
1241.446, 350.9513
1241.928, 357.8912
1242.410, 363.1328
1242.893, 365.7208
1243.375, 363.1972
1243.857, 353.2609
1244.339, 345.6797
1244.821, 345.5446
1245.303, 349.7347
1245.785, 356.1435
1246.267, 362.3217
1246.750, 363.5435
1247.232, 355.4288
1247.714, 351.0329
1248.196, 350.5288
1248.678, 353.2867
1249.160, 363.5273
1249.642, 372.9746
1250.124, 365.6613
1250.606, 349.8098
1251.089, 343.5656
1251.571, 356.0517
1252.053, 360.6996
1252.535, 355.4343
1253.017, 349.8309
1253.499, 353.3884
1253.981, 359.0309
1254.463, 357.5967
1254.945, 351.8217
1255.428, 350.6713
1255.910, 356.8941
1256.392, 359.4227
1256.874, 357.0902
1257.356, 352.9893
1257.838, 347.9003
1258.320, 344.0276
1258.802, 344.9819
1259.285, 349.1912
1259.767, 348.7881
1260.249, 342.1396
1260.731, 341.2145
1261.213, 348.5970
1261.695, 355.6922
1262.177, 352.8854
1262.659, 347.4985
1263.141, 344.7551
1263.624, 345.0495
1264.106, 349.3623
1264.588, 358.0222
1265.070, 363.9226
1265.552, 365.1421
1266.034, 365.5715
1266.516, 373.1630
1266.998, 377.2259
1267.480, 364.6891
1267.963, 340.5890
1268.445, 331.0037
1268.927, 335.1288
1269.409, 340.3072
1269.891, 342.8752
1270.373, 346.0238
1270.855, 356.9669
1271.337, 364.2408
1271.820, 357.2244
1272.302, 339.6333
1272.784, 336.7116
1273.266, 346.3609
1273.748, 354.8380
1274.230, 356.4804
1274.712, 357.8119
1275.194, 363.8611
1275.677, 368.8192
1276.159, 368.1820
1276.641, 363.3001
1277.123, 361.7156
1277.605, 362.8215
1278.087, 364.1059
1278.569, 365.7172
1279.051, 365.1562
1279.533, 360.3921
1280.016, 355.1882
1280.498, 351.6793
1280.980, 349.9467
1281.462, 351.8809
1281.944, 355.9372
1282.426, 356.9512
1282.908, 342.3004
1283.390, 342.7697
1283.872, 368.7772
1284.355, 393.9537
1284.837, 391.7805
1285.319, 374.4462
1285.801, 367.6383
1286.283, 368.8418
1286.765, 367.9530
1287.247, 359.1531
1287.729, 353.8373
1288.212, 353.3765
1288.694, 354.0629
1289.176, 350.9567
##END=



