##NAMES=Topaz
##RRUFFID=R040121
##IDEAL CHEMISTRY=Al_2_SiO_4_F_2_
##LOCALITY=Tepetate, San Luis Potosi, Mexico
##OWNER=RRUFF
##SOURCE=University of Arizona Mineral Museum
##DESCRIPTION=Fragments of a prismatic single crystal
##STATUS=The identification of this mineral has been confirmed by X-ray diffraction and chemical analysis
##URL=rruff.info/R040121
##MEASURED CHEMISTRY=Al_2.00_(Si_0.99_Al_0.02_)(F_0.82_(OH)_0.18_)_2_
127.4844, 60.21532
127.9666, 61.80919
128.4487, 66.14114
128.9308, 70.95158
129.4129, 74.23050
129.8950, 76.21542
130.3772, 77.92812
130.8593, 79.47089
131.3414, 81.00002
131.8235, 83.02564
132.3056, 85.51507
132.7877, 88.55539
133.2699, 92.96162
133.7520, 98.87010
134.2341, 103.3007
134.7162, 104.0691
135.1983, 101.1720
135.6804, 100.3509
136.1626, 101.4561
136.6447, 104.8428
137.1268, 112.5664
137.6089, 126.2646
138.0910, 138.3135
138.5731, 143.7885
139.0553, 141.1419
139.5374, 139.6590
140.0195, 140.2817
140.5016, 142.3834
140.9837, 143.2774
141.4658, 141.9544
141.9480, 141.0252
142.4301, 142.2626
142.9122, 146.1440
143.3943, 151.2257
143.8764, 157.9042
144.3585, 166.0712
144.8407, 173.1216
145.3228, 177.8619
145.8049, 182.3474
146.2870, 188.2419
146.7691, 193.4036
147.2512, 202.6475
147.7334, 217.1692
148.2155, 237.9230
148.6976, 260.3334
149.1797, 281.9792
149.6618, 306.0706
150.1439, 336.5679
150.6261, 364.9571
151.1082, 407.0475
151.5903, 464.6097
152.0724, 531.1180
152.5545, 627.6020
153.0366, 809.3179
153.5188, 1019.776
154.0009, 1147.416
154.4830, 1162.115
154.9651, 1102.678
155.4472, 979.0901
155.9293, 723.4490
156.4115, 507.3871
156.8936, 370.1221
157.3757, 299.7872
157.8578, 252.0700
158.3399, 224.2342
158.8221, 209.3428
159.3042, 202.5833
159.7863, 207.9626
160.2684, 216.3136
160.7505, 224.2095
161.2326, 232.1350
161.7148, 243.3273
162.1969, 256.8298
162.6790, 275.2421
163.1611, 300.8315
163.6432, 349.8354
164.1253, 394.1314
164.6075, 422.5060
165.0896, 434.6853
165.5717, 426.1586
166.0538, 377.6454
166.5359, 309.6397
167.0180, 251.4153
167.5002, 216.1933
167.9823, 194.0616
168.4644, 179.1262
168.9465, 171.4839
169.4286, 167.3764
169.9107, 165.1043
170.3929, 164.4083
170.8750, 164.6868
171.3571, 167.2849
171.8392, 169.9917
172.3213, 169.8811
172.8034, 165.8047
173.2856, 161.4996
173.7677, 161.2139
174.2498, 163.8654
174.7319, 165.7446
175.2140, 162.7759
175.6961, 158.0346
176.1783, 156.7675
176.6604, 161.3548
177.1425, 167.1304
177.6246, 167.8159
178.1067, 164.0691
178.5888, 160.1991
179.0710, 159.6283
179.5531, 161.2604
180.0352, 162.7270
180.5173, 163.3855
180.9994, 163.6828
181.4815, 164.2387
181.9637, 165.0581
182.4458, 166.1329
182.9279, 167.8267
183.4100, 169.8772
183.8921, 171.3236
184.3742, 171.8027
184.8564, 171.5439
185.3385, 170.6124
185.8206, 168.8914
186.3027, 167.8193
186.7848, 169.2223
187.2669, 172.8275
187.7491, 176.6565
188.2312, 181.1450
188.7133, 185.3645
189.1954, 184.9958
189.6775, 179.2826
190.1596, 172.3606
190.6418, 169.0482
191.1239, 169.3136
191.6060, 170.8454
192.0881, 173.7804
192.5702, 177.7244
193.0524, 178.6326
193.5345, 175.7472
194.0166, 171.7968
194.4987, 171.3393
194.9808, 174.6009
195.4629, 177.9512
195.9451, 179.9372
196.4272, 180.5925
196.9093, 179.8025
197.3914, 177.1241
197.8735, 173.6912
198.3556, 171.3595
198.8378, 170.0810
199.3199, 170.2047
199.8020, 172.3479
200.2841, 176.6390
200.7662, 181.0440
201.2483, 186.0978
201.7305, 190.6080
202.2126, 191.0558
202.6947, 186.5557
203.1768, 181.2979
203.6589, 177.1696
204.1410, 173.9698
204.6232, 173.8503
205.1053, 177.8918
205.5874, 184.7509
206.0695, 190.3204
206.5516, 194.8493
207.0337, 197.4337
207.5159, 196.6761
207.9980, 191.5729
208.4801, 187.9850
208.9622, 186.7784
209.4443, 187.6304
209.9264, 189.3316
210.4086, 192.5983
210.8907, 195.2793
211.3728, 195.0855
211.8549, 190.5912
212.3370, 188.0867
212.8191, 188.5402
213.3013, 191.7797
213.7834, 196.9821
214.2655, 205.6073
214.7476, 213.8697
215.2297, 217.9196
215.7118, 215.9013
216.1940, 214.9709
216.6761, 216.7226
217.1582, 221.0100
217.6403, 224.2459
218.1224, 225.4792
218.6045, 226.8787
219.0867, 230.2222
219.5688, 234.9122
220.0509, 243.0939
220.5330, 256.0111
221.0151, 273.9666
221.4972, 289.6474
221.9794, 301.2019
222.4615, 312.6953
222.9436, 328.4614
223.4257, 348.8252
223.9078, 373.3633
224.3899, 403.2152
224.8721, 439.5537
225.3542, 470.4429
225.8363, 492.9190
226.3184, 513.0083
226.8005, 537.4142
227.2827, 563.7351
227.7648, 598.9174
228.2469, 646.2014
228.7290, 706.8880
229.2111, 766.5170
229.6932, 816.5972
230.1754, 871.7584
230.6575, 952.2888
231.1396, 1062.468
231.6217, 1189.427
232.1038, 1325.890
232.5859, 1466.194
233.0681, 1647.202
233.5502, 1874.835
234.0323, 2137.745
234.5144, 2422.392
234.9965, 2719.254
235.4786, 3048.743
235.9608, 3390.633
236.4429, 3695.607
236.9250, 4217.970
237.4071, 4984.779
237.8892, 5950.027
238.3713, 7145.051
238.8535, 9076.535
239.3356, 10386.09
239.8177, 10566.91
240.2998, 9358.851
240.7819, 7968.458
241.2640, 6173.743
241.7462, 4303.387
242.2283, 2918.612
242.7104, 2168.555
243.1925, 1660.995
243.6746, 1292.112
244.1567, 1090.578
244.6389, 930.3935
245.1210, 821.4827
245.6031, 748.0470
246.0852, 684.2077
246.5673, 629.5426
247.0494, 585.2570
247.5316, 552.7963
248.0137, 534.7809
248.4958, 519.4303
248.9779, 505.0139
249.4600, 494.3478
249.9421, 493.3623
250.4243, 504.8592
250.9064, 520.9563
251.3885, 539.0394
251.8706, 559.1553
252.3527, 581.7151
252.8348, 607.9338
253.3170, 635.7757
253.7991, 660.4510
254.2812, 678.1935
254.7633, 699.4133
255.2454, 727.2650
255.7275, 760.5580
256.2097, 803.8549
256.6918, 856.5557
257.1739, 919.1449
257.6560, 991.8524
258.1381, 1070.792
258.6202, 1168.383
259.1024, 1290.029
259.5845, 1434.714
260.0666, 1602.849
260.5487, 1797.355
261.0308, 2012.858
261.5129, 2243.364
261.9951, 2474.099
262.4772, 2749.829
262.9593, 3065.073
263.4414, 3396.585
263.9235, 3876.077
264.4056, 4466.671
264.8878, 5247.634
265.3699, 6467.708
265.8520, 8347.834
266.3341, 10074.33
266.8162, 11547.55
267.2983, 12916.13
267.7805, 12851.63
268.2626, 10908.72
268.7447, 8022.292
269.2268, 5711.141
269.7089, 4013.026
270.1910, 2762.263
270.6732, 1955.474
271.1553, 1635.974
271.6374, 1396.328
272.1195, 1246.733
272.6016, 1161.768
273.0837, 1109.146
273.5659, 1089.936
274.0480, 1095.529
274.5301, 1126.897
275.0122, 1184.684
275.4943, 1247.310
275.9764, 1313.512
276.4586, 1386.932
276.9407, 1468.766
277.4228, 1555.746
277.9049, 1668.939
278.3870, 1818.319
278.8691, 2003.006
279.3513, 2198.771
279.8334, 2400.149
280.3155, 2626.683
280.7976, 2890.534
281.2798, 3187.244
281.7619, 3567.763
282.2440, 4017.619
282.7261, 4553.754
283.2082, 5330.051
283.6903, 6372.617
284.1725, 7559.371
284.6546, 9016.423
285.1367, 10696.58
285.6188, 11666.66
286.1009, 11451.44
286.5830, 10243.03
287.0652, 8708.711
287.5473, 6800.067
288.0294, 4937.927
288.5115, 3590.479
288.9936, 2721.902
289.4757, 2082.313
289.9579, 1627.326
290.4400, 1326.497
290.9221, 1099.648
291.4042, 949.3732
291.8863, 840.7567
292.3684, 745.9896
292.8506, 665.3751
293.3327, 598.7379
293.8148, 548.0656
294.2969, 509.6538
294.7790, 476.4730
295.2611, 448.4111
295.7433, 424.1165
296.2254, 402.6941
296.7075, 383.7309
297.1896, 366.7807
297.6717, 351.1055
298.1538, 337.4066
298.6360, 327.2509
299.1181, 320.4282
299.6002, 315.5450
300.0823, 312.5485
300.5644, 310.5574
301.0465, 307.8688
301.5287, 303.9068
302.0108, 299.2365
302.4929, 293.7509
302.9750, 287.7396
303.4571, 283.1729
303.9392, 282.8011
304.4214, 284.2065
304.9035, 283.8799
305.3856, 279.9126
305.8677, 275.7579
306.3498, 273.9359
306.8319, 274.3511
307.3141, 276.6769
307.7962, 282.3448
308.2783, 289.0531
308.7604, 294.3640
309.2425, 296.8140
309.7246, 299.7167
310.2068, 305.3326
310.6889, 313.0927
311.1710, 321.5578
311.6531, 329.1459
312.1352, 337.7257
312.6173, 348.0565
313.0995, 359.1816
313.5816, 374.8757
314.0637, 392.9164
314.5458, 417.0997
315.0279, 454.5739
315.5100, 524.6742
315.9922, 596.2849
316.4743, 659.7269
316.9564, 720.8978
317.4385, 744.5596
317.9206, 696.3563
318.4027, 608.8249
318.8849, 527.4382
319.3670, 452.9092
319.8491, 396.6778
320.3312, 366.1966
320.8133, 365.0770
321.2954, 370.3924
321.7776, 382.2446
322.2597, 396.5676
322.7418, 409.0279
323.2239, 408.4410
323.7060, 416.4771
324.1881, 440.3274
324.6703, 481.3462
325.1524, 523.4603
325.6345, 563.7027
326.1166, 605.1739
326.5987, 650.6218
327.0808, 692.9703
327.5630, 747.2975
328.0451, 807.5196
328.5272, 875.1254
329.0093, 983.3706
329.4914, 1129.522
329.9735, 1315.681
330.4557, 1554.334
330.9378, 1941.845
331.4199, 2217.065
331.9020, 2374.220
332.3841, 2407.340
332.8662, 2266.282
333.3484, 1857.367
333.8305, 1418.425
334.3126, 1069.715
334.7947, 825.7739
335.2768, 640.0940
335.7589, 520.6912
336.2411, 453.0943
336.7232, 401.3362
337.2053, 368.5339
337.6874, 343.6147
338.1695, 321.8040
338.6516, 303.2962
339.1338, 287.7801
339.6159, 275.3792
340.0980, 265.9948
340.5801, 260.6047
341.0622, 259.5759
341.5443, 258.5887
342.0265, 255.4111
342.5086, 250.4221
342.9907, 247.0806
343.4728, 245.6449
343.9549, 244.9566
344.4370, 243.8108
344.9192, 242.2283
345.4013, 240.3163
345.8834, 238.1417
346.3655, 235.6787
346.8476, 232.7650
347.3297, 229.3924
347.8119, 226.1326
348.2940, 222.9976
348.7761, 220.3571
349.2582, 219.3790
349.7403, 220.5833
350.2225, 223.3660
350.7046, 227.3013
351.1867, 232.2970
351.6688, 237.3687
352.1509, 241.0087
352.6331, 244.4860
353.1152, 249.7388
353.5973, 257.4069
354.0794, 266.5561
354.5615, 275.4236
355.0436, 284.8864
355.5258, 297.6134
356.0079, 314.5280
356.4900, 335.6501
356.9721, 364.8602
357.4542, 408.7071
357.9363, 440.4434
358.4185, 442.7793
358.9006, 423.0949
359.3827, 394.1605
359.8648, 348.3520
360.3469, 304.5612
360.8290, 272.6736
361.3112, 254.2435
361.7933, 242.0614
362.2754, 237.0464
362.7575, 235.7161
363.2396, 234.2804
363.7217, 229.8308
364.2039, 227.2737
364.6860, 228.2374
365.1681, 232.7883
365.6502, 238.2060
366.1323, 247.2056
366.6144, 255.1908
367.0966, 258.9265
367.5787, 248.9664
368.0608, 246.3039
368.5429, 256.5237
369.0250, 276.4784
369.5071, 289.9242
369.9893, 295.5298
370.4714, 296.1984
370.9535, 292.4257
371.4356, 280.5055
371.9177, 272.7552
372.3998, 270.2468
372.8820, 271.5226
373.3641, 274.0682
373.8462, 279.1805
374.3283, 282.2032
374.8104, 281.1994
375.2925, 275.9771
375.7747, 268.1614
376.2568, 256.5839
376.7389, 244.5967
377.2210, 236.7533
377.7031, 233.1974
378.1852, 231.7710
378.6674, 232.0661
379.1495, 233.9340
379.6316, 237.5305
380.1137, 243.1081
380.5958, 247.8529
381.0779, 248.8736
381.5601, 246.6467
382.0422, 243.4529
382.5243, 239.5849
383.0064, 235.2102
383.4885, 229.5255
383.9706, 222.9029
384.4528, 218.4718
384.9349, 219.4917
385.4170, 223.7744
385.8991, 227.4551
386.3812, 229.5412
386.8633, 232.4736
387.3455, 239.4399
387.8276, 249.0191
388.3097, 258.0907
388.7918, 263.4157
389.2739, 268.5765
389.7560, 276.4467
390.2382, 287.3449
390.7203, 299.7695
391.2024, 312.3870
391.6845, 326.1986
392.1666, 342.5479
392.6487, 361.6205
393.1309, 383.5008
393.6130, 407.4358
394.0951, 433.6894
394.5772, 464.3188
395.0593, 500.2676
395.5414, 540.5310
396.0236, 584.1613
396.5057, 629.3782
396.9878, 680.1570
397.4699, 730.4208
397.9520, 785.5565
398.4341, 861.0395
398.9163, 950.4797
399.3984, 1066.775
399.8805, 1213.029
400.3626, 1385.789
400.8447, 1604.777
401.3268, 1910.599
401.8090, 2232.365
402.2911, 2495.308
402.7732, 2737.190
403.2553, 2810.400
403.7374, 2637.546
404.2195, 2233.189
404.7017, 1849.777
405.1838, 1475.958
405.6659, 1150.743
406.1480, 916.9807
406.6301, 774.2960
407.1122, 664.6772
407.5944, 582.2186
408.0765, 522.0038
408.5586, 476.8249
409.0407, 446.2962
409.5228, 422.4886
410.0049, 402.2776
410.4871, 385.0343
410.9692, 368.4168
411.4513, 351.8321
411.9334, 337.1848
412.4155, 327.1786
412.8976, 320.7444
413.3798, 315.1281
413.8619, 308.6452
414.3440, 302.4418
414.8261, 297.2619
415.3082, 293.1292
415.7903, 290.9326
416.2725, 293.3362
416.7546, 297.1819
417.2367, 298.9384
417.7188, 296.6818
418.2009, 292.9617
418.6830, 287.8560
419.1652, 281.9306
419.6473, 277.4632
420.1294, 275.3562
420.6115, 274.7534
421.0937, 275.1666
421.5758, 276.4278
422.0579, 278.9447
422.5400, 285.7671
423.0221, 293.2701
423.5042, 295.5817
423.9864, 288.6868
424.4685, 280.8852
424.9506, 273.5417
425.4327, 266.7220
425.9148, 260.7464
426.3969, 255.5235
426.8791, 251.2480
427.3612, 248.3853
427.8433, 247.5519
428.3254, 246.2235
428.8075, 244.0462
429.2896, 241.1410
429.7718, 237.6658
430.2539, 233.3721
430.7360, 229.7629
431.2181, 227.6797
431.7002, 227.0997
432.1823, 228.0220
432.6645, 230.7890
433.1466, 233.9258
433.6287, 235.8694
434.1108, 236.5629
434.5929, 235.5323
435.0750, 229.8242
435.5572, 223.4678
436.0393, 225.1827
436.5214, 234.5902
437.0035, 243.6784
437.4856, 244.2383
437.9677, 241.0883
438.4499, 241.2514
438.9320, 248.4680
439.4141, 256.0684
439.8962, 257.9556
440.3783, 256.3805
440.8604, 257.2028
441.3426, 264.6331
441.8247, 273.9469
442.3068, 282.6023
442.7889, 290.1876
443.2710, 297.7451
443.7531, 304.0544
444.2353, 311.0432
444.7174, 320.9562
445.1995, 335.1630
445.6816, 351.0198
446.1637, 366.6775
446.6458, 382.5418
447.1280, 405.5189
447.6101, 440.2766
448.0922, 477.1404
448.5743, 509.7993
449.0564, 534.7366
449.5385, 565.5171
450.0207, 602.1000
450.5028, 644.8470
450.9849, 692.7913
451.4670, 743.9073
451.9491, 807.4633
452.4312, 880.0446
452.9134, 965.6285
453.3955, 1101.119
453.8776, 1288.876
454.3597, 1504.968
454.8418, 1770.386
455.3239, 2056.101
455.8061, 2232.409
456.2882, 2271.714
456.7703, 2189.413
457.2524, 1954.276
457.7345, 1600.147
458.2166, 1258.849
458.6988, 1000.559
459.1809, 803.2566
459.6630, 653.2723
460.1451, 550.2296
460.6272, 474.4406
461.1093, 424.5958
461.5915, 391.4866
462.0736, 364.8132
462.5557, 344.3310
463.0378, 326.4944
463.5199, 310.2198
464.0020, 295.6444
464.4842, 283.4092
464.9663, 274.2611
465.4484, 267.1946
465.9305, 261.6827
466.4126, 257.9214
466.8947, 255.2496
467.3769, 254.5076
467.8590, 254.4947
468.3411, 252.9769
468.8232, 248.4810
469.3053, 245.4727
469.7874, 245.4144
470.2696, 248.1433
470.7517, 250.9040
471.2338, 253.9371
471.7159, 256.2503
472.1980, 256.9441
472.6801, 256.0285
473.1623, 253.7263
473.6444, 249.2912
474.1265, 244.9827
474.6086, 245.1777
475.0907, 249.3503
475.5728, 254.0969
476.0550, 257.5459
476.5371, 260.4639
477.0192, 264.6375
477.5013, 270.1818
477.9834, 274.3795
478.4655, 272.4631
478.9477, 268.7747
479.4298, 269.1274
479.9119, 277.5931
480.3940, 287.5286
480.8761, 295.7682
481.3582, 302.7583
481.8404, 309.6726
482.3225, 321.2227
482.8046, 329.2008
483.2867, 327.8410
483.7688, 311.8055
484.2509, 303.3371
484.7331, 308.9671
485.2152, 320.6383
485.6973, 331.1106
486.1794, 338.9847
486.6615, 347.8571
487.1436, 356.9130
487.6258, 367.3155
488.1079, 385.6910
488.5900, 414.3448
489.0721, 444.3513
489.5542, 470.9354
490.0363, 494.1954
490.5185, 519.6738
491.0006, 550.3750
491.4827, 572.9954
491.9648, 567.4385
492.4470, 536.9839
492.9291, 497.9475
493.4112, 450.0889
493.8933, 402.4656
494.3754, 371.4571
494.8575, 355.2121
495.3397, 343.9254
495.8218, 332.6924
496.3039, 322.0320
496.7860, 313.0841
497.2681, 306.5395
497.7502, 299.0490
498.2324, 286.1715
498.7145, 271.9711
499.1966, 261.7273
499.6787, 259.4877
500.1608, 259.0641
500.6429, 259.8328
501.1251, 261.5178
501.6072, 260.7245
502.0893, 253.4133
502.5714, 246.9353
503.0535, 244.9527
503.5356, 249.7402
504.0178, 253.5668
504.4999, 256.0281
504.9820, 257.8618
505.4641, 259.8959
505.9462, 261.8474
506.4283, 265.6100
506.9105, 272.7630
507.3926, 281.8853
507.8747, 286.3383
508.3568, 285.8546
508.8389, 285.9268
509.3210, 291.5623
509.8032, 300.9353
510.2853, 309.7038
510.7674, 317.8196
511.2495, 323.1938
511.7316, 322.1947
512.2137, 316.9322
512.6959, 311.7403
513.1780, 307.9970
513.6601, 305.2474
514.1422, 303.1652
514.6243, 301.7882
515.1064, 301.3950
515.5886, 301.4535
516.0707, 302.9882
516.5528, 306.6154
517.0349, 312.6075
517.5170, 320.3332
517.9991, 331.5027
518.4813, 343.6417
518.9634, 353.7781
519.4455, 362.6689
519.9276, 368.3837
520.4097, 371.3346
520.8918, 370.9550
521.3740, 362.4281
521.8561, 343.7482
522.3382, 323.5629
522.8203, 306.3327
523.3024, 292.2353
523.7845, 282.5468
524.2667, 277.9398
524.7488, 275.3187
525.2309, 270.0762
525.7130, 263.3199
526.1951, 259.2347
526.6772, 261.9806
527.1594, 265.4480
527.6415, 260.5760
528.1236, 249.4003
528.6057, 240.7553
529.0878, 241.5084
529.5699, 245.6082
530.0521, 248.8063
530.5342, 250.5181
531.0163, 251.5891
531.4984, 252.7320
531.9805, 253.1966
532.4626, 252.1979
532.9448, 245.3332
533.4269, 242.2731
533.9090, 246.1850
534.3911, 254.9124
534.8732, 259.6056
535.3553, 258.0467
535.8375, 256.7038
536.3196, 258.7206
536.8017, 264.3411
537.2838, 268.6948
537.7659, 271.7682
538.2480, 273.7460
538.7302, 273.5071
539.2123, 271.7274
539.6944, 273.4742
540.1765, 280.9066
540.6586, 290.3826
541.1407, 296.8295
541.6229, 301.0237
542.1050, 305.8575
542.5871, 312.3373
543.0692, 320.5150
543.5513, 330.4107
544.0334, 341.9468
544.5156, 355.1591
544.9977, 369.5155
545.4798, 385.8751
545.9619, 405.3516
546.4440, 437.0687
546.9261, 458.6406
547.4083, 462.3667
547.8904, 454.8524
548.3725, 447.4678
548.8546, 437.2150
549.3367, 432.0222
549.8188, 434.8319
550.3010, 444.9845
550.7831, 453.5949
551.2652, 458.7013
551.7473, 468.8876
552.2294, 492.4030
552.7115, 527.9362
553.1937, 561.1487
553.6758, 590.2939
554.1579, 619.6578
554.6400, 652.5745
555.1221, 689.9790
555.6042, 733.9484
556.0864, 788.2136
556.5685, 847.0251
557.0506, 901.8659
557.5327, 955.4605
558.0148, 1017.231
558.4969, 1097.179
558.9791, 1182.968
559.4612, 1273.041
559.9433, 1373.213
560.4254, 1444.417
560.9075, 1476.147
561.3896, 1476.749
561.8718, 1455.401
562.3539, 1410.733
562.8360, 1345.165
563.3181, 1253.683
563.8002, 1144.618
564.2823, 1032.323
564.7645, 914.3670
565.2466, 808.2208
565.7287, 722.1616
566.2108, 654.2420
566.6929, 598.7957
567.1750, 556.5281
567.6572, 520.8672
568.1393, 487.9399
568.6214, 458.0616
569.1035, 433.5846
569.5856, 415.3913
570.0677, 399.4640
570.5499, 381.6432
571.0320, 363.8391
571.5141, 348.9427
571.9962, 339.9984
572.4783, 332.1792
572.9604, 323.9844
573.4426, 315.4764
573.9247, 306.9043
574.4068, 296.2136
574.8889, 287.5290
575.3710, 282.8949
575.8531, 283.2584
576.3353, 283.1423
576.8174, 283.0497
577.2995, 281.7320
577.7816, 276.5404
578.2637, 266.7068
578.7458, 262.6586
579.2280, 268.0620
579.7101, 275.9297
580.1922, 272.0055
580.6743, 258.3438
581.1564, 246.5474
581.6385, 242.5875
582.1207, 243.1904
582.6028, 245.6618
583.0849, 249.5971
583.5670, 252.0213
584.0491, 249.9199
584.5313, 246.4025
585.0134, 243.6201
585.4955, 241.6544
585.9776, 241.2529
586.4597, 244.6901
586.9418, 248.9283
587.4240, 250.3597
587.9061, 245.7616
588.3882, 243.4034
588.8703, 245.4751
589.3524, 249.9962
589.8345, 250.6821
590.3167, 246.4627
590.7988, 242.5152
591.2809, 241.3932
591.7630, 242.4679
592.2451, 242.2020
592.7272, 240.5088
593.2094, 239.5953
593.6915, 243.1381
594.1736, 248.3943
594.6557, 249.3180
595.1378, 243.8349
595.6199, 238.6604
596.1021, 239.5405
596.5842, 243.7217
597.0663, 247.2908
597.5485, 247.6385
598.0306, 248.4959
598.5127, 251.6685
598.9948, 256.4985
599.4769, 260.1192
599.9590, 261.8361
600.4412, 263.0479
600.9233, 264.4100
601.4054, 266.0529
601.8875, 265.5365
602.3696, 261.9909
602.8517, 258.4298
603.3339, 257.7892
603.8160, 259.8188
604.2981, 261.2696
604.7802, 261.5750
605.2623, 261.9278
605.7444, 265.3783
606.2266, 270.2216
606.7087, 271.6050
607.1908, 264.2629
607.6729, 256.4631
608.1550, 254.9721
608.6371, 258.4849
609.1193, 262.7062
609.6014, 266.6918
610.0835, 270.3147
610.5656, 273.3254
611.0477, 275.6193
611.5298, 278.1125
612.0120, 281.5401
612.4941, 284.4578
612.9762, 285.8781
613.4583, 285.6093
613.9404, 284.7242
614.4225, 283.6687
614.9047, 281.2676
615.3868, 274.4787
615.8689, 263.7227
616.3510, 255.3063
616.8331, 251.1928
617.3152, 250.1859
617.7974, 252.5033
618.2795, 256.8798
618.7616, 258.5534
619.2437, 250.8798
619.7258, 242.5021
620.2079, 240.4996
620.6901, 245.2158
621.1722, 249.9215
621.6543, 251.8914
622.1364, 253.3782
622.6185, 256.0879
623.1006, 262.1333
623.5828, 264.7202
624.0649, 261.6175
624.5470, 257.1027
625.0291, 256.9942
625.5112, 262.5754
625.9933, 265.3279
626.4755, 262.7196
626.9576, 257.7921
627.4397, 257.0147
627.9218, 259.9525
628.4039, 263.2845
628.8860, 265.2213
629.3682, 266.7017
629.8503, 268.5123
630.3324, 270.7893
630.8145, 274.4821
631.2966, 282.1299
631.7787, 289.9625
632.2609, 294.9431
632.7430, 295.7919
633.2251, 297.3446
633.7072, 299.1186
634.1893, 302.8549
634.6714, 310.5312
635.1536, 325.7422
635.6357, 336.4566
636.1178, 339.5298
636.5999, 339.9912
637.0820, 348.0354
637.5641, 363.9902
638.0463, 378.5239
638.5284, 387.5445
639.0105, 394.3402
639.4926, 405.4749
639.9747, 420.6377
640.4568, 437.5771
640.9390, 456.9374
641.4211, 476.3636
641.9032, 493.3846
642.3853, 507.7654
642.8674, 522.2883
643.3495, 546.3335
643.8317, 565.3048
644.3138, 568.6628
644.7959, 546.3817
645.2780, 524.7548
645.7601, 504.0569
646.2422, 483.8563
646.7244, 463.6067
647.2065, 443.6986
647.6886, 422.1011
648.1707, 397.4004
648.6528, 372.6833
649.1349, 354.0476
649.6171, 341.0858
650.0992, 330.2591
650.5813, 320.0984
651.0634, 311.0602
651.5455, 303.7805
652.0276, 298.1231
652.5098, 293.7164
652.9919, 291.9055
653.4740, 290.0698
653.9561, 286.1681
654.4382, 279.4576
654.9203, 274.0583
655.4025, 270.5529
655.8846, 268.4309
656.3667, 267.5878
656.8488, 268.5494
657.3309, 269.3722
657.8130, 270.3137
658.2952, 270.5259
658.7773, 267.9243
659.2594, 262.8447
659.7415, 259.7697
660.2236, 260.5544
660.7057, 262.7258
661.1879, 262.8357
661.6700, 261.4334
662.1521, 260.0422
662.6342, 260.1795
663.1163, 259.8904
663.5984, 256.6712
664.0806, 251.1771
664.5627, 248.7663
665.0448, 253.6083
665.5269, 259.2864
666.0090, 263.4259
666.4911, 266.0496
666.9733, 266.5241
667.4554, 264.2080
667.9375, 261.0141
668.4196, 257.8845
668.9017, 254.8806
669.3839, 254.5174
669.8660, 257.4236
670.3481, 261.0363
670.8302, 261.8707
671.3123, 261.1998
671.7944, 262.0433
672.2766, 267.0319
672.7587, 270.9865
673.2408, 269.1275
673.7229, 263.9825
674.2050, 260.4703
674.6871, 261.0795
675.1693, 262.2745
675.6514, 263.3661
676.1335, 264.3149
676.6156, 264.8467
677.0977, 264.6500
677.5798, 264.7096
678.0620, 265.1017
678.5441, 265.9878
679.0262, 270.2383
679.5083, 278.2342
679.9904, 283.8901
680.4725, 280.0533
680.9547, 271.2690
681.4368, 265.4235
681.9189, 263.6239
682.4010, 263.2865
682.8831, 263.0494
683.3652, 263.2454
683.8474, 264.2349
684.3295, 266.4395
684.8116, 268.9132
685.2937, 273.1211
685.7758, 276.8084
686.2579, 276.4396
686.7401, 269.8913
687.2222, 265.1279
687.7043, 263.7152
688.1864, 264.7961
688.6685, 267.1615
689.1506, 270.6593
689.6328, 272.8000
690.1149, 271.4467
690.5970, 268.7708
691.0791, 267.9602
691.5612, 268.7755
692.0433, 269.9940
692.5255, 272.0939
693.0076, 273.4937
693.4897, 272.4926
693.9718, 268.6425
694.4539, 266.7528
694.9360, 269.9696
695.4182, 272.9779
695.9003, 272.3802
696.3824, 266.4971
696.8645, 264.3343
697.3466, 266.4138
697.8287, 270.8457
698.3109, 277.7560
698.7930, 285.9252
699.2751, 287.6580
699.7572, 279.9923
700.2393, 271.6266
700.7214, 272.7259
701.2036, 279.1331
701.6857, 283.8810
702.1678, 281.7804
702.6499, 280.7646
703.1320, 286.2183
703.6141, 294.8777
704.0963, 298.3018
704.5784, 291.6648
705.0605, 286.7206
705.5426, 286.6030
706.0247, 290.0423
706.5068, 290.9780
706.9890, 289.0184
707.4711, 287.8808
707.9532, 290.0797
708.4353, 294.3838
708.9174, 298.2755
709.3995, 301.6348
709.8817, 303.0342
710.3638, 299.1425
710.8459, 294.3642
711.3280, 293.4306
711.8101, 297.4725
712.2922, 299.2980
712.7744, 294.6151
713.2565, 288.6962
713.7386, 285.2481
714.2207, 285.9475
714.7028, 284.6635
715.1849, 280.8394
715.6671, 275.9726
716.1492, 271.1315
716.6313, 266.4541
717.1134, 262.9799
717.5955, 260.7568
718.0776, 260.3171
718.5598, 264.5885
719.0419, 270.8472
719.5240, 273.7346
720.0061, 268.8645
720.4882, 263.2640
720.9703, 259.9199
721.4525, 258.1871
721.9346, 256.5633
722.4167, 253.8814
722.8988, 252.6550
723.3809, 254.3630
723.8630, 257.7766
724.3452, 257.5400
724.8273, 253.1857
725.3094, 248.5258
725.7915, 244.6541
726.2736, 242.0310
726.7557, 242.3217
727.2379, 245.2749
727.7200, 248.9112
728.2021, 253.1061
728.6842, 256.6087
729.1663, 258.2978
729.6484, 258.0355
730.1306, 257.0678
730.6127, 252.9358
731.0948, 250.6244
731.5769, 253.4795
732.0590, 263.6909
732.5411, 269.8102
733.0233, 270.9837
733.5054, 269.9801
733.9875, 269.6516
734.4696, 269.6223
734.9517, 266.3130
735.4338, 258.6826
735.9160, 251.5871
736.3981, 251.0381
736.8802, 253.8705
737.3623, 255.3915
737.8444, 253.7943
738.3266, 251.8107
738.8087, 249.3521
739.2908, 247.4992
739.7729, 247.9935
740.2551, 252.6558
740.7372, 256.3740
741.2193, 258.5164
741.7014, 259.4531
742.1835, 259.6166
742.6656, 258.9937
743.1478, 259.0134
743.6299, 260.6815
744.1120, 262.5540
744.5941, 261.9564
745.0762, 259.5773
745.5583, 257.5346
746.0405, 257.6058
746.5226, 257.6378
747.0047, 255.7280
747.4868, 252.4318
747.9689, 251.2209
748.4510, 255.5850
748.9332, 258.0743
749.4153, 255.7419
749.8974, 249.0900
750.3795, 243.4476
750.8616, 238.6303
751.3438, 236.3027
751.8259, 239.1585
752.3080, 244.9581
752.7901, 248.5723
753.2722, 249.9141
753.7543, 250.2160
754.2365, 248.5376
754.7186, 247.3761
755.2007, 249.7173
755.6828, 257.0317
756.1649, 260.9143
756.6470, 257.6439
757.1292, 252.6310
757.6113, 248.5874
758.0934, 245.1243
758.5755, 244.9869
759.0576, 249.0307
759.5397, 253.5394
760.0219, 254.3707
760.5040, 252.4812
760.9861, 250.5656
761.4682, 248.8715
761.9503, 248.2236
762.4324, 250.9562
762.9146, 254.3852
763.3967, 255.0720
763.8788, 247.9597
764.3609, 245.0092
764.8430, 252.4636
765.3251, 262.6206
765.8073, 266.4721
766.2894, 262.1498
766.7715, 258.9849
767.2536, 258.6479
767.7357, 259.2646
768.2178, 256.9627
768.7000, 252.6630
769.1821, 250.2927
769.6642, 251.5525
770.1463, 254.4450
770.6284, 259.0401
771.1105, 263.7930
771.5927, 265.7173
772.0748, 259.7107
772.5569, 255.6545
773.0390, 256.9493
773.5211, 261.5608
774.0032, 264.6336
774.4854, 266.1269
774.9675, 266.1143
775.4496, 264.1437
775.9317, 261.0950
776.4138, 259.1858
776.8959, 258.2542
777.3781, 257.3284
777.8602, 254.5805
778.3423, 252.6946
778.8244, 255.3305
779.3065, 261.1754
779.7886, 264.6397
780.2708, 260.7665
780.7529, 257.7119
781.2350, 258.9286
781.7171, 263.7277
782.1992, 265.2214
782.6813, 262.5316
783.1635, 260.0080
783.6456, 260.8150
784.1277, 263.3534
784.6098, 260.7558
785.0919, 253.7675
785.5740, 249.6012
786.0562, 256.1720
786.5383, 265.1534
787.0204, 269.0599
787.5025, 267.4924
787.9846, 267.0356
788.4667, 271.7726
788.9489, 275.4695
789.4310, 274.9644
789.9131, 269.9231
790.3952, 266.9023
790.8773, 265.9230
791.3594, 266.9803
791.8416, 272.7714
792.3237, 280.2613
792.8058, 278.9984
793.2879, 268.6740
793.7700, 261.4774
794.2521, 270.8522
794.7343, 283.5695
795.2164, 287.8975
795.6985, 280.0985
796.1806, 274.8972
796.6627, 275.5191
797.1448, 277.2720
797.6270, 277.1509
798.1091, 274.8542
798.5912, 273.1309
799.0733, 272.0409
799.5554, 271.2209
800.0375, 269.3651
800.5197, 267.7703
801.0018, 269.5801
801.4839, 275.6253
801.9660, 281.5234
802.4481, 286.4545
802.9302, 288.9397
803.4124, 287.0714
803.8945, 276.1897
804.3766, 271.2177
804.8587, 274.8158
805.3408, 280.8201
805.8229, 284.1914
806.3051, 284.9319
806.7872, 282.2579
807.2693, 275.2906
807.7514, 269.8689
808.2335, 274.3086
808.7156, 283.3742
809.1978, 289.1223
809.6799, 289.3730
810.1620, 288.0413
810.6441, 283.9482
811.1262, 280.6478
811.6083, 282.0212
812.0905, 291.8398
812.5726, 297.3867
813.0547, 297.1486
813.5368, 294.9754
814.0189, 295.5051
814.5010, 298.2095
814.9832, 299.8931
815.4653, 299.8915
815.9474, 299.5308
816.4295, 299.4718
816.9116, 300.0158
817.3937, 301.4240
817.8759, 303.0190
818.3580, 306.9778
818.8401, 318.3681
819.3222, 329.2064
819.8043, 330.7423
820.2864, 319.9675
820.7686, 313.8352
821.2507, 314.2595
821.7328, 318.4444
822.2149, 325.2746
822.6970, 332.8410
823.1791, 335.0662
823.6613, 328.0366
824.1434, 324.0111
824.6255, 336.2401
825.1076, 353.6168
825.5897, 363.6007
826.0718, 356.8617
826.5540, 352.7358
827.0361, 351.5565
827.5182, 352.6498
828.0003, 356.2602
828.4824, 362.3032
828.9645, 364.8975
829.4467, 362.0926
829.9288, 360.1884
830.4109, 368.7822
830.8930, 382.2267
831.3751, 391.8444
831.8572, 394.2791
832.3394, 395.0755
832.8215, 394.0591
833.3036, 393.5407
833.7857, 396.0936
834.2678, 402.7435
834.7499, 409.4388
835.2321, 416.0047
835.7142, 422.3370
836.1963, 428.9626
836.6784, 435.3558
837.1605, 438.9568
837.6426, 438.7291
838.1248, 438.0640
838.6069, 436.8966
839.0890, 438.0159
839.5711, 444.7939
840.0532, 461.4253
840.5353, 477.4508
841.0175, 491.8973
841.4996, 505.8256
841.9817, 520.0333
842.4638, 534.5743
842.9459, 548.7370
843.4280, 561.8531
843.9102, 577.7335
844.3923, 601.8796
844.8744, 631.2737
845.3565, 661.1033
845.8386, 690.9819
846.3207, 719.7723
846.8029, 742.6708
847.2850, 767.1536
847.7671, 800.2797
848.2492, 846.7460
848.7313, 888.6308
849.2134, 923.9996
849.6956, 958.9662
850.1777, 999.7650
850.6598, 1045.520
851.1419, 1094.357
851.6240, 1146.719
852.1061, 1197.003
852.5883, 1245.137
853.0704, 1287.223
853.5525, 1319.786
854.0346, 1339.698
854.5167, 1357.197
854.9988, 1379.372
855.4810, 1391.362
855.9631, 1381.066
856.4452, 1348.102
856.9273, 1309.205
857.4094, 1264.669
857.8915, 1217.796
858.3737, 1173.083
858.8558, 1127.631
859.3379, 1076.706
859.8200, 1019.771
860.3021, 963.7040
860.7842, 909.6057
861.2664, 859.8298
861.7485, 815.4877
862.2306, 775.9100
862.7127, 746.7763
863.1948, 729.8414
863.6769, 714.6035
864.1591, 693.2457
864.6412, 667.9416
865.1233, 641.3948
865.6054, 613.9782
866.0875, 591.5433
866.5696, 582.5176
867.0518, 575.1007
867.5339, 559.0939
868.0160, 533.1989
868.4981, 520.8336
868.9802, 529.2021
869.4623, 535.7310
869.9445, 527.3469
870.4266, 508.5977
870.9087, 501.9667
871.3908, 506.3181
871.8729, 510.4112
872.3550, 506.9745
872.8372, 500.7102
873.3193, 493.8816
873.8014, 487.1823
874.2835, 483.9560
874.7656, 488.4627
875.2477, 492.4344
875.7299, 493.9217
876.2120, 493.2994
876.6941, 492.1118
877.1762, 490.3683
877.6583, 487.1986
878.1404, 480.2180
878.6226, 473.7478
879.1047, 475.6022
879.5869, 482.6188
880.0690, 486.7003
880.5511, 481.0310
881.0332, 476.3194
881.5153, 475.7720
881.9974, 478.1599
882.4796, 481.6943
882.9617, 486.8849
883.4438, 490.0540
883.9259, 489.6161
884.4080, 488.1805
884.8901, 488.4739
885.3723, 491.1050
885.8544, 498.1502
886.3365, 515.7640
886.8186, 528.8839
887.3007, 526.5361
887.7828, 517.3964
888.2650, 513.5599
888.7471, 516.5294
889.2292, 521.9899
889.7113, 530.9471
890.1934, 539.2715
890.6755, 539.3399
891.1577, 534.3569
891.6398, 534.8348
892.1219, 543.4108
892.6040, 553.9870
893.0861, 564.6350
893.5682, 573.8254
894.0504, 579.3571
894.5325, 577.0895
895.0146, 581.5352
895.4967, 595.0281
895.9788, 610.8812
896.4609, 623.9586
896.9431, 634.4789
897.4252, 642.0012
897.9073, 646.4396
898.3894, 653.6587
898.8715, 671.6263
899.3536, 691.9425
899.8358, 707.1885
900.3179, 716.0294
900.8000, 726.4310
901.2821, 739.4244
901.7642, 753.6035
902.2463, 768.7809
902.7285, 784.6094
903.2106, 799.9165
903.6927, 814.7373
904.1748, 831.3348
904.6569, 852.6937
905.1390, 875.5341
905.6212, 897.6105
906.1033, 918.3525
906.5854, 937.0194
907.0675, 945.4148
907.5496, 961.6119
908.0317, 992.8687
908.5139, 1033.438
908.9960, 1064.900
909.4781, 1087.074
909.9602, 1114.365
910.4423, 1154.203
910.9244, 1197.077
911.4066, 1228.527
911.8887, 1254.926
912.3708, 1288.532
912.8529, 1337.706
913.3350, 1388.934
913.8171, 1438.436
914.2993, 1489.174
914.7814, 1544.319
915.2635, 1603.732
915.7456, 1670.282
916.2277, 1745.315
916.7098, 1823.744
917.1920, 1897.003
917.6741, 1969.974
918.1562, 2049.087
918.6383, 2134.193
919.1204, 2228.062
919.6025, 2345.102
920.0847, 2459.978
920.5668, 2553.145
921.0489, 2620.256
921.5310, 2700.043
922.0131, 2793.211
922.4952, 2890.248
922.9774, 2986.803
923.4595, 3080.399
923.9416, 3168.324
924.4237, 3249.903
924.9058, 3323.959
925.3879, 3391.148
925.8701, 3449.752
926.3522, 3498.368
926.8343, 3538.410
927.3164, 3582.382
927.7985, 3632.313
928.2806, 3669.122
928.7628, 3677.189
929.2449, 3673.134
929.7270, 3677.166
930.2091, 3690.510
930.6912, 3716.639
931.1733, 3766.428
931.6555, 3817.826
932.1376, 3849.890
932.6197, 3885.469
933.1018, 3966.436
933.5839, 4098.323
934.0660, 4241.753
934.5482, 4394.405
935.0303, 4545.440
935.5124, 4704.528
935.9945, 4848.226
936.4766, 4937.698
936.9587, 4970.674
937.4409, 4935.579
937.9230, 4817.027
938.4051, 4634.057
938.8872, 4394.088
939.3693, 4083.913
939.8514, 3776.316
940.3336, 3472.500
940.8157, 3184.340
941.2978, 2913.835
941.7799, 2667.128
942.2620, 2456.678
942.7441, 2282.342
943.2263, 2116.814
943.7084, 1942.400
944.1905, 1788.339
944.6726, 1668.098
945.1547, 1577.878
945.6368, 1495.938
946.1190, 1421.811
946.6011, 1352.759
947.0832, 1287.267
947.5653, 1226.271
948.0474, 1170.303
948.5295, 1118.998
949.0117, 1071.507
949.4938, 1027.877
949.9759, 987.9020
950.4580, 952.3779
950.9401, 919.3545
951.4222, 885.6619
951.9044, 851.0661
952.3865, 821.0714
952.8686, 796.6531
953.3507, 776.5157
953.8328, 762.8168
954.3149, 750.8962
954.7971, 733.7076
955.2792, 707.6420
955.7613, 686.5085
956.2434, 673.8374
956.7255, 664.7715
957.2076, 657.3614
957.6898, 651.4825
958.1719, 643.7369
958.6540, 634.0779
959.1361, 623.6003
959.6182, 611.3772
960.1003, 599.8722
960.5825, 592.1410
961.0646, 587.4635
961.5467, 581.0856
962.0288, 569.4053
962.5109, 560.3926
962.9930, 557.0681
963.4752, 556.7619
963.9573, 553.2957
964.4394, 546.9360
964.9215, 538.5313
965.4036, 525.9562
965.8857, 516.3085
966.3679, 516.8680
966.8500, 523.0842
967.3321, 529.2990
967.8142, 538.6684
968.2963, 539.5456
968.7784, 528.4167
969.2606, 515.7691
969.7427, 513.4088
970.2248, 518.5177
970.7069, 520.4728
971.1890, 518.5062
971.6711, 517.5834
972.1533, 524.9800
972.6354, 531.1647
973.1175, 526.2460
973.5996, 510.6288
974.0817, 508.0254
974.5638, 521.9136
975.0460, 536.5262
975.5281, 545.3759
976.0102, 550.9044
976.4923, 557.2734
976.9744, 564.7354
977.4565, 574.0309
977.9387, 587.7482
978.4208, 600.7025
978.9029, 611.0735
979.3850, 619.5762
979.8671, 626.7397
980.3492, 631.9669
980.8314, 638.3604
981.3135, 645.5137
981.7956, 657.4232
982.2777, 685.9510
982.7598, 718.8062
983.2419, 737.3369
983.7241, 737.4393
984.2062, 734.9111
984.6883, 733.6699
985.1704, 731.5392
985.6525, 728.4777
986.1346, 724.0163
986.6168, 712.4637
987.0989, 693.9520
987.5810, 672.6306
988.0631, 650.9119
988.5452, 627.3509
989.0273, 595.5442
989.5095, 561.1229
989.9916, 539.2078
990.4737, 542.7878
990.9558, 543.3224
991.4379, 537.2432
991.9200, 527.2283
992.4022, 516.0886
992.8843, 504.4835
993.3664, 494.2780
993.8485, 485.5170
994.3306, 480.7433
994.8127, 487.1019
995.2949, 494.5854
995.7770, 492.6565
996.2591, 478.6497
996.7412, 472.8386
997.2233, 476.8553
997.7054, 483.2834
998.1876, 488.1339
998.6697, 492.0381
999.1518, 495.7587
999.6339, 499.7195
1000.116, 505.6157
1000.598, 517.1873
1001.080, 527.3853
1001.562, 531.4104
1002.044, 533.6885
1002.527, 543.5292
1003.009, 561.5917
1003.491, 574.9961
1003.973, 579.2003
1004.455, 586.6124
1004.937, 617.3513
1005.419, 656.1898
1005.901, 682.9061
1006.384, 690.9739
1006.866, 699.2936
1007.348, 710.3896
1007.830, 721.9788
1008.312, 734.8824
1008.794, 747.4365
1009.276, 748.3116
1009.758, 738.5059
1010.240, 726.5578
1010.723, 721.0793
1011.205, 711.4495
1011.687, 686.9251
1012.169, 653.3560
1012.651, 626.8617
1013.133, 609.2936
1013.615, 594.3925
1014.097, 582.3594
1014.580, 569.5992
1015.062, 548.3685
1015.544, 523.8019
1016.026, 506.6258
1016.508, 500.2987
1016.990, 493.1293
1017.472, 479.8068
1017.954, 464.7038
1018.436, 449.0948
1018.919, 433.3688
1019.401, 425.0487
1019.883, 424.1561
1020.365, 422.6313
1020.847, 412.6309
1021.329, 402.4395
1021.811, 403.1762
1022.293, 410.0356
1022.776, 410.9315
1023.258, 396.0284
1023.740, 387.9613
1024.222, 390.7501
1024.704, 398.0436
1025.186, 403.1318
1025.668, 405.4220
1026.150, 400.8861
1026.632, 388.2852
1027.115, 378.4447
1027.597, 382.5508
1028.079, 387.6986
1028.561, 383.0515
1029.043, 369.2506
1029.525, 365.8121
1030.007, 374.2886
1030.489, 380.5332
1030.972, 375.7509
1031.454, 367.7561
1031.936, 367.8734
1032.418, 373.1219
1032.900, 377.0948
1033.382, 378.0752
1033.864, 376.9365
1034.346, 372.4460
1034.828, 367.8259
1035.311, 367.8673
1035.793, 371.5016
1036.275, 370.3226
1036.757, 363.6125
1037.239, 359.3066
1037.721, 366.0000
1038.203, 374.5439
1038.685, 378.8268
1039.167, 378.8321
1039.650, 377.4655
1040.132, 374.3651
1040.614, 371.4874
1041.096, 369.4989
1041.578, 368.1544
1042.060, 367.9009
1042.542, 367.8674
1043.024, 366.2820
1043.507, 361.4753
1043.989, 357.3877
1044.471, 354.6090
1044.953, 352.8228
1045.435, 351.3405
1045.917, 350.3401
1046.399, 353.9319
1046.881, 361.8188
1047.364, 366.8159
1047.846, 359.6679
1048.328, 352.0286
1048.810, 353.4830
1049.292, 361.6558
1049.774, 364.5100
1050.256, 359.9521
1050.738, 357.5109
1051.220, 359.7779
1051.703, 362.9929
1052.185, 361.2568
1052.667, 356.8508
1053.149, 353.3828
1053.631, 351.4423
1054.113, 351.0944
1054.595, 354.2569
1055.077, 356.7703
1055.559, 355.5648
1056.042, 351.6938
1056.524, 353.7053
1057.006, 360.7527
1057.488, 365.9120
1057.970, 362.2603
1058.452, 358.7905
1058.934, 364.0762
1059.416, 372.4806
1059.899, 372.7561
1060.381, 361.4541
1060.863, 353.4421
1061.345, 349.7750
1061.827, 350.0771
1062.309, 357.7415
1062.791, 367.2151
1063.273, 369.7203
1063.755, 364.6424
1064.238, 358.2713
1064.720, 347.9022
1065.202, 342.5983
1065.684, 346.9919
1066.166, 356.9108
1066.648, 360.9881
1067.130, 359.9629
1067.612, 357.1813
1068.094, 352.4038
1068.577, 349.2410
1069.059, 351.2770
1069.541, 355.0255
1070.023, 356.8035
1070.505, 355.8448
1070.987, 357.9575
1071.469, 363.6489
1071.951, 367.7362
1072.434, 365.9472
1072.916, 361.1295
1073.398, 355.4388
1073.880, 349.4737
1074.362, 345.1139
1074.844, 343.3201
1075.326, 342.0740
1075.808, 341.0982
1076.291, 340.6280
1076.773, 340.2987
1077.255, 340.7965
1077.737, 345.6886
1078.219, 355.8214
1078.701, 361.9735
1079.183, 356.6137
1079.665, 348.5500
1080.147, 340.9684
1080.630, 334.5736
1081.112, 334.3138
1081.594, 339.9913
1082.076, 345.6315
1082.558, 349.2479
1083.040, 351.4812
1083.522, 353.8536
1084.004, 354.7674
1084.486, 351.2061
1084.969, 338.4341
1085.451, 334.8632
1085.933, 342.7022
1086.415, 351.5201
1086.897, 351.7462
1087.379, 348.4287
1087.861, 351.5731
1088.343, 359.5519
1088.826, 364.7148
1089.308, 363.1942
1089.790, 359.5604
1090.272, 353.2791
1090.754, 347.0472
1091.236, 345.0515
1091.718, 346.8398
1092.200, 351.5641
1092.682, 359.4632
1093.165, 364.5445
1093.647, 360.4579
1094.129, 354.6432
1094.611, 351.6335
1095.093, 351.1357
1095.575, 350.5635
1096.057, 349.8596
1096.539, 350.7251
1097.022, 354.5806
1097.504, 358.6301
1097.986, 359.7390
1098.468, 359.3405
1098.950, 359.4388
1099.432, 360.8979
1099.914, 361.0439
1100.396, 359.2274
1100.879, 358.1880
1101.361, 362.1473
1101.843, 367.2171
1102.325, 363.7418
1102.807, 354.2502
1103.289, 348.4666
1103.771, 355.0349
1104.253, 358.4970
1104.735, 354.2946
1105.218, 348.3985
1105.700, 351.0439
1106.182, 359.7292
1106.664, 361.0014
1107.146, 353.2721
1107.628, 347.1332
1108.110, 349.9906
1108.592, 355.3975
1109.074, 360.9007
1109.557, 365.8570
1110.039, 367.3701
1110.521, 365.4150
1111.003, 362.5804
1111.485, 359.4517
1111.967, 356.2998
1112.449, 351.7542
1112.931, 348.3420
1113.414, 349.4494
1113.896, 356.5029
1114.378, 362.2753
1114.860, 366.8979
1115.342, 369.6255
1115.824, 369.3159
1116.306, 367.4687
1116.788, 365.3756
1117.271, 363.7523
1117.753, 364.1855
1118.235, 372.2225
1118.717, 374.0096
1119.199, 365.8307
1119.681, 356.8298
1120.163, 357.8632
1120.645, 365.0856
1121.127, 365.6490
1121.609, 359.9989
1122.092, 357.8918
1122.574, 370.1538
1123.056, 379.4746
1123.538, 379.7188
1124.020, 374.2372
1124.502, 368.1017
1124.984, 361.7543
1125.466, 359.7325
1125.949, 363.3908
1126.431, 366.9495
1126.913, 365.6047
1127.395, 363.3218
1127.877, 363.3416
1128.359, 365.2704
1128.841, 364.8016
1129.323, 361.6863
1129.806, 360.8978
1130.288, 365.0363
1130.770, 370.4859
1131.252, 374.8002
1131.734, 377.6313
1132.216, 378.1370
1132.698, 375.3686
1133.180, 373.3074
1133.662, 371.5797
1134.145, 372.2385
1134.627, 379.0333
1135.109, 387.4167
1135.591, 390.3625
1136.073, 389.0156
1136.555, 386.1999
1137.037, 379.1858
1137.519, 376.5833
1138.001, 380.4940
1138.484, 385.4820
1138.966, 385.2894
1139.448, 381.9449
1139.930, 380.3559
1140.412, 380.6152
1140.894, 380.9326
1141.376, 380.1484
1141.858, 380.0699
1142.341, 382.3611
1142.823, 384.3443
1143.305, 378.9420
1143.787, 368.5082
1144.269, 363.8918
1144.751, 367.2199
1145.233, 372.7915
1145.715, 380.6907
1146.198, 386.4473
1146.680, 386.7568
1147.162, 383.2053
1147.644, 383.3470
1148.126, 386.9547
1148.608, 391.3093
1149.090, 396.8627
1149.572, 399.5303
1150.054, 393.8575
1150.536, 385.4724
1151.019, 379.0981
1151.501, 374.7131
1151.983, 375.6635
1152.465, 382.2196
1152.947, 387.3984
1153.429, 385.6647
1153.911, 382.8600
1154.393, 385.7317
1154.876, 391.0197
1155.358, 392.6195
1155.840, 388.0436
1156.322, 386.8577
1156.804, 389.9021
1157.286, 392.6718
1157.768, 390.4017
1158.250, 386.5658
1158.733, 386.7643
1159.215, 389.4176
1159.697, 387.4988
1160.179, 373.8484
1160.661, 370.0679
1161.143, 381.0717
1161.625, 395.5903
1162.107, 400.6140
1162.589, 400.3703
1163.072, 402.1672
1163.554, 406.3623
1164.036, 408.0685
1164.518, 403.6408
1165.000, 401.0833
1165.482, 403.5265
1165.964, 406.7594
1166.446, 401.4030
1166.928, 391.3198
1167.411, 384.8932
1167.893, 383.8050
1168.375, 385.5125
1168.857, 391.4478
1169.339, 397.2453
1169.821, 401.0229
1170.303, 403.6301
1170.785, 408.7436
1171.268, 414.9245
1171.750, 417.1955
1172.232, 412.2879
1172.714, 407.6964
1173.196, 407.4428
1173.678, 407.3564
1174.160, 404.1315
1174.642, 398.7832
1175.125, 398.9542
1175.607, 403.8230
1176.089, 408.9317
1176.571, 414.8429
1177.053, 417.0383
1177.535, 409.7370
1178.017, 400.5847
1178.499, 396.1872
1178.981, 396.4947
1179.464, 401.4259
1179.946, 410.4886
1180.428, 416.4289
1180.910, 412.4001
1181.392, 406.5434
1181.874, 402.0030
1182.356, 398.9601
1182.838, 397.2598
1183.320, 396.8326
1183.803, 400.6397
1184.285, 409.0706
1184.767, 416.5753
1185.249, 419.9224
1185.731, 420.1112
1186.213, 414.8873
1186.695, 407.4234
1187.177, 407.3051
1187.660, 415.2373
1188.142, 419.6918
1188.624, 418.6850
1189.106, 414.7503
1189.588, 405.9182
1190.070, 398.5438
1190.552, 400.4762
1191.034, 409.7513
1191.516, 410.0620
1191.999, 400.0164
1192.481, 394.8276
1192.963, 399.2542
1193.445, 405.9878
1193.927, 408.9987
1194.409, 409.7635
1194.891, 408.7466
1195.373, 405.9965
1195.855, 407.8464
1196.338, 415.1042
1196.820, 419.9435
1197.302, 418.7159
1197.784, 415.0191
1198.266, 412.0609
1198.748, 409.3381
1199.230, 405.2838
1199.712, 398.5139
1200.195, 400.3625
1200.677, 412.3981
1201.159, 421.9342
1201.641, 420.1675
1202.123, 414.9567
1202.605, 414.8718
1203.087, 417.6648
1203.569, 419.8659
1204.052, 422.0380
1204.534, 419.7627
1205.016, 411.9391
1205.498, 406.1635
1205.980, 409.6662
1206.462, 416.3879
1206.944, 420.2004
1207.426, 421.6553
1207.908, 421.7780
1208.391, 420.1310
1208.873, 418.4799
1209.355, 416.3355
1209.837, 417.1741
1210.319, 427.8897
1210.801, 440.1285
1211.283, 443.2724
1211.765, 439.4817
1212.247, 437.3101
1212.730, 438.5988
1213.212, 438.0845
1213.694, 435.0980
1214.176, 430.8671
1214.658, 423.8950
1215.140, 418.1766
1215.622, 420.2341
1216.104, 428.5160
1216.587, 432.0942
1217.069, 428.7292
1217.551, 426.4285
1218.033, 426.6421
1218.515, 427.5324
1218.997, 426.6878
1219.479, 425.6384
1219.961, 426.7686
1220.443, 429.9218
1220.926, 430.5412
1221.408, 427.7046
1221.890, 425.5799
1222.372, 425.3874
1222.854, 425.3263
1223.336, 421.5843
1223.818, 417.8183
1224.300, 419.5771
1224.782, 427.6731
1225.265, 429.3586
1225.747, 422.2662
1226.229, 420.7617
1226.711, 431.1516
1227.193, 443.6209
1227.675, 446.8198
1228.157, 444.9858
1228.639, 442.1428
1229.122, 438.5058
1229.604, 438.6028
1230.086, 443.0420
1230.568, 447.3298
1231.050, 450.2925
1231.532, 451.1904
1232.014, 446.4484
1232.496, 440.6664
1232.979, 440.8105
1233.461, 448.5777
1233.943, 449.2654
1234.425, 442.2529
1234.907, 433.9630
1235.389, 424.9232
1235.871, 419.9593
1236.353, 427.5474
1236.835, 439.9491
1237.318, 446.6302
1237.800, 446.4771
1238.282, 447.2029
1238.764, 448.9186
1239.246, 449.0799
1239.728, 445.3747
1240.210, 440.6888
1240.692, 436.5172
1241.175, 433.4089
1241.657, 432.1092
1242.139, 432.7241
1242.621, 434.8435
1243.103, 438.5125
1243.585, 440.4185
1244.067, 435.2624
1244.549, 431.2290
1245.031, 437.0607
1245.514, 445.5720
1245.996, 445.6418
1246.478, 435.9964
1246.960, 435.4214
1247.442, 443.7127
1247.924, 450.2795
1248.406, 444.7990
1248.888, 439.5013
1249.370, 443.0751
1249.853, 449.7489
1250.335, 451.0377
1250.817, 447.2383
1251.299, 449.9674
1251.781, 459.1045
1252.263, 465.5574
1252.745, 460.6912
1253.227, 455.4742
1253.710, 456.1199
1254.192, 457.9746
1254.674, 453.7328
1255.156, 444.8105
1255.638, 441.8411
1256.120, 445.1014
1256.602, 449.7962
1257.084, 456.8943
1257.567, 459.9453
1258.049, 454.5688
1258.531, 447.4883
1259.013, 449.3600
1259.495, 457.4424
1259.977, 461.5343
1260.459, 461.1645
1260.941, 460.6530
1261.423, 462.5441
1261.906, 463.7059
1262.388, 463.6125
1262.870, 462.2544
1263.352, 458.4888
1263.834, 453.8012
1264.316, 451.1608
1264.798, 450.9554
1265.280, 453.9786
1265.762, 465.5587
1266.245, 471.7592
1266.727, 469.1810
1267.209, 462.5573
1267.691, 455.9429
1268.173, 450.8864
1268.655, 451.5239
1269.137, 457.6332
1269.619, 459.0435
1270.102, 450.5381
1270.584, 449.9289
1271.066, 463.2849
1271.548, 477.5325
1272.030, 473.5940
1272.512, 462.6934
1272.994, 458.3561
1273.476, 461.2432
1273.958, 460.3273
1274.441, 453.9061
1274.923, 451.0089
1275.405, 454.2053
1275.887, 458.7737
1276.369, 459.4709
1276.851, 459.4173
1277.333, 462.9099
1277.815, 468.7817
1278.297, 467.6844
1278.780, 459.0722
1279.262, 456.0984
1279.744, 462.5884
1280.226, 470.0809
1280.708, 472.5794
1281.190, 472.7080
1281.672, 472.1476
1282.154, 470.9432
1282.637, 467.7701
1283.119, 463.1744
1283.601, 463.5504
1284.083, 471.2532
1284.565, 476.4057
1285.047, 467.4324
1285.529, 461.0351
1286.011, 467.3628
1286.494, 480.3226
1286.976, 481.8388
1287.458, 475.0589
1287.940, 470.2437
1288.422, 469.5524
1288.904, 470.3348
1289.386, 471.6115
1289.868, 474.6375
1290.350, 481.0039
1290.833, 487.6673
1291.315, 487.8175
1291.797, 483.8813
1292.279, 480.2935
1292.761, 477.7724
1293.243, 476.3616
1293.725, 475.6889
1294.207, 476.8543
1294.689, 480.6187
1295.172, 485.4398
1295.654, 490.5840
1296.136, 494.5571
1296.618, 494.1434
1297.100, 488.3350
1297.582, 488.5916
1298.064, 496.1996
1298.546, 501.8561
1299.029, 502.8916
1299.511, 500.2375
1299.993, 490.0517
1300.475, 480.2390
1300.957, 480.2067
1301.439, 488.3841
1301.921, 495.8603
1302.403, 502.5021
1302.885, 503.0924
1303.368, 494.5757
1303.850, 486.9847
1304.332, 489.4422
1304.814, 492.9940
1305.296, 491.1001
1305.778, 486.2699
1306.260, 488.4557
1306.742, 495.7785
1307.224, 500.8924
1307.707, 501.9031
1308.189, 501.0381
1308.671, 497.7215
1309.153, 494.4217
1309.635, 491.5509
1310.117, 489.8817
##END=



