##NAMES=Trechmannite
##RRUFFID=R130062
##IDEAL CHEMISTRY=Ag^1+^As^3+^S^2-^_2_
##LOCALITY=Lengenbach quarry, Imfeld, Binn Valley, Wallis, Switzerland
##OWNER=RRUFF
##SOURCE=William W. Pinch
##DESCRIPTION=Single dark red crystal, associated with jordanite and binnite
##STATUS=The identification of this mineral has been confirmed by single-crystal X-ray diffraction.
##URL=rruff.info/R130062
8.975323e+001, 0.000000e+000
9.023535e+001, 1.717897e+003
9.071747e+001, 1.654703e+003
9.119958e+001, 1.625588e+003
9.168170e+001, 1.683060e+003
9.216382e+001, 1.753156e+003
9.264594e+001, 1.815615e+003
9.312805e+001, 1.871696e+003
9.361017e+001, 1.929723e+003
9.409229e+001, 1.992949e+003
9.457440e+001, 2.062769e+003
9.505651e+001, 2.134709e+003
9.553863e+001, 2.212875e+003
9.602074e+001, 2.292476e+003
9.650286e+001, 2.372649e+003
9.698498e+001, 2.452112e+003
9.746709e+001, 2.521229e+003
9.794921e+001, 2.565645e+003
9.843133e+001, 2.597567e+003
9.891344e+001, 2.602560e+003
9.939556e+001, 2.572671e+003
9.987768e+001, 2.512622e+003
1.003598e+002, 2.433348e+003
1.008419e+002, 2.336812e+003
1.013240e+002, 2.224899e+003
1.018061e+002, 2.114328e+003
1.022883e+002, 2.006883e+003
1.027704e+002, 1.898685e+003
1.032525e+002, 1.784577e+003
1.037346e+002, 1.662019e+003
1.042167e+002, 1.543183e+003
1.046988e+002, 1.430033e+003
1.051810e+002, 1.325565e+003
1.056631e+002, 1.238185e+003
1.061452e+002, 1.172160e+003
1.066273e+002, 1.125766e+003
1.071094e+002, 1.092267e+003
1.075915e+002, 1.075843e+003
1.080737e+002, 1.069051e+003
1.085558e+002, 1.069950e+003
1.090379e+002, 1.077104e+003
1.095200e+002, 1.087839e+003
1.100021e+002, 1.100057e+003
1.104842e+002, 1.113690e+003
1.109664e+002, 1.129007e+003
1.114485e+002, 1.146463e+003
1.119306e+002, 1.165068e+003
1.124127e+002, 1.184256e+003
1.128948e+002, 1.203968e+003
1.133769e+002, 1.224816e+003
1.138591e+002, 1.247268e+003
1.143412e+002, 1.270230e+003
1.148233e+002, 1.298190e+003
1.153054e+002, 1.330738e+003
1.157875e+002, 1.368156e+003
1.162696e+002, 1.411003e+003
1.167517e+002, 1.459653e+003
1.172339e+002, 1.513304e+003
1.177160e+002, 1.570409e+003
1.181981e+002, 1.630446e+003
1.186802e+002, 1.693643e+003
1.191623e+002, 1.760412e+003
1.196444e+002, 1.830306e+003
1.201266e+002, 1.902721e+003
1.206087e+002, 1.976881e+003
1.210908e+002, 2.053846e+003
1.215729e+002, 2.134081e+003
1.220550e+002, 2.216878e+003
1.225371e+002, 2.303977e+003
1.230193e+002, 2.394597e+003
1.235014e+002, 2.488332e+003
1.239835e+002, 2.590625e+003
1.244656e+002, 2.706906e+003
1.249477e+002, 2.831823e+003
1.254298e+002, 2.964373e+003
1.259120e+002, 3.106188e+003
1.263941e+002, 3.251359e+003
1.268762e+002, 3.387236e+003
1.273583e+002, 3.522666e+003
1.278404e+002, 3.630898e+003
1.283225e+002, 3.715359e+003
1.288047e+002, 3.771863e+003
1.292868e+002, 3.793240e+003
1.297689e+002, 3.773104e+003
1.302510e+002, 3.713328e+003
1.307331e+002, 3.640323e+003
1.312152e+002, 3.536485e+003
1.316974e+002, 3.435024e+003
1.321795e+002, 3.336597e+003
1.326616e+002, 3.246375e+003
1.331437e+002, 3.172721e+003
1.336258e+002, 3.121940e+003
1.341079e+002, 3.094463e+003
1.345901e+002, 3.095466e+003
1.350722e+002, 3.124741e+003
1.355543e+002, 3.175726e+003
1.360364e+002, 3.252413e+003
1.365185e+002, 3.352021e+003
1.370006e+002, 3.459834e+003
1.374828e+002, 3.564039e+003
1.379649e+002, 3.669518e+003
1.384470e+002, 3.731996e+003
1.389291e+002, 3.752705e+003
1.394112e+002, 3.728117e+003
1.398933e+002, 3.647853e+003
1.403755e+002, 3.505423e+003
1.408576e+002, 3.324199e+003
1.413397e+002, 3.122041e+003
1.418218e+002, 2.901189e+003
1.423039e+002, 2.687625e+003
1.427860e+002, 2.487203e+003
1.432681e+002, 2.301634e+003
1.437503e+002, 2.135959e+003
1.442324e+002, 1.994064e+003
1.447145e+002, 1.872775e+003
1.451966e+002, 1.764744e+003
1.456787e+002, 1.670112e+003
1.461608e+002, 1.588023e+003
1.466430e+002, 1.519998e+003
1.471251e+002, 1.466930e+003
1.476072e+002, 1.418406e+003
1.480893e+002, 1.371993e+003
1.485714e+002, 1.329816e+003
1.490535e+002, 1.293914e+003
1.495357e+002, 1.264740e+003
1.500178e+002, 1.240053e+003
1.504999e+002, 1.216870e+003
1.509820e+002, 1.194275e+003
1.514641e+002, 1.175206e+003
1.519462e+002, 1.160155e+003
1.524284e+002, 1.147691e+003
1.529105e+002, 1.136781e+003
1.533926e+002, 1.127069e+003
1.538747e+002, 1.118539e+003
1.543568e+002, 1.111181e+003
1.548389e+002, 1.104824e+003
1.553211e+002, 1.100199e+003
1.558032e+002, 1.097712e+003
1.562853e+002, 1.096814e+003
1.567674e+002, 1.096833e+003
1.572495e+002, 1.097413e+003
1.577316e+002, 1.098752e+003
1.582138e+002, 1.101867e+003
1.586959e+002, 1.107690e+003
1.591780e+002, 1.113931e+003
1.596601e+002, 1.120215e+003
1.601422e+002, 1.126518e+003
1.606243e+002, 1.132723e+003
1.611065e+002, 1.138537e+003
1.615886e+002, 1.144344e+003
1.620707e+002, 1.151473e+003
1.625528e+002, 1.161218e+003
1.630349e+002, 1.170916e+003
1.635170e+002, 1.178467e+003
1.639991e+002, 1.184139e+003
1.644813e+002, 1.190491e+003
1.649634e+002, 1.199620e+003
1.654455e+002, 1.210467e+003
1.659276e+002, 1.220375e+003
1.664097e+002, 1.227819e+003
1.668918e+002, 1.235260e+003
1.673740e+002, 1.246018e+003
1.678561e+002, 1.260816e+003
1.683382e+002, 1.275390e+003
1.688203e+002, 1.287349e+003
1.693024e+002, 1.297521e+003
1.697845e+002, 1.306591e+003
1.702667e+002, 1.314214e+003
1.707488e+002, 1.321189e+003
1.712309e+002, 1.329567e+003
1.717130e+002, 1.340454e+003
1.721951e+002, 1.350701e+003
1.726772e+002, 1.357954e+003
1.731594e+002, 1.364157e+003
1.736415e+002, 1.372157e+003
1.741236e+002, 1.383735e+003
1.746057e+002, 1.398432e+003
1.750878e+002, 1.413350e+003
1.755699e+002, 1.428514e+003
1.760521e+002, 1.443964e+003
1.765342e+002, 1.459410e+003
1.770163e+002, 1.475137e+003
1.774984e+002, 1.491514e+003
1.779805e+002, 1.508987e+003
1.784626e+002, 1.527606e+003
1.789448e+002, 1.545730e+003
1.794269e+002, 1.561207e+003
1.799090e+002, 1.578305e+003
1.803911e+002, 1.597827e+003
1.808732e+002, 1.620024e+003
1.813553e+002, 1.645000e+003
1.818375e+002, 1.673103e+003
1.823196e+002, 1.704680e+003
1.828017e+002, 1.736042e+003
1.832838e+002, 1.765493e+003
1.837659e+002, 1.796180e+003
1.842480e+002, 1.828633e+003
1.847301e+002, 1.863320e+003
1.852123e+002, 1.901540e+003
1.856944e+002, 1.944516e+003
1.861765e+002, 1.993002e+003
1.866586e+002, 2.042858e+003
1.871407e+002, 2.092259e+003
1.876228e+002, 2.143744e+003
1.881050e+002, 2.198660e+003
1.885871e+002, 2.257009e+003
1.890692e+002, 2.319686e+003
1.895513e+002, 2.388643e+003
1.900334e+002, 2.463659e+003
1.905155e+002, 2.539681e+003
1.909977e+002, 2.616467e+003
1.914798e+002, 2.693515e+003
1.919619e+002, 2.771983e+003
1.924440e+002, 2.852993e+003
1.929261e+002, 2.930901e+003
1.934082e+002, 3.003160e+003
1.938904e+002, 3.069333e+003
1.943725e+002, 3.121685e+003
1.948546e+002, 3.161530e+003
1.953367e+002, 3.185569e+003
1.958188e+002, 3.187370e+003
1.963009e+002, 3.165566e+003
1.967831e+002, 3.121449e+003
1.972652e+002, 3.054156e+003
1.977473e+002, 2.967414e+003
1.982294e+002, 2.869274e+003
1.987115e+002, 2.759694e+003
1.991936e+002, 2.640554e+003
1.996758e+002, 2.520989e+003
2.001579e+002, 2.400182e+003
2.006400e+002, 2.279737e+003
2.011221e+002, 2.159302e+003
2.016042e+002, 2.040007e+003
2.020863e+002, 1.925928e+003
2.025685e+002, 1.819929e+003
2.030506e+002, 1.721633e+003
2.035327e+002, 1.628362e+003
2.040148e+002, 1.540529e+003
2.044969e+002, 1.458722e+003
2.049790e+002, 1.382953e+003
2.054612e+002, 1.313543e+003
2.059433e+002, 1.250560e+003
2.064254e+002, 1.194532e+003
2.069075e+002, 1.145510e+003
2.073896e+002, 1.102568e+003
2.078717e+002, 1.068351e+003
2.083539e+002, 1.038229e+003
2.088360e+002, 1.011216e+003
2.093181e+002, 9.873411e+002
2.098002e+002, 9.671866e+002
2.102823e+002, 9.514299e+002
2.107644e+002, 9.404422e+002
2.112466e+002, 9.315397e+002
2.117287e+002, 9.258260e+002
2.122108e+002, 9.209548e+002
2.126929e+002, 9.166310e+002
2.131750e+002, 9.124590e+002
2.136571e+002, 9.077945e+002
2.141393e+002, 9.021651e+002
2.146214e+002, 8.956879e+002
2.151035e+002, 8.869534e+002
2.155856e+002, 8.767663e+002
2.160677e+002, 8.642351e+002
2.165498e+002, 8.479559e+002
2.170320e+002, 8.285427e+002
2.175141e+002, 8.080652e+002
2.179962e+002, 7.883223e+002
2.184783e+002, 7.693672e+002
2.189604e+002, 7.515081e+002
2.194425e+002, 7.348102e+002
2.199247e+002, 7.189119e+002
2.204068e+002, 7.036595e+002
2.208889e+002, 6.890102e+002
2.213710e+002, 6.748022e+002
2.218531e+002, 6.606686e+002
2.223352e+002, 6.467226e+002
2.228174e+002, 6.348549e+002
2.232995e+002, 6.262448e+002
2.237816e+002, 6.187881e+002
2.242637e+002, 6.108918e+002
2.247458e+002, 6.024805e+002
2.252279e+002, 5.945880e+002
2.257100e+002, 5.879281e+002
2.261922e+002, 5.826345e+002
2.266743e+002, 5.785097e+002
2.271564e+002, 5.769477e+002
2.276385e+002, 5.756945e+002
2.281206e+002, 5.723515e+002
2.286027e+002, 5.667510e+002
2.290849e+002, 5.612052e+002
2.295670e+002, 5.575287e+002
2.300491e+002, 5.552565e+002
2.305312e+002, 5.530442e+002
2.310133e+002, 5.504865e+002
2.314954e+002, 5.480168e+002
2.319776e+002, 5.460311e+002
2.324597e+002, 5.445067e+002
2.329418e+002, 5.436276e+002
2.334239e+002, 5.438125e+002
2.339060e+002, 5.446913e+002
2.343881e+002, 5.457596e+002
2.348703e+002, 5.467982e+002
2.353524e+002, 5.480530e+002
2.358345e+002, 5.498348e+002
2.363166e+002, 5.521580e+002
2.367987e+002, 5.550042e+002
2.372808e+002, 5.588852e+002
2.377630e+002, 5.631373e+002
2.382451e+002, 5.670375e+002
2.387272e+002, 5.702532e+002
2.392093e+002, 5.731852e+002
2.396914e+002, 5.764271e+002
2.401735e+002, 5.800361e+002
2.406557e+002, 5.838299e+002
2.411378e+002, 5.883640e+002
2.416199e+002, 5.927878e+002
2.421020e+002, 5.963123e+002
2.425841e+002, 5.986906e+002
2.430662e+002, 5.999611e+002
2.435484e+002, 6.001253e+002
2.440305e+002, 5.990537e+002
2.445126e+002, 5.971661e+002
2.449947e+002, 5.949725e+002
2.454768e+002, 5.919226e+002
2.459589e+002, 5.871496e+002
2.464410e+002, 5.802706e+002
2.469232e+002, 5.725558e+002
2.474053e+002, 5.661396e+002
2.478874e+002, 5.615826e+002
2.483695e+002, 5.570675e+002
2.488516e+002, 5.517405e+002
2.493337e+002, 5.466310e+002
2.498159e+002, 5.425321e+002
2.502980e+002, 5.396812e+002
2.507801e+002, 5.378065e+002
2.512622e+002, 5.364935e+002
2.517443e+002, 5.358975e+002
2.522264e+002, 5.355709e+002
2.527086e+002, 5.350763e+002
2.531907e+002, 5.350225e+002
2.536728e+002, 5.358018e+002
2.541549e+002, 5.375288e+002
2.546370e+002, 5.401153e+002
2.551191e+002, 5.434088e+002
2.556013e+002, 5.471961e+002
2.560834e+002, 5.522969e+002
2.565655e+002, 5.593993e+002
2.570476e+002, 5.670446e+002
2.575297e+002, 5.737658e+002
2.580118e+002, 5.795607e+002
2.584940e+002, 5.861381e+002
2.589761e+002, 5.958863e+002
2.594582e+002, 6.098254e+002
2.599403e+002, 6.246554e+002
2.604224e+002, 6.403651e+002
2.609045e+002, 6.568860e+002
2.613867e+002, 6.741617e+002
2.618688e+002, 6.922300e+002
2.623509e+002, 7.110978e+002
2.628330e+002, 7.313597e+002
2.633151e+002, 7.547470e+002
2.637972e+002, 7.727078e+002
2.642794e+002, 7.858977e+002
2.647615e+002, 7.943511e+002
2.652436e+002, 7.982864e+002
2.657257e+002, 7.975558e+002
2.662078e+002, 7.913863e+002
2.666899e+002, 7.785612e+002
2.671721e+002, 7.580959e+002
2.676542e+002, 7.368181e+002
2.681363e+002, 7.142198e+002
2.686184e+002, 6.914590e+002
2.691005e+002, 6.681262e+002
2.695826e+002, 6.449420e+002
2.700648e+002, 6.238033e+002
2.705469e+002, 6.062125e+002
2.710290e+002, 5.923337e+002
2.715111e+002, 5.810641e+002
2.719932e+002, 5.723232e+002
2.724753e+002, 5.656254e+002
2.729575e+002, 5.612769e+002
2.734396e+002, 5.588857e+002
2.739217e+002, 5.576635e+002
2.744038e+002, 5.571837e+002
2.748859e+002, 5.573937e+002
2.753680e+002, 5.576813e+002
2.758501e+002, 5.569849e+002
2.763322e+002, 5.574461e+002
2.768144e+002, 5.600255e+002
2.772965e+002, 5.643178e+002
2.777786e+002, 5.694928e+002
2.782607e+002, 5.752118e+002
2.787428e+002, 5.813063e+002
2.792249e+002, 5.871015e+002
2.797071e+002, 5.907795e+002
2.801892e+002, 5.963054e+002
2.806713e+002, 6.052942e+002
2.811534e+002, 6.167262e+002
2.816355e+002, 6.288135e+002
2.821176e+002, 6.407568e+002
2.825998e+002, 6.530006e+002
2.830819e+002, 6.664320e+002
2.835640e+002, 6.805187e+002
2.840461e+002, 6.965215e+002
2.845282e+002, 7.150651e+002
2.850103e+002, 7.355947e+002
2.854925e+002, 7.572278e+002
2.859746e+002, 7.796859e+002
2.864567e+002, 8.033724e+002
2.869388e+002, 8.294548e+002
2.874209e+002, 8.581006e+002
2.879030e+002, 8.878456e+002
2.883852e+002, 9.203205e+002
2.888673e+002, 9.528991e+002
2.893494e+002, 9.831612e+002
2.898315e+002, 1.010694e+003
2.903136e+002, 1.033627e+003
2.907957e+002, 1.050420e+003
2.912779e+002, 1.061274e+003
2.917600e+002, 1.061695e+003
2.922421e+002, 1.047405e+003
2.927242e+002, 1.024572e+003
2.932063e+002, 9.968187e+002
2.936884e+002, 9.647246e+002
2.941706e+002, 9.331549e+002
2.946527e+002, 9.056240e+002
2.951348e+002, 8.827083e+002
2.956169e+002, 8.659179e+002
2.960990e+002, 8.549072e+002
2.965811e+002, 8.503536e+002
2.970633e+002, 8.529241e+002
2.975454e+002, 8.625725e+002
2.980275e+002, 8.786571e+002
2.985096e+002, 9.008229e+002
2.989917e+002, 9.298768e+002
2.994738e+002, 9.651725e+002
2.999560e+002, 1.007436e+003
3.004381e+002, 1.054743e+003
3.009202e+002, 1.107492e+003
3.014023e+002, 1.164988e+003
3.018844e+002, 1.225352e+003
3.023665e+002, 1.289098e+003
3.028487e+002, 1.354323e+003
3.033308e+002, 1.415938e+003
3.038129e+002, 1.474015e+003
3.042950e+002, 1.529394e+003
3.047771e+002, 1.581342e+003
3.052592e+002, 1.630828e+003
3.057414e+002, 1.679721e+003
3.062235e+002, 1.727736e+003
3.067056e+002, 1.777225e+003
3.071877e+002, 1.831811e+003
3.076698e+002, 1.889936e+003
3.081519e+002, 1.955627e+003
3.086341e+002, 2.029938e+003
3.091162e+002, 2.112581e+003
3.095983e+002, 2.201914e+003
3.100804e+002, 2.296768e+003
3.105625e+002, 2.399947e+003
3.110446e+002, 2.515242e+003
3.115268e+002, 2.642183e+003
3.120089e+002, 2.778698e+003
3.124910e+002, 2.921310e+003
3.129731e+002, 3.074638e+003
3.134552e+002, 3.244323e+003
3.139373e+002, 3.430685e+003
3.144195e+002, 3.634757e+003
3.149016e+002, 3.859819e+003
3.153837e+002, 4.107096e+003
3.158658e+002, 4.369260e+003
3.163479e+002, 4.653234e+003
3.168300e+002, 4.946683e+003
3.173121e+002, 5.251727e+003
3.177943e+002, 5.565925e+003
3.182764e+002, 5.858280e+003
3.187585e+002, 6.125881e+003
3.192406e+002, 6.346097e+003
3.197227e+002, 6.462774e+003
3.202048e+002, 6.487147e+003
3.206870e+002, 6.403299e+003
3.211691e+002, 6.184127e+003
3.216512e+002, 5.845406e+003
3.221333e+002, 5.428093e+003
3.226154e+002, 4.935778e+003
3.230975e+002, 4.396374e+003
3.235797e+002, 3.887358e+003
3.240618e+002, 3.392125e+003
3.245439e+002, 2.947991e+003
3.250260e+002, 2.568103e+003
3.255081e+002, 2.247166e+003
3.259902e+002, 1.975111e+003
3.264724e+002, 1.751118e+003
3.269545e+002, 1.566278e+003
3.274366e+002, 1.412229e+003
3.279187e+002, 1.289207e+003
3.284008e+002, 1.183499e+003
3.288829e+002, 1.096741e+003
3.293651e+002, 1.024701e+003
3.298472e+002, 9.639124e+002
3.303293e+002, 9.137779e+002
3.308114e+002, 8.716602e+002
3.312935e+002, 8.352759e+002
3.317756e+002, 8.053023e+002
3.322578e+002, 7.803378e+002
3.327399e+002, 7.617238e+002
3.332220e+002, 7.472222e+002
3.337041e+002, 7.352839e+002
3.341862e+002, 7.259343e+002
3.346683e+002, 7.196583e+002
3.351505e+002, 7.169130e+002
3.356326e+002, 7.177627e+002
3.361147e+002, 7.212878e+002
3.365968e+002, 7.273730e+002
3.370789e+002, 7.358790e+002
3.375610e+002, 7.471777e+002
3.380432e+002, 7.608886e+002
3.385253e+002, 7.758470e+002
3.390074e+002, 7.913372e+002
3.394895e+002, 8.081007e+002
3.399716e+002, 8.285205e+002
3.404537e+002, 8.539933e+002
3.409359e+002, 8.798365e+002
3.414180e+002, 9.046188e+002
3.419001e+002, 9.295236e+002
3.423822e+002, 9.561765e+002
3.428643e+002, 9.849391e+002
3.433464e+002, 1.014635e+003
3.438286e+002, 1.043301e+003
3.443107e+002, 1.069621e+003
3.447928e+002, 1.099395e+003
3.452749e+002, 1.132541e+003
3.457570e+002, 1.169002e+003
3.462391e+002, 1.208469e+003
3.467213e+002, 1.250828e+003
3.472034e+002, 1.297251e+003
3.476855e+002, 1.348261e+003
3.481676e+002, 1.404221e+003
3.486497e+002, 1.464205e+003
3.491318e+002, 1.525477e+003
3.496140e+002, 1.592605e+003
3.500961e+002, 1.666501e+003
3.505782e+002, 1.747243e+003
3.510603e+002, 1.834846e+003
3.515424e+002, 1.928671e+003
3.520245e+002, 2.029579e+003
3.525067e+002, 2.143164e+003
3.529888e+002, 2.269235e+003
3.534709e+002, 2.407742e+003
3.539530e+002, 2.561785e+003
3.544351e+002, 2.726851e+003
3.549172e+002, 2.902538e+003
3.553994e+002, 3.087913e+003
3.558815e+002, 3.274055e+003
3.563636e+002, 3.448593e+003
3.568457e+002, 3.617620e+003
3.573278e+002, 3.758118e+003
3.578099e+002, 3.875665e+003
3.582920e+002, 3.963950e+003
3.587741e+002, 4.016699e+003
3.592563e+002, 4.034661e+003
3.597384e+002, 4.021608e+003
3.602205e+002, 3.977136e+003
3.607026e+002, 3.896165e+003
3.611847e+002, 3.833072e+003
3.616668e+002, 3.783342e+003
3.621490e+002, 3.754678e+003
3.626311e+002, 3.746809e+003
3.631132e+002, 3.762381e+003
3.635953e+002, 3.805303e+003
3.640774e+002, 3.877703e+003
3.645595e+002, 3.979706e+003
3.650417e+002, 4.111579e+003
3.655238e+002, 4.270666e+003
3.660059e+002, 4.468766e+003
3.664880e+002, 4.694439e+003
3.669701e+002, 4.962262e+003
3.674522e+002, 5.286920e+003
3.679344e+002, 5.671578e+003
3.684165e+002, 6.110306e+003
3.688986e+002, 6.605289e+003
3.693807e+002, 7.183214e+003
3.698628e+002, 7.743117e+003
3.703449e+002, 8.293783e+003
3.708271e+002, 8.818395e+003
3.713092e+002, 9.333247e+003
3.717913e+002, 9.821736e+003
3.722734e+002, 1.024896e+004
3.727555e+002, 1.060757e+004
3.732376e+002, 1.089324e+004
3.737198e+002, 1.095620e+004
3.742019e+002, 1.071207e+004
3.746840e+002, 1.032257e+004
3.751661e+002, 9.849744e+003
3.756482e+002, 9.277371e+003
3.761303e+002, 8.561088e+003
3.766125e+002, 7.650542e+003
3.770946e+002, 6.641732e+003
3.775767e+002, 5.731407e+003
3.780588e+002, 4.915826e+003
3.785409e+002, 4.213914e+003
3.790230e+002, 3.657451e+003
3.795052e+002, 3.197576e+003
3.799873e+002, 2.813217e+003
3.804694e+002, 2.499430e+003
3.809515e+002, 2.235386e+003
3.814336e+002, 2.009041e+003
3.819157e+002, 1.819523e+003
3.823979e+002, 1.648390e+003
3.828800e+002, 1.496219e+003
3.833621e+002, 1.360761e+003
3.838442e+002, 1.237527e+003
3.843263e+002, 1.127191e+003
3.848084e+002, 1.028918e+003
3.852906e+002, 9.457476e+002
3.857727e+002, 8.748107e+002
3.862548e+002, 8.091181e+002
3.867369e+002, 7.485281e+002
3.872190e+002, 6.944813e+002
3.877011e+002, 6.497100e+002
3.881833e+002, 6.115688e+002
3.886654e+002, 5.770120e+002
3.891475e+002, 5.456691e+002
3.896296e+002, 5.174637e+002
3.901117e+002, 4.928807e+002
3.905938e+002, 4.716095e+002
3.910760e+002, 4.519229e+002
3.915581e+002, 4.330010e+002
3.920402e+002, 4.158843e+002
3.925223e+002, 4.022783e+002
3.930044e+002, 3.923494e+002
3.934865e+002, 3.826189e+002
3.939687e+002, 3.715942e+002
3.944508e+002, 3.599952e+002
3.949329e+002, 3.490049e+002
3.954150e+002, 3.386922e+002
3.958971e+002, 3.290014e+002
3.963792e+002, 3.197098e+002
3.968614e+002, 3.109415e+002
3.973435e+002, 3.032709e+002
3.978256e+002, 2.971813e+002
3.983077e+002, 2.917112e+002
3.987898e+002, 2.861707e+002
3.992719e+002, 2.806801e+002
3.997540e+002, 2.757748e+002
4.002361e+002, 2.717885e+002
4.007183e+002, 2.684570e+002
4.012004e+002, 2.651065e+002
4.016825e+002, 2.617214e+002
4.021646e+002, 2.583414e+002
4.026467e+002, 2.546292e+002
4.031288e+002, 2.510798e+002
4.036110e+002, 2.485430e+002
4.040931e+002, 2.471485e+002
4.045752e+002, 2.458492e+002
4.050573e+002, 2.433029e+002
4.055394e+002, 2.390656e+002
4.060215e+002, 2.359495e+002
4.065037e+002, 2.347970e+002
4.069858e+002, 2.338225e+002
4.074679e+002, 2.320766e+002
4.079500e+002, 2.297661e+002
4.084321e+002, 2.276061e+002
4.089142e+002, 2.260408e+002
4.093964e+002, 2.249228e+002
4.098785e+002, 2.235434e+002
4.103606e+002, 2.217448e+002
4.108427e+002, 2.198653e+002
4.113248e+002, 2.176609e+002
4.118069e+002, 2.155346e+002
4.122891e+002, 2.139700e+002
4.127712e+002, 2.130447e+002
4.132533e+002, 2.123083e+002
4.137354e+002, 2.111974e+002
4.142175e+002, 2.096805e+002
4.146996e+002, 2.078839e+002
4.151818e+002, 2.053945e+002
4.156639e+002, 2.030144e+002
4.161460e+002, 2.009803e+002
4.166281e+002, 1.993048e+002
4.171102e+002, 1.980333e+002
4.175923e+002, 1.973187e+002
4.180745e+002, 1.968989e+002
4.185566e+002, 1.957340e+002
4.190387e+002, 1.933041e+002
4.195208e+002, 1.913085e+002
4.200029e+002, 1.906405e+002
4.204850e+002, 1.904234e+002
4.209672e+002, 1.898766e+002
4.214493e+002, 1.888118e+002
4.219314e+002, 1.875664e+002
4.224135e+002, 1.864496e+002
4.228956e+002, 1.854592e+002
4.233777e+002, 1.845070e+002
4.238599e+002, 1.835985e+002
4.243420e+002, 1.827053e+002
4.248241e+002, 1.817989e+002
4.253062e+002, 1.808855e+002
4.257883e+002, 1.799784e+002
4.262704e+002, 1.789347e+002
4.267526e+002, 1.779673e+002
4.272347e+002, 1.775212e+002
4.277168e+002, 1.776318e+002
4.281989e+002, 1.776195e+002
4.286810e+002, 1.770742e+002
4.291631e+002, 1.761914e+002
4.296453e+002, 1.754620e+002
4.301274e+002, 1.749743e+002
4.306095e+002, 1.744407e+002
4.310916e+002, 1.736436e+002
4.315737e+002, 1.727139e+002
4.320558e+002, 1.719180e+002
4.325380e+002, 1.713328e+002
4.330201e+002, 1.708263e+002
4.335022e+002, 1.702030e+002
4.339843e+002, 1.694221e+002
4.344664e+002, 1.689675e+002
4.349485e+002, 1.694029e+002
4.354307e+002, 1.697021e+002
4.359128e+002, 1.689692e+002
4.363949e+002, 1.674572e+002
4.368770e+002, 1.661462e+002
4.373591e+002, 1.656447e+002
4.378412e+002, 1.656950e+002
4.383234e+002, 1.653224e+002
4.388055e+002, 1.639352e+002
4.392876e+002, 1.628803e+002
4.397697e+002, 1.625030e+002
4.402518e+002, 1.623557e+002
4.407339e+002, 1.620210e+002
4.412160e+002, 1.614198e+002
4.416982e+002, 1.607391e+002
4.421803e+002, 1.601949e+002
4.426624e+002, 1.598043e+002
4.431445e+002, 1.594180e+002
4.436266e+002, 1.591667e+002
4.441087e+002, 1.587837e+002
4.445909e+002, 1.581981e+002
4.450730e+002, 1.574246e+002
4.455551e+002, 1.564779e+002
4.460372e+002, 1.553656e+002
4.465193e+002, 1.541161e+002
4.470014e+002, 1.527042e+002
4.474836e+002, 1.509251e+002
4.479657e+002, 1.496023e+002
4.484478e+002, 1.491928e+002
4.489299e+002, 1.490624e+002
4.494120e+002, 1.489932e+002
4.498941e+002, 1.488940e+002
4.503763e+002, 1.484995e+002
4.508584e+002, 1.473676e+002
4.513405e+002, 1.457240e+002
4.518226e+002, 1.446169e+002
4.523047e+002, 1.442526e+002
4.527868e+002, 1.439661e+002
4.532690e+002, 1.434951e+002
4.537511e+002, 1.428215e+002
4.542332e+002, 1.418153e+002
4.547153e+002, 1.402323e+002
4.551974e+002, 1.387426e+002
4.556795e+002, 1.380006e+002
4.561617e+002, 1.378566e+002
4.566438e+002, 1.376214e+002
4.571259e+002, 1.370538e+002
4.576080e+002, 1.364314e+002
4.580901e+002, 1.361579e+002
4.585722e+002, 1.362265e+002
4.590544e+002, 1.362553e+002
4.595365e+002, 1.362917e+002
4.600186e+002, 1.361799e+002
4.605007e+002, 1.357782e+002
4.609828e+002, 1.350945e+002
4.614649e+002, 1.341291e+002
4.619471e+002, 1.327463e+002
4.624292e+002, 1.312125e+002
4.629113e+002, 1.306362e+002
4.633934e+002, 1.320314e+002
4.638755e+002, 1.329874e+002
4.643576e+002, 1.330182e+002
4.648398e+002, 1.326036e+002
4.653219e+002, 1.321408e+002
4.658040e+002, 1.317499e+002
4.662861e+002, 1.314713e+002
4.667682e+002, 1.313628e+002
4.672503e+002, 1.314441e+002
4.677325e+002, 1.314942e+002
4.682146e+002, 1.314805e+002
4.686967e+002, 1.314683e+002
4.691788e+002, 1.315307e+002
4.696609e+002, 1.315895e+002
4.701430e+002, 1.314868e+002
4.706252e+002, 1.311438e+002
4.711073e+002, 1.307564e+002
4.715894e+002, 1.307071e+002
4.720715e+002, 1.310883e+002
4.725536e+002, 1.314044e+002
4.730357e+002, 1.316115e+002
4.735179e+002, 1.317059e+002
4.740000e+002, 1.316810e+002
4.744821e+002, 1.315402e+002
4.749642e+002, 1.312943e+002
4.754463e+002, 1.309126e+002
4.759284e+002, 1.304442e+002
4.764106e+002, 1.299434e+002
4.768927e+002, 1.293808e+002
4.773748e+002, 1.290003e+002
4.778569e+002, 1.291117e+002
4.783390e+002, 1.293654e+002
4.788211e+002, 1.291402e+002
4.793033e+002, 1.282310e+002
4.797854e+002, 1.275083e+002
4.802675e+002, 1.275740e+002
4.807496e+002, 1.280783e+002
4.812317e+002, 1.284886e+002
4.817138e+002, 1.287246e+002
4.821959e+002, 1.285723e+002
4.826780e+002, 1.276861e+002
4.831602e+002, 1.260918e+002
4.836423e+002, 1.250535e+002
4.841244e+002, 1.249419e+002
4.846065e+002, 1.249467e+002
4.850886e+002, 1.249098e+002
4.855707e+002, 1.247278e+002
4.860529e+002, 1.241276e+002
4.865350e+002, 1.230129e+002
4.870171e+002, 1.218215e+002
4.874992e+002, 1.213244e+002
4.879813e+002, 1.219207e+002
4.884634e+002, 1.221103e+002
4.889456e+002, 1.216866e+002
4.894277e+002, 1.211274e+002
4.899098e+002, 1.205957e+002
4.903919e+002, 1.201202e+002
4.908740e+002, 1.197043e+002
4.913561e+002, 1.193545e+002
4.918383e+002, 1.190575e+002
4.923204e+002, 1.187591e+002
4.928025e+002, 1.184105e+002
4.932846e+002, 1.181986e+002
4.937667e+002, 1.185218e+002
4.942488e+002, 1.187348e+002
4.947310e+002, 1.181852e+002
4.952131e+002, 1.169472e+002
4.956952e+002, 1.159349e+002
4.961773e+002, 1.160388e+002
4.966594e+002, 1.168319e+002
4.971415e+002, 1.171319e+002
4.976237e+002, 1.168461e+002
4.981058e+002, 1.163911e+002
4.985879e+002, 1.159645e+002
4.990700e+002, 1.155122e+002
4.995521e+002, 1.149255e+002
5.000342e+002, 1.141324e+002
5.005164e+002, 1.133637e+002
5.009985e+002, 1.126749e+002
5.014806e+002, 1.120983e+002
5.019627e+002, 1.117673e+002
5.024448e+002, 1.117155e+002
5.029269e+002, 1.115810e+002
5.034091e+002, 1.109480e+002
5.038912e+002, 1.097884e+002
5.043733e+002, 1.091035e+002
5.048554e+002, 1.093663e+002
5.053375e+002, 1.095199e+002
5.058196e+002, 1.091090e+002
5.063018e+002, 1.083711e+002
5.067839e+002, 1.076779e+002
5.072660e+002, 1.071642e+002
5.077481e+002, 1.067255e+002
5.082302e+002, 1.062039e+002
5.087123e+002, 1.055729e+002
5.091945e+002, 1.049526e+002
5.096766e+002, 1.040908e+002
5.101587e+002, 1.034954e+002
5.106408e+002, 1.036176e+002
5.111229e+002, 1.041145e+002
5.116050e+002, 1.043569e+002
5.120872e+002, 1.040350e+002
5.125693e+002, 1.032964e+002
5.130514e+002, 1.023110e+002
5.135335e+002, 1.010209e+002
5.140156e+002, 9.988537e+001
5.144977e+002, 9.887977e+001
5.149799e+002, 9.820499e+001
5.154620e+002, 9.814067e+001
5.159441e+002, 9.859391e+001
5.164262e+002, 9.895432e+001
5.169083e+002, 9.893730e+001
5.173904e+002, 9.870571e+001
5.178726e+002, 9.851785e+001
5.183547e+002, 9.835588e+001
5.188368e+002, 9.785957e+001
5.193189e+002, 9.666644e+001
5.198010e+002, 9.526408e+001
5.202831e+002, 9.493027e+001
5.207653e+002, 9.612886e+001
5.212474e+002, 9.680591e+001
5.217295e+002, 9.615427e+001
5.222116e+002, 9.516677e+001
5.226937e+002, 9.467662e+001
5.231758e+002, 9.472488e+001
5.236580e+002, 9.497534e+001
5.241401e+002, 9.521205e+001
5.246222e+002, 9.541650e+001
5.251043e+002, 9.549212e+001
5.255864e+002, 9.536175e+001
5.260685e+002, 9.520271e+001
5.265507e+002, 9.509917e+001
5.270328e+002, 9.492883e+001
5.275149e+002, 9.448470e+001
5.279970e+002, 9.381394e+001
5.284791e+002, 9.328152e+001
5.289612e+002, 9.335910e+001
5.294434e+002, 9.387897e+001
5.299255e+002, 9.370779e+001
5.304076e+002, 9.246889e+001
5.308897e+002, 9.141682e+001
5.313718e+002, 9.133589e+001
5.318539e+002, 9.160291e+001
5.323361e+002, 9.157824e+001
5.328182e+002, 9.113636e+001
5.333003e+002, 9.062890e+001
5.337824e+002, 9.013879e+001
5.342645e+002, 8.977384e+001
5.347466e+002, 8.983777e+001
5.352288e+002, 9.039541e+001
5.357109e+002, 9.104209e+001
5.361930e+002, 9.151878e+001
5.366751e+002, 9.182215e+001
5.371572e+002, 9.197326e+001
5.376393e+002, 9.192686e+001
5.381215e+002, 9.179975e+001
5.386036e+002, 9.152232e+001
5.390857e+002, 9.122862e+001
5.395678e+002, 9.110916e+001
5.400499e+002, 9.119079e+001
5.405320e+002, 9.133001e+001
5.410142e+002, 9.137785e+001
5.414963e+002, 9.133113e+001
5.419784e+002, 9.129637e+001
5.424604e+002, 9.147410e+001
5.429426e+002, 9.141074e+001
5.434247e+002, 9.065234e+001
5.439068e+002, 8.978149e+001
5.443889e+002, 8.948180e+001
5.448710e+002, 8.992386e+001
5.453531e+002, 9.070135e+001
5.458353e+002, 9.154456e+001
5.463174e+002, 9.241541e+001
5.467995e+002, 9.278722e+001
5.472816e+002, 9.250222e+001
5.477637e+002, 9.199523e+001
5.482458e+002, 9.119145e+001
5.487280e+002, 9.041756e+001
5.492101e+002, 9.031126e+001
5.496922e+002, 9.127634e+001
5.501743e+002, 9.228294e+001
5.506564e+002, 9.278264e+001
5.511385e+002, 9.284445e+001
5.516207e+002, 9.246635e+001
5.521028e+002, 9.163388e+001
5.525849e+002, 9.088950e+001
5.530670e+002, 9.076060e+001
5.535491e+002, 9.125207e+001
5.540313e+002, 9.173009e+001
5.545134e+002, 9.226147e+001
5.549955e+002, 9.270376e+001
5.554776e+002, 9.304261e+001
5.559597e+002, 9.326295e+001
5.564418e+002, 9.328822e+001
5.569240e+002, 9.312557e+001
5.574061e+002, 9.294707e+001
5.578882e+002, 9.292704e+001
5.583703e+002, 9.306288e+001
5.588524e+002, 9.343462e+001
5.593345e+002, 9.435310e+001
5.598167e+002, 9.504731e+001
5.602988e+002, 9.524272e+001
5.607809e+002, 9.510778e+001
5.612630e+002, 9.475260e+001
5.617451e+002, 9.417172e+001
5.622272e+002, 9.373719e+001
5.627094e+002, 9.381870e+001
5.631915e+002, 9.431100e+001
5.636736e+002, 9.492334e+001
5.641557e+002, 9.567044e+001
5.646378e+002, 9.629530e+001
5.651199e+002, 9.656231e+001
5.656021e+002, 9.654896e+001
5.660842e+002, 9.663632e+001
5.665663e+002, 9.678225e+001
5.670484e+002, 9.708698e+001
5.675305e+002, 9.779150e+001
5.680126e+002, 9.857619e+001
5.684948e+002, 9.894241e+001
5.689769e+002, 9.885714e+001
5.694590e+002, 9.880270e+001
5.699411e+002, 9.923315e+001
5.704232e+002, 1.001265e+002
5.709053e+002, 1.010356e+002
5.713875e+002, 1.022500e+002
5.718696e+002, 1.030724e+002
5.723517e+002, 1.031608e+002
5.728338e+002, 1.029796e+002
5.733159e+002, 1.028271e+002
5.737980e+002, 1.028124e+002
5.742802e+002, 1.031213e+002
5.747623e+002, 1.042598e+002
5.752444e+002, 1.059003e+002
5.757265e+002, 1.064647e+002
5.762086e+002, 1.056164e+002
5.766907e+002, 1.051209e+002
5.771729e+002, 1.060708e+002
5.776550e+002, 1.077286e+002
5.781371e+002, 1.087718e+002
5.786192e+002, 1.089518e+002
5.791013e+002, 1.095490e+002
5.795834e+002, 1.116223e+002
5.800656e+002, 1.140239e+002
5.805477e+002, 1.152482e+002
5.810298e+002, 1.153562e+002
5.815119e+002, 1.156729e+002
5.819940e+002, 1.171268e+002
5.824761e+002, 1.192272e+002
5.829583e+002, 1.202905e+002
5.834404e+002, 1.193456e+002
5.839225e+002, 1.188091e+002
5.844046e+002, 1.188942e+002
5.848867e+002, 1.192269e+002
5.853688e+002, 1.197545e+002
5.858510e+002, 1.203202e+002
5.863331e+002, 1.205763e+002
5.868152e+002, 1.202503e+002
5.872973e+002, 1.195829e+002
5.877794e+002, 1.190462e+002
5.882615e+002, 1.186048e+002
5.887437e+002, 1.185877e+002
5.892258e+002, 1.194769e+002
5.897079e+002, 1.203705e+002
5.901900e+002, 1.202975e+002
5.906721e+002, 1.194153e+002
5.911542e+002, 1.187361e+002
5.916364e+002, 1.187476e+002
5.921185e+002, 1.189312e+002
5.926006e+002, 1.188652e+002
5.930827e+002, 1.186105e+002
5.935648e+002, 1.183477e+002
5.940469e+002, 1.181382e+002
5.945291e+002, 1.180002e+002
5.950112e+002, 1.179828e+002
5.954933e+002, 1.181554e+002
5.959754e+002, 1.181297e+002
5.964575e+002, 1.178031e+002
5.969396e+002, 1.174264e+002
5.974218e+002, 1.169898e+002
5.979039e+002, 1.165933e+002
5.983860e+002, 1.164394e+002
5.988681e+002, 1.165827e+002
5.993502e+002, 1.166953e+002
5.998323e+002, 1.162297e+002
6.003145e+002, 1.152201e+002
6.007966e+002, 1.147709e+002
6.012787e+002, 1.152472e+002
6.017608e+002, 1.156034e+002
6.022429e+002, 1.148900e+002
6.027250e+002, 1.137815e+002
6.032072e+002, 1.133683e+002
6.036893e+002, 1.139758e+002
6.041714e+002, 1.146817e+002
6.046535e+002, 1.150075e+002
6.051356e+002, 1.151517e+002
6.056177e+002, 1.153394e+002
6.060999e+002, 1.156193e+002
6.065820e+002, 1.161139e+002
6.070641e+002, 1.169569e+002
6.075462e+002, 1.180326e+002
6.080283e+002, 1.188205e+002
6.085104e+002, 1.190142e+002
6.089926e+002, 1.193470e+002
6.094747e+002, 1.200591e+002
6.099568e+002, 1.207432e+002
6.104389e+002, 1.210479e+002
6.109210e+002, 1.210461e+002
6.114031e+002, 1.210644e+002
6.118853e+002, 1.212907e+002
6.123674e+002, 1.216943e+002
6.128495e+002, 1.222924e+002
6.133316e+002, 1.231223e+002
6.138137e+002, 1.237333e+002
6.142958e+002, 1.239620e+002
6.147780e+002, 1.240090e+002
6.152601e+002, 1.240476e+002
6.157422e+002, 1.240778e+002
6.162243e+002, 1.240937e+002
6.167064e+002, 1.237790e+002
6.171885e+002, 1.237594e+002
6.176707e+002, 1.246134e+002
6.181528e+002, 1.260222e+002
6.186349e+002, 1.274254e+002
6.191170e+002, 1.286411e+002
6.195991e+002, 1.295915e+002
6.200812e+002, 1.301409e+002
6.205634e+002, 1.302544e+002
6.210455e+002, 1.305231e+002
6.215276e+002, 1.309813e+002
6.220097e+002, 1.315670e+002
6.224918e+002, 1.322102e+002
6.229739e+002, 1.330018e+002
6.234561e+002, 1.340316e+002
6.239382e+002, 1.353129e+002
6.244203e+002, 1.368086e+002
6.249023e+002, 1.386105e+002
6.253845e+002, 1.405811e+002
6.258666e+002, 1.423149e+002
6.263487e+002, 1.437878e+002
6.268308e+002, 1.452287e+002
6.273129e+002, 1.466690e+002
6.277950e+002, 1.482160e+002
6.282772e+002, 1.501891e+002
6.287593e+002, 1.527076e+002
6.292414e+002, 1.549764e+002
6.297235e+002, 1.569953e+002
6.302056e+002, 1.586343e+002
6.306877e+002, 1.595914e+002
6.311699e+002, 1.601192e+002
6.316520e+002, 1.608211e+002
6.321341e+002, 1.619709e+002
6.326162e+002, 1.632764e+002
6.330983e+002, 1.642967e+002
6.335804e+002, 1.650681e+002
6.340626e+002, 1.653712e+002
6.345447e+002, 1.649691e+002
6.350268e+002, 1.643858e+002
6.355089e+002, 1.638371e+002
6.359910e+002, 1.632796e+002
6.364731e+002, 1.626748e+002
6.369553e+002, 1.620479e+002
6.374374e+002, 1.612251e+002
6.379195e+002, 1.597827e+002
6.384016e+002, 1.581567e+002
6.388837e+002, 1.572643e+002
6.393658e+002, 1.571902e+002
6.398480e+002, 1.572107e+002
6.403301e+002, 1.568811e+002
6.408122e+002, 1.562706e+002
6.412943e+002, 1.556053e+002
6.417764e+002, 1.549019e+002
6.422585e+002, 1.541115e+002
6.427407e+002, 1.529127e+002
6.432228e+002, 1.519126e+002
6.437049e+002, 1.516672e+002
6.441870e+002, 1.519389e+002
6.446691e+002, 1.520900e+002
6.451512e+002, 1.517902e+002
6.456334e+002, 1.512056e+002
6.461155e+002, 1.506725e+002
6.465976e+002, 1.501874e+002
6.470797e+002, 1.491603e+002
6.475618e+002, 1.472384e+002
6.480439e+002, 1.453373e+002
6.485261e+002, 1.442817e+002
6.490082e+002, 1.438115e+002
6.494903e+002, 1.431554e+002
6.499724e+002, 1.422979e+002
6.504545e+002, 1.411842e+002
6.509366e+002, 1.395643e+002
6.514188e+002, 1.378033e+002
6.519009e+002, 1.363136e+002
6.523830e+002, 1.351534e+002
6.528651e+002, 1.342769e+002
6.533472e+002, 1.337178e+002
6.538293e+002, 1.332697e+002
6.543115e+002, 1.320431e+002
6.547936e+002, 1.294993e+002
6.552757e+002, 1.274928e+002
6.557578e+002, 1.266328e+002
6.562399e+002, 1.260812e+002
6.567220e+002, 1.255802e+002
6.572042e+002, 1.250245e+002
6.576863e+002, 1.241604e+002
6.581684e+002, 1.226515e+002
6.586505e+002, 1.211813e+002
6.591326e+002, 1.204944e+002
6.596147e+002, 1.203615e+002
6.600969e+002, 1.202008e+002
6.605790e+002, 1.198952e+002
6.610611e+002, 1.193282e+002
6.615432e+002, 1.183069e+002
6.620253e+002, 1.169078e+002
6.625074e+002, 1.159780e+002
6.629896e+002, 1.160286e+002
6.634717e+002, 1.158784e+002
6.639538e+002, 1.153476e+002
6.644359e+002, 1.146400e+002
6.649180e+002, 1.138173e+002
6.654001e+002, 1.129595e+002
6.658823e+002, 1.122419e+002
6.663644e+002, 1.117817e+002
6.668465e+002, 1.115013e+002
6.673286e+002, 1.113071e+002
6.678107e+002, 1.111939e+002
6.682928e+002, 1.109931e+002
6.687750e+002, 1.107009e+002
6.692571e+002, 1.102314e+002
6.697392e+002, 1.094440e+002
6.702213e+002, 1.083672e+002
6.707034e+002, 1.073858e+002
6.711855e+002, 1.065768e+002
6.716677e+002, 1.057758e+002
6.721498e+002, 1.049506e+002
6.726319e+002, 1.041036e+002
6.731140e+002, 1.031710e+002
6.735961e+002, 1.021936e+002
6.740782e+002, 1.013472e+002
6.745604e+002, 1.007604e+002
6.750425e+002, 1.004038e+002
6.755246e+002, 1.003024e+002
6.760067e+002, 1.006458e+002
6.764888e+002, 1.003607e+002
6.769709e+002, 9.873788e+001
6.774531e+002, 9.698197e+001
6.779352e+002, 9.599121e+001
6.784173e+002, 9.565097e+001
6.788994e+002, 9.559319e+001
6.793815e+002, 9.597211e+001
6.798636e+002, 9.630962e+001
6.803458e+002, 9.628976e+001
6.808279e+002, 9.606065e+001
6.813100e+002, 9.575113e+001
6.817921e+002, 9.543504e+001
6.822742e+002, 9.541431e+001
6.827563e+002, 9.602345e+001
6.832385e+002, 9.702807e+001
6.837206e+002, 9.722321e+001
6.842027e+002, 9.616814e+001
6.846848e+002, 9.526643e+001
6.851669e+002, 9.461156e+001
6.856490e+002, 9.424753e+001
6.861312e+002, 9.424749e+001
6.866133e+002, 9.456821e+001
6.870954e+002, 9.511986e+001
6.875775e+002, 9.602464e+001
6.880596e+002, 9.687131e+001
6.885417e+002, 9.714906e+001
6.890239e+002, 9.711119e+001
6.895060e+002, 9.733604e+001
6.899881e+002, 9.793077e+001
6.904702e+002, 9.875825e+001
6.909523e+002, 9.978709e+001
6.914344e+002, 1.009084e+002
6.919166e+002, 1.015615e+002
6.923987e+002, 1.010845e+002
6.928808e+002, 1.012093e+002
6.933629e+002, 1.026222e+002
6.938450e+002, 1.040635e+002
6.943271e+002, 1.046459e+002
6.948093e+002, 1.046309e+002
6.952914e+002, 1.048361e+002
6.957735e+002, 1.056819e+002
6.962556e+002, 1.066726e+002
6.967377e+002, 1.071815e+002
6.972198e+002, 1.073690e+002
6.977020e+002, 1.079211e+002
6.981841e+002, 1.089736e+002
6.986662e+002, 1.097843e+002
6.991483e+002, 1.096776e+002
6.996304e+002, 1.090223e+002
7.001125e+002, 1.092353e+002
7.005947e+002, 1.113698e+002
7.010768e+002, 1.127593e+002
7.015589e+002, 1.129158e+002
7.020410e+002, 1.127441e+002
7.025231e+002, 1.126693e+002
7.030052e+002, 1.127251e+002
7.034874e+002, 1.128409e+002
7.039695e+002, 1.129819e+002
7.044516e+002, 1.132153e+002
7.049337e+002, 1.137967e+002
7.054158e+002, 1.145809e+002
7.058979e+002, 1.148031e+002
7.063801e+002, 1.143394e+002
7.068622e+002, 1.136422e+002
7.073442e+002, 1.128289e+002
7.078264e+002, 1.120610e+002
7.083085e+002, 1.118177e+002
7.087906e+002, 1.124608e+002
7.092727e+002, 1.126724e+002
7.097548e+002, 1.120062e+002
7.102369e+002, 1.112345e+002
7.107191e+002, 1.109943e+002
7.112012e+002, 1.109283e+002
7.116833e+002, 1.102191e+002
7.121654e+002, 1.085865e+002
7.126475e+002, 1.068939e+002
7.131296e+002, 1.063002e+002
7.136118e+002, 1.065666e+002
7.140939e+002, 1.063275e+002
7.145760e+002, 1.054933e+002
7.150581e+002, 1.044676e+002
7.155402e+002, 1.032922e+002
7.160223e+002, 1.021814e+002
7.165045e+002, 1.015915e+002
7.169866e+002, 1.016519e+002
7.174687e+002, 1.014118e+002
7.179508e+002, 1.005041e+002
7.184329e+002, 9.958829e+001
7.189150e+002, 9.891954e+001
7.193972e+002, 9.848067e+001
7.198793e+002, 9.827215e+001
7.203614e+002, 9.826595e+001
7.208435e+002, 9.829450e+001
7.213256e+002, 9.823153e+001
7.218077e+002, 9.806168e+001
7.222899e+002, 9.769649e+001
7.227720e+002, 9.710950e+001
7.232541e+002, 9.652479e+001
7.237362e+002, 9.601804e+001
7.242183e+002, 9.553767e+001
7.247004e+002, 9.505291e+001
7.251826e+002, 9.455821e+001
7.256647e+002, 9.396387e+001
7.261468e+002, 9.319707e+001
7.266289e+002, 9.240874e+001
7.271110e+002, 9.140763e+001
7.275931e+002, 9.055708e+001
7.280753e+002, 9.046291e+001
7.285574e+002, 9.104000e+001
7.290395e+002, 9.151823e+001
7.295216e+002, 9.133543e+001
7.300037e+002, 9.068656e+001
7.304858e+002, 8.993344e+001
7.309680e+002, 8.906878e+001
7.314501e+002, 8.836508e+001
7.319322e+002, 8.790240e+001
7.324143e+002, 8.754366e+001
7.328964e+002, 8.716131e+001
7.333785e+002, 8.678930e+001
7.338607e+002, 8.658409e+001
7.343428e+002, 8.666902e+001
7.348249e+002, 8.672915e+001
7.353070e+002, 8.663267e+001
7.357891e+002, 8.654171e+001
7.362712e+002, 8.669634e+001
7.367534e+002, 8.697361e+001
7.372355e+002, 8.695163e+001
7.377176e+002, 8.638772e+001
7.381997e+002, 8.576321e+001
7.386818e+002, 8.590991e+001
7.391639e+002, 8.672655e+001
7.396461e+002, 8.718533e+001
7.401282e+002, 8.712003e+001
7.406103e+002, 8.710055e+001
7.410924e+002, 8.752962e+001
7.415745e+002, 8.814342e+001
7.420566e+002, 8.829018e+001
7.425388e+002, 8.774629e+001
7.430209e+002, 8.754704e+001
7.435030e+002, 8.822536e+001
7.439851e+002, 8.880035e+001
7.444672e+002, 8.860751e+001
7.449493e+002, 8.802625e+001
7.454315e+002, 8.764566e+001
7.459136e+002, 8.764012e+001
7.463957e+002, 8.783320e+001
7.468778e+002, 8.814940e+001
7.473599e+002, 8.851595e+001
7.478420e+002, 8.870011e+001
7.483242e+002, 8.869925e+001
7.488063e+002, 8.860056e+001
7.492884e+002, 8.839745e+001
7.497705e+002, 8.819428e+001
7.502526e+002, 8.811905e+001
7.507347e+002, 8.818031e+001
7.512169e+002, 8.822277e+001
7.516990e+002, 8.829518e+001
7.521811e+002, 8.828742e+001
7.526632e+002, 8.812199e+001
7.531453e+002, 8.790489e+001
7.536274e+002, 8.771400e+001
7.541096e+002, 8.756445e+001
7.545917e+002, 8.745222e+001
7.550738e+002, 8.738123e+001
7.555559e+002, 8.733286e+001
7.560380e+002, 8.727010e+001
7.565201e+002, 8.720521e+001
7.570023e+002, 8.724390e+001
7.574844e+002, 8.741862e+001
7.579665e+002, 8.740505e+001
7.584486e+002, 8.684841e+001
7.589307e+002, 8.605219e+001
7.594128e+002, 8.607336e+001
7.598950e+002, 8.785001e+001
7.603771e+002, 8.872964e+001
7.608592e+002, 8.812328e+001
7.613413e+002, 8.730238e+001
7.618234e+002, 8.691658e+001
7.623055e+002, 8.669738e+001
7.627877e+002, 8.605811e+001
7.632698e+002, 8.481582e+001
7.637519e+002, 8.373976e+001
7.642340e+002, 8.352329e+001
7.647161e+002, 8.376845e+001
7.651982e+002, 8.392828e+001
7.656804e+002, 8.397065e+001
7.661625e+002, 8.383901e+001
7.666446e+002, 8.349483e+001
7.671267e+002, 8.319434e+001
7.676088e+002, 8.332495e+001
7.680909e+002, 8.391832e+001
7.685731e+002, 8.413293e+001
7.690552e+002, 8.378733e+001
7.695373e+002, 8.335387e+001
7.700194e+002, 8.271074e+001
7.705015e+002, 8.219762e+001
7.709836e+002, 8.228271e+001
7.714658e+002, 8.281047e+001
7.719479e+002, 8.295190e+001
7.724300e+002, 8.212129e+001
7.729121e+002, 8.122153e+001
7.733942e+002, 8.089294e+001
7.738763e+002, 8.089803e+001
7.743585e+002, 8.095230e+001
7.748406e+002, 8.097041e+001
7.753227e+002, 8.053271e+001
7.758048e+002, 7.915371e+001
7.762869e+002, 7.815757e+001
7.767690e+002, 8.189800e+001
7.772512e+002, 9.193544e+001
7.777333e+002, 9.588371e+001
7.782154e+002, 9.015628e+001
7.786975e+002, 8.343690e+001
7.791796e+002, 7.990432e+001
7.796617e+002, 7.854674e+001
7.801439e+002, 7.782280e+001
7.806260e+002, 7.776899e+001
7.811081e+002, 7.790288e+001
7.815902e+002, 7.838463e+001
7.820723e+002, 7.874068e+001
7.825544e+002, 7.858027e+001
7.830366e+002, 7.811379e+001
7.835187e+002, 7.767329e+001
7.840008e+002, 7.736150e+001
7.844829e+002, 7.714603e+001
7.849650e+002, 7.702791e+001
7.854471e+002, 7.696399e+001
7.859293e+002, 7.679749e+001
7.864114e+002, 7.652605e+001
7.868935e+002, 7.637760e+001
7.873756e+002, 7.645729e+001
7.878577e+002, 7.651112e+001
7.883398e+002, 7.620419e+001
7.888220e+002, 7.563113e+001
7.893040e+002, 7.560842e+001
7.897861e+002, 7.691900e+001
7.902682e+002, 7.762856e+001
7.907504e+002, 7.719322e+001
7.912325e+002, 7.648772e+001
7.917146e+002, 7.591026e+001
7.921967e+002, 7.554300e+001
7.926788e+002, 7.547710e+001
7.931609e+002, 7.577867e+001
7.936431e+002, 7.609702e+001
7.941252e+002, 7.607043e+001
7.946073e+002, 7.587339e+001
7.950894e+002, 7.597226e+001
7.955715e+002, 7.628945e+001
7.960536e+002, 7.602888e+001
7.965358e+002, 7.480315e+001
7.970179e+002, 7.348173e+001
7.975000e+002, 7.333292e+001
7.979821e+002, 7.442094e+001
7.984642e+002, 7.510351e+001
7.989464e+002, 7.521671e+001
7.994285e+002, 7.522542e+001
7.999106e+002, 7.513545e+001
8.003927e+002, 7.506531e+001
8.008748e+002, 7.512986e+001
8.013569e+002, 7.530261e+001
8.018391e+002, 7.544572e+001
8.023212e+002, 7.556097e+001
8.028033e+002, 7.558576e+001
8.032854e+002, 7.536812e+001
8.037675e+002, 7.511723e+001
8.042496e+002, 7.514922e+001
8.047318e+002, 7.540193e+001
8.052139e+002, 7.554847e+001
8.056960e+002, 7.540866e+001
8.061781e+002, 7.512046e+001
8.066602e+002, 7.482381e+001
8.071423e+002, 7.453794e+001
8.076245e+002, 7.462898e+001
8.081066e+002, 7.521651e+001
8.085887e+002, 7.564137e+001
8.090708e+002, 7.559970e+001
8.095529e+002, 7.525638e+001
8.100350e+002, 7.476199e+001
8.105172e+002, 7.402848e+001
8.109993e+002, 7.378068e+001
8.114814e+002, 7.439726e+001
8.119635e+002, 7.500930e+001
8.124456e+002, 7.548532e+001
8.129277e+002, 7.577689e+001
8.134099e+002, 7.576180e+001
8.138920e+002, 7.550682e+001
8.143741e+002, 7.526791e+001
8.148562e+002, 7.514693e+001
8.153383e+002, 7.514512e+001
8.158204e+002, 7.539041e+001
8.163026e+002, 7.572521e+001
8.167847e+002, 7.572869e+001
8.172668e+002, 7.539514e+001
8.177489e+002, 7.512498e+001
8.182310e+002, 7.514713e+001
8.187131e+002, 7.535990e+001
8.191953e+002, 7.558651e+001
8.196774e+002, 7.584010e+001
8.201595e+002, 7.605874e+001
8.206416e+002, 7.645238e+001
8.211237e+002, 7.639774e+001
8.216058e+002, 7.501500e+001
8.220880e+002, 7.352705e+001
8.225701e+002, 7.347628e+001
8.230522e+002, 7.481753e+001
8.235343e+002, 7.581695e+001
8.240164e+002, 7.589689e+001
8.244985e+002, 7.584962e+001
8.249807e+002, 7.614787e+001
8.254628e+002, 7.641789e+001
8.259449e+002, 7.602701e+001
8.264270e+002, 7.515099e+001
8.269091e+002, 7.468890e+001
8.273912e+002, 7.521822e+001
8.278734e+002, 7.601836e+001
8.283555e+002, 7.594131e+001
8.288376e+002, 7.523991e+001
8.293197e+002, 7.498293e+001
8.298018e+002, 7.526570e+001
8.302839e+002, 7.581406e+001
8.307661e+002, 7.661450e+001
8.312482e+002, 7.722961e+001
8.317303e+002, 7.682130e+001
8.322124e+002, 7.514448e+001
8.326945e+002, 7.425611e+001
8.331766e+002, 7.473324e+001
8.336588e+002, 7.518649e+001
8.341409e+002, 7.532498e+001
8.346230e+002, 7.530408e+001
8.351051e+002, 7.518278e+001
8.355872e+002, 7.500407e+001
8.360693e+002, 7.492365e+001
8.365515e+002, 7.506799e+001
8.370336e+002, 7.519273e+001
8.375157e+002, 7.516824e+001
8.379978e+002, 7.505080e+001
8.384799e+002, 7.483672e+001
8.389620e+002, 7.459014e+001
8.394442e+002, 7.449942e+001
8.399263e+002, 7.465474e+001
8.404084e+002, 7.486774e+001
8.408905e+002, 7.483504e+001
8.413726e+002, 7.461919e+001
8.418547e+002, 7.458352e+001
8.423369e+002, 7.473881e+001
8.428190e+002, 7.503142e+001
8.433011e+002, 7.551791e+001
8.437832e+002, 7.590663e+001
8.442653e+002, 7.579302e+001
8.447474e+002, 7.519514e+001
8.452296e+002, 7.491228e+001
8.457117e+002, 7.522444e+001
8.461938e+002, 7.544585e+001
8.466759e+002, 7.544819e+001
8.471580e+002, 7.540976e+001
8.476401e+002, 7.551264e+001
8.481223e+002, 7.564909e+001
8.486044e+002, 7.549715e+001
8.490865e+002, 7.485551e+001
8.495686e+002, 7.446400e+001
8.500507e+002, 7.501598e+001
8.505328e+002, 7.577691e+001
8.510150e+002, 7.597316e+001
8.514971e+002, 7.576356e+001
8.519792e+002, 7.562945e+001
8.524613e+002, 7.571278e+001
8.529434e+002, 7.579128e+001
8.534255e+002, 7.559387e+001
8.539077e+002, 7.527123e+001
8.543898e+002, 7.537987e+001
8.548719e+002, 7.591942e+001
8.553540e+002, 7.624119e+001
8.558361e+002, 7.618398e+001
8.563182e+002, 7.602684e+001
8.568004e+002, 7.596593e+001
8.572825e+002, 7.597041e+001
8.577646e+002, 7.594044e+001
8.582467e+002, 7.585166e+001
8.587288e+002, 7.578041e+001
8.592109e+002, 7.579775e+001
8.596931e+002, 7.574902e+001
8.601752e+002, 7.553329e+001
8.606573e+002, 7.524785e+001
8.611394e+002, 7.496986e+001
8.616215e+002, 7.471940e+001
8.621036e+002, 7.461024e+001
8.625858e+002, 7.477825e+001
8.630679e+002, 7.500468e+001
8.635500e+002, 7.518124e+001
8.640321e+002, 7.530174e+001
8.645142e+002, 7.522831e+001
8.649963e+002, 7.506155e+001
8.654785e+002, 7.508817e+001
8.659606e+002, 7.541201e+001
8.664427e+002, 7.647574e+001
8.669248e+002, 7.929949e+001
8.674069e+002, 8.353465e+001
8.678890e+002, 8.824250e+001
8.683712e+002, 9.347408e+001
8.688533e+002, 9.444083e+001
8.693354e+002, 8.833249e+001
8.698175e+002, 7.992980e+001
8.702996e+002, 7.559658e+001
8.707817e+002, 7.535497e+001
8.712639e+002, 7.526538e+001
8.717459e+002, 7.545116e+001
8.722280e+002, 7.557155e+001
8.727101e+002, 7.553515e+001
8.731923e+002, 7.545041e+001
8.736744e+002, 7.541534e+001
8.741565e+002, 7.537720e+001
8.746386e+002, 7.516984e+001
8.751207e+002, 7.466280e+001
8.756028e+002, 7.431185e+001
8.760850e+002, 7.441264e+001
8.765671e+002, 7.459628e+001
8.770492e+002, 7.456568e+001
8.775313e+002, 7.443367e+001
8.780134e+002, 7.445047e+001
8.784955e+002, 7.465187e+001
8.789777e+002, 7.481921e+001
8.794598e+002, 7.478237e+001
8.799419e+002, 7.461308e+001
8.804240e+002, 7.421439e+001
8.809061e+002, 7.377518e+001
8.813882e+002, 7.405461e+001
8.818704e+002, 7.514854e+001
8.823525e+002, 7.646828e+001
8.828346e+002, 7.758369e+001
8.833167e+002, 7.895953e+001
8.837988e+002, 8.226108e+001
8.842809e+002, 8.838090e+001
8.847631e+002, 8.923219e+001
8.852452e+002, 8.232460e+001
8.857273e+002, 7.626918e+001
8.862094e+002, 7.413548e+001
8.866915e+002, 7.403239e+001
8.871736e+002, 7.421632e+001
8.876558e+002, 7.465578e+001
8.881379e+002, 7.486761e+001
8.886200e+002, 7.473743e+001
8.891021e+002, 7.452140e+001
8.895842e+002, 7.421388e+001
8.900663e+002, 7.387996e+001
8.905485e+002, 7.340806e+001
8.910306e+002, 7.298825e+001
8.915127e+002, 7.298843e+001
8.919948e+002, 7.351698e+001
8.924769e+002, 7.425780e+001
8.929590e+002, 7.536470e+001
8.934412e+002, 7.628696e+001
8.939233e+002, 7.356461e+001
8.944054e+002, 7.097439e+001
8.948875e+002, 7.926492e+001
8.953696e+002, 9.854802e+001
8.958517e+002, 1.151902e+002
8.963339e+002, 1.190435e+002
8.968160e+002, 1.139046e+002
8.972981e+002, 1.054733e+002
8.977802e+002, 9.429358e+001
8.982623e+002, 8.538308e+001
8.987444e+002, 7.920938e+001
8.992266e+002, 7.560963e+001
8.997087e+002, 7.492074e+001
9.001908e+002, 7.557139e+001
9.006729e+002, 7.522727e+001
9.011550e+002, 7.382433e+001
9.016371e+002, 7.286478e+001
9.021193e+002, 7.243923e+001
9.026014e+002, 7.228671e+001
9.030835e+002, 7.255913e+001
9.035656e+002, 7.289776e+001
9.040477e+002, 7.298911e+001
9.045298e+002, 7.296565e+001
9.050120e+002, 7.321120e+001
9.054941e+002, 7.394150e+001
9.059762e+002, 7.443534e+001
9.064583e+002, 7.449678e+001
9.069404e+002, 7.429511e+001
9.074225e+002, 7.360775e+001
9.079047e+002, 7.288911e+001
9.083868e+002, 7.283614e+001
9.088689e+002, 7.346924e+001
9.093510e+002, 7.410629e+001
9.098331e+002, 7.443040e+001
9.103152e+002, 7.445322e+001
9.107974e+002, 7.397262e+001
9.112795e+002, 7.328718e+001
9.117616e+002, 7.293812e+001
9.122437e+002, 7.295518e+001
9.127258e+002, 7.314261e+001
9.132079e+002, 7.340806e+001
9.136901e+002, 7.373958e+001
9.141722e+002, 7.417734e+001
9.146543e+002, 7.467095e+001
9.151364e+002, 7.493346e+001
9.156185e+002, 7.495982e+001
9.161006e+002, 7.486232e+001
9.165828e+002, 7.463638e+001
9.170649e+002, 7.443992e+001
9.175470e+002, 7.440481e+001
9.180291e+002, 7.449988e+001
9.185112e+002, 7.463082e+001
9.189933e+002, 7.491228e+001
9.194755e+002, 7.493115e+001
9.199576e+002, 7.451854e+001
9.204397e+002, 7.408647e+001
9.209218e+002, 7.377623e+001
9.214039e+002, 7.354118e+001
9.218860e+002, 7.329361e+001
9.223682e+002, 7.304333e+001
9.228503e+002, 7.301383e+001
9.233324e+002, 7.349458e+001
9.238145e+002, 7.384940e+001
9.242966e+002, 7.365829e+001
9.247787e+002, 7.349094e+001
9.252609e+002, 7.396439e+001
9.257430e+002, 7.477235e+001
9.262251e+002, 7.522935e+001
9.267072e+002, 7.513100e+001
9.271893e+002, 7.481412e+001
9.276714e+002, 7.429734e+001
9.281536e+002, 7.384923e+001
9.286357e+002, 7.376043e+001
9.291178e+002, 7.393662e+001
9.295999e+002, 7.431319e+001
9.300820e+002, 7.478381e+001
9.305641e+002, 7.493312e+001
9.310463e+002, 7.444669e+001
9.315284e+002, 7.380007e+001
9.320105e+002, 7.384014e+001
9.324926e+002, 7.437432e+001
9.329747e+002, 7.455566e+001
9.334568e+002, 7.436328e+001
9.339390e+002, 7.428114e+001
9.344211e+002, 7.449912e+001
9.349032e+002, 7.478074e+001
9.353853e+002, 7.488844e+001
9.358674e+002, 7.482200e+001
9.363495e+002, 7.447334e+001
9.368317e+002, 7.363338e+001
9.373138e+002, 7.353214e+001
9.377959e+002, 7.476160e+001
9.382780e+002, 7.571896e+001
9.387601e+002, 7.537639e+001
9.392422e+002, 7.434226e+001
9.397244e+002, 7.363612e+001
9.402065e+002, 7.325001e+001
9.406886e+002, 7.324247e+001
9.411707e+002, 7.392998e+001
9.416528e+002, 7.454711e+001
9.421349e+002, 7.512081e+001
9.426171e+002, 7.542246e+001
9.430992e+002, 7.502793e+001
9.435813e+002, 7.426192e+001
9.440634e+002, 7.399444e+001
9.445455e+002, 7.453984e+001
9.450276e+002, 7.502163e+001
9.455098e+002, 7.528259e+001
9.459919e+002, 7.522117e+001
9.464740e+002, 7.436784e+001
9.469561e+002, 7.337441e+001
9.474382e+002, 7.322253e+001
9.479203e+002, 7.390172e+001
9.484025e+002, 7.454255e+001
9.488846e+002, 7.466682e+001
9.493667e+002, 7.463245e+001
9.498488e+002, 7.490903e+001
9.503309e+002, 7.517642e+001
9.508130e+002, 7.469705e+001
9.512952e+002, 7.374382e+001
9.517773e+002, 7.336851e+001
9.522594e+002, 7.389344e+001
9.527415e+002, 7.464597e+001
9.532236e+002, 7.506046e+001
9.537057e+002, 7.514761e+001
9.541878e+002, 7.472942e+001
9.546699e+002, 7.394083e+001
9.551520e+002, 7.377636e+001
9.556342e+002, 7.437307e+001
9.561163e+002, 7.496504e+001
9.565984e+002, 7.514899e+001
9.570805e+002, 7.507191e+001
9.575626e+002, 7.494503e+001
9.580447e+002, 7.476926e+001
9.585269e+002, 7.462365e+001
9.590090e+002, 7.450087e+001
9.594911e+002, 7.444785e+001
9.599732e+002, 7.450320e+001
9.604553e+002, 7.456924e+001
9.609374e+002, 7.459315e+001
9.614196e+002, 7.455911e+001
9.619017e+002, 7.439108e+001
9.623838e+002, 7.392393e+001
9.628659e+002, 7.383935e+001
9.633480e+002, 7.468406e+001
9.638301e+002, 7.516573e+001
9.643123e+002, 7.452943e+001
9.647944e+002, 7.373458e+001
9.652765e+002, 7.365785e+001
9.657586e+002, 7.416446e+001
9.662407e+002, 7.454788e+001
9.667228e+002, 7.471167e+001
9.672050e+002, 7.476989e+001
9.676871e+002, 7.468314e+001
9.681692e+002, 7.456613e+001
9.686513e+002, 7.442569e+001
9.691334e+002, 7.432912e+001
9.696155e+002, 7.433409e+001
9.700977e+002, 7.446022e+001
9.705798e+002, 7.477206e+001
9.710619e+002, 7.554887e+001
9.715440e+002, 7.611076e+001
9.720261e+002, 7.578116e+001
9.725082e+002, 7.521545e+001
9.729904e+002, 7.515430e+001
9.734725e+002, 7.544032e+001
9.739546e+002, 7.561123e+001
9.744367e+002, 7.551751e+001
9.749188e+002, 7.522299e+001
9.754009e+002, 7.452682e+001
9.758831e+002, 7.393514e+001
9.763652e+002, 7.444048e+001
9.768473e+002, 7.546410e+001
9.773294e+002, 7.565889e+001
9.778115e+002, 7.502487e+001
9.782936e+002, 7.448435e+001
9.787758e+002, 7.447352e+001
9.792579e+002, 7.465367e+001
9.797400e+002, 7.459795e+001
9.802221e+002, 7.439561e+001
9.807042e+002, 7.436240e+001
9.811863e+002, 7.447670e+001
9.816685e+002, 7.455842e+001
9.821506e+002, 7.457224e+001
9.826327e+002, 7.457903e+001
9.831148e+002, 7.461533e+001
9.835969e+002, 7.468642e+001
9.840790e+002, 7.487462e+001
9.845612e+002, 7.518427e+001
9.850433e+002, 7.490932e+001
9.855254e+002, 7.388185e+001
9.860075e+002, 7.330998e+001
9.864896e+002, 7.360328e+001
9.869717e+002, 7.413148e+001
9.874539e+002, 7.442982e+001
9.879360e+002, 7.452713e+001
9.884181e+002, 7.447355e+001
9.889002e+002, 7.411733e+001
9.893823e+002, 7.420154e+001
9.898644e+002, 7.518945e+001
9.903466e+002, 7.569136e+001
9.908287e+002, 7.483755e+001
9.913108e+002, 7.381463e+001
9.917929e+002, 7.392796e+001
9.922750e+002, 7.492294e+001
9.927571e+002, 7.526460e+001
9.932393e+002, 7.432159e+001
9.937214e+002, 7.386561e+001
9.942035e+002, 7.430302e+001
9.946856e+002, 7.477335e+001
9.951677e+002, 7.498764e+001
9.956498e+002, 7.504169e+001
9.961320e+002, 7.494967e+001
9.966141e+002, 7.476640e+001
9.970962e+002, 7.483193e+001
9.975783e+002, 7.558908e+001
9.980604e+002, 7.596493e+001
9.985425e+002, 7.520806e+001
9.990247e+002, 7.449167e+001
9.995068e+002, 7.473074e+001
9.999889e+002, 7.538447e+001
1.000471e+003, 7.559583e+001
1.000953e+003, 7.529331e+001
1.001435e+003, 7.509452e+001
1.001917e+003, 7.531950e+001
1.002399e+003, 7.560533e+001
1.002882e+003, 7.578996e+001
1.003364e+003, 7.591450e+001
1.003846e+003, 7.599570e+001
1.004328e+003, 7.605591e+001
1.004810e+003, 7.619630e+001
1.005292e+003, 7.640744e+001
1.005774e+003, 7.637503e+001
1.006256e+003, 7.561239e+001
1.006739e+003, 7.491310e+001
1.007221e+003, 7.519357e+001
1.007703e+003, 7.589754e+001
1.008185e+003, 7.639993e+001
1.008667e+003, 7.657590e+001
1.009149e+003, 7.627023e+001
1.009631e+003, 7.546822e+001
1.010113e+003, 7.460909e+001
1.010595e+003, 7.392265e+001
1.011078e+003, 7.357966e+001
1.011560e+003, 7.410457e+001
1.012042e+003, 7.510045e+001
1.012524e+003, 7.565636e+001
1.013006e+003, 7.571291e+001
1.013488e+003, 7.558137e+001
1.013970e+003, 7.540382e+001
1.014452e+003, 7.525517e+001
1.014935e+003, 7.521490e+001
1.015417e+003, 7.526854e+001
1.015899e+003, 7.538936e+001
1.016381e+003, 7.557288e+001
1.016863e+003, 7.589378e+001
1.017345e+003, 7.632076e+001
1.017827e+003, 7.634986e+001
1.018309e+003, 7.569846e+001
1.018791e+003, 7.495275e+001
1.019274e+003, 7.496396e+001
1.019756e+003, 7.556711e+001
1.020238e+003, 7.606582e+001
1.020720e+003, 7.644601e+001
1.021202e+003, 7.623349e+001
1.021684e+003, 7.530936e+001
1.022166e+003, 7.447691e+001
1.022648e+003, 7.419530e+001
1.023130e+003, 7.427039e+001
1.023613e+003, 7.439098e+001
1.024095e+003, 7.456754e+001
1.024577e+003, 7.508818e+001
1.025059e+003, 7.605449e+001
1.025541e+003, 7.640141e+001
1.026023e+003, 7.579493e+001
1.026505e+003, 7.516444e+001
1.026987e+003, 7.508405e+001
1.027469e+003, 7.534054e+001
1.027952e+003, 7.553703e+001
1.028434e+003, 7.566560e+001
1.028916e+003, 7.602609e+001
1.029398e+003, 7.680462e+001
1.029880e+003, 7.711007e+001
1.030362e+003, 7.656117e+001
1.030844e+003, 7.602258e+001
1.031326e+003, 7.608031e+001
1.031809e+003, 7.649955e+001
1.032291e+003, 7.686088e+001
1.032773e+003, 7.721502e+001
1.033255e+003, 7.703434e+001
1.033737e+003, 7.584274e+001
1.034219e+003, 7.517703e+001
1.034701e+003, 7.553066e+001
1.035183e+003, 7.617400e+001
1.035666e+003, 7.678530e+001
1.036148e+003, 7.726409e+001
1.036630e+003, 7.735052e+001
1.037112e+003, 7.694489e+001
1.037594e+003, 7.670621e+001
1.038076e+003, 7.675700e+001
1.038558e+003, 7.677919e+001
1.039040e+003, 7.672556e+001
1.039522e+003, 7.661816e+001
1.040005e+003, 7.637405e+001
1.040487e+003, 7.611472e+001
1.040969e+003, 7.616573e+001
1.041451e+003, 7.665378e+001
1.041933e+003, 7.677940e+001
1.042415e+003, 7.613856e+001
1.042897e+003, 7.568189e+001
1.043379e+003, 7.554713e+001
1.043861e+003, 7.568552e+001
1.044344e+003, 7.630760e+001
1.044826e+003, 7.710154e+001
1.045308e+003, 7.743460e+001
1.045790e+003, 7.719872e+001
1.046272e+003, 7.699565e+001
1.046754e+003, 7.701670e+001
1.047236e+003, 7.690293e+001
1.047718e+003, 7.608550e+001
1.048201e+003, 7.557778e+001
1.048683e+003, 7.660786e+001
1.049165e+003, 7.824785e+001
1.049647e+003, 7.857567e+001
1.050129e+003, 7.723098e+001
1.050611e+003, 7.637029e+001
1.051093e+003, 7.677477e+001
1.051575e+003, 7.721684e+001
1.052057e+003, 7.740189e+001
1.052540e+003, 7.743127e+001
1.053022e+003, 7.732937e+001
1.053504e+003, 7.715104e+001
1.053986e+003, 7.698612e+001
1.054468e+003, 7.684786e+001
1.054950e+003, 7.666207e+001
1.055432e+003, 7.625414e+001
1.055914e+003, 7.600590e+001
1.056396e+003, 7.605579e+001
1.056879e+003, 7.630503e+001
1.057361e+003, 7.683133e+001
1.057843e+003, 7.743890e+001
1.058325e+003, 7.786288e+001
1.058807e+003, 7.805623e+001
1.059289e+003, 7.796291e+001
1.059771e+003, 7.723355e+001
1.060253e+003, 7.666240e+001
1.060736e+003, 7.660847e+001
1.061218e+003, 7.676640e+001
1.061700e+003, 7.707047e+001
1.062182e+003, 7.734360e+001
1.062664e+003, 7.728468e+001
1.063146e+003, 7.687443e+001
1.063628e+003, 7.650684e+001
1.064110e+003, 7.625725e+001
1.064593e+003, 7.616980e+001
1.065075e+003, 7.647807e+001
1.065557e+003, 7.674226e+001
1.066039e+003, 7.644376e+001
1.066521e+003, 7.596523e+001
1.067003e+003, 7.601967e+001
1.067485e+003, 7.663013e+001
1.067967e+003, 7.701714e+001
1.068449e+003, 7.670301e+001
1.068932e+003, 7.644323e+001
1.069414e+003, 7.666045e+001
1.069896e+003, 7.697256e+001
1.070378e+003, 7.710284e+001
1.070860e+003, 7.713679e+001
1.071342e+003, 7.724393e+001
1.071824e+003, 7.742329e+001
1.072306e+003, 7.750884e+001
1.072788e+003, 7.737067e+001
1.073271e+003, 7.728877e+001
1.073753e+003, 7.757139e+001
1.074235e+003, 7.777040e+001
1.074717e+003, 7.740367e+001
1.075199e+003, 7.685326e+001
1.075681e+003, 7.661192e+001
1.076163e+003, 7.671281e+001
1.076645e+003, 7.694051e+001
1.077127e+003, 7.724039e+001
1.077610e+003, 7.759826e+001
1.078092e+003, 7.831831e+001
1.078574e+003, 7.875513e+001
1.079056e+003, 7.816747e+001
1.079538e+003, 7.726436e+001
1.080020e+003, 7.682909e+001
1.080502e+003, 7.690128e+001
1.080984e+003, 7.726188e+001
1.081467e+003, 7.792101e+001
1.081949e+003, 7.847132e+001
1.082431e+003, 7.884651e+001
1.082913e+003, 7.892538e+001
1.083395e+003, 7.826989e+001
1.083877e+003, 7.755928e+001
1.084359e+003, 7.764736e+001
1.084841e+003, 7.829466e+001
1.085323e+003, 7.871860e+001
1.085806e+003, 7.871741e+001
1.086288e+003, 7.845896e+001
1.086770e+003, 7.761456e+001
1.087252e+003, 7.702673e+001
1.087734e+003, 7.732043e+001
1.088216e+003, 7.790462e+001
1.088698e+003, 7.823856e+001
1.089180e+003, 7.840763e+001
1.089662e+003, 7.881762e+001
1.090145e+003, 7.955675e+001
1.090627e+003, 7.978561e+001
1.091109e+003, 7.863380e+001
1.091591e+003, 7.765017e+001
1.092073e+003, 7.751887e+001
1.092555e+003, 7.779038e+001
1.093037e+003, 7.832628e+001
1.093519e+003, 7.891210e+001
1.094002e+003, 7.931020e+001
1.094484e+003, 7.947095e+001
1.094966e+003, 7.931392e+001
1.095448e+003, 7.835549e+001
1.095930e+003, 7.775410e+001
1.096412e+003, 7.822607e+001
1.096894e+003, 7.880901e+001
1.097376e+003, 7.900693e+001
1.097859e+003, 7.887167e+001
1.098341e+003, 7.833711e+001
1.098823e+003, 7.752985e+001
1.099305e+003, 7.715763e+001
1.099787e+003, 7.763174e+001
1.100269e+003, 7.802660e+001
1.100751e+003, 7.812537e+001
1.101233e+003, 7.806587e+001
1.101715e+003, 7.778076e+001
1.102198e+003, 7.747487e+001
1.102680e+003, 7.740926e+001
1.103162e+003, 7.751430e+001
1.103644e+003, 7.744736e+001
1.104126e+003, 7.701635e+001
1.104608e+003, 7.687182e+001
1.105090e+003, 7.740694e+001
1.105572e+003, 7.788396e+001
1.106054e+003, 7.804945e+001
1.106537e+003, 7.805639e+001
1.107019e+003, 7.788399e+001
1.107501e+003, 7.768771e+001
1.107983e+003, 7.791566e+001
1.108465e+003, 7.875829e+001
1.108947e+003, 7.910405e+001
1.109429e+003, 7.809873e+001
1.109911e+003, 7.766798e+001
1.110394e+003, 7.892762e+001
1.110876e+003, 8.009495e+001
1.111358e+003, 7.799296e+001
1.111840e+003, 7.609355e+001
1.112322e+003, 8.225451e+001
1.112804e+003, 9.731075e+001
1.113286e+003, 1.035568e+002
1.113768e+003, 9.472623e+001
1.114250e+003, 8.742336e+001
1.114733e+003, 8.287849e+001
1.115215e+003, 7.983929e+001
1.115697e+003, 7.805315e+001
1.116179e+003, 7.727905e+001
1.116661e+003, 7.752060e+001
1.117143e+003, 7.859749e+001
1.117625e+003, 7.915508e+001
1.118107e+003, 7.892150e+001
1.118589e+003, 7.882076e+001
1.119072e+003, 7.896887e+001
1.119554e+003, 7.903043e+001
1.120036e+003, 7.888368e+001
1.120518e+003, 7.863465e+001
1.121000e+003, 7.831602e+001
1.121482e+003, 7.800365e+001
1.121964e+003, 7.792831e+001
1.122446e+003, 7.811678e+001
1.122929e+003, 7.840826e+001
1.123411e+003, 7.888804e+001
1.123893e+003, 7.917435e+001
1.124375e+003, 7.916133e+001
1.124857e+003, 7.899163e+001
1.125339e+003, 7.869695e+001
1.125821e+003, 7.842541e+001
1.126303e+003, 7.844458e+001
1.126786e+003, 7.874050e+001
1.127268e+003, 7.913260e+001
1.127750e+003, 7.967516e+001
1.128232e+003, 7.971162e+001
1.128714e+003, 7.906536e+001
1.129196e+003, 7.864411e+001
1.129678e+003, 7.889725e+001
1.130160e+003, 7.931975e+001
1.130642e+003, 7.933337e+001
1.131125e+003, 7.905779e+001
1.131607e+003, 7.891017e+001
1.132089e+003, 7.888248e+001
1.132571e+003, 7.880993e+001
1.133053e+003, 7.868584e+001
1.133535e+003, 7.861023e+001
1.134017e+003, 7.861397e+001
1.134499e+003, 7.882177e+001
1.134981e+003, 7.936533e+001
1.135464e+003, 7.998684e+001
1.135946e+003, 8.021440e+001
1.136428e+003, 8.011979e+001
1.136910e+003, 7.987838e+001
1.137392e+003, 7.956238e+001
1.137874e+003, 7.954176e+001
1.138356e+003, 7.984207e+001
1.138838e+003, 8.016241e+001
1.139321e+003, 8.035036e+001
1.139803e+003, 8.030480e+001
1.140285e+003, 7.965820e+001
1.140767e+003, 7.894309e+001
1.141249e+003, 7.941422e+001
1.141731e+003, 8.046258e+001
1.142213e+003, 8.065620e+001
1.142695e+003, 8.011284e+001
1.143177e+003, 7.983984e+001
1.143660e+003, 8.010608e+001
1.144142e+003, 8.019508e+001
1.144624e+003, 7.941102e+001
1.145106e+003, 7.869906e+001
1.145588e+003, 7.928914e+001
1.146070e+003, 8.032784e+001
1.146552e+003, 8.083178e+001
1.147034e+003, 8.091429e+001
1.147516e+003, 8.079360e+001
1.147999e+003, 8.060559e+001
1.148481e+003, 8.067305e+001
1.148963e+003, 8.120515e+001
1.149445e+003, 8.154577e+001
1.149927e+003, 8.098625e+001
1.150409e+003, 8.042118e+001
1.150891e+003, 8.063478e+001
1.151373e+003, 8.107256e+001
1.151856e+003, 8.097169e+001
1.152338e+003, 8.061733e+001
1.152820e+003, 8.093366e+001
1.153302e+003, 8.210713e+001
1.153784e+003, 8.282300e+001
1.154266e+003, 8.241872e+001
1.154748e+003, 8.180616e+001
1.155230e+003, 8.091241e+001
1.155713e+003, 8.031266e+001
1.156195e+003, 8.055760e+001
1.156677e+003, 8.117794e+001
1.157159e+003, 8.165483e+001
1.157641e+003, 8.193520e+001
1.158123e+003, 8.194526e+001
1.158605e+003, 8.144320e+001
1.159087e+003, 8.118010e+001
1.159569e+003, 8.145589e+001
1.160052e+003, 8.162505e+001
1.160534e+003, 8.138058e+001
1.161016e+003, 8.112746e+001
1.161498e+003, 8.118748e+001
1.161980e+003, 8.143513e+001
1.162462e+003, 8.159219e+001
1.162944e+003, 8.164304e+001
1.163426e+003, 8.179887e+001
1.163908e+003, 8.218850e+001
1.164391e+003, 8.226318e+001
1.164873e+003, 8.180959e+001
1.165355e+003, 8.147977e+001
1.165837e+003, 8.166258e+001
1.166319e+003, 8.186143e+001
1.166801e+003, 8.139682e+001
1.167283e+003, 8.055152e+001
1.167765e+003, 8.058898e+001
1.168247e+003, 8.154746e+001
1.168730e+003, 8.220953e+001
1.169212e+003, 8.251787e+001
1.169694e+003, 8.266081e+001
1.170176e+003, 8.268424e+001
1.170658e+003, 8.277980e+001
1.171140e+003, 8.310974e+001
1.171622e+003, 8.336298e+001
1.172104e+003, 8.290225e+001
1.172587e+003, 8.200927e+001
1.173069e+003, 8.161514e+001
1.173551e+003, 8.162965e+001
1.174033e+003, 8.172573e+001
1.174515e+003, 8.186380e+001
1.174997e+003, 8.189536e+001
1.175479e+003, 8.185056e+001
1.175961e+003, 8.293623e+001
1.176443e+003, 8.704646e+001
1.176926e+003, 9.073560e+001
1.177408e+003, 8.858513e+001
1.177890e+003, 8.411978e+001
1.178372e+003, 8.213909e+001
1.178854e+003, 8.206002e+001
1.179336e+003, 8.226913e+001
1.179818e+003, 8.238057e+001
1.180300e+003, 8.244801e+001
1.180782e+003, 8.249155e+001
1.181265e+003, 8.251507e+001
1.181747e+003, 8.257445e+001
1.182229e+003, 8.255058e+001
1.182711e+003, 8.206242e+001
1.183193e+003, 8.172607e+001
1.183675e+003, 8.241017e+001
1.184157e+003, 8.356895e+001
1.184639e+003, 8.413322e+001
1.185122e+003, 8.396774e+001
1.185604e+003, 8.369477e+001
1.186086e+003, 8.337056e+001
1.186568e+003, 8.308579e+001
1.187050e+003, 8.289547e+001
1.187532e+003, 8.269687e+001
1.188014e+003, 8.228829e+001
1.188496e+003, 8.199758e+001
1.188979e+003, 8.230003e+001
1.189461e+003, 8.290623e+001
1.189943e+003, 8.289165e+001
1.190425e+003, 8.203270e+001
1.190907e+003, 8.193262e+001
1.191389e+003, 8.299622e+001
1.191871e+003, 8.364345e+001
1.192353e+003, 8.347109e+001
1.192835e+003, 8.331548e+001
1.193318e+003, 8.360438e+001
1.193800e+003, 8.409782e+001
1.194282e+003, 8.456756e+001
1.194764e+003, 8.491714e+001
1.195246e+003, 8.460165e+001
1.195728e+003, 8.366582e+001
1.196210e+003, 8.345477e+001
1.196692e+003, 8.398403e+001
1.197174e+003, 8.419901e+001
1.197657e+003, 8.385548e+001
1.198139e+003, 8.358723e+001
1.198621e+003, 8.379766e+001
1.199103e+003, 8.411413e+001
1.199585e+003, 8.403699e+001
1.200067e+003, 8.372261e+001
1.200549e+003, 8.341586e+001
1.201031e+003, 8.314460e+001
1.201514e+003, 8.293604e+001
1.201996e+003, 8.282312e+001
1.202478e+003, 8.291424e+001
1.202960e+003, 8.321218e+001
1.203442e+003, 8.355703e+001
1.203924e+003, 8.394463e+001
1.204406e+003, 8.408195e+001
1.204888e+003, 8.330309e+001
1.205370e+003, 8.265869e+001
1.205853e+003, 8.333849e+001
1.206335e+003, 8.442976e+001
1.206817e+003, 8.483652e+001
1.207299e+003, 8.465407e+001
1.207781e+003, 8.441956e+001
1.208263e+003, 8.423002e+001
1.208745e+003, 8.412810e+001
1.209227e+003, 8.432288e+001
1.209709e+003, 8.430824e+001
1.210192e+003, 8.352651e+001
1.210674e+003, 8.304799e+001
1.211156e+003, 8.384812e+001
1.211638e+003, 8.482095e+001
1.212120e+003, 8.475454e+001
1.212602e+003, 8.395767e+001
1.213084e+003, 8.362891e+001
1.213566e+003, 8.390070e+001
1.214049e+003, 8.397279e+001
1.214531e+003, 8.381628e+001
1.215013e+003, 8.351586e+001
1.215495e+003, 8.300021e+001
1.215977e+003, 8.279716e+001
1.216459e+003, 8.322622e+001
1.216941e+003, 8.388425e+001
1.217423e+003, 8.426678e+001
1.217906e+003, 8.450622e+001
1.218388e+003, 8.524597e+001
1.218870e+003, 8.622917e+001
1.219352e+003, 8.594170e+001
1.219834e+003, 8.456758e+001
1.220316e+003, 8.331450e+001
1.220798e+003, 8.253611e+001
1.221280e+003, 8.244336e+001
1.221762e+003, 8.316821e+001
1.222245e+003, 8.412157e+001
1.222727e+003, 8.495895e+001
1.223209e+003, 8.546125e+001
1.223691e+003, 8.504957e+001
1.224173e+003, 8.440203e+001
1.224655e+003, 8.456475e+001
1.225137e+003, 8.513964e+001
1.225619e+003, 8.507172e+001
1.226101e+003, 8.434346e+001
1.226584e+003, 8.407797e+001
1.227066e+003, 8.490737e+001
1.227548e+003, 8.550038e+001
1.228030e+003, 8.517069e+001
1.228512e+003, 8.481879e+001
1.228994e+003, 8.479224e+001
1.229476e+003, 8.491908e+001
1.229958e+003, 8.529884e+001
1.230441e+003, 8.560772e+001
1.230923e+003, 8.516496e+001
1.231405e+003, 8.400475e+001
1.231887e+003, 8.336138e+001
1.232369e+003, 8.326094e+001
1.232851e+003, 8.370854e+001
1.233333e+003, 8.502190e+001
1.233815e+003, 8.566857e+001
1.234297e+003, 8.503371e+001
1.234780e+003, 8.430399e+001
1.235262e+003, 8.432543e+001
1.235744e+003, 8.482221e+001
1.236226e+003, 8.548828e+001
1.236708e+003, 8.613895e+001
1.237190e+003, 8.575915e+001
1.237672e+003, 8.465927e+001
1.238154e+003, 8.426720e+001
1.238636e+003, 8.459030e+001
1.239119e+003, 8.489751e+001
1.239601e+003, 8.496790e+001
1.240083e+003, 8.498124e+001
1.240565e+003, 8.505120e+001
1.241047e+003, 8.510298e+001
1.241529e+003, 8.495181e+001
1.242011e+003, 8.486657e+001
1.242493e+003, 8.533687e+001
1.242975e+003, 8.585299e+001
1.243458e+003, 8.557397e+001
1.243940e+003, 8.490559e+001
1.244422e+003, 8.488755e+001
1.244904e+003, 8.563532e+001
1.245386e+003, 8.620150e+001
1.245868e+003, 8.631738e+001
1.246350e+003, 8.627974e+001
1.246832e+003, 8.577565e+001
1.247315e+003, 8.562515e+001
1.247797e+003, 8.642026e+001
1.248279e+003, 8.716895e+001
1.248761e+003, 8.614810e+001
1.249243e+003, 8.574254e+001
1.249725e+003, 9.124635e+001
1.250207e+003, 1.019984e+002
1.250689e+003, 1.063632e+002
1.251172e+003, 1.038939e+002
1.251654e+003, 9.902818e+001
1.252136e+003, 9.192980e+001
1.252618e+003, 8.717419e+001
1.253100e+003, 8.612485e+001
1.253582e+003, 8.636796e+001
1.254064e+003, 8.629756e+001
1.254546e+003, 8.614458e+001
1.255028e+003, 8.625134e+001
1.255510e+003, 8.647997e+001
1.255993e+003, 8.654392e+001
1.256475e+003, 8.655195e+001
1.256957e+003, 8.678175e+001
1.257439e+003, 8.711227e+001
1.257921e+003, 8.717104e+001
1.258403e+003, 8.692854e+001
1.258885e+003, 8.669016e+001
1.259367e+003, 8.651953e+001
1.259850e+003, 8.662383e+001
1.260332e+003, 8.758252e+001
1.260814e+003, 8.820226e+001
1.261296e+003, 8.756464e+001
1.261778e+003, 8.673244e+001
1.262260e+003, 8.650212e+001
1.262742e+003, 8.663099e+001
1.263224e+003, 8.665659e+001
1.263707e+003, 8.661381e+001
1.264189e+003, 8.687070e+001
1.264671e+003, 8.761632e+001
1.265153e+003, 8.802089e+001
1.265635e+003, 8.805213e+001
1.266117e+003, 8.775353e+001
1.266599e+003, 8.702878e+001
1.267081e+003, 8.686503e+001
1.267563e+003, 8.791284e+001
1.268046e+003, 8.879100e+001
1.268528e+003, 8.756362e+001
1.269010e+003, 8.552998e+001
1.269492e+003, 8.608572e+001
1.269974e+003, 8.807018e+001
1.270456e+003, 8.851003e+001
1.270938e+003, 8.778359e+001
1.271420e+003, 8.719500e+001
1.271902e+003, 8.706098e+001
1.272385e+003, 8.755262e+001
1.272867e+003, 8.873835e+001
1.273349e+003, 8.948344e+001
1.273831e+003, 8.858978e+001
1.274313e+003, 8.781618e+001
1.274795e+003, 8.815362e+001
1.275277e+003, 8.877825e+001
1.275759e+003, 8.938839e+001
1.276242e+003, 8.979208e+001
1.276724e+003, 8.979696e+001
1.277206e+003, 8.943857e+001
1.277688e+003, 8.880045e+001
1.278170e+003, 8.780136e+001
1.278652e+003, 8.730705e+001
1.279134e+003, 8.744826e+001
1.279616e+003, 8.764198e+001
1.280099e+003, 8.784978e+001
1.280581e+003, 8.795324e+001
1.281063e+003, 8.788240e+001
1.281545e+003, 8.797279e+001
1.282027e+003, 8.852827e+001
1.282509e+003, 8.918984e+001
1.282991e+003, 8.931511e+001
1.283473e+003, 8.910403e+001
1.283955e+003, 8.900217e+001
##END=



