##NAMES=Tremolite
##RRUFFID=R050167
##IDEAL CHEMISTRY=[box]Ca_2_Mg_5_Si_8_O_22_(OH)_2_
##LOCALITY=Hunza Valley, Afghanistan
##OWNER=RRUFF
##SOURCE=Marcus Origlieri
##DESCRIPTION=Green tabular crystals
##STATUS=The identification of this mineral has been confirmed by X-ray diffraction and chemical analysis
##URL=rruff.info/R050167
##MEASURED CHEMISTRY=  ([box]_0.90_Na_0.10_)(Ca_0.98_Mg_0.01_Fe^2+^_0.01_)_2_(Mg_0.94_Al_0.06_)_5_(Si_0.95_Al_0.05_)_8_O_22_((OH)_0.98_F_0.02_)_2_
93.74609, 17.76475
94.22821, 17.54124
94.71033, 17.63580
95.19244, 18.00559
95.67456, 18.49642
96.15668, 19.05240
96.63879, 19.68484
97.12091, 20.43595
97.60303, 21.31167
98.08514, 22.30043
98.56726, 23.36374
99.04938, 24.50453
99.53149, 25.76871
100.0136, 27.16163
100.4957, 28.67584
100.9778, 30.36643
101.4600, 32.24924
101.9421, 34.28254
102.4242, 36.32677
102.9063, 38.40343
103.3884, 40.47448
103.8705, 42.48342
104.3527, 44.42562
104.8348, 46.39579
105.3169, 48.45974
105.7990, 50.57882
106.2811, 52.60572
106.7632, 54.42433
107.2454, 56.25308
107.7275, 58.23870
108.2096, 60.57647
108.6917, 62.82845
109.1738, 64.84525
109.6559, 66.58353
110.1381, 68.65725
110.6202, 71.21590
111.1023, 74.06873
111.5844, 77.03074
112.0665, 79.84843
112.5486, 83.04818
113.0308, 86.78947
113.5129, 91.19418
113.9950, 95.83640
114.4771, 100.5931
114.9592, 105.5456
115.4413, 110.8857
115.9235, 116.6250
116.4056, 122.7674
116.8877, 129.1304
117.3698, 135.5072
117.8519, 142.7808
118.3340, 151.7238
118.8162, 161.8451
119.2983, 171.9290
119.7804, 182.4889
120.2625, 192.4239
120.7446, 200.7861
121.2267, 207.1995
121.7089, 212.3556
122.1910, 216.7752
122.6731, 220.3526
123.1552, 222.5945
123.6373, 223.3295
124.1194, 222.5257
124.6016, 220.0888
125.0837, 215.5906
125.5658, 209.7821
126.0479, 202.9298
126.5300, 195.0887
127.0121, 187.4938
127.4943, 181.0388
127.9764, 175.6386
128.4585, 170.9144
128.9406, 166.6536
129.4227, 163.0324
129.9048, 160.5293
130.3869, 159.1985
130.8691, 158.5527
131.3512, 158.1292
131.8333, 157.4244
132.3154, 156.1893
132.7975, 155.1779
133.2796, 154.5185
133.7618, 153.8582
134.2439, 153.1336
134.7260, 152.5517
135.2081, 152.5369
135.6902, 153.1016
136.1723, 153.7137
136.6545, 154.0488
137.1366, 154.1089
137.6187, 154.3801
138.1008, 154.9469
138.5829, 155.6699
139.0650, 156.1925
139.5472, 156.4355
140.0293, 156.7503
140.5114, 157.3382
140.9935, 158.2180
141.4756, 159.2729
141.9577, 160.5439
142.4399, 161.9821
142.9220, 163.3527
143.4041, 164.6878
143.8862, 165.9167
144.3683, 167.0584
144.8504, 168.2812
145.3326, 169.0277
145.8147, 169.2041
146.2968, 168.8308
146.7789, 168.0600
147.2610, 166.5775
147.7431, 164.9878
148.2253, 163.7836
148.7074, 163.1774
149.1895, 162.6707
149.6716, 162.1628
150.1537, 161.6242
150.6358, 161.3132
151.1180, 161.1023
151.6001, 161.1673
152.0822, 161.6944
152.5643, 162.9676
153.0464, 164.3979
153.5285, 165.8372
154.0107, 167.1987
154.4928, 168.8262
154.9749, 170.6309
155.4570, 172.7441
155.9391, 175.3283
156.4212, 178.1966
156.9034, 181.7363
157.3855, 185.9208
157.8676, 190.3674
158.3497, 196.4295
158.8318, 204.2769
159.3139, 213.9226
159.7961, 225.4287
160.2782, 241.0760
160.7603, 256.8942
161.2424, 271.8030
161.7245, 287.7360
162.2066, 298.0707
162.6888, 299.0840
163.1709, 292.8865
163.6530, 284.1075
164.1351, 272.2856
164.6172, 259.8427
165.0993, 248.2941
165.5815, 237.8600
166.0636, 228.4443
166.5457, 219.7623
167.0278, 211.9296
167.5099, 205.3228
167.9921, 200.2685
168.4742, 196.4480
168.9563, 193.5775
169.4384, 191.5466
169.9205, 190.4885
170.4026, 190.8294
170.8848, 192.3439
171.3669, 194.0908
171.8490, 195.3290
172.3311, 196.5410
172.8132, 198.2437
173.2953, 200.1833
173.7775, 203.1016
174.2596, 207.8628
174.7417, 214.3524
175.2238, 221.6956
175.7059, 229.0322
176.1880, 236.7782
176.6702, 245.6016
177.1523, 256.3843
177.6344, 267.9090
178.1165, 279.6715
178.5986, 291.6577
179.0807, 301.3265
179.5629, 307.6178
180.0450, 310.1765
180.5271, 308.0535
181.0092, 299.4097
181.4913, 286.5616
181.9734, 272.6834
182.4556, 257.7259
182.9377, 243.2497
183.4198, 230.2080
183.9019, 218.6166
184.3840, 208.8113
184.8661, 201.1308
185.3483, 195.2189
185.8304, 190.1216
186.3125, 185.8730
186.7946, 182.3911
187.2767, 179.7212
187.7588, 177.7861
188.2409, 176.2859
188.7231, 175.1440
189.2052, 174.3389
189.6873, 173.8182
190.1694, 173.6099
190.6515, 173.5408
191.1336, 173.3527
191.6158, 173.0647
192.0979, 172.9316
192.5800, 173.1986
193.0621, 173.7743
193.5442, 174.0615
194.0263, 174.0484
194.5085, 173.7914
194.9906, 173.3351
195.4727, 172.6796
195.9548, 171.9337
196.4369, 171.1018
196.9190, 170.1919
197.4012, 169.3212
197.8833, 168.4378
198.3654, 167.7044
198.8475, 167.3927
199.3296, 167.5051
199.8117, 167.9505
200.2939, 168.7818
200.7760, 169.9996
201.2581, 171.1677
201.7402, 172.2513
202.2223, 173.3238
202.7044, 174.4439
203.1866, 175.5528
203.6687, 176.9795
204.1508, 178.9605
204.6329, 181.5512
205.1150, 184.0880
205.5971, 186.5446
206.0793, 188.9734
206.5614, 191.4555
207.0435, 193.9457
207.5256, 196.5778
208.0077, 199.3645
208.4898, 202.2719
208.9720, 205.5295
209.4541, 209.1043
209.9362, 213.0589
210.4183, 217.5101
210.9004, 222.3910
211.3825, 227.8636
211.8647, 234.0239
212.3468, 240.8745
212.8289, 248.4776
213.3110, 257.1256
213.7931, 266.3495
214.2752, 275.1248
214.7574, 283.8286
215.2395, 291.3570
215.7216, 297.2173
216.2037, 301.1030
216.6858, 304.1258
217.1679, 305.7749
217.6501, 306.8779
218.1322, 309.2076
218.6143, 312.6543
219.0964, 317.6128
219.5785, 324.1916
220.0606, 332.5934
220.5428, 342.2739
221.0249, 353.4960
221.5070, 365.8272
221.9891, 378.2596
222.4712, 391.8680
222.9533, 403.8268
223.4355, 413.0231
223.9176, 420.2808
224.3997, 422.7660
224.8818, 419.7939
225.3639, 412.4123
225.8460, 402.5153
226.3282, 389.0180
226.8103, 374.9613
227.2924, 361.6493
227.7745, 348.2845
228.2566, 337.1624
228.7387, 328.0839
229.2209, 321.2948
229.7030, 317.6963
230.1851, 317.9223
230.6672, 320.2617
231.1493, 324.1133
231.6314, 329.6392
232.1136, 336.3878
232.5957, 345.1029
233.0778, 354.7410
233.5599, 363.0862
234.0420, 370.9249
234.5241, 376.2115
235.0063, 378.1720
235.4884, 376.8305
235.9705, 371.9601
236.4526, 362.6247
236.9347, 350.1099
237.4168, 336.8125
237.8990, 322.1729
238.3811, 307.6627
238.8632, 293.8186
239.3453, 280.3961
239.8274, 268.2500
240.3095, 257.2106
240.7917, 247.4485
241.2738, 239.3453
241.7559, 233.2876
242.2380, 228.2721
242.7201, 224.0049
243.2022, 220.4274
243.6844, 217.7787
244.1665, 216.0481
244.6486, 215.2299
245.1307, 215.3586
245.6128, 216.6553
246.0949, 218.5282
246.5771, 220.7796
247.0592, 223.3530
247.5413, 226.5227
248.0234, 230.1759
248.5055, 234.4834
248.9876, 239.7624
249.4697, 246.7158
249.9519, 253.4342
250.4340, 259.5504
250.9161, 265.2420
251.3982, 269.4555
251.8803, 272.2889
252.3624, 273.5321
252.8446, 272.7829
253.3267, 269.6613
253.8088, 265.2942
254.2909, 259.7451
254.7730, 252.8151
255.2551, 246.0048
255.7373, 239.1034
256.2194, 232.5318
256.7015, 226.9509
257.1836, 222.5496
257.6657, 218.6211
258.1479, 214.9333
258.6300, 211.4858
259.1121, 208.7759
259.5942, 206.8980
260.0763, 205.6442
260.5584, 204.7861
261.0406, 204.4110
261.5227, 204.2300
262.0048, 204.2101
262.4869, 204.3499
262.9690, 204.5879
263.4511, 205.0521
263.9333, 205.4302
264.4154, 205.5322
264.8975, 205.5394
265.3796, 204.7254
265.8617, 202.8449
266.3438, 199.9872
266.8260, 196.7634
267.3081, 193.0005
267.7902, 189.2276
268.2723, 185.9940
268.7544, 183.3320
269.2365, 180.8858
269.7187, 178.5759
270.2008, 176.4235
270.6829, 174.6986
271.1650, 173.4802
271.6471, 172.4963
272.1292, 171.5891
272.6114, 170.7580
273.0935, 169.9667
273.5756, 169.1696
274.0577, 168.4274
274.5398, 167.9999
275.0219, 167.9747
275.5041, 167.9836
275.9862, 167.7556
276.4683, 167.2500
276.9504, 166.8339
277.4325, 166.5290
277.9146, 166.3420
278.3968, 166.3516
278.8788, 166.6105
279.3610, 166.8081
279.8431, 166.6760
280.3252, 166.1991
280.8073, 166.0130
281.2894, 166.2367
281.7715, 166.6502
282.2537, 166.8006
282.7358, 166.6617
283.2179, 166.5527
283.7000, 166.5974
284.1821, 166.7984
284.6642, 167.2252
285.1464, 167.9321
285.6285, 168.7294
286.1106, 169.2760
286.5927, 169.5669
287.0748, 169.9490
287.5569, 170.5592
288.0391, 171.3878
288.5212, 172.4193
289.0033, 173.7042
289.4854, 174.9846
289.9675, 175.9343
290.4496, 176.5738
290.9318, 177.1037
291.4139, 177.6498
291.8960, 178.1478
292.3781, 178.3268
292.8602, 178.1694
293.3423, 177.9013
293.8245, 177.6577
294.3066, 177.4685
294.7887, 177.4864
295.2708, 177.8492
295.7529, 178.3939
296.2350, 178.7270
296.7172, 178.8490
297.1993, 179.0496
297.6814, 179.5260
298.1635, 180.2717
298.6456, 181.2891
299.1277, 182.7100
299.6099, 184.2669
300.0920, 185.4422
300.5741, 186.3069
301.0562, 187.2339
301.5383, 188.5048
302.0204, 190.0356
302.5026, 191.7017
302.9847, 193.6111
303.4668, 195.4105
303.9489, 196.8143
304.4310, 197.7968
304.9131, 198.3677
305.3953, 198.4946
305.8774, 198.2087
306.3595, 197.4656
306.8416, 196.1774
307.3237, 194.7583
307.8058, 193.4896
308.2880, 192.3697
308.7701, 191.4025
309.2522, 190.6231
309.7343, 189.9668
310.2164, 189.3646
310.6985, 188.8012
311.1807, 188.3512
311.6628, 188.1717
312.1449, 188.1216
312.6270, 187.9907
313.1091, 187.7463
313.5912, 187.3609
314.0734, 186.7587
314.5555, 185.9438
315.0376, 185.1346
315.5197, 184.4048
316.0018, 183.7483
316.4839, 183.1767
316.9661, 182.7736
317.4482, 182.3687
317.9303, 181.7723
318.4124, 181.0476
318.8945, 180.5899
319.3766, 180.7039
319.8588, 181.0556
320.3409, 181.4039
320.8230, 181.6878
321.3051, 181.9745
321.7872, 182.2745
322.2693, 182.5891
322.7515, 182.9231
323.2336, 183.3676
323.7157, 183.7645
324.1978, 184.0116
324.6799, 183.9350
325.1620, 184.0262
325.6442, 184.4987
326.1263, 185.1621
326.6084, 185.6784
327.0905, 185.9552
327.5726, 186.1357
328.0547, 186.1860
328.5369, 185.9504
329.0190, 186.1042
329.5011, 186.7828
329.9832, 187.7945
330.4653, 188.9311
330.9474, 190.3055
331.4296, 191.6688
331.9117, 192.9848
332.3938, 194.2480
332.8759, 195.5129
333.3580, 196.9796
333.8401, 198.2788
334.3223, 199.0707
334.8044, 199.1038
335.2865, 199.1497
335.7686, 199.3167
336.2507, 199.5721
336.7328, 199.6897
337.2150, 199.5021
337.6971, 199.4690
338.1792, 199.8838
338.6613, 200.8147
339.1434, 201.8766
339.6255, 203.0149
340.1077, 204.2936
340.5898, 205.9325
341.0719, 207.9480
341.5540, 210.1290
342.0361, 212.4064
342.5182, 214.7995
343.0004, 217.1185
343.4825, 219.3809
343.9646, 221.4934
344.4467, 223.2485
344.9288, 224.6266
345.4109, 225.9225
345.8931, 227.1978
346.3752, 228.4701
346.8573, 229.7065
347.3394, 230.8993
347.8215, 232.2117
348.3036, 233.8414
348.7858, 235.7446
349.2679, 237.7273
349.7500, 239.7593
350.2321, 241.8170
350.7142, 243.9589
351.1964, 246.1359
351.6785, 247.9680
352.1606, 249.1634
352.6427, 249.7948
353.1248, 250.0301
353.6069, 249.9047
354.0891, 249.3764
354.5712, 248.3529
355.0533, 246.8921
355.5354, 245.1236
356.0175, 242.8297
356.4996, 240.4354
356.9818, 238.3272
357.4639, 236.5382
357.9460, 235.0408
358.4281, 233.7680
358.9102, 232.7776
359.3923, 232.1762
359.8745, 231.9828
360.3566, 232.2047
360.8387, 232.8994
361.3208, 234.0506
361.8029, 235.4635
362.2850, 237.1712
362.7672, 239.0376
363.2493, 240.9409
363.7314, 242.5992
364.2135, 244.6027
364.6956, 247.0838
365.1777, 250.0365
365.6599, 253.4191
366.1420, 257.1229
366.6241, 261.3505
367.1062, 266.1914
367.5883, 271.8399
368.0704, 277.7456
368.5526, 284.2452
369.0347, 290.8611
369.5168, 296.9642
369.9989, 302.8520
370.4810, 307.8921
370.9631, 312.0941
371.4453, 315.5279
371.9274, 317.5322
372.4095, 317.8381
372.8916, 316.9184
373.3737, 315.1038
373.8558, 312.1079
374.3380, 308.7536
374.8201, 305.0247
375.3022, 300.9773
375.7843, 297.0197
376.2664, 293.0956
376.7485, 289.3063
377.2307, 285.7583
377.7128, 282.4858
378.1949, 279.1690
378.6770, 275.8607
379.1591, 272.4598
379.6412, 268.7440
380.1234, 264.6273
380.6055, 260.7269
381.0876, 257.1563
381.5697, 253.9852
382.0518, 251.6325
382.5339, 250.1510
383.0161, 249.2910
383.4982, 248.8639
383.9803, 248.8538
384.4624, 249.2067
384.9445, 249.8997
385.4266, 250.9398
385.9088, 252.3538
386.3909, 254.1357
386.8730, 256.2816
387.3551, 258.6154
387.8372, 261.3640
388.3193, 264.9246
388.8015, 269.3668
389.2836, 274.6172
389.7657, 280.7323
390.2478, 287.6359
390.7299, 295.0092
391.2120, 302.5183
391.6942, 310.5721
392.1763, 319.6940
392.6584, 329.8929
393.1405, 340.0424
393.6226, 350.1384
394.1047, 359.6548
394.5869, 367.8916
395.0690, 376.2269
395.5511, 381.6941
396.0332, 383.3568
396.5153, 381.2855
396.9974, 375.8842
397.4796, 365.9078
397.9617, 353.6165
398.4438, 339.9934
398.9259, 323.7592
399.4080, 308.6634
399.8901, 294.8717
400.3723, 282.4175
400.8544, 271.4818
401.3365, 262.0644
401.8186, 254.0567
402.3007, 247.5120
402.7828, 242.4844
403.2649, 238.4884
403.7470, 235.8416
404.2292, 233.8736
404.7113, 231.9615
405.1934, 229.8733
405.6755, 228.5060
406.1576, 228.1441
406.6397, 228.5462
407.1219, 228.8145
407.6040, 228.8332
408.0861, 229.1580
408.5682, 230.1885
409.0503, 231.8955
409.5324, 233.6912
410.0146, 235.5236
410.4967, 237.5138
410.9788, 239.7511
411.4609, 242.2407
411.9430, 245.2361
412.4251, 249.0097
412.9073, 253.2686
413.3894, 257.6089
413.8715, 262.0474
414.3536, 266.4414
414.8357, 270.8318
415.3178, 275.1387
415.8000, 279.2499
416.2821, 283.4648
416.7642, 286.9357
417.2463, 288.9492
417.7284, 289.6117
418.2105, 289.1442
418.6927, 287.5737
419.1748, 284.9917
419.6569, 281.2676
420.1390, 276.2681
420.6211, 270.9810
421.1032, 265.6393
421.5854, 260.2477
422.0675, 254.8108
422.5496, 248.8757
423.0317, 243.3121
423.5138, 238.1893
423.9959, 233.5872
424.4781, 229.6458
424.9602, 226.9083
425.4423, 224.5304
425.9244, 222.0718
426.4065, 219.2505
426.8886, 216.8830
427.3708, 214.9836
427.8529, 213.5116
428.3350, 212.4169
428.8171, 211.8344
429.2992, 211.3732
429.7813, 210.8880
430.2635, 210.3898
430.7456, 210.2810
431.2277, 210.6421
431.7098, 211.2216
432.1919, 211.8416
432.6740, 212.5039
433.1562, 213.2019
433.6383, 213.9540
434.1204, 214.7148
434.6025, 215.4020
435.0846, 216.0156
435.5667, 216.5540
436.0489, 217.1344
436.5310, 217.6446
437.0131, 217.7962
437.4952, 217.5968
437.9773, 216.9197
438.4594, 215.6921
438.9416, 213.8970
439.4237, 211.4333
439.9058, 207.8536
440.3879, 204.1147
440.8700, 200.9763
441.3521, 198.3945
441.8343, 196.2130
442.3164, 194.4727
442.7985, 193.0187
443.2806, 191.7556
443.7627, 190.7053
444.2448, 189.7321
444.7270, 188.8198
445.2091, 187.9473
445.6912, 187.0949
446.1733, 186.1097
446.6554, 185.2875
447.1375, 184.7788
447.6197, 184.5520
448.1018, 184.2822
448.5839, 183.8758
449.0660, 183.4822
449.5481, 183.1827
450.0302, 183.0529
450.5124, 182.8498
450.9945, 182.5027
451.4766, 182.1367
451.9587, 181.9830
452.4408, 182.1375
452.9229, 182.2400
453.4051, 182.1522
453.8872, 181.9143
454.3693, 181.8779
454.8514, 182.0875
455.3335, 182.3098
455.8156, 182.3467
456.2978, 182.2136
456.7799, 182.0518
457.2620, 181.8567
457.7441, 181.6857
458.2262, 181.5888
458.7083, 181.5755
459.1905, 181.6934
459.6726, 182.0789
460.1547, 182.5558
460.6368, 182.9211
461.1189, 183.1706
461.6010, 183.2440
462.0832, 182.9572
462.5653, 182.5290
463.0474, 182.2043
463.5295, 182.0200
464.0116, 181.9912
464.4937, 182.2328
464.9759, 182.6360
465.4580, 182.9673
465.9401, 183.1430
466.4222, 183.2481
466.9043, 183.3224
467.3864, 183.3770
467.8686, 183.3480
468.3507, 183.0600
468.8328, 182.7917
469.3149, 182.7513
469.7970, 183.1183
470.2791, 183.4087
470.7613, 183.5546
471.2434, 183.6084
471.7255, 183.7138
472.2076, 183.8821
472.6897, 184.0638
473.1718, 184.2099
473.6540, 184.3195
474.1361, 184.6574
474.6182, 185.2857
475.1003, 185.9208
475.5824, 186.2254
476.0645, 186.2414
476.5467, 186.3396
477.0288, 186.6426
477.5109, 186.9851
477.9930, 187.0454
478.4751, 186.8823
478.9572, 186.7724
479.4394, 186.8503
479.9215, 187.0796
480.4036, 187.4809
480.8857, 188.0588
481.3678, 188.5507
481.8499, 188.6159
482.3321, 188.5599
482.8142, 188.7334
483.2963, 189.4464
483.7784, 190.1243
484.2605, 190.4318
484.7426, 190.5279
485.2248, 190.8060
485.7069, 191.6397
486.1890, 192.4128
486.6711, 192.8976
487.1532, 193.0353
487.6353, 193.1193
488.1175, 193.1706
488.5996, 193.1536
489.0817, 193.0124
489.5638, 192.6380
490.0459, 192.4297
490.5280, 192.5007
491.0102, 192.7126
491.4923, 192.6754
491.9744, 192.3261
492.4565, 192.0432
492.9386, 192.0443
493.4207, 192.2697
493.9029, 192.2966
494.3850, 192.1077
494.8671, 191.8919
495.3492, 191.8734
495.8313, 191.9718
496.3134, 191.9419
496.7956, 191.6974
497.2777, 191.3979
497.7598, 191.1989
498.2419, 191.0840
498.7240, 191.0155
499.2061, 190.9213
499.6883, 190.9078
500.1704, 191.0959
500.6525, 191.4842
501.1346, 191.8474
501.6167, 192.1140
502.0988, 192.3114
502.5810, 192.4370
503.0631, 192.2038
503.5452, 192.3404
504.0273, 193.2175
504.5094, 194.4624
504.9915, 195.3982
505.4737, 195.7150
505.9558, 196.1785
506.4379, 196.9892
506.9200, 198.1291
507.4021, 199.2939
507.8842, 200.4947
508.3664, 201.7239
508.8485, 202.9622
509.3306, 204.2059
509.8127, 205.6077
510.2948, 207.1762
510.7769, 208.8925
511.2591, 210.7988
511.7412, 212.8530
512.2233, 214.7587
512.7054, 216.3854
513.1875, 217.8484
513.6696, 219.2763
514.1517, 220.6780
514.6339, 222.0999
515.1160, 223.8362
515.5981, 225.4550
516.0802, 226.5075
516.5623, 226.8524
517.0444, 227.0874
517.5266, 227.6675
518.0087, 228.2143
518.4908, 228.3146
518.9729, 227.2897
519.4550, 226.4614
519.9371, 226.2814
520.4193, 226.5650
520.9014, 226.4973
521.3835, 225.7329
521.8656, 225.0634
522.3477, 224.7962
522.8298, 224.9837
523.3120, 225.1382
523.7941, 225.2097
524.2762, 225.3419
524.7583, 225.6400
525.2404, 226.1032
525.7225, 226.8243
526.2047, 227.8581
526.6868, 229.0822
527.1689, 230.3069
527.6510, 231.5312
528.1331, 232.7815
528.6152, 234.2381
529.0974, 235.6545
529.5795, 236.7561
530.0616, 237.5381
530.5437, 237.9418
531.0258, 238.0585
531.5079, 237.7179
531.9901, 236.7109
532.4722, 234.8451
532.9543, 232.7336
533.4364, 230.5426
533.9185, 228.2632
534.4006, 225.8395
534.8828, 223.1309
535.3649, 220.4341
535.8470, 217.7411
536.3291, 215.0800
536.8112, 212.8394
537.2933, 211.1790
537.7755, 209.6911
538.2576, 208.2374
538.7397, 206.8113
539.2218, 205.2857
539.7039, 203.5808
540.1860, 202.0367
540.6682, 201.1658
541.1503, 200.9096
541.6324, 200.5821
542.1145, 200.0235
542.5966, 199.3837
543.0787, 198.9494
543.5609, 198.6537
544.0430, 198.2436
544.5251, 197.3549
545.0072, 196.4388
545.4893, 196.0276
545.9714, 196.0968
546.4536, 196.1725
546.9357, 196.0633
547.4178, 195.8204
547.8999, 195.4437
548.3820, 194.7934
548.8641, 194.3329
549.3463, 194.2793
549.8284, 194.4200
550.3105, 194.4796
550.7926, 194.4445
551.2747, 194.3329
551.7568, 194.1069
552.2390, 193.8053
552.7211, 193.6042
553.2032, 193.5425
553.6853, 193.4671
554.1674, 193.2743
554.6495, 192.9807
555.1317, 192.8145
555.6138, 192.7863
556.0959, 192.8427
556.5780, 193.0910
557.0601, 193.3891
557.5422, 193.2740
558.0244, 192.5139
558.5065, 191.7082
558.9886, 191.4913
559.4707, 191.6750
559.9528, 191.8880
560.4349, 191.9212
560.9171, 191.9865
561.3992, 192.2165
561.8813, 192.5917
562.3634, 192.9617
562.8455, 193.3922
563.3276, 193.7201
563.8098, 193.8320
564.2919, 193.6314
564.7740, 193.5378
565.2561, 193.5817
565.7382, 193.6982
566.2203, 193.8191
566.7025, 193.9263
567.1846, 194.1336
567.6667, 194.5073
568.1488, 194.9241
568.6309, 195.1460
569.1130, 195.1772
569.5952, 195.0472
570.0773, 194.6225
570.5594, 194.1214
571.0415, 193.9809
571.5236, 194.1734
572.0057, 194.4302
572.4879, 194.6140
572.9700, 194.7487
573.4521, 194.8511
573.9342, 194.9188
574.4163, 194.9923
574.8984, 195.1223
575.3806, 195.2522
575.8627, 195.3256
576.3448, 195.1423
576.8269, 195.1277
577.3090, 195.4519
577.7911, 195.9547
578.2733, 196.2830
578.7554, 196.3868
579.2375, 196.3905
579.7196, 196.2796
580.2017, 196.0805
580.6838, 196.0476
581.1660, 196.1847
581.6481, 196.4578
582.1302, 196.9739
582.6123, 197.6316
583.0944, 197.9677
583.5765, 197.9346
584.0587, 197.7527
584.5408, 197.4883
585.0229, 197.2588
585.5050, 197.3017
585.9871, 197.9353
586.4692, 198.4678
586.9514, 198.3361
587.4335, 197.8129
587.9156, 197.4645
588.3977, 197.4971
588.8798, 197.6981
589.3619, 198.1230
589.8441, 198.7584
590.3262, 199.0455
590.8083, 198.7182
591.2904, 198.3819
591.7725, 198.3671
592.2546, 198.7534
592.7368, 198.9846
593.2189, 199.0419
593.7010, 198.9901
594.1831, 198.8715
594.6652, 198.6966
595.1473, 198.5163
595.6295, 198.3163
596.1116, 198.1745
596.5937, 198.1601
597.0758, 198.2855
597.5579, 198.5865
598.0400, 199.3295
598.5222, 200.0383
599.0043, 200.3230
599.4864, 200.2506
599.9685, 200.1689
600.4506, 200.1668
600.9327, 200.2185
601.4149, 200.3434
601.8970, 200.5884
602.3791, 200.6852
602.8612, 200.5351
603.3433, 200.3345
603.8254, 200.2212
604.3076, 200.1919
604.7897, 200.2907
605.2718, 200.5797
605.7539, 200.8988
606.2360, 200.9342
606.7181, 200.7185
607.2003, 200.5875
607.6824, 200.6633
608.1645, 200.8581
608.6466, 201.0923
609.1287, 201.3410
609.6108, 201.4981
610.0930, 201.3372
610.5751, 201.1856
611.0572, 201.3290
611.5393, 201.7709
612.0214, 202.2077
612.5035, 202.5861
612.9857, 202.8870
613.4678, 203.0826
613.9499, 203.0678
614.4320, 203.1846
614.9141, 203.5081
615.3962, 203.8940
615.8784, 204.1987
616.3605, 204.4205
616.8426, 204.5727
617.3247, 204.6342
617.8068, 204.6657
618.2889, 204.7214
618.7711, 204.8211
619.2532, 205.1386
619.7353, 205.9542
620.2174, 206.8787
620.6995, 207.2905
621.1816, 207.2733
621.6638, 207.2297
622.1459, 207.3791
622.6280, 207.5942
623.1101, 207.7215
623.5922, 207.7227
624.0743, 207.9897
624.5565, 209.0049
625.0386, 210.0582
625.5207, 210.6403
626.0028, 210.4370
626.4849, 210.4340
626.9670, 210.7035
627.4492, 211.0933
627.9313, 211.3608
628.4134, 211.4653
628.8955, 211.8320
629.3776, 212.6107
629.8597, 213.5795
630.3419, 214.3952
630.8240, 215.0608
631.3061, 215.5953
631.7882, 215.8845
632.2703, 216.1282
632.7524, 216.5458
633.2346, 217.1148
633.7167, 217.7333
634.1988, 218.3923
634.6809, 219.0498
635.1630, 219.6610
635.6451, 220.2048
636.1273, 220.8420
636.6094, 221.4876
637.0915, 222.3222
637.5736, 223.5190
638.0557, 225.3378
638.5378, 226.6973
639.0200, 227.4238
639.5021, 227.9871
639.9842, 228.9796
640.4663, 230.3775
640.9484, 232.0311
641.4305, 233.9887
641.9127, 235.9825
642.3948, 237.6147
642.8769, 238.9744
643.3590, 240.3575
643.8411, 241.8506
644.3232, 243.4504
644.8054, 245.1744
645.2875, 246.9984
645.7696, 248.9629
646.2517, 251.0313
646.7338, 253.2658
647.2159, 255.7533
647.6981, 258.5499
648.1802, 261.0865
648.6623, 263.1717
649.1444, 265.3482
649.6265, 268.1105
650.1086, 271.5448
650.5908, 274.3707
651.0729, 276.3470
651.5550, 278.6719
652.0371, 283.5568
652.5192, 289.9969
653.0013, 294.5234
653.4835, 295.8041
653.9656, 296.6053
654.4477, 299.2058
654.9298, 303.0357
655.4119, 307.1893
655.8940, 311.2957
656.3762, 315.6909
656.8583, 320.5184
657.3404, 325.6919
657.8225, 330.9309
658.3046, 335.7572
658.7867, 341.2460
659.2689, 347.8340
659.7510, 355.4092
660.2331, 362.7905
660.7152, 369.8322
661.1973, 377.3864
661.6794, 385.9737
662.1616, 395.5061
662.6437, 405.6426
663.1258, 416.3688
663.6079, 427.8625
664.0900, 440.0795
664.5721, 453.2163
665.0543, 467.5877
665.5364, 483.1294
666.0185, 500.3761
666.5006, 519.5994
666.9827, 540.6439
667.4648, 563.3481
667.9470, 587.9222
668.4291, 614.0135
668.9112, 641.7639
669.3933, 671.2247
669.8754, 702.3538
670.3575, 735.6557
670.8397, 768.9542
671.3218, 802.2932
671.8039, 834.6689
672.2860, 864.9786
672.7681, 892.3590
673.2502, 914.6592
673.7324, 931.8789
674.2145, 942.5555
674.6966, 945.2169
675.1787, 939.8790
675.6608, 926.3828
676.1429, 902.9495
676.6251, 872.8875
677.1072, 836.6703
677.5893, 793.2953
678.0714, 749.8405
678.5535, 704.9850
679.0356, 661.4872
679.5178, 621.2245
679.9999, 583.6208
680.4820, 550.1345
680.9641, 520.5271
681.4462, 494.2961
681.9283, 470.7648
682.4105, 449.7696
682.8926, 431.2322
683.3747, 415.0116
683.8568, 400.8682
684.3389, 388.4570
684.8210, 377.6259
685.3032, 367.8847
685.7853, 359.1981
686.2674, 351.5861
686.7495, 345.2152
687.2316, 339.8687
687.7137, 334.9911
688.1959, 330.4947
688.6780, 326.5120
689.1601, 323.1054
689.6422, 320.1964
690.1243, 317.4911
690.6064, 314.9904
691.0886, 312.4870
691.5707, 309.9155
692.0528, 307.2744
692.5349, 304.4513
693.0170, 301.4615
693.4991, 298.3204
693.9813, 294.8021
694.4634, 291.2959
694.9455, 288.2372
695.4276, 285.6999
695.9097, 283.1896
696.3918, 280.6577
696.8740, 278.0297
697.3561, 275.1355
697.8382, 271.7022
698.3203, 268.9648
698.8024, 267.1432
699.2845, 265.6612
699.7667, 263.9580
700.2488, 262.0277
700.7309, 260.4096
701.2130, 259.2087
701.6951, 258.1323
702.1772, 256.8074
702.6594, 255.3347
703.1415, 253.9508
703.6236, 252.7024
704.1057, 251.5836
704.5878, 250.6399
705.0699, 249.8164
705.5521, 249.0229
706.0342, 248.3025
706.5163, 247.5305
706.9984, 246.5532
707.4805, 245.5363
707.9626, 244.9322
708.4448, 244.8931
708.9269, 244.7325
709.4090, 244.2016
709.8911, 243.4183
710.3732, 242.6477
710.8553, 241.9050
711.3374, 241.3903
711.8195, 241.4887
712.3016, 241.7033
712.7838, 241.3054
713.2659, 240.4026
713.7480, 239.8077
714.2301, 240.2814
714.7122, 240.8484
715.1943, 240.9938
715.6765, 240.6295
716.1586, 240.1394
716.6407, 239.2995
717.1228, 238.6453
717.6049, 238.5990
718.0870, 239.2434
718.5692, 239.4857
719.0513, 239.2853
719.5334, 238.9185
720.0155, 238.5133
720.4976, 238.1566
720.9797, 238.0993
721.4619, 238.4285
721.9440, 238.7198
722.4261, 238.5777
722.9082, 238.2780
723.3903, 238.0980
723.8724, 238.1250
724.3546, 238.2355
724.8367, 238.4438
725.3188, 238.7090
725.8009, 238.9920
726.2830, 239.2878
726.7651, 239.6018
727.2473, 239.9228
727.7294, 240.2869
728.2115, 240.7812
728.6936, 241.3866
729.1757, 241.9896
729.6578, 242.5756
730.1400, 243.1080
730.6221, 243.4370
731.1042, 243.7016
731.5863, 244.1839
732.0684, 245.3451
732.5505, 246.3735
733.0327, 246.7705
733.5148, 246.7787
733.9969, 247.3384
734.4790, 248.7103
734.9611, 250.1218
735.4432, 251.3459
735.9254, 252.4436
736.4075, 253.6705
736.8896, 255.0252
737.3717, 256.4287
737.8538, 257.8778
738.3359, 259.3088
738.8181, 260.5778
739.3002, 261.7076
739.7823, 262.8579
740.2644, 264.2752
740.7465, 265.5970
741.2286, 266.6927
741.7108, 267.5463
742.1929, 267.8553
742.6750, 267.3521
743.1571, 266.6625
743.6392, 266.0930
744.1213, 265.6563
744.6035, 264.9968
745.0856, 264.0847
745.5677, 263.1634
746.0498, 262.3294
746.5319, 261.6710
747.0140, 261.4633
747.4962, 261.7421
747.9783, 262.1419
748.4604, 262.4562
748.9425, 262.7573
749.4246, 263.1623
749.9067, 263.8439
750.3889, 264.1272
750.8710, 263.7205
751.3531, 263.0716
751.8352, 262.5080
752.3173, 262.0692
752.7994, 261.5154
753.2816, 260.8357
753.7637, 260.0060
754.2458, 258.8940
754.7279, 257.5919
755.2100, 256.3227
755.6921, 255.1119
756.1743, 254.0580
756.6564, 253.4005
757.1385, 252.8984
757.6206, 252.2581
758.1027, 251.2728
758.5848, 250.3536
759.0670, 249.5226
759.5491, 248.8186
760.0312, 248.3072
760.5133, 248.0617
760.9954, 247.7718
761.4775, 247.3940
761.9597, 246.9677
762.4418, 246.5310
762.9239, 246.0926
763.4060, 245.6850
763.8881, 245.2529
764.3702, 244.9723
764.8524, 245.1538
765.3345, 245.5712
765.8166, 245.8339
766.2987, 245.5911
766.7808, 245.4436
767.2629, 245.6227
767.7451, 245.9527
768.2272, 246.0547
768.7093, 245.7927
769.1914, 245.7849
769.6735, 246.2809
770.1556, 246.9883
770.6378, 247.3096
771.1199, 247.2742
771.6020, 247.0140
772.0841, 246.3662
772.5662, 245.7520
773.0483, 245.5628
773.5305, 245.7106
774.0126, 245.9677
774.4947, 246.4384
774.9768, 246.8090
775.4589, 246.9235
775.9410, 246.8654
776.4232, 246.9277
776.9053, 247.1314
777.3874, 247.3884
777.8695, 247.7143
778.3516, 248.0409
778.8337, 248.1407
779.3159, 248.0482
779.7980, 247.9711
780.2801, 247.9877
780.7622, 248.0981
781.2443, 248.3870
781.7264, 248.7927
782.2086, 249.0590
782.6907, 248.9641
783.1728, 248.8723
783.6549, 248.8997
784.1370, 249.0331
784.6191, 249.2303
785.1013, 249.5401
785.5834, 249.6967
786.0655, 249.4914
786.5476, 249.0806
787.0297, 248.8817
787.5118, 248.8904
787.9940, 249.0827
788.4761, 249.6701
788.9582, 250.2546
789.4403, 250.4487
789.9224, 250.3015
790.4045, 250.2779
790.8867, 250.5676
791.3688, 250.9117
791.8509, 251.2275
792.3330, 251.5181
792.8151, 251.7913
793.2972, 252.0438
793.7794, 252.2921
794.2615, 252.6087
794.7436, 252.9111
795.2257, 252.9428
795.7078, 252.7459
796.1899, 252.5722
796.6721, 252.6872
797.1542, 252.7832
797.6363, 252.5118
798.1184, 251.8959
798.6005, 251.7625
799.0826, 252.6458
799.5648, 253.4154
800.0469, 253.5955
800.5290, 253.2577
801.0111, 253.1260
801.4932, 253.2054
801.9753, 253.4469
802.4575, 254.0113
802.9396, 254.6307
803.4217, 254.7395
803.9038, 254.4106
804.3859, 254.2050
804.8680, 254.6459
805.3502, 255.0812
805.8323, 254.9815
806.3144, 254.3221
806.7965, 254.3948
807.2786, 255.6746
807.7607, 256.7754
808.2429, 256.9789
808.7250, 256.4664
809.2071, 256.3878
809.6892, 256.7299
810.1713, 257.1028
810.6534, 257.2550
811.1356, 257.3047
811.6177, 257.3668
812.0998, 257.4484
812.5819, 257.5441
813.0640, 257.7069
813.5461, 257.8386
814.0283, 257.8595
814.5104, 257.7898
814.9925, 257.8607
815.4746, 258.0954
815.9567, 258.4019
816.4388, 258.7858
816.9210, 259.1927
817.4031, 259.3820
817.8852, 259.3890
818.3673, 259.4886
818.8494, 260.0131
819.3315, 260.5473
819.8137, 260.7154
820.2958, 260.5591
820.7779, 260.4897
821.2600, 260.5753
821.7421, 260.7805
822.2242, 261.1322
822.7064, 261.5994
823.1885, 262.0040
823.6706, 262.3481
824.1527, 262.5997
824.6348, 262.7216
825.1169, 262.7615
825.5991, 262.7219
826.0812, 262.6584
826.5633, 262.7692
827.0454, 263.4990
827.5275, 264.0909
828.0096, 264.1003
828.4918, 263.6115
828.9739, 263.2172
829.4560, 262.8644
829.9381, 262.7437
830.4202, 262.9748
830.9023, 263.4300
831.3845, 263.7019
831.8666, 263.8229
832.3487, 264.0663
832.8308, 264.6939
833.3129, 265.3766
833.7950, 265.7920
834.2772, 266.0158
834.7593, 266.2416
835.2414, 266.6751
835.7235, 266.9300
836.2056, 266.7524
836.6877, 266.3997
837.1699, 266.6101
837.6520, 267.4627
838.1341, 268.2672
838.6162, 268.8579
839.0983, 269.2540
839.5804, 269.3736
840.0626, 269.3249
840.5447, 269.3965
841.0268, 269.7504
841.5089, 270.1943
841.9910, 270.8124
842.4731, 271.4201
842.9553, 271.6378
843.4374, 271.1726
843.9195, 270.9335
844.4016, 271.1376
844.8837, 271.4894
845.3658, 271.3851
845.8480, 270.9206
846.3301, 270.6559
846.8122, 270.7316
847.2943, 271.0656
847.7764, 271.9183
848.2585, 272.8676
848.7407, 273.2993
849.2228, 272.6139
849.7049, 272.0804
850.1870, 271.8770
850.6691, 271.8691
851.1512, 271.8939
851.6334, 271.9216
852.1155, 272.1920
852.5976, 272.7333
853.0797, 273.4759
853.5618, 274.5727
854.0439, 275.7524
854.5261, 276.5053
855.0082, 276.6654
855.4903, 276.6464
855.9724, 276.5322
856.4545, 276.3937
856.9366, 276.2923
857.4188, 276.2362
857.9009, 276.2179
858.3830, 276.2666
858.8651, 276.2982
859.3472, 276.1490
859.8293, 275.9164
860.3115, 276.0526
860.7936, 276.5889
861.2757, 277.1034
861.7578, 277.1717
862.2399, 277.1750
862.7220, 277.4568
863.2042, 278.0864
863.6863, 278.6426
864.1684, 279.0014
864.6505, 279.3930
865.1326, 279.9771
865.6147, 280.7212
866.0969, 281.1597
866.5790, 281.2939
867.0611, 281.3510
867.5432, 281.3702
868.0253, 281.4714
868.5074, 281.9561
868.9896, 282.7231
869.4717, 283.1567
869.9538, 282.7435
870.4359, 282.2833
870.9180, 282.0032
871.4001, 281.9067
871.8823, 282.0473
872.3644, 282.4580
872.8465, 282.8697
873.3286, 283.1965
873.8107, 283.4513
874.2928, 283.5794
874.7750, 283.6525
875.2571, 283.8680
875.7392, 284.5746
876.2213, 285.1534
876.7034, 285.1353
877.1855, 284.8553
877.6677, 285.0966
878.1498, 286.1914
878.6319, 286.8052
879.1140, 286.5429
879.5961, 286.0182
880.0782, 286.3561
880.5604, 287.2928
881.0425, 287.9467
881.5246, 288.0145
882.0067, 287.9513
882.4888, 287.9089
882.9709, 287.9877
883.4531, 288.3088
883.9352, 288.9923
884.4173, 289.7738
884.8994, 290.7799
885.3815, 291.6841
885.8636, 292.1233
886.3458, 292.1448
886.8279, 291.9503
887.3100, 291.5351
887.7921, 291.3522
888.2742, 291.9806
888.7563, 292.8984
889.2385, 293.6060
889.7206, 294.0259
890.2027, 294.3955
890.6848, 294.6188
891.1669, 294.9618
891.6490, 295.5715
892.1312, 296.4318
892.6133, 297.4429
893.0954, 298.5966
893.5775, 299.3392
894.0596, 298.8783
894.5417, 298.1069
895.0239, 298.0894
895.5060, 298.7003
895.9881, 299.2113
896.4702, 299.1993
896.9523, 299.2827
897.4344, 299.7276
897.9166, 300.3792
898.3987, 300.6301
898.8808, 300.4515
899.3629, 300.4403
899.8450, 300.8664
900.3271, 301.4316
900.8093, 301.6616
901.2914, 301.7285
901.7735, 301.9856
902.2556, 302.7198
902.7377, 303.4501
903.2198, 304.0190
903.7020, 304.5297
904.1841, 305.1030
904.6662, 305.7446
905.1483, 306.4281
905.6304, 307.1928
906.1125, 307.8534
906.5947, 308.0668
907.0768, 308.0741
907.5589, 308.2710
908.0410, 308.7064
908.5231, 309.4157
909.0052, 310.7797
909.4874, 312.1195
909.9695, 312.9179
910.4516, 313.0772
910.9337, 313.5890
911.4158, 314.5582
911.8979, 315.4139
912.3801, 315.6315
912.8622, 315.5048
913.3443, 315.5674
913.8264, 315.8522
914.3085, 316.4762
914.7906, 317.9817
915.2728, 319.3750
915.7549, 319.9183
916.2370, 319.8976
916.7191, 320.5451
917.2012, 321.9512
917.6833, 323.7200
918.1655, 325.8730
918.6476, 328.1234
919.1297, 329.8895
919.6118, 331.2986
920.0939, 332.6775
920.5760, 333.9504
921.0582, 335.5236
921.5403, 337.8766
922.0224, 340.5153
922.5045, 342.7415
922.9866, 344.1999
923.4688, 346.2213
923.9509, 348.9311
924.4330, 352.0684
924.9151, 355.4493
925.3972, 358.9496
925.8793, 362.1940
926.3615, 365.1393
926.8436, 367.9800
927.3257, 370.6340
927.8078, 373.4289
928.2899, 376.7411
928.7720, 380.6162
929.2542, 383.9596
929.7363, 386.7881
930.2184, 389.0761
930.7005, 390.8936
931.1826, 392.1644
931.6647, 392.6256
932.1469, 392.3275
932.6290, 391.4829
933.1111, 390.3985
933.5932, 388.5800
934.0753, 385.4194
934.5574, 381.3275
935.0396, 377.5783
935.5217, 374.2652
936.0038, 370.7990
936.4859, 366.8883
936.9680, 363.0397
937.4501, 360.0323
937.9323, 357.6709
938.4144, 355.6010
938.8965, 353.7474
939.3786, 352.0432
939.8607, 350.3613
940.3428, 348.8994
940.8250, 347.8685
941.3071, 347.3530
941.7892, 346.8888
942.2713, 346.4627
942.7534, 346.1530
943.2355, 346.0211
943.7177, 346.0491
944.1998, 346.1777
944.6819, 346.4133
945.1640, 346.8349
945.6461, 347.7085
946.1282, 348.5471
946.6104, 349.1309
947.0925, 349.4893
947.5746, 349.6680
948.0567, 349.6159
948.5388, 349.7337
949.0209, 350.3094
949.5031, 350.8396
949.9852, 350.4222
950.4673, 349.3607
950.9494, 348.2960
951.4315, 347.4028
951.9136, 346.5825
952.3958, 345.9370
952.8779, 345.2690
953.3600, 344.3267
953.8421, 343.0254
954.3242, 342.1283
954.8063, 341.7233
955.2885, 341.3979
955.7706, 340.7939
956.2527, 340.0283
956.7348, 339.1151
957.2169, 338.0741
957.6990, 337.4738
958.1811, 337.7888
958.6632, 338.2970
959.1453, 338.8232
959.6274, 339.3107
960.1096, 339.4780
960.5917, 339.3221
961.0738, 338.8500
961.5559, 337.7265
962.0380, 336.7396
962.5201, 337.0403
963.0023, 338.0420
963.4844, 338.6754
963.9665, 338.2772
964.4486, 337.9905
964.9307, 337.8449
965.4128, 337.9220
965.8950, 338.4702
966.3771, 339.4123
966.8592, 339.9686
967.3413, 340.0517
967.8234, 339.9192
968.3055, 339.6244
968.7877, 339.3257
969.2698, 339.1591
969.7519, 339.1458
970.2340, 339.2323
970.7161, 339.4289
971.1982, 339.6949
971.6804, 340.0285
972.1625, 340.4137
972.6446, 340.7588
973.1267, 341.1025
973.6088, 341.6317
974.0909, 342.6258
974.5731, 343.5887
975.0552, 343.7562
975.5373, 344.7630
976.0194, 345.4561
976.5015, 345.8524
976.9836, 345.0628
977.4658, 345.8046
977.9479, 345.9326
978.4300, 346.0355
978.9121, 346.9927
979.3942, 346.3757
979.8763, 347.3193
980.3585, 347.6400
980.8406, 348.2457
981.3227, 348.2341
981.8048, 348.4131
982.2869, 349.2098
982.7690, 349.6645
983.2512, 349.5818
983.7333, 350.2057
984.2154, 349.8579
984.6975, 350.1828
985.1796, 350.4863
985.6617, 350.7388
986.1439, 350.8705
986.6260, 350.5927
987.1081, 350.5760
987.5902, 350.9456
988.0723, 351.5739
988.5544, 352.4381
989.0366, 353.5205
989.5187, 354.1885
990.0008, 354.3791
990.4829, 354.4093
990.9650, 354.3121
991.4471, 354.3439
991.9293, 354.7790
992.4114, 355.6358
992.8935, 356.5515
993.3756, 357.6505
993.8577, 358.4626
994.3398, 358.7068
994.8220, 358.6431
995.3041, 358.8978
995.7862, 359.4290
996.2683, 360.1172
996.7504, 361.0434
997.2325, 361.8871
997.7147, 362.3984
998.1968, 362.7751
998.6789, 363.2725
999.1610, 363.9297
999.6431, 364.5910
1000.125, 365.2309
1000.607, 365.9370
1001.089, 366.8876
1001.572, 367.8965
1002.054, 368.4740
1002.536, 368.6802
1003.018, 369.3707
1003.500, 371.4703
1003.982, 373.4125
1004.464, 374.6487
1004.946, 375.3774
1005.429, 376.1437
1005.911, 376.9481
1006.393, 377.6222
1006.875, 377.9829
1007.357, 378.5808
1007.839, 380.2527
1008.321, 382.3391
1008.803, 384.0665
1009.285, 385.1727
1009.768, 386.0753
1010.250, 386.5964
1010.732, 387.3035
1011.214, 388.6533
1011.696, 390.5250
1012.178, 392.6031
1012.660, 394.8005
1013.142, 396.6640
1013.625, 397.6761
1014.107, 398.5398
1014.589, 399.3586
1015.071, 400.3353
1015.553, 401.9624
1016.035, 404.3695
1016.517, 406.6707
1016.999, 408.7064
1017.481, 410.5934
1017.964, 412.3470
1018.446, 414.0674
1018.928, 415.9194
1019.410, 417.9363
1019.892, 420.0584
1020.374, 422.2734
1020.856, 424.5986
1021.338, 427.1167
1021.820, 429.7603
1022.303, 431.9733
1022.785, 433.8383
1023.267, 435.9012
1023.749, 438.6787
1024.231, 441.4627
1024.713, 443.5139
1025.195, 445.3349
1025.677, 447.8582
1026.160, 451.3186
1026.642, 454.8249
1027.124, 458.3425
1027.606, 461.8464
1028.088, 465.4662
1028.570, 468.9923
1029.052, 472.2460
1029.534, 475.1565
1030.016, 477.3016
1030.499, 478.8179
1030.981, 479.0815
1031.463, 477.7749
1031.945, 475.1813
1032.427, 472.2086
1032.909, 468.8683
1033.391, 464.9249
1033.873, 460.1388
1034.356, 455.2482
1034.838, 450.7479
1035.320, 446.5477
1035.802, 442.5514
1036.284, 438.4961
1036.766, 435.3974
1037.248, 433.5105
1037.730, 431.9008
1038.213, 429.8435
1038.695, 427.6262
1039.177, 426.0672
1039.659, 425.0626
1040.141, 424.2054
1040.623, 422.9243
1041.105, 422.2505
1041.587, 422.8431
1042.069, 423.9935
1042.552, 424.5587
1043.034, 424.5200
1043.516, 424.9760
1043.998, 426.1095
1044.480, 427.4161
1044.962, 428.3352
1045.444, 429.3049
1045.926, 430.8036
1046.408, 432.9130
1046.891, 434.9233
1047.373, 436.7124
1047.855, 438.6353
1048.337, 440.8293
1048.819, 443.2405
1049.301, 445.7983
1049.783, 448.4708
1050.265, 451.2044
1050.748, 453.8902
1051.230, 456.7846
1051.712, 459.9535
1052.194, 463.4020
1052.676, 467.2755
1053.158, 471.6425
1053.640, 475.3504
1054.122, 478.4020
1054.604, 481.8446
1055.087, 487.1067
1055.569, 492.4142
1056.051, 496.1916
1056.533, 498.8314
1057.015, 501.7349
1057.497, 504.9977
1057.979, 508.6366
1058.461, 512.8792
1058.943, 516.9125
1059.426, 519.8583
1059.908, 521.7676
1060.390, 522.7650
1060.872, 522.8669
1061.354, 522.1415
1061.836, 520.4093
1062.318, 518.0284
1062.800, 515.1227
1063.283, 511.6998
1063.765, 507.3680
1064.247, 502.2552
1064.729, 497.7713
1065.211, 494.5274
1065.693, 491.7076
1066.175, 488.8664
1066.657, 486.0237
1067.140, 483.1069
1067.622, 480.0627
1068.104, 477.1050
1068.586, 474.2119
1069.068, 471.6713
1069.550, 470.0011
1070.032, 468.6432
1070.514, 466.6783
1070.996, 464.2676
1071.479, 461.9247
1071.961, 459.9582
1072.443, 457.8683
1072.925, 455.5206
1073.407, 453.0977
1073.889, 450.8765
1074.371, 448.7890
1074.853, 446.2167
1075.335, 443.1098
1075.818, 440.3732
1076.300, 438.8334
1076.782, 437.6143
1077.264, 436.2791
1077.746, 434.8315
1078.228, 433.3419
1078.710, 431.7915
1079.192, 430.6617
1079.675, 430.2572
1080.157, 429.9033
1080.639, 428.5079
1081.121, 426.9151
1081.603, 426.2844
1082.085, 427.2312
1082.567, 427.5228
1083.049, 426.8857
1083.531, 426.3183
1084.014, 426.4720
1084.496, 427.0396
1084.978, 427.4136
1085.460, 427.5959
1085.942, 427.5966
1086.424, 427.2286
1086.906, 426.9257
1087.388, 426.6037
1087.870, 426.5565
1088.353, 427.3649
1088.835, 428.8798
1089.317, 429.2917
1089.799, 428.5816
1090.281, 428.1562
1090.763, 429.3771
1091.245, 430.7539
1091.727, 431.2801
1092.209, 431.2423
1092.692, 431.5325
1093.174, 432.1877
1093.656, 432.9021
1094.138, 433.6697
1094.620, 434.2325
1095.102, 434.1956
1095.584, 433.8670
1096.066, 433.5297
1096.549, 433.2134
1097.031, 433.1359
1097.513, 433.4038
1097.995, 433.6642
1098.477, 433.7882
1098.959, 433.8304
1099.441, 433.8900
1099.923, 433.9604
1100.406, 434.0073
1100.888, 433.9526
1101.370, 434.0663
1101.852, 434.4510
1102.334, 435.0000
1102.816, 435.7885
1103.298, 436.7255
1103.780, 436.9573
1104.262, 436.5884
1104.745, 436.3754
1105.227, 436.8721
1105.709, 437.4562
1106.191, 437.7785
1106.673, 438.0121
1107.155, 438.3985
1107.637, 438.9448
1108.119, 439.6711
1108.601, 440.6192
1109.084, 441.2009
1109.566, 440.5823
1110.048, 439.6717
1110.530, 439.1792
1111.012, 439.1489
1111.494, 439.5560
1111.976, 440.6001
1112.458, 441.3907
1112.941, 441.7119
1113.423, 441.9422
1113.905, 442.6194
1114.387, 443.5307
1114.869, 444.3106
1115.351, 444.9122
1115.833, 445.6293
1116.315, 447.0350
1116.797, 447.6915
1117.280, 446.8514
1117.762, 445.2459
1118.244, 444.5550
1118.726, 444.6031
1119.208, 444.8778
1119.690, 445.2747
1120.172, 445.7691
1120.654, 446.3419
1121.136, 447.0402
1121.619, 448.0469
1122.101, 449.2608
1122.583, 449.4288
1123.065, 448.6850
1123.547, 448.2303
1124.029, 448.7445
1124.511, 449.5937
1124.993, 450.7994
1125.476, 451.8725
1125.958, 452.0869
1126.440, 451.1522
1126.922, 451.1440
1127.404, 452.1451
1127.886, 453.0753
1128.368, 452.8361
1128.850, 452.4158
1129.333, 452.8569
1129.815, 453.8819
1130.297, 454.6397
1130.779, 455.0628
1131.261, 455.2255
1131.743, 455.0664
1132.225, 454.9382
1132.707, 455.4038
1133.189, 456.0362
1133.672, 456.1649
1134.154, 455.8099
1134.636, 455.6146
1135.118, 455.7173
1135.600, 456.0014
1136.082, 456.5039
1136.564, 457.0816
1137.046, 457.4467
1137.528, 457.7255
1138.011, 458.2607
1138.493, 459.1427
1138.975, 459.8761
1139.457, 460.0537
1139.939, 460.3041
1140.421, 460.9409
1140.903, 461.7400
1141.385, 461.9738
1141.868, 461.7892
1142.350, 461.7935
1142.832, 462.1923
1143.314, 462.7051
1143.796, 463.1612
1144.278, 463.7130
1144.760, 464.5188
1145.242, 465.5405
1145.724, 466.2642
1146.207, 466.7021
1146.689, 466.9727
1147.171, 467.1005
1147.653, 467.1276
1148.135, 466.8695
1148.617, 466.6723
1149.099, 466.9766
1149.581, 467.9116
1150.063, 468.4407
1150.546, 468.5507
1151.028, 468.8489
1151.510, 470.1515
1151.992, 471.4207
1152.474, 471.4855
1152.956, 470.9589
1153.438, 471.1693
1153.920, 472.4354
1154.403, 473.4192
1154.885, 474.0195
1155.367, 474.4734
1155.849, 474.8727
1156.331, 475.3036
1156.813, 475.9045
1157.295, 476.6292
1157.777, 477.2674
1158.260, 477.8155
1158.742, 478.2173
1159.224, 478.4268
1159.706, 478.5942
1160.188, 478.8484
1160.670, 479.1968
1161.152, 479.6949
1161.634, 480.3350
1162.116, 480.9174
1162.599, 481.4229
1163.081, 481.8105
1163.563, 481.9455
1164.045, 482.2378
1164.527, 483.9472
1165.009, 486.1046
1165.491, 486.5669
1165.973, 484.8285
1166.455, 483.6242
1166.938, 483.6669
1167.420, 484.3839
1167.902, 485.8912
1168.384, 487.6172
1168.866, 488.1431
1169.348, 487.8047
1169.830, 487.4811
1170.312, 487.3555
1170.795, 487.3585
1171.277, 487.5315
1171.759, 487.7464
1172.241, 487.9157
1172.723, 488.0987
1173.205, 488.6392
1173.687, 489.4095
1174.169, 489.9497
1174.651, 490.0164
1175.134, 490.0318
1175.616, 489.9693
1176.098, 490.1258
1176.580, 490.8271
1177.062, 491.9565
1177.544, 492.4501
1178.026, 492.4478
1178.508, 492.7686
1178.990, 494.3891
1179.473, 495.5965
1179.955, 495.0668
1180.437, 494.2183
1180.919, 494.4077
1181.401, 495.6104
1181.883, 496.4008
1182.365, 496.8131
1182.847, 497.2332
1183.330, 497.9386
1183.812, 498.6630
1184.294, 499.3858
1184.776, 499.9753
1185.258, 500.2139
1185.740, 500.0946
1186.222, 500.1748
1186.704, 500.4844
1187.187, 501.0229
1187.669, 502.1456
1188.151, 503.1452
1188.633, 503.3718
1189.115, 503.2516
1189.597, 503.5470
1190.079, 504.2724
1190.561, 505.0126
1191.043, 505.7362
1191.526, 506.2375
1192.008, 505.9306
1192.490, 505.7308
1192.972, 506.4510
1193.454, 507.7457
1193.936, 508.7272
1194.418, 509.3862
1194.900, 509.7786
1195.382, 509.8920
1195.865, 509.9530
1196.347, 510.1440
1196.829, 510.3756
1197.311, 510.5578
1197.793, 510.7340
1198.275, 511.1017
1198.757, 511.6949
1199.239, 512.1304
1199.722, 512.3079
1200.204, 512.5129
1200.686, 513.1760
1201.168, 513.8475
1201.650, 514.0270
1202.132, 513.8132
1202.614, 513.9376
1203.096, 514.4042
1203.578, 515.1292
1204.061, 516.1410
1204.543, 517.1352
1205.025, 517.9695
1205.507, 518.5245
1205.989, 518.4139
1206.471, 517.7244
1206.953, 517.9283
1207.435, 519.0648
1207.917, 520.2680
1208.400, 521.2611
1208.882, 522.1779
1209.364, 523.2618
1209.846, 524.2493
1210.328, 524.8328
1210.810, 525.0394
1211.292, 524.9232
1211.774, 524.4734
1212.257, 524.0710
1212.739, 523.8561
1213.221, 523.7756
1213.703, 523.7578
1214.185, 523.8708
1214.667, 524.2111
1215.149, 524.7798
1215.631, 525.4786
1216.114, 526.3136
1216.596, 526.9767
1217.078, 527.2523
1217.560, 527.4242
1218.042, 527.6186
1218.524, 527.9279
1219.006, 528.4965
1219.488, 529.3374
1219.970, 529.9583
1220.453, 530.3405
1220.935, 531.1146
1221.417, 533.1313
1221.899, 534.8269
1222.381, 534.4536
1222.863, 533.3510
1223.345, 533.2089
1223.827, 534.1729
1224.309, 534.8308
1224.792, 535.1873
1225.274, 535.6062
1225.756, 536.4615
1226.238, 537.2492
1226.720, 537.3841
1227.202, 537.4053
1227.684, 538.0906
1228.166, 539.5957
1228.649, 540.2354
1229.131, 540.0458
1229.613, 539.6389
1230.095, 538.9282
1230.577, 538.6160
1231.059, 539.6049
1231.541, 540.9304
1232.023, 541.3293
1232.505, 540.7239
1232.988, 540.5253
1233.470, 540.7328
1233.952, 541.2449
1234.434, 542.3492
1234.916, 543.3456
1235.398, 543.7765
1235.880, 543.9402
1236.362, 544.1769
1236.844, 544.4874
1237.327, 544.5779
1237.809, 544.4774
1238.291, 544.4781
1238.773, 544.8162
1239.255, 545.2277
1239.737, 545.6116
1240.219, 545.9987
1240.701, 546.4474
1241.184, 546.9374
1241.666, 547.3113
1242.148, 547.5789
1242.630, 547.8766
1243.112, 548.3187
1243.594, 548.7440
1244.076, 549.0129
1244.558, 549.3484
1245.041, 550.0953
1245.523, 551.1418
1246.005, 552.0775
1246.487, 552.8433
1246.969, 553.2751
1247.451, 552.7883
1247.933, 552.6580
1248.415, 553.1669
1248.897, 554.0729
1249.380, 555.1524
1249.862, 556.3957
1250.344, 557.9340
1250.826, 559.6319
1251.308, 560.7894
1251.790, 560.6004
1252.272, 560.5355
1252.754, 560.7806
1253.236, 561.2779
1253.719, 562.0863
1254.201, 563.0475
1254.683, 564.0412
1255.165, 564.9417
1255.647, 565.1917
1256.129, 563.8470
1256.611, 563.2722
1257.093, 563.8574
1257.576, 564.8377
1258.058, 565.5126
1258.540, 565.9913
1259.022, 566.4903
1259.504, 566.9534
1259.986, 567.0048
1260.468, 566.2791
1260.950, 566.1194
1261.432, 566.7386
1261.915, 567.6041
1262.397, 568.2529
1262.879, 568.8308
1263.361, 569.4309
1263.843, 570.1016
1264.325, 570.9937
1264.807, 572.1670
1265.289, 573.3766
1265.771, 574.6522
1266.254, 575.4214
1266.736, 574.6429
1267.218, 573.6163
1267.700, 573.4669
1268.182, 573.9308
1268.664, 574.1088
1269.146, 573.9625
1269.628, 574.1235
1270.111, 574.6597
1270.593, 575.3410
1271.075, 576.1924
1271.557, 576.9572
1272.039, 577.3280
1272.521, 577.5864
1273.003, 578.3251
1273.485, 579.4600
1273.968, 579.8127
1274.450, 579.3273
1274.932, 578.9185
1275.414, 578.8047
1275.896, 579.3245
1276.378, 580.8900
1276.860, 582.7450
1277.342, 583.9764
1277.824, 584.6168
1278.307, 584.6614
1278.789, 584.1949
1279.271, 583.9020
1279.753, 584.1208
1280.235, 584.5518
1280.717, 585.2194
1281.199, 585.9081
1281.681, 586.4539
1282.163, 586.8055
1282.646, 586.5448
1283.128, 585.8895
1283.610, 586.0828
1284.092, 588.1783
1284.574, 589.7243
1285.056, 590.4143
1285.538, 590.6887
1286.020, 590.9388
1286.503, 591.0752
1286.985, 590.7523
1287.467, 590.2053
1287.949, 590.3425
1288.431, 591.4304
1288.913, 592.3206
1289.395, 592.9000
1289.877, 593.4611
1290.359, 594.5908
1290.842, 595.4892
1291.324, 594.9039
1291.806, 593.7601
1292.288, 594.3438
1292.770, 596.8917
1293.252, 597.9564
1293.734, 597.3519
1294.216, 596.5256
1294.698, 595.8979
1295.181, 595.9258
1295.663, 597.5526
1296.145, 599.5359
1296.627, 600.2887
1297.109, 600.0150
1297.591, 600.4670
1298.073, 601.5353
1298.555, 601.9625
1299.038, 599.6582
1299.520, 598.8037
1300.002, 600.7883
1300.484, 603.7916
1300.966, 605.9688
1301.448, 607.3303
1301.930, 608.2650
1302.412, 608.8577
1302.895, 609.3225
1303.377, 609.1783
1303.859, 609.8937
1304.341, 611.6448
1304.823, 613.0427
1305.305, 612.2421
##END=



