##NAMES=Tremolite
##RRUFFID=R061087
##IDEAL CHEMISTRY=[box]Ca_2_Mg_5_Si_8_O_22_(OH)_2_
##LOCALITY=Turret, Chaffee County, Colorado, USA
##OWNER=RRUFF
##SOURCE=Michael Scott
##DESCRIPTION=White radiating tufts of acicular crystals
##STATUS=The identification of this mineral has been made only by X-ray diffraction.
##URL=rruff.info/R061087
8.806445e+001, 5.985386e+003
8.854657e+001, 5.772638e+003
8.902869e+001, 5.698990e+003
8.951080e+001, 5.830920e+003
8.999292e+001, 6.071728e+003
9.047504e+001, 6.334309e+003
9.095715e+001, 6.602138e+003
9.143927e+001, 6.868095e+003
9.192139e+001, 7.124403e+003
9.240350e+001, 7.371062e+003
9.288562e+001, 7.611812e+003
9.336774e+001, 7.797178e+003
9.384985e+001, 7.875070e+003
9.433197e+001, 7.842167e+003
9.481409e+001, 7.804209e+003
9.529620e+001, 7.739490e+003
9.577832e+001, 7.676594e+003
9.626044e+001, 7.620524e+003
9.674255e+001, 7.572636e+003
9.722467e+001, 7.533082e+003
9.770679e+001, 7.500839e+003
9.818890e+001, 7.473787e+003
9.867102e+001, 7.451579e+003
9.915314e+001, 7.431987e+003
9.963525e+001, 7.412455e+003
1.001174e+002, 7.391462e+003
1.005995e+002, 7.369860e+003
1.010816e+002, 7.351718e+003
1.015637e+002, 7.337898e+003
1.020458e+002, 7.325586e+003
1.025280e+002, 7.311640e+003
1.030101e+002, 7.297077e+003
1.034922e+002, 7.283860e+003
1.039743e+002, 7.273190e+003
1.044564e+002, 7.264779e+003
1.049385e+002, 7.260537e+003
1.054207e+002, 7.262907e+003
1.059028e+002, 7.265351e+003
1.063849e+002, 7.264282e+003
1.068670e+002, 7.259429e+003
1.073491e+002, 7.252516e+003
1.078312e+002, 7.243816e+003
1.083134e+002, 7.233516e+003
1.087955e+002, 7.226755e+003
1.092776e+002, 7.226268e+003
1.097597e+002, 7.228992e+003
1.102418e+002, 7.230515e+003
1.107239e+002, 7.229869e+003
1.112061e+002, 7.228714e+003
1.116882e+002, 7.228128e+003
1.121703e+002, 7.228114e+003
1.126524e+002, 7.229144e+003
1.131345e+002, 7.232876e+003
1.136166e+002, 7.238983e+003
1.140988e+002, 7.241708e+003
1.145809e+002, 7.235993e+003
1.150630e+002, 7.230124e+003
1.155451e+002, 7.227815e+003
1.160272e+002, 7.229487e+003
1.165093e+002, 7.234334e+003
1.169915e+002, 7.242014e+003
1.174736e+002, 7.254031e+003
1.179557e+002, 7.264580e+003
1.184378e+002, 7.273769e+003
1.189199e+002, 7.281145e+003
1.194020e+002, 7.285604e+003
1.198842e+002, 7.286923e+003
1.203663e+002, 7.286583e+003
1.208484e+002, 7.288057e+003
1.213305e+002, 7.294428e+003
1.218126e+002, 7.299002e+003
1.222947e+002, 7.300753e+003
1.227769e+002, 7.300740e+003
1.232590e+002, 7.300916e+003
1.237411e+002, 7.302627e+003
1.242232e+002, 7.304500e+003
1.247053e+002, 7.299641e+003
1.251874e+002, 7.283662e+003
1.256696e+002, 7.267510e+003
1.261517e+002, 7.254966e+003
1.266338e+002, 7.245610e+003
1.271159e+002, 7.237094e+003
1.275980e+002, 7.227704e+003
1.280801e+002, 7.218433e+003
1.285623e+002, 7.211788e+003
1.290444e+002, 7.209183e+003
1.295265e+002, 7.208355e+003
1.300086e+002, 7.207651e+003
1.304907e+002, 7.207350e+003
1.309728e+002, 7.205826e+003
1.314550e+002, 7.199842e+003
1.319371e+002, 7.192279e+003
1.324192e+002, 7.187329e+003
1.329013e+002, 7.187635e+003
1.333834e+002, 7.191580e+003
1.338655e+002, 7.194446e+003
1.343477e+002, 7.195911e+003
1.348298e+002, 7.196600e+003
1.353119e+002, 7.196681e+003
1.357940e+002, 7.196310e+003
1.362761e+002, 7.195657e+003
1.367582e+002, 7.194489e+003
1.372404e+002, 7.192756e+003
1.377225e+002, 7.193115e+003
1.382046e+002, 7.198960e+003
1.386867e+002, 7.204053e+003
1.391688e+002, 7.205781e+003
1.396509e+002, 7.204702e+003
1.401331e+002, 7.203243e+003
1.406152e+002, 7.203970e+003
1.410973e+002, 7.207733e+003
1.415794e+002, 7.210858e+003
1.420615e+002, 7.213438e+003
1.425436e+002, 7.215522e+003
1.430258e+002, 7.216438e+003
1.435079e+002, 7.216338e+003
1.439900e+002, 7.216906e+003
1.444721e+002, 7.220792e+003
1.449542e+002, 7.230496e+003
1.454363e+002, 7.236764e+003
1.459185e+002, 7.237221e+003
1.464006e+002, 7.234806e+003
1.468827e+002, 7.232429e+003
1.473648e+002, 7.230700e+003
1.478469e+002, 7.229940e+003
1.483290e+002, 7.230791e+003
1.488112e+002, 7.232884e+003
1.492933e+002, 7.236556e+003
1.497754e+002, 7.243203e+003
1.502575e+002, 7.251675e+003
1.507396e+002, 7.258774e+003
1.512217e+002, 7.263548e+003
1.517039e+002, 7.266297e+003
1.521860e+002, 7.266946e+003
1.526681e+002, 7.265063e+003
1.531502e+002, 7.264621e+003
1.536323e+002, 7.270764e+003
1.541144e+002, 7.283851e+003
1.545966e+002, 7.292797e+003
1.550787e+002, 7.290030e+003
1.555608e+002, 7.284499e+003
1.560429e+002, 7.281462e+003
1.565250e+002, 7.281949e+003
1.570071e+002, 7.285597e+003
1.574893e+002, 7.292188e+003
1.579714e+002, 7.302364e+003
1.584535e+002, 7.313953e+003
1.589356e+002, 7.330112e+003
1.594177e+002, 7.345448e+003
1.598998e+002, 7.355837e+003
1.603820e+002, 7.359671e+003
1.608641e+002, 7.357981e+003
1.613462e+002, 7.352885e+003
1.618283e+002, 7.341210e+003
1.623104e+002, 7.330265e+003
1.627925e+002, 7.321242e+003
1.632747e+002, 7.313091e+003
1.637568e+002, 7.304627e+003
1.642389e+002, 7.295322e+003
1.647210e+002, 7.285341e+003
1.652031e+002, 7.275373e+003
1.656852e+002, 7.262055e+003
1.661674e+002, 7.252604e+003
1.666495e+002, 7.250579e+003
1.671316e+002, 7.253095e+003
1.676137e+002, 7.255053e+003
1.680958e+002, 7.253306e+003
1.685779e+002, 7.248797e+003
1.690601e+002, 7.247494e+003
1.695422e+002, 7.250264e+003
1.700243e+002, 7.254517e+003
1.705064e+002, 7.259778e+003
1.709885e+002, 7.265821e+003
1.714706e+002, 7.271922e+003
1.719528e+002, 7.277580e+003
1.724349e+002, 7.282919e+003
1.729170e+002, 7.288589e+003
1.733991e+002, 7.295426e+003
1.738812e+002, 7.301911e+003
1.743633e+002, 7.305880e+003
1.748455e+002, 7.307233e+003
1.753276e+002, 7.310350e+003
1.758097e+002, 7.319189e+003
1.762918e+002, 7.331533e+003
1.767739e+002, 7.343722e+003
1.772560e+002, 7.356537e+003
1.777382e+002, 7.367790e+003
1.782203e+002, 7.374136e+003
1.787024e+002, 7.374972e+003
1.791845e+002, 7.372809e+003
1.796666e+002, 7.369270e+003
1.801487e+002, 7.363725e+003
1.806309e+002, 7.354668e+003
1.811130e+002, 7.340224e+003
1.815951e+002, 7.322569e+003
1.820772e+002, 7.306956e+003
1.825593e+002, 7.292265e+003
1.830414e+002, 7.282224e+003
1.835236e+002, 7.279868e+003
1.840057e+002, 7.281702e+003
1.844878e+002, 7.282552e+003
1.849699e+002, 7.278779e+003
1.854520e+002, 7.271620e+003
1.859341e+002, 7.269276e+003
1.864163e+002, 7.277628e+003
1.868984e+002, 7.284480e+003
1.873805e+002, 7.286778e+003
1.878626e+002, 7.285649e+003
1.883447e+002, 7.283014e+003
1.888268e+002, 7.279906e+003
1.893090e+002, 7.276429e+003
1.897911e+002, 7.275601e+003
1.902732e+002, 7.282286e+003
1.907553e+002, 7.286779e+003
1.912374e+002, 7.285029e+003
1.917195e+002, 7.278855e+003
1.922017e+002, 7.272570e+003
1.926838e+002, 7.269456e+003
1.931659e+002, 7.269616e+003
1.936480e+002, 7.270259e+003
1.941301e+002, 7.273133e+003
1.946122e+002, 7.274776e+003
1.950944e+002, 7.272616e+003
1.955765e+002, 7.267530e+003
1.960586e+002, 7.262722e+003
1.965407e+002, 7.260727e+003
1.970228e+002, 7.261731e+003
1.975049e+002, 7.263476e+003
1.979871e+002, 7.265143e+003
1.984692e+002, 7.268006e+003
1.989513e+002, 7.274034e+003
1.994334e+002, 7.282792e+003
1.999155e+002, 7.290483e+003
2.003976e+002, 7.293509e+003
2.008798e+002, 7.292100e+003
2.013619e+002, 7.292229e+003
2.018440e+002, 7.294300e+003
2.023261e+002, 7.297869e+003
2.028082e+002, 7.303708e+003
2.032903e+002, 7.312000e+003
2.037725e+002, 7.318830e+003
2.042546e+002, 7.320210e+003
2.047367e+002, 7.317574e+003
2.052188e+002, 7.314847e+003
2.057009e+002, 7.312496e+003
2.061830e+002, 7.310578e+003
2.066652e+002, 7.309071e+003
2.071473e+002, 7.307892e+003
2.076294e+002, 7.307572e+003
2.081115e+002, 7.308991e+003
2.085936e+002, 7.311452e+003
2.090757e+002, 7.313911e+003
2.095579e+002, 7.315029e+003
2.100400e+002, 7.316257e+003
2.105221e+002, 7.321136e+003
2.110042e+002, 7.331416e+003
2.114863e+002, 7.341323e+003
2.119685e+002, 7.347860e+003
2.124506e+002, 7.352252e+003
2.129327e+002, 7.356119e+003
2.134148e+002, 7.360278e+003
2.138969e+002, 7.364436e+003
2.143790e+002, 7.367566e+003
2.148612e+002, 7.368982e+003
2.153433e+002, 7.370481e+003
2.158254e+002, 7.372713e+003
2.163075e+002, 7.375406e+003
2.167896e+002, 7.378014e+003
2.172717e+002, 7.379950e+003
2.177539e+002, 7.381785e+003
2.182360e+002, 7.386185e+003
2.187181e+002, 7.395472e+003
2.192002e+002, 7.404452e+003
2.196823e+002, 7.410634e+003
2.201644e+002, 7.415984e+003
2.206466e+002, 7.423798e+003
2.211287e+002, 7.436477e+003
2.216108e+002, 7.452529e+003
2.220929e+002, 7.463259e+003
2.225750e+002, 7.464767e+003
2.230571e+002, 7.464568e+003
2.235393e+002, 7.465004e+003
2.240214e+002, 7.464311e+003
2.245035e+002, 7.459164e+003
2.249856e+002, 7.447275e+003
2.254677e+002, 7.430083e+003
2.259498e+002, 7.416800e+003
2.264320e+002, 7.410394e+003
2.269141e+002, 7.404850e+003
2.273962e+002, 7.398006e+003
2.278783e+002, 7.391589e+003
2.283604e+002, 7.388648e+003
2.288425e+002, 7.391158e+003
2.293247e+002, 7.398075e+003
2.298068e+002, 7.403416e+003
2.302889e+002, 7.407655e+003
2.307710e+002, 7.409941e+003
2.312531e+002, 7.409062e+003
2.317352e+002, 7.406151e+003
2.322174e+002, 7.403029e+003
2.326995e+002, 7.400592e+003
2.331816e+002, 7.398772e+003
2.336637e+002, 7.397396e+003
2.341458e+002, 7.397946e+003
2.346279e+002, 7.397129e+003
2.351101e+002, 7.394249e+003
2.355922e+002, 7.389403e+003
2.360743e+002, 7.382536e+003
2.365564e+002, 7.373431e+003
2.370385e+002, 7.362681e+003
2.375206e+002, 7.352176e+003
2.380028e+002, 7.339452e+003
2.384849e+002, 7.330371e+003
2.389670e+002, 7.329988e+003
2.394491e+002, 7.334846e+003
2.399312e+002, 7.336596e+003
2.404133e+002, 7.330841e+003
2.408955e+002, 7.321397e+003
2.413776e+002, 7.316668e+003
2.418597e+002, 7.317202e+003
2.423418e+002, 7.319838e+003
2.428239e+002, 7.324098e+003
2.433060e+002, 7.329544e+003
2.437882e+002, 7.335214e+003
2.442703e+002, 7.341158e+003
2.447524e+002, 7.346516e+003
2.452345e+002, 7.349912e+003
2.457166e+002, 7.351199e+003
2.461987e+002, 7.351688e+003
2.466809e+002, 7.351173e+003
2.471630e+002, 7.350191e+003
2.476451e+002, 7.350938e+003
2.481272e+002, 7.355195e+003
2.486093e+002, 7.359662e+003
2.490914e+002, 7.360985e+003
2.495736e+002, 7.359290e+003
2.500557e+002, 7.354786e+003
2.505378e+002, 7.344268e+003
2.510199e+002, 7.330128e+003
2.515020e+002, 7.322812e+003
2.519841e+002, 7.327434e+003
2.524663e+002, 7.335217e+003
2.529484e+002, 7.338398e+003
2.534305e+002, 7.337326e+003
2.539126e+002, 7.334934e+003
2.543947e+002, 7.332050e+003
2.548768e+002, 7.329015e+003
2.553590e+002, 7.327415e+003
2.558411e+002, 7.327239e+003
2.563232e+002, 7.329048e+003
2.568053e+002, 7.334516e+003
2.572874e+002, 7.342428e+003
2.577695e+002, 7.348382e+003
2.582516e+002, 7.348611e+003
2.587338e+002, 7.344213e+003
2.592159e+002, 7.341057e+003
2.596980e+002, 7.339665e+003
2.601801e+002, 7.339097e+003
2.606622e+002, 7.338813e+003
2.611443e+002, 7.338828e+003
2.616265e+002, 7.339167e+003
2.621086e+002, 7.339649e+003
2.625907e+002, 7.340436e+003
2.630728e+002, 7.342537e+003
2.635549e+002, 7.347439e+003
2.640370e+002, 7.351274e+003
2.645192e+002, 7.352203e+003
2.650013e+002, 7.351209e+003
2.654834e+002, 7.349871e+003
2.659655e+002, 7.348987e+003
2.664476e+002, 7.348412e+003
2.669297e+002, 7.347733e+003
2.674119e+002, 7.347549e+003
2.678940e+002, 7.346193e+003
2.683761e+002, 7.342225e+003
2.688582e+002, 7.337337e+003
2.693403e+002, 7.333534e+003
2.698224e+002, 7.331810e+003
2.703046e+002, 7.331805e+003
2.707867e+002, 7.332435e+003
2.712688e+002, 7.333208e+003
2.717509e+002, 7.335776e+003
2.722330e+002, 7.342495e+003
2.727151e+002, 7.349965e+003
2.731973e+002, 7.354639e+003
2.736794e+002, 7.355048e+003
2.741615e+002, 7.352846e+003
2.746436e+002, 7.351142e+003
2.751257e+002, 7.348748e+003
2.756078e+002, 7.349396e+003
2.760900e+002, 7.356084e+003
2.765721e+002, 7.363854e+003
2.770542e+002, 7.367717e+003
2.775363e+002, 7.366456e+003
2.780184e+002, 7.363960e+003
2.785005e+002, 7.367866e+003
2.789827e+002, 7.384553e+003
2.794648e+002, 7.393017e+003
2.799469e+002, 7.388297e+003
2.804290e+002, 7.379318e+003
2.809111e+002, 7.370178e+003
2.813932e+002, 7.362479e+003
2.818754e+002, 7.357544e+003
2.823575e+002, 7.358009e+003
2.828396e+002, 7.367235e+003
2.833217e+002, 7.372118e+003
2.838038e+002, 7.370162e+003
2.842859e+002, 7.366606e+003
2.847681e+002, 7.363766e+003
2.852502e+002, 7.362013e+003
2.857323e+002, 7.360835e+003
2.862144e+002, 7.359841e+003
2.866965e+002, 7.359217e+003
2.871786e+002, 7.357632e+003
2.876608e+002, 7.353873e+003
2.881429e+002, 7.350366e+003
2.886250e+002, 7.349326e+003
2.891071e+002, 7.349615e+003
2.895892e+002, 7.347998e+003
2.900714e+002, 7.341580e+003
2.905535e+002, 7.330317e+003
2.910356e+002, 7.319966e+003
2.915177e+002, 7.307963e+003
2.919998e+002, 7.299622e+003
2.924819e+002, 7.297706e+003
2.929641e+002, 7.300501e+003
2.934462e+002, 7.304964e+003
2.939283e+002, 7.309326e+003
2.944104e+002, 7.313499e+003
2.948925e+002, 7.317031e+003
2.953746e+002, 7.322255e+003
2.958568e+002, 7.324026e+003
2.963389e+002, 7.318462e+003
2.968210e+002, 7.309778e+003
2.973031e+002, 7.303648e+003
2.977852e+002, 7.302787e+003
2.982673e+002, 7.305773e+003
2.987495e+002, 7.308414e+003
2.992316e+002, 7.310098e+003
2.997137e+002, 7.312133e+003
3.001958e+002, 7.315571e+003
3.006779e+002, 7.318871e+003
3.011600e+002, 7.320179e+003
3.016422e+002, 7.318964e+003
3.021243e+002, 7.316544e+003
3.026064e+002, 7.315391e+003
3.030885e+002, 7.317036e+003
3.035706e+002, 7.317180e+003
3.040527e+002, 7.314380e+003
3.045349e+002, 7.311180e+003
3.050170e+002, 7.310004e+003
3.054991e+002, 7.311016e+003
3.059812e+002, 7.312046e+003
3.064633e+002, 7.310241e+003
3.069454e+002, 7.304296e+003
3.074276e+002, 7.300167e+003
3.079097e+002, 7.299286e+003
3.083918e+002, 7.298760e+003
3.088739e+002, 7.296967e+003
3.093560e+002, 7.293999e+003
3.098381e+002, 7.290799e+003
3.103203e+002, 7.287914e+003
3.108024e+002, 7.285221e+003
3.112845e+002, 7.285708e+003
3.117666e+002, 7.291936e+003
3.122487e+002, 7.298256e+003
3.127308e+002, 7.305220e+003
3.132130e+002, 7.310753e+003
3.136951e+002, 7.309990e+003
3.141772e+002, 7.299023e+003
3.146593e+002, 7.280139e+003
3.151414e+002, 7.269729e+003
3.156235e+002, 7.273979e+003
3.161057e+002, 7.279487e+003
3.165878e+002, 7.285736e+003
3.170699e+002, 7.291507e+003
3.175520e+002, 7.295446e+003
3.180341e+002, 7.296936e+003
3.185162e+002, 7.296304e+003
3.189984e+002, 7.294306e+003
3.194805e+002, 7.286945e+003
3.199626e+002, 7.283688e+003
3.204447e+002, 7.288258e+003
3.209268e+002, 7.294970e+003
3.214089e+002, 7.298384e+003
3.218911e+002, 7.297178e+003
3.223732e+002, 7.294209e+003
3.228553e+002, 7.293683e+003
3.233374e+002, 7.296879e+003
3.238195e+002, 7.299613e+003
3.243016e+002, 7.301956e+003
3.247838e+002, 7.303858e+003
3.252659e+002, 7.305522e+003
3.257480e+002, 7.306797e+003
3.262301e+002, 7.307065e+003
3.267122e+002, 7.305592e+003
3.271943e+002, 7.302115e+003
3.276765e+002, 7.298838e+003
3.281586e+002, 7.294425e+003
3.286407e+002, 7.291392e+003
3.291228e+002, 7.290642e+003
3.296049e+002, 7.291983e+003
3.300870e+002, 7.295029e+003
3.305692e+002, 7.299674e+003
3.310513e+002, 7.305632e+003
3.315334e+002, 7.310652e+003
3.320155e+002, 7.313726e+003
3.324976e+002, 7.317033e+003
3.329797e+002, 7.321940e+003
3.334619e+002, 7.326984e+003
3.339440e+002, 7.330419e+003
3.344261e+002, 7.331492e+003
3.349082e+002, 7.330508e+003
3.353904e+002, 7.328146e+003
3.358725e+002, 7.324678e+003
3.363546e+002, 7.319308e+003
3.368367e+002, 7.309264e+003
3.373188e+002, 7.299264e+003
3.378009e+002, 7.293529e+003
3.382831e+002, 7.292775e+003
3.387652e+002, 7.294315e+003
3.392473e+002, 7.294352e+003
3.397294e+002, 7.291394e+003
3.402115e+002, 7.291752e+003
3.406936e+002, 7.299126e+003
3.411758e+002, 7.306039e+003
3.416579e+002, 7.308063e+003
3.421400e+002, 7.305966e+003
3.426221e+002, 7.303424e+003
3.431042e+002, 7.303453e+003
3.435863e+002, 7.306021e+003
3.440685e+002, 7.309469e+003
3.445506e+002, 7.317899e+003
3.450327e+002, 7.322787e+003
3.455148e+002, 7.319844e+003
3.459969e+002, 7.312460e+003
3.464790e+002, 7.305676e+003
3.469612e+002, 7.302095e+003
3.474433e+002, 7.301372e+003
3.479254e+002, 7.302759e+003
3.484075e+002, 7.309144e+003
3.488896e+002, 7.312774e+003
3.493717e+002, 7.309170e+003
3.498539e+002, 7.304552e+003
3.503360e+002, 7.305279e+003
3.508181e+002, 7.313023e+003
3.513002e+002, 7.323076e+003
3.517823e+002, 7.328046e+003
3.522644e+002, 7.325841e+003
3.527466e+002, 7.325454e+003
3.532287e+002, 7.330923e+003
3.537108e+002, 7.335446e+003
3.541929e+002, 7.335199e+003
3.546750e+002, 7.330398e+003
3.551571e+002, 7.323688e+003
3.556393e+002, 7.316283e+003
3.561214e+002, 7.308201e+003
3.566035e+002, 7.305015e+003
3.570856e+002, 7.312286e+003
3.575677e+002, 7.317997e+003
3.580498e+002, 7.316509e+003
3.585320e+002, 7.310815e+003
3.590141e+002, 7.306279e+003
3.594962e+002, 7.306028e+003
3.599783e+002, 7.308410e+003
3.604604e+002, 7.308682e+003
3.609425e+002, 7.305089e+003
3.614247e+002, 7.303492e+003
3.619068e+002, 7.306731e+003
3.623889e+002, 7.311931e+003
3.628710e+002, 7.316962e+003
3.633531e+002, 7.321278e+003
3.638352e+002, 7.324515e+003
3.643174e+002, 7.324747e+003
3.647995e+002, 7.321194e+003
3.652816e+002, 7.322813e+003
3.657637e+002, 7.336964e+003
3.662458e+002, 7.351634e+003
3.667279e+002, 7.359430e+003
3.672101e+002, 7.360467e+003
3.676922e+002, 7.358345e+003
3.681743e+002, 7.354097e+003
3.686564e+002, 7.348406e+003
3.691385e+002, 7.344733e+003
3.696206e+002, 7.344353e+003
3.701028e+002, 7.343737e+003
3.705849e+002, 7.340592e+003
3.710670e+002, 7.335830e+003
3.715491e+002, 7.331008e+003
3.720312e+002, 7.326674e+003
3.725133e+002, 7.322494e+003
3.729955e+002, 7.317600e+003
3.734776e+002, 7.311821e+003
3.739597e+002, 7.307075e+003
3.744418e+002, 7.304559e+003
3.749239e+002, 7.303315e+003
3.754060e+002, 7.302221e+003
3.758882e+002, 7.301243e+003
3.763703e+002, 7.300151e+003
3.768524e+002, 7.298560e+003
3.773345e+002, 7.296654e+003
3.778166e+002, 7.295375e+003
3.782987e+002, 7.295341e+003
3.787809e+002, 7.295234e+003
3.792630e+002, 7.293179e+003
3.797451e+002, 7.289449e+003
3.802272e+002, 7.286404e+003
3.807093e+002, 7.285242e+003
3.811914e+002, 7.285008e+003
3.816736e+002, 7.284487e+003
3.821557e+002, 7.283586e+003
3.826378e+002, 7.282559e+003
3.831199e+002, 7.280922e+003
3.836020e+002, 7.279401e+003
3.840841e+002, 7.280583e+003
3.845663e+002, 7.289111e+003
3.850484e+002, 7.295726e+003
3.855305e+002, 7.292593e+003
3.860126e+002, 7.282725e+003
3.864947e+002, 7.275587e+003
3.869768e+002, 7.275131e+003
3.874590e+002, 7.279328e+003
3.879411e+002, 7.284487e+003
3.884232e+002, 7.290753e+003
3.889053e+002, 7.297207e+003
3.893874e+002, 7.303208e+003
3.898695e+002, 7.309516e+003
3.903517e+002, 7.317290e+003
3.908338e+002, 7.326730e+003
3.913159e+002, 7.336675e+003
3.917980e+002, 7.346588e+003
3.922801e+002, 7.356782e+003
3.927622e+002, 7.362038e+003
3.932444e+002, 7.359486e+003
3.937265e+002, 7.355226e+003
3.942086e+002, 7.352519e+003
3.946907e+002, 7.350709e+003
3.951728e+002, 7.347292e+003
3.956549e+002, 7.340697e+003
3.961371e+002, 7.331792e+003
3.966192e+002, 7.324268e+003
3.971013e+002, 7.319485e+003
3.975834e+002, 7.314440e+003
3.980655e+002, 7.308102e+003
3.985476e+002, 7.301834e+003
3.990298e+002, 7.297372e+003
3.995119e+002, 7.295036e+003
3.999940e+002, 7.293266e+003
4.004761e+002, 7.289817e+003
4.009582e+002, 7.283793e+003
4.014403e+002, 7.279281e+003
4.019225e+002, 7.276129e+003
4.024046e+002, 7.274393e+003
4.028867e+002, 7.275484e+003
4.033688e+002, 7.278093e+003
4.038509e+002, 7.279294e+003
4.043330e+002, 7.276966e+003
4.048152e+002, 7.271622e+003
4.052973e+002, 7.265978e+003
4.057794e+002, 7.257212e+003
4.062615e+002, 7.252646e+003
4.067436e+002, 7.257313e+003
4.072257e+002, 7.264505e+003
4.077079e+002, 7.266768e+003
4.081900e+002, 7.261948e+003
4.086721e+002, 7.255116e+003
4.091542e+002, 7.253740e+003
4.096363e+002, 7.259074e+003
4.101184e+002, 7.262686e+003
4.106006e+002, 7.261979e+003
4.110827e+002, 7.260942e+003
4.115648e+002, 7.261657e+003
4.120469e+002, 7.263865e+003
4.125290e+002, 7.266272e+003
4.130111e+002, 7.268725e+003
4.134933e+002, 7.270669e+003
4.139754e+002, 7.269722e+003
4.144575e+002, 7.264583e+003
4.149396e+002, 7.260126e+003
4.154217e+002, 7.257532e+003
4.159038e+002, 7.257399e+003
4.163860e+002, 7.261484e+003
4.168681e+002, 7.271271e+003
4.173502e+002, 7.281763e+003
4.178323e+002, 7.288554e+003
4.183144e+002, 7.291828e+003
4.187965e+002, 7.292966e+003
4.192787e+002, 7.292053e+003
4.197608e+002, 7.289327e+003
4.202429e+002, 7.284318e+003
4.207250e+002, 7.277251e+003
4.212071e+002, 7.271221e+003
4.216892e+002, 7.267582e+003
4.221714e+002, 7.265379e+003
4.226535e+002, 7.263771e+003
4.231356e+002, 7.262684e+003
4.236177e+002, 7.260967e+003
4.240998e+002, 7.257344e+003
4.245819e+002, 7.252548e+003
4.250641e+002, 7.249674e+003
4.255462e+002, 7.248497e+003
4.260283e+002, 7.249465e+003
4.265104e+002, 7.254889e+003
4.269925e+002, 7.262352e+003
4.274746e+002, 7.267342e+003
4.279568e+002, 7.268411e+003
4.284389e+002, 7.266302e+003
4.289210e+002, 7.261667e+003
4.294031e+002, 7.252709e+003
4.298852e+002, 7.246576e+003
4.303673e+002, 7.244149e+003
4.308495e+002, 7.243838e+003
4.313316e+002, 7.245170e+003
4.318137e+002, 7.247718e+003
4.322958e+002, 7.250646e+003
4.327779e+002, 7.253454e+003
4.332600e+002, 7.256051e+003
4.337422e+002, 7.257778e+003
4.342243e+002, 7.257438e+003
4.347064e+002, 7.257560e+003
4.351885e+002, 7.259340e+003
4.356706e+002, 7.261260e+003
4.361527e+002, 7.261707e+003
4.366349e+002, 7.260179e+003
4.371170e+002, 7.257198e+003
4.375991e+002, 7.252633e+003
4.380812e+002, 7.244578e+003
4.385633e+002, 7.241958e+003
4.390454e+002, 7.251417e+003
4.395276e+002, 7.260120e+003
4.400097e+002, 7.263357e+003
4.404918e+002, 7.261749e+003
4.409739e+002, 7.257456e+003
4.414560e+002, 7.251144e+003
4.419381e+002, 7.243895e+003
4.424203e+002, 7.238459e+003
4.429024e+002, 7.234479e+003
4.433845e+002, 7.233501e+003
4.438666e+002, 7.240548e+003
4.443487e+002, 7.248112e+003
4.448308e+002, 7.248803e+003
4.453130e+002, 7.241401e+003
4.457951e+002, 7.234001e+003
4.462772e+002, 7.234919e+003
4.467593e+002, 7.242217e+003
4.472414e+002, 7.245425e+003
4.477235e+002, 7.242063e+003
4.482057e+002, 7.237275e+003
4.486878e+002, 7.233645e+003
4.491699e+002, 7.231503e+003
4.496520e+002, 7.232376e+003
4.501341e+002, 7.239469e+003
4.506162e+002, 7.247081e+003
4.510984e+002, 7.249204e+003
4.515805e+002, 7.246659e+003
4.520626e+002, 7.244861e+003
4.525447e+002, 7.246456e+003
4.530268e+002, 7.249224e+003
4.535089e+002, 7.248269e+003
4.539911e+002, 7.242462e+003
4.544732e+002, 7.238843e+003
4.549553e+002, 7.240120e+003
4.554374e+002, 7.243647e+003
4.559195e+002, 7.247927e+003
4.564016e+002, 7.252279e+003
4.568838e+002, 7.253779e+003
4.573659e+002, 7.249341e+003
4.578480e+002, 7.239478e+003
4.583301e+002, 7.233801e+003
4.588122e+002, 7.234952e+003
4.592943e+002, 7.236394e+003
4.597765e+002, 7.236017e+003
4.602586e+002, 7.235215e+003
4.607407e+002, 7.237070e+003
4.612228e+002, 7.242292e+003
4.617049e+002, 7.246771e+003
4.621870e+002, 7.243276e+003
4.626692e+002, 7.226959e+003
4.631513e+002, 7.218509e+003
4.636334e+002, 7.225398e+003
4.641155e+002, 7.232470e+003
4.645976e+002, 7.232654e+003
4.650797e+002, 7.227954e+003
4.655619e+002, 7.224143e+003
4.660440e+002, 7.224938e+003
4.665261e+002, 7.228372e+003
4.670082e+002, 7.228336e+003
4.674903e+002, 7.222534e+003
4.679724e+002, 7.219557e+003
4.684546e+002, 7.223622e+003
4.689367e+002, 7.229872e+003
4.694188e+002, 7.235696e+003
4.699009e+002, 7.240603e+003
4.703830e+002, 7.243695e+003
4.708651e+002, 7.243338e+003
4.713473e+002, 7.240467e+003
4.718294e+002, 7.238756e+003
4.723115e+002, 7.238814e+003
4.727936e+002, 7.238548e+003
4.732757e+002, 7.235473e+003
4.737578e+002, 7.231298e+003
4.742400e+002, 7.229581e+003
4.747221e+002, 7.232502e+003
4.752042e+002, 7.235216e+003
4.756863e+002, 7.233166e+003
4.761684e+002, 7.228198e+003
4.766505e+002, 7.226181e+003
4.771327e+002, 7.229297e+003
4.776148e+002, 7.233721e+003
4.780969e+002, 7.234518e+003
4.785790e+002, 7.231106e+003
4.790611e+002, 7.228336e+003
4.795432e+002, 7.227474e+003
4.800254e+002, 7.226513e+003
4.805075e+002, 7.224248e+003
4.809896e+002, 7.220821e+003
4.814717e+002, 7.216393e+003
4.819538e+002, 7.210811e+003
4.824359e+002, 7.205350e+003
4.829181e+002, 7.203735e+003
4.834002e+002, 7.210474e+003
4.838823e+002, 7.214563e+003
4.843644e+002, 7.213209e+003
4.848465e+002, 7.211292e+003
4.853286e+002, 7.213221e+003
4.858108e+002, 7.218521e+003
4.862929e+002, 7.222849e+003
4.867750e+002, 7.222040e+003
4.872571e+002, 7.216862e+003
4.877392e+002, 7.214470e+003
4.882213e+002, 7.216973e+003
4.887035e+002, 7.218739e+003
4.891856e+002, 7.217798e+003
4.896677e+002, 7.215647e+003
4.901498e+002, 7.213622e+003
4.906319e+002, 7.212032e+003
4.911140e+002, 7.210927e+003
4.915962e+002, 7.210251e+003
4.920783e+002, 7.210051e+003
4.925604e+002, 7.211046e+003
4.930425e+002, 7.214144e+003
4.935246e+002, 7.216811e+003
4.940067e+002, 7.217723e+003
4.944889e+002, 7.216863e+003
4.949710e+002, 7.213624e+003
4.954531e+002, 7.206100e+003
4.959352e+002, 7.198251e+003
4.964173e+002, 7.192596e+003
4.968994e+002, 7.189167e+003
4.973816e+002, 7.188891e+003
4.978637e+002, 7.193019e+003
4.983458e+002, 7.197322e+003
4.988279e+002, 7.194584e+003
4.993100e+002, 7.182350e+003
4.997921e+002, 7.175774e+003
5.002743e+002, 7.181912e+003
5.007564e+002, 7.188690e+003
5.012385e+002, 7.187167e+003
5.017206e+002, 7.179202e+003
5.022027e+002, 7.171588e+003
5.026848e+002, 7.168091e+003
5.031670e+002, 7.167852e+003
5.036491e+002, 7.168553e+003
5.041312e+002, 7.171904e+003
5.046133e+002, 7.173338e+003
5.050954e+002, 7.170367e+003
5.055775e+002, 7.167498e+003
5.060597e+002, 7.167673e+003
5.065418e+002, 7.170961e+003
5.070239e+002, 7.176214e+003
5.075060e+002, 7.183682e+003
5.079881e+002, 7.191952e+003
5.084702e+002, 7.193708e+003
5.089524e+002, 7.186446e+003
5.094345e+002, 7.178322e+003
5.099166e+002, 7.168797e+003
5.103987e+002, 7.161525e+003
5.108808e+002, 7.161630e+003
5.113629e+002, 7.169937e+003
5.118451e+002, 7.178052e+003
5.123271e+002, 7.179185e+003
5.128093e+002, 7.175340e+003
5.132914e+002, 7.172275e+003
5.137735e+002, 7.170775e+003
5.142556e+002, 7.168542e+003
5.147377e+002, 7.162415e+003
5.152198e+002, 7.154484e+003
5.157020e+002, 7.151854e+003
5.161841e+002, 7.159506e+003
5.166662e+002, 7.165492e+003
5.171483e+002, 7.161696e+003
5.176304e+002, 7.153592e+003
5.181125e+002, 7.151417e+003
5.185947e+002, 7.157517e+003
5.190768e+002, 7.164126e+003
5.195589e+002, 7.162404e+003
5.200410e+002, 7.151118e+003
5.205231e+002, 7.143133e+003
5.210052e+002, 7.138439e+003
5.214874e+002, 7.136472e+003
5.219695e+002, 7.138341e+003
5.224516e+002, 7.142393e+003
5.229337e+002, 7.147256e+003
5.234158e+002, 7.152280e+003
5.238979e+002, 7.155608e+003
5.243801e+002, 7.153341e+003
5.248622e+002, 7.143712e+003
5.253443e+002, 7.138042e+003
5.258264e+002, 7.139613e+003
5.263085e+002, 7.142124e+003
5.267906e+002, 7.143517e+003
5.272728e+002, 7.143762e+003
5.277549e+002, 7.142870e+003
5.282370e+002, 7.140506e+003
5.287191e+002, 7.137710e+003
5.292012e+002, 7.135846e+003
5.296833e+002, 7.134833e+003
5.301655e+002, 7.133815e+003
5.306476e+002, 7.132693e+003
5.311297e+002, 7.131253e+003
5.316118e+002, 7.129032e+003
5.320939e+002, 7.126146e+003
5.325760e+002, 7.123523e+003
5.330582e+002, 7.120797e+003
5.335403e+002, 7.118875e+003
5.340224e+002, 7.119106e+003
5.345045e+002, 7.120821e+003
5.349866e+002, 7.121869e+003
5.354688e+002, 7.121265e+003
5.359509e+002, 7.119974e+003
5.364330e+002, 7.119984e+003
5.369151e+002, 7.123221e+003
5.373972e+002, 7.123023e+003
5.378793e+002, 7.118217e+003
5.383615e+002, 7.111429e+003
5.388436e+002, 7.102075e+003
5.393257e+002, 7.092033e+003
5.398078e+002, 7.084704e+003
5.402899e+002, 7.081944e+003
5.407720e+002, 7.083100e+003
5.412542e+002, 7.087650e+003
5.417363e+002, 7.097425e+003
5.422184e+002, 7.104165e+003
5.427005e+002, 7.103390e+003
5.431826e+002, 7.101834e+003
5.436647e+002, 7.104271e+003
5.441469e+002, 7.109599e+003
5.446290e+002, 7.112949e+003
5.451111e+002, 7.111874e+003
5.455932e+002, 7.107425e+003
5.460753e+002, 7.099177e+003
5.465574e+002, 7.087417e+003
5.470396e+002, 7.080195e+003
5.475217e+002, 7.081916e+003
5.480038e+002, 7.087767e+003
5.484859e+002, 7.090480e+003
5.489680e+002, 7.089988e+003
5.494501e+002, 7.088935e+003
5.499323e+002, 7.088047e+003
5.504144e+002, 7.086616e+003
5.508965e+002, 7.083256e+003
5.513786e+002, 7.078742e+003
5.518607e+002, 7.075803e+003
5.523428e+002, 7.076046e+003
5.528250e+002, 7.078018e+003
5.533071e+002, 7.078242e+003
5.537892e+002, 7.077423e+003
5.542713e+002, 7.073345e+003
5.547534e+002, 7.062094e+003
5.552355e+002, 7.051610e+003
5.557177e+002, 7.046367e+003
5.561998e+002, 7.045805e+003
5.566819e+002, 7.047626e+003
5.571640e+002, 7.051104e+003
5.576461e+002, 7.054789e+003
5.581282e+002, 7.055254e+003
5.586104e+002, 7.052100e+003
5.590925e+002, 7.048201e+003
5.595746e+002, 7.042789e+003
5.600567e+002, 7.038361e+003
5.605388e+002, 7.037875e+003
5.610209e+002, 7.040695e+003
5.615031e+002, 7.042249e+003
5.619852e+002, 7.039547e+003
5.624673e+002, 7.035696e+003
5.629494e+002, 7.033479e+003
5.634315e+002, 7.032880e+003
5.639136e+002, 7.033708e+003
5.643958e+002, 7.036043e+003
5.648779e+002, 7.039228e+003
5.653600e+002, 7.042185e+003
5.658421e+002, 7.044779e+003
5.663242e+002, 7.047403e+003
5.668063e+002, 7.051112e+003
5.672885e+002, 7.053838e+003
5.677706e+002, 7.053506e+003
5.682527e+002, 7.051372e+003
5.687348e+002, 7.050202e+003
5.692169e+002, 7.051367e+003
5.696990e+002, 7.053727e+003
5.701812e+002, 7.055210e+003
5.706633e+002, 7.055812e+003
5.711454e+002, 7.055549e+003
5.716275e+002, 7.054161e+003
5.721096e+002, 7.052131e+003
5.725917e+002, 7.048398e+003
5.730739e+002, 7.044325e+003
5.735560e+002, 7.043349e+003
5.740381e+002, 7.048491e+003
5.745202e+002, 7.054185e+003
5.750023e+002, 7.052630e+003
5.754844e+002, 7.045432e+003
5.759666e+002, 7.041932e+003
5.764487e+002, 7.045036e+003
5.769308e+002, 7.050367e+003
5.774129e+002, 7.053977e+003
5.778950e+002, 7.055732e+003
5.783771e+002, 7.055524e+003
5.788593e+002, 7.051569e+003
5.793414e+002, 7.047531e+003
5.798235e+002, 7.043218e+003
5.803056e+002, 7.040438e+003
5.807877e+002, 7.043256e+003
5.812698e+002, 7.052495e+003
5.817520e+002, 7.062912e+003
5.822341e+002, 7.068087e+003
5.827162e+002, 7.067791e+003
5.831984e+002, 7.064495e+003
5.836805e+002, 7.053472e+003
5.841626e+002, 7.045396e+003
5.846447e+002, 7.046671e+003
5.851268e+002, 7.050826e+003
5.856089e+002, 7.048967e+003
5.860911e+002, 7.038646e+003
5.865732e+002, 7.027938e+003
5.870553e+002, 7.024746e+003
5.875374e+002, 7.027396e+003
5.880195e+002, 7.029919e+003
5.885016e+002, 7.032045e+003
5.889838e+002, 7.033040e+003
5.894659e+002, 7.032386e+003
5.899480e+002, 7.030215e+003
5.904301e+002, 7.026987e+003
5.909122e+002, 7.021394e+003
5.913943e+002, 7.017403e+003
5.918765e+002, 7.017093e+003
5.923586e+002, 7.018470e+003
5.928407e+002, 7.019171e+003
5.933228e+002, 7.019170e+003
5.938049e+002, 7.020618e+003
5.942870e+002, 7.025609e+003
5.947692e+002, 7.032578e+003
5.952513e+002, 7.033888e+003
5.957334e+002, 7.025448e+003
5.962155e+002, 7.018495e+003
5.966976e+002, 7.014056e+003
5.971797e+002, 7.011382e+003
5.976619e+002, 7.009755e+003
5.981440e+002, 7.009339e+003
5.986261e+002, 7.011093e+003
5.991082e+002, 7.016540e+003
5.995903e+002, 7.023578e+003
6.000724e+002, 7.028583e+003
6.005546e+002, 7.031513e+003
6.010367e+002, 7.032997e+003
6.015188e+002, 7.032896e+003
6.020009e+002, 7.031814e+003
6.024830e+002, 7.030560e+003
6.029651e+002, 7.029126e+003
6.034473e+002, 7.026590e+003
6.039294e+002, 7.021686e+003
6.044115e+002, 7.016712e+003
6.048936e+002, 7.011970e+003
6.053757e+002, 7.008431e+003
6.058578e+002, 7.008796e+003
6.063400e+002, 7.013946e+003
6.068221e+002, 7.020105e+003
6.073042e+002, 7.021808e+003
6.077863e+002, 7.018428e+003
6.082684e+002, 7.015108e+003
6.087505e+002, 7.012940e+003
6.092327e+002, 7.009661e+003
6.097148e+002, 7.003805e+003
6.101969e+002, 6.996956e+003
6.106790e+002, 6.990431e+003
6.111611e+002, 6.984550e+003
6.116432e+002, 6.981194e+003
6.121254e+002, 6.984033e+003
6.126075e+002, 6.990676e+003
6.130896e+002, 6.993040e+003
6.135717e+002, 6.990002e+003
6.140538e+002, 6.986623e+003
6.145359e+002, 6.985994e+003
6.150181e+002, 6.987092e+003
6.155002e+002, 6.986796e+003
6.159823e+002, 6.983714e+003
6.164644e+002, 6.982317e+003
6.169465e+002, 6.984892e+003
6.174286e+002, 6.988411e+003
6.179108e+002, 6.989972e+003
6.183929e+002, 6.989924e+003
6.188750e+002, 6.990966e+003
6.193571e+002, 6.995069e+003
6.198392e+002, 6.999961e+003
6.203214e+002, 6.998778e+003
6.208035e+002, 6.988442e+003
6.212856e+002, 6.981619e+003
6.217677e+002, 6.982637e+003
6.222498e+002, 6.984766e+003
6.227319e+002, 6.984766e+003
6.232141e+002, 6.983124e+003
6.236962e+002, 6.981268e+003
6.241783e+002, 6.979161e+003
6.246604e+002, 6.978080e+003
6.251425e+002, 6.980612e+003
6.256246e+002, 6.985336e+003
6.261068e+002, 6.987328e+003
6.265889e+002, 6.985427e+003
6.270710e+002, 6.981330e+003
6.275531e+002, 6.975725e+003
6.280352e+002, 6.968846e+003
6.285173e+002, 6.966359e+003
6.289995e+002, 6.970905e+003
6.294816e+002, 6.975763e+003
6.299637e+002, 6.980453e+003
6.304458e+002, 6.984211e+003
6.309279e+002, 6.985785e+003
6.314100e+002, 6.985411e+003
6.318922e+002, 6.985182e+003
6.323743e+002, 6.987311e+003
6.328564e+002, 6.990504e+003
6.333385e+002, 6.989229e+003
6.338206e+002, 6.981866e+003
6.343027e+002, 6.976475e+003
6.347849e+002, 6.975591e+003
6.352670e+002, 6.977363e+003
6.357491e+002, 6.980829e+003
6.362312e+002, 6.985673e+003
6.367133e+002, 6.988596e+003
6.371954e+002, 6.987513e+003
6.376776e+002, 6.985132e+003
6.381597e+002, 6.983569e+003
6.386418e+002, 6.982482e+003
6.391239e+002, 6.981040e+003
6.396060e+002, 6.979005e+003
6.400881e+002, 6.976156e+003
6.405703e+002, 6.972148e+003
6.410524e+002, 6.966939e+003
6.415345e+002, 6.961737e+003
6.420166e+002, 6.954740e+003
6.424987e+002, 6.950150e+003
6.429808e+002, 6.951153e+003
6.434630e+002, 6.953669e+003
6.439451e+002, 6.952158e+003
6.444272e+002, 6.946263e+003
6.449093e+002, 6.942867e+003
6.453914e+002, 6.950533e+003
6.458735e+002, 6.963980e+003
6.463557e+002, 6.969829e+003
6.468378e+002, 6.967771e+003
6.473199e+002, 6.963716e+003
6.478020e+002, 6.959216e+003
6.482841e+002, 6.955161e+003
6.487662e+002, 6.953234e+003
6.492484e+002, 6.953828e+003
6.497305e+002, 6.954035e+003
6.502126e+002, 6.951636e+003
6.506947e+002, 6.950759e+003
6.511768e+002, 6.955085e+003
6.516589e+002, 6.962150e+003
6.521411e+002, 6.967366e+003
6.526232e+002, 6.969178e+003
6.531053e+002, 6.969913e+003
6.535874e+002, 6.972938e+003
6.540695e+002, 6.978292e+003
6.545516e+002, 6.981332e+003
6.550338e+002, 6.981143e+003
6.555159e+002, 6.980407e+003
6.559980e+002, 6.980063e+003
6.564801e+002, 6.979869e+003
6.569622e+002, 6.979689e+003
6.574443e+002, 6.979560e+003
6.579265e+002, 6.978855e+003
6.584086e+002, 6.975182e+003
6.588907e+002, 6.972240e+003
6.593728e+002, 6.975036e+003
6.598549e+002, 6.982600e+003
6.603370e+002, 6.990546e+003
6.608192e+002, 6.997015e+003
6.613013e+002, 7.001410e+003
6.617834e+002, 7.002396e+003
6.622655e+002, 6.998947e+003
6.627476e+002, 6.995938e+003
6.632297e+002, 6.990291e+003
6.637119e+002, 6.988589e+003
6.641940e+002, 6.995748e+003
6.646761e+002, 7.006866e+003
6.651582e+002, 7.015345e+003
6.656403e+002, 7.019467e+003
6.661224e+002, 7.022791e+003
6.666046e+002, 7.027313e+003
6.670867e+002, 7.033470e+003
6.675688e+002, 7.042741e+003
6.680509e+002, 7.055183e+003
6.685330e+002, 7.068736e+003
6.690151e+002, 7.082396e+003
6.694973e+002, 7.096586e+003
6.699794e+002, 7.112508e+003
6.704615e+002, 7.131835e+003
6.709436e+002, 7.148057e+003
6.714257e+002, 7.159405e+003
6.719078e+002, 7.169216e+003
6.723900e+002, 7.181044e+003
6.728721e+002, 7.191931e+003
6.733542e+002, 7.196419e+003
6.738363e+002, 7.192656e+003
6.743184e+002, 7.184659e+003
6.748005e+002, 7.177190e+003
6.752827e+002, 7.169896e+003
6.757648e+002, 7.159537e+003
6.762469e+002, 7.145790e+003
6.767290e+002, 7.129972e+003
6.772111e+002, 7.112583e+003
6.776932e+002, 7.093392e+003
6.781754e+002, 7.070922e+003
6.786575e+002, 7.043651e+003
6.791396e+002, 7.021426e+003
6.796217e+002, 7.009707e+003
6.801038e+002, 7.000864e+003
6.805859e+002, 6.989424e+003
6.810681e+002, 6.976210e+003
6.815502e+002, 6.963929e+003
6.820323e+002, 6.953720e+003
6.825144e+002, 6.945079e+003
6.829965e+002, 6.937156e+003
6.834786e+002, 6.929823e+003
6.839608e+002, 6.926048e+003
6.844429e+002, 6.928619e+003
6.849250e+002, 6.929695e+003
6.854071e+002, 6.924882e+003
6.858892e+002, 6.917560e+003
6.863713e+002, 6.910375e+003
6.868535e+002, 6.903441e+003
6.873356e+002, 6.899382e+003
6.878177e+002, 6.901940e+003
6.882998e+002, 6.905943e+003
6.887819e+002, 6.905908e+003
6.892640e+002, 6.902620e+003
6.897462e+002, 6.899610e+003
6.902283e+002, 6.898255e+003
6.907104e+002, 6.896875e+003
6.911925e+002, 6.892636e+003
6.916746e+002, 6.884813e+003
6.921567e+002, 6.880915e+003
6.926389e+002, 6.886476e+003
6.931210e+002, 6.888368e+003
6.936031e+002, 6.879438e+003
6.940852e+002, 6.867817e+003
6.945673e+002, 6.861235e+003
6.950494e+002, 6.860739e+003
6.955316e+002, 6.863833e+003
6.960137e+002, 6.872548e+003
6.964958e+002, 6.881818e+003
6.969779e+002, 6.884692e+003
6.974600e+002, 6.881937e+003
6.979421e+002, 6.877396e+003
6.984243e+002, 6.872372e+003
6.989064e+002, 6.866247e+003
6.993885e+002, 6.857717e+003
6.998706e+002, 6.846313e+003
7.003527e+002, 6.838792e+003
7.008348e+002, 6.837288e+003
7.013170e+002, 6.837213e+003
7.017991e+002, 6.838968e+003
7.022812e+002, 6.841046e+003
7.027633e+002, 6.842294e+003
7.032454e+002, 6.842516e+003
7.037275e+002, 6.841797e+003
7.042097e+002, 6.839217e+003
7.046918e+002, 6.836569e+003
7.051739e+002, 6.837289e+003
7.056560e+002, 6.840772e+003
7.061381e+002, 6.843074e+003
7.066202e+002, 6.843005e+003
7.071024e+002, 6.841984e+003
7.075845e+002, 6.841450e+003
7.080666e+002, 6.841352e+003
7.085487e+002, 6.840465e+003
7.090308e+002, 6.838302e+003
7.095129e+002, 6.835947e+003
7.099951e+002, 6.832690e+003
7.104772e+002, 6.829901e+003
7.109593e+002, 6.829625e+003
7.114414e+002, 6.831095e+003
7.119235e+002, 6.831002e+003
7.124056e+002, 6.826927e+003
7.128878e+002, 6.821258e+003
7.133699e+002, 6.816889e+003
7.138520e+002, 6.813995e+003
7.143341e+002, 6.815129e+003
7.148162e+002, 6.821901e+003
7.152983e+002, 6.826963e+003
7.157805e+002, 6.824113e+003
7.162626e+002, 6.814537e+003
7.167447e+002, 6.804829e+003
7.172268e+002, 6.791205e+003
7.177089e+002, 6.782932e+003
7.181910e+002, 6.784159e+003
7.186732e+002, 6.788097e+003
7.191553e+002, 6.790532e+003
7.196374e+002, 6.791507e+003
7.201195e+002, 6.792609e+003
7.206016e+002, 6.794650e+003
7.210837e+002, 6.796696e+003
7.215659e+002, 6.797688e+003
7.220480e+002, 6.797618e+003
7.225301e+002, 6.796356e+003
7.230122e+002, 6.793760e+003
7.234943e+002, 6.790521e+003
7.239764e+002, 6.786885e+003
7.244586e+002, 6.782928e+003
7.249407e+002, 6.778568e+003
7.254228e+002, 6.772283e+003
7.259049e+002, 6.769273e+003
7.263870e+002, 6.771118e+003
7.268691e+002, 6.774983e+003
7.273513e+002, 6.781250e+003
7.278334e+002, 6.787860e+003
7.283155e+002, 6.791901e+003
7.287976e+002, 6.792404e+003
7.292797e+002, 6.790174e+003
7.297618e+002, 6.784333e+003
7.302440e+002, 6.776444e+003
7.307261e+002, 6.772847e+003
7.312082e+002, 6.774027e+003
7.316903e+002, 6.774579e+003
7.321724e+002, 6.772077e+003
7.326545e+002, 6.768318e+003
7.331367e+002, 6.765848e+003
7.336188e+002, 6.764950e+003
7.341009e+002, 6.763956e+003
7.345830e+002, 6.761548e+003
7.350651e+002, 6.760589e+003
7.355472e+002, 6.764083e+003
7.360294e+002, 6.768366e+003
7.365115e+002, 6.768526e+003
7.369936e+002, 6.764406e+003
7.374757e+002, 6.760515e+003
7.379578e+002, 6.760575e+003
7.384399e+002, 6.762674e+003
7.389221e+002, 6.763129e+003
7.394042e+002, 6.761983e+003
7.398863e+002, 6.759373e+003
7.403684e+002, 6.754437e+003
7.408505e+002, 6.751671e+003
7.413326e+002, 6.756517e+003
7.418148e+002, 6.767964e+003
7.422969e+002, 6.774305e+003
7.427790e+002, 6.774614e+003
7.432611e+002, 6.771547e+003
7.437432e+002, 6.762540e+003
7.442253e+002, 6.752654e+003
7.447075e+002, 6.744908e+003
7.451896e+002, 6.739602e+003
7.456717e+002, 6.736437e+003
7.461538e+002, 6.735527e+003
7.466359e+002, 6.735651e+003
7.471180e+002, 6.735093e+003
7.476002e+002, 6.734327e+003
7.480823e+002, 6.735758e+003
7.485644e+002, 6.739811e+003
7.490465e+002, 6.742413e+003
7.495286e+002, 6.740977e+003
7.500107e+002, 6.736833e+003
7.504929e+002, 6.732996e+003
7.509750e+002, 6.729142e+003
7.514571e+002, 6.726424e+003
7.519392e+002, 6.723792e+003
7.524213e+002, 6.723351e+003
7.529034e+002, 6.729590e+003
7.533856e+002, 6.736844e+003
7.538677e+002, 6.736222e+003
7.543498e+002, 6.726093e+003
7.548319e+002, 6.715940e+003
7.553140e+002, 6.714869e+003
7.557961e+002, 6.717148e+003
7.562783e+002, 6.711288e+003
7.567604e+002, 6.699130e+003
7.572425e+002, 6.692460e+003
7.577246e+002, 6.695475e+003
7.582067e+002, 6.702499e+003
7.586888e+002, 6.707262e+003
7.591710e+002, 6.709770e+003
7.596531e+002, 6.711344e+003
7.601352e+002, 6.712281e+003
7.606173e+002, 6.711686e+003
7.610994e+002, 6.707454e+003
7.615815e+002, 6.703356e+003
7.620637e+002, 6.702438e+003
7.625458e+002, 6.704158e+003
7.630279e+002, 6.705868e+003
7.635100e+002, 6.706241e+003
7.639921e+002, 6.706839e+003
7.644742e+002, 6.711182e+003
7.649564e+002, 6.715885e+003
7.654385e+002, 6.713303e+003
7.659206e+002, 6.703470e+003
7.664027e+002, 6.693759e+003
7.668848e+002, 6.688725e+003
7.673669e+002, 6.687529e+003
7.678491e+002, 6.688928e+003
7.683312e+002, 6.694519e+003
7.688133e+002, 6.696867e+003
7.692954e+002, 6.695924e+003
7.697775e+002, 6.691514e+003
7.702596e+002, 6.680018e+003
7.707418e+002, 6.666797e+003
7.712239e+002, 6.659287e+003
7.717060e+002, 6.658641e+003
7.721881e+002, 6.658931e+003
7.726702e+002, 6.658671e+003
7.731523e+002, 6.657756e+003
7.736345e+002, 6.655320e+003
7.741166e+002, 6.652347e+003
7.745987e+002, 6.650753e+003
7.750808e+002, 6.651065e+003
7.755629e+002, 6.652569e+003
7.760450e+002, 6.654766e+003
7.765272e+002, 6.657458e+003
7.770093e+002, 6.659879e+003
7.774914e+002, 6.662286e+003
7.779735e+002, 6.663045e+003
7.784556e+002, 6.661249e+003
7.789377e+002, 6.658555e+003
7.794199e+002, 6.656593e+003
7.799020e+002, 6.655013e+003
7.803841e+002, 6.651992e+003
7.808662e+002, 6.643947e+003
7.813483e+002, 6.639659e+003
7.818304e+002, 6.644468e+003
7.823126e+002, 6.651075e+003
7.827947e+002, 6.653643e+003
7.832768e+002, 6.652711e+003
7.837589e+002, 6.650978e+003
7.842410e+002, 6.649573e+003
7.847231e+002, 6.648913e+003
7.852053e+002, 6.650964e+003
7.856874e+002, 6.654283e+003
7.861695e+002, 6.651497e+003
7.866516e+002, 6.641864e+003
7.871337e+002, 6.635905e+003
7.876158e+002, 6.638963e+003
7.880980e+002, 6.646470e+003
7.885801e+002, 6.652173e+003
7.890622e+002, 6.656394e+003
7.895443e+002, 6.656654e+003
7.900264e+002, 6.648097e+003
7.905085e+002, 6.642018e+003
7.909907e+002, 6.642167e+003
7.914728e+002, 6.644916e+003
7.919549e+002, 6.648281e+003
7.924370e+002, 6.651213e+003
7.929191e+002, 6.651132e+003
7.934012e+002, 6.644919e+003
7.938834e+002, 6.637977e+003
7.943655e+002, 6.635799e+003
7.948476e+002, 6.636728e+003
7.953297e+002, 6.637785e+003
7.958118e+002, 6.638318e+003
7.962939e+002, 6.637771e+003
7.967761e+002, 6.635735e+003
7.972582e+002, 6.632484e+003
7.977403e+002, 6.628419e+003
7.982224e+002, 6.622897e+003
7.987045e+002, 6.619273e+003
7.991866e+002, 6.618942e+003
7.996688e+002, 6.618495e+003
8.001509e+002, 6.615415e+003
8.006330e+002, 6.611940e+003
8.011151e+002, 6.610911e+003
8.015972e+002, 6.612672e+003
8.020793e+002, 6.615144e+003
8.025615e+002, 6.618780e+003
8.030436e+002, 6.622018e+003
8.035257e+002, 6.624589e+003
8.040078e+002, 6.625873e+003
8.044899e+002, 6.624325e+003
8.049720e+002, 6.620165e+003
8.054542e+002, 6.615817e+003
8.059363e+002, 6.612927e+003
8.064184e+002, 6.611502e+003
8.069005e+002, 6.612332e+003
8.073826e+002, 6.615212e+003
8.078647e+002, 6.616124e+003
8.083469e+002, 6.614080e+003
8.088290e+002, 6.611186e+003
8.093111e+002, 6.608489e+003
8.097932e+002, 6.606241e+003
8.102753e+002, 6.605283e+003
8.107574e+002, 6.605805e+003
8.112396e+002, 6.607275e+003
8.117217e+002, 6.609935e+003
8.122038e+002, 6.613287e+003
8.126859e+002, 6.619739e+003
8.131680e+002, 6.625563e+003
8.136501e+002, 6.624612e+003
8.141323e+002, 6.616155e+003
8.146144e+002, 6.608210e+003
8.150965e+002, 6.605714e+003
8.155786e+002, 6.606330e+003
8.160607e+002, 6.609366e+003
8.165428e+002, 6.613097e+003
8.170250e+002, 6.612154e+003
8.175071e+002, 6.605688e+003
8.179892e+002, 6.599336e+003
8.184713e+002, 6.597974e+003
8.189534e+002, 6.600055e+003
8.194355e+002, 6.599969e+003
8.199177e+002, 6.597130e+003
8.203998e+002, 6.594786e+003
8.208819e+002, 6.594096e+003
8.213640e+002, 6.592485e+003
8.218461e+002, 6.586474e+003
8.223282e+002, 6.579169e+003
8.228104e+002, 6.577050e+003
8.232925e+002, 6.581774e+003
8.237746e+002, 6.585953e+003
8.242567e+002, 6.587460e+003
8.247388e+002, 6.588926e+003
8.252209e+002, 6.594101e+003
8.257031e+002, 6.599241e+003
8.261852e+002, 6.598040e+003
8.266673e+002, 6.589930e+003
8.271494e+002, 6.580701e+003
8.276315e+002, 6.573979e+003
8.281136e+002, 6.569709e+003
8.285958e+002, 6.568907e+003
8.290779e+002, 6.570661e+003
8.295600e+002, 6.570553e+003
8.300421e+002, 6.567688e+003
8.305242e+002, 6.562991e+003
8.310063e+002, 6.556438e+003
8.314885e+002, 6.549648e+003
8.319706e+002, 6.547941e+003
8.324527e+002, 6.553099e+003
8.329348e+002, 6.558587e+003
8.334169e+002, 6.566747e+003
8.338990e+002, 6.572032e+003
8.343812e+002, 6.570799e+003
8.348633e+002, 6.566494e+003
8.353454e+002, 6.562720e+003
8.358275e+002, 6.559813e+003
8.363096e+002, 6.559126e+003
8.367917e+002, 6.562945e+003
8.372739e+002, 6.567181e+003
8.377560e+002, 6.570826e+003
8.382381e+002, 6.572530e+003
8.387202e+002, 6.569421e+003
8.392023e+002, 6.562081e+003
8.396844e+002, 6.554967e+003
8.401666e+002, 6.551196e+003
8.406487e+002, 6.548933e+003
8.411308e+002, 6.544055e+003
8.416129e+002, 6.537411e+003
8.420950e+002, 6.536108e+003
8.425771e+002, 6.541396e+003
8.430593e+002, 6.545280e+003
8.435414e+002, 6.543076e+003
8.440235e+002, 6.537757e+003
8.445056e+002, 6.534930e+003
8.449877e+002, 6.535511e+003
8.454698e+002, 6.534072e+003
8.459520e+002, 6.527809e+003
8.464341e+002, 6.523306e+003
8.469162e+002, 6.523291e+003
8.473983e+002, 6.524697e+003
8.478804e+002, 6.524945e+003
8.483625e+002, 6.524076e+003
8.488447e+002, 6.523282e+003
8.493268e+002, 6.522062e+003
8.498089e+002, 6.522368e+003
8.502910e+002, 6.527979e+003
8.507731e+002, 6.533893e+003
8.512552e+002, 6.533370e+003
8.517374e+002, 6.527506e+003
8.522195e+002, 6.521683e+003
8.527016e+002, 6.518358e+003
8.531837e+002, 6.516087e+003
8.536658e+002, 6.512634e+003
8.541479e+002, 6.508558e+003
8.546301e+002, 6.506877e+003
8.551122e+002, 6.507676e+003
8.555943e+002, 6.508744e+003
8.560764e+002, 6.509719e+003
8.565585e+002, 6.509216e+003
8.570406e+002, 6.505207e+003
8.575228e+002, 6.498188e+003
8.580049e+002, 6.493689e+003
8.584870e+002, 6.491577e+003
8.589691e+002, 6.492443e+003
8.594512e+002, 6.500429e+003
8.599333e+002, 6.507255e+003
8.604155e+002, 6.508451e+003
8.608976e+002, 6.505514e+003
8.613797e+002, 6.501274e+003
8.618618e+002, 6.496080e+003
8.623439e+002, 6.490625e+003
8.628260e+002, 6.482977e+003
8.633082e+002, 6.477300e+003
8.637903e+002, 6.479612e+003
8.642724e+002, 6.485213e+003
8.647545e+002, 6.484954e+003
8.652366e+002, 6.477682e+003
8.657188e+002, 6.470813e+003
8.662009e+002, 6.470202e+003
8.666830e+002, 6.473237e+003
8.671651e+002, 6.475751e+003
8.676472e+002, 6.477517e+003
8.681293e+002, 6.476832e+003
8.686115e+002, 6.473306e+003
8.690936e+002, 6.469570e+003
8.695757e+002, 6.467100e+003
8.700578e+002, 6.465592e+003
8.705399e+002, 6.464513e+003
8.710220e+002, 6.463985e+003
8.715042e+002, 6.463274e+003
8.719863e+002, 6.462599e+003
8.724684e+002, 6.461443e+003
8.729505e+002, 6.460180e+003
8.734326e+002, 6.458033e+003
8.739147e+002, 6.454229e+003
8.743969e+002, 6.448917e+003
8.748790e+002, 6.442868e+003
8.753611e+002, 6.433576e+003
8.758432e+002, 6.427475e+003
8.763253e+002, 6.429702e+003
8.768074e+002, 6.433685e+003
8.772896e+002, 6.433063e+003
8.777717e+002, 6.429459e+003
8.782538e+002, 6.427573e+003
8.787359e+002, 6.429119e+003
8.792180e+002, 6.432936e+003
8.797001e+002, 6.441149e+003
8.801823e+002, 6.449266e+003
8.806644e+002, 6.446044e+003
8.811465e+002, 6.434580e+003
8.816286e+002, 6.429569e+003
8.821107e+002, 6.434702e+003
8.825928e+002, 6.441887e+003
8.830750e+002, 6.444433e+003
8.835571e+002, 6.442743e+003
8.840392e+002, 6.437201e+003
8.845213e+002, 6.426518e+003
8.850034e+002, 6.419726e+003
8.854855e+002, 6.418878e+003
8.859677e+002, 6.419165e+003
8.864498e+002, 6.418952e+003
8.869319e+002, 6.417890e+003
8.874140e+002, 6.415020e+003
8.878961e+002, 6.409959e+003
8.883782e+002, 6.406008e+003
8.888604e+002, 6.403278e+003
8.893425e+002, 6.401780e+003
8.898246e+002, 6.403308e+003
8.903067e+002, 6.404732e+003
8.907888e+002, 6.403600e+003
8.912709e+002, 6.399947e+003
8.917531e+002, 6.394489e+003
8.922352e+002, 6.386802e+003
8.927173e+002, 6.379587e+003
8.931994e+002, 6.373415e+003
8.936815e+002, 6.369644e+003
8.941636e+002, 6.371203e+003
8.946458e+002, 6.376396e+003
8.951279e+002, 6.380673e+003
8.956100e+002, 6.382634e+003
8.960921e+002, 6.384421e+003
8.965742e+002, 6.388742e+003
8.970563e+002, 6.393737e+003
8.975385e+002, 6.393903e+003
8.980206e+002, 6.389589e+003
8.985027e+002, 6.385807e+003
8.989848e+002, 6.383438e+003
8.994669e+002, 6.381161e+003
8.999490e+002, 6.378059e+003
9.004312e+002, 6.374484e+003
9.009133e+002, 6.370862e+003
9.013954e+002, 6.366234e+003
9.018775e+002, 6.366306e+003
9.023596e+002, 6.374893e+003
9.028417e+002, 6.381725e+003
9.033239e+002, 6.383317e+003
9.038060e+002, 6.382087e+003
9.042881e+002, 6.379657e+003
9.047702e+002, 6.376289e+003
9.052523e+002, 6.373448e+003
9.057344e+002, 6.371050e+003
9.062166e+002, 6.369626e+003
9.066987e+002, 6.370720e+003
9.071808e+002, 6.371509e+003
9.076629e+002, 6.368825e+003
9.081450e+002, 6.364725e+003
9.086271e+002, 6.363864e+003
9.091093e+002, 6.367259e+003
9.095914e+002, 6.369361e+003
9.100735e+002, 6.365102e+003
9.105556e+002, 6.358667e+003
9.110377e+002, 6.355351e+003
9.115198e+002, 6.353186e+003
9.120020e+002, 6.346191e+003
9.124841e+002, 6.334891e+003
9.129662e+002, 6.328203e+003
9.134483e+002, 6.332118e+003
9.139304e+002, 6.341006e+003
9.144125e+002, 6.345716e+003
9.148947e+002, 6.346685e+003
9.153768e+002, 6.347638e+003
9.158589e+002, 6.348810e+003
9.163410e+002, 6.348142e+003
9.168231e+002, 6.344598e+003
9.173052e+002, 6.340291e+003
9.177874e+002, 6.337963e+003
9.182695e+002, 6.337110e+003
9.187516e+002, 6.332359e+003
9.192337e+002, 6.320905e+003
9.197158e+002, 6.312243e+003
9.201979e+002, 6.307067e+003
9.206801e+002, 6.305095e+003
9.211622e+002, 6.308202e+003
9.216443e+002, 6.313579e+003
9.221264e+002, 6.316528e+003
9.226085e+002, 6.316420e+003
9.230906e+002, 6.317367e+003
9.235728e+002, 6.318377e+003
9.240549e+002, 6.322402e+003
9.245370e+002, 6.335302e+003
9.250191e+002, 6.347962e+003
9.255012e+002, 6.350765e+003
9.259833e+002, 6.345388e+003
9.264655e+002, 6.339177e+003
9.269476e+002, 6.333770e+003
9.274297e+002, 6.332409e+003
9.279118e+002, 6.340893e+003
9.283939e+002, 6.351745e+003
9.288760e+002, 6.357284e+003
9.293582e+002, 6.358107e+003
9.298403e+002, 6.356772e+003
9.303224e+002, 6.353961e+003
9.308045e+002, 6.348448e+003
9.312866e+002, 6.338305e+003
9.317687e+002, 6.326910e+003
9.322509e+002, 6.320381e+003
9.327330e+002, 6.318286e+003
9.332151e+002, 6.319373e+003
9.336972e+002, 6.323350e+003
9.341793e+002, 6.327497e+003
9.346614e+002, 6.330732e+003
9.351436e+002, 6.331709e+003
9.356257e+002, 6.327846e+003
9.361078e+002, 6.319510e+003
9.365899e+002, 6.313936e+003
9.370720e+002, 6.311972e+003
9.375541e+002, 6.309389e+003
9.380363e+002, 6.305169e+003
9.385184e+002, 6.300391e+003
9.390005e+002, 6.295756e+003
9.394826e+002, 6.291093e+003
9.399647e+002, 6.285659e+003
9.404468e+002, 6.277803e+003
9.409290e+002, 6.273617e+003
9.414111e+002, 6.276957e+003
9.418932e+002, 6.278838e+003
9.423753e+002, 6.274337e+003
9.428574e+002, 6.269069e+003
9.433395e+002, 6.268856e+003
9.438217e+002, 6.272921e+003
9.443038e+002, 6.275944e+003
9.447859e+002, 6.275493e+003
9.452680e+002, 6.276374e+003
9.457501e+002, 6.283881e+003
9.462322e+002, 6.289981e+003
9.467144e+002, 6.286533e+003
9.471965e+002, 6.278250e+003
9.476786e+002, 6.273400e+003
9.481607e+002, 6.273625e+003
9.486428e+002, 6.274789e+003
9.491249e+002, 6.275346e+003
9.496071e+002, 6.274290e+003
9.500892e+002, 6.267952e+003
9.505713e+002, 6.260558e+003
9.510534e+002, 6.260941e+003
9.515355e+002, 6.267791e+003
9.520176e+002, 6.272442e+003
9.524998e+002, 6.271014e+003
9.529819e+002, 6.266315e+003
9.534640e+002, 6.260361e+003
9.539461e+002, 6.254169e+003
9.544282e+002, 6.250756e+003
9.549103e+002, 6.249999e+003
9.553925e+002, 6.251913e+003
9.558746e+002, 6.256514e+003
9.563567e+002, 6.259250e+003
9.568388e+002, 6.256649e+003
9.573209e+002, 6.251247e+003
9.578030e+002, 6.249217e+003
9.582852e+002, 6.251239e+003
9.587673e+002, 6.247781e+003
9.592494e+002, 6.236854e+003
9.597315e+002, 6.228501e+003
9.602136e+002, 6.226415e+003
9.606957e+002, 6.226589e+003
9.611779e+002, 6.225083e+003
9.616600e+002, 6.222583e+003
9.621421e+002, 6.222948e+003
9.626242e+002, 6.229697e+003
9.631063e+002, 6.232338e+003
9.635884e+002, 6.226734e+003
9.640706e+002, 6.222156e+003
9.645527e+002, 6.223122e+003
9.650348e+002, 6.226096e+003
9.655169e+002, 6.226660e+003
9.659990e+002, 6.225000e+003
9.664811e+002, 6.225653e+003
9.669633e+002, 6.232516e+003
9.674454e+002, 6.237031e+003
9.679275e+002, 6.236247e+003
9.684096e+002, 6.233508e+003
9.688917e+002, 6.231041e+003
9.693738e+002, 6.228212e+003
9.698560e+002, 6.222778e+003
9.703381e+002, 6.214491e+003
9.708202e+002, 6.208514e+003
9.713023e+002, 6.209787e+003
9.717844e+002, 6.211338e+003
9.722665e+002, 6.207639e+003
9.727487e+002, 6.202311e+003
9.732308e+002, 6.199302e+003
9.737129e+002, 6.198783e+003
9.741950e+002, 6.199845e+003
9.746771e+002, 6.202127e+003
9.751592e+002, 6.204421e+003
9.756414e+002, 6.205321e+003
9.761235e+002, 6.205805e+003
9.766056e+002, 6.207650e+003
9.770877e+002, 6.210111e+003
9.775698e+002, 6.211383e+003
9.780519e+002, 6.211229e+003
9.785341e+002, 6.210105e+003
9.790162e+002, 6.208143e+003
9.794983e+002, 6.206897e+003
9.799804e+002, 6.210199e+003
9.804625e+002, 6.216070e+003
9.809446e+002, 6.216126e+003
9.814268e+002, 6.210792e+003
9.819089e+002, 6.205932e+003
9.823910e+002, 6.203118e+003
9.828731e+002, 6.199877e+003
9.833552e+002, 6.193805e+003
9.838373e+002, 6.187327e+003
9.843195e+002, 6.187306e+003
9.848016e+002, 6.194117e+003
9.852837e+002, 6.199465e+003
9.857658e+002, 6.203409e+003
9.862479e+002, 6.203636e+003
9.867300e+002, 6.198416e+003
9.872122e+002, 6.191771e+003
9.876943e+002, 6.187623e+003
9.881764e+002, 6.185543e+003
9.886585e+002, 6.183139e+003
9.891406e+002, 6.179763e+003
9.896227e+002, 6.177858e+003
9.901049e+002, 6.177512e+003
9.905870e+002, 6.178769e+003
9.910691e+002, 6.183514e+003
9.915512e+002, 6.188077e+003
9.920333e+002, 6.187439e+003
9.925154e+002, 6.181800e+003
9.929976e+002, 6.177537e+003
9.934797e+002, 6.174913e+003
9.939618e+002, 6.173280e+003
9.944439e+002, 6.173808e+003
9.949260e+002, 6.173992e+003
9.954081e+002, 6.170717e+003
9.958903e+002, 6.167462e+003
9.963724e+002, 6.170427e+003
9.968545e+002, 6.179750e+003
9.973366e+002, 6.184818e+003
9.978187e+002, 6.180633e+003
9.983008e+002, 6.176017e+003
9.987830e+002, 6.173063e+003
9.992651e+002, 6.170872e+003
9.997472e+002, 6.167789e+003
1.000229e+003, 6.165377e+003
1.000711e+003, 6.167367e+003
1.001194e+003, 6.174294e+003
1.001676e+003, 6.179295e+003
1.002158e+003, 6.178544e+003
1.002640e+003, 6.176083e+003
1.003122e+003, 6.174749e+003
1.003604e+003, 6.172533e+003
1.004086e+003, 6.166276e+003
1.004568e+003, 6.157540e+003
1.005050e+003, 6.149886e+003
1.005533e+003, 6.144489e+003
1.006015e+003, 6.141545e+003
1.006497e+003, 6.142897e+003
1.006979e+003, 6.145129e+003
1.007461e+003, 6.145161e+003
1.007943e+003, 6.143713e+003
1.008425e+003, 6.140315e+003
1.008907e+003, 6.136523e+003
1.009390e+003, 6.137497e+003
1.009872e+003, 6.145382e+003
1.010354e+003, 6.154386e+003
1.010836e+003, 6.159203e+003
1.011318e+003, 6.161307e+003
1.011800e+003, 6.161991e+003
1.012282e+003, 6.162142e+003
1.012764e+003, 6.164386e+003
1.013246e+003, 6.168671e+003
1.013729e+003, 6.172857e+003
1.014211e+003, 6.175886e+003
1.014693e+003, 6.176595e+003
1.015175e+003, 6.172452e+003
1.015657e+003, 6.165082e+003
1.016139e+003, 6.159379e+003
1.016621e+003, 6.154927e+003
1.017103e+003, 6.148475e+003
1.017586e+003, 6.139810e+003
1.018068e+003, 6.134922e+003
1.018550e+003, 6.137838e+003
1.019032e+003, 6.143734e+003
1.019514e+003, 6.144091e+003
1.019996e+003, 6.139964e+003
1.020478e+003, 6.138960e+003
1.020960e+003, 6.141013e+003
1.021442e+003, 6.143850e+003
1.021925e+003, 6.147111e+003
1.022407e+003, 6.148138e+003
1.022889e+003, 6.144729e+003
1.023371e+003, 6.139213e+003
1.023853e+003, 6.136414e+003
1.024335e+003, 6.136346e+003
1.024817e+003, 6.134601e+003
1.025299e+003, 6.130589e+003
1.025781e+003, 6.129178e+003
1.026264e+003, 6.131740e+003
1.026746e+003, 6.136444e+003
1.027228e+003, 6.142622e+003
1.027710e+003, 6.148686e+003
1.028192e+003, 6.150712e+003
1.028674e+003, 6.148241e+003
1.029156e+003, 6.144920e+003
1.029638e+003, 6.140324e+003
1.030120e+003, 6.136189e+003
1.030603e+003, 6.132432e+003
1.031085e+003, 6.130523e+003
1.031567e+003, 6.132187e+003
1.032049e+003, 6.136091e+003
1.032531e+003, 6.138812e+003
1.033013e+003, 6.140443e+003
1.033495e+003, 6.140709e+003
1.033977e+003, 6.140320e+003
1.034460e+003, 6.136998e+003
1.034942e+003, 6.128658e+003
1.035424e+003, 6.119438e+003
1.035906e+003, 6.112296e+003
1.036388e+003, 6.106895e+003
1.036870e+003, 6.102214e+003
1.037352e+003, 6.098158e+003
1.037834e+003, 6.095290e+003
1.038317e+003, 6.093852e+003
1.038799e+003, 6.093278e+003
1.039281e+003, 6.093692e+003
1.039763e+003, 6.094664e+003
1.040245e+003, 6.095586e+003
1.040727e+003, 6.096842e+003
1.041209e+003, 6.100491e+003
1.041691e+003, 6.110022e+003
1.042173e+003, 6.110744e+003
1.042656e+003, 6.093440e+003
1.043138e+003, 6.079362e+003
1.043620e+003, 6.074693e+003
1.044102e+003, 6.074045e+003
1.044584e+003, 6.074538e+003
1.045066e+003, 6.075630e+003
1.045548e+003, 6.076539e+003
1.046030e+003, 6.077645e+003
1.046512e+003, 6.076782e+003
1.046995e+003, 6.070223e+003
1.047477e+003, 6.066295e+003
1.047959e+003, 6.069306e+003
1.048441e+003, 6.074190e+003
1.048923e+003, 6.077617e+003
1.049405e+003, 6.079621e+003
1.049887e+003, 6.080750e+003
1.050369e+003, 6.081009e+003
1.050852e+003, 6.080799e+003
1.051334e+003, 6.077394e+003
1.051816e+003, 6.077229e+003
1.052298e+003, 6.084974e+003
1.052780e+003, 6.094625e+003
1.053262e+003, 6.103692e+003
1.053744e+003, 6.110222e+003
1.054226e+003, 6.109677e+003
1.054708e+003, 6.100179e+003
1.055191e+003, 6.093404e+003
1.055673e+003, 6.093741e+003
1.056155e+003, 6.095666e+003
1.056637e+003, 6.096837e+003
1.057119e+003, 6.098893e+003
1.057601e+003, 6.103857e+003
1.058083e+003, 6.110593e+003
1.058565e+003, 6.117660e+003
1.059047e+003, 6.125016e+003
1.059530e+003, 6.127392e+003
1.060012e+003, 6.118535e+003
1.060494e+003, 6.110143e+003
1.060976e+003, 6.108517e+003
1.061458e+003, 6.108194e+003
1.061940e+003, 6.104136e+003
1.062422e+003, 6.098034e+003
1.062904e+003, 6.094452e+003
1.063387e+003, 6.094236e+003
1.063869e+003, 6.091720e+003
1.064351e+003, 6.082354e+003
1.064833e+003, 6.073476e+003
1.065315e+003, 6.069036e+003
1.065797e+003, 6.065822e+003
1.066279e+003, 6.060049e+003
1.066761e+003, 6.053989e+003
1.067244e+003, 6.053582e+003
1.067726e+003, 6.059246e+003
1.068208e+003, 6.060878e+003
1.068690e+003, 6.050008e+003
1.069172e+003, 6.040132e+003
1.069654e+003, 6.039279e+003
1.070136e+003, 6.040032e+003
1.070618e+003, 6.036196e+003
1.071100e+003, 6.029838e+003
1.071583e+003, 6.024825e+003
1.072065e+003, 6.021794e+003
1.072547e+003, 6.019554e+003
1.073029e+003, 6.018106e+003
1.073511e+003, 6.016529e+003
1.073993e+003, 6.014320e+003
1.074475e+003, 6.011872e+003
1.074957e+003, 6.009150e+003
1.075439e+003, 6.006583e+003
1.075922e+003, 6.003458e+003
1.076404e+003, 6.000650e+003
1.076886e+003, 6.003432e+003
1.077368e+003, 6.018750e+003
1.077850e+003, 6.028514e+003
1.078332e+003, 6.016942e+003
1.078814e+003, 6.004531e+003
1.079297e+003, 6.007666e+003
1.079779e+003, 6.018140e+003
1.080261e+003, 6.024495e+003
1.080743e+003, 6.026290e+003
1.081225e+003, 6.029370e+003
1.081707e+003, 6.036412e+003
1.082189e+003, 6.042415e+003
1.082671e+003, 6.043282e+003
1.083153e+003, 6.044376e+003
1.083635e+003, 6.047221e+003
1.084118e+003, 6.053618e+003
1.084600e+003, 6.068713e+003
1.085082e+003, 6.088947e+003
1.085564e+003, 6.103260e+003
1.086046e+003, 6.108577e+003
1.086528e+003, 6.107710e+003
1.087010e+003, 6.100721e+003
1.087492e+003, 6.089290e+003
1.087975e+003, 6.069641e+003
1.088457e+003, 6.049810e+003
1.088939e+003, 6.038689e+003
1.089421e+003, 6.033878e+003
1.089903e+003, 6.027963e+003
1.090385e+003, 6.019257e+003
1.090867e+003, 6.009430e+003
1.091349e+003, 5.998728e+003
1.091832e+003, 5.987579e+003
1.092314e+003, 5.975044e+003
1.092796e+003, 5.963219e+003
1.093278e+003, 5.952867e+003
1.093760e+003, 5.945000e+003
1.094242e+003, 5.941886e+003
1.094724e+003, 5.943799e+003
1.095206e+003, 5.945667e+003
1.095688e+003, 5.945537e+003
1.096171e+003, 5.945547e+003
1.096653e+003, 5.947250e+003
1.097135e+003, 5.948488e+003
1.097617e+003, 5.947001e+003
1.098099e+003, 5.944486e+003
1.098581e+003, 5.943696e+003
1.099063e+003, 5.944744e+003
1.099545e+003, 5.945311e+003
1.100027e+003, 5.944415e+003
1.100510e+003, 5.943708e+003
1.100992e+003, 5.945184e+003
1.101474e+003, 5.945136e+003
1.101956e+003, 5.940672e+003
1.102438e+003, 5.934219e+003
1.102920e+003, 5.926606e+003
1.103402e+003, 5.919336e+003
1.103884e+003, 5.918547e+003
1.104367e+003, 5.928238e+003
1.104849e+003, 5.936782e+003
1.105331e+003, 5.942222e+003
1.105813e+003, 5.946089e+003
1.106295e+003, 5.950218e+003
1.106777e+003, 5.951961e+003
1.107259e+003, 5.947646e+003
1.107741e+003, 5.939122e+003
1.108224e+003, 5.931773e+003
1.108706e+003, 5.926351e+003
1.109188e+003, 5.920931e+003
1.109670e+003, 5.915914e+003
1.110152e+003, 5.910146e+003
1.110634e+003, 5.901964e+003
1.111116e+003, 5.894360e+003
1.111598e+003, 5.889083e+003
1.112080e+003, 5.885781e+003
1.112563e+003, 5.883836e+003
1.113045e+003, 5.883268e+003
1.113527e+003, 5.883906e+003
1.114009e+003, 5.886295e+003
1.114491e+003, 5.889175e+003
1.114973e+003, 5.895983e+003
1.115455e+003, 5.898438e+003
1.115937e+003, 5.888757e+003
1.116419e+003, 5.876007e+003
1.116902e+003, 5.872310e+003
1.117384e+003, 5.876892e+003
1.117866e+003, 5.880049e+003
1.118348e+003, 5.880568e+003
1.118830e+003, 5.882658e+003
1.119312e+003, 5.887876e+003
1.119794e+003, 5.891869e+003
1.120276e+003, 5.893360e+003
1.120759e+003, 5.892500e+003
1.121241e+003, 5.888805e+003
1.121723e+003, 5.883141e+003
1.122205e+003, 5.878768e+003
1.122687e+003, 5.876253e+003
1.123169e+003, 5.871824e+003
1.123651e+003, 5.864428e+003
1.124133e+003, 5.857987e+003
1.124615e+003, 5.852425e+003
1.125098e+003, 5.851561e+003
1.125580e+003, 5.859592e+003
1.126062e+003, 5.870892e+003
1.126544e+003, 5.873971e+003
1.127026e+003, 5.869067e+003
1.127508e+003, 5.868182e+003
1.127990e+003, 5.872215e+003
1.128472e+003, 5.872069e+003
1.128954e+003, 5.865667e+003
1.129437e+003, 5.860418e+003
1.129919e+003, 5.860091e+003
1.130401e+003, 5.861712e+003
1.130883e+003, 5.861584e+003
1.131365e+003, 5.860317e+003
1.131847e+003, 5.860775e+003
1.132329e+003, 5.862779e+003
1.132811e+003, 5.862358e+003
1.133294e+003, 5.859325e+003
1.133776e+003, 5.859001e+003
1.134258e+003, 5.863164e+003
1.134740e+003, 5.867887e+003
1.135222e+003, 5.869967e+003
1.135704e+003, 5.870245e+003
1.136186e+003, 5.869517e+003
1.136668e+003, 5.868496e+003
1.137151e+003, 5.871566e+003
1.137633e+003, 5.877292e+003
1.138115e+003, 5.877625e+003
1.138597e+003, 5.871462e+003
1.139079e+003, 5.863599e+003
1.139561e+003, 5.856642e+003
1.140043e+003, 5.851618e+003
1.140525e+003, 5.851050e+003
1.141007e+003, 5.852318e+003
1.141490e+003, 5.848737e+003
1.141972e+003, 5.843637e+003
1.142454e+003, 5.845641e+003
1.142936e+003, 5.853633e+003
1.143418e+003, 5.860767e+003
1.143900e+003, 5.864469e+003
1.144382e+003, 5.865324e+003
1.144864e+003, 5.863742e+003
1.145346e+003, 5.859447e+003
1.145829e+003, 5.849291e+003
1.146311e+003, 5.838526e+003
1.146793e+003, 5.834003e+003
1.147275e+003, 5.834124e+003
1.147757e+003, 5.835280e+003
1.148239e+003, 5.836709e+003
1.148721e+003, 5.839310e+003
1.149203e+003, 5.844002e+003
1.149686e+003, 5.847699e+003
1.150168e+003, 5.848609e+003
1.150650e+003, 5.847679e+003
1.151132e+003, 5.845203e+003
1.151614e+003, 5.841625e+003
1.152096e+003, 5.836155e+003
1.152578e+003, 5.830296e+003
1.153060e+003, 5.827640e+003
1.153542e+003, 5.829081e+003
1.154025e+003, 5.830475e+003
1.154507e+003, 5.831463e+003
1.154989e+003, 5.830611e+003
1.155471e+003, 5.824709e+003
1.155953e+003, 5.819609e+003
1.156435e+003, 5.818838e+003
1.156917e+003, 5.821265e+003
1.157399e+003, 5.826586e+003
1.157881e+003, 5.833954e+003
1.158364e+003, 5.837416e+003
1.158846e+003, 5.833595e+003
1.159328e+003, 5.831161e+003
1.159810e+003, 5.833457e+003
1.160292e+003, 5.833361e+003
1.160774e+003, 5.826161e+003
1.161256e+003, 5.818905e+003
1.161738e+003, 5.817844e+003
1.162221e+003, 5.820479e+003
1.162703e+003, 5.821055e+003
1.163185e+003, 5.819708e+003
1.163667e+003, 5.814862e+003
1.164149e+003, 5.803708e+003
1.164631e+003, 5.797445e+003
1.165113e+003, 5.798228e+003
1.165595e+003, 5.803120e+003
1.166078e+003, 5.812076e+003
1.166560e+003, 5.820971e+003
1.167042e+003, 5.824712e+003
1.167524e+003, 5.824039e+003
1.168006e+003, 5.821754e+003
1.168488e+003, 5.817695e+003
1.168970e+003, 5.816395e+003
1.169452e+003, 5.818157e+003
1.169934e+003, 5.819817e+003
1.170417e+003, 5.820478e+003
1.170899e+003, 5.820324e+003
1.171381e+003, 5.819470e+003
1.171863e+003, 5.818030e+003
1.172345e+003, 5.815802e+003
1.172827e+003, 5.813229e+003
1.173309e+003, 5.812636e+003
1.173791e+003, 5.813112e+003
1.174273e+003, 5.810001e+003
1.174756e+003, 5.803841e+003
1.175238e+003, 5.800613e+003
1.175720e+003, 5.802595e+003
1.176202e+003, 5.807092e+003
1.176684e+003, 5.813533e+003
1.177166e+003, 5.817821e+003
1.177648e+003, 5.813448e+003
1.178130e+003, 5.804638e+003
1.178613e+003, 5.795508e+003
1.179095e+003, 5.787800e+003
1.179577e+003, 5.784386e+003
1.180059e+003, 5.784986e+003
1.180541e+003, 5.786259e+003
1.181023e+003, 5.786774e+003
1.181505e+003, 5.787833e+003
1.181987e+003, 5.791996e+003
1.182469e+003, 5.794875e+003
1.182952e+003, 5.793201e+003
1.183434e+003, 5.789141e+003
1.183916e+003, 5.783911e+003
1.184398e+003, 5.778396e+003
1.184880e+003, 5.772985e+003
1.185362e+003, 5.767924e+003
1.185844e+003, 5.767140e+003
1.186326e+003, 5.776336e+003
1.186808e+003, 5.782412e+003
1.187291e+003, 5.779944e+003
1.187773e+003, 5.777797e+003
1.188255e+003, 5.781229e+003
1.188737e+003, 5.785548e+003
1.189219e+003, 5.786834e+003
1.189701e+003, 5.785279e+003
1.190183e+003, 5.781089e+003
1.190665e+003, 5.773305e+003
1.191148e+003, 5.767771e+003
1.191630e+003, 5.764329e+003
1.192112e+003, 5.763909e+003
1.192594e+003, 5.767771e+003
1.193076e+003, 5.771573e+003
1.193558e+003, 5.773323e+003
1.194040e+003, 5.773115e+003
1.194522e+003, 5.770664e+003
1.195005e+003, 5.766802e+003
1.195487e+003, 5.765357e+003
1.195969e+003, 5.766199e+003
1.196451e+003, 5.765695e+003
1.196933e+003, 5.763644e+003
1.197415e+003, 5.759682e+003
1.197897e+003, 5.753857e+003
1.198379e+003, 5.749653e+003
1.198861e+003, 5.749408e+003
1.199344e+003, 5.749792e+003
1.199826e+003, 5.744802e+003
1.200308e+003, 5.738203e+003
1.200790e+003, 5.738194e+003
1.201272e+003, 5.742486e+003
1.201754e+003, 5.747228e+003
1.202236e+003, 5.751257e+003
1.202718e+003, 5.753123e+003
1.203200e+003, 5.752521e+003
1.203683e+003, 5.750166e+003
1.204165e+003, 5.745298e+003
1.204647e+003, 5.742157e+003
1.205129e+003, 5.746089e+003
1.205611e+003, 5.750846e+003
1.206093e+003, 5.752302e+003
1.206575e+003, 5.750555e+003
1.207057e+003, 5.743618e+003
1.207540e+003, 5.734387e+003
1.208022e+003, 5.730110e+003
1.208504e+003, 5.732547e+003
1.208986e+003, 5.736012e+003
1.209468e+003, 5.741229e+003
1.209950e+003, 5.744224e+003
1.210432e+003, 5.743161e+003
1.210914e+003, 5.740792e+003
1.211396e+003, 5.738811e+003
1.211879e+003, 5.735855e+003
1.212361e+003, 5.729242e+003
1.212843e+003, 5.720626e+003
1.213325e+003, 5.717047e+003
1.213807e+003, 5.719829e+003
1.214289e+003, 5.721453e+003
1.214771e+003, 5.721804e+003
1.215253e+003, 5.721451e+003
1.215735e+003, 5.720381e+003
1.216218e+003, 5.719377e+003
1.216700e+003, 5.718982e+003
1.217182e+003, 5.718097e+003
1.217664e+003, 5.714791e+003
1.218146e+003, 5.710748e+003
1.218628e+003, 5.711982e+003
1.219110e+003, 5.717333e+003
1.219592e+003, 5.721115e+003
1.220075e+003, 5.723118e+003
1.220557e+003, 5.724222e+003
1.221039e+003, 5.724737e+003
1.221521e+003, 5.725263e+003
1.222003e+003, 5.726176e+003
1.222485e+003, 5.726083e+003
1.222967e+003, 5.723703e+003
1.223449e+003, 5.719438e+003
1.223932e+003, 5.712514e+003
1.224414e+003, 5.704935e+003
1.224896e+003, 5.699021e+003
1.225378e+003, 5.694691e+003
1.225860e+003, 5.691367e+003
1.226342e+003, 5.688872e+003
1.226824e+003, 5.687212e+003
1.227306e+003, 5.686610e+003
1.227788e+003, 5.686183e+003
1.228271e+003, 5.686217e+003
1.228753e+003, 5.685572e+003
1.229235e+003, 5.683086e+003
1.229717e+003, 5.680360e+003
1.230199e+003, 5.678531e+003
1.230681e+003, 5.677375e+003
1.231163e+003, 5.676275e+003
1.231645e+003, 5.675244e+003
1.232127e+003, 5.675249e+003
1.232610e+003, 5.676302e+003
1.233092e+003, 5.678579e+003
1.233574e+003, 5.682868e+003
1.234056e+003, 5.685710e+003
1.234538e+003, 5.686139e+003
1.235020e+003, 5.684418e+003
1.235502e+003, 5.680411e+003
1.235984e+003, 5.675937e+003
1.236467e+003, 5.674759e+003
1.236949e+003, 5.675594e+003
1.237431e+003, 5.672200e+003
1.237913e+003, 5.665794e+003
1.238395e+003, 5.661183e+003
1.238877e+003, 5.659065e+003
1.239359e+003, 5.660679e+003
1.239841e+003, 5.665633e+003
1.240323e+003, 5.668700e+003
1.240806e+003, 5.666203e+003
1.241288e+003, 5.662220e+003
1.241770e+003, 5.658701e+003
1.242252e+003, 5.657564e+003
1.242734e+003, 5.663727e+003
1.243216e+003, 5.670995e+003
1.243698e+003, 5.670036e+003
1.244180e+003, 5.664526e+003
1.244662e+003, 5.665250e+003
1.245145e+003, 5.673148e+003
1.245627e+003, 5.674545e+003
1.246109e+003, 5.661042e+003
1.246591e+003, 5.649900e+003
1.247073e+003, 5.644390e+003
1.247555e+003, 5.641401e+003
1.248037e+003, 5.642391e+003
1.248519e+003, 5.642472e+003
1.249002e+003, 5.636489e+003
1.249484e+003, 5.629122e+003
1.249966e+003, 5.629533e+003
1.250448e+003, 5.637110e+003
1.250930e+003, 5.640628e+003
1.251412e+003, 5.639531e+003
1.251894e+003, 5.640611e+003
1.252376e+003, 5.644467e+003
1.252859e+003, 5.647985e+003
1.253341e+003, 5.650182e+003
1.253823e+003, 5.649272e+003
1.254305e+003, 5.643640e+003
1.254787e+003, 5.638217e+003
1.255269e+003, 5.640771e+003
1.255751e+003, 5.647452e+003
1.256233e+003, 5.652048e+003
1.256715e+003, 5.654933e+003
1.257198e+003, 5.657093e+003
1.257680e+003, 5.658166e+003
1.258162e+003, 5.656736e+003
1.258644e+003, 5.652897e+003
1.259126e+003, 5.648340e+003
1.259608e+003, 5.642874e+003
1.260090e+003, 5.640489e+003
1.260572e+003, 5.646483e+003
1.261054e+003, 5.651510e+003
1.261537e+003, 5.651190e+003
1.262019e+003, 5.648175e+003
1.262501e+003, 5.642850e+003
1.262983e+003, 5.637251e+003
1.263465e+003, 5.634110e+003
1.263947e+003, 5.633393e+003
1.264429e+003, 5.635057e+003
1.264911e+003, 5.641106e+003
1.265394e+003, 5.641947e+003
1.265876e+003, 5.635831e+003
1.266358e+003, 5.632635e+003
1.266840e+003, 5.635146e+003
1.267322e+003, 5.635827e+003
1.267804e+003, 5.630163e+003
1.268286e+003, 5.623974e+003
1.268768e+003, 5.624880e+003
1.269250e+003, 5.629109e+003
1.269733e+003, 5.627424e+003
1.270215e+003, 5.622581e+003
1.270697e+003, 5.622029e+003
1.271179e+003, 5.624254e+003
1.271661e+003, 5.624167e+003
1.272143e+003, 5.621387e+003
1.272625e+003, 5.618244e+003
1.273107e+003, 5.615632e+003
1.273589e+003, 5.614363e+003
1.274072e+003, 5.615463e+003
1.274554e+003, 5.617302e+003
1.275036e+003, 5.621122e+003
1.275518e+003, 5.623050e+003
1.276000e+003, 5.620155e+003
1.276482e+003, 5.614141e+003
1.276964e+003, 5.604456e+003
1.277446e+003, 5.594575e+003
1.277929e+003, 5.593446e+003
1.278411e+003, 5.602428e+003
1.278893e+003, 5.606052e+003
1.279375e+003, 5.602271e+003
1.279857e+003, 5.601701e+003
1.280339e+003, 5.606417e+003
1.280821e+003, 5.609283e+003
1.281303e+003, 5.608109e+003
1.281786e+003, 5.606144e+003
1.282268e+003, 5.605119e+003
##END=



