##NAMES=Tremolite
##RRUFFID=R150094
##IDEAL CHEMISTRY=[box]Ca_2_Mg_5_Si_8_O_22_(OH)_2_
##LOCALITY=Belmat, St. Lawrence Co., New York, USA
##OWNER=RRUFF
##SOURCE=UAMM 9512
##DESCRIPTION=Aggregate of pinkish prismatic crystals with good cleavage
##STATUS=The identification of this mineral has been confirmed only by X-ray diffraction
##URL=rruff.info/R150094
8.930109e+001, 0.000000e+000
8.978320e+001, 3.973655e+002
9.026532e+001, 3.951796e+002
9.074744e+001, 3.953226e+002
9.122955e+001, 3.988419e+002
9.171167e+001, 4.036541e+002
9.219379e+001, 4.073620e+002
9.267590e+001, 4.101911e+002
9.315802e+001, 4.117187e+002
9.364014e+001, 4.110153e+002
9.412225e+001, 4.087855e+002
9.460437e+001, 4.068042e+002
9.508649e+001, 4.056129e+002
9.556860e+001, 4.047823e+002
9.605072e+001, 4.034239e+002
9.653284e+001, 4.017908e+002
9.701495e+001, 4.007423e+002
9.749707e+001, 4.018692e+002
9.797919e+001, 4.050720e+002
9.846130e+001, 4.064521e+002
9.894342e+001, 4.038394e+002
9.942554e+001, 3.977197e+002
9.990765e+001, 3.948179e+002
1.003898e+002, 3.955673e+002
1.008719e+002, 3.982670e+002
1.013540e+002, 4.007699e+002
1.018361e+002, 4.032726e+002
1.023182e+002, 4.050383e+002
1.028004e+002, 4.055775e+002
1.032825e+002, 4.044048e+002
1.037646e+002, 4.042349e+002
1.042467e+002, 4.052824e+002
1.047288e+002, 4.071940e+002
1.052109e+002, 4.090974e+002
1.056931e+002, 4.106535e+002
1.061752e+002, 4.127294e+002
1.066573e+002, 4.157702e+002
1.071394e+002, 4.202845e+002
1.076215e+002, 4.248806e+002
1.081036e+002, 4.300089e+002
1.085858e+002, 4.354025e+002
1.090679e+002, 4.394259e+002
1.095500e+002, 4.412013e+002
1.100321e+002, 4.423541e+002
1.105142e+002, 4.437418e+002
1.109963e+002, 4.448473e+002
1.114785e+002, 4.467581e+002
1.119606e+002, 4.498340e+002
1.124427e+002, 4.540282e+002
1.129248e+002, 4.582029e+002
1.134069e+002, 4.620990e+002
1.138890e+002, 4.659570e+002
1.143712e+002, 4.700179e+002
1.148533e+002, 4.747520e+002
1.153354e+002, 4.792819e+002
1.158175e+002, 4.833558e+002
1.162996e+002, 4.870209e+002
1.167817e+002, 4.902596e+002
1.172639e+002, 4.925584e+002
1.177460e+002, 4.945942e+002
1.182281e+002, 4.972249e+002
1.187102e+002, 5.019643e+002
1.191923e+002, 5.065620e+002
1.196744e+002, 5.092478e+002
1.201566e+002, 5.093771e+002
1.206387e+002, 5.097496e+002
1.211208e+002, 5.126971e+002
1.216029e+002, 5.171436e+002
1.220850e+002, 5.209022e+002
1.225671e+002, 5.223531e+002
1.230493e+002, 5.227681e+002
1.235314e+002, 5.235790e+002
1.240135e+002, 5.253217e+002
1.244956e+002, 5.266787e+002
1.249777e+002, 5.260922e+002
1.254598e+002, 5.239080e+002
1.259420e+002, 5.214619e+002
1.264241e+002, 5.193758e+002
1.269062e+002, 5.176344e+002
1.273883e+002, 5.162276e+002
1.278704e+002, 5.151756e+002
1.283525e+002, 5.144154e+002
1.288347e+002, 5.139097e+002
1.293168e+002, 5.136486e+002
1.297989e+002, 5.135079e+002
1.302810e+002, 5.134622e+002
1.307631e+002, 5.134747e+002
1.312452e+002, 5.133983e+002
1.317274e+002, 5.132152e+002
1.322095e+002, 5.129173e+002
1.326916e+002, 5.122863e+002
1.331737e+002, 5.112345e+002
1.336558e+002, 5.104928e+002
1.341379e+002, 5.110069e+002
1.346201e+002, 5.127596e+002
1.351022e+002, 5.143546e+002
1.355843e+002, 5.153080e+002
1.360664e+002, 5.157211e+002
1.365485e+002, 5.162474e+002
1.370306e+002, 5.168406e+002
1.375128e+002, 5.176720e+002
1.379949e+002, 5.190687e+002
1.384770e+002, 5.211525e+002
1.389591e+002, 5.232259e+002
1.394412e+002, 5.251563e+002
1.399233e+002, 5.269417e+002
1.404055e+002, 5.282747e+002
1.408876e+002, 5.290507e+002
1.413697e+002, 5.294619e+002
1.418518e+002, 5.297728e+002
1.423339e+002, 5.298559e+002
1.428160e+002, 5.301037e+002
1.432982e+002, 5.306910e+002
1.437803e+002, 5.317268e+002
1.442624e+002, 5.327462e+002
1.447445e+002, 5.337919e+002
1.452266e+002, 5.348099e+002
1.457087e+002, 5.356360e+002
1.461909e+002, 5.362875e+002
1.466730e+002, 5.367553e+002
1.471551e+002, 5.369728e+002
1.476372e+002, 5.362770e+002
1.481193e+002, 5.364987e+002
1.486014e+002, 5.384761e+002
1.490836e+002, 5.414943e+002
1.495657e+002, 5.431151e+002
1.500478e+002, 5.418533e+002
1.505299e+002, 5.403607e+002
1.510120e+002, 5.397831e+002
1.514941e+002, 5.402235e+002
1.519763e+002, 5.414393e+002
1.524584e+002, 5.443167e+002
1.529405e+002, 5.483134e+002
1.534226e+002, 5.507814e+002
1.539047e+002, 5.500896e+002
1.543868e+002, 5.487419e+002
1.548690e+002, 5.481007e+002
1.553511e+002, 5.487412e+002
1.558332e+002, 5.496422e+002
1.563153e+002, 5.508004e+002
1.567974e+002, 5.521684e+002
1.572795e+002, 5.533766e+002
1.577617e+002, 5.536985e+002
1.582438e+002, 5.541820e+002
1.587259e+002, 5.555853e+002
1.592080e+002, 5.590848e+002
1.596901e+002, 5.625793e+002
1.601722e+002, 5.652488e+002
1.606544e+002, 5.671461e+002
1.611365e+002, 5.694434e+002
1.616186e+002, 5.728114e+002
1.621007e+002, 5.766422e+002
1.625828e+002, 5.804567e+002
1.630649e+002, 5.846632e+002
1.635471e+002, 5.883015e+002
1.640292e+002, 5.911566e+002
1.645113e+002, 5.932130e+002
1.649934e+002, 5.938718e+002
1.654755e+002, 5.920634e+002
1.659576e+002, 5.888625e+002
1.664398e+002, 5.856325e+002
1.669219e+002, 5.819619e+002
1.674040e+002, 5.790397e+002
1.678861e+002, 5.777039e+002
1.683682e+002, 5.780032e+002
1.688503e+002, 5.794264e+002
1.693325e+002, 5.830807e+002
1.698146e+002, 5.875053e+002
1.702967e+002, 5.902948e+002
1.707788e+002, 5.883469e+002
1.712609e+002, 5.854905e+002
1.717430e+002, 5.854434e+002
1.722252e+002, 5.886535e+002
1.727073e+002, 5.926686e+002
1.731894e+002, 5.958138e+002
1.736715e+002, 5.983320e+002
1.741536e+002, 6.006642e+002
1.746357e+002, 6.022267e+002
1.751179e+002, 6.040969e+002
1.756000e+002, 6.078961e+002
1.760821e+002, 6.139610e+002
1.765642e+002, 6.205886e+002
1.770463e+002, 6.262385e+002
1.775284e+002, 6.311237e+002
1.780106e+002, 6.358046e+002
1.784927e+002, 6.411859e+002
1.789748e+002, 6.464547e+002
1.794569e+002, 6.499902e+002
1.799390e+002, 6.515068e+002
1.804211e+002, 6.519623e+002
1.809033e+002, 6.527138e+002
1.813854e+002, 6.535261e+002
1.818675e+002, 6.532805e+002
1.823496e+002, 6.508505e+002
1.828317e+002, 6.469268e+002
1.833138e+002, 6.429578e+002
1.837960e+002, 6.391000e+002
1.842781e+002, 6.352986e+002
1.847602e+002, 6.309714e+002
1.852423e+002, 6.262863e+002
1.857244e+002, 6.230067e+002
1.862065e+002, 6.230868e+002
1.866887e+002, 6.256155e+002
1.871708e+002, 6.270328e+002
1.876529e+002, 6.266858e+002
1.881350e+002, 6.256494e+002
1.886171e+002, 6.258945e+002
1.890992e+002, 6.273865e+002
1.895814e+002, 6.288300e+002
1.900635e+002, 6.292238e+002
1.905456e+002, 6.287477e+002
1.910277e+002, 6.285496e+002
1.915098e+002, 6.287103e+002
1.919919e+002, 6.292815e+002
1.924741e+002, 6.305746e+002
1.929562e+002, 6.326213e+002
1.934383e+002, 6.346063e+002
1.939204e+002, 6.360090e+002
1.944025e+002, 6.368409e+002
1.948846e+002, 6.372232e+002
1.953668e+002, 6.369784e+002
1.958489e+002, 6.364997e+002
1.963310e+002, 6.367906e+002
1.968131e+002, 6.379191e+002
1.972952e+002, 6.392790e+002
1.977773e+002, 6.405448e+002
1.982595e+002, 6.417109e+002
1.987416e+002, 6.427862e+002
1.992237e+002, 6.438513e+002
1.997058e+002, 6.447564e+002
2.001879e+002, 6.447188e+002
2.006700e+002, 6.434129e+002
2.011522e+002, 6.426599e+002
2.016343e+002, 6.443084e+002
2.021164e+002, 6.487448e+002
2.025985e+002, 6.515167e+002
2.030806e+002, 6.516098e+002
2.035627e+002, 6.499349e+002
2.040449e+002, 6.494297e+002
2.045270e+002, 6.503302e+002
2.050091e+002, 6.516078e+002
2.054912e+002, 6.523220e+002
2.059733e+002, 6.521829e+002
2.064554e+002, 6.534154e+002
2.069376e+002, 6.569957e+002
2.074197e+002, 6.619164e+002
2.079018e+002, 6.641172e+002
2.083839e+002, 6.627143e+002
2.088660e+002, 6.608497e+002
2.093481e+002, 6.605538e+002
2.098303e+002, 6.619327e+002
2.103124e+002, 6.645269e+002
2.107945e+002, 6.687617e+002
2.112766e+002, 6.741008e+002
2.117587e+002, 6.784742e+002
2.122408e+002, 6.817079e+002
2.127230e+002, 6.843646e+002
2.132051e+002, 6.866295e+002
2.136872e+002, 6.881486e+002
2.141693e+002, 6.905748e+002
2.146514e+002, 6.944258e+002
2.151335e+002, 6.992991e+002
2.156157e+002, 7.031365e+002
2.160978e+002, 7.056688e+002
2.165799e+002, 7.076790e+002
2.170620e+002, 7.097772e+002
2.175441e+002, 7.122597e+002
2.180262e+002, 7.138555e+002
2.185084e+002, 7.140345e+002
2.189905e+002, 7.132150e+002
2.194726e+002, 7.133519e+002
2.199547e+002, 7.142688e+002
2.204368e+002, 7.164429e+002
2.209189e+002, 7.203564e+002
2.214011e+002, 7.267575e+002
2.218832e+002, 7.331165e+002
2.223653e+002, 7.395723e+002
2.228474e+002, 7.458618e+002
2.233295e+002, 7.510685e+002
2.238116e+002, 7.550006e+002
2.242938e+002, 7.580000e+002
2.247759e+002, 7.601761e+002
2.252580e+002, 7.612899e+002
2.257401e+002, 7.621278e+002
2.262222e+002, 7.628909e+002
2.267043e+002, 7.634162e+002
2.271865e+002, 7.630253e+002
2.276686e+002, 7.615552e+002
2.281507e+002, 7.594124e+002
2.286328e+002, 7.565717e+002
2.291149e+002, 7.520266e+002
2.295970e+002, 7.491824e+002
2.300792e+002, 7.485500e+002
2.305613e+002, 7.497808e+002
2.310434e+002, 7.516772e+002
2.315255e+002, 7.547818e+002
2.320076e+002, 7.577466e+002
2.324897e+002, 7.598467e+002
2.329719e+002, 7.609769e+002
2.334540e+002, 7.614947e+002
2.339361e+002, 7.613017e+002
2.344182e+002, 7.605268e+002
2.349003e+002, 7.595908e+002
2.353824e+002, 7.584603e+002
2.358646e+002, 7.572167e+002
2.363467e+002, 7.559574e+002
2.368288e+002, 7.549739e+002
2.373109e+002, 7.531926e+002
2.377930e+002, 7.498850e+002
2.382751e+002, 7.458444e+002
2.387573e+002, 7.437643e+002
2.392394e+002, 7.449514e+002
2.397215e+002, 7.461806e+002
2.402036e+002, 7.458953e+002
2.406857e+002, 7.431184e+002
2.411678e+002, 7.409402e+002
2.416500e+002, 7.391065e+002
2.421321e+002, 7.379373e+002
2.426142e+002, 7.383739e+002
2.430963e+002, 7.411788e+002
2.435784e+002, 7.444799e+002
2.440605e+002, 7.476123e+002
2.445427e+002, 7.509386e+002
2.450248e+002, 7.531642e+002
2.455069e+002, 7.538125e+002
2.459890e+002, 7.535643e+002
2.464711e+002, 7.538998e+002
2.469532e+002, 7.550651e+002
2.474354e+002, 7.564324e+002
2.479175e+002, 7.577190e+002
2.483996e+002, 7.587807e+002
2.488817e+002, 7.603146e+002
2.493638e+002, 7.625143e+002
2.498459e+002, 7.650949e+002
2.503281e+002, 7.675996e+002
2.508102e+002, 7.702961e+002
2.512923e+002, 7.724758e+002
2.517744e+002, 7.738172e+002
2.522565e+002, 7.740738e+002
2.527386e+002, 7.745568e+002
2.532208e+002, 7.755450e+002
2.537029e+002, 7.765558e+002
2.541850e+002, 7.767432e+002
2.546671e+002, 7.755861e+002
2.551492e+002, 7.746002e+002
2.556313e+002, 7.742770e+002
2.561135e+002, 7.747017e+002
2.565956e+002, 7.751599e+002
2.570777e+002, 7.757258e+002
2.575598e+002, 7.762189e+002
2.580419e+002, 7.761993e+002
2.585240e+002, 7.750015e+002
2.590062e+002, 7.748101e+002
2.594883e+002, 7.766537e+002
2.599704e+002, 7.807117e+002
2.604525e+002, 7.834197e+002
2.609346e+002, 7.842980e+002
2.614167e+002, 7.843904e+002
2.618989e+002, 7.848426e+002
2.623810e+002, 7.857275e+002
2.628631e+002, 7.868336e+002
2.633452e+002, 7.883084e+002
2.638273e+002, 7.901725e+002
2.643094e+002, 7.910588e+002
2.647916e+002, 7.905091e+002
2.652737e+002, 7.897767e+002
2.657558e+002, 7.900648e+002
2.662379e+002, 7.915375e+002
2.667200e+002, 7.936210e+002
2.672021e+002, 7.966945e+002
2.676843e+002, 8.004890e+002
2.681664e+002, 8.022410e+002
2.686485e+002, 8.012549e+002
2.691306e+002, 7.996536e+002
2.696127e+002, 7.992097e+002
2.700948e+002, 8.001075e+002
2.705770e+002, 8.012709e+002
2.710591e+002, 8.025074e+002
2.715412e+002, 8.038459e+002
2.720233e+002, 8.055921e+002
2.725054e+002, 8.078428e+002
2.729875e+002, 8.101232e+002
2.734697e+002, 8.120765e+002
2.739518e+002, 8.136806e+002
2.744339e+002, 8.151592e+002
2.749160e+002, 8.164636e+002
2.753981e+002, 8.177012e+002
2.758802e+002, 8.194055e+002
2.763624e+002, 8.217645e+002
2.768445e+002, 8.237740e+002
2.773266e+002, 8.245814e+002
2.778087e+002, 8.240861e+002
2.782908e+002, 8.239472e+002
2.787729e+002, 8.242892e+002
2.792551e+002, 8.250801e+002
2.797372e+002, 8.263451e+002
2.802193e+002, 8.281615e+002
2.807014e+002, 8.300092e+002
2.811835e+002, 8.316124e+002
2.816656e+002, 8.329757e+002
2.821478e+002, 8.343290e+002
2.826299e+002, 8.356344e+002
2.831120e+002, 8.370286e+002
2.835941e+002, 8.388953e+002
2.840762e+002, 8.412768e+002
2.845583e+002, 8.434049e+002
2.850405e+002, 8.445182e+002
2.855226e+002, 8.448322e+002
2.860047e+002, 8.465837e+002
2.864868e+002, 8.500677e+002
2.869689e+002, 8.540421e+002
2.874510e+002, 8.568618e+002
2.879332e+002, 8.585630e+002
2.884153e+002, 8.599307e+002
2.888974e+002, 8.607471e+002
2.893795e+002, 8.614214e+002
2.898616e+002, 8.641299e+002
2.903438e+002, 8.692105e+002
2.908259e+002, 8.739615e+002
2.913080e+002, 8.748246e+002
2.917901e+002, 8.723917e+002
2.922722e+002, 8.702122e+002
2.927543e+002, 8.691840e+002
2.932365e+002, 8.692863e+002
2.937186e+002, 8.709992e+002
2.942007e+002, 8.743352e+002
2.946828e+002, 8.776403e+002
2.951649e+002, 8.795307e+002
2.956470e+002, 8.801877e+002
2.961292e+002, 8.801749e+002
2.966113e+002, 8.793082e+002
2.970934e+002, 8.782109e+002
2.975755e+002, 8.779773e+002
2.980576e+002, 8.785410e+002
2.985397e+002, 8.791743e+002
2.990219e+002, 8.788955e+002
2.995040e+002, 8.783377e+002
2.999861e+002, 8.789553e+002
3.004682e+002, 8.812877e+002
3.009503e+002, 8.843609e+002
3.014324e+002, 8.874498e+002
3.019146e+002, 8.904215e+002
3.023967e+002, 8.928292e+002
3.028788e+002, 8.934630e+002
3.033609e+002, 8.936317e+002
3.038430e+002, 8.955961e+002
3.043251e+002, 9.001608e+002
3.048073e+002, 9.046236e+002
3.052894e+002, 9.062186e+002
3.057715e+002, 9.057387e+002
3.062536e+002, 9.051694e+002
3.067357e+002, 9.050471e+002
3.072178e+002, 9.055671e+002
3.077000e+002, 9.073087e+002
3.081821e+002, 9.104587e+002
3.086642e+002, 9.132650e+002
3.091463e+002, 9.137685e+002
3.096284e+002, 9.131686e+002
3.101105e+002, 9.133513e+002
3.105927e+002, 9.156247e+002
3.110748e+002, 9.185817e+002
3.115569e+002, 9.214802e+002
3.120390e+002, 9.242842e+002
3.125211e+002, 9.266884e+002
3.130032e+002, 9.285296e+002
3.134854e+002, 9.299276e+002
3.139675e+002, 9.309838e+002
3.144496e+002, 9.314763e+002
3.149317e+002, 9.318919e+002
3.154138e+002, 9.323668e+002
3.158959e+002, 9.329388e+002
3.163781e+002, 9.337982e+002
3.168602e+002, 9.357563e+002
3.173423e+002, 9.376224e+002
3.178244e+002, 9.384226e+002
3.183065e+002, 9.367787e+002
3.187886e+002, 9.357172e+002
3.192708e+002, 9.366202e+002
3.197529e+002, 9.389187e+002
3.202350e+002, 9.410213e+002
3.207171e+002, 9.419082e+002
3.211992e+002, 9.428578e+002
3.216813e+002, 9.446038e+002
3.221635e+002, 9.477628e+002
3.226456e+002, 9.504789e+002
3.231277e+002, 9.519706e+002
3.236098e+002, 9.528505e+002
3.240919e+002, 9.541549e+002
3.245740e+002, 9.564183e+002
3.250562e+002, 9.587595e+002
3.255383e+002, 9.608676e+002
3.260204e+002, 9.626221e+002
3.265025e+002, 9.645882e+002
3.269846e+002, 9.668904e+002
3.274667e+002, 9.693948e+002
3.279489e+002, 9.719948e+002
3.284310e+002, 9.753075e+002
3.289131e+002, 9.780532e+002
3.293952e+002, 9.798066e+002
3.298773e+002, 9.805402e+002
3.303594e+002, 9.817892e+002
3.308416e+002, 9.835219e+002
3.313237e+002, 9.857872e+002
3.318058e+002, 9.887029e+002
3.322879e+002, 9.930811e+002
3.327700e+002, 9.967301e+002
3.332521e+002, 9.993950e+002
3.337343e+002, 1.001198e+003
3.342164e+002, 1.002764e+003
3.346985e+002, 1.004177e+003
3.351806e+002, 1.005177e+003
3.356627e+002, 1.005417e+003
3.361448e+002, 1.004315e+003
3.366270e+002, 1.004233e+003
3.371091e+002, 1.005380e+003
3.375912e+002, 1.007459e+003
3.380733e+002, 1.010300e+003
3.385554e+002, 1.014503e+003
3.390375e+002, 1.017419e+003
3.395197e+002, 1.017008e+003
3.400018e+002, 1.012912e+003
3.404839e+002, 1.013074e+003
3.409660e+002, 1.018925e+003
3.414481e+002, 1.025897e+003
3.419302e+002, 1.027203e+003
3.424124e+002, 1.022350e+003
3.428945e+002, 1.018698e+003
3.433766e+002, 1.018835e+003
3.438587e+002, 1.021893e+003
3.443408e+002, 1.023816e+003
3.448229e+002, 1.024428e+003
3.453051e+002, 1.025036e+003
3.457872e+002, 1.026995e+003
3.462693e+002, 1.030101e+003
3.467514e+002, 1.033132e+003
3.472335e+002, 1.035935e+003
3.477156e+002, 1.038389e+003
3.481978e+002, 1.040033e+003
3.486799e+002, 1.040927e+003
3.491620e+002, 1.041727e+003
3.496441e+002, 1.043018e+003
3.501262e+002, 1.044544e+003
3.506083e+002, 1.045449e+003
3.510905e+002, 1.045396e+003
3.515726e+002, 1.045649e+003
3.520547e+002, 1.048265e+003
3.525368e+002, 1.052521e+003
3.530189e+002, 1.056223e+003
3.535010e+002, 1.057298e+003
3.539832e+002, 1.057660e+003
3.544653e+002, 1.060227e+003
3.549474e+002, 1.065245e+003
3.554295e+002, 1.069482e+003
3.559116e+002, 1.069322e+003
3.563937e+002, 1.066966e+003
3.568759e+002, 1.065720e+003
3.573580e+002, 1.067082e+003
3.578401e+002, 1.069694e+003
3.583222e+002, 1.073201e+003
3.588043e+002, 1.077428e+003
3.592864e+002, 1.081133e+003
3.597686e+002, 1.083284e+003
3.602507e+002, 1.084841e+003
3.607328e+002, 1.086576e+003
3.612149e+002, 1.088666e+003
3.616970e+002, 1.090963e+003
3.621791e+002, 1.093595e+003
3.626613e+002, 1.096381e+003
3.631434e+002, 1.098914e+003
3.636255e+002, 1.100240e+003
3.641076e+002, 1.101918e+003
3.645897e+002, 1.104828e+003
3.650718e+002, 1.109368e+003
3.655540e+002, 1.113862e+003
3.660361e+002, 1.117682e+003
3.665182e+002, 1.121411e+003
3.670003e+002, 1.125755e+003
3.674824e+002, 1.131722e+003
3.679645e+002, 1.137373e+003
3.684467e+002, 1.142376e+003
3.689288e+002, 1.146644e+003
3.694109e+002, 1.150490e+003
3.698930e+002, 1.153152e+003
3.703751e+002, 1.156013e+003
3.708572e+002, 1.160211e+003
3.713394e+002, 1.167929e+003
3.718215e+002, 1.173247e+003
3.723036e+002, 1.175372e+003
3.727857e+002, 1.174797e+003
3.732678e+002, 1.173104e+003
3.737499e+002, 1.169488e+003
3.742321e+002, 1.166124e+003
3.747142e+002, 1.164271e+003
3.751963e+002, 1.164502e+003
3.756784e+002, 1.163529e+003
3.761605e+002, 1.160777e+003
3.766426e+002, 1.157534e+003
3.771248e+002, 1.155874e+003
3.776069e+002, 1.155918e+003
3.780890e+002, 1.156655e+003
3.785711e+002, 1.157852e+003
3.790532e+002, 1.159494e+003
3.795353e+002, 1.161596e+003
3.800175e+002, 1.164346e+003
3.804996e+002, 1.166734e+003
3.809817e+002, 1.167411e+003
3.814638e+002, 1.166621e+003
3.819459e+002, 1.166508e+003
3.824280e+002, 1.167794e+003
3.829102e+002, 1.169588e+003
3.833923e+002, 1.169242e+003
3.838744e+002, 1.167102e+003
3.843565e+002, 1.166799e+003
3.848386e+002, 1.172075e+003
3.853207e+002, 1.180617e+003
3.858029e+002, 1.187963e+003
3.862850e+002, 1.193900e+003
3.867671e+002, 1.197757e+003
3.872492e+002, 1.196675e+003
3.877313e+002, 1.192932e+003
3.882134e+002, 1.191755e+003
3.886956e+002, 1.197656e+003
3.891777e+002, 1.205781e+003
3.896598e+002, 1.211960e+003
3.901419e+002, 1.216185e+003
3.906240e+002, 1.219931e+003
3.911061e+002, 1.223576e+003
3.915883e+002, 1.227498e+003
3.920704e+002, 1.232103e+003
3.925525e+002, 1.237572e+003
3.930346e+002, 1.243670e+003
3.935167e+002, 1.250930e+003
3.939988e+002, 1.258886e+003
3.944810e+002, 1.266295e+003
3.949631e+002, 1.271981e+003
3.954452e+002, 1.277594e+003
3.959273e+002, 1.284799e+003
3.964094e+002, 1.295668e+003
3.968915e+002, 1.302063e+003
3.973737e+002, 1.300099e+003
3.978558e+002, 1.293630e+003
3.983379e+002, 1.287408e+003
3.988200e+002, 1.282420e+003
3.993021e+002, 1.277103e+003
3.997842e+002, 1.270454e+003
4.002664e+002, 1.262475e+003
4.007485e+002, 1.256813e+003
4.012306e+002, 1.254505e+003
4.017127e+002, 1.253536e+003
4.021948e+002, 1.252728e+003
4.026769e+002, 1.252168e+003
4.031591e+002, 1.251542e+003
4.036412e+002, 1.250777e+003
4.041233e+002, 1.249957e+003
4.046054e+002, 1.249161e+003
4.050875e+002, 1.248192e+003
4.055696e+002, 1.247874e+003
4.060518e+002, 1.248770e+003
4.065339e+002, 1.250936e+003
4.070160e+002, 1.252752e+003
4.074981e+002, 1.254201e+003
4.079802e+002, 1.255368e+003
4.084623e+002, 1.256144e+003
4.089445e+002, 1.256564e+003
4.094266e+002, 1.257432e+003
4.099087e+002, 1.259030e+003
4.103908e+002, 1.261179e+003
4.108729e+002, 1.263360e+003
4.113550e+002, 1.265611e+003
4.118372e+002, 1.268298e+003
4.123193e+002, 1.272021e+003
4.128014e+002, 1.276379e+003
4.132835e+002, 1.280571e+003
4.137656e+002, 1.284605e+003
4.142477e+002, 1.288088e+003
4.147299e+002, 1.289430e+003
4.152120e+002, 1.289774e+003
4.156941e+002, 1.291832e+003
4.161762e+002, 1.298939e+003
4.166583e+002, 1.306970e+003
4.171404e+002, 1.311774e+003
4.176226e+002, 1.313410e+003
4.181047e+002, 1.315227e+003
4.185868e+002, 1.320713e+003
4.190689e+002, 1.326580e+003
4.195510e+002, 1.329669e+003
4.200331e+002, 1.327395e+003
4.205153e+002, 1.324497e+003
4.209974e+002, 1.321993e+003
4.214795e+002, 1.320169e+003
4.219616e+002, 1.319865e+003
4.224437e+002, 1.323398e+003
4.229258e+002, 1.326732e+003
4.234080e+002, 1.327795e+003
4.238901e+002, 1.325449e+003
4.243722e+002, 1.324647e+003
4.248543e+002, 1.328044e+003
4.253364e+002, 1.332107e+003
4.258185e+002, 1.333235e+003
4.263007e+002, 1.328127e+003
4.267828e+002, 1.324983e+003
4.272649e+002, 1.325683e+003
4.277470e+002, 1.329541e+003
4.282291e+002, 1.332006e+003
4.287112e+002, 1.332268e+003
4.291934e+002, 1.332492e+003
4.296755e+002, 1.334198e+003
4.301576e+002, 1.337957e+003
4.306397e+002, 1.339813e+003
4.311218e+002, 1.338831e+003
4.316039e+002, 1.337223e+003
4.320861e+002, 1.339111e+003
4.325682e+002, 1.344786e+003
4.330503e+002, 1.349531e+003
4.335324e+002, 1.351579e+003
4.340145e+002, 1.351515e+003
4.344966e+002, 1.350955e+003
4.349788e+002, 1.349877e+003
4.354609e+002, 1.349305e+003
4.359430e+002, 1.350060e+003
4.364251e+002, 1.352019e+003
4.369072e+002, 1.354987e+003
4.373893e+002, 1.359293e+003
4.378715e+002, 1.363721e+003
4.383536e+002, 1.366621e+003
4.388357e+002, 1.368472e+003
4.393178e+002, 1.370603e+003
4.397999e+002, 1.374557e+003
4.402820e+002, 1.378550e+003
4.407642e+002, 1.380512e+003
4.412463e+002, 1.380328e+003
4.417284e+002, 1.380419e+003
4.422105e+002, 1.382480e+003
4.426926e+002, 1.385260e+003
4.431747e+002, 1.387571e+003
4.436569e+002, 1.389181e+003
4.441390e+002, 1.390143e+003
4.446211e+002, 1.389600e+003
4.451032e+002, 1.388299e+003
4.455853e+002, 1.388431e+003
4.460674e+002, 1.391764e+003
4.465496e+002, 1.395418e+003
4.470317e+002, 1.398380e+003
4.475138e+002, 1.400507e+003
4.479959e+002, 1.402398e+003
4.484780e+002, 1.403946e+003
4.489601e+002, 1.405405e+003
4.494423e+002, 1.407066e+003
4.499244e+002, 1.409074e+003
4.504065e+002, 1.410942e+003
4.508886e+002, 1.412224e+003
4.513707e+002, 1.413338e+003
4.518528e+002, 1.416539e+003
4.523350e+002, 1.422682e+003
4.528171e+002, 1.428324e+003
4.532992e+002, 1.431410e+003
4.537813e+002, 1.431888e+003
4.542634e+002, 1.432446e+003
4.547455e+002, 1.433009e+003
4.552277e+002, 1.433983e+003
4.557098e+002, 1.435912e+003
4.561919e+002, 1.438723e+003
4.566740e+002, 1.442261e+003
4.571561e+002, 1.446979e+003
4.576382e+002, 1.451880e+003
4.581204e+002, 1.455003e+003
4.586025e+002, 1.456530e+003
4.590846e+002, 1.457525e+003
4.595667e+002, 1.458093e+003
4.600488e+002, 1.458849e+003
4.605309e+002, 1.460770e+003
4.610131e+002, 1.464203e+003
4.614952e+002, 1.467841e+003
4.619773e+002, 1.470731e+003
4.624594e+002, 1.473215e+003
4.629415e+002, 1.475833e+003
4.634236e+002, 1.479297e+003
4.639058e+002, 1.482407e+003
4.643879e+002, 1.484011e+003
4.648700e+002, 1.484373e+003
4.653521e+002, 1.486152e+003
4.658342e+002, 1.492080e+003
4.663163e+002, 1.498088e+003
4.667985e+002, 1.501869e+003
4.672806e+002, 1.501927e+003
4.677627e+002, 1.502106e+003
4.682448e+002, 1.502234e+003
4.687269e+002, 1.502612e+003
4.692090e+002, 1.503698e+003
4.696912e+002, 1.505788e+003
4.701733e+002, 1.508065e+003
4.706554e+002, 1.510376e+003
4.711375e+002, 1.512722e+003
4.716196e+002, 1.515117e+003
4.721017e+002, 1.517563e+003
4.725839e+002, 1.520051e+003
4.730660e+002, 1.522380e+003
4.735481e+002, 1.524534e+003
4.740302e+002, 1.528358e+003
4.745123e+002, 1.534761e+003
4.749944e+002, 1.540832e+003
4.754766e+002, 1.540826e+003
4.759587e+002, 1.535837e+003
4.764408e+002, 1.532854e+003
4.769229e+002, 1.536295e+003
4.774050e+002, 1.542495e+003
4.778871e+002, 1.545122e+003
4.783693e+002, 1.544539e+003
4.788514e+002, 1.543924e+003
4.793335e+002, 1.545734e+003
4.798156e+002, 1.548696e+003
4.802977e+002, 1.551061e+003
4.807798e+002, 1.552071e+003
4.812620e+002, 1.553964e+003
4.817441e+002, 1.559496e+003
4.822262e+002, 1.566384e+003
4.827083e+002, 1.571267e+003
4.831904e+002, 1.570195e+003
4.836725e+002, 1.569636e+003
4.841547e+002, 1.572502e+003
4.846368e+002, 1.578532e+003
4.851189e+002, 1.583711e+003
4.856010e+002, 1.586640e+003
4.860831e+002, 1.589230e+003
4.865652e+002, 1.592387e+003
4.870474e+002, 1.596259e+003
4.875295e+002, 1.600497e+003
4.880116e+002, 1.605663e+003
4.884937e+002, 1.610728e+003
4.889758e+002, 1.613998e+003
4.894579e+002, 1.614643e+003
4.899401e+002, 1.616220e+003
4.904222e+002, 1.620342e+003
4.909043e+002, 1.625969e+003
4.913864e+002, 1.627769e+003
4.918685e+002, 1.625197e+003
4.923506e+002, 1.622588e+003
4.928328e+002, 1.623081e+003
4.933149e+002, 1.626110e+003
4.937970e+002, 1.629166e+003
4.942791e+002, 1.632067e+003
4.947612e+002, 1.635057e+003
4.952433e+002, 1.639040e+003
4.957255e+002, 1.643408e+003
4.962076e+002, 1.646591e+003
4.966897e+002, 1.647240e+003
4.971718e+002, 1.647254e+003
4.976539e+002, 1.648084e+003
4.981360e+002, 1.649731e+003
4.986182e+002, 1.652222e+003
4.991003e+002, 1.657074e+003
4.995824e+002, 1.661746e+003
5.000645e+002, 1.663921e+003
5.005466e+002, 1.662641e+003
5.010287e+002, 1.662273e+003
5.015109e+002, 1.664629e+003
5.019930e+002, 1.668246e+003
5.024751e+002, 1.671645e+003
5.029572e+002, 1.674302e+003
5.034393e+002, 1.677122e+003
5.039214e+002, 1.680665e+003
5.044036e+002, 1.684439e+003
5.048857e+002, 1.686651e+003
5.053678e+002, 1.686216e+003
5.058499e+002, 1.686145e+003
5.063320e+002, 1.687802e+003
5.068141e+002, 1.691328e+003
5.072963e+002, 1.694369e+003
5.077784e+002, 1.696621e+003
5.082605e+002, 1.699325e+003
5.087426e+002, 1.704259e+003
5.092247e+002, 1.711242e+003
5.097068e+002, 1.717749e+003
5.101890e+002, 1.723678e+003
5.106711e+002, 1.728213e+003
5.111532e+002, 1.728280e+003
5.116353e+002, 1.724980e+003
5.121174e+002, 1.723612e+003
5.125995e+002, 1.728424e+003
5.130817e+002, 1.735842e+003
5.135638e+002, 1.742189e+003
5.140459e+002, 1.747320e+003
5.145280e+002, 1.750858e+003
5.150101e+002, 1.750867e+003
5.154922e+002, 1.750061e+003
5.159744e+002, 1.751120e+003
5.164565e+002, 1.755667e+003
5.169386e+002, 1.760049e+003
5.174207e+002, 1.762941e+003
5.179028e+002, 1.764959e+003
5.183849e+002, 1.767105e+003
5.188671e+002, 1.770398e+003
5.193492e+002, 1.772892e+003
5.198313e+002, 1.773804e+003
5.203134e+002, 1.773271e+003
5.207955e+002, 1.773371e+003
5.212776e+002, 1.773578e+003
5.217598e+002, 1.775176e+003
5.222419e+002, 1.779722e+003
5.227240e+002, 1.788487e+003
5.232061e+002, 1.792730e+003
5.236882e+002, 1.790786e+003
5.241703e+002, 1.787591e+003
5.246525e+002, 1.790653e+003
5.251346e+002, 1.799509e+003
5.256167e+002, 1.806423e+003
5.260988e+002, 1.808605e+003
5.265809e+002, 1.808436e+003
5.270630e+002, 1.810045e+003
5.275452e+002, 1.813203e+003
5.280273e+002, 1.816530e+003
5.285094e+002, 1.819748e+003
5.289915e+002, 1.822432e+003
5.294736e+002, 1.823541e+003
5.299557e+002, 1.822916e+003
5.304379e+002, 1.823318e+003
5.309200e+002, 1.826954e+003
5.314021e+002, 1.832151e+003
5.318842e+002, 1.837374e+003
5.323663e+002, 1.843346e+003
5.328484e+002, 1.847667e+003
5.333306e+002, 1.848129e+003
5.338127e+002, 1.846601e+003
5.342948e+002, 1.847046e+003
5.347769e+002, 1.851805e+003
5.352590e+002, 1.856245e+003
5.357411e+002, 1.859369e+003
5.362233e+002, 1.861210e+003
5.367054e+002, 1.862500e+003
5.371875e+002, 1.862597e+003
5.376696e+002, 1.863439e+003
5.381517e+002, 1.866909e+003
5.386339e+002, 1.873315e+003
5.391160e+002, 1.877994e+003
5.395981e+002, 1.880543e+003
5.400802e+002, 1.881760e+003
5.405623e+002, 1.881819e+003
5.410444e+002, 1.881158e+003
5.415266e+002, 1.882330e+003
5.420087e+002, 1.886625e+003
5.424908e+002, 1.892541e+003
5.429729e+002, 1.898953e+003
5.434550e+002, 1.905335e+003
5.439371e+002, 1.909841e+003
5.444193e+002, 1.910111e+003
5.449014e+002, 1.908947e+003
5.453835e+002, 1.907850e+003
5.458656e+002, 1.906827e+003
5.463477e+002, 1.908506e+003
5.468298e+002, 1.917132e+003
5.473120e+002, 1.927168e+003
5.477941e+002, 1.933935e+003
5.482762e+002, 1.932682e+003
5.487583e+002, 1.933712e+003
5.492404e+002, 1.940131e+003
5.497225e+002, 1.948568e+003
5.502047e+002, 1.953106e+003
5.506868e+002, 1.951644e+003
5.511689e+002, 1.950256e+003
5.516510e+002, 1.950104e+003
5.521331e+002, 1.951237e+003
5.526152e+002, 1.954561e+003
5.530974e+002, 1.960633e+003
5.535795e+002, 1.966255e+003
5.540616e+002, 1.969007e+003
5.545437e+002, 1.969386e+003
5.550258e+002, 1.969925e+003
5.555079e+002, 1.970707e+003
5.559901e+002, 1.972236e+003
5.564722e+002, 1.975180e+003
5.569543e+002, 1.979273e+003
5.574364e+002, 1.984040e+003
5.579185e+002, 1.989828e+003
5.584006e+002, 1.995460e+003
5.588828e+002, 2.000453e+003
5.593649e+002, 2.004565e+003
5.598470e+002, 2.007389e+003
5.603291e+002, 2.006025e+003
5.608112e+002, 2.005717e+003
5.612933e+002, 2.009466e+003
5.617755e+002, 2.017382e+003
5.622576e+002, 2.024431e+003
5.627397e+002, 2.029953e+003
5.632218e+002, 2.034255e+003
5.637039e+002, 2.037350e+003
5.641860e+002, 2.038609e+003
5.646682e+002, 2.040401e+003
5.651503e+002, 2.043140e+003
5.656324e+002, 2.045977e+003
5.661145e+002, 2.047526e+003
5.665966e+002, 2.047613e+003
5.670787e+002, 2.048522e+003
5.675609e+002, 2.050826e+003
5.680430e+002, 2.054215e+003
5.685251e+002, 2.058284e+003
5.690072e+002, 2.062977e+003
5.694893e+002, 2.067390e+003
5.699714e+002, 2.071311e+003
5.704536e+002, 2.074581e+003
5.709357e+002, 2.076477e+003
5.714178e+002, 2.077106e+003
5.718999e+002, 2.078377e+003
5.723820e+002, 2.082371e+003
5.728641e+002, 2.087038e+003
5.733463e+002, 2.090169e+003
5.738284e+002, 2.090236e+003
5.743105e+002, 2.091904e+003
5.747926e+002, 2.097973e+003
5.752747e+002, 2.105876e+003
5.757568e+002, 2.112369e+003
5.762390e+002, 2.117125e+003
5.767211e+002, 2.120539e+003
5.772032e+002, 2.121818e+003
5.776853e+002, 2.121859e+003
5.781674e+002, 2.123827e+003
5.786495e+002, 2.128246e+003
5.791317e+002, 2.133142e+003
5.796138e+002, 2.138284e+003
5.800959e+002, 2.143405e+003
5.805780e+002, 2.145308e+003
5.810601e+002, 2.143665e+003
5.815422e+002, 2.142739e+003
5.820244e+002, 2.147742e+003
5.825065e+002, 2.156128e+003
5.829886e+002, 2.161065e+003
5.834707e+002, 2.161257e+003
5.839528e+002, 2.160587e+003
5.844349e+002, 2.161067e+003
5.849171e+002, 2.163312e+003
5.853992e+002, 2.168301e+003
5.858813e+002, 2.181046e+003
5.863634e+002, 2.191536e+003
5.868455e+002, 2.193553e+003
5.873276e+002, 2.189941e+003
5.878098e+002, 2.188385e+003
5.882919e+002, 2.190551e+003
5.887740e+002, 2.194823e+003
5.892561e+002, 2.201795e+003
5.897382e+002, 2.211559e+003
5.902203e+002, 2.217704e+003
5.907025e+002, 2.218984e+003
5.911846e+002, 2.218769e+003
5.916667e+002, 2.218658e+003
5.921488e+002, 2.218540e+003
5.926309e+002, 2.220841e+003
5.931130e+002, 2.226179e+003
5.935952e+002, 2.232048e+003
5.940773e+002, 2.235286e+003
5.945594e+002, 2.236458e+003
5.950415e+002, 2.237640e+003
5.955236e+002, 2.239470e+003
5.960057e+002, 2.241409e+003
5.964879e+002, 2.241810e+003
5.969700e+002, 2.241815e+003
5.974521e+002, 2.244110e+003
5.979342e+002, 2.252530e+003
5.984163e+002, 2.261309e+003
5.988984e+002, 2.267542e+003
5.993806e+002, 2.271277e+003
5.998627e+002, 2.273632e+003
6.003448e+002, 2.272445e+003
6.008269e+002, 2.271979e+003
6.013090e+002, 2.274720e+003
6.017911e+002, 2.282138e+003
6.022733e+002, 2.286623e+003
6.027554e+002, 2.286366e+003
6.032375e+002, 2.285701e+003
6.037196e+002, 2.289081e+003
6.042017e+002, 2.297003e+003
6.046838e+002, 2.304315e+003
6.051660e+002, 2.310607e+003
6.056481e+002, 2.315792e+003
6.061302e+002, 2.319157e+003
6.066123e+002, 2.321066e+003
6.070944e+002, 2.323146e+003
6.075765e+002, 2.325906e+003
6.080587e+002, 2.329241e+003
6.085408e+002, 2.333269e+003
6.090229e+002, 2.337817e+003
6.095050e+002, 2.342444e+003
6.099871e+002, 2.346700e+003
6.104692e+002, 2.351060e+003
6.109514e+002, 2.355882e+003
6.114335e+002, 2.361246e+003
6.119156e+002, 2.366388e+003
6.123977e+002, 2.371047e+003
6.128798e+002, 2.375502e+003
6.133619e+002, 2.379910e+003
6.138441e+002, 2.384625e+003
6.143262e+002, 2.388708e+003
6.148083e+002, 2.392572e+003
6.152904e+002, 2.395338e+003
6.157725e+002, 2.394526e+003
6.162546e+002, 2.389718e+003
6.167368e+002, 2.389363e+003
6.172189e+002, 2.396172e+003
6.177010e+002, 2.406399e+003
6.181831e+002, 2.413721e+003
6.186652e+002, 2.418569e+003
6.191473e+002, 2.422656e+003
6.196295e+002, 2.427091e+003
6.201116e+002, 2.430917e+003
6.205937e+002, 2.432901e+003
6.210758e+002, 2.433285e+003
6.215579e+002, 2.433323e+003
6.220400e+002, 2.430630e+003
6.225222e+002, 2.430132e+003
6.230043e+002, 2.435903e+003
6.234864e+002, 2.449890e+003
6.239685e+002, 2.460878e+003
6.244506e+002, 2.466806e+003
6.249327e+002, 2.470222e+003
6.254149e+002, 2.472282e+003
6.258970e+002, 2.471711e+003
6.263791e+002, 2.473895e+003
6.268612e+002, 2.480003e+003
6.273433e+002, 2.487223e+003
6.278254e+002, 2.491051e+003
6.283076e+002, 2.491691e+003
6.287897e+002, 2.493943e+003
6.292718e+002, 2.499930e+003
6.297539e+002, 2.506597e+003
6.302360e+002, 2.507585e+003
6.307181e+002, 2.504841e+003
6.312003e+002, 2.504515e+003
6.316824e+002, 2.512865e+003
6.321645e+002, 2.522374e+003
6.326466e+002, 2.526214e+003
6.331287e+002, 2.525352e+003
6.336108e+002, 2.526458e+003
6.340930e+002, 2.533168e+003
6.345751e+002, 2.541337e+003
6.350572e+002, 2.549489e+003
6.355393e+002, 2.558154e+003
6.360214e+002, 2.563502e+003
6.365035e+002, 2.563530e+003
6.369857e+002, 2.562668e+003
6.374678e+002, 2.564393e+003
6.379499e+002, 2.569098e+003
6.384320e+002, 2.573387e+003
6.389141e+002, 2.576945e+003
6.393962e+002, 2.580219e+003
6.398784e+002, 2.582963e+003
6.403605e+002, 2.585690e+003
6.408426e+002, 2.591327e+003
6.413247e+002, 2.602573e+003
6.418068e+002, 2.613494e+003
6.422889e+002, 2.616239e+003
6.427711e+002, 2.613785e+003
6.432532e+002, 2.612955e+003
6.437353e+002, 2.616990e+003
6.442174e+002, 2.623132e+003
6.446995e+002, 2.631565e+003
6.451816e+002, 2.641602e+003
6.456638e+002, 2.649226e+003
6.461459e+002, 2.650882e+003
6.466280e+002, 2.653042e+003
6.471101e+002, 2.658306e+003
6.475922e+002, 2.666884e+003
6.480743e+002, 2.673762e+003
6.485565e+002, 2.678592e+003
6.490386e+002, 2.682396e+003
6.495207e+002, 2.685170e+003
6.500028e+002, 2.687160e+003
6.504849e+002, 2.691046e+003
6.509670e+002, 2.697132e+003
6.514492e+002, 2.703912e+003
6.519313e+002, 2.709756e+003
6.524134e+002, 2.715106e+003
6.528955e+002, 2.720679e+003
6.533776e+002, 2.726742e+003
6.538597e+002, 2.733133e+003
6.543419e+002, 2.740192e+003
6.548240e+002, 2.747472e+003
6.553061e+002, 2.754163e+003
6.557882e+002, 2.760332e+003
6.562703e+002, 2.765656e+003
6.567524e+002, 2.769015e+003
6.572346e+002, 2.771543e+003
6.577167e+002, 2.776855e+003
6.581988e+002, 2.786418e+003
6.586809e+002, 2.795497e+003
6.591630e+002, 2.802241e+003
6.596451e+002, 2.807145e+003
6.601273e+002, 2.812640e+003
6.606094e+002, 2.818721e+003
6.610915e+002, 2.826553e+003
6.615736e+002, 2.838375e+003
6.620557e+002, 2.852119e+003
6.625378e+002, 2.863825e+003
6.630200e+002, 2.873262e+003
6.635021e+002, 2.881476e+003
6.639842e+002, 2.886622e+003
6.644663e+002, 2.892354e+003
6.649484e+002, 2.902472e+003
6.654305e+002, 2.919238e+003
6.659127e+002, 2.935776e+003
6.663948e+002, 2.949708e+003
6.668769e+002, 2.963069e+003
6.673590e+002, 2.977833e+003
6.678411e+002, 2.993302e+003
6.683232e+002, 3.011792e+003
6.688054e+002, 3.034577e+003
6.692875e+002, 3.059015e+003
6.697696e+002, 3.079352e+003
6.702517e+002, 3.095449e+003
6.707338e+002, 3.114400e+003
6.712159e+002, 3.138310e+003
6.716981e+002, 3.165769e+003
6.721802e+002, 3.195859e+003
6.726623e+002, 3.227492e+003
6.731444e+002, 3.257914e+003
6.736265e+002, 3.287173e+003
6.741086e+002, 3.313019e+003
6.745908e+002, 3.334545e+003
6.750729e+002, 3.351301e+003
6.755550e+002, 3.361979e+003
6.760371e+002, 3.366028e+003
6.765192e+002, 3.363921e+003
6.770013e+002, 3.354925e+003
6.774835e+002, 3.338556e+003
6.779656e+002, 3.321877e+003
6.784477e+002, 3.305406e+003
6.789298e+002, 3.287439e+003
6.794119e+002, 3.265807e+003
6.798940e+002, 3.240185e+003
6.803762e+002, 3.218788e+003
6.808583e+002, 3.201895e+003
6.813404e+002, 3.187051e+003
6.818225e+002, 3.170486e+003
6.823046e+002, 3.154101e+003
6.827867e+002, 3.141957e+003
6.832689e+002, 3.135880e+003
6.837510e+002, 3.131102e+003
6.842331e+002, 3.123540e+003
6.847152e+002, 3.115610e+003
6.851973e+002, 3.110573e+003
6.856794e+002, 3.111274e+003
6.861616e+002, 3.112536e+003
6.866437e+002, 3.113738e+003
6.871258e+002, 3.114891e+003
6.876079e+002, 3.115879e+003
6.880900e+002, 3.116327e+003
6.885721e+002, 3.117741e+003
6.890543e+002, 3.121249e+003
6.895364e+002, 3.125403e+003
6.900185e+002, 3.124497e+003
6.905006e+002, 3.118768e+003
6.909827e+002, 3.115561e+003
6.914648e+002, 3.120979e+003
6.919470e+002, 3.129925e+003
6.924291e+002, 3.134584e+003
6.929112e+002, 3.135519e+003
6.933933e+002, 3.135879e+003
6.938754e+002, 3.135805e+003
6.943575e+002, 3.137053e+003
6.948397e+002, 3.141816e+003
6.953218e+002, 3.150698e+003
6.958039e+002, 3.157003e+003
6.962860e+002, 3.156612e+003
6.967681e+002, 3.156670e+003
6.972502e+002, 3.161469e+003
6.977324e+002, 3.172722e+003
6.982145e+002, 3.180095e+003
6.986966e+002, 3.182956e+003
6.991787e+002, 3.183780e+003
6.996608e+002, 3.183505e+003
7.001429e+002, 3.182899e+003
7.006251e+002, 3.186346e+003
7.011072e+002, 3.194884e+003
7.015893e+002, 3.204660e+003
7.020714e+002, 3.212456e+003
7.025535e+002, 3.218807e+003
7.030356e+002, 3.224462e+003
7.035178e+002, 3.229171e+003
7.039999e+002, 3.233831e+003
7.044820e+002, 3.238193e+003
7.049641e+002, 3.242828e+003
7.054462e+002, 3.248843e+003
7.059283e+002, 3.258275e+003
7.064105e+002, 3.265797e+003
7.068926e+002, 3.270088e+003
7.073747e+002, 3.272511e+003
7.078568e+002, 3.276113e+003
7.083389e+002, 3.280932e+003
7.088210e+002, 3.287107e+003
7.093032e+002, 3.296121e+003
7.097853e+002, 3.305205e+003
7.102674e+002, 3.306332e+003
7.107495e+002, 3.301696e+003
7.112316e+002, 3.300447e+003
7.117137e+002, 3.311601e+003
7.121959e+002, 3.324657e+003
7.126780e+002, 3.330668e+003
7.131601e+002, 3.330727e+003
7.136422e+002, 3.333984e+003
7.141243e+002, 3.347127e+003
7.146064e+002, 3.360036e+003
7.150886e+002, 3.368254e+003
7.155707e+002, 3.371675e+003
7.160528e+002, 3.376431e+003
7.165349e+002, 3.383012e+003
7.170170e+002, 3.389818e+003
7.174991e+002, 3.395887e+003
7.179813e+002, 3.401282e+003
7.184634e+002, 3.406878e+003
7.189455e+002, 3.412686e+003
7.194276e+002, 3.418527e+003
7.199097e+002, 3.423973e+003
7.203918e+002, 3.429491e+003
7.208740e+002, 3.435791e+003
7.213561e+002, 3.443213e+003
7.218382e+002, 3.450201e+003
7.223203e+002, 3.456199e+003
7.228024e+002, 3.461356e+003
7.232845e+002, 3.465808e+003
7.237667e+002, 3.468784e+003
7.242488e+002, 3.472409e+003
7.247309e+002, 3.476568e+003
7.252130e+002, 3.481499e+003
7.256951e+002, 3.487911e+003
7.261772e+002, 3.495942e+003
7.266594e+002, 3.502883e+003
7.271415e+002, 3.508000e+003
7.276236e+002, 3.512531e+003
7.281057e+002, 3.518426e+003
7.285878e+002, 3.525133e+003
7.290699e+002, 3.531302e+003
7.295521e+002, 3.536641e+003
7.300342e+002, 3.541111e+003
7.305163e+002, 3.542448e+003
7.309984e+002, 3.543320e+003
7.314805e+002, 3.548477e+003
7.319626e+002, 3.566585e+003
7.324448e+002, 3.579923e+003
7.329269e+002, 3.583065e+003
7.334090e+002, 3.579991e+003
7.338911e+002, 3.581794e+003
7.343732e+002, 3.589769e+003
7.348553e+002, 3.597185e+003
7.353375e+002, 3.601591e+003
7.358196e+002, 3.604329e+003
7.363017e+002, 3.608103e+003
7.367838e+002, 3.613101e+003
7.372659e+002, 3.620458e+003
7.377480e+002, 3.633945e+003
7.382302e+002, 3.647712e+003
7.387123e+002, 3.655732e+003
7.391944e+002, 3.658941e+003
7.396765e+002, 3.662365e+003
7.401586e+002, 3.668173e+003
7.406407e+002, 3.674257e+003
7.411229e+002, 3.679312e+003
7.416050e+002, 3.683455e+003
7.420871e+002, 3.689464e+003
7.425692e+002, 3.698672e+003
7.430513e+002, 3.706676e+003
7.435334e+002, 3.709647e+003
7.440156e+002, 3.708743e+003
7.444977e+002, 3.714583e+003
7.449798e+002, 3.727183e+003
7.454619e+002, 3.739958e+003
7.459440e+002, 3.746667e+003
7.464261e+002, 3.751049e+003
7.469083e+002, 3.757912e+003
7.473904e+002, 3.767698e+003
7.478725e+002, 3.777927e+003
7.483546e+002, 3.788105e+003
7.488367e+002, 3.797655e+003
7.493188e+002, 3.806431e+003
7.498010e+002, 3.814767e+003
7.502831e+002, 3.819978e+003
7.507652e+002, 3.820510e+003
7.512473e+002, 3.820215e+003
7.517294e+002, 3.822431e+003
7.522115e+002, 3.827096e+003
7.526937e+002, 3.830420e+003
7.531758e+002, 3.831958e+003
7.536579e+002, 3.833966e+003
7.541400e+002, 3.839029e+003
7.546221e+002, 3.846085e+003
7.551042e+002, 3.853981e+003
7.555864e+002, 3.863090e+003
7.560685e+002, 3.870479e+003
7.565506e+002, 3.872648e+003
7.570327e+002, 3.873320e+003
7.575148e+002, 3.876167e+003
7.579969e+002, 3.884110e+003
7.584791e+002, 3.890507e+003
7.589612e+002, 3.894560e+003
7.594433e+002, 3.897911e+003
7.599254e+002, 3.902191e+003
7.604075e+002, 3.907382e+003
7.608896e+002, 3.914464e+003
7.613718e+002, 3.924260e+003
7.618539e+002, 3.933648e+003
7.623360e+002, 3.936928e+003
7.628181e+002, 3.936892e+003
7.633002e+002, 3.939803e+003
7.637823e+002, 3.950115e+003
7.642645e+002, 3.959078e+003
7.647466e+002, 3.958803e+003
7.652287e+002, 3.955067e+003
7.657108e+002, 3.956669e+003
7.661929e+002, 3.970435e+003
7.666750e+002, 3.982039e+003
7.671572e+002, 3.989958e+003
7.676393e+002, 3.995404e+003
7.681214e+002, 4.000042e+003
7.686035e+002, 4.003715e+003
7.690856e+002, 4.009401e+003
7.695677e+002, 4.018667e+003
7.700499e+002, 4.028784e+003
7.705320e+002, 4.035001e+003
7.710141e+002, 4.038600e+003
7.714962e+002, 4.042917e+003
7.719783e+002, 4.050500e+003
7.724604e+002, 4.057944e+003
7.729426e+002, 4.062561e+003
7.734247e+002, 4.065726e+003
7.739068e+002, 4.070707e+003
7.743889e+002, 4.080759e+003
7.748710e+002, 4.088406e+003
7.753531e+002, 4.091458e+003
7.758353e+002, 4.091726e+003
7.763174e+002, 4.094297e+003
7.767995e+002, 4.099240e+003
7.772816e+002, 4.105310e+003
7.777637e+002, 4.112493e+003
7.782458e+002, 4.120127e+003
7.787280e+002, 4.127244e+003
7.792101e+002, 4.133928e+003
7.796922e+002, 4.140252e+003
7.801743e+002, 4.145430e+003
7.806564e+002, 4.151172e+003
7.811385e+002, 4.159207e+003
7.816207e+002, 4.168824e+003
7.821028e+002, 4.176582e+003
7.825849e+002, 4.180891e+003
7.830670e+002, 4.185602e+003
7.835491e+002, 4.191756e+003
7.840313e+002, 4.199000e+003
7.845134e+002, 4.206163e+003
7.849955e+002, 4.213261e+003
7.854776e+002, 4.220208e+003
7.859597e+002, 4.227047e+003
7.864418e+002, 4.233708e+003
7.869240e+002, 4.239000e+003
7.874061e+002, 4.243713e+003
7.878882e+002, 4.250802e+003
7.883703e+002, 4.265940e+003
7.888524e+002, 4.279646e+003
7.893345e+002, 4.286455e+003
7.898167e+002, 4.287028e+003
7.902988e+002, 4.287660e+003
7.907809e+002, 4.287292e+003
7.912630e+002, 4.289423e+003
7.917451e+002, 4.296073e+003
7.922272e+002, 4.306039e+003
7.927094e+002, 4.315090e+003
7.931915e+002, 4.323129e+003
7.936736e+002, 4.329070e+003
7.941557e+002, 4.330200e+003
7.946378e+002, 4.330090e+003
7.951199e+002, 4.333219e+003
7.956021e+002, 4.339137e+003
7.960842e+002, 4.345878e+003
7.965663e+002, 4.352028e+003
7.970484e+002, 4.359271e+003
7.975305e+002, 4.368906e+003
7.980126e+002, 4.380533e+003
7.984948e+002, 4.391693e+003
7.989769e+002, 4.403398e+003
7.994590e+002, 4.411714e+003
7.999411e+002, 4.412835e+003
8.004232e+002, 4.409793e+003
8.009053e+002, 4.415923e+003
8.013875e+002, 4.430275e+003
8.018696e+002, 4.443222e+003
8.023517e+002, 4.446695e+003
8.028338e+002, 4.447768e+003
8.033159e+002, 4.453242e+003
8.037980e+002, 4.462708e+003
8.042802e+002, 4.472610e+003
8.047623e+002, 4.483193e+003
8.052444e+002, 4.492411e+003
8.057265e+002, 4.498455e+003
8.062086e+002, 4.501943e+003
8.066907e+002, 4.509088e+003
8.071729e+002, 4.520678e+003
8.076550e+002, 4.532462e+003
8.081371e+002, 4.543406e+003
8.086192e+002, 4.552740e+003
8.091013e+002, 4.557719e+003
8.095834e+002, 4.558900e+003
8.100656e+002, 4.559424e+003
8.105477e+002, 4.558709e+003
8.110298e+002, 4.560160e+003
8.115119e+002, 4.567618e+003
8.119940e+002, 4.580269e+003
8.124761e+002, 4.591067e+003
8.129583e+002, 4.597830e+003
8.134404e+002, 4.604246e+003
8.139225e+002, 4.611817e+003
8.144046e+002, 4.620033e+003
8.148867e+002, 4.625174e+003
8.153688e+002, 4.626979e+003
8.158510e+002, 4.630302e+003
8.163331e+002, 4.637857e+003
8.168152e+002, 4.648332e+003
8.172973e+002, 4.660831e+003
8.177794e+002, 4.674542e+003
8.182615e+002, 4.686212e+003
8.187437e+002, 4.693138e+003
8.192258e+002, 4.698402e+003
8.197079e+002, 4.702144e+003
8.201900e+002, 4.705023e+003
8.206721e+002, 4.711228e+003
8.211542e+002, 4.722911e+003
8.216364e+002, 4.732985e+003
8.221185e+002, 4.738167e+003
8.226006e+002, 4.740500e+003
8.230827e+002, 4.748315e+003
8.235648e+002, 4.760772e+003
8.240469e+002, 4.771292e+003
8.245291e+002, 4.774759e+003
8.250112e+002, 4.776128e+003
8.254933e+002, 4.780158e+003
8.259754e+002, 4.786171e+003
8.264575e+002, 4.791896e+003
8.269396e+002, 4.797441e+003
8.274218e+002, 4.801608e+003
8.279039e+002, 4.802506e+003
8.283860e+002, 4.802047e+003
8.288681e+002, 4.807411e+003
8.293502e+002, 4.819833e+003
8.298323e+002, 4.830929e+003
8.303145e+002, 4.837280e+003
8.307966e+002, 4.841375e+003
8.312787e+002, 4.849026e+003
8.317608e+002, 4.858632e+003
8.322429e+002, 4.865037e+003
8.327250e+002, 4.860778e+003
8.332072e+002, 4.857884e+003
8.336893e+002, 4.864524e+003
8.341714e+002, 4.877368e+003
8.346535e+002, 4.887372e+003
8.351356e+002, 4.891500e+003
8.356177e+002, 4.897376e+003
8.360999e+002, 4.907099e+003
8.365820e+002, 4.918740e+003
8.370641e+002, 4.927322e+003
8.375462e+002, 4.933256e+003
8.380283e+002, 4.941487e+003
8.385104e+002, 4.954792e+003
8.389926e+002, 4.968799e+003
8.394747e+002, 4.978388e+003
8.399568e+002, 4.985242e+003
8.404389e+002, 4.992449e+003
8.409210e+002, 5.000193e+003
8.414031e+002, 5.009335e+003
8.418853e+002, 5.022096e+003
8.423674e+002, 5.035191e+003
8.428495e+002, 5.043235e+003
8.433316e+002, 5.044795e+003
8.438137e+002, 5.048428e+003
8.442958e+002, 5.055916e+003
8.447780e+002, 5.064756e+003
8.452601e+002, 5.070706e+003
8.457422e+002, 5.075123e+003
8.462243e+002, 5.081992e+003
8.467064e+002, 5.094200e+003
8.471885e+002, 5.104398e+003
8.476707e+002, 5.105401e+003
8.481528e+002, 5.103474e+003
8.486349e+002, 5.106165e+003
8.491170e+002, 5.117849e+003
8.495991e+002, 5.127436e+003
8.500812e+002, 5.134209e+003
8.505634e+002, 5.139938e+003
8.510455e+002, 5.147091e+003
8.515276e+002, 5.155366e+003
8.520097e+002, 5.161144e+003
8.524918e+002, 5.163418e+003
8.529739e+002, 5.167646e+003
8.534561e+002, 5.181456e+003
8.539382e+002, 5.198615e+003
8.544203e+002, 5.212267e+003
8.549024e+002, 5.220836e+003
8.553845e+002, 5.226850e+003
8.558666e+002, 5.225959e+003
8.563488e+002, 5.227064e+003
8.568309e+002, 5.237289e+003
8.573130e+002, 5.258554e+003
8.577951e+002, 5.273654e+003
8.582772e+002, 5.281850e+003
8.587593e+002, 5.287136e+003
8.592415e+002, 5.291047e+003
8.597236e+002, 5.295029e+003
8.602057e+002, 5.301925e+003
8.606878e+002, 5.311935e+003
8.611699e+002, 5.322710e+003
8.616520e+002, 5.335040e+003
8.621342e+002, 5.346302e+003
8.626163e+002, 5.354459e+003
8.630984e+002, 5.359417e+003
8.635805e+002, 5.365800e+003
8.640626e+002, 5.374500e+003
8.645447e+002, 5.382222e+003
8.650269e+002, 5.385952e+003
8.655090e+002, 5.387518e+003
8.659911e+002, 5.394076e+003
8.664732e+002, 5.404846e+003
8.669553e+002, 5.414286e+003
8.674374e+002, 5.417117e+003
8.679196e+002, 5.418935e+003
8.684017e+002, 5.422471e+003
8.688838e+002, 5.428008e+003
8.693659e+002, 5.437147e+003
8.698480e+002, 5.452414e+003
8.703301e+002, 5.466659e+003
8.708123e+002, 5.477827e+003
8.712944e+002, 5.486455e+003
8.717765e+002, 5.494935e+003
8.722586e+002, 5.502978e+003
8.727407e+002, 5.509009e+003
8.732228e+002, 5.509615e+003
8.737050e+002, 5.510802e+003
8.741871e+002, 5.520561e+003
8.746692e+002, 5.535471e+003
8.751513e+002, 5.548247e+003
8.756334e+002, 5.554531e+003
8.761155e+002, 5.561112e+003
8.765977e+002, 5.570019e+003
8.770798e+002, 5.579635e+003
8.775619e+002, 5.586909e+003
8.780440e+002, 5.591761e+003
8.785261e+002, 5.595187e+003
8.790082e+002, 5.596077e+003
8.794904e+002, 5.599563e+003
8.799725e+002, 5.617796e+003
8.804546e+002, 5.642019e+003
8.809367e+002, 5.655937e+003
8.814188e+002, 5.649571e+003
8.819009e+002, 5.644654e+003
8.823831e+002, 5.649311e+003
8.828652e+002, 5.658801e+003
8.833473e+002, 5.668649e+003
8.838294e+002, 5.680028e+003
8.843115e+002, 5.686691e+003
8.847936e+002, 5.687051e+003
8.852758e+002, 5.688061e+003
8.857579e+002, 5.698008e+003
8.862400e+002, 5.713826e+003
8.867221e+002, 5.728642e+003
8.872042e+002, 5.741543e+003
8.876863e+002, 5.754636e+003
8.881685e+002, 5.772234e+003
8.886506e+002, 5.788200e+003
8.891327e+002, 5.796701e+003
8.896148e+002, 5.796102e+003
8.900969e+002, 5.799806e+003
8.905790e+002, 5.808645e+003
8.910612e+002, 5.819420e+003
8.915433e+002, 5.830639e+003
8.920254e+002, 5.842092e+003
8.925075e+002, 5.853243e+003
8.929896e+002, 5.864017e+003
8.934717e+002, 5.873970e+003
8.939539e+002, 5.883252e+003
8.944360e+002, 5.891380e+003
8.949181e+002, 5.897606e+003
8.954002e+002, 5.902300e+003
8.958823e+002, 5.907141e+003
8.963644e+002, 5.910839e+003
8.968466e+002, 5.918054e+003
8.973287e+002, 5.932037e+003
8.978108e+002, 5.948961e+003
8.982929e+002, 5.956896e+003
8.987750e+002, 5.957616e+003
8.992571e+002, 5.962713e+003
8.997393e+002, 5.980086e+003
9.002214e+002, 5.998244e+003
9.007035e+002, 6.005604e+003
9.011856e+002, 6.007462e+003
9.016677e+002, 6.012557e+003
9.021498e+002, 6.026961e+003
9.026320e+002, 6.038804e+003
9.031141e+002, 6.046585e+003
9.035962e+002, 6.052350e+003
9.040783e+002, 6.058223e+003
9.045604e+002, 6.064280e+003
9.050425e+002, 6.071741e+003
9.055247e+002, 6.081034e+003
9.060068e+002, 6.090155e+003
9.064889e+002, 6.097032e+003
9.069710e+002, 6.102836e+003
9.074531e+002, 6.108416e+003
9.079352e+002, 6.113276e+003
9.084174e+002, 6.121186e+003
9.088995e+002, 6.135901e+003
9.093816e+002, 6.150046e+003
9.098637e+002, 6.157898e+003
9.103458e+002, 6.159589e+003
9.108279e+002, 6.166931e+003
9.113101e+002, 6.180003e+003
9.117922e+002, 6.193444e+003
9.122743e+002, 6.202715e+003
9.127564e+002, 6.210646e+003
9.132385e+002, 6.220931e+003
9.137206e+002, 6.233142e+003
9.142028e+002, 6.243453e+003
9.146849e+002, 6.248747e+003
9.151670e+002, 6.254185e+003
9.156491e+002, 6.261345e+003
9.161312e+002, 6.269860e+003
9.166133e+002, 6.278085e+003
9.170955e+002, 6.286099e+003
9.175776e+002, 6.294963e+003
9.180597e+002, 6.305108e+003
9.185418e+002, 6.316504e+003
9.190239e+002, 6.331125e+003
9.195060e+002, 6.346687e+003
9.199882e+002, 6.358530e+003
9.204703e+002, 6.358958e+003
9.209524e+002, 6.363884e+003
9.214345e+002, 6.378544e+003
9.219166e+002, 6.396361e+003
9.223987e+002, 6.408680e+003
9.228809e+002, 6.414976e+003
9.233630e+002, 6.424227e+003
9.238451e+002, 6.438080e+003
9.243272e+002, 6.451122e+003
9.248093e+002, 6.455211e+003
9.252914e+002, 6.456021e+003
9.257736e+002, 6.461223e+003
9.262557e+002, 6.472635e+003
9.267378e+002, 6.484589e+003
9.272199e+002, 6.497075e+003
9.277020e+002, 6.508136e+003
9.281841e+002, 6.516326e+003
9.286663e+002, 6.521672e+003
9.291484e+002, 6.528200e+003
9.296305e+002, 6.535992e+003
9.301126e+002, 6.544859e+003
9.305947e+002, 6.554694e+003
9.310768e+002, 6.565644e+003
9.315590e+002, 6.577530e+003
9.320411e+002, 6.590623e+003
9.325232e+002, 6.605287e+003
9.330053e+002, 6.627773e+003
9.334874e+002, 6.644431e+003
9.339695e+002, 6.650515e+003
9.344517e+002, 6.649587e+003
9.349338e+002, 6.649029e+003
9.354159e+002, 6.648781e+003
9.358980e+002, 6.653857e+003
9.363801e+002, 6.666711e+003
9.368622e+002, 6.682391e+003
9.373444e+002, 6.697326e+003
9.378265e+002, 6.710211e+003
9.383086e+002, 6.718903e+003
9.387907e+002, 6.719771e+003
9.392728e+002, 6.722244e+003
9.397549e+002, 6.728103e+003
9.402371e+002, 6.735657e+003
9.407192e+002, 6.744083e+003
9.412013e+002, 6.753347e+003
9.416834e+002, 6.760762e+003
9.421655e+002, 6.765940e+003
9.426476e+002, 6.773597e+003
9.431298e+002, 6.790675e+003
9.436119e+002, 6.810212e+003
9.440940e+002, 6.825135e+003
9.445761e+002, 6.835116e+003
9.450582e+002, 6.842984e+003
9.455403e+002, 6.847712e+003
9.460225e+002, 6.852450e+003
9.465046e+002, 6.857743e+003
9.469867e+002, 6.863917e+003
9.474688e+002, 6.872835e+003
9.479509e+002, 6.884278e+003
9.484330e+002, 6.896359e+003
9.489152e+002, 6.909064e+003
9.493973e+002, 6.920955e+003
9.498794e+002, 6.928958e+003
9.503615e+002, 6.935533e+003
9.508436e+002, 6.945091e+003
9.513257e+002, 6.963014e+003
9.518079e+002, 6.977565e+003
9.522900e+002, 6.987039e+003
9.527721e+002, 6.994465e+003
9.532542e+002, 7.003958e+003
9.537363e+002, 7.015002e+003
9.542184e+002, 7.022837e+003
9.547006e+002, 7.026664e+003
9.551827e+002, 7.031298e+003
9.556648e+002, 7.040874e+003
9.561469e+002, 7.053046e+003
9.566290e+002, 7.066838e+003
9.571111e+002, 7.082778e+003
9.575933e+002, 7.093617e+003
9.580754e+002, 7.095928e+003
9.585575e+002, 7.099907e+003
9.590396e+002, 7.112174e+003
9.595217e+002, 7.129092e+003
9.600038e+002, 7.135352e+003
9.604860e+002, 7.133543e+003
9.609681e+002, 7.137159e+003
9.614502e+002, 7.158528e+003
9.619323e+002, 7.182103e+003
9.624144e+002, 7.197900e+003
9.628965e+002, 7.209330e+003
9.633787e+002, 7.224078e+003
9.638608e+002, 7.245087e+003
9.643429e+002, 7.262418e+003
9.648250e+002, 7.274381e+003
9.653071e+002, 7.283772e+003
9.657892e+002, 7.293683e+003
9.662714e+002, 7.304002e+003
9.667535e+002, 7.314677e+003
9.672356e+002, 7.325631e+003
9.677177e+002, 7.336764e+003
9.681998e+002, 7.346989e+003
9.686819e+002, 7.358115e+003
9.691641e+002, 7.372165e+003
9.696462e+002, 7.389747e+003
9.701283e+002, 7.402837e+003
9.706104e+002, 7.411171e+003
9.710925e+002, 7.417318e+003
9.715746e+002, 7.419733e+003
9.720568e+002, 7.422727e+003
9.725389e+002, 7.437673e+003
9.730210e+002, 7.460560e+003
9.735031e+002, 7.477745e+003
9.739852e+002, 7.476106e+003
9.744673e+002, 7.476898e+003
9.749495e+002, 7.488034e+003
9.754316e+002, 7.504262e+003
9.759137e+002, 7.516419e+003
9.763958e+002, 7.524245e+003
9.768779e+002, 7.532676e+003
9.773600e+002, 7.542136e+003
9.778422e+002, 7.554556e+003
9.783243e+002, 7.576731e+003
9.788064e+002, 7.601001e+003
9.792885e+002, 7.616679e+003
9.797706e+002, 7.620321e+003
9.802527e+002, 7.623893e+003
9.807349e+002, 7.627003e+003
9.812170e+002, 7.633639e+003
9.816991e+002, 7.647096e+003
9.821812e+002, 7.666162e+003
9.826633e+002, 7.681109e+003
9.831454e+002, 7.692222e+003
9.836276e+002, 7.703561e+003
9.841097e+002, 7.718485e+003
9.845918e+002, 7.733517e+003
9.850739e+002, 7.746346e+003
9.855560e+002, 7.757026e+003
9.860381e+002, 7.765331e+003
9.865203e+002, 7.768903e+003
9.870024e+002, 7.775846e+003
9.874845e+002, 7.788604e+003
9.879666e+002, 7.802440e+003
9.884487e+002, 7.808592e+003
9.889308e+002, 7.810299e+003
9.894130e+002, 7.817989e+003
9.898951e+002, 7.834261e+003
9.903772e+002, 7.850355e+003
9.908593e+002, 7.861417e+003
9.913414e+002, 7.870256e+003
9.918235e+002, 7.878639e+003
9.923057e+002, 7.886717e+003
9.927878e+002, 7.894539e+003
9.932699e+002, 7.901941e+003
9.937520e+002, 7.910341e+003
9.942341e+002, 7.919809e+003
9.947162e+002, 7.931260e+003
9.951984e+002, 7.948501e+003
9.956805e+002, 7.969043e+003
9.961626e+002, 7.985646e+003
9.966447e+002, 7.991123e+003
9.971268e+002, 7.998274e+003
9.976089e+002, 8.010518e+003
9.980911e+002, 8.025351e+003
9.985732e+002, 8.039489e+003
9.990553e+002, 8.052979e+003
9.995374e+002, 8.065838e+003
1.000020e+003, 8.077858e+003
1.000502e+003, 8.089021e+003
1.000984e+003, 8.098119e+003
1.001466e+003, 8.106837e+003
1.001948e+003, 8.116927e+003
1.002430e+003, 8.128595e+003
1.002912e+003, 8.140036e+003
1.003394e+003, 8.150122e+003
1.003876e+003, 8.161963e+003
1.004359e+003, 8.178282e+003
1.004841e+003, 8.196474e+003
1.005323e+003, 8.206972e+003
1.005805e+003, 8.211583e+003
1.006287e+003, 8.217031e+003
1.006769e+003, 8.226360e+003
1.007251e+003, 8.237467e+003
1.007733e+003, 8.249460e+003
1.008216e+003, 8.262554e+003
1.008698e+003, 8.276774e+003
1.009180e+003, 8.292654e+003
1.009662e+003, 8.308071e+003
1.010144e+003, 8.322890e+003
1.010626e+003, 8.337025e+003
1.011108e+003, 8.350860e+003
1.011590e+003, 8.363294e+003
1.012072e+003, 8.370571e+003
1.012555e+003, 8.373035e+003
1.013037e+003, 8.379963e+003
1.013519e+003, 8.400574e+003
1.014001e+003, 8.419012e+003
1.014483e+003, 8.429377e+003
1.014965e+003, 8.434261e+003
1.015447e+003, 8.441271e+003
1.015929e+003, 8.450603e+003
1.016411e+003, 8.465156e+003
1.016894e+003, 8.488988e+003
1.017376e+003, 8.510962e+003
1.017858e+003, 8.517102e+003
1.018340e+003, 8.517440e+003
1.018822e+003, 8.524861e+003
1.019304e+003, 8.545683e+003
1.019786e+003, 8.561629e+003
1.020268e+003, 8.571408e+003
1.020751e+003, 8.580030e+003
1.021233e+003, 8.591662e+003
1.021715e+003, 8.605137e+003
1.022197e+003, 8.616897e+003
1.022679e+003, 8.627221e+003
1.023161e+003, 8.637797e+003
1.023643e+003, 8.647213e+003
1.024125e+003, 8.659526e+003
1.024607e+003, 8.677724e+003
1.025090e+003, 8.699270e+003
1.025572e+003, 8.719862e+003
1.026054e+003, 8.739704e+003
1.026536e+003, 8.755376e+003
1.027018e+003, 8.765483e+003
1.027500e+003, 8.775391e+003
1.027982e+003, 8.792298e+003
1.028464e+003, 8.811387e+003
1.028947e+003, 8.826844e+003
1.029429e+003, 8.836851e+003
1.029911e+003, 8.847953e+003
1.030393e+003, 8.862275e+003
1.030875e+003, 8.875184e+003
1.031357e+003, 8.883978e+003
1.031839e+003, 8.889844e+003
1.032321e+003, 8.894840e+003
1.032803e+003, 8.899895e+003
1.033286e+003, 8.908848e+003
1.033768e+003, 8.927637e+003
1.034250e+003, 8.946073e+003
1.034732e+003, 8.958858e+003
1.035214e+003, 8.969112e+003
1.035696e+003, 8.981113e+003
1.036178e+003, 8.995146e+003
1.036660e+003, 9.009449e+003
1.037143e+003, 9.024113e+003
1.037625e+003, 9.037707e+003
1.038107e+003, 9.048974e+003
1.038589e+003, 9.058640e+003
1.039071e+003, 9.066256e+003
1.039553e+003, 9.072163e+003
1.040035e+003, 9.081446e+003
1.040517e+003, 9.097863e+003
1.041000e+003, 9.113559e+003
1.041482e+003, 9.125906e+003
1.041964e+003, 9.136465e+003
1.042446e+003, 9.148370e+003
1.042928e+003, 9.161501e+003
1.043410e+003, 9.175034e+003
1.043892e+003, 9.189543e+003
1.044374e+003, 9.202310e+003
1.044856e+003, 9.210301e+003
1.045339e+003, 9.216497e+003
1.045821e+003, 9.222610e+003
1.046303e+003, 9.227660e+003
1.046785e+003, 9.242655e+003
1.047267e+003, 9.268957e+003
1.047749e+003, 9.292955e+003
1.048231e+003, 9.302816e+003
1.048713e+003, 9.306652e+003
1.049195e+003, 9.312582e+003
1.049677e+003, 9.321026e+003
1.050160e+003, 9.332855e+003
1.050642e+003, 9.352185e+003
1.051124e+003, 9.369337e+003
1.051606e+003, 9.382803e+003
1.052088e+003, 9.394299e+003
1.052570e+003, 9.404506e+003
1.053052e+003, 9.414502e+003
1.053534e+003, 9.428837e+003
1.054017e+003, 9.448132e+003
1.054499e+003, 9.467757e+003
1.054981e+003, 9.485909e+003
1.055463e+003, 9.502537e+003
1.055945e+003, 9.517604e+003
1.056427e+003, 9.531199e+003
1.056909e+003, 9.542772e+003
1.057391e+003, 9.552438e+003
1.057874e+003, 9.559426e+003
1.058356e+003, 9.562079e+003
1.058838e+003, 9.565204e+003
1.059320e+003, 9.575402e+003
1.059802e+003, 9.589620e+003
1.060284e+003, 9.603923e+003
1.060766e+003, 9.618215e+003
1.061248e+003, 9.630185e+003
1.061730e+003, 9.636595e+003
1.062213e+003, 9.647015e+003
1.062695e+003, 9.672210e+003
1.063177e+003, 9.706573e+003
1.063659e+003, 9.730314e+003
1.064141e+003, 9.744692e+003
1.064623e+003, 9.755669e+003
1.065105e+003, 9.762781e+003
1.065587e+003, 9.770739e+003
1.066070e+003, 9.782269e+003
1.066552e+003, 9.795188e+003
1.067034e+003, 9.805915e+003
1.067516e+003, 9.814224e+003
1.067998e+003, 9.824197e+003
1.068480e+003, 9.836246e+003
1.068962e+003, 9.849460e+003
1.069444e+003, 9.862193e+003
1.069927e+003, 9.876368e+003
1.070409e+003, 9.896020e+003
1.070891e+003, 9.920901e+003
1.071373e+003, 9.939185e+003
1.071855e+003, 9.948907e+003
1.072337e+003, 9.956989e+003
1.072819e+003, 9.964967e+003
1.073301e+003, 9.973861e+003
1.073783e+003, 9.987486e+003
1.074266e+003, 1.000321e+004
1.074748e+003, 1.001508e+004
1.075230e+003, 1.001948e+004
1.075712e+003, 1.002560e+004
1.076194e+003, 1.003471e+004
1.076676e+003, 1.004762e+004
1.077158e+003, 1.006745e+004
1.077640e+003, 1.009271e+004
1.078122e+003, 1.010760e+004
1.078604e+003, 1.011316e+004
1.079087e+003, 1.011847e+004
1.079569e+003, 1.012649e+004
1.080051e+003, 1.013803e+004
1.080533e+003, 1.015535e+004
1.081015e+003, 1.017580e+004
1.081497e+003, 1.019502e+004
1.081979e+003, 1.021268e+004
1.082461e+003, 1.022894e+004
1.082944e+003, 1.024373e+004
1.083426e+003, 1.025711e+004
1.083908e+003, 1.026638e+004
1.084390e+003, 1.027586e+004
1.084872e+003, 1.029324e+004
1.085354e+003, 1.031780e+004
1.085836e+003, 1.033482e+004
1.086318e+003, 1.033605e+004
1.086801e+003, 1.034280e+004
1.087283e+003, 1.036229e+004
1.087765e+003, 1.038648e+004
1.088247e+003, 1.040090e+004
1.088729e+003, 1.040804e+004
1.089211e+003, 1.041263e+004
1.089693e+003, 1.041406e+004
1.090175e+003, 1.042169e+004
1.090657e+003, 1.044490e+004
1.091140e+003, 1.047024e+004
1.091622e+003, 1.049057e+004
1.092104e+003, 1.050643e+004
1.092586e+003, 1.052256e+004
1.093068e+003, 1.053883e+004
1.093550e+003, 1.055302e+004
1.094032e+003, 1.056296e+004
1.094514e+003, 1.057254e+004
1.094997e+003, 1.058380e+004
1.095479e+003, 1.059683e+004
1.095961e+003, 1.061238e+004
1.096443e+003, 1.063225e+004
1.096925e+003, 1.064786e+004
1.097407e+003, 1.065868e+004
1.097889e+003, 1.066894e+004
1.098371e+003, 1.067982e+004
1.098854e+003, 1.069333e+004
1.099336e+003, 1.071604e+004
1.099818e+003, 1.074431e+004
1.100300e+003, 1.076348e+004
1.100782e+003, 1.076144e+004
1.101264e+003, 1.076571e+004
1.101746e+003, 1.078105e+004
1.102228e+003, 1.080070e+004
1.102710e+003, 1.081594e+004
1.103193e+003, 1.082830e+004
1.103675e+003, 1.084226e+004
1.104157e+003, 1.085833e+004
1.104639e+003, 1.087331e+004
1.105121e+003, 1.088374e+004
1.105603e+003, 1.089561e+004
1.106085e+003, 1.091208e+004
1.106567e+003, 1.093133e+004
1.107049e+003, 1.094642e+004
1.107531e+003, 1.095826e+004
1.108014e+003, 1.097248e+004
1.108496e+003, 1.099101e+004
1.108978e+003, 1.101133e+004
1.109460e+003, 1.103383e+004
1.109942e+003, 1.105551e+004
1.110424e+003, 1.107271e+004
1.110906e+003, 1.108521e+004
1.111388e+003, 1.110103e+004
1.111871e+003, 1.112046e+004
1.112353e+003, 1.113811e+004
1.112835e+003, 1.114909e+004
1.113317e+003, 1.115983e+004
1.113799e+003, 1.118075e+004
1.114281e+003, 1.120506e+004
1.114763e+003, 1.122116e+004
1.115245e+003, 1.121938e+004
1.115728e+003, 1.122654e+004
1.116210e+003, 1.124493e+004
1.116692e+003, 1.126531e+004
1.117174e+003, 1.127955e+004
1.117656e+003, 1.129070e+004
1.118138e+003, 1.130384e+004
1.118620e+003, 1.131883e+004
1.119102e+003, 1.133440e+004
1.119584e+003, 1.134905e+004
1.120067e+003, 1.136555e+004
1.120549e+003, 1.138449e+004
1.121031e+003, 1.140460e+004
1.121513e+003, 1.142663e+004
1.121995e+003, 1.144836e+004
1.122477e+003, 1.146092e+004
1.122959e+003, 1.146377e+004
1.123441e+003, 1.146508e+004
1.123924e+003, 1.146399e+004
1.124406e+003, 1.146848e+004
1.124888e+003, 1.148366e+004
1.125370e+003, 1.150560e+004
1.125852e+003, 1.152365e+004
1.126334e+003, 1.153831e+004
1.126816e+003, 1.155337e+004
1.127298e+003, 1.156986e+004
1.127781e+003, 1.158683e+004
1.128263e+003, 1.160624e+004
1.128745e+003, 1.162390e+004
1.129227e+003, 1.163537e+004
1.129709e+003, 1.164113e+004
1.130191e+003, 1.164734e+004
1.130673e+003, 1.165374e+004
1.131155e+003, 1.166622e+004
1.131637e+003, 1.169069e+004
1.132120e+003, 1.171592e+004
1.132602e+003, 1.172726e+004
1.133084e+003, 1.173305e+004
1.133566e+003, 1.174466e+004
1.134048e+003, 1.176426e+004
1.134530e+003, 1.178770e+004
1.135012e+003, 1.181647e+004
1.135494e+003, 1.184284e+004
1.135976e+003, 1.186148e+004
1.136458e+003, 1.187519e+004
1.136941e+003, 1.188644e+004
1.137423e+003, 1.189648e+004
1.137905e+003, 1.190822e+004
1.138387e+003, 1.192211e+004
1.138869e+003, 1.193909e+004
1.139351e+003, 1.196002e+004
1.139833e+003, 1.198186e+004
1.140315e+003, 1.200148e+004
1.140798e+003, 1.201946e+004
1.141280e+003, 1.203677e+004
1.141762e+003, 1.205370e+004
1.142244e+003, 1.207082e+004
1.142726e+003, 1.209172e+004
1.143208e+003, 1.210811e+004
1.143690e+003, 1.211683e+004
1.144172e+003, 1.212235e+004
1.144655e+003, 1.213151e+004
1.145137e+003, 1.214359e+004
1.145619e+003, 1.215600e+004
1.146101e+003, 1.216844e+004
1.146583e+003, 1.218265e+004
1.147065e+003, 1.219999e+004
1.147547e+003, 1.221967e+004
1.148029e+003, 1.224221e+004
1.148511e+003, 1.226641e+004
1.148994e+003, 1.228992e+004
1.149476e+003, 1.231235e+004
1.149958e+003, 1.232777e+004
1.150440e+003, 1.233268e+004
1.150922e+003, 1.234207e+004
1.151404e+003, 1.237253e+004
1.151886e+003, 1.240669e+004
1.152368e+003, 1.243239e+004
1.152851e+003, 1.244966e+004
1.153333e+003, 1.245721e+004
1.153815e+003, 1.245481e+004
1.154297e+003, 1.246169e+004
1.154779e+003, 1.248753e+004
1.155261e+003, 1.251916e+004
1.155743e+003, 1.255081e+004
1.156225e+003, 1.257728e+004
1.156708e+003, 1.258933e+004
1.157190e+003, 1.258414e+004
1.157672e+003, 1.258902e+004
1.158154e+003, 1.260513e+004
1.158636e+003, 1.262201e+004
1.159118e+003, 1.263379e+004
1.159600e+003, 1.264361e+004
1.160082e+003, 1.265288e+004
1.160564e+003, 1.266350e+004
1.161047e+003, 1.267922e+004
1.161529e+003, 1.270493e+004
1.162011e+003, 1.272556e+004
1.162493e+003, 1.274050e+004
1.162975e+003, 1.275369e+004
1.163457e+003, 1.276918e+004
1.163939e+003, 1.278408e+004
1.164421e+003, 1.279158e+004
1.164903e+003, 1.279481e+004
1.165385e+003, 1.280350e+004
1.165868e+003, 1.282050e+004
1.166350e+003, 1.284212e+004
1.166832e+003, 1.286973e+004
1.167314e+003, 1.289628e+004
1.167796e+003, 1.291084e+004
1.168278e+003, 1.292048e+004
1.168760e+003, 1.293934e+004
1.169242e+003, 1.296642e+004
1.169725e+003, 1.298948e+004
1.170207e+003, 1.300170e+004
1.170689e+003, 1.301488e+004
1.171171e+003, 1.303101e+004
1.171653e+003, 1.304852e+004
1.172135e+003, 1.306342e+004
1.172617e+003, 1.307832e+004
1.173099e+003, 1.310287e+004
1.173582e+003, 1.313759e+004
1.174064e+003, 1.316333e+004
1.174546e+003, 1.316035e+004
1.175028e+003, 1.316427e+004
1.175510e+003, 1.318693e+004
1.175992e+003, 1.321767e+004
1.176474e+003, 1.323431e+004
1.176956e+003, 1.324104e+004
1.177438e+003, 1.324862e+004
1.177921e+003, 1.325874e+004
1.178403e+003, 1.327270e+004
1.178885e+003, 1.329523e+004
1.179367e+003, 1.331733e+004
1.179849e+003, 1.333518e+004
1.180331e+003, 1.335039e+004
1.180813e+003, 1.336869e+004
1.181295e+003, 1.338838e+004
1.181778e+003, 1.340141e+004
1.182260e+003, 1.340238e+004
1.182742e+003, 1.340836e+004
1.183224e+003, 1.343116e+004
1.183706e+003, 1.345757e+004
1.184188e+003, 1.348154e+004
1.184670e+003, 1.350275e+004
1.185152e+003, 1.351523e+004
1.185635e+003, 1.352141e+004
1.186117e+003, 1.353517e+004
1.186599e+003, 1.356553e+004
1.187081e+003, 1.359617e+004
1.187563e+003, 1.362364e+004
1.188045e+003, 1.364341e+004
1.188527e+003, 1.364808e+004
1.189009e+003, 1.363995e+004
1.189491e+003, 1.365221e+004
1.189974e+003, 1.368231e+004
1.190456e+003, 1.371135e+004
1.190938e+003, 1.372935e+004
1.191420e+003, 1.374483e+004
1.191902e+003, 1.376075e+004
1.192384e+003, 1.377731e+004
1.192866e+003, 1.379579e+004
1.193348e+003, 1.381639e+004
1.193830e+003, 1.383103e+004
1.194313e+003, 1.384024e+004
1.194795e+003, 1.385039e+004
1.195277e+003, 1.386429e+004
1.195759e+003, 1.388120e+004
1.196241e+003, 1.390424e+004
1.196723e+003, 1.392774e+004
1.197205e+003, 1.394504e+004
1.197687e+003, 1.395620e+004
1.198169e+003, 1.395823e+004
1.198652e+003, 1.395167e+004
1.199134e+003, 1.395285e+004
1.199616e+003, 1.398242e+004
1.200098e+003, 1.401304e+004
1.200580e+003, 1.402588e+004
1.201062e+003, 1.403027e+004
1.201544e+003, 1.404186e+004
1.202026e+003, 1.406087e+004
1.202509e+003, 1.408179e+004
1.202991e+003, 1.410408e+004
1.203473e+003, 1.412418e+004
1.203955e+003, 1.413337e+004
1.204437e+003, 1.414554e+004
1.204919e+003, 1.417645e+004
1.205401e+003, 1.421497e+004
1.205883e+003, 1.423448e+004
1.206365e+003, 1.423451e+004
1.206848e+003, 1.423837e+004
1.207330e+003, 1.424907e+004
1.207812e+003, 1.426272e+004
1.208294e+003, 1.427375e+004
1.208776e+003, 1.428918e+004
1.209258e+003, 1.432001e+004
1.209740e+003, 1.435829e+004
1.210222e+003, 1.438002e+004
1.210705e+003, 1.438535e+004
1.211187e+003, 1.439117e+004
1.211669e+003, 1.440028e+004
1.212151e+003, 1.441402e+004
1.212633e+003, 1.444038e+004
1.213115e+003, 1.446577e+004
1.213597e+003, 1.447688e+004
1.214079e+003, 1.447864e+004
1.214562e+003, 1.448833e+004
1.215044e+003, 1.450582e+004
1.215526e+003, 1.452500e+004
1.216008e+003, 1.454509e+004
1.216490e+003, 1.456363e+004
1.216972e+003, 1.457557e+004
1.217454e+003, 1.458779e+004
1.217936e+003, 1.460583e+004
1.218418e+003, 1.462831e+004
1.218901e+003, 1.464831e+004
1.219383e+003, 1.466597e+004
1.219865e+003, 1.468517e+004
1.220347e+003, 1.470749e+004
1.220829e+003, 1.472904e+004
1.221311e+003, 1.474737e+004
1.221793e+003, 1.476310e+004
1.222275e+003, 1.477744e+004
1.222757e+003, 1.479024e+004
1.223240e+003, 1.479869e+004
1.223722e+003, 1.480348e+004
1.224204e+003, 1.481215e+004
1.224686e+003, 1.482914e+004
1.225168e+003, 1.484579e+004
1.225650e+003, 1.485304e+004
1.226132e+003, 1.486134e+004
1.226614e+003, 1.488029e+004
1.227096e+003, 1.490812e+004
1.227579e+003, 1.492712e+004
1.228061e+003, 1.493815e+004
1.228543e+003, 1.494804e+004
1.229025e+003, 1.495821e+004
1.229507e+003, 1.497001e+004
1.229989e+003, 1.498308e+004
1.230471e+003, 1.499914e+004
1.230953e+003, 1.501955e+004
1.231436e+003, 1.504376e+004
1.231918e+003, 1.506809e+004
1.232400e+003, 1.509212e+004
1.232882e+003, 1.511252e+004
1.233364e+003, 1.512539e+004
1.233846e+003, 1.513959e+004
1.234328e+003, 1.516347e+004
1.234810e+003, 1.518686e+004
1.235292e+003, 1.520125e+004
1.235775e+003, 1.520819e+004
1.236257e+003, 1.522131e+004
1.236739e+003, 1.523938e+004
1.237221e+003, 1.525554e+004
1.237703e+003, 1.526288e+004
1.238185e+003, 1.527448e+004
1.238667e+003, 1.529999e+004
1.239149e+003, 1.532667e+004
1.239632e+003, 1.534461e+004
1.240114e+003, 1.535548e+004
1.240596e+003, 1.537139e+004
1.241078e+003, 1.539125e+004
1.241560e+003, 1.541129e+004
1.242042e+003, 1.542826e+004
1.242524e+003, 1.544719e+004
1.243006e+003, 1.547148e+004
1.243489e+003, 1.549473e+004
1.243971e+003, 1.551018e+004
1.244453e+003, 1.552043e+004
1.244935e+003, 1.553633e+004
1.245417e+003, 1.555651e+004
1.245899e+003, 1.557528e+004
1.246381e+003, 1.558663e+004
1.246863e+003, 1.560273e+004
1.247345e+003, 1.562749e+004
1.247828e+003, 1.565267e+004
1.248310e+003, 1.566900e+004
1.248792e+003, 1.568073e+004
1.249274e+003, 1.570149e+004
1.249756e+003, 1.572825e+004
1.250238e+003, 1.575033e+004
1.250720e+003, 1.575980e+004
1.251202e+003, 1.577086e+004
1.251684e+003, 1.578577e+004
1.252167e+003, 1.579951e+004
1.252649e+003, 1.580414e+004
1.253131e+003, 1.580628e+004
1.253613e+003, 1.581911e+004
1.254095e+003, 1.584085e+004
1.254577e+003, 1.586529e+004
1.255059e+003, 1.589792e+004
1.255541e+003, 1.591748e+004
1.256023e+003, 1.591878e+004
1.256506e+003, 1.592028e+004
1.256988e+003, 1.594340e+004
1.257470e+003, 1.597327e+004
1.257952e+003, 1.598723e+004
1.258434e+003, 1.599024e+004
1.258916e+003, 1.599825e+004
1.259398e+003, 1.601590e+004
1.259880e+003, 1.603007e+004
1.260363e+003, 1.603898e+004
1.260845e+003, 1.605171e+004
1.261327e+003, 1.608318e+004
1.261809e+003, 1.611628e+004
1.262291e+003, 1.613090e+004
1.262773e+003, 1.613324e+004
1.263255e+003, 1.614169e+004
1.263737e+003, 1.615904e+004
1.264219e+003, 1.617098e+004
1.264702e+003, 1.617600e+004
1.265184e+003, 1.618198e+004
1.265666e+003, 1.619523e+004
1.266148e+003, 1.621173e+004
1.266630e+003, 1.623011e+004
1.267112e+003, 1.624908e+004
1.267594e+003, 1.626618e+004
1.268076e+003, 1.628157e+004
1.268559e+003, 1.629419e+004
1.269041e+003, 1.630402e+004
1.269523e+003, 1.631550e+004
1.270005e+003, 1.633101e+004
1.270487e+003, 1.634999e+004
1.270969e+003, 1.637483e+004
1.271451e+003, 1.640110e+004
1.271933e+003, 1.642260e+004
1.272416e+003, 1.643949e+004
1.272898e+003, 1.645609e+004
1.273380e+003, 1.647249e+004
1.273862e+003, 1.648829e+004
1.274344e+003, 1.650332e+004
1.274826e+003, 1.651740e+004
1.275308e+003, 1.653069e+004
1.275790e+003, 1.654318e+004
1.276272e+003, 1.655223e+004
1.276755e+003, 1.656061e+004
1.277237e+003, 1.658272e+004
1.277719e+003, 1.661661e+004
1.278201e+003, 1.664448e+004
1.278683e+003, 1.665265e+004
1.279165e+003, 1.666141e+004
1.279647e+003, 1.667387e+004
1.280129e+003, 1.668967e+004
1.280611e+003, 1.671137e+004
1.281094e+003, 1.673521e+004
1.281576e+003, 1.675295e+004
1.282058e+003, 1.676524e+004
1.282540e+003, 1.677676e+004
1.283022e+003, 1.678479e+004
1.283504e+003, 1.679996e+004
1.283986e+003, 1.682442e+004
1.284468e+003, 1.685201e+004
1.284950e+003, 1.687940e+004
1.285433e+003, 1.690430e+004
1.285915e+003, 1.692225e+004
1.286397e+003, 1.693456e+004
1.286879e+003, 1.694657e+004
1.287361e+003, 1.695806e+004
1.287843e+003, 1.697179e+004
1.288325e+003, 1.698806e+004
1.288807e+003, 1.700614e+004
1.289290e+003, 1.702756e+004
1.289772e+003, 1.704860e+004
1.290254e+003, 1.706678e+004
1.290736e+003, 1.708156e+004
1.291218e+003, 1.709070e+004
1.291700e+003, 1.709277e+004
1.292182e+003, 1.711134e+004
1.292664e+003, 1.714771e+004
1.293146e+003, 1.718043e+004
1.293629e+003, 1.718774e+004
1.294111e+003, 1.719439e+004
1.294593e+003, 1.721870e+004
1.295075e+003, 1.724730e+004
1.295557e+003, 1.726141e+004
1.296039e+003, 1.726357e+004
1.296521e+003, 1.727605e+004
1.297003e+003, 1.729838e+004
1.297486e+003, 1.731861e+004
1.297968e+003, 1.733229e+004
1.298450e+003, 1.734301e+004
1.298932e+003, 1.735193e+004
1.299414e+003, 1.735978e+004
1.299896e+003, 1.736607e+004
1.300378e+003, 1.737265e+004
1.300860e+003, 1.738443e+004
1.301343e+003, 1.740184e+004
1.301825e+003, 1.742490e+004
##END=



