##NAMES=Tremolite
##RRUFFID=R150094
##IDEAL CHEMISTRY=[box]Ca_2_Mg_5_Si_8_O_22_(OH)_2_
##LOCALITY=Belmat, St. Lawrence Co., New York, USA
##OWNER=RRUFF
##SOURCE=UAMM 9512
##DESCRIPTION=Aggregate of pinkish prismatic crystals with good cleavage
##STATUS=The identification of this mineral has been confirmed only by X-ray diffraction
##URL=rruff.info/R150094
9.059570e+001, 3.775581e+003
9.107782e+001, 3.674346e+003
9.155994e+001, 3.638532e+003
9.204205e+001, 3.711805e+003
9.252417e+001, 3.821112e+003
9.300629e+001, 3.944421e+003
9.348840e+001, 4.052033e+003
9.397052e+001, 4.114131e+003
9.445264e+001, 4.115255e+003
9.493475e+001, 4.107828e+003
9.541687e+001, 4.096595e+003
9.589898e+001, 4.084614e+003
9.638110e+001, 4.072856e+003
9.686321e+001, 4.062422e+003
9.734533e+001, 4.051062e+003
9.782745e+001, 4.030504e+003
9.830956e+001, 4.010307e+003
9.879168e+001, 3.989973e+003
9.927380e+001, 3.972299e+003
9.975591e+001, 3.957807e+003
1.002380e+002, 3.945452e+003
1.007201e+002, 3.933422e+003
1.012023e+002, 3.919840e+003
1.016844e+002, 3.905867e+003
1.021665e+002, 3.895331e+003
1.026486e+002, 3.888236e+003
1.031307e+002, 3.883773e+003
1.036128e+002, 3.881953e+003
1.040950e+002, 3.883066e+003
1.045771e+002, 3.884042e+003
1.050592e+002, 3.880037e+003
1.055413e+002, 3.873594e+003
1.060234e+002, 3.868927e+003
1.065055e+002, 3.868211e+003
1.069877e+002, 3.870544e+003
1.074698e+002, 3.872719e+003
1.079519e+002, 3.874913e+003
1.084340e+002, 3.876157e+003
1.089161e+002, 3.876902e+003
1.093982e+002, 3.876510e+003
1.098804e+002, 3.873477e+003
1.103625e+002, 3.864866e+003
1.108446e+002, 3.848163e+003
1.113267e+002, 3.839200e+003
1.118088e+002, 3.842969e+003
1.122909e+002, 3.849543e+003
1.127731e+002, 3.855554e+003
1.132552e+002, 3.859911e+003
1.137373e+002, 3.862527e+003
1.142194e+002, 3.862990e+003
1.147015e+002, 3.858051e+003
1.151836e+002, 3.857069e+003
1.156658e+002, 3.864380e+003
1.161479e+002, 3.873485e+003
1.166300e+002, 3.877255e+003
1.171121e+002, 3.872932e+003
1.175942e+002, 3.864478e+003
1.180763e+002, 3.861380e+003
1.185584e+002, 3.864834e+003
1.190406e+002, 3.869425e+003
1.195227e+002, 3.874923e+003
1.200048e+002, 3.880578e+003
1.204869e+002, 3.884320e+003
1.209690e+002, 3.885005e+003
1.214511e+002, 3.883015e+003
1.219333e+002, 3.880031e+003
1.224154e+002, 3.875914e+003
1.228975e+002, 3.870980e+003
1.233796e+002, 3.865718e+003
1.238617e+002, 3.860199e+003
1.243438e+002, 3.853440e+003
1.248260e+002, 3.845727e+003
1.253081e+002, 3.836207e+003
1.257902e+002, 3.823169e+003
1.262723e+002, 3.805168e+003
1.267544e+002, 3.784512e+003
1.272365e+002, 3.766521e+003
1.277187e+002, 3.751779e+003
1.282008e+002, 3.739038e+003
1.286829e+002, 3.727761e+003
1.291650e+002, 3.717825e+003
1.296471e+002, 3.709437e+003
1.301292e+002, 3.703105e+003
1.306114e+002, 3.698551e+003
1.310935e+002, 3.691431e+003
1.315756e+002, 3.677446e+003
1.320577e+002, 3.664904e+003
1.325398e+002, 3.656305e+003
1.330219e+002, 3.651000e+003
1.335041e+002, 3.647133e+003
1.339862e+002, 3.643273e+003
1.344683e+002, 3.639623e+003
1.349504e+002, 3.634129e+003
1.354325e+002, 3.622337e+003
1.359146e+002, 3.612486e+003
1.363968e+002, 3.611147e+003
1.368789e+002, 3.618196e+003
1.373610e+002, 3.626742e+003
1.378431e+002, 3.628630e+003
1.383252e+002, 3.622084e+003
1.388073e+002, 3.617325e+003
1.392895e+002, 3.615267e+003
1.397716e+002, 3.615097e+003
1.402537e+002, 3.616553e+003
1.407358e+002, 3.620047e+003
1.412179e+002, 3.623303e+003
1.417000e+002, 3.622389e+003
1.421821e+002, 3.617680e+003
1.426643e+002, 3.614037e+003
1.431464e+002, 3.614542e+003
1.436285e+002, 3.617974e+003
1.441106e+002, 3.619868e+003
1.445927e+002, 3.618780e+003
1.450748e+002, 3.616257e+003
1.455570e+002, 3.613887e+003
1.460391e+002, 3.611696e+003
1.465212e+002, 3.609134e+003
1.470033e+002, 3.605434e+003
1.474854e+002, 3.600413e+003
1.479675e+002, 3.595978e+003
1.484497e+002, 3.592672e+003
1.489318e+002, 3.589942e+003
1.494139e+002, 3.588142e+003
1.498960e+002, 3.587216e+003
1.503781e+002, 3.585761e+003
1.508602e+002, 3.581161e+003
1.513424e+002, 3.570628e+003
1.518245e+002, 3.563067e+003
1.523066e+002, 3.559257e+003
1.527887e+002, 3.558065e+003
1.532708e+002, 3.559157e+003
1.537529e+002, 3.562318e+003
1.542351e+002, 3.566691e+003
1.547172e+002, 3.570173e+003
1.551993e+002, 3.573474e+003
1.556814e+002, 3.574709e+003
1.561635e+002, 3.571159e+003
1.566456e+002, 3.566292e+003
1.571278e+002, 3.564638e+003
1.576099e+002, 3.568607e+003
1.580920e+002, 3.576614e+003
1.585741e+002, 3.581911e+003
1.590562e+002, 3.581765e+003
1.595383e+002, 3.582367e+003
1.600205e+002, 3.584280e+003
1.605026e+002, 3.587945e+003
1.609847e+002, 3.594678e+003
1.614668e+002, 3.605809e+003
1.619489e+002, 3.620320e+003
1.624310e+002, 3.632995e+003
1.629131e+002, 3.643849e+003
1.633953e+002, 3.653066e+003
1.638774e+002, 3.662460e+003
1.643595e+002, 3.671531e+003
1.648416e+002, 3.674667e+003
1.653237e+002, 3.665821e+003
1.658058e+002, 3.648680e+003
1.662880e+002, 3.632563e+003
1.667701e+002, 3.618598e+003
1.672522e+002, 3.605813e+003
1.677343e+002, 3.592466e+003
1.682164e+002, 3.577868e+003
1.686985e+002, 3.566110e+003
1.691807e+002, 3.561855e+003
1.696628e+002, 3.561388e+003
1.701449e+002, 3.560311e+003
1.706270e+002, 3.556105e+003
1.711091e+002, 3.550812e+003
1.715912e+002, 3.549351e+003
1.720734e+002, 3.553251e+003
1.725555e+002, 3.558487e+003
1.730376e+002, 3.564878e+003
1.735197e+002, 3.571147e+003
1.740018e+002, 3.574969e+003
1.744839e+002, 3.573758e+003
1.749661e+002, 3.569122e+003
1.754482e+002, 3.571099e+003
1.759303e+002, 3.585908e+003
1.764124e+002, 3.600999e+003
1.768945e+002, 3.613419e+003
1.773766e+002, 3.623685e+003
1.778588e+002, 3.633007e+003
1.783409e+002, 3.642333e+003
1.788230e+002, 3.651687e+003
1.793051e+002, 3.659871e+003
1.797872e+002, 3.664842e+003
1.802693e+002, 3.670642e+003
1.807515e+002, 3.682604e+003
1.812336e+002, 3.697082e+003
1.817157e+002, 3.704870e+003
1.821978e+002, 3.697281e+003
1.826799e+002, 3.672217e+003
1.831620e+002, 3.651668e+003
1.836441e+002, 3.635864e+003
1.841263e+002, 3.623107e+003
1.846084e+002, 3.613454e+003
1.850905e+002, 3.606462e+003
1.855726e+002, 3.600848e+003
1.860547e+002, 3.595663e+003
1.865368e+002, 3.591001e+003
1.870190e+002, 3.585832e+003
1.875011e+002, 3.578533e+003
1.879832e+002, 3.571924e+003
1.884653e+002, 3.568438e+003
1.889474e+002, 3.568284e+003
1.894296e+002, 3.569408e+003
1.899117e+002, 3.570201e+003
1.903938e+002, 3.570642e+003
1.908759e+002, 3.570546e+003
1.913580e+002, 3.568698e+003
1.918401e+002, 3.566861e+003
1.923223e+002, 3.567742e+003
1.928044e+002, 3.572196e+003
1.932865e+002, 3.576473e+003
1.937686e+002, 3.576051e+003
1.942507e+002, 3.572268e+003
1.947328e+002, 3.568823e+003
1.952150e+002, 3.567444e+003
1.956971e+002, 3.567039e+003
1.961792e+002, 3.565330e+003
1.966613e+002, 3.561728e+003
1.971434e+002, 3.557656e+003
1.976255e+002, 3.554016e+003
1.981077e+002, 3.550710e+003
1.985898e+002, 3.547641e+003
1.990719e+002, 3.544923e+003
1.995540e+002, 3.542419e+003
2.000361e+002, 3.539373e+003
2.005182e+002, 3.534500e+003
2.010004e+002, 3.530999e+003
2.014825e+002, 3.531871e+003
2.019646e+002, 3.535464e+003
2.024467e+002, 3.537648e+003
2.029288e+002, 3.534327e+003
2.034109e+002, 3.526008e+003
2.038930e+002, 3.521421e+003
2.043752e+002, 3.523039e+003
2.048573e+002, 3.526319e+003
2.053394e+002, 3.529819e+003
2.058215e+002, 3.533547e+003
2.063036e+002, 3.537921e+003
2.067857e+002, 3.543427e+003
2.072679e+002, 3.550149e+003
2.077500e+002, 3.556443e+003
2.082321e+002, 3.563070e+003
2.087142e+002, 3.568518e+003
2.091963e+002, 3.570648e+003
2.096784e+002, 3.570828e+003
2.101606e+002, 3.572519e+003
2.106427e+002, 3.579136e+003
2.111248e+002, 3.591356e+003
2.116069e+002, 3.602042e+003
2.120890e+002, 3.608577e+003
2.125711e+002, 3.616089e+003
2.130533e+002, 3.628447e+003
2.135354e+002, 3.644146e+003
2.140175e+002, 3.658230e+003
2.144996e+002, 3.665784e+003
2.149817e+002, 3.665505e+003
2.154638e+002, 3.667759e+003
2.159460e+002, 3.676656e+003
2.164281e+002, 3.683944e+003
2.169102e+002, 3.685025e+003
2.173923e+002, 3.680317e+003
2.178744e+002, 3.673191e+003
2.183565e+002, 3.666225e+003
2.188387e+002, 3.659274e+003
2.193208e+002, 3.655534e+003
2.198029e+002, 3.655908e+003
2.202850e+002, 3.658273e+003
2.207671e+002, 3.661196e+003
2.212492e+002, 3.664703e+003
2.217314e+002, 3.669988e+003
2.222135e+002, 3.678404e+003
2.226956e+002, 3.690238e+003
2.231777e+002, 3.701499e+003
2.236598e+002, 3.712211e+003
2.241419e+002, 3.722362e+003
2.246240e+002, 3.732490e+003
2.251062e+002, 3.742518e+003
2.255883e+002, 3.750695e+003
2.260704e+002, 3.755641e+003
2.265525e+002, 3.757164e+003
2.270346e+002, 3.756298e+003
2.275167e+002, 3.751847e+003
2.279989e+002, 3.745800e+003
2.284810e+002, 3.739308e+003
2.289631e+002, 3.732383e+003
2.294452e+002, 3.726607e+003
2.299273e+002, 3.722775e+003
2.304094e+002, 3.721156e+003
2.308916e+002, 3.722441e+003
2.313737e+002, 3.728784e+003
2.318558e+002, 3.736981e+003
2.323379e+002, 3.743425e+003
2.328200e+002, 3.747906e+003
2.333021e+002, 3.752129e+003
2.337843e+002, 3.759429e+003
2.342664e+002, 3.766709e+003
2.347485e+002, 3.768640e+003
2.352306e+002, 3.762169e+003
2.357127e+002, 3.751204e+003
2.361948e+002, 3.741228e+003
2.366770e+002, 3.732871e+003
2.371591e+002, 3.722593e+003
2.376412e+002, 3.706167e+003
2.381233e+002, 3.687482e+003
2.386054e+002, 3.670629e+003
2.390875e+002, 3.657063e+003
2.395697e+002, 3.645569e+003
2.400518e+002, 3.634311e+003
2.405339e+002, 3.623035e+003
2.410160e+002, 3.612708e+003
2.414981e+002, 3.602822e+003
2.419802e+002, 3.594356e+003
2.424624e+002, 3.588645e+003
2.429445e+002, 3.586376e+003
2.434266e+002, 3.586356e+003
2.439087e+002, 3.586913e+003
2.443908e+002, 3.588553e+003
2.448729e+002, 3.589294e+003
2.453550e+002, 3.586778e+003
2.458372e+002, 3.584087e+003
2.463193e+002, 3.584133e+003
2.468014e+002, 3.587977e+003
2.472835e+002, 3.593833e+003
2.477656e+002, 3.598878e+003
2.482477e+002, 3.603121e+003
2.487299e+002, 3.606356e+003
2.492120e+002, 3.607222e+003
2.496941e+002, 3.607958e+003
2.501762e+002, 3.610306e+003
2.506583e+002, 3.614801e+003
2.511404e+002, 3.620690e+003
2.516226e+002, 3.627616e+003
2.521047e+002, 3.638577e+003
2.525868e+002, 3.643268e+003
2.530689e+002, 3.638258e+003
2.535510e+002, 3.629496e+003
2.540331e+002, 3.619997e+003
2.545153e+002, 3.610954e+003
2.549974e+002, 3.603249e+003
2.554795e+002, 3.598595e+003
2.559616e+002, 3.599331e+003
2.564437e+002, 3.598130e+003
2.569258e+002, 3.592778e+003
2.574080e+002, 3.587319e+003
2.578901e+002, 3.585529e+003
2.583722e+002, 3.587518e+003
2.588543e+002, 3.589313e+003
2.593364e+002, 3.584760e+003
2.598185e+002, 3.568643e+003
2.603007e+002, 3.559654e+003
2.607828e+002, 3.559863e+003
2.612649e+002, 3.563852e+003
2.617470e+002, 3.569979e+003
2.622291e+002, 3.577143e+003
2.627112e+002, 3.583263e+003
2.631934e+002, 3.585745e+003
2.636755e+002, 3.583192e+003
2.641576e+002, 3.581945e+003
2.646397e+002, 3.582298e+003
2.651218e+002, 3.583406e+003
2.656039e+002, 3.586199e+003
2.660861e+002, 3.589821e+003
2.665682e+002, 3.591134e+003
2.670503e+002, 3.586328e+003
2.675324e+002, 3.573525e+003
2.680145e+002, 3.567177e+003
2.684966e+002, 3.572268e+003
2.689788e+002, 3.577877e+003
2.694609e+002, 3.579063e+003
2.699430e+002, 3.575902e+003
2.704251e+002, 3.570489e+003
2.709072e+002, 3.564076e+003
2.713893e+002, 3.556578e+003
2.718715e+002, 3.552309e+003
2.723536e+002, 3.552824e+003
2.728357e+002, 3.554272e+003
2.733178e+002, 3.555266e+003
2.737999e+002, 3.555862e+003
2.742820e+002, 3.556635e+003
2.747642e+002, 3.558045e+003
2.752463e+002, 3.559991e+003
2.757284e+002, 3.561163e+003
2.762105e+002, 3.560341e+003
2.766926e+002, 3.560227e+003
2.771747e+002, 3.562396e+003
2.776568e+002, 3.565976e+003
2.781389e+002, 3.569017e+003
2.786211e+002, 3.570458e+003
2.791032e+002, 3.570576e+003
2.795853e+002, 3.570490e+003
2.800674e+002, 3.569788e+003
2.805495e+002, 3.569413e+003
2.810316e+002, 3.569404e+003
2.815138e+002, 3.569914e+003
2.819959e+002, 3.571422e+003
2.824780e+002, 3.574279e+003
2.829601e+002, 3.577823e+003
2.834422e+002, 3.580341e+003
2.839243e+002, 3.582235e+003
2.844065e+002, 3.582712e+003
2.848886e+002, 3.580590e+003
2.853707e+002, 3.577224e+003
2.858528e+002, 3.574402e+003
2.863349e+002, 3.572648e+003
2.868170e+002, 3.571963e+003
2.872992e+002, 3.572470e+003
2.877813e+002, 3.574223e+003
2.882634e+002, 3.576776e+003
2.887455e+002, 3.579609e+003
2.892276e+002, 3.583389e+003
2.897097e+002, 3.589833e+003
2.901919e+002, 3.599465e+003
2.906740e+002, 3.608879e+003
2.911561e+002, 3.613562e+003
2.916382e+002, 3.612812e+003
2.921203e+002, 3.612448e+003
2.926024e+002, 3.614524e+003
2.930846e+002, 3.616382e+003
2.935667e+002, 3.614526e+003
2.940488e+002, 3.608591e+003
2.945309e+002, 3.602729e+003
2.950130e+002, 3.601023e+003
2.954951e+002, 3.603603e+003
2.959773e+002, 3.605255e+003
2.964594e+002, 3.604911e+003
2.969415e+002, 3.604202e+003
2.974236e+002, 3.603863e+003
2.979057e+002, 3.604057e+003
2.983878e+002, 3.605854e+003
2.988700e+002, 3.610759e+003
2.993521e+002, 3.618008e+003
2.998342e+002, 3.622730e+003
3.003163e+002, 3.623382e+003
3.007984e+002, 3.622931e+003
3.012805e+002, 3.622478e+003
3.017627e+002, 3.622196e+003
3.022448e+002, 3.622836e+003
3.027269e+002, 3.624993e+003
3.032090e+002, 3.628253e+003
3.036911e+002, 3.631352e+003
3.041732e+002, 3.634786e+003
3.046554e+002, 3.637401e+003
3.051375e+002, 3.638666e+003
3.056196e+002, 3.638747e+003
3.061017e+002, 3.638006e+003
3.065838e+002, 3.636534e+003
3.070659e+002, 3.634421e+003
3.075481e+002, 3.631033e+003
3.080302e+002, 3.625004e+003
3.085123e+002, 3.622571e+003
3.089944e+002, 3.628996e+003
3.094765e+002, 3.639671e+003
3.099586e+002, 3.646595e+003
3.104408e+002, 3.647525e+003
3.109229e+002, 3.645210e+003
3.114050e+002, 3.642224e+003
3.118871e+002, 3.638377e+003
3.123692e+002, 3.636400e+003
3.128513e+002, 3.638003e+003
3.133335e+002, 3.641197e+003
3.138156e+002, 3.643623e+003
3.142977e+002, 3.644906e+003
3.147798e+002, 3.646085e+003
3.152619e+002, 3.648378e+003
3.157440e+002, 3.651632e+003
3.162262e+002, 3.653733e+003
3.167083e+002, 3.653860e+003
3.171904e+002, 3.653214e+003
3.176725e+002, 3.652777e+003
3.181546e+002, 3.652552e+003
3.186367e+002, 3.651925e+003
3.191188e+002, 3.650017e+003
3.196010e+002, 3.647464e+003
3.200831e+002, 3.646938e+003
3.205652e+002, 3.649912e+003
3.210473e+002, 3.653376e+003
3.215294e+002, 3.656137e+003
3.220115e+002, 3.658135e+003
3.224937e+002, 3.658757e+003
3.229758e+002, 3.656945e+003
3.234579e+002, 3.654532e+003
3.239400e+002, 3.656777e+003
3.244221e+002, 3.666916e+003
3.249042e+002, 3.674065e+003
3.253864e+002, 3.671331e+003
3.258685e+002, 3.663444e+003
3.263506e+002, 3.659866e+003
3.268327e+002, 3.664129e+003
3.273148e+002, 3.671414e+003
3.277969e+002, 3.674051e+003
3.282791e+002, 3.671407e+003
3.287612e+002, 3.669132e+003
3.292433e+002, 3.666897e+003
3.297254e+002, 3.666200e+003
3.302075e+002, 3.669648e+003
3.306896e+002, 3.677692e+003
3.311718e+002, 3.686746e+003
3.316539e+002, 3.693588e+003
3.321360e+002, 3.697972e+003
3.326181e+002, 3.700972e+003
3.331002e+002, 3.701756e+003
3.335823e+002, 3.701793e+003
3.340645e+002, 3.700989e+003
3.345466e+002, 3.699866e+003
3.350287e+002, 3.701431e+003
3.355108e+002, 3.708594e+003
3.359929e+002, 3.720306e+003
3.364750e+002, 3.728425e+003
3.369572e+002, 3.733549e+003
3.374393e+002, 3.735063e+003
3.379214e+002, 3.729674e+003
3.384035e+002, 3.720349e+003
3.388856e+002, 3.714626e+003
3.393677e+002, 3.716515e+003
3.398499e+002, 3.722850e+003
3.403320e+002, 3.724722e+003
3.408141e+002, 3.717704e+003
3.412962e+002, 3.714797e+003
3.417783e+002, 3.721825e+003
3.422604e+002, 3.733106e+003
3.427426e+002, 3.741293e+003
3.432247e+002, 3.744260e+003
3.437068e+002, 3.744697e+003
3.441889e+002, 3.746387e+003
3.446710e+002, 3.750477e+003
3.451531e+002, 3.752166e+003
3.456353e+002, 3.748642e+003
3.461174e+002, 3.744651e+003
3.465995e+002, 3.743706e+003
3.470816e+002, 3.746100e+003
3.475637e+002, 3.750543e+003
3.480458e+002, 3.756371e+003
3.485280e+002, 3.763769e+003
3.490101e+002, 3.767880e+003
3.494922e+002, 3.768554e+003
3.499743e+002, 3.766780e+003
3.504564e+002, 3.759945e+003
3.509385e+002, 3.750920e+003
3.514207e+002, 3.746340e+003
3.519028e+002, 3.750513e+003
3.523849e+002, 3.761154e+003
3.528670e+002, 3.768507e+003
3.533491e+002, 3.771677e+003
3.538312e+002, 3.772712e+003
3.543134e+002, 3.769835e+003
3.547955e+002, 3.765739e+003
3.552776e+002, 3.763687e+003
3.557597e+002, 3.764792e+003
3.562418e+002, 3.767504e+003
3.567239e+002, 3.769258e+003
3.572061e+002, 3.769762e+003
3.576882e+002, 3.769739e+003
3.581703e+002, 3.768423e+003
3.586524e+002, 3.767174e+003
3.591345e+002, 3.767150e+003
3.596166e+002, 3.768271e+003
3.600987e+002, 3.769259e+003
3.605808e+002, 3.768446e+003
3.610630e+002, 3.765177e+003
3.615451e+002, 3.766528e+003
3.620272e+002, 3.778500e+003
3.625093e+002, 3.788538e+003
3.629914e+002, 3.790918e+003
3.634735e+002, 3.788395e+003
3.639557e+002, 3.786434e+003
3.644378e+002, 3.788328e+003
3.649199e+002, 3.793409e+003
3.654020e+002, 3.798875e+003
3.658841e+002, 3.805220e+003
3.663662e+002, 3.811304e+003
3.668484e+002, 3.815285e+003
3.673305e+002, 3.819795e+003
3.678126e+002, 3.827962e+003
3.682947e+002, 3.840586e+003
3.687768e+002, 3.855167e+003
3.692589e+002, 3.867911e+003
3.697411e+002, 3.878184e+003
3.702232e+002, 3.888241e+003
3.707053e+002, 3.901290e+003
3.711874e+002, 3.911604e+003
3.716695e+002, 3.915348e+003
3.721516e+002, 3.913067e+003
3.726338e+002, 3.908399e+003
3.731159e+002, 3.904031e+003
3.735980e+002, 3.899980e+003
3.740801e+002, 3.896962e+003
3.745622e+002, 3.896980e+003
3.750443e+002, 3.895447e+003
3.755265e+002, 3.891109e+003
3.760086e+002, 3.884302e+003
3.764907e+002, 3.874780e+003
3.769728e+002, 3.861363e+003
3.774549e+002, 3.847573e+003
3.779370e+002, 3.842417e+003
3.784192e+002, 3.849765e+003
3.789013e+002, 3.854796e+003
3.793834e+002, 3.851067e+003
3.798655e+002, 3.844917e+003
3.803476e+002, 3.840974e+003
3.808297e+002, 3.840170e+003
3.813119e+002, 3.840763e+003
3.817940e+002, 3.841576e+003
3.822761e+002, 3.842595e+003
3.827582e+002, 3.842308e+003
3.832403e+002, 3.839301e+003
3.837224e+002, 3.836413e+003
3.842046e+002, 3.834712e+003
3.846867e+002, 3.834493e+003
3.851688e+002, 3.836680e+003
3.856509e+002, 3.842786e+003
3.861330e+002, 3.851457e+003
3.866151e+002, 3.859803e+003
3.870973e+002, 3.867762e+003
3.875794e+002, 3.875468e+003
3.880615e+002, 3.883250e+003
3.885436e+002, 3.890732e+003
3.890257e+002, 3.896988e+003
3.895078e+002, 3.900616e+003
3.899900e+002, 3.905175e+003
3.904721e+002, 3.914378e+003
3.909542e+002, 3.927737e+003
3.914363e+002, 3.941154e+003
3.919184e+002, 3.952928e+003
3.924005e+002, 3.964688e+003
3.928827e+002, 3.979036e+003
3.933648e+002, 3.996167e+003
3.938469e+002, 4.012847e+003
3.943290e+002, 4.026817e+003
3.948111e+002, 4.039874e+003
3.952932e+002, 4.056263e+003
3.957754e+002, 4.077324e+003
3.962575e+002, 4.095537e+003
3.967396e+002, 4.104272e+003
3.972217e+002, 4.103563e+003
3.977038e+002, 4.099755e+003
3.981859e+002, 4.093668e+003
3.986681e+002, 4.084051e+003
3.991501e+002, 4.068647e+003
3.996323e+002, 4.048666e+003
4.001144e+002, 4.027917e+003
4.005965e+002, 4.007835e+003
4.010786e+002, 3.988958e+003
4.015607e+002, 3.973471e+003
4.020428e+002, 3.962631e+003
4.025250e+002, 3.952257e+003
4.030071e+002, 3.940312e+003
4.034892e+002, 3.929022e+003
4.039713e+002, 3.921300e+003
4.044534e+002, 3.917740e+003
4.049355e+002, 3.916540e+003
4.054177e+002, 3.916031e+003
4.058998e+002, 3.916856e+003
4.063819e+002, 3.914749e+003
4.068640e+002, 3.906313e+003
4.073461e+002, 3.898576e+003
4.078282e+002, 3.894730e+003
4.083104e+002, 3.894449e+003
4.087925e+002, 3.896233e+003
4.092746e+002, 3.899260e+003
4.097567e+002, 3.903398e+003
4.102388e+002, 3.908106e+003
4.107209e+002, 3.914770e+003
4.112031e+002, 3.920146e+003
4.116852e+002, 3.923082e+003
4.121673e+002, 3.925124e+003
4.126494e+002, 3.927374e+003
4.131315e+002, 3.930267e+003
4.136136e+002, 3.934188e+003
4.140958e+002, 3.939987e+003
4.145779e+002, 3.948476e+003
4.150600e+002, 3.955702e+003
4.155421e+002, 3.960521e+003
4.160242e+002, 3.965084e+003
4.165063e+002, 3.970029e+003
4.169885e+002, 3.975409e+003
4.174706e+002, 3.981226e+003
4.179527e+002, 3.987932e+003
4.184348e+002, 3.994728e+003
4.189169e+002, 3.998678e+003
4.193990e+002, 3.998524e+003
4.198812e+002, 3.998252e+003
4.203633e+002, 3.998938e+003
4.208454e+002, 4.000139e+003
4.213275e+002, 4.002277e+003
4.218096e+002, 4.005551e+003
4.222917e+002, 4.006927e+003
4.227739e+002, 4.001073e+003
4.232560e+002, 3.988544e+003
4.237381e+002, 3.981538e+003
4.242202e+002, 3.984691e+003
4.247023e+002, 3.989928e+003
4.251844e+002, 3.991071e+003
4.256666e+002, 3.988958e+003
4.261487e+002, 3.986611e+003
4.266308e+002, 3.984585e+003
4.271129e+002, 3.983359e+003
4.275950e+002, 3.983498e+003
4.280771e+002, 3.984986e+003
4.285593e+002, 3.988562e+003
4.290414e+002, 3.996935e+003
4.295235e+002, 4.006415e+003
4.300056e+002, 4.009067e+003
4.304877e+002, 4.002313e+003
4.309698e+002, 3.994630e+003
4.314520e+002, 3.989652e+003
4.319341e+002, 3.986819e+003
4.324162e+002, 3.984844e+003
4.328983e+002, 3.983354e+003
4.333804e+002, 3.983301e+003
4.338625e+002, 3.986579e+003
4.343447e+002, 3.993893e+003
4.348268e+002, 3.998117e+003
4.353089e+002, 3.994540e+003
4.357910e+002, 3.991597e+003
4.362731e+002, 3.996790e+003
4.367552e+002, 4.007913e+003
4.372374e+002, 4.016764e+003
4.377195e+002, 4.018439e+003
4.382016e+002, 4.014549e+003
4.386837e+002, 4.011169e+003
4.391658e+002, 4.005638e+003
4.396479e+002, 4.004126e+003
4.401301e+002, 4.010875e+003
4.406122e+002, 4.019679e+003
4.410943e+002, 4.024839e+003
4.415764e+002, 4.025171e+003
4.420585e+002, 4.022929e+003
4.425406e+002, 4.020530e+003
4.430227e+002, 4.018013e+003
4.435049e+002, 4.015145e+003
4.439870e+002, 4.008465e+003
4.444691e+002, 4.005112e+003
4.449512e+002, 4.009407e+003
4.454333e+002, 4.018153e+003
4.459154e+002, 4.026493e+003
4.463976e+002, 4.032042e+003
4.468797e+002, 4.035044e+003
4.473618e+002, 4.035199e+003
4.478439e+002, 4.030550e+003
4.483260e+002, 4.028885e+003
4.488081e+002, 4.034144e+003
4.492903e+002, 4.041012e+003
4.497724e+002, 4.047102e+003
4.502545e+002, 4.051872e+003
4.507366e+002, 4.054651e+003
4.512187e+002, 4.053247e+003
4.517008e+002, 4.049079e+003
4.521830e+002, 4.048583e+003
4.526651e+002, 4.052915e+003
4.531472e+002, 4.058282e+003
4.536293e+002, 4.062770e+003
4.541114e+002, 4.066796e+003
4.545935e+002, 4.071151e+003
4.550757e+002, 4.076690e+003
4.555578e+002, 4.081171e+003
4.560399e+002, 4.081600e+003
4.565220e+002, 4.079048e+003
4.570041e+002, 4.078205e+003
4.574862e+002, 4.080453e+003
4.579684e+002, 4.084763e+003
4.584505e+002, 4.091045e+003
4.589326e+002, 4.099423e+003
4.594147e+002, 4.104789e+003
4.598968e+002, 4.104158e+003
4.603789e+002, 4.101647e+003
4.608611e+002, 4.100421e+003
4.613432e+002, 4.100646e+003
4.618253e+002, 4.101658e+003
4.623074e+002, 4.103129e+003
4.627895e+002, 4.105032e+003
4.632716e+002, 4.107267e+003
4.637538e+002, 4.110385e+003
4.642359e+002, 4.113113e+003
4.647180e+002, 4.115338e+003
4.652001e+002, 4.117104e+003
4.656822e+002, 4.117762e+003
4.661643e+002, 4.117525e+003
4.666465e+002, 4.118358e+003
4.671286e+002, 4.122747e+003
4.676107e+002, 4.131299e+003
4.680928e+002, 4.137678e+003
4.685749e+002, 4.140309e+003
4.690570e+002, 4.142336e+003
4.695392e+002, 4.144032e+003
4.700213e+002, 4.145764e+003
4.705034e+002, 4.148046e+003
4.709855e+002, 4.151131e+003
4.714676e+002, 4.154498e+003
4.719497e+002, 4.157345e+003
4.724319e+002, 4.159729e+003
4.729140e+002, 4.161360e+003
4.733961e+002, 4.161263e+003
4.738782e+002, 4.161223e+003
4.743603e+002, 4.162795e+003
4.748424e+002, 4.165519e+003
4.753246e+002, 4.167325e+003
4.758067e+002, 4.165305e+003
4.762888e+002, 4.162147e+003
4.767709e+002, 4.165029e+003
4.772530e+002, 4.175230e+003
4.777351e+002, 4.183198e+003
4.782173e+002, 4.182146e+003
4.786994e+002, 4.177465e+003
4.791815e+002, 4.178307e+003
4.796636e+002, 4.186834e+003
4.801457e+002, 4.194205e+003
4.806278e+002, 4.194437e+003
4.811100e+002, 4.190894e+003
4.815920e+002, 4.189328e+003
4.820742e+002, 4.190714e+003
4.825563e+002, 4.194542e+003
4.830384e+002, 4.201464e+003
4.835205e+002, 4.211226e+003
4.840026e+002, 4.216533e+003
4.844847e+002, 4.212091e+003
4.849669e+002, 4.209171e+003
4.854490e+002, 4.214318e+003
4.859311e+002, 4.223686e+003
4.864132e+002, 4.230123e+003
4.868953e+002, 4.230996e+003
4.873774e+002, 4.229417e+003
4.878596e+002, 4.230640e+003
4.883417e+002, 4.236505e+003
4.888238e+002, 4.240126e+003
4.893059e+002, 4.240268e+003
4.897880e+002, 4.239762e+003
4.902701e+002, 4.239057e+003
4.907523e+002, 4.238859e+003
4.912344e+002, 4.240598e+003
4.917165e+002, 4.245450e+003
4.921986e+002, 4.251912e+003
4.926807e+002, 4.255689e+003
4.931628e+002, 4.255869e+003
4.936450e+002, 4.255893e+003
4.941271e+002, 4.254880e+003
4.946092e+002, 4.255125e+003
4.950913e+002, 4.260010e+003
4.955734e+002, 4.268841e+003
4.960555e+002, 4.275213e+003
4.965377e+002, 4.271861e+003
4.970198e+002, 4.262879e+003
4.975019e+002, 4.260127e+003
4.979840e+002, 4.264995e+003
4.984661e+002, 4.270647e+003
4.989482e+002, 4.274011e+003
4.994304e+002, 4.275500e+003
4.999125e+002, 4.275991e+003
5.003946e+002, 4.275300e+003
5.008767e+002, 4.274196e+003
5.013588e+002, 4.272153e+003
5.018409e+002, 4.270196e+003
5.023231e+002, 4.270847e+003
5.028052e+002, 4.274669e+003
5.032873e+002, 4.278016e+003
5.037694e+002, 4.276507e+003
5.042515e+002, 4.269900e+003
5.047336e+002, 4.269833e+003
5.052158e+002, 4.281682e+003
5.056979e+002, 4.293275e+003
5.061800e+002, 4.300630e+003
5.066621e+002, 4.304854e+003
5.071442e+002, 4.307368e+003
5.076263e+002, 4.308787e+003
5.081085e+002, 4.309921e+003
5.085906e+002, 4.311877e+003
5.090727e+002, 4.314468e+003
5.095548e+002, 4.318512e+003
5.100369e+002, 4.327134e+003
5.105190e+002, 4.334026e+003
5.110012e+002, 4.334864e+003
5.114833e+002, 4.332458e+003
5.119654e+002, 4.332155e+003
5.124475e+002, 4.336631e+003
5.129296e+002, 4.344452e+003
5.134117e+002, 4.354163e+003
5.138939e+002, 4.366461e+003
5.143760e+002, 4.375582e+003
5.148581e+002, 4.379619e+003
5.153402e+002, 4.380565e+003
5.158223e+002, 4.378755e+003
5.163044e+002, 4.374917e+003
5.167866e+002, 4.373481e+003
5.172687e+002, 4.378644e+003
5.177508e+002, 4.385883e+003
5.182329e+002, 4.389400e+003
5.187150e+002, 4.389301e+003
5.191971e+002, 4.388217e+003
5.196793e+002, 4.387233e+003
5.201614e+002, 4.386179e+003
5.206435e+002, 4.384276e+003
5.211256e+002, 4.380278e+003
5.216077e+002, 4.379026e+003
5.220898e+002, 4.384433e+003
5.225720e+002, 4.390734e+003
5.230541e+002, 4.392204e+003
5.235362e+002, 4.389177e+003
5.240183e+002, 4.385960e+003
5.245004e+002, 4.385589e+003
5.249825e+002, 4.387689e+003
5.254647e+002, 4.390434e+003
5.259468e+002, 4.394820e+003
5.264289e+002, 4.398398e+003
5.269110e+002, 4.400400e+003
5.273931e+002, 4.401976e+003
5.278752e+002, 4.404024e+003
5.283574e+002, 4.406667e+003
5.288395e+002, 4.409512e+003
5.293216e+002, 4.412248e+003
5.298037e+002, 4.414893e+003
5.302858e+002, 4.417667e+003
5.307679e+002, 4.420813e+003
5.312501e+002, 4.423505e+003
5.317322e+002, 4.424642e+003
5.322143e+002, 4.425482e+003
5.326964e+002, 4.427749e+003
5.331785e+002, 4.432012e+003
5.336606e+002, 4.435403e+003
5.341428e+002, 4.435781e+003
5.346249e+002, 4.434003e+003
5.351070e+002, 4.431667e+003
5.355891e+002, 4.428912e+003
5.360712e+002, 4.426154e+003
5.365533e+002, 4.423131e+003
5.370355e+002, 4.420388e+003
5.375176e+002, 4.420839e+003
5.379997e+002, 4.426898e+003
5.384818e+002, 4.432892e+003
5.389639e+002, 4.437080e+003
5.394460e+002, 4.440413e+003
5.399282e+002, 4.444046e+003
5.404103e+002, 4.448229e+003
5.408924e+002, 4.452716e+003
5.413745e+002, 4.457537e+003
5.418566e+002, 4.462786e+003
5.423387e+002, 4.465010e+003
5.428209e+002, 4.460125e+003
5.433029e+002, 4.457021e+003
5.437850e+002, 4.458397e+003
5.442672e+002, 4.462021e+003
5.447493e+002, 4.465660e+003
5.452314e+002, 4.468646e+003
5.457135e+002, 4.470938e+003
5.461956e+002, 4.472341e+003
5.466777e+002, 4.472912e+003
5.471599e+002, 4.473011e+003
5.476420e+002, 4.471980e+003
5.481241e+002, 4.471935e+003
5.486062e+002, 4.475325e+003
5.490883e+002, 4.480351e+003
5.495704e+002, 4.484019e+003
5.500526e+002, 4.485058e+003
5.505347e+002, 4.486345e+003
5.510168e+002, 4.490042e+003
5.514989e+002, 4.495233e+003
5.519810e+002, 4.500450e+003
5.524631e+002, 4.505425e+003
5.529453e+002, 4.508816e+003
5.534274e+002, 4.508503e+003
5.539095e+002, 4.504468e+003
5.543916e+002, 4.505717e+003
5.548737e+002, 4.518233e+003
5.553558e+002, 4.528029e+003
5.558380e+002, 4.528700e+003
5.563201e+002, 4.525722e+003
5.568022e+002, 4.526337e+003
5.572843e+002, 4.532173e+003
5.577664e+002, 4.538952e+003
5.582485e+002, 4.541687e+003
5.587307e+002, 4.540220e+003
5.592128e+002, 4.538695e+003
5.596949e+002, 4.535672e+003
5.601770e+002, 4.534836e+003
5.606591e+002, 4.538307e+003
5.611412e+002, 4.543962e+003
5.616234e+002, 4.549398e+003
5.621055e+002, 4.554019e+003
5.625876e+002, 4.558313e+003
5.630697e+002, 4.562918e+003
5.635518e+002, 4.567562e+003
5.640339e+002, 4.571364e+003
5.645161e+002, 4.574265e+003
5.649982e+002, 4.576069e+003
5.654803e+002, 4.575582e+003
5.659624e+002, 4.573916e+003
5.664445e+002, 4.575643e+003
5.669266e+002, 4.582387e+003
5.674088e+002, 4.590147e+003
5.678909e+002, 4.600060e+003
5.683730e+002, 4.609045e+003
5.688551e+002, 4.612222e+003
5.693372e+002, 4.609306e+003
5.698193e+002, 4.605115e+003
5.703015e+002, 4.604061e+003
5.707836e+002, 4.605991e+003
5.712657e+002, 4.608090e+003
5.717478e+002, 4.608730e+003
5.722299e+002, 4.611872e+003
5.727120e+002, 4.621932e+003
5.731942e+002, 4.632286e+003
5.736763e+002, 4.635355e+003
5.741584e+002, 4.630758e+003
5.746405e+002, 4.626251e+003
5.751226e+002, 4.629042e+003
5.756047e+002, 4.637582e+003
5.760869e+002, 4.646123e+003
5.765690e+002, 4.655229e+003
5.770511e+002, 4.661771e+003
5.775332e+002, 4.662764e+003
5.780153e+002, 4.661013e+003
5.784974e+002, 4.661578e+003
5.789796e+002, 4.665455e+003
5.794617e+002, 4.667511e+003
5.799438e+002, 4.661363e+003
5.804259e+002, 4.655039e+003
5.809080e+002, 4.661001e+003
5.813901e+002, 4.677775e+003
5.818723e+002, 4.690245e+003
5.823544e+002, 4.687949e+003
5.828365e+002, 4.676119e+003
5.833186e+002, 4.672643e+003
5.838007e+002, 4.685833e+003
5.842828e+002, 4.694982e+003
5.847650e+002, 4.697376e+003
5.852471e+002, 4.697950e+003
5.857292e+002, 4.698927e+003
5.862113e+002, 4.700994e+003
5.866934e+002, 4.705307e+003
5.871755e+002, 4.713708e+003
5.876577e+002, 4.722689e+003
5.881398e+002, 4.722130e+003
5.886219e+002, 4.709857e+003
5.891040e+002, 4.703219e+003
5.895861e+002, 4.709545e+003
5.900682e+002, 4.719454e+003
5.905504e+002, 4.724107e+003
5.910325e+002, 4.724249e+003
5.915146e+002, 4.724548e+003
5.919967e+002, 4.726717e+003
5.924788e+002, 4.729326e+003
5.929609e+002, 4.730007e+003
5.934431e+002, 4.730021e+003
5.939252e+002, 4.734142e+003
5.944073e+002, 4.744423e+003
5.948894e+002, 4.755747e+003
5.953715e+002, 4.760400e+003
5.958536e+002, 4.755768e+003
5.963358e+002, 4.756474e+003
5.968179e+002, 4.768259e+003
5.973000e+002, 4.778206e+003
5.977821e+002, 4.780904e+003
5.982642e+002, 4.779252e+003
5.987463e+002, 4.776877e+003
5.992285e+002, 4.775156e+003
5.997106e+002, 4.775297e+003
6.001927e+002, 4.779912e+003
6.006748e+002, 4.788760e+003
6.011569e+002, 4.794829e+003
6.016390e+002, 4.796862e+003
6.021212e+002, 4.798077e+003
6.026033e+002, 4.800555e+003
6.030854e+002, 4.803259e+003
6.035675e+002, 4.804104e+003
6.040496e+002, 4.801708e+003
6.045317e+002, 4.800843e+003
6.050139e+002, 4.805273e+003
6.054960e+002, 4.812126e+003
6.059781e+002, 4.817939e+003
6.064602e+002, 4.822056e+003
6.069423e+002, 4.823203e+003
6.074244e+002, 4.819576e+003
6.079066e+002, 4.813199e+003
6.083887e+002, 4.813292e+003
6.088708e+002, 4.826521e+003
6.093529e+002, 4.836956e+003
6.098350e+002, 4.843461e+003
6.103171e+002, 4.847564e+003
6.107993e+002, 4.849585e+003
6.112814e+002, 4.850132e+003
6.117635e+002, 4.850203e+003
6.122456e+002, 4.849859e+003
6.127277e+002, 4.850354e+003
6.132098e+002, 4.855352e+003
6.136920e+002, 4.865433e+003
6.141741e+002, 4.873097e+003
6.146562e+002, 4.875323e+003
6.151383e+002, 4.876115e+003
6.156204e+002, 4.880199e+003
6.161025e+002, 4.886825e+003
6.165847e+002, 4.891167e+003
6.170668e+002, 4.889469e+003
6.175489e+002, 4.887929e+003
6.180310e+002, 4.891725e+003
6.185131e+002, 4.898336e+003
6.189952e+002, 4.902358e+003
6.194774e+002, 4.902233e+003
6.199595e+002, 4.900621e+003
6.204416e+002, 4.900408e+003
6.209237e+002, 4.901567e+003
6.214058e+002, 4.904763e+003
6.218879e+002, 4.913596e+003
6.223701e+002, 4.920052e+003
6.228522e+002, 4.919521e+003
6.233343e+002, 4.917533e+003
6.238164e+002, 4.920403e+003
6.242985e+002, 4.929052e+003
6.247806e+002, 4.938362e+003
6.252628e+002, 4.944440e+003
6.257448e+002, 4.947960e+003
6.262269e+002, 4.950620e+003
6.267090e+002, 4.952468e+003
6.271912e+002, 4.953065e+003
6.276733e+002, 4.951255e+003
6.281554e+002, 4.948998e+003
6.286375e+002, 4.949993e+003
6.291196e+002, 4.954119e+003
6.296017e+002, 4.960720e+003
6.300839e+002, 4.973024e+003
6.305660e+002, 4.984804e+003
6.310481e+002, 4.991749e+003
6.315302e+002, 4.994643e+003
6.320123e+002, 4.995549e+003
6.324944e+002, 4.995398e+003
6.329766e+002, 4.995433e+003
6.334587e+002, 4.998140e+003
6.339408e+002, 5.004286e+003
6.344229e+002, 5.009147e+003
6.349050e+002, 5.011606e+003
6.353871e+002, 5.014110e+003
6.358693e+002, 5.017341e+003
6.363514e+002, 5.021416e+003
6.368335e+002, 5.026852e+003
6.373156e+002, 5.034143e+003
6.377977e+002, 5.041011e+003
6.382798e+002, 5.046832e+003
6.387620e+002, 5.050786e+003
6.392441e+002, 5.049650e+003
6.397262e+002, 5.043393e+003
6.402083e+002, 5.039573e+003
6.406904e+002, 5.043792e+003
6.411725e+002, 5.053284e+003
6.416547e+002, 5.058779e+003
6.421368e+002, 5.054552e+003
6.426189e+002, 5.054729e+003
6.431010e+002, 5.061773e+003
6.435831e+002, 5.070954e+003
6.440652e+002, 5.080993e+003
6.445474e+002, 5.090555e+003
6.450295e+002, 5.097330e+003
6.455116e+002, 5.099837e+003
6.459937e+002, 5.100135e+003
6.464758e+002, 5.100912e+003
6.469579e+002, 5.102180e+003
6.474401e+002, 5.105560e+003
6.479222e+002, 5.112091e+003
6.484043e+002, 5.119117e+003
6.488864e+002, 5.124882e+003
6.493685e+002, 5.129554e+003
6.498506e+002, 5.133306e+003
6.503328e+002, 5.134623e+003
6.508149e+002, 5.137461e+003
6.512970e+002, 5.145787e+003
6.517791e+002, 5.155182e+003
6.522612e+002, 5.159133e+003
6.527433e+002, 5.157842e+003
6.532255e+002, 5.157400e+003
6.537076e+002, 5.162417e+003
6.541897e+002, 5.171512e+003
6.546718e+002, 5.179490e+003
6.551539e+002, 5.185135e+003
6.556360e+002, 5.192481e+003
6.561182e+002, 5.205560e+003
6.566003e+002, 5.217373e+003
6.570824e+002, 5.221170e+003
6.575645e+002, 5.220194e+003
6.580466e+002, 5.225227e+003
6.585287e+002, 5.245050e+003
6.590109e+002, 5.264742e+003
6.594930e+002, 5.266886e+003
6.599751e+002, 5.257678e+003
6.604572e+002, 5.254292e+003
6.609393e+002, 5.260438e+003
6.614214e+002, 5.271844e+003
6.619036e+002, 5.285573e+003
6.623857e+002, 5.301357e+003
6.628678e+002, 5.315848e+003
6.633499e+002, 5.329734e+003
6.638320e+002, 5.341436e+003
6.643141e+002, 5.347402e+003
6.647963e+002, 5.353879e+003
6.652784e+002, 5.365494e+003
6.657605e+002, 5.382393e+003
6.662426e+002, 5.402569e+003
6.667247e+002, 5.425344e+003
6.672068e+002, 5.450023e+003
6.676890e+002, 5.475420e+003
6.681711e+002, 5.501577e+003
6.686532e+002, 5.529666e+003
6.691353e+002, 5.559383e+003
6.696174e+002, 5.592080e+003
6.700995e+002, 5.629019e+003
6.705817e+002, 5.670231e+003
6.710638e+002, 5.712744e+003
6.715459e+002, 5.756320e+003
6.720280e+002, 5.801331e+003
6.725101e+002, 5.847908e+003
6.729922e+002, 5.895489e+003
6.734744e+002, 5.945728e+003
6.739565e+002, 5.997228e+003
6.744386e+002, 6.044799e+003
6.749207e+002, 6.085121e+003
6.754028e+002, 6.118001e+003
6.758849e+002, 6.144559e+003
6.763671e+002, 6.167009e+003
6.768492e+002, 6.172853e+003
6.773313e+002, 6.154289e+003
6.778134e+002, 6.123778e+003
6.782955e+002, 6.090521e+003
6.787776e+002, 6.054275e+003
6.792598e+002, 6.014089e+003
6.797419e+002, 5.969078e+003
6.802240e+002, 5.920958e+003
6.807061e+002, 5.866431e+003
6.811882e+002, 5.811165e+003
6.816703e+002, 5.763549e+003
6.821525e+002, 5.725158e+003
6.826346e+002, 5.692583e+003
6.831167e+002, 5.663295e+003
6.835988e+002, 5.637312e+003
6.840809e+002, 5.614497e+003
6.845630e+002, 5.595415e+003
6.850452e+002, 5.578393e+003
6.855273e+002, 5.561764e+003
6.860094e+002, 5.548598e+003
6.864915e+002, 5.542099e+003
6.869736e+002, 5.540683e+003
6.874557e+002, 5.539920e+003
6.879379e+002, 5.539636e+003
6.884200e+002, 5.536788e+003
6.889021e+002, 5.525162e+003
6.893842e+002, 5.509438e+003
6.898663e+002, 5.501577e+003
6.903484e+002, 5.503554e+003
6.908306e+002, 5.507788e+003
6.913127e+002, 5.508550e+003
6.917948e+002, 5.506463e+003
6.922769e+002, 5.504736e+003
6.927590e+002, 5.505268e+003
6.932411e+002, 5.503090e+003
6.937233e+002, 5.493658e+003
6.942054e+002, 5.485689e+003
6.946875e+002, 5.485940e+003
6.951696e+002, 5.492009e+003
6.956517e+002, 5.497042e+003
6.961339e+002, 5.497995e+003
6.966160e+002, 5.497140e+003
6.970981e+002, 5.495952e+003
6.975802e+002, 5.494991e+003
6.980623e+002, 5.496409e+003
6.985444e+002, 5.500585e+003
6.990266e+002, 5.506151e+003
6.995087e+002, 5.512622e+003
6.999908e+002, 5.519413e+003
7.004729e+002, 5.524310e+003
7.009550e+002, 5.527015e+003
7.014371e+002, 5.528017e+003
7.019193e+002, 5.523182e+003
7.024014e+002, 5.520423e+003
7.028835e+002, 5.527313e+003
7.033656e+002, 5.539674e+003
7.038477e+002, 5.547765e+003
7.043298e+002, 5.547055e+003
7.048120e+002, 5.543993e+003
7.052941e+002, 5.546407e+003
7.057762e+002, 5.553390e+003
7.062583e+002, 5.561546e+003
7.067404e+002, 5.571253e+003
7.072225e+002, 5.576872e+003
7.077046e+002, 5.573209e+003
7.081867e+002, 5.564688e+003
7.086688e+002, 5.562697e+003
7.091509e+002, 5.569354e+003
7.096331e+002, 5.576660e+003
7.101152e+002, 5.584285e+003
7.105973e+002, 5.592216e+003
7.110794e+002, 5.601432e+003
7.115615e+002, 5.610614e+003
7.120436e+002, 5.617138e+003
7.125258e+002, 5.620127e+003
7.130079e+002, 5.622012e+003
7.134900e+002, 5.624705e+003
7.139721e+002, 5.628552e+003
7.144542e+002, 5.637117e+003
7.149363e+002, 5.651804e+003
7.154185e+002, 5.662364e+003
7.159006e+002, 5.662409e+003
7.163827e+002, 5.657435e+003
7.168648e+002, 5.656109e+003
7.173469e+002, 5.658380e+003
7.178290e+002, 5.663956e+003
7.183112e+002, 5.677786e+003
7.187933e+002, 5.689631e+003
7.192754e+002, 5.692935e+003
7.197575e+002, 5.691646e+003
7.202396e+002, 5.691122e+003
7.207217e+002, 5.693001e+003
7.212039e+002, 5.696712e+003
7.216860e+002, 5.702406e+003
7.221681e+002, 5.709340e+003
7.226502e+002, 5.714476e+003
7.231323e+002, 5.717709e+003
7.236144e+002, 5.720317e+003
7.240966e+002, 5.722682e+003
7.245787e+002, 5.724603e+003
7.250608e+002, 5.725077e+003
7.255429e+002, 5.724214e+003
7.260250e+002, 5.726314e+003
7.265071e+002, 5.735056e+003
7.269893e+002, 5.742752e+003
7.274714e+002, 5.744088e+003
7.279535e+002, 5.744474e+003
7.284356e+002, 5.750387e+003
7.289177e+002, 5.762164e+003
7.293998e+002, 5.775896e+003
7.298820e+002, 5.789551e+003
7.303641e+002, 5.801732e+003
7.308462e+002, 5.807964e+003
7.313283e+002, 5.807917e+003
7.318104e+002, 5.810972e+003
7.322925e+002, 5.820251e+003
7.327747e+002, 5.829714e+003
7.332568e+002, 5.833638e+003
7.337389e+002, 5.833333e+003
7.342210e+002, 5.836139e+003
7.347031e+002, 5.843343e+003
7.351852e+002, 5.851478e+003
7.356674e+002, 5.862630e+003
7.361495e+002, 5.872189e+003
7.366316e+002, 5.873874e+003
7.371137e+002, 5.870667e+003
7.375958e+002, 5.871667e+003
7.380779e+002, 5.881668e+003
7.385601e+002, 5.895191e+003
7.390422e+002, 5.904709e+003
7.395243e+002, 5.910458e+003
7.400064e+002, 5.913922e+003
7.404885e+002, 5.914289e+003
7.409706e+002, 5.916815e+003
7.414528e+002, 5.925489e+003
7.419349e+002, 5.937460e+003
7.424170e+002, 5.946627e+003
7.428991e+002, 5.953034e+003
7.433812e+002, 5.957087e+003
7.438633e+002, 5.957551e+003
7.443455e+002, 5.957061e+003
7.448276e+002, 5.955161e+003
7.453097e+002, 5.953966e+003
7.457918e+002, 5.957145e+003
7.462739e+002, 5.965405e+003
7.467560e+002, 5.974790e+003
7.472382e+002, 5.981383e+003
7.477203e+002, 5.986132e+003
7.482024e+002, 5.992122e+003
7.486845e+002, 5.999428e+003
7.491666e+002, 6.005450e+003
7.496487e+002, 6.008592e+003
7.501309e+002, 6.011961e+003
7.506130e+002, 6.019997e+003
7.510951e+002, 6.033079e+003
7.515772e+002, 6.042180e+003
7.520593e+002, 6.044627e+003
7.525414e+002, 6.046751e+003
7.530236e+002, 6.048508e+003
7.535057e+002, 6.051448e+003
7.539878e+002, 6.057424e+003
7.544699e+002, 6.065943e+003
7.549520e+002, 6.075156e+003
7.554341e+002, 6.085157e+003
7.559163e+002, 6.092902e+003
7.563984e+002, 6.091639e+003
7.568805e+002, 6.083933e+003
7.573626e+002, 6.081528e+003
7.578447e+002, 6.086529e+003
7.583268e+002, 6.093866e+003
7.588090e+002, 6.100667e+003
7.592911e+002, 6.106528e+003
7.597732e+002, 6.109935e+003
7.602553e+002, 6.109112e+003
7.607374e+002, 6.109318e+003
7.612195e+002, 6.111323e+003
7.617017e+002, 6.113688e+003
7.621838e+002, 6.116065e+003
7.626659e+002, 6.118341e+003
7.631480e+002, 6.120505e+003
7.636301e+002, 6.122595e+003
7.641122e+002, 6.124147e+003
7.645944e+002, 6.123568e+003
7.650765e+002, 6.122882e+003
7.655586e+002, 6.125360e+003
7.660407e+002, 6.130819e+003
7.665228e+002, 6.137734e+003
7.670049e+002, 6.145583e+003
7.674871e+002, 6.153728e+003
7.679692e+002, 6.161427e+003
7.684513e+002, 6.168709e+003
7.689334e+002, 6.174107e+003
7.694155e+002, 6.173256e+003
7.698976e+002, 6.177612e+003
7.703798e+002, 6.195216e+003
7.708619e+002, 6.214300e+003
7.713440e+002, 6.225450e+003
7.718261e+002, 6.229308e+003
7.723082e+002, 6.232170e+003
7.727903e+002, 6.235951e+003
7.732725e+002, 6.239747e+003
7.737546e+002, 6.242773e+003
7.742367e+002, 6.245490e+003
7.747188e+002, 6.247793e+003
7.752009e+002, 6.250237e+003
7.756830e+002, 6.255870e+003
7.761652e+002, 6.267235e+003
7.766473e+002, 6.280729e+003
7.771294e+002, 6.286982e+003
7.776115e+002, 6.284608e+003
7.780936e+002, 6.284556e+003
7.785757e+002, 6.287991e+003
7.790579e+002, 6.292981e+003
7.795400e+002, 6.299089e+003
7.800221e+002, 6.305884e+003
7.805042e+002, 6.312870e+003
7.809863e+002, 6.320441e+003
7.814684e+002, 6.326403e+003
7.819506e+002, 6.330483e+003
7.824327e+002, 6.332526e+003
7.829148e+002, 6.329264e+003
7.833969e+002, 6.325029e+003
7.838790e+002, 6.327423e+003
7.843611e+002, 6.337965e+003
7.848433e+002, 6.351326e+003
7.853254e+002, 6.363967e+003
7.858075e+002, 6.374836e+003
7.862896e+002, 6.378945e+003
7.867717e+002, 6.376124e+003
7.872538e+002, 6.377534e+003
7.877360e+002, 6.387483e+003
7.882181e+002, 6.397365e+003
7.887002e+002, 6.397266e+003
7.891823e+002, 6.389344e+003
7.896644e+002, 6.392019e+003
7.901465e+002, 6.417083e+003
7.906286e+002, 6.435313e+003
7.911107e+002, 6.441213e+003
7.915928e+002, 6.442774e+003
7.920750e+002, 6.441508e+003
7.925571e+002, 6.440769e+003
7.930392e+002, 6.447306e+003
7.935213e+002, 6.464341e+003
7.940034e+002, 6.481788e+003
7.944855e+002, 6.490817e+003
7.949677e+002, 6.494240e+003
7.954498e+002, 6.495734e+003
7.959319e+002, 6.496153e+003
7.964140e+002, 6.498942e+003
7.968961e+002, 6.505627e+003
7.973782e+002, 6.514133e+003
7.978604e+002, 6.521530e+003
7.983425e+002, 6.527725e+003
7.988246e+002, 6.535512e+003
7.993067e+002, 6.546987e+003
7.997888e+002, 6.556216e+003
8.002709e+002, 6.559843e+003
8.007531e+002, 6.562091e+003
8.012352e+002, 6.566111e+003
8.017173e+002, 6.571544e+003
8.021994e+002, 6.575958e+003
8.026815e+002, 6.576729e+003
8.031636e+002, 6.579266e+003
8.036458e+002, 6.586484e+003
8.041279e+002, 6.596952e+003
8.046100e+002, 6.611699e+003
8.050921e+002, 6.628327e+003
8.055742e+002, 6.639302e+003
8.060563e+002, 6.640195e+003
8.065385e+002, 6.637373e+003
8.070206e+002, 6.641299e+003
8.075027e+002, 6.651439e+003
8.079848e+002, 6.659972e+003
8.084669e+002, 6.666418e+003
8.089490e+002, 6.672494e+003
8.094312e+002, 6.679511e+003
8.099133e+002, 6.685681e+003
8.103954e+002, 6.686994e+003
8.108775e+002, 6.681641e+003
8.113596e+002, 6.684109e+003
8.118417e+002, 6.702817e+003
8.123239e+002, 6.718516e+003
8.128060e+002, 6.723573e+003
8.132881e+002, 6.725027e+003
8.137702e+002, 6.729375e+003
8.142523e+002, 6.736745e+003
8.147344e+002, 6.743618e+003
8.152166e+002, 6.747928e+003
8.156987e+002, 6.751724e+003
8.161808e+002, 6.757891e+003
8.166629e+002, 6.764889e+003
8.171450e+002, 6.767975e+003
8.176271e+002, 6.767319e+003
8.181093e+002, 6.769627e+003
8.185914e+002, 6.779000e+003
8.190735e+002, 6.791713e+003
8.195556e+002, 6.800379e+003
8.200377e+002, 6.804067e+003
8.205198e+002, 6.809262e+003
8.210020e+002, 6.816447e+003
8.214841e+002, 6.824139e+003
8.219662e+002, 6.831391e+003
8.224483e+002, 6.839117e+003
8.229304e+002, 6.849258e+003
8.234125e+002, 6.861654e+003
8.238947e+002, 6.870995e+003
8.243768e+002, 6.874173e+003
8.248589e+002, 6.876629e+003
8.253410e+002, 6.879104e+003
8.258231e+002, 6.883289e+003
8.263052e+002, 6.892929e+003
8.267874e+002, 6.906408e+003
8.272695e+002, 6.916894e+003
8.277516e+002, 6.920211e+003
8.282337e+002, 6.920882e+003
8.287158e+002, 6.925099e+003
8.291979e+002, 6.932185e+003
8.296801e+002, 6.939626e+003
8.301622e+002, 6.947156e+003
8.306443e+002, 6.954205e+003
8.311264e+002, 6.960575e+003
8.316085e+002, 6.965774e+003
8.320906e+002, 6.968602e+003
8.325728e+002, 6.968230e+003
8.330549e+002, 6.971128e+003
8.335370e+002, 6.980425e+003
8.340191e+002, 6.988334e+003
8.345012e+002, 6.992046e+003
8.349833e+002, 6.994555e+003
8.354655e+002, 6.997793e+003
8.359476e+002, 7.002015e+003
8.364297e+002, 7.007509e+003
8.369118e+002, 7.014182e+003
8.373939e+002, 7.022503e+003
8.378760e+002, 7.035596e+003
8.383582e+002, 7.048678e+003
8.388403e+002, 7.054315e+003
8.393224e+002, 7.054574e+003
8.398045e+002, 7.058491e+003
8.402866e+002, 7.070361e+003
8.407687e+002, 7.083784e+003
8.412509e+002, 7.088394e+003
8.417330e+002, 7.086308e+003
8.422151e+002, 7.090322e+003
8.426972e+002, 7.100956e+003
8.431793e+002, 7.111909e+003
8.436614e+002, 7.121087e+003
8.441436e+002, 7.128878e+003
8.446257e+002, 7.135083e+003
8.451078e+002, 7.139764e+003
8.455899e+002, 7.147360e+003
8.460720e+002, 7.161020e+003
8.465541e+002, 7.172764e+003
8.470363e+002, 7.182852e+003
8.475184e+002, 7.189912e+003
8.480005e+002, 7.190881e+003
8.484826e+002, 7.188568e+003
8.489647e+002, 7.189027e+003
8.494468e+002, 7.193920e+003
8.499290e+002, 7.201094e+003
8.504111e+002, 7.211249e+003
8.508932e+002, 7.221712e+003
8.513753e+002, 7.229500e+003
8.518574e+002, 7.235511e+003
8.523395e+002, 7.242877e+003
8.528217e+002, 7.252196e+003
8.533038e+002, 7.259741e+003
8.537859e+002, 7.260744e+003
8.542680e+002, 7.258065e+003
8.547501e+002, 7.261044e+003
8.552322e+002, 7.269702e+003
8.557144e+002, 7.277950e+003
8.561965e+002, 7.284436e+003
8.566786e+002, 7.291067e+003
8.571607e+002, 7.299792e+003
8.576428e+002, 7.309253e+003
8.581249e+002, 7.314924e+003
8.586071e+002, 7.313558e+003
8.590892e+002, 7.315318e+003
8.595713e+002, 7.321381e+003
8.600534e+002, 7.328993e+003
8.605355e+002, 7.338453e+003
8.610176e+002, 7.348192e+003
8.614998e+002, 7.355685e+003
8.619819e+002, 7.360901e+003
8.624640e+002, 7.368010e+003
8.629461e+002, 7.381313e+003
8.634282e+002, 7.394329e+003
8.639103e+002, 7.403843e+003
8.643925e+002, 7.409671e+003
8.648746e+002, 7.409170e+003
8.653567e+002, 7.404198e+003
8.658388e+002, 7.402442e+003
8.663209e+002, 7.408554e+003
8.668030e+002, 7.418550e+003
8.672852e+002, 7.426529e+003
8.677673e+002, 7.432948e+003
8.682494e+002, 7.440384e+003
8.687315e+002, 7.449007e+003
8.692136e+002, 7.457747e+003
8.696957e+002, 7.466389e+003
8.701779e+002, 7.474208e+003
8.706600e+002, 7.479801e+003
8.711421e+002, 7.483142e+003
8.716242e+002, 7.488733e+003
8.721063e+002, 7.498197e+003
8.725884e+002, 7.507028e+003
8.730705e+002, 7.513700e+003
8.735526e+002, 7.520167e+003
8.740347e+002, 7.528104e+003
8.745168e+002, 7.536609e+003
8.749990e+002, 7.543414e+003
8.754811e+002, 7.547392e+003
8.759632e+002, 7.551842e+003
8.764453e+002, 7.559615e+003
8.769274e+002, 7.566600e+003
8.774095e+002, 7.567464e+003
8.778917e+002, 7.566258e+003
8.783738e+002, 7.570677e+003
8.788559e+002, 7.581944e+003
8.793380e+002, 7.594073e+003
8.798201e+002, 7.602930e+003
8.803022e+002, 7.609366e+003
8.807844e+002, 7.613428e+003
8.812665e+002, 7.616256e+003
8.817486e+002, 7.622093e+003
8.822307e+002, 7.631549e+003
8.827128e+002, 7.643238e+003
8.831949e+002, 7.656743e+003
8.836771e+002, 7.669774e+003
8.841592e+002, 7.676524e+003
8.846413e+002, 7.675548e+003
8.851234e+002, 7.679734e+003
8.856055e+002, 7.692309e+003
8.860876e+002, 7.701642e+003
8.865698e+002, 7.700529e+003
8.870519e+002, 7.697682e+003
8.875340e+002, 7.704091e+003
8.880161e+002, 7.718969e+003
8.884982e+002, 7.730311e+003
8.889803e+002, 7.733313e+003
8.894625e+002, 7.739056e+003
8.899446e+002, 7.753209e+003
8.904267e+002, 7.767219e+003
8.909088e+002, 7.774432e+003
8.913909e+002, 7.777272e+003
8.918730e+002, 7.780700e+003
8.923552e+002, 7.786067e+003
8.928373e+002, 7.793592e+003
8.933194e+002, 7.807375e+003
8.938015e+002, 7.820166e+003
8.942836e+002, 7.821201e+003
8.947657e+002, 7.816046e+003
8.952479e+002, 7.817735e+003
8.957300e+002, 7.827978e+003
8.962121e+002, 7.837161e+003
8.966942e+002, 7.837648e+003
8.971763e+002, 7.834227e+003
8.976584e+002, 7.836185e+003
8.981406e+002, 7.843163e+003
8.986227e+002, 7.852281e+003
8.991048e+002, 7.863343e+003
8.995869e+002, 7.875454e+003
9.000690e+002, 7.888767e+003
9.005511e+002, 7.901272e+003
9.010333e+002, 7.909600e+003
9.015154e+002, 7.913443e+003
9.019975e+002, 7.919792e+003
9.024796e+002, 7.930990e+003
9.029617e+002, 7.940405e+003
9.034438e+002, 7.944666e+003
9.039260e+002, 7.948969e+003
9.044081e+002, 7.956391e+003
9.048902e+002, 7.966614e+003
9.053723e+002, 7.979564e+003
9.058544e+002, 7.998313e+003
9.063365e+002, 8.010912e+003
9.068187e+002, 8.007811e+003
9.073008e+002, 8.004715e+003
9.077829e+002, 8.012294e+003
9.082650e+002, 8.024946e+003
9.087471e+002, 8.034248e+003
9.092292e+002, 8.039089e+003
9.097114e+002, 8.044238e+003
9.101935e+002, 8.052071e+003
9.106756e+002, 8.061916e+003
9.111577e+002, 8.076276e+003
9.116398e+002, 8.090875e+003
9.121219e+002, 8.095635e+003
9.126041e+002, 8.091894e+003
9.130862e+002, 8.090640e+003
9.135683e+002, 8.097099e+003
9.140504e+002, 8.106570e+003
9.145325e+002, 8.112781e+003
9.150146e+002, 8.116490e+003
9.154968e+002, 8.122062e+003
9.159789e+002, 8.129615e+003
9.164610e+002, 8.138120e+003
9.169431e+002, 8.147892e+003
9.174252e+002, 8.155962e+003
9.179073e+002, 8.158506e+003
9.183895e+002, 8.158674e+003
9.188716e+002, 8.168998e+003
9.193537e+002, 8.197449e+003
9.198358e+002, 8.215369e+003
9.203179e+002, 8.214142e+003
9.208000e+002, 8.214479e+003
9.212822e+002, 8.228089e+003
9.217643e+002, 8.244868e+003
9.222464e+002, 8.252635e+003
9.227285e+002, 8.251646e+003
9.232106e+002, 8.253897e+003
9.236927e+002, 8.263692e+003
9.241749e+002, 8.273210e+003
9.246570e+002, 8.278759e+003
9.251391e+002, 8.284562e+003
9.256212e+002, 8.295400e+003
9.261033e+002, 8.308788e+003
9.265854e+002, 8.318909e+003
9.270676e+002, 8.324046e+003
9.275497e+002, 8.328495e+003
9.280318e+002, 8.334361e+003
9.285139e+002, 8.341607e+003
9.289960e+002, 8.350273e+003
9.294781e+002, 8.360393e+003
9.299603e+002, 8.373581e+003
9.304424e+002, 8.388952e+003
9.309245e+002, 8.400720e+003
9.314066e+002, 8.404794e+003
9.318887e+002, 8.405784e+003
9.323708e+002, 8.410567e+003
9.328530e+002, 8.418450e+003
9.333351e+002, 8.426471e+003
9.338172e+002, 8.434497e+003
9.342993e+002, 8.444838e+003
9.347814e+002, 8.458564e+003
9.352635e+002, 8.471183e+003
9.357457e+002, 8.477130e+003
9.362278e+002, 8.478018e+003
9.367099e+002, 8.484307e+003
9.371920e+002, 8.498061e+003
9.376741e+002, 8.507564e+003
9.381563e+002, 8.509302e+003
9.386384e+002, 8.511675e+003
9.391205e+002, 8.520489e+003
9.396026e+002, 8.531856e+003
9.400847e+002, 8.538682e+003
9.405668e+002, 8.540080e+003
9.410490e+002, 8.542242e+003
9.415311e+002, 8.543928e+003
9.420132e+002, 8.548145e+003
9.424953e+002, 8.557173e+003
9.429774e+002, 8.567463e+003
9.434595e+002, 8.577832e+003
9.439417e+002, 8.587243e+003
9.444238e+002, 8.592585e+003
9.449059e+002, 8.591356e+003
9.453880e+002, 8.593568e+003
9.458701e+002, 8.606090e+003
9.463522e+002, 8.619731e+003
9.468344e+002, 8.629366e+003
9.473165e+002, 8.635747e+003
9.477986e+002, 8.638725e+003
9.482807e+002, 8.639576e+003
9.487628e+002, 8.642878e+003
9.492449e+002, 8.651278e+003
9.497271e+002, 8.662446e+003
9.502092e+002, 8.676987e+003
9.506913e+002, 8.691257e+003
9.511734e+002, 8.697798e+003
9.516555e+002, 8.698833e+003
9.521376e+002, 8.702983e+003
9.526198e+002, 8.713089e+003
9.531019e+002, 8.725364e+003
9.535840e+002, 8.736390e+003
9.540661e+002, 8.746837e+003
9.545482e+002, 8.759844e+003
9.550303e+002, 8.774329e+003
9.555124e+002, 8.782206e+003
9.559945e+002, 8.782377e+003
9.564766e+002, 8.781151e+003
9.569587e+002, 8.781431e+003
9.574409e+002, 8.784797e+003
9.579230e+002, 8.794042e+003
9.584051e+002, 8.809141e+003
9.588872e+002, 8.826754e+003
9.593693e+002, 8.849237e+003
9.598514e+002, 8.863299e+003
9.603336e+002, 8.862379e+003
9.608157e+002, 8.861203e+003
9.612978e+002, 8.872701e+003
9.617799e+002, 8.890811e+003
9.622620e+002, 8.897646e+003
9.627441e+002, 8.887003e+003
9.632263e+002, 8.884333e+003
9.637084e+002, 8.894443e+003
9.641905e+002, 8.906156e+003
9.646726e+002, 8.920040e+003
9.651547e+002, 8.931438e+003
9.656368e+002, 8.933213e+003
9.661190e+002, 8.928391e+003
9.666011e+002, 8.931244e+003
9.670832e+002, 8.949199e+003
9.675653e+002, 8.963330e+003
9.680474e+002, 8.965031e+003
9.685295e+002, 8.966806e+003
9.690117e+002, 8.977095e+003
9.694938e+002, 8.991044e+003
9.699759e+002, 9.001920e+003
9.704580e+002, 9.009006e+003
9.709401e+002, 9.015450e+003
9.714222e+002, 9.022846e+003
9.719044e+002, 9.029568e+003
9.723865e+002, 9.032710e+003
9.728686e+002, 9.036150e+003
9.733507e+002, 9.044798e+003
9.738328e+002, 9.057049e+003
9.743149e+002, 9.068830e+003
9.747971e+002, 9.078828e+003
9.752792e+002, 9.087936e+003
9.757613e+002, 9.096943e+003
9.762434e+002, 9.105266e+003
9.767255e+002, 9.111926e+003
9.772076e+002, 9.117325e+003
9.776898e+002, 9.121094e+003
9.781719e+002, 9.124222e+003
9.786540e+002, 9.131087e+003
9.791361e+002, 9.143783e+003
9.796182e+002, 9.159163e+003
9.801003e+002, 9.173907e+003
9.805825e+002, 9.188021e+003
9.810646e+002, 9.201564e+003
9.815467e+002, 9.214327e+003
9.820288e+002, 9.224224e+003
9.825109e+002, 9.230829e+003
9.829930e+002, 9.237333e+003
9.834752e+002, 9.245871e+003
9.839573e+002, 9.255181e+003
9.844394e+002, 9.263027e+003
9.849215e+002, 9.269411e+003
9.854036e+002, 9.273042e+003
9.858857e+002, 9.272424e+003
9.863679e+002, 9.278936e+003
9.868500e+002, 9.297525e+003
9.873321e+002, 9.317726e+003
9.878142e+002, 9.331237e+003
9.882963e+002, 9.339640e+003
9.887784e+002, 9.347916e+003
9.892606e+002, 9.356310e+003
9.897427e+002, 9.363231e+003
9.902248e+002, 9.366872e+003
9.907069e+002, 9.372431e+003
9.911890e+002, 9.381596e+003
9.916711e+002, 9.393312e+003
9.921533e+002, 9.407913e+003
9.926354e+002, 9.424537e+003
9.931175e+002, 9.437884e+003
9.935996e+002, 9.447999e+003
9.940817e+002, 9.454795e+003
9.945638e+002, 9.453309e+003
9.950460e+002, 9.454546e+003
9.955281e+002, 9.464030e+003
9.960102e+002, 9.477438e+003
9.964923e+002, 9.491826e+003
9.969744e+002, 9.506280e+003
9.974565e+002, 9.516183e+003
9.979387e+002, 9.515487e+003
9.984208e+002, 9.518747e+003
9.989029e+002, 9.531329e+003
9.993850e+002, 9.547104e+003
9.998671e+002, 9.566316e+003
1.000349e+003, 9.584026e+003
1.000831e+003, 9.591390e+003
1.001313e+003, 9.588776e+003
1.001796e+003, 9.589604e+003
1.002278e+003, 9.601668e+003
1.002760e+003, 9.614939e+003
1.003242e+003, 9.623058e+003
1.003724e+003, 9.630666e+003
1.004206e+003, 9.644763e+003
1.004688e+003, 9.660957e+003
1.005170e+003, 9.668453e+003
1.005653e+003, 9.665782e+003
1.006135e+003, 9.666130e+003
1.006617e+003, 9.680312e+003
1.007099e+003, 9.697630e+003
1.007581e+003, 9.708003e+003
1.008063e+003, 9.715192e+003
1.008545e+003, 9.724552e+003
1.009027e+003, 9.735673e+003
1.009509e+003, 9.745269e+003
1.009992e+003, 9.752321e+003
1.010474e+003, 9.759937e+003
1.010956e+003, 9.772434e+003
1.011438e+003, 9.785257e+003
1.011920e+003, 9.789185e+003
1.012402e+003, 9.788735e+003
1.012884e+003, 9.793601e+003
1.013366e+003, 9.804990e+003
1.013849e+003, 9.822987e+003
1.014331e+003, 9.847456e+003
1.014813e+003, 9.870967e+003
1.015295e+003, 9.884456e+003
1.015777e+003, 9.891442e+003
1.016259e+003, 9.900902e+003
1.016741e+003, 9.911926e+003
1.017223e+003, 9.919677e+003
1.017705e+003, 9.923668e+003
1.018188e+003, 9.926987e+003
1.018670e+003, 9.931101e+003
1.019152e+003, 9.937220e+003
1.019634e+003, 9.947835e+003
1.020116e+003, 9.961662e+003
1.020598e+003, 9.972099e+003
1.021080e+003, 9.979281e+003
1.021562e+003, 9.988129e+003
1.022044e+003, 9.999545e+003
1.022527e+003, 1.001201e+004
1.023009e+003, 1.002467e+004
1.023491e+003, 1.003802e+004
1.023973e+003, 1.005342e+004
1.024455e+003, 1.007063e+004
1.024937e+003, 1.008487e+004
1.025419e+003, 1.009624e+004
1.025901e+003, 1.010243e+004
1.026384e+003, 1.010116e+004
1.026866e+003, 1.010359e+004
1.027348e+003, 1.011755e+004
1.027830e+003, 1.013758e+004
1.028312e+003, 1.015367e+004
1.028794e+003, 1.016581e+004
1.029276e+003, 1.017647e+004
1.029758e+003, 1.018395e+004
1.030240e+003, 1.019684e+004
1.030723e+003, 1.021929e+004
1.031205e+003, 1.024170e+004
1.031687e+003, 1.025814e+004
1.032169e+003, 1.027003e+004
1.032651e+003, 1.027994e+004
1.033133e+003, 1.028737e+004
1.033615e+003, 1.029642e+004
1.034097e+003, 1.030844e+004
1.034579e+003, 1.031886e+004
1.035062e+003, 1.032607e+004
1.035544e+003, 1.033251e+004
1.036026e+003, 1.034006e+004
1.036508e+003, 1.034760e+004
1.036990e+003, 1.035206e+004
1.037472e+003, 1.035179e+004
1.037954e+003, 1.035766e+004
1.038436e+003, 1.037961e+004
1.038919e+003, 1.039137e+004
1.039401e+003, 1.037670e+004
1.039883e+003, 1.036345e+004
1.040365e+003, 1.037301e+004
1.040847e+003, 1.039554e+004
1.041329e+003, 1.040972e+004
1.041811e+003, 1.041347e+004
1.042293e+003, 1.042080e+004
1.042776e+003, 1.043959e+004
1.043258e+003, 1.045154e+004
1.043740e+003, 1.044643e+004
1.044222e+003, 1.044046e+004
1.044704e+003, 1.044412e+004
1.045186e+003, 1.045433e+004
1.045668e+003, 1.046554e+004
1.046150e+003, 1.047791e+004
1.046632e+003, 1.048725e+004
1.047115e+003, 1.048660e+004
1.047597e+003, 1.049185e+004
1.048079e+003, 1.051103e+004
1.048561e+003, 1.053316e+004
1.049043e+003, 1.055344e+004
1.049525e+003, 1.057018e+004
1.050007e+003, 1.058046e+004
1.050489e+003, 1.058331e+004
1.050971e+003, 1.058651e+004
1.051454e+003, 1.058913e+004
1.051936e+003, 1.059552e+004
1.052418e+003, 1.060921e+004
1.052900e+003, 1.062496e+004
1.053382e+003, 1.064101e+004
1.053864e+003, 1.065563e+004
1.054346e+003, 1.066604e+004
1.054828e+003, 1.067182e+004
1.055311e+003, 1.067619e+004
1.055793e+003, 1.067510e+004
1.056275e+003, 1.067943e+004
1.056757e+003, 1.069549e+004
1.057239e+003, 1.071587e+004
1.057721e+003, 1.073731e+004
1.058203e+003, 1.075805e+004
1.058685e+003, 1.077582e+004
1.059167e+003, 1.079033e+004
1.059650e+003, 1.080440e+004
1.060132e+003, 1.081987e+004
1.060614e+003, 1.083386e+004
1.061096e+003, 1.084285e+004
1.061578e+003, 1.085238e+004
1.062060e+003, 1.086726e+004
1.062542e+003, 1.088538e+004
1.063024e+003, 1.090378e+004
1.063506e+003, 1.092160e+004
1.063989e+003, 1.093611e+004
1.064471e+003, 1.094512e+004
1.064953e+003, 1.095235e+004
1.065435e+003, 1.095780e+004
1.065917e+003, 1.096348e+004
1.066399e+003, 1.097161e+004
1.066881e+003, 1.098065e+004
1.067363e+003, 1.098756e+004
1.067846e+003, 1.099232e+004
1.068328e+003, 1.099881e+004
1.068810e+003, 1.101023e+004
1.069292e+003, 1.102072e+004
1.069774e+003, 1.102541e+004
1.070256e+003, 1.103062e+004
1.070738e+003, 1.104319e+004
1.071220e+003, 1.105823e+004
1.071703e+003, 1.106696e+004
1.072185e+003, 1.106989e+004
1.072667e+003, 1.107832e+004
1.073149e+003, 1.110187e+004
1.073631e+003, 1.111877e+004
1.074113e+003, 1.110802e+004
1.074595e+003, 1.109829e+004
1.075077e+003, 1.111524e+004
1.075559e+003, 1.114281e+004
1.076042e+003, 1.116083e+004
1.076524e+003, 1.116694e+004
1.077006e+003, 1.116548e+004
1.077488e+003, 1.115414e+004
1.077970e+003, 1.114781e+004
1.078452e+003, 1.115597e+004
1.078934e+003, 1.116867e+004
1.079416e+003, 1.118011e+004
1.079898e+003, 1.119166e+004
1.080380e+003, 1.120874e+004
1.080863e+003, 1.122803e+004
1.081345e+003, 1.123655e+004
1.081827e+003, 1.122744e+004
1.082309e+003, 1.122183e+004
1.082791e+003, 1.122789e+004
1.083273e+003, 1.124180e+004
1.083755e+003, 1.126752e+004
1.084237e+003, 1.129488e+004
1.084720e+003, 1.131289e+004
1.085202e+003, 1.132310e+004
1.085684e+003, 1.133186e+004
1.086166e+003, 1.134032e+004
1.086648e+003, 1.135183e+004
1.087130e+003, 1.137379e+004
1.087612e+003, 1.139166e+004
1.088094e+003, 1.139399e+004
1.088577e+003, 1.139229e+004
1.089059e+003, 1.139866e+004
1.089541e+003, 1.140936e+004
1.090023e+003, 1.141198e+004
1.090505e+003, 1.140401e+004
1.090987e+003, 1.140582e+004
1.091469e+003, 1.143625e+004
1.091951e+003, 1.146332e+004
1.092433e+003, 1.146989e+004
1.092916e+003, 1.147134e+004
1.093398e+003, 1.147978e+004
1.093880e+003, 1.149173e+004
1.094362e+003, 1.149848e+004
1.094844e+003, 1.149953e+004
1.095326e+003, 1.150557e+004
1.095808e+003, 1.152345e+004
1.096290e+003, 1.154170e+004
1.096772e+003, 1.155928e+004
1.097255e+003, 1.157318e+004
1.097737e+003, 1.157710e+004
1.098219e+003, 1.157898e+004
1.098701e+003, 1.159197e+004
1.099183e+003, 1.161455e+004
1.099665e+003, 1.162923e+004
1.100147e+003, 1.162657e+004
1.100629e+003, 1.162695e+004
1.101112e+003, 1.163693e+004
1.101594e+003, 1.164941e+004
1.102076e+003, 1.166120e+004
1.102558e+003, 1.167350e+004
1.103040e+003, 1.168807e+004
1.103522e+003, 1.170439e+004
1.104004e+003, 1.172047e+004
1.104486e+003, 1.173652e+004
1.104969e+003, 1.175071e+004
1.105451e+003, 1.176452e+004
1.105933e+003, 1.177396e+004
1.106415e+003, 1.176884e+004
1.106897e+003, 1.176689e+004
1.107379e+003, 1.178791e+004
1.107861e+003, 1.182203e+004
1.108343e+003, 1.184388e+004
1.108825e+003, 1.184941e+004
1.109307e+003, 1.185561e+004
1.109790e+003, 1.186191e+004
1.110272e+003, 1.187186e+004
1.110754e+003, 1.189236e+004
1.111236e+003, 1.191017e+004
1.111718e+003, 1.191526e+004
1.112200e+003, 1.191366e+004
1.112682e+003, 1.191372e+004
1.113164e+003, 1.191539e+004
1.113647e+003, 1.192370e+004
1.114129e+003, 1.194483e+004
1.114611e+003, 1.196250e+004
1.115093e+003, 1.197569e+004
1.115575e+003, 1.198513e+004
1.116057e+003, 1.198861e+004
1.116539e+003, 1.199080e+004
1.117021e+003, 1.199628e+004
1.117504e+003, 1.200517e+004
1.117986e+003, 1.201879e+004
1.118468e+003, 1.204022e+004
1.118950e+003, 1.205874e+004
1.119432e+003, 1.207371e+004
1.119914e+003, 1.208644e+004
1.120396e+003, 1.209588e+004
1.120878e+003, 1.210563e+004
1.121360e+003, 1.211908e+004
1.121843e+003, 1.213512e+004
1.122325e+003, 1.215033e+004
1.122807e+003, 1.216449e+004
1.123289e+003, 1.218017e+004
1.123771e+003, 1.219994e+004
1.124253e+003, 1.221174e+004
1.124735e+003, 1.220997e+004
1.125217e+003, 1.220938e+004
1.125699e+003, 1.221988e+004
1.126182e+003, 1.223583e+004
1.126664e+003, 1.224708e+004
1.127146e+003, 1.225413e+004
1.127628e+003, 1.226733e+004
1.128110e+003, 1.228736e+004
1.128592e+003, 1.230698e+004
1.129074e+003, 1.232546e+004
1.129556e+003, 1.234021e+004
1.130039e+003, 1.234950e+004
1.130521e+003, 1.235673e+004
1.131003e+003, 1.236510e+004
1.131485e+003, 1.237539e+004
1.131967e+003, 1.239194e+004
1.132449e+003, 1.241414e+004
1.132931e+003, 1.243013e+004
1.133413e+003, 1.243957e+004
1.133896e+003, 1.245278e+004
1.134378e+003, 1.247291e+004
1.134860e+003, 1.248940e+004
1.135342e+003, 1.249330e+004
1.135824e+003, 1.249266e+004
1.136306e+003, 1.250266e+004
1.136788e+003, 1.252053e+004
1.137270e+003, 1.253590e+004
1.137752e+003, 1.254906e+004
1.138234e+003, 1.256238e+004
1.138717e+003, 1.257623e+004
1.139199e+003, 1.258929e+004
1.139681e+003, 1.260096e+004
1.140163e+003, 1.261289e+004
1.140645e+003, 1.262808e+004
1.141127e+003, 1.264400e+004
1.141609e+003, 1.265554e+004
1.142091e+003, 1.266453e+004
1.142574e+003, 1.267526e+004
1.143056e+003, 1.268736e+004
1.143538e+003, 1.269745e+004
1.144020e+003, 1.270482e+004
1.144502e+003, 1.271281e+004
1.144984e+003, 1.272389e+004
1.145466e+003, 1.273643e+004
1.145948e+003, 1.274822e+004
1.146431e+003, 1.276086e+004
1.146913e+003, 1.277647e+004
1.147395e+003, 1.279440e+004
1.147877e+003, 1.281569e+004
1.148359e+003, 1.283821e+004
1.148841e+003, 1.285301e+004
1.149323e+003, 1.285488e+004
1.149805e+003, 1.285781e+004
1.150287e+003, 1.287051e+004
1.150770e+003, 1.288753e+004
1.151252e+003, 1.290974e+004
1.151734e+003, 1.293028e+004
1.152216e+003, 1.294010e+004
1.152698e+003, 1.294278e+004
1.153180e+003, 1.294705e+004
1.153662e+003, 1.295482e+004
1.154144e+003, 1.296562e+004
1.154626e+003, 1.298374e+004
1.155109e+003, 1.299872e+004
1.155591e+003, 1.300168e+004
1.156073e+003, 1.300651e+004
1.156555e+003, 1.302465e+004
1.157037e+003, 1.304804e+004
1.157519e+003, 1.306592e+004
1.158001e+003, 1.307853e+004
1.158483e+003, 1.309252e+004
1.158966e+003, 1.311104e+004
1.159448e+003, 1.312573e+004
1.159930e+003, 1.313149e+004
1.160412e+003, 1.313974e+004
1.160894e+003, 1.315497e+004
1.161376e+003, 1.317215e+004
1.161858e+003, 1.318936e+004
1.162340e+003, 1.320473e+004
1.162822e+003, 1.321312e+004
1.163305e+003, 1.321338e+004
1.163787e+003, 1.321926e+004
1.164269e+003, 1.323165e+004
1.164751e+003, 1.324775e+004
1.165233e+003, 1.326914e+004
1.165715e+003, 1.328829e+004
1.166197e+003, 1.330142e+004
1.166679e+003, 1.331105e+004
1.167161e+003, 1.331925e+004
1.167644e+003, 1.332735e+004
1.168126e+003, 1.334215e+004
1.168608e+003, 1.336400e+004
1.169090e+003, 1.337926e+004
1.169572e+003, 1.338693e+004
1.170054e+003, 1.340300e+004
1.170536e+003, 1.343194e+004
1.171018e+003, 1.345977e+004
1.171500e+003, 1.347673e+004
1.171983e+003, 1.348804e+004
1.172465e+003, 1.350252e+004
1.172947e+003, 1.351811e+004
1.173429e+003, 1.352582e+004
1.173911e+003, 1.352863e+004
1.174393e+003, 1.353914e+004
1.174875e+003, 1.355721e+004
1.175357e+003, 1.357224e+004
1.175840e+003, 1.358077e+004
1.176322e+003, 1.359172e+004
1.176804e+003, 1.361453e+004
1.177286e+003, 1.363887e+004
1.177768e+003, 1.364964e+004
1.178250e+003, 1.365543e+004
1.178732e+003, 1.366913e+004
1.179214e+003, 1.368760e+004
1.179697e+003, 1.370393e+004
1.180179e+003, 1.371677e+004
1.180661e+003, 1.372684e+004
1.181143e+003, 1.373425e+004
1.181625e+003, 1.374006e+004
1.182107e+003, 1.374263e+004
1.182589e+003, 1.374647e+004
1.183071e+003, 1.375276e+004
1.183553e+003, 1.376327e+004
1.184036e+003, 1.378511e+004
1.184518e+003, 1.381000e+004
1.185000e+003, 1.382063e+004
1.185482e+003, 1.381560e+004
1.185964e+003, 1.381634e+004
1.186446e+003, 1.382875e+004
1.186928e+003, 1.384569e+004
1.187410e+003, 1.387264e+004
1.187892e+003, 1.389581e+004
1.188375e+003, 1.390981e+004
1.188857e+003, 1.391697e+004
1.189339e+003, 1.391346e+004
1.189821e+003, 1.390665e+004
1.190303e+003, 1.392010e+004
1.190785e+003, 1.395998e+004
1.191267e+003, 1.398266e+004
1.191749e+003, 1.398057e+004
1.192232e+003, 1.398240e+004
1.192714e+003, 1.399361e+004
1.193196e+003, 1.400527e+004
1.193678e+003, 1.401114e+004
1.194160e+003, 1.402081e+004
1.194642e+003, 1.404794e+004
1.195124e+003, 1.408613e+004
1.195606e+003, 1.410895e+004
1.196089e+003, 1.411701e+004
1.196571e+003, 1.412983e+004
1.197053e+003, 1.414760e+004
1.197535e+003, 1.415454e+004
1.198017e+003, 1.414759e+004
1.198499e+003, 1.414724e+004
1.198981e+003, 1.416663e+004
1.199463e+003, 1.419267e+004
1.199945e+003, 1.420775e+004
1.200427e+003, 1.421740e+004
1.200910e+003, 1.423308e+004
1.201392e+003, 1.425202e+004
1.201874e+003, 1.426977e+004
1.202356e+003, 1.428480e+004
1.202838e+003, 1.429361e+004
1.203320e+003, 1.429625e+004
1.203802e+003, 1.429946e+004
1.204284e+003, 1.430688e+004
1.204767e+003, 1.431677e+004
1.205249e+003, 1.432757e+004
1.205731e+003, 1.434049e+004
1.206213e+003, 1.435807e+004
1.206695e+003, 1.437715e+004
1.207177e+003, 1.439497e+004
1.207659e+003, 1.441085e+004
1.208141e+003, 1.442381e+004
1.208624e+003, 1.443341e+004
1.209106e+003, 1.444359e+004
1.209588e+003, 1.445561e+004
1.210070e+003, 1.446778e+004
1.210552e+003, 1.447799e+004
1.211034e+003, 1.449048e+004
1.211516e+003, 1.450902e+004
1.211998e+003, 1.452946e+004
1.212480e+003, 1.454989e+004
1.212963e+003, 1.456821e+004
1.213445e+003, 1.457478e+004
1.213927e+003, 1.456427e+004
1.214409e+003, 1.456971e+004
1.214891e+003, 1.459640e+004
1.215373e+003, 1.461793e+004
1.215855e+003, 1.462971e+004
1.216337e+003, 1.463291e+004
1.216819e+003, 1.462651e+004
1.217302e+003, 1.462085e+004
1.217784e+003, 1.462923e+004
1.218266e+003, 1.464748e+004
1.218748e+003, 1.466443e+004
1.219230e+003, 1.467946e+004
1.219712e+003, 1.468729e+004
1.220194e+003, 1.468936e+004
1.220676e+003, 1.469252e+004
1.221159e+003, 1.469889e+004
1.221641e+003, 1.471009e+004
1.222123e+003, 1.472722e+004
1.222605e+003, 1.474498e+004
1.223087e+003, 1.475519e+004
1.223569e+003, 1.476594e+004
1.224051e+003, 1.478906e+004
1.224533e+003, 1.481611e+004
1.225016e+003, 1.483425e+004
1.225498e+003, 1.484762e+004
1.225980e+003, 1.486824e+004
1.226462e+003, 1.489578e+004
1.226944e+003, 1.491561e+004
1.227426e+003, 1.491799e+004
1.227908e+003, 1.492529e+004
1.228390e+003, 1.495297e+004
1.228872e+003, 1.497654e+004
1.229354e+003, 1.498111e+004
1.229837e+003, 1.498217e+004
1.230319e+003, 1.499111e+004
1.230801e+003, 1.500555e+004
1.231283e+003, 1.502124e+004
1.231765e+003, 1.503824e+004
1.232247e+003, 1.505351e+004
1.232729e+003, 1.506734e+004
1.233211e+003, 1.507882e+004
1.233694e+003, 1.508724e+004
1.234176e+003, 1.509668e+004
1.234658e+003, 1.510900e+004
1.235140e+003, 1.512018e+004
1.235622e+003, 1.512724e+004
1.236104e+003, 1.513199e+004
1.236586e+003, 1.513656e+004
1.237068e+003, 1.514191e+004
1.237551e+003, 1.515314e+004
1.238033e+003, 1.516879e+004
1.238515e+003, 1.518250e+004
1.238997e+003, 1.519417e+004
1.239479e+003, 1.520796e+004
1.239961e+003, 1.522453e+004
1.240443e+003, 1.523899e+004
1.240925e+003, 1.524782e+004
1.241407e+003, 1.525609e+004
1.241890e+003, 1.526916e+004
1.242372e+003, 1.528359e+004
1.242854e+003, 1.529562e+004
1.243336e+003, 1.530750e+004
1.243818e+003, 1.532238e+004
1.244300e+003, 1.533948e+004
1.244782e+003, 1.535657e+004
1.245264e+003, 1.537335e+004
1.245746e+003, 1.539037e+004
1.246229e+003, 1.541088e+004
1.246711e+003, 1.542575e+004
1.247193e+003, 1.542632e+004
1.247675e+003, 1.543071e+004
1.248157e+003, 1.544656e+004
1.248639e+003, 1.546627e+004
1.249121e+003, 1.548466e+004
1.249603e+003, 1.550334e+004
1.250085e+003, 1.552623e+004
1.250568e+003, 1.555268e+004
1.251050e+003, 1.557231e+004
1.251532e+003, 1.558437e+004
1.252014e+003, 1.559631e+004
1.252496e+003, 1.560858e+004
1.252978e+003, 1.562533e+004
1.253460e+003, 1.564779e+004
1.253942e+003, 1.566949e+004
1.254425e+003, 1.568578e+004
1.254907e+003, 1.570015e+004
1.255389e+003, 1.571776e+004
1.255871e+003, 1.573623e+004
1.256353e+003, 1.575131e+004
1.256835e+003, 1.576363e+004
1.257317e+003, 1.576986e+004
1.257799e+003, 1.577539e+004
1.258281e+003, 1.579613e+004
1.258764e+003, 1.583164e+004
1.259246e+003, 1.585938e+004
1.259728e+003, 1.586690e+004
1.260210e+003, 1.587688e+004
1.260692e+003, 1.590740e+004
1.261174e+003, 1.593306e+004
1.261656e+003, 1.593446e+004
1.262138e+003, 1.593399e+004
1.262620e+003, 1.594885e+004
1.263103e+003, 1.597332e+004
1.263585e+003, 1.599904e+004
1.264067e+003, 1.602522e+004
1.264549e+003, 1.604493e+004
1.265031e+003, 1.605516e+004
1.265513e+003, 1.606860e+004
1.265995e+003, 1.608559e+004
1.266477e+003, 1.610432e+004
1.266960e+003, 1.612508e+004
1.267442e+003, 1.614232e+004
1.267924e+003, 1.615292e+004
1.268406e+003, 1.615825e+004
1.268888e+003, 1.615725e+004
1.269370e+003, 1.615769e+004
1.269852e+003, 1.618223e+004
1.270334e+003, 1.622057e+004
1.270817e+003, 1.624963e+004
1.271299e+003, 1.626880e+004
1.271781e+003, 1.627786e+004
1.272263e+003, 1.628008e+004
1.272745e+003, 1.628613e+004
1.273227e+003, 1.630012e+004
1.273709e+003, 1.631237e+004
1.274191e+003, 1.630995e+004
1.274673e+003, 1.631459e+004
1.275156e+003, 1.633988e+004
1.275638e+003, 1.637282e+004
1.276120e+003, 1.640923e+004
1.276602e+003, 1.644504e+004
1.277084e+003, 1.647924e+004
1.277566e+003, 1.650884e+004
1.278048e+003, 1.652316e+004
1.278530e+003, 1.651957e+004
1.279012e+003, 1.652602e+004
1.279495e+003, 1.654374e+004
1.279977e+003, 1.656474e+004
1.280459e+003, 1.658981e+004
1.280941e+003, 1.661368e+004
1.281423e+003, 1.663436e+004
1.281905e+003, 1.665286e+004
1.282387e+003, 1.667026e+004
1.282869e+003, 1.668589e+004
1.283352e+003, 1.669831e+004
1.283834e+003, 1.670643e+004
1.284316e+003, 1.670662e+004
1.284798e+003, 1.669969e+004
##END=



